Data from USB4F104151__61__11-30-48-911.txt Node

Date: Fri Mar 14 11:30:48 EDT 2025
User: louis
Spectrometer: USB4F10415
Trigger mode: 4
Integration Time (sec): 5.000000E-2
Scans to average: 1
Electric dark correction enabled: true
Nonlinearity correction enabled: false
Boxcar width: 0
XAxis mode: Wavelengths
Number of Pixels in Spectrum: 3648
>>>>>Begin Spectral Data<<<<<
178.204	-70.14
178.424	-70.14
178.644	-70.14
178.864	-94.72
179.084	-102.91
179.304	-16.9
179.524	-4.61
179.744	26.11
179.964	60.93
180.184	-49.66
180.404	11.78
180.624	-12.8
180.844	-0.51
181.064	-119.29
181.283	19.97
181.503	19.97
181.723	65.02
181.943	-64
182.163	87.55
182.383	-39.42
182.602	28.16
182.822	77.31
183.042	110.08
183.262	11.78
183.482	11.78
183.701	89.6
183.921	65.02
184.141	91.65
184.361	118.27
184.58	73.21
184.8	93.69
185.02	28.16
185.239	42.5
185.459	52.74
185.679	146.94
185.898	30.21
186.118	77.31
186.338	99.84
186.557	77.31
186.777	-25.09
186.997	65.02
187.216	-0.51
187.436	56.83
187.655	175.61
187.875	85.5
188.095	85.5
188.314	83.45
188.534	110.08
188.753	105.98
188.973	99.84
189.192	159.23
189.412	67.07
189.631	26.11
189.851	52.74
190.07	36.35
190.29	28.16
190.509	73.21
190.729	3.58
190.948	118.27
191.168	286.2
191.387	28.16
191.607	30.21
191.826	67.07
192.045	-14.85
192.265	48.64
192.484	-8.7
192.704	15.87
192.923	-31.23
193.142	108.03
193.362	32.26
193.581	56.83
193.8	75.26
194.02	56.83
194.239	26.11
194.458	13.82
194.678	52.74
194.897	-37.38
195.116	81.41
195.335	60.93
195.555	65.02
195.774	95.74
195.993	60.93
196.212	52.74
196.432	36.35
196.651	105.98
196.87	-4.61
197.089	116.22
197.308	-2.56
197.528	7.68
197.747	-33.28
197.966	58.88
198.185	118.27
198.404	-35.33
198.623	36.35
198.842	97.79
199.062	60.93
199.281	44.54
199.5	65.02
199.719	5.63
199.938	44.54
200.157	134.65
200.376	89.6
200.595	30.21
200.814	85.5
201.033	56.83
201.252	1.54
201.471	65.02
201.69	54.78
201.909	108.03
202.128	-14.85
202.347	56.83
202.566	44.54
202.785	36.35
203.004	36.35
203.223	132.61
203.442	112.13
203.661	-12.8
203.879	-31.23
204.098	173.57
204.317	32.26
204.536	69.12
204.755	26.11
204.974	148.99
205.193	3.58
205.411	130.56
205.63	116.22
205.849	62.98
206.068	52.74
206.287	48.64
206.505	36.35
206.724	110.08
206.943	36.35
207.162	44.54
207.381	52.74
207.599	48.64
207.818	11.78
208.037	11.78
208.255	83.45
208.474	50.69
208.693	99.84
208.911	-2.56
209.13	65.02
209.349	73.21
209.567	79.36
209.786	17.92
210.005	36.35
210.223	56.83
210.442	36.35
210.661	89.6
210.879	44.54
211.098	-4.61
211.316	9.73
211.535	93.69
211.753	71.17
211.972	126.46
212.191	50.69
212.409	40.45
212.628	77.31
212.846	48.64
213.065	93.69
213.283	44.54
213.502	114.17
213.72	146.94
213.938	40.45
214.157	58.88
214.375	71.17
214.594	58.88
214.812	1.54
215.031	67.07
215.249	11.78
215.467	5.63
215.686	44.54
215.904	91.65
216.122	95.74
216.341	110.08
216.559	50.69
216.778	46.59
216.996	77.31
217.214	3.58
217.432	40.45
217.651	81.41
217.869	99.84
218.087	65.02
218.306	24.06
218.524	97.79
218.742	62.98
218.96	50.69
219.179	-33.28
219.397	75.26
219.615	134.65
219.833	24.06
220.051	30.21
220.27	103.93
220.488	77.31
220.706	56.83
220.924	3.58
221.142	-6.66
221.36	46.59
221.578	69.12
221.796	26.11
222.015	1.54
222.233	42.5
222.451	48.64
222.669	-23.04
222.887	167.42
223.105	-20.99
223.323	52.74
223.541	13.82
223.759	5.63
223.977	60.93
224.195	155.13
224.413	93.69
224.631	175.61
224.849	81.41
225.067	144.89
225.285	3.58
225.503	85.5
225.721	34.3
225.939	40.45
226.157	7.68
226.375	110.08
226.592	-12.8
226.81	36.35
227.028	73.21
227.246	181.76
227.464	11.78
227.682	26.11
227.9	56.83
228.117	-20.99
228.335	32.26
228.553	85.5
228.771	75.26
228.989	56.83
229.206	56.83
229.424	3.58
229.642	77.31
229.86	3.58
230.077	-4.61
230.295	118.27
230.513	42.5
230.731	118.27
230.948	99.84
231.166	36.35
231.384	-27.14
231.601	65.02
231.819	30.21
232.037	91.65
232.254	34.3
232.472	36.35
232.689	-18.94
232.907	56.83
233.125	44.54
233.342	-37.38
233.56	28.16
233.777	52.74
233.995	52.74
234.213	120.32
234.43	108.03
234.648	44.54
234.865	89.6
235.083	101.89
235.3	24.06
235.518	36.35
235.735	85.5
235.953	85.5
236.17	48.64
236.388	24.06
236.605	-29.18
236.822	48.64
237.04	81.41
237.257	36.35
237.475	-55.81
237.692	56.83
237.909	89.6
238.127	75.26
238.344	48.64
238.562	40.45
238.779	-29.18
238.996	67.07
239.214	110.08
239.431	81.41
239.648	46.59
239.865	28.16
240.083	36.35
240.3	46.59
240.517	36.35
240.735	48.64
240.952	81.41
241.169	28.16
241.386	58.88
241.603	97.79
241.821	7.68
242.038	60.93
242.255	48.64
242.472	-12.8
242.689	-20.99
242.907	69.12
243.124	36.35
243.341	-0.51
243.558	38.4
243.775	-6.66
243.992	36.35
244.209	32.26
244.426	128.51
244.643	134.65
244.86	75.26
245.078	108.03
245.295	44.54
245.512	101.89
245.729	93.69
245.946	36.35
246.163	52.74
246.38	-6.66
246.597	40.45
246.814	9.73
247.031	91.65
247.248	36.35
247.464	105.98
247.681	22.02
247.898	81.41
248.115	52.74
248.332	11.78
248.549	56.83
248.766	103.93
248.983	157.18
249.2	7.68
249.417	132.61
249.633	69.12
249.85	95.74
250.067	13.82
250.284	-0.51
250.501	30.21
250.717	83.45
250.934	42.5
251.151	77.31
251.368	85.5
251.585	99.84
251.801	58.88
252.018	7.68
252.235	105.98
252.451	24.06
252.668	67.07
252.885	30.21
253.102	108.03
253.318	75.26
253.535	-16.9
253.752	9.73
253.968	40.45
254.185	-16.9
254.401	77.31
254.618	26.11
254.835	93.69
255.051	142.85
255.268	67.07
255.484	24.06
255.701	3.58
255.917	24.06
256.134	50.69
256.351	83.45
256.567	56.83
256.784	50.69
257	32.26
257.217	108.03
257.433	85.5
257.65	62.98
257.866	136.7
258.082	-0.51
258.299	24.06
258.515	24.06
258.732	36.35
258.948	26.11
259.165	9.73
259.381	22.02
259.597	52.74
259.814	7.68
260.03	58.88
260.246	58.88
260.463	54.78
260.679	93.69
260.895	-23.04
261.112	93.69
261.328	19.97
261.544	52.74
261.761	87.55
261.977	11.78
262.193	7.68
262.409	38.4
262.626	114.17
262.842	112.13
263.058	85.5
263.274	50.69
263.49	114.17
263.707	99.84
263.923	128.51
264.139	9.73
264.355	48.64
264.571	85.5
264.787	56.83
265.004	75.26
265.22	67.07
265.436	40.45
265.652	56.83
265.868	19.97
266.084	-35.33
266.3	89.6
266.516	36.35
266.732	67.07
266.948	-10.75
267.164	118.27
267.38	36.35
267.596	-4.61
267.812	173.57
268.028	77.31
268.244	73.21
268.46	-12.8
268.676	48.64
268.892	77.31
269.108	77.31
269.324	3.58
269.54	73.21
269.756	52.74
269.972	-51.71
270.188	60.93
270.403	26.11
270.619	97.79
270.835	46.59
271.051	99.84
271.267	42.5
271.483	36.35
271.698	30.21
271.914	75.26
272.13	93.69
272.346	24.06
272.562	105.98
272.777	52.74
272.993	26.11
273.209	73.21
273.425	60.93
273.64	3.58
273.856	77.31
274.072	114.17
274.287	17.92
274.503	81.41
274.719	105.98
274.934	52.74
275.15	3.58
275.366	54.78
275.581	9.73
275.797	38.4
276.012	77.31
276.228	3.58
276.444	34.3
276.659	69.12
276.875	42.5
277.09	38.4
277.306	108.03
277.521	124.41
277.737	24.06
277.952	56.83
278.168	46.59
278.383	54.78
278.599	36.35
278.814	79.36
279.03	26.11
279.245	110.08
279.461	81.41
279.676	56.83
279.892	40.45
280.107	15.87
280.322	-14.85
280.538	58.88
280.753	46.59
280.969	75.26
281.184	11.78
281.399	148.99
281.615	22.02
281.83	42.5
282.045	50.69
282.26	89.6
282.476	36.35
282.691	138.75
282.906	32.26
283.122	75.26
283.337	38.4
283.552	87.55
283.767	28.16
283.983	97.79
284.198	11.78
284.413	101.89
284.628	-4.61
284.843	17.92
285.058	99.84
285.274	5.63
285.489	50.69
285.704	134.65
285.919	42.5
286.134	15.87
286.349	-53.76
286.564	65.02
286.779	171.52
286.995	81.41
287.21	-20.99
287.425	58.88
287.64	60.93
287.855	56.83
288.07	19.97
288.285	26.11
288.5	89.6
288.715	83.45
288.93	91.65
289.145	81.41
289.36	93.69
289.575	48.64
289.79	124.41
290.004	50.69
290.219	69.12
290.434	32.26
290.649	26.11
290.864	7.68
291.079	19.97
291.294	26.11
291.509	36.35
291.724	105.98
291.938	77.31
292.153	87.55
292.368	3.58
292.583	42.5
292.798	56.83
293.012	52.74
293.227	48.64
293.442	26.11
293.657	81.41
293.871	75.26
294.086	58.88
294.301	132.61
294.516	73.21
294.73	36.35
294.945	60.93
295.16	151.04
295.374	126.46
295.589	69.12
295.804	65.02
296.018	15.87
296.233	62.98
296.447	81.41
296.662	42.5
296.877	7.68
297.091	85.5
297.306	56.83
297.52	-12.8
297.735	56.83
297.949	81.41
298.164	85.5
298.378	-14.85
298.593	11.78
298.807	5.63
299.022	15.87
299.236	110.08
299.451	73.21
299.665	60.93
299.88	67.07
300.094	116.22
300.309	114.17
300.523	79.36
300.737	32.26
300.952	93.69
301.166	34.3
301.381	19.97
301.595	52.74
301.809	46.59
302.024	5.63
302.238	-37.38
302.452	126.46
302.667	13.82
302.881	17.92
303.095	142.85
303.309	134.65
303.524	58.88
303.738	73.21
303.952	60.93
304.166	79.36
304.381	-20.99
304.595	116.22
304.809	19.97
305.023	3.58
305.237	79.36
305.452	79.36
305.666	17.92
305.88	1.54
306.094	103.93
306.308	91.65
306.522	69.12
306.736	28.16
306.95	101.89
307.164	-8.7
307.379	93.69
307.593	228.86
307.807	38.4
308.021	65.02
308.235	58.88
308.449	26.11
308.663	50.69
308.877	99.84
309.091	108.03
309.305	93.69
309.519	-4.61
309.733	83.45
309.947	60.93
310.161	52.74
310.374	128.51
310.588	81.41
310.802	69.12
311.016	40.45
311.23	130.56
311.444	85.5
311.658	60.93
311.872	65.02
312.085	97.79
312.299	-12.8
312.513	101.89
312.727	62.98
312.941	34.3
313.154	130.56
313.368	89.6
313.582	26.11
313.796	42.5
314.009	3.58
314.223	120.32
314.437	93.69
314.651	71.17
314.864	60.93
315.078	83.45
315.292	7.68
315.505	77.31
315.719	36.35
315.933	9.73
316.146	56.83
316.36	50.69
316.573	110.08
316.787	93.69
317.001	52.74
317.214	28.16
317.428	19.97
317.641	11.78
317.855	7.68
318.068	60.93
318.282	40.45
318.495	97.79
318.709	122.37
318.922	48.64
319.136	97.79
319.349	56.83
319.563	34.3
319.776	9.73
319.99	-45.57
320.203	91.65
320.417	44.54
320.63	108.03
320.843	116.22
321.057	11.78
321.27	62.98
321.483	122.37
321.697	148.99
321.91	3.58
322.124	105.98
322.337	56.83
322.55	103.93
322.763	28.16
322.977	93.69
323.19	13.82
323.403	40.45
323.617	99.84
323.83	34.3
324.043	67.07
324.256	77.31
324.469	-29.18
324.683	134.65
324.896	91.65
325.109	101.89
325.322	-12.8
325.535	-53.76
325.748	75.26
325.962	34.3
326.175	52.74
326.388	62.98
326.601	69.12
326.814	110.08
327.027	69.12
327.24	91.65
327.453	11.78
327.666	77.31
327.879	17.92
328.092	50.69
328.305	91.65
328.518	93.69
328.731	24.06
328.944	60.93
329.157	79.36
329.37	118.27
329.583	95.74
329.796	101.89
330.009	-70.14
330.222	101.89
330.435	97.79
330.648	97.79
330.861	101.89
331.073	101.89
331.286	58.88
331.499	108.03
331.712	19.97
331.925	44.54
332.138	56.83
332.35	116.22
332.563	81.41
332.776	108.03
332.989	56.83
333.202	50.69
333.414	44.54
333.627	28.16
333.84	-6.66
334.053	40.45
334.265	89.6
334.478	52.74
334.691	36.35
334.903	44.54
335.116	-20.99
335.329	9.73
335.541	101.89
335.754	167.42
335.966	71.17
336.179	73.21
336.392	56.83
336.604	44.54
336.817	83.45
337.029	77.31
337.242	58.88
337.454	44.54
337.667	91.65
337.88	138.75
338.092	83.45
338.305	36.35
338.517	148.99
338.729	91.65
338.942	36.35
339.154	44.54
339.367	56.83
339.579	89.6
339.792	46.59
340.004	99.84
340.217	97.79
340.429	44.54
340.641	9.73
340.854	9.73
341.066	42.5
341.278	77.31
341.491	108.03
341.703	93.69
341.915	34.3
342.128	97.79
342.34	44.54
342.552	83.45
342.764	3.58
342.977	67.07
343.189	110.08
343.401	99.84
343.613	19.97
343.826	85.5
344.038	73.21
344.25	73.21
344.462	81.41
344.674	95.74
344.886	89.6
345.099	122.37
345.311	65.02
345.523	146.94
345.735	-23.04
345.947	101.89
346.159	142.85
346.371	110.08
346.583	65.02
346.795	116.22
347.007	58.88
347.219	105.98
347.431	50.69
347.643	54.78
347.855	85.5
348.067	44.54
348.279	-4.61
348.491	48.64
348.703	67.07
348.915	60.93
349.127	3.58
349.339	65.02
349.551	69.12
349.763	28.16
349.975	75.26
350.187	114.17
350.399	134.65
350.61	97.79
350.822	60.93
351.034	91.65
351.246	95.74
351.458	69.12
351.669	58.88
351.881	28.16
352.093	101.89
352.305	171.52
352.517	126.46
352.728	67.07
352.94	75.26
353.152	101.89
353.363	93.69
353.575	60.93
353.787	40.45
353.999	38.4
354.21	167.42
354.422	75.26
354.633	17.92
354.845	69.12
355.057	105.98
355.268	87.55
355.48	118.27
355.692	52.74
355.903	118.27
356.115	46.59
356.326	73.21
356.538	136.7
356.749	179.71
356.961	118.27
357.172	114.17
357.384	15.87
357.595	161.28
357.807	69.12
358.018	73.21
358.23	153.09
358.441	85.5
358.653	85.5
358.864	130.56
359.075	15.87
359.287	151.04
359.498	89.6
359.709	3.58
359.921	32.26
360.132	67.07
360.344	89.6
360.555	-20.99
360.766	44.54
360.977	101.89
361.189	97.79
361.4	54.78
361.611	110.08
361.823	128.51
362.034	93.69
362.245	28.16
362.456	67.07
362.667	134.65
362.879	67.07
363.09	36.35
363.301	114.17
363.512	52.74
363.723	24.06
363.935	-31.23
364.146	99.84
364.357	19.97
364.568	130.56
364.779	83.45
364.99	50.69
365.201	69.12
365.412	110.08
365.623	91.65
365.834	75.26
366.045	36.35
366.256	128.51
366.467	44.54
366.678	62.98
366.889	91.65
367.1	60.93
367.311	118.27
367.522	83.45
367.733	120.32
367.944	110.08
368.155	7.68
368.366	34.3
368.577	67.07
368.788	126.46
368.999	69.12
369.209	77.31
369.42	132.61
369.631	155.13
369.842	124.41
370.053	163.33
370.264	-16.9
370.474	3.58
370.685	83.45
370.896	62.98
371.107	83.45
371.317	69.12
371.528	26.11
371.739	171.52
371.95	67.07
372.16	83.45
372.371	1.54
372.582	103.93
372.792	50.69
373.003	101.89
373.214	36.35
373.424	118.27
373.635	17.92
373.846	146.94
374.056	19.97
374.267	69.12
374.477	93.69
374.688	-12.8
374.898	60.93
375.109	30.21
375.319	118.27
375.53	48.64
375.74	114.17
375.951	56.83
376.161	110.08
376.372	138.75
376.582	83.45
376.793	28.16
377.003	3.58
377.214	30.21
377.424	114.17
377.635	108.03
377.845	69.12
378.055	138.75
378.266	26.11
378.476	19.97
378.686	116.22
378.897	118.27
379.107	48.64
379.317	60.93
379.528	108.03
379.738	75.26
379.948	69.12
380.158	171.52
380.369	36.35
380.579	116.22
380.789	65.02
380.999	69.12
381.21	165.37
381.42	99.84
381.63	81.41
381.84	52.74
382.05	163.33
382.261	110.08
382.471	122.37
382.681	85.5
382.891	132.61
383.101	73.21
383.311	85.5
383.521	110.08
383.731	44.54
383.941	132.61
384.151	44.54
384.361	-6.66
384.571	93.69
384.781	93.69
384.991	103.93
385.201	69.12
385.411	50.69
385.621	118.27
385.831	95.74
386.041	56.83
386.251	93.69
386.461	116.22
386.671	103.93
386.881	30.21
387.091	91.65
387.301	75.26
387.511	56.83
387.72	85.5
387.93	28.16
388.14	40.45
388.35	67.07
388.56	167.42
388.769	58.88
388.979	122.37
389.189	22.02
389.399	134.65
389.609	69.12
389.818	130.56
390.028	155.13
390.238	83.45
390.447	24.06
390.657	67.07
390.867	77.31
391.076	40.45
391.286	89.6
391.496	110.08
391.705	75.26
391.915	206.33
392.125	155.13
392.334	81.41
392.544	134.65
392.753	93.69
392.963	44.54
393.172	3.58
393.382	128.51
393.591	71.17
393.801	91.65
394.01	124.41
394.22	124.41
394.429	85.5
394.639	34.3
394.848	69.12
395.058	142.85
395.267	146.94
395.477	48.64
395.686	85.5
395.895	192
396.105	218.62
396.314	151.04
396.524	116.22
396.733	179.71
396.942	167.42
397.152	124.41
397.361	132.61
397.57	42.5
397.78	85.5
397.989	148.99
398.198	130.56
398.407	173.57
398.617	126.46
398.826	175.61
399.035	114.17
399.244	161.28
399.453	97.79
399.663	173.57
399.872	208.38
400.081	124.41
400.29	171.52
400.499	77.31
400.708	173.57
400.917	126.46
401.127	112.13
401.336	210.43
401.545	153.09
401.754	132.61
401.963	155.13
402.172	103.93
402.381	93.69
402.59	112.13
402.799	142.85
403.008	151.04
403.217	181.76
403.426	159.23
403.635	167.42
403.844	148.99
404.053	153.09
404.262	134.65
404.471	187.9
404.68	134.65
404.888	163.33
405.097	245.24
405.306	112.13
405.515	196.09
405.724	165.37
405.933	222.72
406.142	218.62
406.35	212.48
406.559	208.38
406.768	239.1
406.977	294.4
407.185	237.05
407.394	294.4
407.603	241.15
407.812	253.44
408.02	288.25
408.229	257.53
408.438	216.57
408.646	222.72
408.855	331.26
409.064	284.16
409.272	296.44
409.481	282.11
409.69	361.98
409.898	310.78
410.107	343.55
410.315	372.22
410.524	355.83
410.733	396.79
410.941	359.93
411.15	435.71
411.358	423.42
411.567	415.23
411.775	437.75
411.984	413.18
412.192	503.29
412.401	527.86
412.609	558.58
412.818	538.1
413.026	566.78
413.234	550.39
413.443	540.15
413.651	642.55
413.86	683.51
414.068	671.22
414.276	703.99
414.485	695.8
414.693	716.28
414.901	845.3
415.11	761.33
415.318	771.57
415.526	787.96
415.734	878.07
415.943	880.11
416.151	929.27
416.359	976.37
416.567	935.41
416.776	900.59
416.984	1132.01
417.192	1058.29
417.4	1054.19
417.608	949.75
417.817	1033.71
418.025	1222.13
418.233	1281.52
418.441	1175.02
418.649	1302
418.857	1355.24
419.065	1453.55
419.273	1363.44
419.481	1437.16
419.689	1492.46
419.897	1568.23
420.105	1629.67
420.313	1613.29
420.521	1754.6
420.729	1793.51
420.937	1863.14
421.145	1916.39
421.353	1945.06
421.561	2041.31
421.769	2102.75
421.977	2151.9
422.185	2244.06
422.393	2368.99
422.601	2483.67
422.809	2627.03
423.017	2487.77
423.224	2711
423.432	2639.32
423.64	2760.15
423.848	2919.89
424.056	2885.08
424.263	3085.78
424.471	3087.82
424.679	3075.54
424.887	3169.74
425.094	3349.96
425.302	3542.47
425.51	3562.95
425.718	3696.07
425.925	3743.17
426.133	3784.13
426.341	4007.36
426.548	4251.07
426.756	4222.4
426.964	4234.69
427.171	4488.64
427.379	4699.58
427.586	4664.76
427.794	4961.72
428.001	4851.13
428.209	5180.85
428.417	5141.94
428.624	5631.4
428.832	5610.92
429.039	5709.22
429.247	5635.5
429.454	6139.3
429.662	6464.93
429.869	6002.08
430.076	6516.12
430.284	6243.74
430.491	6735.26
430.699	7032.21
430.906	7030.16
431.114	7026.07
431.321	7361.94
431.528	7646.6
431.736	7966.09
431.943	8455.55
432.15	8203.65
432.358	8093.06
432.565	8572.29
432.772	8861.05
432.979	9082.23
433.187	9172.34
433.394	9231.73
433.601	9874.79
433.808	9979.24
434.016	9665.9
434.223	10282.34
434.43	10866.01
434.637	10618.21
434.844	11203.93
435.052	11584.85
435.259	11595.09
435.466	11797.84
435.673	11275.6
435.88	12275.01
436.087	12795.2
436.294	12956.99
436.501	12379.46
436.708	12698.94
436.915	13385.01
437.122	13884.72
437.329	13813.04
437.537	14253.35
437.743	14513.44
437.95	14484.77
438.157	15140.12
438.364	15293.72
438.571	15412.5
438.778	15588.63
438.985	17071.36
439.192	16358.66
439.399	17151.23
439.606	16760.06
439.813	17747.19
440.02	18564.32
440.227	18494.69
440.433	18029.8
440.64	18705.63
440.847	18382.06
441.054	18996.45
441.261	20024.53
441.467	20042.96
441.674	20745.41
441.881	21114.05
442.088	21075.13
442.294	21030.08
442.501	21554.36
442.708	22054.06
442.914	22670.5
443.121	23682.2
443.328	23395.48
443.534	24671.37
443.741	24124.56
443.948	23811.22
444.154	25570.43
444.361	25410.68
444.568	25695.35
444.774	25492.6
444.981	25814.13
445.187	26723.43
445.394	27688.03
445.6	27196.51
445.807	29674.56
446.013	28822.6
446.22	29084.74
446.426	30317.62
446.633	30653.48
446.839	31382.56
447.046	30741.55
447.252	31953.94
447.459	31702.04
447.665	32082.97
447.871	33356.8
448.078	34665.46
448.284	32873.48
448.491	34118.65
448.697	35038.19
448.903	35873.76
449.11	35881.95
449.316	35333.09
449.522	35849.18
449.728	37092.3
449.935	37073.87
450.141	36918.22
450.347	37901.25
450.553	36725.71
450.76	37012.43
450.966	38368.18
451.172	37737.41
451.378	38851.5
451.584	38364.09
451.791	39009.2
451.997	38718.39
452.203	39611.3
452.409	39254.95
452.615	39152.55
452.821	37977.02
453.027	37274.57
453.233	39500.71
453.44	37925.82
453.646	38269.88
453.852	38212.54
454.058	38730.67
454.264	37522.37
454.47	38382.52
454.676	37172.17
454.882	38593.46
455.088	35226.6
455.294	35986.39
455.5	36256.73
455.705	36402.13
455.911	35353.57
456.117	34606.06
456.323	34212.85
456.529	32259.09
456.735	33971.19
456.941	32828.43
457.147	32345.11
457.352	31196.2
457.558	30989.35
457.764	30948.39
457.97	30450.74
458.176	29852.73
458.381	29697.08
458.587	28011.6
458.793	28218.45
458.999	26823.78
459.204	28521.55
459.41	27991.12
459.616	25859.19
459.821	26287.21
460.027	25652.34
460.233	25625.72
460.438	23950.48
460.644	24261.77
460.85	23397.53
461.055	23170.21
461.261	22871.2
461.466	21056.7
461.672	20391.11
461.878	21898.42
462.083	20534.47
462.289	20284.62
462.494	19856.59
462.7	19139.8
462.905	18502.89
463.111	19420.38
463.316	19391.7
463.522	18887.9
463.727	19014.88
463.932	18760.93
464.138	18672.87
464.343	18703.59
464.549	17939.69
464.754	18777.31
464.959	18631.91
465.165	18504.93
465.37	17675.51
465.575	17466.61
465.781	18201.83
465.986	18326.76
466.191	17442.04
466.397	17122.55
466.602	16272.65
