Data from USB4F104151__33__11-30-10-264.txt Node

Date: Fri Mar 14 11:30:10 EDT 2025
User: louis
Spectrometer: USB4F10415
Trigger mode: 4
Integration Time (sec): 5.000000E-2
Scans to average: 1
Electric dark correction enabled: true
Nonlinearity correction enabled: false
Boxcar width: 0
XAxis mode: Wavelengths
Number of Pixels in Spectrum: 3648
>>>>>Begin Spectral Data<<<<<
178.204	-128.68
178.424	-128.68
178.644	-128.68
178.864	-114.34
179.084	-183.98
179.304	-11.95
179.524	-1.71
179.744	16.73
179.964	39.25
180.184	-16.04
180.404	39.25
180.624	55.64
180.844	14.68
181.064	-50.86
181.283	-67.24
181.503	-73.39
181.723	55.64
181.943	-108.2
182.163	115.03
182.383	-1.71
182.602	53.59
182.822	55.64
183.042	-40.62
183.262	51.54
183.482	47.44
183.701	45.4
183.921	108.88
184.141	26.96
184.361	67.92
184.58	12.63
184.8	31.06
185.02	63.83
185.239	117.08
185.459	35.16
185.679	69.97
185.898	-9.9
186.118	14.68
186.338	6.49
186.557	55.64
186.777	-20.14
186.997	39.25
187.216	53.59
187.436	119.12
187.655	74.07
187.875	94.55
188.095	-13.99
188.314	49.49
188.534	43.35
188.753	-1.71
188.973	84.31
189.192	37.2
189.412	45.4
189.631	43.35
189.851	-9.9
190.07	31.06
190.29	16.73
190.509	31.06
190.729	22.87
190.948	104.79
191.168	174.42
191.387	31.06
191.607	51.54
191.826	14.68
192.045	14.68
192.265	84.31
192.484	18.77
192.704	12.63
192.923	18.77
193.142	53.59
193.362	72.02
193.581	96.6
193.8	14.68
194.02	35.16
194.239	-26.28
194.458	76.12
194.678	-3.75
194.897	49.49
195.116	35.16
195.335	55.64
195.555	90.45
195.774	33.11
195.993	26.96
196.212	47.44
196.432	-5.8
196.651	-18.09
196.87	20.82
197.089	84.31
197.308	110.93
197.528	39.25
197.747	-65.19
197.966	67.92
198.185	88.4
198.404	47.44
198.623	22.87
198.842	63.83
199.062	47.44
199.281	72.02
199.5	80.21
199.719	-5.8
199.938	-11.95
200.157	51.54
200.376	65.88
200.595	72.02
200.814	29.01
201.033	24.92
201.252	110.93
201.471	18.77
201.69	53.59
201.909	55.64
202.128	47.44
202.347	-26.28
202.566	-5.8
202.785	6.49
203.004	39.25
203.223	112.98
203.442	22.87
203.661	47.44
203.879	59.73
204.098	-1.71
204.317	14.68
204.536	31.06
204.755	14.68
204.974	61.78
205.193	31.06
205.411	92.5
205.63	26.96
205.849	67.92
206.068	22.87
206.287	-16.04
206.505	51.54
206.724	88.4
206.943	-18.09
207.162	72.02
207.381	-1.71
207.599	80.21
207.818	-18.09
208.037	8.53
208.255	78.16
208.474	-1.71
208.693	6.49
208.911	4.44
209.13	39.25
209.349	45.4
209.567	108.88
209.786	55.64
210.005	26.96
210.223	24.92
210.442	12.63
210.661	65.88
210.879	47.44
211.098	6.49
211.316	24.92
211.535	47.44
211.753	22.87
211.972	18.77
212.191	92.5
212.409	41.3
212.628	100.69
212.846	14.68
213.065	31.06
213.283	59.73
213.502	-20.14
213.72	63.83
213.938	37.2
214.157	24.92
214.375	33.11
214.594	72.02
214.812	94.55
215.031	55.64
215.249	35.16
215.467	29.01
215.686	92.5
215.904	147.8
216.122	26.96
216.341	41.3
216.559	82.26
216.778	63.83
216.996	84.31
217.214	-22.19
217.432	-26.28
217.651	55.64
217.869	102.74
218.087	41.3
218.306	18.77
218.524	39.25
218.742	-3.75
218.96	45.4
219.179	22.87
219.397	20.82
219.615	88.4
219.833	35.16
220.051	14.68
220.27	53.59
220.488	55.64
220.706	43.35
220.924	67.92
221.142	4.44
221.36	76.12
221.578	88.4
221.796	59.73
222.015	2.39
222.233	59.73
222.451	119.12
222.669	-9.9
222.887	37.2
223.105	-54.95
223.323	80.21
223.541	-20.14
223.759	6.49
223.977	31.06
224.195	57.68
224.413	74.07
224.631	39.25
224.849	22.87
225.067	88.4
225.285	-1.71
225.503	2.39
225.721	-42.67
225.939	43.35
226.157	4.44
226.375	115.03
226.592	63.83
226.81	29.01
227.028	-3.75
227.246	29.01
227.464	14.68
227.682	39.25
227.9	63.83
228.117	80.21
228.335	117.08
228.553	37.2
228.771	-9.9
228.989	141.65
229.206	29.01
229.424	-5.8
229.642	39.25
229.86	86.36
230.077	131.41
230.295	10.58
230.513	65.88
230.731	86.36
230.948	96.6
231.166	88.4
231.384	45.4
231.601	41.3
231.819	37.2
232.037	-3.75
232.254	-26.28
232.472	53.59
232.689	-26.28
232.907	74.07
233.125	-13.99
233.342	-26.28
233.56	4.44
233.777	-18.09
233.995	14.68
234.213	108.88
234.43	82.26
234.648	-34.47
234.865	-42.67
235.083	55.64
235.3	57.68
235.518	37.2
235.735	135.51
235.953	96.6
236.17	14.68
236.388	51.54
236.605	14.68
236.822	86.36
237.04	115.03
237.257	4.44
237.475	22.87
237.692	18.77
237.909	49.49
238.127	26.96
238.344	61.78
238.562	51.54
238.779	-32.43
238.996	-11.95
239.214	10.58
239.431	125.27
239.648	94.55
239.865	-38.57
240.083	45.4
240.3	47.44
240.517	88.4
240.735	-34.47
240.952	119.12
241.169	88.4
241.386	2.39
241.603	112.98
241.821	6.49
242.038	82.26
242.255	-9.9
242.472	51.54
242.689	39.25
242.907	43.35
243.124	49.49
243.341	92.5
243.558	45.4
243.775	-11.95
243.992	31.06
244.209	96.6
244.426	133.46
244.643	-3.75
244.86	76.12
245.078	61.78
245.295	61.78
245.512	39.25
245.729	10.58
245.946	10.58
246.163	45.4
246.38	31.06
246.597	18.77
246.814	-5.8
247.031	-20.14
247.248	84.31
247.464	6.49
247.681	94.55
247.898	6.49
248.115	10.58
248.332	69.97
248.549	119.12
248.766	72.02
248.983	-1.71
249.2	61.78
249.417	67.92
249.633	29.01
249.85	37.2
250.067	24.92
250.284	35.16
250.501	74.07
250.717	39.25
250.934	51.54
251.151	-5.8
251.368	-26.28
251.585	22.87
251.801	55.64
252.018	76.12
252.235	88.4
252.451	-24.23
252.668	-18.09
252.885	90.45
253.102	14.68
253.318	33.11
253.535	31.06
253.752	0.34
253.968	43.35
254.185	14.68
254.401	69.97
254.618	121.17
254.835	29.01
255.051	61.78
255.268	47.44
255.484	88.4
255.701	31.06
255.917	121.17
256.134	59.73
256.351	72.02
256.567	14.68
256.784	26.96
257	-52.91
257.217	22.87
257.433	69.97
257.65	22.87
257.866	45.4
258.082	-44.71
258.299	59.73
258.515	110.93
258.732	0.34
258.948	-50.86
259.165	18.77
259.381	-9.9
259.597	88.4
259.814	-93.87
260.03	-57
260.246	72.02
260.463	35.16
260.679	86.36
260.895	39.25
261.112	80.21
261.328	31.06
261.544	14.68
261.761	63.83
261.977	51.54
262.193	-85.67
262.409	108.88
262.626	-1.71
262.842	20.82
263.058	-22.19
263.274	39.25
263.49	82.26
263.707	67.92
263.923	74.07
264.139	-42.67
264.355	51.54
264.571	106.84
264.787	18.77
265.004	153.94
265.22	10.58
265.436	76.12
265.652	-11.95
265.868	67.92
266.084	4.44
266.3	-22.19
266.516	80.21
266.732	121.17
266.948	43.35
267.164	37.2
267.38	55.64
267.596	-34.47
267.812	88.4
268.028	14.68
268.244	-7.85
268.46	86.36
268.676	-34.47
268.892	69.97
269.108	-7.85
269.324	37.2
269.54	31.06
269.756	63.83
269.972	-9.9
270.188	88.4
270.403	35.16
270.619	92.5
270.835	47.44
271.051	59.73
271.267	61.78
271.483	78.16
271.698	18.77
271.914	-30.38
272.13	-26.28
272.346	47.44
272.562	20.82
272.777	0.34
272.993	-3.75
273.209	-1.71
273.425	84.31
273.64	-30.38
273.856	67.92
274.072	47.44
274.287	22.87
274.503	-5.8
274.719	127.32
274.934	96.6
275.15	-67.24
275.366	78.16
275.581	0.34
275.797	104.79
276.012	26.96
276.228	63.83
276.444	86.36
276.659	80.21
276.875	-28.33
277.09	31.06
277.306	-1.71
277.521	39.25
277.737	-24.23
277.952	53.59
278.168	57.68
278.383	39.25
278.599	51.54
278.814	108.88
279.03	-18.09
279.245	80.21
279.461	39.25
279.676	69.97
279.892	61.78
280.107	41.3
280.322	26.96
280.538	6.49
280.753	16.73
280.969	63.83
281.184	69.97
281.399	63.83
281.615	39.25
281.83	-32.43
282.045	-13.99
282.26	53.59
282.476	69.97
282.691	-26.28
282.906	14.68
283.122	108.88
283.337	14.68
283.552	72.02
283.767	55.64
283.983	96.6
284.198	55.64
284.413	22.87
284.628	6.49
284.843	-9.9
285.058	110.93
285.274	22.87
285.489	69.97
285.704	6.49
285.919	-26.28
286.134	24.92
286.349	26.96
286.564	-3.75
286.779	29.01
286.995	22.87
287.21	-38.57
287.425	-9.9
287.64	6.49
287.855	-26.28
288.07	88.4
288.285	63.83
288.5	80.21
288.715	78.16
288.93	20.82
289.145	-1.71
289.36	47.44
289.575	29.01
289.79	55.64
290.004	10.58
290.219	47.44
290.434	41.3
290.649	-1.71
290.864	18.77
291.079	-20.14
291.294	29.01
291.509	133.46
291.724	84.31
291.938	74.07
292.153	100.69
292.368	37.2
292.583	55.64
292.798	94.55
293.012	88.4
293.227	102.74
293.442	-38.57
293.657	92.5
293.871	129.36
294.086	53.59
294.301	108.88
294.516	80.21
294.73	51.54
294.945	39.25
295.16	47.44
295.374	127.32
295.589	12.63
295.804	31.06
296.018	26.96
296.233	121.17
296.447	67.92
296.662	6.49
296.877	45.4
297.091	96.6
297.306	53.59
297.52	20.82
297.735	80.21
297.949	22.87
298.164	-22.19
298.378	88.4
298.593	41.3
298.807	6.49
299.022	53.59
299.236	6.49
299.451	0.34
299.665	69.97
299.88	112.98
300.094	80.21
300.309	-13.99
300.523	12.63
300.737	108.88
300.952	88.4
301.166	20.82
301.381	43.35
301.595	47.44
301.809	47.44
302.024	57.68
302.238	47.44
302.452	100.69
302.667	8.53
302.881	51.54
303.095	96.6
303.309	63.83
303.524	20.82
303.738	-9.9
303.952	-18.09
304.166	63.83
304.381	-32.43
304.595	129.36
304.809	29.01
305.023	47.44
305.237	-34.47
305.452	88.4
305.666	78.16
305.88	43.35
306.094	47.44
306.308	-13.99
306.522	72.02
306.736	26.96
306.95	102.74
307.164	74.07
307.379	53.59
307.593	96.6
307.807	-5.8
308.021	67.92
308.235	94.55
308.449	0.34
308.663	2.39
308.877	145.75
309.091	-26.28
309.305	31.06
309.519	12.63
309.733	137.56
309.947	39.25
310.161	20.82
310.374	45.4
310.588	53.59
310.802	-38.57
311.016	41.3
311.23	24.92
311.444	98.64
311.658	76.12
311.872	47.44
312.085	108.88
312.299	67.92
312.513	76.12
312.727	110.93
312.941	63.83
313.154	39.25
313.368	53.59
313.582	72.02
313.796	29.01
314.009	65.88
314.223	102.74
314.437	135.51
314.651	57.68
314.864	47.44
315.078	51.54
315.292	39.25
315.505	35.16
315.719	35.16
315.933	76.12
316.146	-20.14
316.36	43.35
316.573	18.77
316.787	41.3
317.001	88.4
317.214	16.73
317.428	88.4
317.641	14.68
317.855	4.44
318.068	92.5
318.282	94.55
318.495	121.17
318.709	39.25
318.922	4.44
319.136	94.55
319.349	100.69
319.563	-9.9
319.776	45.4
319.99	-7.85
320.203	55.64
320.417	47.44
320.63	90.45
320.843	112.98
321.057	43.35
321.27	80.21
321.483	67.92
321.697	57.68
321.91	69.97
322.124	18.77
322.337	-1.71
322.55	35.16
322.763	49.49
322.977	112.98
323.19	31.06
323.403	86.36
323.617	39.25
323.83	72.02
324.043	-3.75
324.256	37.2
324.469	-5.8
324.683	72.02
324.896	29.01
325.109	88.4
325.322	-50.86
325.535	29.01
325.748	133.46
325.962	47.44
326.175	18.77
326.388	72.02
326.601	-9.9
326.814	35.16
327.027	29.01
327.24	80.21
327.453	-18.09
327.666	59.73
327.879	80.21
328.092	51.54
328.305	76.12
328.518	45.4
328.731	14.68
328.944	8.53
329.157	102.74
329.37	53.59
329.583	162.13
329.796	78.16
330.009	69.97
330.222	31.06
330.435	35.16
330.648	14.68
330.861	-22.19
331.073	18.77
331.286	45.4
331.499	59.73
331.712	37.2
331.925	69.97
332.138	43.35
332.35	129.36
332.563	20.82
332.776	80.21
332.989	69.97
333.202	22.87
333.414	-18.09
333.627	53.59
333.84	-26.28
334.053	51.54
334.265	90.45
334.478	51.54
334.691	47.44
334.903	80.21
335.116	-3.75
335.329	12.63
335.541	55.64
335.754	137.56
335.966	33.11
336.179	74.07
336.392	14.68
336.604	22.87
336.817	72.02
337.029	10.58
337.242	121.17
337.454	53.59
337.667	18.77
337.88	59.73
338.092	127.32
338.305	20.82
338.517	-1.71
338.729	69.97
338.942	141.65
339.154	-1.71
339.367	14.68
339.579	37.2
339.792	41.3
340.004	47.44
340.217	-18.09
340.429	-9.9
340.641	6.49
340.854	-9.9
341.066	14.68
341.278	63.83
341.491	63.83
341.703	96.6
341.915	78.16
342.128	86.36
342.34	88.4
342.552	6.49
342.764	72.02
342.977	45.4
343.189	49.49
343.401	104.79
343.613	49.49
343.826	74.07
344.038	-28.33
344.25	-11.95
344.462	16.73
344.674	63.83
344.886	39.25
345.099	49.49
345.311	80.21
345.523	18.77
345.735	-18.09
345.947	67.92
346.159	-3.75
346.371	26.96
346.583	51.54
346.795	92.5
347.007	22.87
347.219	86.36
347.431	39.25
347.643	100.69
347.855	-5.8
348.067	55.64
348.279	88.4
348.491	37.2
348.703	14.68
348.915	106.84
349.127	115.03
349.339	55.64
349.551	39.25
349.763	100.69
349.975	22.87
350.187	8.53
350.399	149.84
350.61	72.02
350.822	63.83
351.034	4.44
351.246	59.73
351.458	127.32
351.669	10.58
351.881	104.79
352.093	65.88
352.305	14.68
352.517	96.6
352.728	100.69
352.94	92.5
353.152	-42.67
353.363	10.58
353.575	37.2
353.787	37.2
353.999	69.97
354.21	115.03
354.422	4.44
354.633	53.59
354.845	80.21
355.057	-1.71
355.268	55.64
355.48	35.16
355.692	-16.04
355.903	51.54
356.115	-3.75
356.326	29.01
356.538	49.49
356.749	108.88
356.961	133.46
357.172	121.17
357.384	69.97
357.595	186.71
357.807	-26.28
358.018	80.21
358.23	102.74
358.441	112.98
358.653	37.2
358.864	2.39
359.075	74.07
359.287	10.58
359.498	112.98
359.709	39.25
359.921	65.88
360.132	29.01
360.344	39.25
360.555	47.44
360.766	55.64
360.977	102.74
361.189	53.59
361.4	59.73
361.611	133.46
361.823	96.6
362.034	63.83
362.245	22.87
362.456	67.92
362.667	53.59
362.879	63.83
363.09	14.68
363.301	47.44
363.512	96.6
363.723	92.5
363.935	4.44
364.146	53.59
364.357	20.82
364.568	14.68
364.779	63.83
364.99	153.94
365.201	35.16
365.412	80.21
365.623	-26.28
365.834	22.87
366.045	18.77
366.256	104.79
366.467	51.54
366.678	-9.9
366.889	72.02
367.1	35.16
367.311	106.84
367.522	72.02
367.733	-34.47
367.944	72.02
368.155	4.44
368.366	57.68
368.577	119.12
368.788	104.79
368.999	80.21
369.209	74.07
369.42	135.51
369.631	115.03
369.842	104.79
370.053	47.44
370.264	47.44
370.474	117.08
370.685	67.92
370.896	31.06
371.107	84.31
371.317	104.79
371.528	37.2
371.739	94.55
371.95	43.35
372.16	6.49
372.371	-11.95
372.582	39.25
372.792	59.73
373.003	35.16
373.214	72.02
373.424	31.06
373.635	55.64
373.846	61.78
374.056	88.4
374.267	80.21
374.477	121.17
374.688	110.93
374.898	100.69
375.109	35.16
375.319	74.07
375.53	121.17
375.74	8.53
375.951	117.08
376.161	47.44
376.372	143.7
376.582	80.21
376.793	78.16
377.003	49.49
377.214	-36.52
377.424	35.16
377.635	47.44
377.845	-26.28
378.055	74.07
378.266	45.4
378.476	86.36
378.686	117.08
378.897	119.12
379.107	67.92
379.317	86.36
379.528	80.21
379.738	69.97
379.948	61.78
380.158	74.07
380.369	59.73
380.579	80.21
380.789	47.44
380.999	158.03
381.21	69.97
381.42	143.7
381.63	26.96
381.84	47.44
382.05	76.12
382.261	76.12
382.471	112.98
382.681	127.32
382.891	100.69
383.101	76.12
383.311	22.87
383.521	14.68
383.731	67.92
383.941	55.64
384.151	110.93
384.361	74.07
384.571	86.36
384.781	22.87
384.991	162.13
385.201	55.64
385.411	45.4
385.621	102.74
385.831	80.21
386.041	47.44
386.251	72.02
386.461	92.5
386.671	-11.95
386.881	74.07
387.091	31.06
387.301	26.96
387.511	94.55
387.72	88.4
387.93	53.59
388.14	45.4
388.35	123.22
388.56	131.41
388.769	86.36
388.979	137.56
389.189	16.73
389.399	24.92
389.609	31.06
389.818	96.6
390.028	82.26
390.238	100.69
390.447	133.46
390.657	92.5
390.867	39.25
391.076	39.25
391.286	63.83
391.496	39.25
391.705	115.03
391.915	203.09
392.125	125.27
392.334	51.54
392.544	72.02
392.753	121.17
392.963	110.93
393.172	53.59
393.382	-1.71
393.591	119.12
393.801	108.88
394.01	125.27
394.22	147.8
394.429	121.17
394.639	49.49
394.848	176.47
395.058	80.21
395.267	18.77
395.477	133.46
395.686	219.47
395.895	98.64
396.105	127.32
396.314	80.21
396.524	69.97
396.733	59.73
396.942	166.23
397.152	143.7
397.361	186.71
397.57	143.7
397.78	63.83
397.989	135.51
398.198	219.47
398.407	198.99
398.617	76.12
398.826	164.18
399.035	125.27
399.244	153.94
399.453	174.42
399.663	137.56
399.872	106.84
400.081	76.12
400.29	151.89
400.499	98.64
400.708	170.32
400.917	153.94
401.127	78.16
401.336	72.02
401.545	162.13
401.754	219.47
401.963	170.32
402.172	110.93
402.381	96.6
402.59	112.98
402.799	47.44
403.008	176.47
403.217	203.09
403.426	139.6
403.635	80.21
403.844	90.45
404.053	102.74
404.262	155.99
404.471	164.18
404.68	176.47
404.888	164.18
405.097	190.8
405.306	141.65
405.515	153.94
405.724	239.95
405.933	217.43
406.142	201.04
406.35	180.56
406.559	235.86
406.768	248.15
406.977	248.15
407.185	297.3
407.394	305.49
407.603	227.67
407.812	242
408.02	301.39
408.229	334.16
408.438	309.58
408.646	178.51
408.855	297.3
409.064	264.53
409.272	209.23
409.481	366.93
409.69	375.12
409.898	244.05
410.107	323.92
410.315	362.83
410.524	317.78
410.733	387.41
410.941	328.02
411.15	368.98
411.358	428.37
411.567	498
411.775	381.26
411.984	479.57
412.192	403.79
412.401	491.85
412.609	534.86
412.818	588.11
413.026	506.19
413.234	475.47
413.443	596.3
413.651	631.12
413.86	608.59
414.068	645.45
414.276	653.64
414.485	577.87
414.693	797
414.901	780.62
415.11	803.15
415.318	782.67
415.526	817.48
415.734	833.86
415.943	887.11
416.151	866.63
416.359	883.02
416.567	981.32
416.776	1077.57
416.984	1116.48
417.192	1079.62
417.4	1063.24
417.608	1108.29
417.817	1104.2
418.025	1268.03
418.233	1222.98
418.441	1321.28
418.649	1270.08
418.857	1372.48
419.065	1388.86
419.273	1386.82
419.481	1341.76
419.689	1587.52
419.897	1591.61
420.105	1673.53
420.313	1734.97
420.521	1665.34
420.729	1790.27
420.937	1876.28
421.145	1970.49
421.353	2007.35
421.561	2046.26
421.769	2197.81
421.977	2365.75
422.185	2232.63
422.393	2359.6
422.601	2609.45
422.809	2513.2
423.017	2527.53
423.224	2617.65
423.432	2679.08
423.64	2732.33
423.848	3109.16
424.056	2808.11
424.263	3043.62
424.471	3045.67
424.679	3305.76
424.887	3365.15
425.094	3514.66
425.302	3606.81
425.51	3739.93
425.718	3731.74
425.925	3774.75
426.133	4047.13
426.341	4231.44
426.548	4305.17
426.756	4215.06
426.964	4325.65
427.171	4659.47
427.379	4657.42
427.586	4839.69
427.794	4897.03
428.001	5216.52
428.209	5452.03
428.417	5501.19
428.624	5556.48
428.832	5826.81
429.039	5794.04
429.247	5802.24
429.454	6275.32
429.662	6746.35
429.869	6131.96
430.076	6787.31
430.284	6529.27
430.491	6834.41
430.699	7131.37
430.906	6942.96
431.114	7151.85
431.321	7561.44
431.528	7723.23
431.736	8165.59
431.943	8530.13
432.15	8337.62
432.358	8253.66
432.565	8898.77
432.772	8980.68
432.979	9230.54
433.187	9380.04
433.394	9359.56
433.601	10105.02
433.808	10135.74
434.016	10137.79
434.223	10600.63
434.43	11112.62
434.637	10920.11
434.844	11557.03
435.052	11571.36
435.259	11870.37
435.466	11782.31
435.673	11813.03
435.88	12413.08
436.087	13291.66
436.294	13226.12
436.501	12681.36
436.708	12957.84
436.915	13680.77
437.122	14151.81
437.329	14014.59
437.537	14682.23
437.743	14715
437.95	14889.07
438.157	15538.28
438.364	15960.16
438.571	16001.12
438.778	16015.46
438.985	17715.27
439.192	16756.82
439.399	17371.21
439.606	16914.52
439.813	17969.22
440.02	19052.59
440.227	18833.46
440.433	18430.01
440.64	19226.67
440.847	19208.24
441.054	19476.52
441.261	20586.52
441.467	20543.52
441.674	21016.6
441.881	21690.38
442.088	21504.01
442.294	21331.98
442.501	22188.03
442.708	22460.41
442.914	23341.04
443.121	24354.79
443.328	23623.66
443.534	25180.12
443.741	24582.11
443.948	24510.43
444.154	26120.13
444.361	26058.7
444.568	26365.89
444.774	26087.37
444.981	26603.46
445.187	26976.19
445.394	28319.65
445.6	27971.5
445.807	30775.17
446.013	29466.52
446.22	30039.95
446.426	31111.03
446.633	31444.85
446.839	32311.14
447.046	30986.11
447.252	32702.31
447.459	32771.94
447.665	32520.04
447.871	33953.62
448.078	35555.13
448.284	33623.89
448.491	35112.77
448.697	36060.98
448.903	36663.08
449.11	36747.04
449.316	36097.84
449.522	36761.38
449.728	38018.83
449.935	38244.11
450.141	37885.72
450.347	38862.6
450.553	37412.63
450.76	37955.35
450.966	39155.46
451.172	38960.9
451.378	39825.14
451.584	39110.4
451.791	39823.09
451.997	39888.63
452.203	40281.84
452.409	40249.07
452.615	40083.19
452.821	38780.68
453.027	38078.22
453.233	40058.61
453.44	38860.55
453.646	38766.34
453.852	39048.96
454.058	39968.5
454.264	38076.18
454.47	39528.19
454.676	37924.63
454.882	39374.59
455.088	36302.64
455.294	36792.1
455.5	37187.36
455.705	37601.05
455.911	35479.35
456.117	35327.8
456.323	34381.64
456.529	32831.33
456.735	33935.18
456.941	33312.6
457.147	32999.26
457.352	31956.85
457.558	31319.93
457.764	31242.1
457.97	30875.52
458.176	30054.28
458.381	29990.8
458.587	28616.61
458.793	28788.64
458.999	27176.89
459.204	28884.89
459.41	28053.42
459.616	25886.67
459.821	26527.68
460.027	26437.57
460.233	25630.67
460.438	24657.89
460.644	25112.53
460.85	23748.59
461.055	23322.61
461.261	23199.73
461.466	21630.99
461.672	20903.96
461.878	22140.93
462.083	20949.01
462.289	20480.03
462.494	20131.87
462.7	19611.69
462.905	18911.28
463.111	19527.72
463.316	19529.77
463.522	19253.3
463.727	19392.56
463.932	19275.82
464.138	18847.8
464.343	19056.69
464.549	18462.78
464.754	19013.68
464.959	18681.91
465.165	18821.17
465.37	17766.47
465.575	17354.83
465.781	18243.65
465.986	18286.65
466.191	17625.16
466.397	17399.88
466.602	16427.1
466.807	17176.66
467.012	17023.06
467.218	16969.81
