Data from USB4F104151__1__11-29-28-318.txt Node

Date: Fri Mar 14 11:29:28 EDT 2025
User: louis
Spectrometer: USB4F10415
Trigger mode: 4
Integration Time (sec): 5.000000E-2
Scans to average: 1
Electric dark correction enabled: true
Nonlinearity correction enabled: false
Boxcar width: 0
XAxis mode: Wavelengths
Number of Pixels in Spectrum: 3648
>>>>>Begin Spectral Data<<<<<
178.204	-90.96
178.424	-90.96
178.644	-90.96
178.864	-129.88
179.084	-109.4
179.304	42.15
179.524	-39.76
179.744	-35.67
179.964	17.58
180.184	19.63
180.404	-4.95
180.624	-33.62
180.844	38.06
181.064	13.48
181.283	33.96
181.503	9.39
181.723	-60.24
181.943	48.3
182.163	54.44
182.383	-60.24
182.602	44.2
182.822	111.78
183.042	93.35
183.262	93.35
183.482	13.48
183.701	21.67
183.921	29.87
184.141	13.48
184.361	103.59
184.58	-19.29
184.8	54.44
185.02	5.29
185.239	66.73
185.459	-11.09
185.679	27.82
185.898	-2.9
186.118	111.78
186.338	60.59
186.557	38.06
186.777	21.67
186.997	103.59
187.216	66.73
187.436	113.83
187.655	17.58
187.875	44.2
188.095	3.24
188.314	101.55
188.534	99.5
188.753	60.59
188.973	142.5
189.192	115.88
189.412	54.44
189.631	-0.85
189.851	79.02
190.07	124.07
190.29	-21.33
190.509	33.96
190.729	72.87
190.948	95.4
191.168	124.07
191.387	70.83
191.607	50.35
191.826	-37.72
192.045	50.35
192.265	95.4
192.484	99.5
192.704	-19.29
192.923	-4.95
193.142	103.59
193.362	111.78
193.581	136.36
193.8	95.4
194.02	91.31
194.239	85.16
194.458	-23.38
194.678	-2.9
194.897	74.92
195.116	38.06
195.335	95.4
195.555	21.67
195.774	19.63
195.993	107.69
196.212	25.77
196.432	46.25
196.651	46.25
196.87	13.48
197.089	171.18
197.308	79.02
197.528	76.97
197.747	-11.09
197.966	91.31
198.185	109.74
198.404	68.78
198.623	60.59
198.842	99.5
199.062	91.31
199.281	70.83
199.5	66.73
199.719	97.45
199.938	50.35
200.157	52.39
200.376	19.63
200.595	64.68
200.814	68.78
201.033	17.58
201.252	87.21
201.471	40.11
201.69	101.55
201.909	46.25
202.128	-19.29
202.347	107.69
202.566	46.25
202.785	-19.29
203.004	48.3
203.223	66.73
203.442	13.48
203.661	17.58
203.879	33.96
204.098	33.96
204.317	19.63
204.536	140.46
204.755	48.3
204.974	111.78
205.193	99.5
205.411	111.78
205.63	93.35
205.849	87.21
206.068	83.11
206.287	31.91
206.505	50.35
206.724	9.39
206.943	44.2
207.162	56.49
207.381	87.21
207.599	101.55
207.818	66.73
208.037	31.91
208.255	13.48
208.474	58.54
208.693	-2.9
208.911	19.63
209.13	66.73
209.349	83.11
209.567	66.73
209.786	101.55
210.005	81.07
210.223	50.35
210.442	3.24
210.661	105.64
210.879	76.97
211.098	60.59
211.316	33.96
211.535	87.21
211.753	27.82
211.972	48.3
212.191	93.35
212.409	36.01
212.628	50.35
212.846	54.44
213.065	119.98
213.283	68.78
213.502	91.31
213.72	54.44
213.938	29.87
214.157	68.78
214.375	113.83
214.594	25.77
214.812	87.21
215.031	-43.86
215.249	27.82
215.467	91.31
215.686	27.82
215.904	85.16
216.122	-4.95
216.341	81.07
216.559	50.35
216.778	87.21
216.996	29.87
217.214	27.82
217.432	54.44
217.651	-37.72
217.869	38.06
218.087	-27.48
218.306	91.31
218.524	87.21
218.742	74.92
218.96	42.15
219.179	46.25
219.397	68.78
219.615	128.17
219.833	13.48
220.051	70.83
220.27	76.97
220.488	-11.09
220.706	95.4
220.924	85.16
221.142	29.87
221.36	27.82
221.578	13.48
221.796	105.64
222.015	72.87
222.233	124.07
222.451	150.7
222.669	19.63
222.887	126.12
223.105	13.48
223.323	31.91
223.541	83.11
223.759	79.02
223.977	62.63
224.195	81.07
224.413	95.4
224.631	29.87
224.849	79.02
225.067	76.97
225.285	85.16
225.503	23.72
225.721	-125.78
225.939	60.59
226.157	38.06
226.375	124.07
226.592	93.35
226.81	54.44
227.028	74.92
227.246	130.22
227.464	31.91
227.682	152.74
227.9	79.02
228.117	91.31
228.335	38.06
228.553	117.93
228.771	60.59
228.989	87.21
229.206	62.63
229.424	21.67
229.642	17.58
229.86	-27.48
230.077	87.21
230.295	181.42
230.513	52.39
230.731	79.02
230.948	111.78
231.166	74.92
231.384	-7
231.601	70.83
231.819	68.78
232.037	-15.19
232.254	21.67
232.472	13.48
232.689	-13.14
232.907	91.31
233.125	-27.48
233.342	109.74
233.56	11.43
233.777	107.69
233.995	103.59
234.213	87.21
234.43	27.82
234.648	44.2
234.865	70.83
235.083	23.72
235.3	27.82
235.518	11.43
235.735	68.78
235.953	107.69
236.17	85.16
236.388	70.83
236.605	101.55
236.822	119.98
237.04	144.55
237.257	58.54
237.475	25.77
237.692	62.63
237.909	42.15
238.127	58.54
238.344	119.98
238.562	87.21
238.779	52.39
238.996	81.07
239.214	107.69
239.431	99.5
239.648	68.78
239.865	91.31
240.083	93.35
240.3	29.87
240.517	-56.15
240.735	50.35
240.952	99.5
241.169	101.55
241.386	62.63
241.603	-19.29
241.821	87.21
242.038	111.78
242.255	64.68
242.472	27.82
242.689	87.21
242.907	66.73
243.124	150.7
243.341	60.59
243.558	38.06
243.775	60.59
243.992	-7
244.209	-19.29
244.426	93.35
244.643	42.15
244.86	38.06
245.078	-19.29
245.295	148.65
245.512	9.39
245.729	-2.9
245.946	111.78
246.163	5.29
246.38	36.01
246.597	44.2
246.814	113.83
247.031	130.22
247.248	103.59
247.464	99.5
247.681	56.49
247.898	23.72
248.115	87.21
248.332	105.64
248.549	42.15
248.766	128.17
248.983	136.36
249.2	-27.48
249.417	142.5
249.633	27.82
249.85	70.83
250.067	99.5
250.284	70.83
250.501	29.87
250.717	119.98
250.934	-11.09
251.151	21.67
251.368	9.39
251.585	66.73
251.801	50.35
252.018	85.16
252.235	54.44
252.451	21.67
252.668	40.11
252.885	9.39
253.102	97.45
253.318	64.68
253.535	72.87
253.752	17.58
253.968	-2.9
254.185	5.29
254.401	101.55
254.618	5.29
254.835	21.67
255.051	107.69
255.268	95.4
255.484	89.26
255.701	-9.05
255.917	17.58
256.134	5.29
256.351	64.68
256.567	36.01
256.784	-23.38
257	-31.57
257.217	191.66
257.433	46.25
257.65	165.03
257.866	101.55
258.082	-39.76
258.299	36.01
258.515	-2.9
258.732	1.19
258.948	-68.44
259.165	52.39
259.381	50.35
259.597	103.59
259.814	1.19
260.03	38.06
260.246	44.2
260.463	42.15
260.679	29.87
260.895	58.54
261.112	66.73
261.328	165.03
261.544	29.87
261.761	91.31
261.977	-9.05
262.193	-15.19
262.409	27.82
262.626	21.67
262.842	117.93
263.058	58.54
263.274	31.91
263.49	83.11
263.707	42.15
263.923	91.31
264.139	25.77
264.355	87.21
264.571	97.45
264.787	56.49
265.004	99.5
265.22	66.73
265.436	-17.24
265.652	40.11
265.868	83.11
266.084	11.43
266.3	9.39
266.516	-4.95
266.732	-23.38
266.948	79.02
267.164	58.54
267.38	1.19
267.596	115.88
267.812	87.21
268.028	23.72
268.244	46.25
268.46	29.87
268.676	95.4
268.892	72.87
269.108	70.83
269.324	17.58
269.54	11.43
269.756	76.97
269.972	29.87
270.188	79.02
270.403	52.39
270.619	70.83
270.835	-13.14
271.051	-13.14
271.267	101.55
271.483	66.73
271.698	54.44
271.914	7.34
272.13	62.63
272.346	111.78
272.562	29.87
272.777	62.63
272.993	-23.38
273.209	76.97
273.425	93.35
273.64	44.2
273.856	54.44
274.072	-2.9
274.287	-2.9
274.503	156.84
274.719	93.35
274.934	17.58
275.15	50.35
275.366	44.2
275.581	-29.52
275.797	21.67
276.012	85.16
276.228	50.35
276.444	136.36
276.659	42.15
276.875	103.59
277.09	25.77
277.306	29.87
277.521	91.31
277.737	48.3
277.952	29.87
278.168	79.02
278.383	-7
278.599	42.15
278.814	-31.57
279.03	5.29
279.245	76.97
279.461	74.92
279.676	83.11
279.892	54.44
280.107	38.06
280.322	21.67
280.538	111.78
280.753	101.55
280.969	64.68
281.184	50.35
281.399	99.5
281.615	52.39
281.83	74.92
282.045	-76.63
282.26	68.78
282.476	85.16
282.691	52.39
282.906	136.36
283.122	56.49
283.337	62.63
283.552	119.98
283.767	48.3
283.983	52.39
284.198	25.77
284.413	87.21
284.628	13.48
284.843	21.67
285.058	50.35
285.274	-25.43
285.489	76.97
285.704	36.01
285.919	-43.86
286.134	-11.09
286.349	25.77
286.564	36.01
286.779	87.21
286.995	58.54
287.21	25.77
287.425	68.78
287.64	48.3
287.855	42.15
288.07	76.97
288.285	93.35
288.5	-19.29
288.715	136.36
288.93	50.35
289.145	33.96
289.36	119.98
289.575	122.02
289.79	101.55
290.004	42.15
290.219	62.63
290.434	38.06
290.649	-27.48
290.864	-47.96
291.079	19.63
291.294	70.83
291.509	107.69
291.724	13.48
291.938	38.06
292.153	52.39
292.368	46.25
292.583	74.92
292.798	-7
293.012	87.21
293.227	68.78
293.442	52.39
293.657	9.39
293.871	17.58
294.086	38.06
294.301	105.64
294.516	103.59
294.73	54.44
294.945	-2.9
295.16	13.48
295.374	76.97
295.589	68.78
295.804	-37.72
296.018	13.48
296.233	62.63
296.447	9.39
296.662	40.11
296.877	91.31
297.091	122.02
297.306	52.39
297.52	23.72
297.735	87.21
297.949	79.02
298.164	33.96
298.378	128.17
298.593	62.63
298.807	83.11
299.022	50.35
299.236	62.63
299.451	119.98
299.665	-11.09
299.88	81.07
300.094	87.21
300.309	89.26
300.523	60.59
300.737	134.31
300.952	95.4
301.166	83.11
301.381	52.39
301.595	70.83
301.809	103.59
302.024	99.5
302.238	1.19
302.452	68.78
302.667	111.78
302.881	54.44
303.095	72.87
303.309	62.63
303.524	33.96
303.738	-19.29
303.952	79.02
304.166	165.03
304.381	38.06
304.595	13.48
304.809	50.35
305.023	31.91
305.237	93.35
305.452	9.39
305.666	117.93
305.88	19.63
306.094	158.89
306.308	36.01
306.522	210.09
306.736	38.06
306.95	36.01
307.164	54.44
307.379	3.24
307.593	101.55
307.807	25.77
308.021	9.39
308.235	85.16
308.449	56.49
308.663	79.02
308.877	79.02
309.091	44.2
309.305	136.36
309.519	56.49
309.733	79.02
309.947	36.01
310.161	50.35
310.374	128.17
310.588	97.45
310.802	62.63
311.016	31.91
311.23	3.24
311.444	46.25
311.658	111.78
311.872	152.74
312.085	136.36
312.299	91.31
312.513	68.78
312.727	15.53
312.941	21.67
313.154	81.07
313.368	44.2
313.582	48.3
313.796	85.16
314.009	-17.24
314.223	160.94
314.437	81.07
314.651	148.65
314.864	109.74
315.078	74.92
315.292	70.83
315.505	99.5
315.719	29.87
315.933	27.82
316.146	95.4
316.36	33.96
316.573	74.92
316.787	128.17
317.001	132.26
317.214	11.43
317.428	54.44
317.641	21.67
317.855	-19.29
318.068	46.25
318.282	56.49
318.495	126.12
318.709	5.29
318.922	83.11
319.136	156.84
319.349	134.31
319.563	54.44
319.776	17.58
319.99	46.25
320.203	103.59
320.417	113.83
320.63	5.29
320.843	169.13
321.057	115.88
321.27	44.2
321.483	58.54
321.697	99.5
321.91	54.44
322.124	38.06
322.337	52.39
322.55	38.06
322.763	101.55
322.977	62.63
323.19	48.3
323.403	25.77
323.617	144.55
323.83	109.74
324.043	111.78
324.256	109.74
324.469	40.11
324.683	42.15
324.896	111.78
325.109	17.58
325.322	93.35
325.535	-4.95
325.748	144.55
325.962	5.29
326.175	38.06
326.388	66.73
326.601	5.29
326.814	52.39
327.027	66.73
327.24	54.44
327.453	5.29
327.666	70.83
327.879	91.31
328.092	95.4
328.305	54.44
328.518	64.68
328.731	29.87
328.944	74.92
329.157	111.78
329.37	-11.09
329.583	83.11
329.796	175.27
330.009	79.02
330.222	76.97
330.435	-2.9
330.648	-11.09
330.861	27.82
331.073	95.4
331.286	70.83
331.499	9.39
331.712	48.3
331.925	56.49
332.138	74.92
332.35	95.4
332.563	93.35
332.776	95.4
332.989	70.83
333.202	17.58
333.414	46.25
333.627	54.44
333.84	167.08
334.053	9.39
334.265	83.11
334.478	60.59
334.691	46.25
334.903	99.5
335.116	33.96
335.329	87.21
335.541	46.25
335.754	111.78
335.966	68.78
336.179	5.29
336.392	29.87
336.604	167.08
336.817	52.39
337.029	44.2
337.242	79.02
337.454	42.15
337.667	5.29
337.88	160.94
338.092	66.73
338.305	140.46
338.517	50.35
338.729	134.31
338.942	107.69
339.154	11.43
339.367	11.43
339.579	64.68
339.792	109.74
340.004	54.44
340.217	76.97
340.429	81.07
340.641	11.43
340.854	44.2
341.066	11.43
341.278	66.73
341.491	175.27
341.703	76.97
341.915	70.83
342.128	15.53
342.34	21.67
342.552	-2.9
342.764	60.59
342.977	134.31
343.189	42.15
343.401	167.08
343.613	91.31
343.826	48.3
344.038	19.63
344.25	111.78
344.462	99.5
344.674	74.92
344.886	36.01
345.099	-23.38
345.311	62.63
345.523	85.16
345.735	31.91
345.947	54.44
346.159	87.21
346.371	60.59
346.583	52.39
346.795	158.89
347.007	29.87
347.219	58.54
347.431	66.73
347.643	5.29
347.855	54.44
348.067	95.4
348.279	13.48
348.491	-13.14
348.703	44.2
348.915	-9.05
349.127	52.39
349.339	19.63
349.551	38.06
349.763	111.78
349.975	62.63
350.187	31.91
350.399	13.48
350.61	144.55
350.822	52.39
351.034	124.07
351.246	142.5
351.458	103.59
351.669	27.82
351.881	91.31
352.093	101.55
352.305	169.13
352.517	60.59
352.728	70.83
352.94	5.29
353.152	130.22
353.363	54.44
353.575	62.63
353.787	76.97
353.999	83.11
354.21	201.9
354.422	54.44
354.633	-15.19
354.845	103.59
355.057	11.43
355.268	40.11
355.48	70.83
355.692	17.58
355.903	119.98
356.115	29.87
356.326	36.01
356.538	91.31
356.749	60.59
356.961	87.21
357.172	52.39
357.384	44.2
357.595	165.03
357.807	87.21
358.018	111.78
358.23	21.67
358.441	95.4
358.653	54.44
358.864	62.63
359.075	17.58
359.287	117.93
359.498	79.02
359.709	54.44
359.921	117.93
360.132	119.98
360.344	87.21
360.555	38.06
360.766	87.21
360.977	17.58
361.189	95.4
361.4	54.44
361.611	119.98
361.823	99.5
362.034	64.68
362.245	-88.92
362.456	109.74
362.667	52.39
362.879	27.82
363.09	9.39
363.301	85.16
363.512	101.55
363.723	1.19
363.935	44.2
364.146	152.74
364.357	3.24
364.568	144.55
364.779	38.06
364.99	109.74
365.201	13.48
365.412	5.29
365.623	-15.19
365.834	44.2
366.045	52.39
366.256	117.93
366.467	50.35
366.678	15.53
366.889	38.06
367.1	119.98
367.311	1.19
367.522	-7
367.733	169.13
367.944	79.02
368.155	62.63
368.366	154.79
368.577	62.63
368.788	140.46
368.999	95.4
369.209	93.35
369.42	79.02
369.631	142.5
369.842	54.44
370.053	17.58
370.264	144.55
370.474	111.78
370.685	38.06
370.896	58.54
371.107	70.83
371.317	97.45
371.528	113.83
371.739	62.63
371.95	152.74
372.16	60.59
372.371	11.43
372.582	-43.86
372.792	66.73
373.003	21.67
373.214	126.12
373.424	95.4
373.635	70.83
373.846	107.69
374.056	33.96
374.267	48.3
374.477	107.69
374.688	42.15
374.898	66.73
375.109	62.63
375.319	38.06
375.53	177.32
375.74	87.21
375.951	33.96
376.161	85.16
376.372	91.31
376.582	-4.95
376.793	58.54
377.003	25.77
377.214	60.59
377.424	87.21
377.635	62.63
377.845	21.67
378.055	173.22
378.266	62.63
378.476	31.91
378.686	70.83
378.897	76.97
379.107	140.46
379.317	85.16
379.528	46.25
379.738	111.78
379.948	66.73
380.158	111.78
380.369	79.02
380.579	29.87
380.789	115.88
380.999	99.5
381.21	103.59
381.42	87.21
381.63	83.11
381.84	68.78
382.05	115.88
382.261	144.55
382.471	60.59
382.681	79.02
382.891	68.78
383.101	91.31
383.311	101.55
383.521	42.15
383.731	38.06
383.941	70.83
384.151	89.26
384.361	46.25
384.571	132.26
384.781	76.97
384.991	46.25
385.201	42.15
385.411	99.5
385.621	101.55
385.831	42.15
386.041	199.85
386.251	3.24
386.461	93.35
386.671	109.74
386.881	101.55
387.091	36.01
387.301	144.55
387.511	103.59
387.72	152.74
387.93	107.69
388.14	70.83
388.35	103.59
388.56	115.88
388.769	44.2
388.979	54.44
389.189	23.72
389.399	115.88
389.609	122.02
389.818	138.41
390.028	11.43
390.238	128.17
390.447	13.48
390.657	136.36
390.867	52.39
391.076	50.35
391.286	48.3
391.496	103.59
391.705	40.11
391.915	60.59
392.125	117.93
392.334	101.55
392.544	93.35
392.753	95.4
392.963	54.44
393.172	140.46
393.382	54.44
393.591	144.55
393.801	72.87
394.01	142.5
394.22	165.03
394.429	62.63
394.639	70.83
394.848	158.89
395.058	42.15
395.267	95.4
395.477	144.55
395.686	150.7
395.895	109.74
396.105	208.04
396.314	93.35
396.524	111.78
396.733	109.74
396.942	105.64
397.152	117.93
397.361	167.08
397.57	76.97
397.78	74.92
397.989	101.55
398.198	208.04
398.407	109.74
398.617	58.54
398.826	158.89
399.035	87.21
399.244	175.27
399.453	218.28
399.663	144.55
399.872	124.07
400.081	117.93
400.29	115.88
400.499	173.22
400.708	103.59
400.917	99.5
401.127	85.16
401.336	29.87
401.545	199.85
401.754	158.89
401.963	144.55
402.172	99.5
402.381	79.02
402.59	136.36
402.799	175.27
403.008	136.36
403.217	126.12
403.426	119.98
403.635	99.5
403.844	144.55
404.053	156.84
404.262	136.36
404.471	193.7
404.68	97.45
404.888	138.41
405.097	150.7
405.306	224.42
405.515	167.08
405.724	140.46
405.933	193.7
406.142	216.23
406.35	144.55
406.559	177.32
406.768	136.36
406.977	238.76
407.185	169.13
407.394	218.28
407.603	240.81
407.812	191.66
408.02	298.15
408.229	292.01
408.438	193.7
408.646	281.77
408.855	232.62
409.064	267.43
409.272	240.81
409.481	251.05
409.69	222.38
409.898	267.43
410.107	308.39
410.315	232.62
410.524	259.24
410.733	257.19
410.941	339.11
411.15	371.88
411.358	363.69
411.567	421.03
411.775	337.06
411.984	431.27
412.192	449.7
412.401	437.41
412.609	513.19
412.818	464.04
413.026	496.8
413.234	519.33
413.443	515.23
413.651	498.85
413.86	496.8
414.068	642.21
414.276	625.83
414.485	574.63
414.693	609.44
414.901	699.55
415.11	636.06
415.318	668.83
415.526	662.69
415.734	726.18
415.943	685.22
416.151	763.04
416.359	830.62
416.567	781.47
416.776	832.67
416.984	887.97
417.192	912.54
417.4	914.59
417.608	857.25
417.817	873.63
418.025	1084.57
418.233	1074.33
418.441	1021.08
418.649	1078.43
418.857	1170.58
419.065	1193.11
419.273	1131.67
419.481	1287.32
419.689	1307.8
419.897	1410.2
420.105	1410.2
420.313	1440.92
420.521	1541.27
420.729	1561.75
420.937	1451.16
421.145	1594.51
421.353	1643.67
421.561	1698.96
421.769	1770.64
421.977	1881.23
422.185	2014.35
422.393	1864.85
422.601	2106.51
422.809	2114.7
423.017	2110.6
423.224	2237.58
423.432	2290.82
423.64	2292.87
423.848	2487.43
424.056	2430.09
424.263	2716.8
424.471	2577.54
424.679	2739.33
424.887	2804.86
425.094	2966.65
425.302	2888.83
425.51	3028.09
425.718	3179.64
425.925	3179.64
426.133	3253.37
426.341	3413.11
426.548	3556.47
426.756	3591.28
426.964	3503.22
427.171	3794.03
427.379	3982.45
427.586	4047.98
427.794	4021.36
428.001	4281.45
428.209	4508.77
428.417	4465.77
428.624	4805.73
428.832	4818.02
429.039	4746.34
429.247	4723.81
429.454	5205.08
429.662	5557.33
429.869	5198.94
430.076	5540.95
430.284	5377.11
430.491	5762.13
430.699	5848.15
430.906	6050.89
431.114	6116.43
431.321	6392.91
431.528	6466.63
431.736	6704.2
431.943	6999.1
432.15	6818.88
432.358	7124.03
432.565	7255.1
432.772	7216.19
432.979	7605.3
433.187	7828.53
433.394	8023.09
433.601	8199.21
433.808	8393.77
434.016	8422.44
434.223	8604.71
434.43	9219.1
434.637	9040.93
434.844	9700.37
435.052	9913.36
435.259	9810.96
435.466	9804.82
435.673	9694.23
435.88	10398.73
436.087	11037.7
436.294	11027.46
436.501	10667.02
436.708	11047.94
436.915	11256.83
437.122	11701.24
437.329	11660.28
437.537	12200.94
437.743	12409.84
437.95	12329.97
438.157	13063.14
438.364	13263.84
438.571	13446.11
438.778	13523.93
438.985	14509.01
439.192	14021.59
439.399	14345.17
439.606	14068.69
439.813	14658.51
440.02	15819.71
440.227	15619
440.433	15381.44
440.64	15944.63
440.847	15875
441.054	16300.98
441.261	17427.36
441.467	17214.37
441.674	17685.4
441.881	18328.47
442.088	17896.35
442.294	18029.46
442.501	18600.85
442.708	18756.49
442.914	19610.5
443.121	20282.23
443.328	19669.89
443.534	21281.64
443.741	20597.62
443.948	20409.2
444.154	21918.56
444.361	21746.53
444.568	21965.66
444.774	21965.66
444.981	22098.78
445.187	22778.7
445.394	23984.96
445.6	23393.09
445.807	25436.97
446.013	24652.59
446.22	24980.27
446.426	26209.05
446.633	26352.41
446.839	27218.7
447.046	25795.36
447.252	27386.63
447.459	27497.22
447.665	27177.74
447.871	28525.3
448.078	29887.2
448.284	28609.27
448.491	29086.45
448.697	30233.31
448.903	30939.86
449.11	30812.88
449.316	29979.36
449.522	30638.81
449.728	31918.79
449.935	31820.49
450.141	32039.62
450.347	32496.31
450.553	31892.16
450.76	32033.47
450.966	33268.4
451.172	32375.48
451.378	33630.89
451.584	32797.37
451.791	33596.07
451.997	33235.63
452.203	34007.72
452.409	33974.95
452.615	33594.03
452.821	32457.4
453.027	32017.09
453.233	33829.54
453.44	32676.54
453.646	32778.93
453.852	32934.58
454.058	33266.35
454.264	31976.13
454.47	33090.23
454.676	32103.1
454.882	33133.23
455.088	30196.45
455.294	30757.59
455.5	31195.85
455.705	31613.64
455.911	30339.8
456.117	29412.07
456.323	28977.9
456.529	27372.3
456.735	28797.68
456.941	27960.06
457.147	27327.24
457.352	26663.7
457.558	26333.98
457.764	26288.92
457.97	26125.08
458.176	25281.32
458.381	25148.2
458.587	23946.05
458.793	23829.31
458.999	22790.99
459.204	24421.17
459.41	23724.86
459.616	22033.24
459.821	21994.33
460.027	21947.23
460.233	21570.4
460.438	20783.98
460.644	20767.6
460.85	19755.9
461.055	19344.26
461.261	19440.51
461.466	17953.69
461.672	17341.35
461.878	18535.31
462.083	17443.74
462.289	17187.75
462.494	16761.77
462.7	16171.96
462.905	16016.31
463.111	16286.64
463.316	16462.77
463.522	16053.17
463.727	15975.35
463.932	16012.21
464.138	15709.11
464.343	15909.82
464.549	15371.2
464.754	15797.18
464.959	15692.73
465.165	15518.65
465.37	15188.93
465.575	14656.46
465.781	15133.64
465.986	15225.79
466.191	14830.54
466.397	14320.59
466.602	13898.71
