Data from USB4F104151__21__11-29-54-116.txt Node

Date: Fri Mar 14 11:29:54 EDT 2025
User: louis
Spectrometer: USB4F10415
Trigger mode: 4
Integration Time (sec): 5.000000E-2
Scans to average: 1
Electric dark correction enabled: true
Nonlinearity correction enabled: false
Boxcar width: 0
XAxis mode: Wavelengths
Number of Pixels in Spectrum: 3648
>>>>>Begin Spectral Data<<<<<
178.204	-58.88
178.424	-58.88
178.644	-58.88
178.864	-132.61
179.084	-224.76
179.304	14.85
179.524	-36.35
179.744	-9.73
179.964	64
180.184	-46.59
180.404	-22.02
180.624	23.04
180.844	18.94
181.064	4.61
181.283	18.94
181.503	-11.78
181.723	-17.92
181.943	-124.41
182.163	109.05
182.383	-17.92
182.602	27.14
182.822	59.9
183.042	14.85
183.262	6.66
183.482	80.38
183.701	-7.68
183.921	43.52
184.141	-17.92
184.361	78.33
184.58	55.81
184.8	12.8
185.02	39.42
185.239	96.77
185.459	53.76
185.679	111.1
185.898	-5.63
186.118	109.05
186.338	-9.73
186.557	-13.82
186.777	-19.97
186.997	31.23
187.216	16.9
187.436	70.14
187.655	37.38
187.875	141.82
188.095	37.38
188.314	76.29
188.534	18.94
188.753	41.47
188.973	96.77
189.192	94.72
189.412	27.14
189.631	37.38
189.851	-26.11
190.07	70.14
190.29	-7.68
190.509	61.95
190.729	-67.07
190.948	39.42
191.168	158.21
191.387	59.9
191.607	-44.54
191.826	12.8
192.045	-30.21
192.265	8.7
192.484	-9.73
192.704	16.9
192.923	-60.93
193.142	135.68
193.362	14.85
193.581	109.05
193.8	135.68
194.02	57.86
194.239	-58.88
194.458	35.33
194.678	31.23
194.897	12.8
195.116	31.23
195.335	-11.78
195.555	41.47
195.774	35.33
195.993	27.14
196.212	-22.02
196.432	49.66
196.651	-34.3
196.87	29.18
197.089	162.3
197.308	133.63
197.528	-3.58
197.747	27.14
197.966	43.52
198.185	64
198.404	-36.35
198.623	92.67
198.842	31.23
199.062	-17.92
199.281	12.8
199.5	102.91
199.719	-28.16
199.938	92.67
200.157	55.81
200.376	72.19
200.595	27.14
200.814	64
201.033	18.94
201.252	35.33
201.471	-9.73
201.69	72.19
201.909	18.94
202.128	61.95
202.347	80.38
202.566	-1.54
202.785	18.94
203.004	-1.54
203.223	121.34
203.442	51.71
203.661	-30.21
203.879	82.43
204.098	-9.73
204.317	23.04
204.536	82.43
204.755	-30.21
204.974	51.71
205.193	76.29
205.411	154.11
205.63	6.66
205.849	0.51
206.068	31.23
206.287	47.62
206.505	12.8
206.724	-9.73
206.943	45.57
207.162	33.28
207.381	35.33
207.599	-22.02
207.818	-1.54
208.037	16.9
208.255	80.38
208.474	61.95
208.693	111.1
208.911	47.62
209.13	14.85
209.349	45.57
209.567	70.14
209.786	61.95
210.005	86.53
210.223	10.75
210.442	-44.54
210.661	-3.58
210.879	92.67
211.098	35.33
211.316	-9.73
211.535	-13.82
211.753	6.66
211.972	39.42
212.191	88.57
212.409	113.15
212.628	39.42
212.846	47.62
213.065	-1.54
213.283	76.29
213.502	-7.68
213.72	57.86
213.938	72.19
214.157	6.66
214.375	104.96
214.594	-34.3
214.812	131.58
215.031	20.99
215.249	53.76
215.467	27.14
215.686	20.99
215.904	45.57
216.122	23.04
216.341	61.95
216.559	39.42
216.778	92.67
216.996	29.18
217.214	20.99
217.432	12.8
217.651	47.62
217.869	31.23
218.087	55.81
218.306	6.66
218.524	102.91
218.742	-5.63
218.96	39.42
219.179	27.14
219.397	18.94
219.615	109.05
219.833	64
220.051	-1.54
220.27	137.73
220.488	-17.92
220.706	104.96
220.924	18.94
221.142	8.7
221.36	6.66
221.578	10.75
221.796	2.56
222.015	55.81
222.233	-13.82
222.451	37.38
222.669	33.28
222.887	45.57
223.105	64
223.323	20.99
223.541	31.23
223.759	37.38
223.977	39.42
224.195	141.82
224.413	18.94
224.631	37.38
224.849	51.71
225.067	96.77
225.285	-48.64
225.503	47.62
225.721	-17.92
225.939	31.23
226.157	10.75
226.375	145.92
226.592	80.38
226.81	43.52
227.028	152.06
227.246	137.73
227.464	39.42
227.682	23.04
227.9	4.61
228.117	61.95
228.335	55.81
228.553	14.85
228.771	80.38
228.989	-9.73
229.206	37.38
229.424	80.38
229.642	29.18
229.86	23.04
230.077	113.15
230.295	2.56
230.513	123.39
230.731	72.19
230.948	113.15
231.166	59.9
231.384	47.62
231.601	-60.93
231.819	27.14
232.037	-11.78
232.254	-83.45
232.472	39.42
232.689	-1.54
232.907	68.09
233.125	76.29
233.342	57.86
233.56	10.75
233.777	55.81
233.995	-5.63
234.213	68.09
234.43	31.23
234.648	70.14
234.865	-26.11
235.083	53.76
235.3	-1.54
235.518	100.86
235.735	27.14
235.953	68.09
236.17	-1.54
236.388	113.15
236.605	23.04
236.822	-50.69
237.04	117.25
237.257	31.23
237.475	29.18
237.692	14.85
237.909	64
238.127	55.81
238.344	6.66
238.562	61.95
238.779	-46.59
238.996	-1.54
239.214	16.9
239.431	92.67
239.648	-1.54
239.865	-3.58
240.083	39.42
240.3	61.95
240.517	6.66
240.735	68.09
240.952	6.66
241.169	64
241.386	47.62
241.603	31.23
241.821	23.04
242.038	55.81
242.255	80.38
242.472	23.04
242.689	76.29
242.907	8.7
243.124	-3.58
243.341	66.05
243.558	47.62
243.775	14.85
243.992	-24.06
244.209	74.24
244.426	104.96
244.643	109.05
244.86	-28.16
245.078	-17.92
245.295	70.14
245.512	135.68
245.729	-9.73
245.946	-1.54
246.163	35.33
246.38	23.04
246.597	78.33
246.814	-24.06
247.031	23.04
247.248	47.62
247.464	59.9
247.681	55.81
247.898	23.04
248.115	94.72
248.332	47.62
248.549	154.11
248.766	39.42
248.983	35.33
249.2	49.66
249.417	88.57
249.633	0.51
249.85	45.57
250.067	64
250.284	47.62
250.501	-19.97
250.717	31.23
250.934	14.85
251.151	43.52
251.368	27.14
251.585	18.94
251.801	41.47
252.018	-15.87
252.235	94.72
252.451	-3.58
252.668	57.86
252.885	68.09
253.102	64
253.318	-9.73
253.535	47.62
253.752	-38.4
253.968	0.51
254.185	47.62
254.401	111.1
254.618	47.62
254.835	10.75
255.051	88.57
255.268	70.14
255.484	51.71
255.701	53.76
255.917	59.9
256.134	37.38
256.351	-44.54
256.567	39.42
256.784	31.23
257	53.76
257.217	80.38
257.433	84.48
257.65	23.04
257.866	39.42
258.082	31.23
258.299	6.66
258.515	18.94
258.732	-5.63
258.948	29.18
259.165	78.33
259.381	6.66
259.597	23.04
259.814	51.71
260.03	96.77
260.246	74.24
260.463	86.53
260.679	45.57
260.895	-13.82
261.112	100.86
261.328	31.23
261.544	12.8
261.761	180.73
261.977	16.9
262.193	45.57
262.409	104.96
262.626	31.23
262.842	31.23
263.058	88.57
263.274	57.86
263.49	133.63
263.707	23.04
263.923	88.57
264.139	16.9
264.355	20.99
264.571	72.19
264.787	23.04
265.004	96.77
265.22	4.61
265.436	8.7
265.652	80.38
265.868	47.62
266.084	-48.64
266.3	23.04
266.516	49.66
266.732	70.14
266.948	39.42
267.164	-7.68
267.38	47.62
267.596	57.86
267.812	80.38
268.028	-1.54
268.244	-46.59
268.46	-26.11
268.676	29.18
268.892	33.28
269.108	33.28
269.324	4.61
269.54	-44.54
269.756	41.47
269.972	-26.11
270.188	51.71
270.403	10.75
270.619	78.33
270.835	23.04
271.051	41.47
271.267	51.71
271.483	-52.74
271.698	25.09
271.914	55.81
272.13	12.8
272.346	27.14
272.562	23.04
272.777	51.71
272.993	-22.02
273.209	-24.06
273.425	59.9
273.64	-75.26
273.856	31.23
274.072	59.9
274.287	31.23
274.503	47.62
274.719	82.43
274.934	80.38
275.15	-1.54
275.366	55.81
275.581	31.23
275.797	23.04
276.012	31.23
276.228	72.19
276.444	33.28
276.659	113.15
276.875	-34.3
277.09	8.7
277.306	51.71
277.521	-1.54
277.737	8.7
277.952	-60.93
278.168	6.66
278.383	-24.06
278.599	86.53
278.814	68.09
279.03	-1.54
279.245	74.24
279.461	55.81
279.676	51.71
279.892	2.56
280.107	-1.54
280.322	18.94
280.538	96.77
280.753	-11.78
280.969	31.23
281.184	31.23
281.399	55.81
281.615	31.23
281.83	72.19
282.045	55.81
282.26	2.56
282.476	80.38
282.691	64
282.906	6.66
283.122	-19.97
283.337	31.23
283.552	90.62
283.767	39.42
283.983	64
284.198	64
284.413	68.09
284.628	-9.73
284.843	45.57
285.058	39.42
285.274	4.61
285.489	20.99
285.704	0.51
285.919	47.62
286.134	72.19
286.349	20.99
286.564	-19.97
286.779	158.21
286.995	53.76
287.21	-22.02
287.425	104.96
287.64	57.86
287.855	102.91
288.07	31.23
288.285	64
288.5	51.71
288.715	39.42
288.93	45.57
289.145	-7.68
289.36	72.19
289.575	45.57
289.79	31.23
290.004	31.23
290.219	59.9
290.434	27.14
290.649	53.76
290.864	-1.54
291.079	31.23
291.294	-1.54
291.509	-17.92
291.724	88.57
291.938	59.9
292.153	14.85
292.368	8.7
292.583	-9.73
292.798	10.75
293.012	43.52
293.227	23.04
293.442	41.47
293.657	55.81
293.871	-13.82
294.086	-11.78
294.301	129.53
294.516	61.95
294.73	55.81
294.945	-7.68
295.16	84.48
295.374	111.1
295.589	45.57
295.804	-26.11
296.018	61.95
296.233	84.48
296.447	18.94
296.662	-3.58
296.877	27.14
297.091	-3.58
297.306	39.42
297.52	23.04
297.735	51.71
297.949	84.48
298.164	55.81
298.378	86.53
298.593	47.62
298.807	29.18
299.022	102.91
299.236	104.96
299.451	80.38
299.665	-30.21
299.88	-42.5
300.094	-56.83
300.309	8.7
300.523	-5.63
300.737	27.14
300.952	8.7
301.166	55.81
301.381	-11.78
301.595	39.42
301.809	6.66
302.024	16.9
302.238	-22.02
302.452	23.04
302.667	12.8
302.881	80.38
303.095	84.48
303.309	109.05
303.524	111.1
303.738	-36.35
303.952	16.9
304.166	55.81
304.381	-17.92
304.595	72.19
304.809	43.52
305.023	33.28
305.237	51.71
305.452	-9.73
305.666	109.05
305.88	94.72
306.094	-11.78
306.308	86.53
306.522	6.66
306.736	35.33
306.95	92.67
307.164	53.76
307.379	23.04
307.593	59.9
307.807	-24.06
308.021	88.57
308.235	-38.4
308.449	4.61
308.663	98.81
308.877	129.53
309.091	39.42
309.305	96.77
309.519	-28.16
309.733	33.28
309.947	-1.54
310.161	80.38
310.374	23.04
310.588	109.05
310.802	33.28
311.016	72.19
311.23	12.8
311.444	-19.97
311.658	-17.92
311.872	119.29
312.085	4.61
312.299	80.38
312.513	86.53
312.727	68.09
312.941	0.51
313.154	45.57
313.368	111.1
313.582	8.7
313.796	6.66
314.009	47.62
314.223	53.76
314.437	68.09
314.651	45.57
314.864	4.61
315.078	-28.16
315.292	29.18
315.505	51.71
315.719	61.95
315.933	64
316.146	16.9
316.36	-58.88
316.573	72.19
316.787	23.04
317.001	20.99
317.214	6.66
317.428	64
317.641	-13.82
317.855	94.72
318.068	35.33
318.282	64
318.495	64
318.709	96.77
318.922	78.33
319.136	145.92
319.349	107.01
319.563	18.94
319.776	72.19
319.99	-5.63
320.203	68.09
320.417	29.18
320.63	102.91
320.843	82.43
321.057	72.19
321.27	43.52
321.483	78.33
321.697	104.96
321.91	23.04
322.124	-15.87
322.337	-1.54
322.55	20.99
322.763	92.67
322.977	6.66
323.19	-15.87
323.403	-26.11
323.617	14.85
323.83	88.57
324.043	23.04
324.256	55.81
324.469	29.18
324.683	147.97
324.896	25.09
325.109	55.81
325.322	37.38
325.535	55.81
325.748	131.58
325.962	-15.87
326.175	31.23
326.388	31.23
326.601	78.33
326.814	57.86
327.027	78.33
327.24	78.33
327.453	-34.3
327.666	25.09
327.879	72.19
328.092	29.18
328.305	49.66
328.518	37.38
328.731	59.9
328.944	-13.82
329.157	-5.63
329.37	39.42
329.583	86.53
329.796	70.14
330.009	47.62
330.222	82.43
330.435	78.33
330.648	61.95
330.861	-1.54
331.073	-9.73
331.286	84.48
331.499	-9.73
331.712	12.8
331.925	55.81
332.138	61.95
332.35	96.77
332.563	-9.73
332.776	68.09
332.989	6.66
333.202	47.62
333.414	6.66
333.627	113.15
333.84	25.09
334.053	31.23
334.265	102.91
334.478	59.9
334.691	37.38
334.903	59.9
335.116	25.09
335.329	37.38
335.541	10.75
335.754	47.62
335.966	29.18
336.179	0.51
336.392	20.99
336.604	-34.3
336.817	80.38
337.029	88.57
337.242	129.53
337.454	39.42
337.667	47.62
337.88	64
338.092	31.23
338.305	78.33
338.517	23.04
338.729	53.76
338.942	82.43
339.154	-83.45
339.367	-22.02
339.579	43.52
339.792	-9.73
340.004	145.92
340.217	55.81
340.429	78.33
340.641	-26.11
340.854	53.76
341.066	-34.3
341.278	84.48
341.491	53.76
341.703	66.05
341.915	37.38
342.128	37.38
342.34	23.04
342.552	64
342.764	96.77
342.977	119.29
343.189	80.38
343.401	86.53
343.613	-26.11
343.826	43.52
344.038	-13.82
344.25	43.52
344.462	29.18
344.674	76.29
344.886	31.23
345.099	57.86
345.311	49.66
345.523	31.23
345.735	35.33
345.947	-13.82
346.159	14.85
346.371	12.8
346.583	20.99
346.795	121.34
347.007	14.85
347.219	117.25
347.431	23.04
347.643	102.91
347.855	10.75
348.067	55.81
348.279	-58.88
348.491	72.19
348.703	72.19
348.915	74.24
349.127	10.75
349.339	84.48
349.551	6.66
349.763	115.2
349.975	14.85
350.187	59.9
350.399	100.86
350.61	70.14
350.822	-3.58
351.034	23.04
351.246	23.04
351.458	6.66
351.669	113.15
351.881	80.38
352.093	92.67
352.305	109.05
352.517	-9.73
352.728	96.77
352.94	59.9
353.152	64
353.363	14.85
353.575	72.19
353.787	80.38
353.999	88.57
354.21	16.9
354.422	23.04
354.633	-17.92
354.845	70.14
355.057	-17.92
355.268	12.8
355.48	55.81
355.692	18.94
355.903	6.66
356.115	-38.4
356.326	-36.35
356.538	104.96
356.749	14.85
356.961	45.57
357.172	47.62
357.384	39.42
357.595	178.69
357.807	23.04
358.018	64
358.23	76.29
358.441	152.06
358.653	18.94
358.864	109.05
359.075	-17.92
359.287	119.29
359.498	78.33
359.709	-11.78
359.921	29.18
360.132	-42.5
360.344	61.95
360.555	53.76
360.766	35.33
360.977	-19.97
361.189	35.33
361.4	37.38
361.611	90.62
361.823	72.19
362.034	49.66
362.245	-58.88
362.456	-3.58
362.667	55.81
362.879	59.9
363.09	23.04
363.301	39.42
363.512	104.96
363.723	31.23
363.935	-1.54
364.146	102.91
364.357	10.75
364.568	29.18
364.779	-13.82
364.99	59.9
365.201	-22.02
365.412	64
365.623	-52.74
365.834	2.56
366.045	-34.3
366.256	109.05
366.467	47.62
366.678	-9.73
366.889	98.81
367.1	27.14
367.311	41.47
367.522	25.09
367.733	121.34
367.944	-19.97
368.155	18.94
368.366	66.05
368.577	84.48
368.788	111.1
368.999	64
369.209	-5.63
369.42	156.16
369.631	109.05
369.842	88.57
370.053	53.76
370.264	68.09
370.474	66.05
370.685	-5.63
370.896	-1.54
371.107	86.53
371.317	66.05
371.528	55.81
371.739	133.63
371.95	129.53
372.16	111.1
372.371	29.18
372.582	78.33
372.792	96.77
373.003	6.66
373.214	23.04
373.424	27.14
373.635	70.14
373.846	115.2
374.056	45.57
374.267	41.47
374.477	2.56
374.688	31.23
374.898	49.66
375.109	57.86
375.319	78.33
375.53	119.29
375.74	47.62
375.951	43.52
376.161	96.77
376.372	35.33
376.582	80.38
376.793	43.52
377.003	-3.58
377.214	88.57
377.424	121.34
377.635	-1.54
377.845	-34.3
378.055	133.63
378.266	80.38
378.476	51.71
378.686	-13.82
378.897	43.52
379.107	80.38
379.317	143.87
379.528	18.94
379.738	96.77
379.948	43.52
380.158	88.57
380.369	61.95
380.579	115.2
380.789	12.8
380.999	20.99
381.21	72.19
381.42	125.44
381.63	39.42
381.84	51.71
382.05	94.72
382.261	92.67
382.471	131.58
382.681	92.67
382.891	113.15
383.101	49.66
383.311	27.14
383.521	80.38
383.731	55.81
383.941	115.2
384.151	68.09
384.361	27.14
384.571	68.09
384.781	39.42
384.991	70.14
385.201	41.47
385.411	64
385.621	39.42
385.831	47.62
386.041	80.38
386.251	64
386.461	119.29
386.671	61.95
386.881	68.09
387.091	33.28
387.301	109.05
387.511	2.56
387.72	59.9
387.93	113.15
388.14	43.52
388.35	39.42
388.56	137.73
388.769	51.71
388.979	86.53
389.189	-1.54
389.399	39.42
389.609	-34.3
389.818	141.82
390.028	-3.58
390.238	154.11
390.447	0.51
390.657	39.42
390.867	23.04
391.076	37.38
391.286	113.15
391.496	80.38
391.705	12.8
391.915	125.44
392.125	121.34
392.334	47.62
392.544	121.34
392.753	137.73
392.963	102.91
393.172	2.56
393.382	131.58
393.591	121.34
393.801	59.9
394.01	152.06
394.22	119.29
394.429	96.77
394.639	86.53
394.848	129.53
395.058	37.38
395.267	84.48
395.477	64
395.686	72.19
395.895	80.38
396.105	170.49
396.314	72.19
396.524	143.87
396.733	20.99
396.942	119.29
397.152	129.53
397.361	152.06
397.57	94.72
397.78	119.29
397.989	96.77
398.198	203.26
398.407	90.62
398.617	131.58
398.826	102.91
399.035	152.06
399.244	137.73
399.453	170.49
399.663	104.96
399.872	133.63
400.081	80.38
400.29	127.49
400.499	43.52
400.708	152.06
400.917	145.92
401.127	76.29
401.336	123.39
401.545	190.97
401.754	166.4
401.963	180.73
402.172	113.15
402.381	64
402.59	166.4
402.799	145.92
403.008	119.29
403.217	113.15
403.426	133.63
403.635	102.91
403.844	154.11
404.053	176.64
404.262	141.82
404.471	190.97
404.68	135.68
404.888	160.25
405.097	145.92
405.306	158.21
405.515	211.45
405.724	147.97
405.933	219.64
406.142	135.68
406.35	227.84
406.559	195.07
406.768	176.64
406.977	270.84
407.185	240.12
407.394	227.84
407.603	233.98
407.812	252.41
408.02	301.56
408.229	262.65
408.438	205.31
408.646	260.6
408.855	145.92
409.064	276.99
409.272	283.13
409.481	250.36
409.69	358.91
409.898	209.4
410.107	248.32
410.315	242.17
410.524	270.84
410.733	363
410.941	293.37
411.15	313.85
411.358	440.83
411.567	393.72
411.775	389.63
411.984	385.53
412.192	449.02
412.401	436.73
412.609	524.79
412.818	496.12
413.026	483.83
413.234	532.98
413.443	465.4
413.651	496.12
413.86	575.99
414.068	674.29
414.276	629.24
414.485	604.66
414.693	596.47
414.901	653.81
415.11	719.35
415.318	612.85
415.526	702.97
415.734	805.36
415.943	795.12
416.151	829.94
416.359	834.04
416.567	807.41
416.776	864.75
416.984	889.33
417.192	1010.16
417.4	1022.45
417.608	905.71
417.817	1130.99
418.025	1106.42
418.233	1194.48
418.441	1049.07
418.649	1194.48
418.857	1260.01
419.065	1358.32
419.273	1274.35
419.481	1206.77
419.689	1434.09
419.897	1452.52
420.105	1516.01
420.313	1583.59
420.521	1626.6
420.729	1577.45
420.937	1669.61
421.145	1710.57
421.353	1772
421.561	1905.12
421.769	1939.94
421.977	1991.14
422.185	2021.86
422.393	2206.17
422.601	2345.44
422.809	2279.9
423.017	2261.47
423.224	2279.9
423.432	2527.71
423.64	2488.79
423.848	2628.06
424.056	2583
424.263	2742.74
424.471	2806.23
424.679	2902.48
424.887	2992.59
425.094	3047.89
425.302	3070.42
425.51	3295.69
425.718	3336.65
425.925	3414.48
426.133	3391.95
426.341	3623.37
426.548	3891.65
426.756	3746.25
426.964	3854.79
427.171	4020.67
427.379	4194.75
427.586	4395.45
427.794	4579.77
428.001	4569.53
428.209	4794.81
428.417	4876.73
428.624	4946.36
428.832	5061.04
429.039	5085.62
429.247	5259.7
429.454	5622.19
429.662	5886.37
429.869	5509.55
430.076	5929.38
430.284	5759.4
430.491	6054.31
430.699	6220.19
430.906	6318.5
431.114	6445.47
431.321	6631.83
431.528	6855.06
431.736	7182.74
431.943	7598.48
432.15	7432.59
432.358	7444.88
432.565	7891.34
432.772	7872.9
432.979	8259.97
433.187	8489.34
433.394	8331.65
433.601	8898.94
433.808	9019.77
434.016	8874.36
434.223	9529.71
434.43	9802.09
434.637	9795.95
434.844	10207.59
435.052	10359.14
435.259	10414.43
435.466	10713.44
435.673	10531.17
435.88	10907.99
436.087	11622.73
436.294	11694.41
436.501	11460.95
436.708	11786.57
436.915	12112.2
437.122	12726.59
437.329	12583.23
437.537	12970.3
437.743	13381.94
437.95	13093.18
438.157	13838.64
438.364	14326.05
438.571	14235.94
438.778	14461.22
438.985	15491.35
439.192	15261.98
439.399	15778.06
439.606	15188.25
439.813	16222.47
440.02	16918.78
440.227	16834.82
440.433	16820.48
440.64	17162.49
440.847	17287.42
441.054	17371.38
441.261	18569.44
441.467	18688.23
441.674	18753.76
441.881	19427.54
442.088	19220.7
442.294	19173.6
442.501	20074.7
442.708	20359.37
442.914	21018.82
443.121	21954.74
443.328	21231.8
443.534	22950.05
443.741	22362.28
443.948	21534.9
444.154	23672.98
444.361	23046.3
444.568	23591.06
444.774	23591.06
444.981	23554.2
445.187	24346.76
445.394	25366.65
445.6	25071.75
445.807	27633.75
446.013	26337.39
446.22	26966.12
446.426	28035.16
446.633	27912.28
446.839	28936.26
447.046	27781.21
447.252	29499.45
447.459	29182.02
447.665	29216.83
447.871	30339.12
448.078	31737.88
448.284	30148.66
448.491	30896.17
448.697	32221.2
448.903	32804.88
449.11	32976.9
449.316	32417.81
449.522	33030.15
449.728	33781.76
449.935	34119.67
450.141	34047.99
450.347	34865.13
450.553	33738.75
450.76	34263.03
450.966	35153.9
451.172	34750.45
451.378	35547.11
451.584	35037.16
451.791	35893.21
451.997	35540.96
452.203	36317.14
452.409	36433.88
452.615	36114.39
452.821	34695.15
453.027	34129.91
453.233	36335.57
453.44	34308.08
453.646	34834.41
453.852	34873.32
454.058	35669.98
454.264	34285.56
454.47	35082.22
454.676	34224.12
454.882	35418.08
455.088	32245.78
455.294	33013.77
455.5	33280
455.705	33722.37
455.911	32186.39
456.117	31567.9
456.323	31248.42
456.529	29360.19
456.735	30683.18
456.941	29935.67
457.147	29532.22
457.352	28698.7
457.558	28137.55
457.764	28428.37
457.97	27689.05
458.176	27123.81
458.381	27031.65
458.587	25751.67
458.793	25477.24
458.999	24422.54
459.204	26153.07
459.41	25403.52
459.616	23808.15
459.821	23670.93
460.027	23525.53
460.233	23138.46
460.438	21682.36
460.644	22292.65
460.85	21180.6
461.055	20863.17
461.261	20840.64
461.466	19177.69
461.672	18542.82
461.878	19912.91
462.083	18673.89
462.289	18534.63
462.494	18114.8
462.7	17273.08
462.905	16943.36
463.111	17604.85
463.316	17697.01
463.522	17142.01
463.727	17217.79
463.932	17193.21
464.138	16910.59
464.343	17078.52
464.549	16576.77
464.754	17170.68
464.959	16974.08
465.165	16726.27
465.37	16226.57
465.575	15737.1
465.781	16193.8
465.986	16328.97
466.191	15845.65
466.397	15462.68
466.602	14741.79
466.807	15354.13
467.012	15489.3
467.218	15485.2
467.423	15114.52
467.628	14952.73
467.833	15864.08
