Data from USB4F104151__38__11-30-19-014.txt Node

Date: Fri Mar 14 11:30:19 EDT 2025
User: louis
Spectrometer: USB4F10415
Trigger mode: 4
Integration Time (sec): 5.000000E-2
Scans to average: 1
Electric dark correction enabled: true
Nonlinearity correction enabled: false
Boxcar width: 0
XAxis mode: Wavelengths
Number of Pixels in Spectrum: 3648
>>>>>Begin Spectral Data<<<<<
178.204	-164.35
178.424	-164.35
178.644	-164.35
178.864	-162.3
179.084	-170.49
179.304	17.92
179.524	-70.14
179.744	42.5
179.964	71.17
180.184	32.26
180.404	5.63
180.624	-2.56
180.844	34.3
181.064	-53.76
181.283	5.63
181.503	-51.71
181.723	-31.23
181.943	-72.19
182.163	46.59
182.383	62.98
182.602	71.17
182.822	81.41
183.042	9.73
183.262	-47.62
183.482	9.73
183.701	38.4
183.921	-20.99
184.141	-4.61
184.361	99.84
184.58	-6.66
184.8	46.59
185.02	46.59
185.239	34.3
185.459	1.54
185.679	134.65
185.898	9.73
186.118	9.73
186.338	11.78
186.557	50.69
186.777	-10.75
186.997	-8.7
187.216	32.26
187.436	83.45
187.655	79.36
187.875	95.74
188.095	22.02
188.314	13.82
188.534	65.02
188.753	34.3
188.973	-16.9
189.192	116.22
189.412	54.78
189.631	103.93
189.851	-8.7
190.07	99.84
190.29	-68.09
190.509	46.59
190.729	58.88
190.948	42.5
191.168	169.47
191.387	30.21
191.607	62.98
191.826	24.06
192.045	-6.66
192.265	26.11
192.484	28.16
192.704	-6.66
192.923	-16.9
193.142	36.35
193.362	38.4
193.581	105.98
193.8	-0.51
194.02	32.26
194.239	42.5
194.458	87.55
194.678	34.3
194.897	17.92
195.116	9.73
195.335	50.69
195.555	-2.56
195.774	26.11
195.993	62.98
196.212	40.45
196.432	91.65
196.651	9.73
196.87	7.68
197.089	93.69
197.308	30.21
197.528	62.98
197.747	-23.04
197.966	22.02
198.185	105.98
198.404	32.26
198.623	58.88
198.842	130.56
199.062	50.69
199.281	65.02
199.5	17.92
199.719	17.92
199.938	110.08
200.157	54.78
200.376	42.5
200.595	73.21
200.814	108.03
201.033	15.87
201.252	75.26
201.471	26.11
201.69	67.07
201.909	-2.56
202.128	-0.51
202.347	58.88
202.566	17.92
202.785	32.26
203.004	-25.09
203.223	101.89
203.442	71.17
203.661	-18.94
203.879	26.11
204.098	62.98
204.317	-27.14
204.536	95.74
204.755	36.35
204.974	83.45
205.193	-6.66
205.411	95.74
205.63	15.87
205.849	75.26
206.068	26.11
206.287	1.54
206.505	73.21
206.724	9.73
206.943	1.54
207.162	40.45
207.381	93.69
207.599	9.73
207.818	34.3
208.037	24.06
208.255	56.83
208.474	32.26
208.693	34.3
208.911	-6.66
209.13	1.54
209.349	40.45
209.567	32.26
209.786	95.74
210.005	9.73
210.223	13.82
210.442	17.92
210.661	77.31
210.879	24.06
211.098	-6.66
211.316	34.3
211.535	81.41
211.753	-0.51
211.972	-16.9
212.191	-4.61
212.409	11.78
212.628	42.5
212.846	42.5
213.065	-14.85
213.283	30.21
213.502	91.65
213.72	-0.51
213.938	67.07
214.157	71.17
214.375	65.02
214.594	46.59
214.812	83.45
215.031	36.35
215.249	40.45
215.467	42.5
215.686	118.27
215.904	54.78
216.122	-10.75
216.341	-6.66
216.559	-0.51
216.778	93.69
216.996	67.07
217.214	-31.23
217.432	13.82
217.651	34.3
217.869	-29.18
218.087	58.88
218.306	38.4
218.524	46.59
218.742	26.11
218.96	40.45
219.179	17.92
219.397	13.82
219.615	132.61
219.833	97.79
220.051	26.11
220.27	103.93
220.488	34.3
220.706	62.98
220.924	17.92
221.142	-6.66
221.36	48.64
221.578	65.02
221.796	22.02
222.015	42.5
222.233	1.54
222.451	81.41
222.669	1.54
222.887	-4.61
223.105	-0.51
223.323	54.78
223.541	19.97
223.759	110.08
223.977	50.69
224.195	95.74
224.413	110.08
224.631	46.59
224.849	36.35
225.067	101.89
225.285	-14.85
225.503	42.5
225.721	-125.44
225.939	58.88
226.157	32.26
226.375	67.07
226.592	26.11
226.81	-70.14
227.028	73.21
227.246	130.56
227.464	-14.85
227.682	34.3
227.9	108.03
228.117	30.21
228.335	50.69
228.553	34.3
228.771	58.88
228.989	105.98
229.206	46.59
229.424	-4.61
229.642	-47.62
229.86	56.83
230.077	132.61
230.295	32.26
230.513	-4.61
230.731	65.02
230.948	83.45
231.166	34.3
231.384	34.3
231.601	1.54
231.819	67.07
232.037	65.02
232.254	1.54
232.472	36.35
232.689	30.21
232.907	67.07
233.125	36.35
233.342	34.3
233.56	9.73
233.777	34.3
233.995	30.21
234.213	105.98
234.43	-16.9
234.648	26.11
234.865	-2.56
235.083	24.06
235.3	75.26
235.518	19.97
235.735	95.74
235.953	34.3
236.17	-31.23
236.388	60.93
236.605	58.88
236.822	91.65
237.04	26.11
237.257	48.64
237.475	-6.66
237.692	58.88
237.909	99.84
238.127	40.45
238.344	81.41
238.562	99.84
238.779	-2.56
238.996	38.4
239.214	34.3
239.431	87.55
239.648	67.07
239.865	62.98
240.083	79.36
240.3	42.5
240.517	-0.51
240.735	24.06
240.952	34.3
241.169	52.74
241.386	34.3
241.603	38.4
241.821	19.97
242.038	75.26
242.255	83.45
242.472	5.63
242.689	73.21
242.907	46.59
243.124	28.16
243.341	-39.42
243.558	-8.7
243.775	34.3
243.992	-72.19
244.209	83.45
244.426	75.26
244.643	71.17
244.86	58.88
245.078	65.02
245.295	89.6
245.512	67.07
245.729	7.68
245.946	58.88
246.163	32.26
246.38	44.54
246.597	69.12
246.814	40.45
247.031	15.87
247.248	34.3
247.464	38.4
247.681	32.26
247.898	28.16
248.115	50.69
248.332	-6.66
248.549	50.69
248.766	83.45
248.983	75.26
249.2	67.07
249.417	5.63
249.633	54.78
249.85	-6.66
250.067	-2.56
250.284	-8.7
250.501	118.27
250.717	75.26
250.934	-14.85
251.151	26.11
251.368	5.63
251.585	89.6
251.801	69.12
252.018	-27.14
252.235	105.98
252.451	-12.8
252.668	17.92
252.885	116.22
253.102	83.45
253.318	44.54
253.535	17.92
253.752	42.5
253.968	1.54
254.185	38.4
254.401	-66.05
254.618	58.88
254.835	26.11
255.051	58.88
255.268	46.59
255.484	99.84
255.701	17.92
255.917	11.78
256.134	-6.66
256.351	69.12
256.567	1.54
256.784	91.65
257	26.11
257.217	5.63
257.433	-25.09
257.65	-47.62
257.866	75.26
258.082	-47.62
258.299	26.11
258.515	40.45
258.732	-43.52
258.948	65.02
259.165	130.56
259.381	1.54
259.597	56.83
259.814	77.31
260.03	71.17
260.246	11.78
260.463	81.41
260.679	87.55
260.895	7.68
261.112	32.26
261.328	-4.61
261.544	89.6
261.761	165.37
261.977	36.35
262.193	-14.85
262.409	32.26
262.626	50.69
262.842	101.89
263.058	54.78
263.274	1.54
263.49	24.06
263.707	62.98
263.923	91.65
264.139	46.59
264.355	79.36
264.571	108.03
264.787	81.41
265.004	-29.18
265.22	50.69
265.436	-78.33
265.652	-18.94
265.868	38.4
266.084	28.16
266.3	48.64
266.516	-31.23
266.732	85.5
266.948	1.54
267.164	26.11
267.38	42.5
267.596	50.69
267.812	95.74
268.028	32.26
268.244	58.88
268.46	-8.7
268.676	19.97
268.892	83.45
269.108	26.11
269.324	22.02
269.54	-66.05
269.756	75.26
269.972	34.3
270.188	15.87
270.403	9.73
270.619	122.37
270.835	24.06
271.051	32.26
271.267	36.35
271.483	-2.56
271.698	50.69
271.914	38.4
272.13	65.02
272.346	75.26
272.562	9.73
272.777	56.83
272.993	46.59
273.209	-14.85
273.425	89.6
273.64	-6.66
273.856	54.78
274.072	44.54
274.287	32.26
274.503	62.98
274.719	5.63
274.934	24.06
275.15	30.21
275.366	1.54
275.581	1.54
275.797	69.12
276.012	-16.9
276.228	-2.56
276.444	79.36
276.659	79.36
276.875	-0.51
277.09	30.21
277.306	15.87
277.521	-14.85
277.737	103.93
277.952	9.73
278.168	46.59
278.383	38.4
278.599	34.3
278.814	120.32
279.03	24.06
279.245	91.65
279.461	24.06
279.676	67.07
279.892	-6.66
280.107	13.82
280.322	9.73
280.538	9.73
280.753	26.11
280.969	52.74
281.184	75.26
281.399	95.74
281.615	13.82
281.83	56.83
282.045	58.88
282.26	22.02
282.476	118.27
282.691	89.6
282.906	71.17
283.122	-18.94
283.337	40.45
283.552	40.45
283.767	89.6
283.983	62.98
284.198	17.92
284.413	42.5
284.628	34.3
284.843	26.11
285.058	65.02
285.274	-55.81
285.489	83.45
285.704	-12.8
285.919	73.21
286.134	28.16
286.349	38.4
286.564	-16.9
286.779	71.17
286.995	44.54
287.21	-27.14
287.425	-29.18
287.64	-0.51
287.855	-16.9
288.07	-14.85
288.285	155.13
288.5	46.59
288.715	85.5
288.93	-27.14
289.145	17.92
289.36	91.65
289.575	42.5
289.79	13.82
290.004	-16.9
290.219	114.17
290.434	9.73
290.649	1.54
290.864	-16.9
291.079	19.97
291.294	30.21
291.509	75.26
291.724	77.31
291.938	-64
292.153	58.88
292.368	-8.7
292.583	-0.51
292.798	50.69
293.012	42.5
293.227	60.93
293.442	83.45
293.657	110.08
293.871	44.54
294.086	52.74
294.301	56.83
294.516	62.98
294.73	87.55
294.945	36.35
295.16	13.82
295.374	116.22
295.589	58.88
295.804	50.69
296.018	38.4
296.233	79.36
296.447	62.98
296.662	-59.9
296.877	30.21
297.091	22.02
297.306	50.69
297.52	-23.04
297.735	40.45
297.949	54.78
298.164	1.54
298.378	62.98
298.593	-18.94
298.807	73.21
299.022	-23.04
299.236	-12.8
299.451	-35.33
299.665	34.3
299.88	40.45
300.094	-6.66
300.309	-4.61
300.523	50.69
300.737	1.54
300.952	67.07
301.166	24.06
301.381	48.64
301.595	1.54
301.809	-35.33
302.024	42.5
302.238	32.26
302.452	48.64
302.667	81.41
302.881	114.17
303.095	69.12
303.309	5.63
303.524	60.93
303.738	32.26
303.952	-16.9
304.166	79.36
304.381	73.21
304.595	50.69
304.809	17.92
305.023	-31.23
305.237	52.74
305.452	79.36
305.666	-6.66
305.88	71.17
306.094	32.26
306.308	75.26
306.522	112.13
306.736	62.98
306.95	77.31
307.164	1.54
307.379	-39.42
307.593	48.64
307.807	26.11
308.021	58.88
308.235	3.58
308.449	3.58
308.663	58.88
308.877	91.65
309.091	9.73
309.305	40.45
309.519	62.98
309.733	75.26
309.947	-4.61
310.161	-4.61
310.374	75.26
310.588	71.17
310.802	15.87
311.016	48.64
311.23	99.84
311.444	5.63
311.658	52.74
311.872	26.11
312.085	11.78
312.299	161.28
312.513	34.3
312.727	17.92
312.941	50.69
313.154	-14.85
313.368	73.21
313.582	28.16
313.796	42.5
314.009	1.54
314.223	91.65
314.437	67.07
314.651	67.07
314.864	17.92
315.078	7.68
315.292	26.11
315.505	58.88
315.719	54.78
315.933	9.73
316.146	-23.04
316.36	24.06
316.573	69.12
316.787	-6.66
317.001	40.45
317.214	34.3
317.428	34.3
317.641	-27.14
317.855	50.69
318.068	-2.56
318.282	22.02
318.495	89.6
318.709	5.63
318.922	36.35
319.136	89.6
319.349	26.11
319.563	26.11
319.776	-29.18
319.99	15.87
320.203	73.21
320.417	9.73
320.63	34.3
320.843	75.26
321.057	79.36
321.27	73.21
321.483	52.74
321.697	122.37
321.91	9.73
322.124	26.11
322.337	50.69
322.55	-51.71
322.763	50.69
322.977	58.88
323.19	38.4
323.403	56.83
323.617	15.87
323.83	58.88
324.043	9.73
324.256	42.5
324.469	36.35
324.683	17.92
324.896	101.89
325.109	116.22
325.322	22.02
325.535	-2.56
325.748	62.98
325.962	42.5
326.175	-55.81
326.388	17.92
326.601	62.98
326.814	1.54
327.027	-23.04
327.24	44.54
327.453	-33.28
327.666	75.26
327.879	105.98
328.092	-6.66
328.305	50.69
328.518	38.4
328.731	42.5
328.944	52.74
329.157	62.98
329.37	15.87
329.583	62.98
329.796	179.71
330.009	-39.42
330.222	81.41
330.435	87.55
330.648	91.65
330.861	22.02
331.073	58.88
331.286	17.92
331.499	38.4
331.712	-45.57
331.925	42.5
332.138	75.26
332.35	112.13
332.563	-6.66
332.776	99.84
332.989	13.82
333.202	75.26
333.414	-10.75
333.627	-6.66
333.84	-47.62
334.053	46.59
334.265	1.54
334.478	26.11
334.691	75.26
334.903	11.78
335.116	-57.86
335.329	17.92
335.541	-16.9
335.754	67.07
335.966	-6.66
336.179	83.45
336.392	13.82
336.604	48.64
336.817	79.36
337.029	17.92
337.242	73.21
337.454	97.79
337.667	32.26
337.88	136.7
338.092	-35.33
338.305	50.69
338.517	-72.19
338.729	-2.56
338.942	108.03
339.154	50.69
339.367	1.54
339.579	91.65
339.792	26.11
340.004	73.21
340.217	-2.56
340.429	38.4
340.641	-23.04
340.854	-2.56
341.066	42.5
341.278	93.69
341.491	99.84
341.703	19.97
341.915	42.5
342.128	54.78
342.34	17.92
342.552	-18.94
342.764	13.82
342.977	34.3
343.189	50.69
343.401	110.08
343.613	30.21
343.826	-39.42
344.038	-6.66
344.25	9.73
344.462	-10.75
344.674	52.74
344.886	30.21
345.099	36.35
345.311	89.6
345.523	9.73
345.735	-55.81
345.947	69.12
346.159	46.59
346.371	-27.14
346.583	52.74
346.795	165.37
347.007	30.21
347.219	50.69
347.431	9.73
347.643	34.3
347.855	38.4
348.067	71.17
348.279	-14.85
348.491	3.58
348.703	71.17
348.915	67.07
349.127	38.4
349.339	13.82
349.551	93.69
349.763	73.21
349.975	46.59
350.187	116.22
350.399	105.98
350.61	34.3
350.822	56.83
351.034	116.22
351.246	-6.66
351.458	9.73
351.669	73.21
351.881	99.84
352.093	87.55
352.305	50.69
352.517	48.64
352.728	30.21
352.94	52.74
353.152	24.06
353.363	89.6
353.575	87.55
353.787	146.94
353.999	32.26
354.21	108.03
354.422	81.41
354.633	9.73
354.845	56.83
355.057	58.88
355.268	71.17
355.48	112.13
355.692	11.78
355.903	-23.04
356.115	30.21
356.326	7.68
356.538	30.21
356.749	75.26
356.961	136.7
357.172	22.02
357.384	-68.09
357.595	97.79
357.807	1.54
358.018	28.16
358.23	26.11
358.441	124.41
358.653	67.07
358.864	42.5
359.075	46.59
359.287	-14.85
359.498	26.11
359.709	13.82
359.921	67.07
360.132	30.21
360.344	91.65
360.555	-0.51
360.766	13.82
360.977	42.5
361.189	75.26
361.4	50.69
361.611	112.13
361.823	65.02
362.034	-47.62
362.245	-23.04
362.456	19.97
362.667	89.6
362.879	-18.94
363.09	58.88
363.301	65.02
363.512	13.82
363.723	7.68
363.935	50.69
364.146	83.45
364.357	-88.57
364.568	22.02
364.779	42.5
364.99	22.02
365.201	15.87
365.412	75.26
365.623	-10.75
365.834	13.82
366.045	75.26
366.256	91.65
366.467	89.6
366.678	58.88
366.889	46.59
367.1	-16.9
367.311	91.65
367.522	32.26
367.733	50.69
367.944	124.41
368.155	-6.66
368.366	17.92
368.577	50.69
368.788	79.36
368.999	-2.56
369.209	73.21
369.42	108.03
369.631	91.65
369.842	79.36
370.053	60.93
370.264	38.4
370.474	30.21
370.685	36.35
370.896	89.6
371.107	58.88
371.317	93.69
371.528	1.54
371.739	91.65
371.95	19.97
372.16	46.59
372.371	73.21
372.582	-2.56
372.792	54.78
373.003	38.4
373.214	13.82
373.424	112.13
373.635	13.82
373.846	65.02
374.056	26.11
374.267	38.4
374.477	46.59
374.688	22.02
374.898	19.97
375.109	50.69
375.319	116.22
375.53	91.65
375.74	89.6
375.951	81.41
376.161	73.21
376.372	36.35
376.582	15.87
376.793	71.17
377.003	-43.52
377.214	15.87
377.424	19.97
377.635	54.78
377.845	13.82
378.055	56.83
378.266	1.54
378.476	-6.66
378.686	89.6
378.897	79.36
379.107	-10.75
379.317	99.84
379.528	71.17
379.738	-2.56
379.948	-18.94
380.158	73.21
380.369	58.88
380.579	132.61
380.789	42.5
380.999	34.3
381.21	22.02
381.42	58.88
381.63	19.97
381.84	67.07
382.05	-72.19
382.261	30.21
382.471	-57.86
382.681	46.59
382.891	132.61
383.101	-27.14
383.311	58.88
383.521	17.92
383.731	26.11
383.941	114.17
384.151	17.92
384.361	7.68
384.571	40.45
384.781	103.93
384.991	99.84
385.201	108.03
385.411	62.98
385.621	105.98
385.831	52.74
386.041	46.59
386.251	42.5
386.461	103.93
386.671	75.26
386.881	34.3
387.091	71.17
387.301	54.78
387.511	5.63
387.72	65.02
387.93	73.21
388.14	9.73
388.35	-2.56
388.56	34.3
388.769	58.88
388.979	7.68
389.189	79.36
389.399	15.87
389.609	91.65
389.818	34.3
390.028	7.68
390.238	24.06
390.447	62.98
390.657	77.31
390.867	13.82
391.076	-0.51
391.286	30.21
391.496	30.21
391.705	89.6
391.915	67.07
392.125	95.74
392.334	-39.42
392.544	50.69
392.753	30.21
392.963	93.69
393.172	103.93
393.382	163.33
393.591	99.84
393.801	71.17
394.01	122.37
394.22	89.6
394.429	89.6
394.639	65.02
394.848	32.26
395.058	95.74
395.267	83.45
395.477	144.89
395.686	122.37
395.895	116.22
396.105	140.8
396.314	116.22
396.524	89.6
396.733	108.03
396.942	122.37
397.152	34.3
397.361	83.45
397.57	-35.33
397.78	34.3
397.989	130.56
398.198	116.22
398.407	17.92
398.617	71.17
398.826	81.41
399.035	42.5
399.244	122.37
399.453	91.65
399.663	173.57
399.872	79.36
400.081	46.59
400.29	65.02
400.499	73.21
400.708	155.13
400.917	11.78
401.127	163.33
401.336	58.88
401.545	105.98
401.754	89.6
401.963	97.79
402.172	50.69
402.381	1.54
402.59	40.45
402.799	161.28
403.008	105.98
403.217	116.22
403.426	163.33
403.635	28.16
403.844	108.03
404.053	148.99
404.262	105.98
404.471	95.74
404.68	89.6
404.888	87.55
405.097	97.79
405.306	122.37
405.515	83.45
405.724	110.08
405.933	163.33
406.142	157.18
406.35	171.52
406.559	200.19
406.768	130.56
406.977	192
407.185	118.27
407.394	228.86
407.603	163.33
407.812	169.47
408.02	185.85
408.229	196.09
408.438	239.1
408.646	122.37
408.855	157.18
409.064	157.18
409.272	95.74
409.481	306.68
409.69	235
409.898	108.03
410.107	224.76
410.315	259.58
410.524	171.52
410.733	300.54
410.941	198.14
411.15	292.35
411.358	292.35
411.567	333.31
411.775	341.5
411.984	335.35
412.192	288.25
412.401	288.25
412.609	386.55
412.818	409.08
413.026	357.88
413.234	310.78
413.443	310.78
413.651	415.23
413.86	335.35
414.068	386.55
414.276	425.47
414.485	396.79
414.693	484.86
414.901	470.52
415.11	554.49
415.318	470.52
415.526	515.58
415.734	517.62
415.943	607.73
416.151	464.38
416.359	529.91
416.567	562.68
416.776	615.93
416.984	665.08
417.192	722.42
417.4	706.04
417.608	634.36
417.817	759.28
418.025	693.75
418.233	916.98
418.441	796.15
418.649	869.87
418.857	849.4
419.065	982.51
419.273	812.53
419.481	949.75
419.689	964.08
419.897	984.56
420.105	949.75
420.313	1021.42
420.521	1123.82
420.729	1195.5
420.937	1127.92
421.145	1299.95
421.353	1222.13
421.561	1359.34
421.769	1381.87
421.977	1398.25
422.185	1336.81
422.393	1535.46
422.601	1613.29
422.809	1615.34
423.017	1582.57
423.224	1656.29
423.432	1660.39
423.64	1670.63
423.848	1818.08
424.056	1811.94
424.263	1998.31
424.471	1897.96
424.679	1965.54
424.887	2094.56
425.094	2156
425.302	2153.95
425.51	2270.69
425.718	2209.25
425.925	2272.73
426.133	2407.9
426.341	2432.47
426.548	2614.74
426.756	2708.95
426.964	2616.79
427.171	2868.69
427.379	2938.32
427.586	2954.71
427.794	3102.16
428.001	3229.13
428.209	3317.2
428.417	3380.68
428.624	3603.91
428.832	3491.27
429.039	3438.03
429.247	3362.25
429.454	3786.18
429.662	4062.66
429.869	3722.7
430.076	4115.91
430.284	3900.87
430.491	4214.21
430.699	4406.72
430.906	4447.68
431.114	4388.29
431.321	4595.13
431.528	4611.51
431.736	4916.66
431.943	5135.79
432.15	5027.25
432.358	4967.86
432.565	5426.61
432.772	5211.57
432.979	5600.68
433.187	5750.18
433.394	5785
433.601	6174.11
433.808	6092.2
434.016	6235.55
434.223	6434.21
434.43	6751.64
434.637	6782.36
434.844	7052.69
435.052	7185.81
435.259	7191.95
435.466	7353.74
435.673	7296.4
435.88	7636.36
436.087	8033.67
436.294	7896.46
436.501	7710.09
436.708	7921.03
436.915	8312.19
437.122	8832.38
437.329	8623.48
437.537	8871.29
437.743	8932.73
437.95	9151.86
438.157	9411.95
438.364	9637.23
438.571	9586.03
438.778	9561.45
438.985	10638.69
439.192	10188.13
439.399	10591.58
439.606	10407.27
439.813	10718.56
440.02	11517.26
440.227	11369.81
440.433	11148.63
440.64	11781.45
440.847	11586.9
441.054	11734.35
441.261	12868.92
441.467	12414.27
441.674	12733.76
441.881	13221.17
442.088	13196.6
442.294	13161.78
442.501	13616.43
442.708	13423.92
442.914	14157.1
443.121	14820.64
443.328	14193.96
443.534	15328.53
443.741	14865.69
443.948	14755.1
444.154	15973.64
444.361	16088.33
444.568	15959.31
444.774	16026.89
444.981	16270.6
445.187	16813.31
445.394	17421.56
445.6	16987.39
445.807	18683.11
446.013	17855.73
446.22	18283.75
446.426	18963.68
446.633	19305.69
446.839	19592.41
447.046	18910.43
447.252	19885.26
447.459	19850.45
447.665	19623.12
447.871	20651.2
448.078	21353.66
448.284	20298.95
448.491	21120.19
448.697	21906.61
448.903	22160.56
449.11	22330.54
449.316	22060.21
449.522	22576.3
449.728	22914.21
449.935	22987.94
450.141	22977.7
450.347	23628.95
450.553	22971.55
450.76	23340.19
450.966	24042.64
451.172	23594.14
451.378	24216.72
451.584	23843.99
451.791	24190.09
451.997	24421.52
452.203	24659.08
452.409	24427.66
452.615	24339.6
452.821	23401.63
453.027	23291.04
453.233	24616.07
453.44	23528.6
453.646	23850.13
453.852	23880.85
454.058	24517.77
454.264	23499.93
454.47	24186
454.676	23114.91
454.882	24218.77
455.088	21986.48
455.294	22490.28
455.5	22754.47
455.705	23180.45
455.911	21873.84
456.117	21363.9
456.323	21353.66
456.529	20174.03
456.735	20925.63
456.941	20407.5
457.147	20065.49
457.352	19528.92
457.558	19248.35
457.764	19559.64
457.97	18949.34
458.176	18625.76
458.381	18412.78
458.587	17646.83
458.793	17460.47
458.999	16585.99
459.204	17747.19
459.41	17476.85
459.616	16299.27
459.821	16241.93
460.027	16282.89
460.233	15797.52
460.438	15334.68
460.644	15070.49
460.85	14404.9
461.055	14083.37
461.261	14200.1
461.466	13202.74
461.672	12559.68
461.878	13653.3
462.083	12864.83
462.289	12385.6
462.494	12244.29
462.7	11912.52
462.905	11498.83
463.111	12096.84
463.316	12158.28
463.522	11615.57
463.727	11572.56
463.932	11603.28
464.138	11554.13
464.343	11584.85
464.549	11197.78
464.754	11545.94
464.959	11470.16
465.165	11634
465.37	10909.02
465.575	10562.91
465.781	11253.08
465.986	11269.46
466.191	10589.53
466.397	10444.13
466.602	10071.4
466.807	10366.31
467.012	10538.34
467.218	10427.74
467.423	10132.84
467.628	10409.31
467.833	10507.62
468.038	10421.6
468.244	10093.93
468.449	10464.61
468.654	10089.83
468.859	9864.55
