Data from USB4F104151__107__11-35-18-076.txt Node

Date: Fri Mar 14 11:35:18 EDT 2025
User: louis
Spectrometer: USB4F10415
Trigger mode: 4
Integration Time (sec): 2.000000E-2
Scans to average: 1
Electric dark correction enabled: true
Nonlinearity correction enabled: false
Boxcar width: 0
XAxis mode: Wavelengths
Number of Pixels in Spectrum: 3648
>>>>>Begin Spectral Data<<<<<
178.204	-78.51
178.424	-78.51
178.644	-78.51
178.864	-51.88
179.084	-47.79
179.304	-12.97
179.524	-19.11
179.744	1.37
179.964	-15.02
180.184	81.24
180.404	-33.45
180.624	17.75
180.844	64.85
181.064	-37.55
181.283	-27.31
181.503	-0.68
181.723	-19.11
181.943	-64.17
182.163	62.8
182.383	-23.21
182.602	17.75
182.822	-12.97
183.042	-4.78
183.262	17.75
183.482	-29.35
183.701	48.47
183.921	13.65
184.141	5.46
184.361	81.24
184.58	-25.26
184.8	81.24
185.02	9.56
185.239	111.96
185.459	13.65
185.679	1.37
185.898	-15.02
186.118	-2.73
186.338	1.37
186.557	42.32
186.777	-58.03
186.997	30.04
187.216	13.65
187.436	77.14
187.655	48.47
187.875	21.85
188.095	60.76
188.314	-8.87
188.534	13.65
188.753	11.61
188.973	52.56
189.192	56.66
189.412	-17.07
189.631	17.75
189.851	79.19
190.07	103.76
190.29	25.94
190.509	30.04
190.729	-41.64
190.948	32.08
191.168	42.32
191.387	126.29
191.607	7.51
191.826	-8.87
192.045	11.61
192.265	30.04
192.484	-47.79
192.704	11.61
192.923	-6.83
193.142	46.42
193.362	17.75
193.581	23.89
193.8	-2.73
194.02	5.46
194.239	30.04
194.458	38.23
194.678	-39.59
194.897	-27.31
195.116	66.9
195.335	97.62
195.555	9.56
195.774	50.52
195.993	58.71
196.212	40.28
196.432	-23.21
196.651	5.46
196.87	15.7
197.089	62.8
197.308	48.47
197.528	-17.07
197.747	-45.74
197.966	-19.11
198.185	66.9
198.404	50.52
198.623	56.66
198.842	99.67
199.062	21.85
199.281	50.52
199.5	-6.83
199.719	25.94
199.938	38.23
200.157	13.65
200.376	30.04
200.595	56.66
200.814	38.23
201.033	-15.02
201.252	64.85
201.471	32.08
201.69	83.28
201.909	46.42
202.128	-0.68
202.347	15.7
202.566	-31.4
202.785	60.76
203.004	15.7
203.223	42.32
203.442	17.75
203.661	9.56
203.879	56.66
204.098	99.67
204.317	34.13
204.536	46.42
204.755	42.32
204.974	62.8
205.193	13.65
205.411	64.85
205.63	3.41
205.849	5.46
206.068	-37.55
206.287	7.51
206.505	25.94
206.724	9.56
206.943	-41.64
207.162	38.23
207.381	36.18
207.599	7.51
207.818	-31.4
208.037	36.18
208.255	46.42
208.474	66.9
208.693	-31.4
208.911	-15.02
209.13	25.94
209.349	107.86
209.567	-2.73
209.786	34.13
210.005	9.56
210.223	64.85
210.442	-15.02
210.661	54.61
210.879	48.47
211.098	-10.92
211.316	36.18
211.535	-25.26
211.753	15.7
211.972	5.46
212.191	-6.83
212.409	40.28
212.628	79.19
212.846	38.23
213.065	73.04
213.283	-15.02
213.502	-23.21
213.72	99.67
213.938	50.52
214.157	-23.21
214.375	11.61
214.594	36.18
214.812	-64.17
215.031	23.89
215.249	9.56
215.467	13.65
215.686	23.89
215.904	148.82
216.122	25.94
216.341	5.46
216.559	-8.87
216.778	5.46
216.996	25.94
217.214	42.32
217.432	11.61
217.651	5.46
217.869	-19.11
218.087	-31.4
218.306	17.75
218.524	7.51
218.742	-76.46
218.96	25.94
219.179	25.94
219.397	62.8
219.615	17.75
219.833	44.37
220.051	1.37
220.27	38.23
220.488	13.65
220.706	-6.83
220.924	-15.02
221.142	-49.83
221.36	38.23
221.578	13.65
221.796	-15.02
222.015	50.52
222.233	30.04
222.451	-12.97
222.669	15.7
222.887	-41.64
223.105	-55.98
223.323	15.7
223.541	36.18
223.759	27.99
223.977	1.37
224.195	40.28
224.413	79.19
224.631	-2.73
224.849	42.32
225.067	91.48
225.285	-35.5
225.503	-21.16
225.721	46.42
225.939	66.9
226.157	-0.68
226.375	50.52
226.592	-2.73
226.81	85.33
227.028	17.75
227.246	42.32
227.464	44.37
227.682	44.37
227.9	-6.83
228.117	9.56
228.335	17.75
228.553	-21.16
228.771	17.75
228.989	-15.02
229.206	38.23
229.424	27.99
229.642	-2.73
229.86	-47.79
230.077	-39.59
230.295	-90.79
230.513	17.75
230.731	-33.45
230.948	17.75
231.166	5.46
231.384	34.13
231.601	-45.74
231.819	66.9
232.037	-45.74
232.254	-60.07
232.472	30.04
232.689	40.28
232.907	-0.68
233.125	-0.68
233.342	-10.92
233.56	34.13
233.777	83.28
233.995	27.99
234.213	7.51
234.43	81.24
234.648	99.67
234.865	66.9
235.083	21.85
235.3	7.51
235.518	62.8
235.735	40.28
235.953	38.23
236.17	3.41
236.388	50.52
236.605	15.7
236.822	50.52
237.04	-23.21
237.257	126.29
237.475	17.75
237.692	13.65
237.909	83.28
238.127	-35.5
238.344	-39.59
238.562	58.71
238.779	62.8
238.996	21.85
239.214	-0.68
239.431	79.19
239.648	1.37
239.865	-29.35
240.083	25.94
240.3	27.99
240.517	21.85
240.735	-62.12
240.952	116.05
241.169	73.04
241.386	-31.4
241.603	1.37
241.821	-15.02
242.038	85.33
242.255	66.9
242.472	23.89
242.689	73.04
242.907	-10.92
243.124	21.85
243.341	23.89
243.558	-62.12
243.775	-17.07
243.992	-19.11
244.209	-21.16
244.426	9.56
244.643	60.76
244.86	-21.16
245.078	-0.68
245.295	-47.79
245.512	50.52
245.729	19.8
245.946	44.37
246.163	25.94
246.38	17.75
246.597	58.71
246.814	36.18
247.031	30.04
247.248	81.24
247.464	-6.83
247.681	-8.87
247.898	40.28
248.115	54.61
248.332	-62.12
248.549	21.85
248.766	130.39
248.983	-21.16
249.2	11.61
249.417	17.75
249.633	-23.21
249.85	-72.36
250.067	9.56
250.284	17.75
250.501	40.28
250.717	85.33
250.934	36.18
251.151	-17.07
251.368	91.48
251.585	75.09
251.801	-0.68
252.018	34.13
252.235	15.7
252.451	3.41
252.668	-72.36
252.885	25.94
253.102	142.68
253.318	40.28
253.535	-2.73
253.752	-4.78
253.968	-25.26
254.185	32.08
254.401	-0.68
254.618	-29.35
254.835	34.13
255.051	58.71
255.268	46.42
255.484	50.52
255.701	79.19
255.917	81.24
256.134	-64.17
256.351	71
256.567	7.51
256.784	19.8
257	-21.16
257.217	97.62
257.433	40.28
257.65	9.56
257.866	21.85
258.082	13.65
258.299	-82.6
258.515	85.33
258.732	15.7
258.948	-17.07
259.165	9.56
259.381	-23.21
259.597	21.85
259.814	-21.16
260.03	50.52
260.246	-45.74
260.463	-0.68
260.679	75.09
260.895	83.28
261.112	9.56
261.328	-10.92
261.544	-27.31
261.761	38.23
261.977	5.46
262.193	-41.64
262.409	25.94
262.626	-15.02
262.842	30.04
263.058	13.65
263.274	75.09
263.49	-15.02
263.707	54.61
263.923	62.8
264.139	34.13
264.355	9.56
264.571	32.08
264.787	-23.21
265.004	46.42
265.22	62.8
265.436	1.37
265.652	5.46
265.868	-2.73
266.084	30.04
266.3	7.51
266.516	-49.83
266.732	56.66
266.948	-0.68
267.164	-0.68
267.38	-8.87
267.596	1.37
267.812	52.56
268.028	32.08
268.244	46.42
268.46	-6.83
268.676	15.7
268.892	1.37
269.108	23.89
269.324	15.7
269.54	1.37
269.756	130.39
269.972	-15.02
270.188	17.75
270.403	-19.11
270.619	-10.92
270.835	97.62
271.051	19.8
271.267	-2.73
271.483	30.04
271.698	-41.64
271.914	17.75
272.13	34.13
272.346	21.85
272.562	25.94
272.777	-0.68
272.993	-51.88
273.209	-6.83
273.425	-6.83
273.64	7.51
273.856	40.28
274.072	32.08
274.287	-15.02
274.503	7.51
274.719	13.65
274.934	40.28
275.15	17.75
275.366	66.9
275.581	-15.02
275.797	87.38
276.012	46.42
276.228	13.65
276.444	32.08
276.659	89.43
276.875	-6.83
277.09	25.94
277.306	-6.83
277.521	66.9
277.737	-23.21
277.952	-23.21
278.168	9.56
278.383	-0.68
278.599	42.32
278.814	71
279.03	-29.35
279.245	21.85
279.461	13.65
279.676	-4.78
279.892	48.47
280.107	23.89
280.322	64.85
280.538	30.04
280.753	1.37
280.969	30.04
281.184	-31.4
281.399	105.81
281.615	50.52
281.83	13.65
282.045	-31.4
282.26	71
282.476	75.09
282.691	11.61
282.906	34.13
283.122	89.43
283.337	-31.4
283.552	-15.02
283.767	-17.07
283.983	77.14
284.198	46.42
284.413	13.65
284.628	-88.75
284.843	58.71
285.058	-23.21
285.274	-0.68
285.489	-0.68
285.704	-2.73
285.919	15.7
286.134	5.46
286.349	-27.31
286.564	36.18
286.779	36.18
286.995	56.66
287.21	-17.07
287.425	1.37
287.64	7.51
287.855	48.47
288.07	40.28
288.285	27.99
288.5	75.09
288.715	23.89
288.93	32.08
289.145	25.94
289.36	13.65
289.575	54.61
289.79	58.71
290.004	71
290.219	25.94
290.434	30.04
290.649	32.08
290.864	-0.68
291.079	7.51
291.294	103.76
291.509	-8.87
291.724	46.42
291.938	-64.17
292.153	15.7
292.368	42.32
292.583	40.28
292.798	40.28
293.012	36.18
293.227	-2.73
293.442	-15.02
293.657	-2.73
293.871	30.04
294.086	-0.68
294.301	34.13
294.516	32.08
294.73	54.61
294.945	23.89
295.16	-2.73
295.374	17.75
295.589	5.46
295.804	68.95
296.018	56.66
296.233	83.28
296.447	-62.12
296.662	30.04
296.877	40.28
297.091	40.28
297.306	38.23
297.52	11.61
297.735	9.56
297.949	50.52
298.164	32.08
298.378	-4.78
298.593	-33.45
298.807	42.32
299.022	-37.55
299.236	23.89
299.451	-37.55
299.665	34.13
299.88	38.23
300.094	23.89
300.309	32.08
300.523	77.14
300.737	42.32
300.952	-27.31
301.166	-2.73
301.381	56.66
301.595	71
301.809	34.13
302.024	15.7
302.238	-10.92
302.452	50.52
302.667	3.41
302.881	17.75
303.095	23.89
303.309	68.95
303.524	-51.88
303.738	30.04
303.952	58.71
304.166	40.28
304.381	42.32
304.595	42.32
304.809	42.32
305.023	30.04
305.237	19.8
305.452	38.23
305.666	73.04
305.88	-41.64
306.094	27.99
306.308	-47.79
306.522	34.13
306.736	34.13
306.95	30.04
307.164	17.75
307.379	54.61
307.593	34.13
307.807	17.75
308.021	7.51
308.235	34.13
308.449	7.51
308.663	19.8
308.877	73.04
309.091	44.37
309.305	46.42
309.519	54.61
309.733	27.99
309.947	-0.68
310.161	17.75
310.374	11.61
310.588	107.86
310.802	11.61
311.016	62.8
311.23	58.71
311.444	42.32
311.658	77.14
311.872	-25.26
312.085	56.66
312.299	107.86
312.513	73.04
312.727	79.19
312.941	5.46
313.154	75.09
313.368	62.8
313.582	34.13
313.796	58.71
314.009	30.04
314.223	-23.21
314.437	79.19
314.651	9.56
314.864	38.23
315.078	73.04
315.292	83.28
315.505	-35.5
315.719	32.08
315.933	66.9
316.146	27.99
316.36	23.89
316.573	68.95
316.787	-23.21
317.001	42.32
317.214	-19.11
317.428	150.87
317.641	30.04
317.855	46.42
318.068	46.42
318.282	46.42
318.495	17.75
318.709	91.48
318.922	3.41
319.136	73.04
319.349	54.61
319.563	15.7
319.776	30.04
319.99	1.37
320.203	34.13
320.417	-23.21
320.63	9.56
320.843	83.28
321.057	1.37
321.27	-2.73
321.483	1.37
321.697	-19.11
321.91	99.67
322.124	34.13
322.337	40.28
322.55	44.37
322.763	-2.73
322.977	13.65
323.19	19.8
323.403	15.7
323.617	62.8
323.83	32.08
324.043	-12.97
324.256	62.8
324.469	-23.21
324.683	85.33
324.896	-0.68
325.109	23.89
325.322	17.75
325.535	-15.02
325.748	5.46
325.962	73.04
326.175	38.23
326.388	66.9
326.601	58.71
326.814	25.94
327.027	62.8
327.24	118.1
327.453	-47.79
327.666	50.52
327.879	83.28
328.092	118.1
328.305	7.51
328.518	54.61
328.731	23.89
328.944	44.37
329.157	48.47
329.37	120.15
329.583	30.04
329.796	68.95
330.009	42.32
330.222	7.51
330.435	54.61
330.648	30.04
330.861	83.28
331.073	1.37
331.286	-6.83
331.499	40.28
331.712	1.37
331.925	-70.31
332.138	11.61
332.35	81.24
332.563	44.37
332.776	21.85
332.989	-10.92
333.202	-6.83
333.414	58.71
333.627	34.13
333.84	62.8
334.053	-2.73
334.265	-6.83
334.478	73.04
334.691	-4.78
334.903	9.56
335.116	-31.4
335.329	-6.83
335.541	111.96
335.754	81.24
335.966	50.52
336.179	91.48
336.392	25.94
336.604	58.71
336.817	34.13
337.029	101.72
337.242	34.13
337.454	5.46
337.667	-55.98
337.88	62.8
338.092	42.32
338.305	66.9
338.517	34.13
338.729	128.34
338.942	7.51
339.154	-35.5
339.367	-6.83
339.579	-66.22
339.792	13.65
340.004	42.32
340.217	101.72
340.429	40.28
340.641	34.13
340.854	7.51
341.066	-55.98
341.278	-25.26
341.491	52.56
341.703	-58.03
341.915	19.8
342.128	60.76
342.34	-27.31
342.552	44.37
342.764	25.94
342.977	7.51
343.189	77.14
343.401	9.56
343.613	-15.02
343.826	7.51
344.038	-0.68
344.25	15.7
344.462	21.85
344.674	9.56
344.886	-6.83
345.099	77.14
345.311	42.32
345.523	77.14
345.735	3.41
345.947	44.37
346.159	15.7
346.371	23.89
346.583	40.28
346.795	-2.73
347.007	13.65
347.219	116.05
347.431	-23.21
347.643	89.43
347.855	38.23
348.067	83.28
348.279	50.52
348.491	75.09
348.703	52.56
348.915	58.71
349.127	15.7
349.339	64.85
349.551	64.85
349.763	-0.68
349.975	64.85
350.187	21.85
350.399	48.47
350.61	34.13
350.822	95.57
351.034	3.41
351.246	71
351.458	157.01
351.669	-33.45
351.881	44.37
352.093	40.28
352.305	19.8
352.517	15.7
352.728	95.57
352.94	50.52
353.152	58.71
353.363	-8.87
353.575	21.85
353.787	50.52
353.999	25.94
354.21	58.71
354.422	64.85
354.633	17.75
354.845	103.76
355.057	81.24
355.268	30.04
355.48	60.76
355.692	42.32
355.903	91.48
356.115	25.94
356.326	15.7
356.538	56.66
356.749	58.71
356.961	58.71
357.172	42.32
357.384	85.33
357.595	95.57
357.807	1.37
358.018	-53.93
358.23	105.81
358.441	-29.35
358.653	107.86
358.864	56.66
359.075	48.47
359.287	52.56
359.498	-39.59
359.709	23.89
359.921	79.19
360.132	73.04
360.344	30.04
360.555	-64.17
360.766	64.85
360.977	1.37
361.189	25.94
361.4	48.47
361.611	27.99
361.823	58.71
362.034	83.28
362.245	13.65
362.456	66.9
362.667	62.8
362.879	-25.26
363.09	81.24
363.301	46.42
363.512	-6.83
363.723	36.18
363.935	64.85
364.146	60.76
364.357	9.56
364.568	38.23
364.779	-17.07
364.99	34.13
365.201	50.52
365.412	36.18
365.623	1.37
365.834	97.62
366.045	42.32
366.256	48.47
366.467	-10.92
366.678	13.65
366.889	27.99
367.1	97.62
367.311	44.37
367.522	34.13
367.733	15.7
367.944	17.75
368.155	-10.92
368.366	111.96
368.577	75.09
368.788	11.61
368.999	25.94
369.209	64.85
369.42	54.61
369.631	50.52
369.842	46.42
370.053	9.56
370.264	58.71
370.474	54.61
370.685	19.8
370.896	46.42
371.107	91.48
371.317	66.9
371.528	-2.73
371.739	83.28
371.95	-35.5
372.16	3.41
372.371	50.52
372.582	77.14
372.792	17.75
373.003	91.48
373.214	5.46
373.424	42.32
373.635	83.28
373.846	77.14
374.056	42.32
374.267	-88.75
374.477	73.04
374.688	13.65
374.898	30.04
375.109	62.8
375.319	56.66
375.53	58.71
375.74	9.56
375.951	-2.73
376.161	23.89
376.372	95.57
376.582	-15.02
376.793	3.41
377.003	114
377.214	50.52
377.424	58.71
377.635	23.89
377.845	7.51
378.055	-6.83
378.266	9.56
378.476	36.18
378.686	21.85
378.897	50.52
379.107	17.75
379.317	13.65
379.528	23.89
379.738	-17.07
379.948	-12.97
380.158	89.43
380.369	17.75
380.579	48.47
380.789	3.41
380.999	75.09
381.21	48.47
381.42	77.14
381.63	-29.35
381.84	62.8
382.05	44.37
382.261	83.28
382.471	48.47
382.681	25.94
382.891	17.75
383.101	9.56
383.311	9.56
383.521	107.86
383.731	54.61
383.941	17.75
384.151	83.28
384.361	71
384.571	17.75
384.781	128.34
384.991	89.43
385.201	89.43
385.411	64.85
385.621	-37.55
385.831	48.47
386.041	46.42
386.251	62.8
386.461	42.32
386.671	81.24
386.881	83.28
387.091	25.94
387.301	64.85
387.511	73.04
387.72	34.13
387.93	68.95
388.14	13.65
388.35	-10.92
388.56	-39.59
388.769	50.52
388.979	48.47
389.189	15.7
389.399	52.56
389.609	107.86
389.818	36.18
390.028	64.85
390.238	11.61
390.447	17.75
390.657	-2.73
390.867	27.99
391.076	-78.51
391.286	83.28
391.496	25.94
391.705	79.19
391.915	109.91
392.125	9.56
392.334	75.09
392.544	71
392.753	79.19
392.963	40.28
393.172	32.08
393.382	15.7
393.591	83.28
393.801	79.19
394.01	73.04
394.22	97.62
394.429	50.52
394.639	-8.87
394.848	54.61
395.058	58.71
395.267	46.42
395.477	75.09
395.686	81.24
395.895	83.28
396.105	103.76
396.314	87.38
396.524	79.19
396.733	79.19
396.942	114
397.152	97.62
397.361	66.9
397.57	50.52
397.78	60.76
397.989	54.61
398.198	130.39
398.407	54.61
398.617	101.72
398.826	75.09
399.035	105.81
399.244	56.66
399.453	38.23
399.663	142.68
399.872	120.15
400.081	-2.73
400.29	89.43
400.499	93.52
400.708	165.2
400.917	97.62
401.127	159.06
401.336	71
401.545	107.86
401.754	122.2
401.963	81.24
402.172	91.48
402.381	122.2
402.59	122.2
402.799	34.13
403.008	107.86
403.217	83.28
403.426	3.41
403.635	93.52
403.844	134.48
404.053	118.1
404.262	103.76
404.471	154.96
404.68	58.71
404.888	161.11
405.097	93.52
405.306	148.82
405.515	165.2
405.724	152.91
405.933	130.39
406.142	136.53
406.35	179.54
406.559	191.83
406.768	128.34
406.977	132.44
407.185	197.97
407.394	200.02
407.603	124.24
407.812	195.92
408.02	230.74
408.229	122.2
408.438	206.16
408.646	124.24
408.855	236.88
409.064	271.7
409.272	240.98
409.481	187.73
409.69	228.69
409.898	214.35
410.107	265.55
410.315	283.98
410.524	341.33
410.733	265.55
410.941	318.8
411.15	324.94
411.358	376.14
411.567	310.61
411.775	365.9
411.984	331.09
412.192	406.86
412.401	370
412.609	408.91
412.818	435.53
413.026	386.38
413.234	404.82
413.443	376.14
413.651	494.93
413.86	468.3
414.068	492.88
414.276	490.83
414.485	525.65
414.693	484.69
414.901	574.8
415.11	566.6
415.318	646.48
415.526	654.67
415.734	666.96
415.943	685.39
416.151	759.11
416.359	730.44
416.567	812.36
416.776	738.63
416.984	793.93
417.192	826.7
417.4	871.75
417.608	836.94
417.817	894.28
418.025	945.48
418.233	1123.65
418.441	968.01
418.649	1031.49
418.857	1181
419.065	1242.43
419.273	1058.12
419.481	1187.14
419.689	1236.29
419.897	1328.45
420.105	1226.05
420.313	1357.12
420.521	1514.81
420.729	1381.7
420.937	1416.51
421.145	1545.53
421.353	1477.95
421.561	1664.32
421.769	1721.66
421.977	1895.74
422.185	1738.04
422.393	1912.12
422.601	2047.29
422.809	1959.22
423.017	2002.23
423.224	2127.16
423.432	2104.63
423.64	2170.16
423.848	2415.92
424.056	2245.94
424.263	2473.26
424.471	2434.35
424.679	2565.42
424.887	2680.11
425.094	2821.42
425.302	2802.99
425.51	2833.71
425.718	2921.77
425.925	2884.91
426.133	3163.43
426.341	3284.26
426.548	3450.14
426.756	3454.24
426.964	3489.06
427.171	3620.13
427.379	3781.92
427.586	3882.27
427.794	4011.29
428.001	4031.77
428.209	4310.29
428.417	4224.28
428.624	4609.3
428.832	4633.87
429.039	4437.27
429.247	4687.12
429.454	4871.44
429.662	5338.37
429.869	5104.9
430.076	5287.17
430.284	5049.61
430.491	5350.66
430.699	5750.01
430.906	5645.57
431.114	5836.03
431.321	5983.48
431.528	6010.11
431.736	6419.7
431.943	6665.46
432.15	6477.04
432.358	6739.18
432.565	7036.14
432.772	6862.06
432.979	7347.43
433.187	7507.17
433.394	7212.26
433.601	8146.14
433.808	7949.53
434.016	7935.2
434.223	8355.03
434.43	8766.67
434.637	8469.72
434.844	9141.45
435.052	9284.81
435.259	9491.65
435.466	9542.85
435.673	9280.71
435.88	9864.38
436.087	10443.96
436.294	10652.85
436.501	10144.95
436.708	10400.95
436.915	10697.91
437.122	11082.92
437.329	11181.23
437.537	11627.68
437.743	11725.99
437.95	11742.37
438.157	12317.85
438.364	12690.58
438.571	12547.22
438.778	12729.49
438.985	13917.31
439.192	13198.48
439.399	13722.76
439.606	13444.23
439.813	14169.21
440.02	15012.98
440.227	14677.11
440.433	14627.96
440.64	15400.04
440.847	15062.13
441.054	15602.79
441.261	16553.05
441.467	16317.53
441.674	16639.06
441.881	17323.08
442.088	17232.97
442.294	17239.12
442.501	17488.97
442.708	17894.47
442.914	18512.95
443.121	19545.13
443.328	18897.97
443.534	20255.78
443.741	19907.62
443.948	19473.45
444.154	20935.7
444.361	20859.93
444.568	20966.42
444.774	20878.36
444.981	21160.98
445.187	21552.14
445.394	22400
445.6	22461.44
445.807	24441.82
446.013	23677.93
446.22	24085.48
446.426	24812.51
446.633	25121.75
446.839	25947.08
447.046	24734.68
447.252	26313.67
447.459	26235.84
447.665	26086.34
447.871	27308.98
448.078	28421.03
448.284	27005.88
448.491	27886.51
448.697	28953.5
448.903	29363.09
449.11	29375.38
449.316	29068.19
449.522	29555.6
449.728	30213
449.935	30587.78
450.141	30057.35
450.347	31484.79
450.553	30462.85
450.76	30512
450.966	31468.41
451.172	31548.28
451.378	32201.58
451.584	31378.29
451.791	32396.14
451.997	31949.68
452.203	32584.55
452.409	32564.07
452.615	32326.5
452.821	31011.71
453.027	31282.04
453.233	32496.49
453.44	31048.57
453.646	31492.98
453.852	31941.49
454.058	32037.74
454.264	31046.52
454.47	31882.09
454.676	30765.95
454.882	32105.32
455.088	29488.02
455.294	29584.27
455.5	29825.93
455.705	30499.72
455.911	29301.65
456.117	28668.83
456.323	28625.82
456.529	26700.73
456.735	28005.29
456.941	27075.51
457.147	26667.97
457.352	25654.22
457.558	25746.38
457.764	25895.88
457.97	25277.4
458.176	24669.15
458.381	24665.05
458.587	23649.26
458.793	23620.59
458.999	22158.34
459.204	23686.12
459.41	23022.58
459.616	21580.81
459.821	21398.54
460.027	21513.23
460.233	21240.85
460.438	20134.95
460.644	20636.7
460.85	19309.61
461.055	19158.06
461.261	19074.1
461.466	17474.63
461.672	17052.75
461.878	18363.45
462.083	17118.29
462.289	16751.7
462.494	16512.09
462.7	15805.54
462.905	15361.13
463.111	16079.97
463.316	15723.62
463.522	15740.01
463.727	15555.69
463.932	15561.83
464.138	15510.63
464.343	15428.71
464.549	15158.38
464.754	15524.97
464.959	15594.6
465.165	15410.28
465.37	14894.19
465.575	14650.49
465.781	14685.3
465.986	14840.95
466.191	14410.87
466.397	14378.11
466.602	13661.32
466.807	14251.13
467.012	14023.81
467.218	13841.54
467.423	13806.72
467.628	13581.45
467.833	14390.39
468.038	13900.93
468.244	13550.73
468.449	13939.84
