Data from USB4F104151__76__12-42-21-798.txt Node

Date: Fri Mar 14 12:42:21 EDT 2025
User: louis
Spectrometer: USB4F10415
Trigger mode: 4
Integration Time (sec): 3.000000E-2
Scans to average: 1
Electric dark correction enabled: true
Nonlinearity correction enabled: false
Boxcar width: 0
XAxis mode: Wavelengths
Number of Pixels in Spectrum: 3648
>>>>>Begin Spectral Data<<<<<
178.204	-126.12
178.424	-126.12
178.644	-126.12
178.864	-162.98
179.084	-101.55
179.304	19.29
179.524	-15.53
179.744	-17.58
179.964	19.29
180.184	-19.63
180.404	-9.39
180.624	60.24
180.844	27.48
181.064	-60.59
181.283	-48.3
181.503	13.14
181.723	31.57
181.943	37.72
182.163	142.16
182.383	-21.67
182.602	64.34
182.822	93.01
183.042	37.72
183.262	68.44
183.482	-9.39
183.701	58.2
183.921	62.29
184.141	9.05
184.361	84.82
184.58	37.72
184.8	-15.53
185.02	7
185.239	105.3
185.459	58.2
185.679	125.78
185.898	11.09
186.118	101.2
186.338	35.67
186.557	58.2
186.777	88.92
186.997	54.1
187.216	13.14
187.436	52.05
187.655	72.53
187.875	45.91
188.095	74.58
188.314	103.25
188.534	4.95
188.753	33.62
188.973	74.58
189.192	80.72
189.412	33.62
189.631	29.52
189.851	64.34
190.07	148.31
190.29	68.44
190.509	54.1
190.729	19.29
190.948	31.57
191.168	131.92
191.387	7
191.607	13.14
191.826	68.44
192.045	39.76
192.265	17.24
192.484	27.48
192.704	52.05
192.923	-3.24
193.142	66.39
193.362	70.48
193.581	154.45
193.8	25.43
194.02	27.48
194.239	2.9
194.458	80.72
194.678	15.19
194.897	111.44
195.116	97.11
195.335	56.15
195.555	-21.67
195.774	62.29
195.993	45.91
196.212	84.82
196.432	-38.06
196.651	64.34
196.87	-19.63
197.089	123.73
197.308	62.29
197.528	76.63
197.747	27.48
197.966	66.39
198.185	146.26
198.404	54.1
198.623	-48.3
198.842	60.24
199.062	17.24
199.281	115.54
199.5	76.63
199.719	9.05
199.938	43.86
200.157	121.68
200.376	90.96
200.595	9.05
200.814	-27.82
201.033	39.76
201.252	129.88
201.471	90.96
201.69	68.44
201.909	64.34
202.128	123.73
202.347	121.68
202.566	86.87
202.785	50
203.004	29.52
203.223	68.44
203.442	41.81
203.661	7
203.879	101.2
204.098	68.44
204.317	2.9
204.536	119.64
204.755	50
204.974	52.05
205.193	45.91
205.411	64.34
205.63	66.39
205.849	56.15
206.068	9.05
206.287	70.48
206.505	133.97
206.724	103.25
206.943	-3.24
207.162	103.25
207.381	54.1
207.599	33.62
207.818	4.95
208.037	-13.48
208.255	19.29
208.474	54.1
208.693	37.72
208.911	103.25
209.13	66.39
209.349	-13.48
209.567	99.16
209.786	66.39
210.005	115.54
210.223	54.1
210.442	11.09
210.661	78.68
210.879	115.54
211.098	93.01
211.316	68.44
211.535	125.78
211.753	58.2
211.972	50
212.191	64.34
212.409	80.72
212.628	74.58
212.846	101.2
213.065	27.48
213.283	68.44
213.502	45.91
213.72	17.24
213.938	95.06
214.157	15.19
214.375	142.16
214.594	-7.34
214.812	113.49
215.031	95.06
215.249	107.35
215.467	-17.58
215.686	123.73
215.904	43.86
216.122	68.44
216.341	176.98
216.559	41.81
216.778	101.2
216.996	107.35
217.214	72.53
217.432	19.29
217.651	58.2
217.869	54.1
218.087	150.36
218.306	35.67
218.524	41.81
218.742	29.52
218.96	90.96
219.179	-15.53
219.397	52.05
219.615	86.87
219.833	109.4
220.051	19.29
220.27	123.73
220.488	-1.19
220.706	43.86
220.924	37.72
221.142	25.43
221.36	47.96
221.578	78.68
221.796	56.15
222.015	90.96
222.233	7
222.451	60.24
222.669	33.62
222.887	109.4
223.105	95.06
223.323	27.48
223.541	7
223.759	74.58
223.977	41.81
224.195	62.29
224.413	31.57
224.631	90.96
224.849	25.43
225.067	62.29
225.285	56.15
225.503	82.77
225.721	25.43
225.939	23.38
226.157	45.91
226.375	136.02
226.592	64.34
226.81	111.44
227.028	70.48
227.246	54.1
227.464	-62.63
227.682	101.2
227.9	45.91
228.117	70.48
228.335	82.77
228.553	105.3
228.771	-9.39
228.989	72.53
229.206	70.48
229.424	84.82
229.642	7
229.86	-31.91
230.077	86.87
230.295	43.86
230.513	82.77
230.731	19.29
230.948	84.82
231.166	78.68
231.384	-52.39
231.601	15.19
231.819	35.67
232.037	43.86
232.254	62.29
232.472	27.48
232.689	41.81
232.907	105.3
233.125	37.72
233.342	31.57
233.56	-13.48
233.777	-7.34
233.995	50
234.213	90.96
234.43	-11.43
234.648	19.29
234.865	27.48
235.083	66.39
235.3	15.19
235.518	80.72
235.735	115.54
235.953	41.81
236.17	111.44
236.388	7
236.605	31.57
236.822	152.4
237.04	117.59
237.257	179.03
237.475	11.09
237.692	78.68
237.909	58.2
238.127	47.96
238.344	13.14
238.562	0.85
238.779	-17.58
238.996	-5.29
239.214	58.2
239.431	7
239.648	64.34
239.865	41.81
240.083	86.87
240.3	33.62
240.517	-19.63
240.735	52.05
240.952	148.31
241.169	86.87
241.386	23.38
241.603	76.63
241.821	-40.11
242.038	60.24
242.255	4.95
242.472	23.38
242.689	76.63
242.907	11.09
243.124	7
243.341	72.53
243.558	-3.24
243.775	52.05
243.992	7
244.209	78.68
244.426	101.2
244.643	25.43
244.86	54.1
245.078	25.43
245.295	136.02
245.512	56.15
245.729	43.86
245.946	111.44
246.163	52.05
246.38	47.96
246.597	7
246.814	31.57
247.031	84.82
247.248	0.85
247.464	62.29
247.681	95.06
247.898	111.44
248.115	86.87
248.332	-38.06
248.549	68.44
248.766	64.34
248.983	117.59
249.2	21.33
249.417	35.67
249.633	23.38
249.85	72.53
250.067	109.4
250.284	-17.58
250.501	60.24
250.717	99.16
250.934	70.48
251.151	115.54
251.368	37.72
251.585	52.05
251.801	93.01
252.018	27.48
252.235	74.58
252.451	17.24
252.668	29.52
252.885	170.83
253.102	86.87
253.318	107.35
253.535	105.3
253.752	11.09
253.968	70.48
254.185	90.96
254.401	58.2
254.618	43.86
254.835	13.14
255.051	111.44
255.268	47.96
255.484	17.24
255.701	43.86
255.917	68.44
256.134	15.19
256.351	35.67
256.567	43.86
256.784	50
257	23.38
257.217	31.57
257.433	39.76
257.65	-15.53
257.866	31.57
258.082	-52.39
258.299	50
258.515	101.2
258.732	-31.91
258.948	58.2
259.165	41.81
259.381	90.96
259.597	45.91
259.814	-25.77
260.03	-7.34
260.246	43.86
260.463	103.25
260.679	76.63
260.895	80.72
261.112	47.96
261.328	0.85
261.544	25.43
261.761	70.48
261.977	29.52
262.193	21.33
262.409	7
262.626	88.92
262.842	-40.11
263.058	39.76
263.274	33.62
263.49	60.24
263.707	41.81
263.923	11.09
264.139	-15.53
264.355	60.24
264.571	80.72
264.787	52.05
265.004	56.15
265.22	50
265.436	47.96
265.652	21.33
265.868	86.87
266.084	-7.34
266.3	93.01
266.516	60.24
266.732	41.81
266.948	-13.48
267.164	117.59
267.38	21.33
267.596	70.48
267.812	74.58
268.028	93.01
268.244	58.2
268.46	62.29
268.676	35.67
268.892	13.14
269.108	-38.06
269.324	27.48
269.54	58.2
269.756	76.63
269.972	19.29
270.188	64.34
270.403	56.15
270.619	11.09
270.835	33.62
271.051	21.33
271.267	41.81
271.483	72.53
271.698	7
271.914	29.52
272.13	52.05
272.346	9.05
272.562	88.92
272.777	117.59
272.993	54.1
273.209	52.05
273.425	37.72
273.64	54.1
273.856	70.48
274.072	31.57
274.287	54.1
274.503	-21.67
274.719	58.2
274.934	29.52
275.15	19.29
275.366	80.72
275.581	66.39
275.797	70.48
276.012	56.15
276.228	39.76
276.444	35.67
276.659	146.26
276.875	39.76
277.09	11.09
277.306	45.91
277.521	119.64
277.737	19.29
277.952	19.29
278.168	56.15
278.383	19.29
278.599	-3.24
278.814	15.19
279.03	21.33
279.245	80.72
279.461	70.48
279.676	56.15
279.892	37.72
280.107	43.86
280.322	58.2
280.538	-7.34
280.753	9.05
280.969	86.87
281.184	62.29
281.399	62.29
281.615	76.63
281.83	45.91
282.045	37.72
282.26	84.82
282.476	-9.39
282.691	154.45
282.906	35.67
283.122	72.53
283.337	84.82
283.552	82.77
283.767	-5.29
283.983	76.63
284.198	9.05
284.413	76.63
284.628	19.29
284.843	45.91
285.058	45.91
285.274	68.44
285.489	13.14
285.704	2.9
285.919	82.77
286.134	-36.01
286.349	50
286.564	11.09
286.779	47.96
286.995	119.64
287.21	7
287.425	74.58
287.64	25.43
287.855	27.48
288.07	0.85
288.285	95.06
288.5	66.39
288.715	60.24
288.93	-21.67
289.145	29.52
289.36	31.57
289.575	25.43
289.79	21.33
290.004	2.9
290.219	113.49
290.434	58.2
290.649	41.81
290.864	142.16
291.079	21.33
291.294	60.24
291.509	-3.24
291.724	76.63
291.938	33.62
292.153	64.34
292.368	23.38
292.583	50
292.798	52.05
293.012	68.44
293.227	70.48
293.442	33.62
293.657	123.73
293.871	129.88
294.086	15.19
294.301	140.12
294.516	50
294.73	56.15
294.945	37.72
295.16	50
295.374	99.16
295.589	88.92
295.804	88.92
296.018	27.48
296.233	74.58
296.447	39.76
296.662	45.91
296.877	111.44
297.091	64.34
297.306	50
297.52	43.86
297.735	11.09
297.949	66.39
298.164	64.34
298.378	60.24
298.593	45.91
298.807	78.68
299.022	33.62
299.236	74.58
299.451	84.82
299.665	127.83
299.88	66.39
300.094	72.53
300.309	121.68
300.523	-48.3
300.737	86.87
300.952	64.34
301.166	107.35
301.381	37.72
301.595	31.57
301.809	31.57
302.024	74.58
302.238	35.67
302.452	133.97
302.667	60.24
302.881	17.24
303.095	66.39
303.309	-1.19
303.524	11.09
303.738	72.53
303.952	29.52
304.166	109.4
304.381	41.81
304.595	127.83
304.809	-54.44
305.023	105.3
305.237	111.44
305.452	37.72
305.666	86.87
305.88	127.83
306.094	60.24
306.308	47.96
306.522	88.92
306.736	54.1
306.95	56.15
307.164	74.58
307.379	58.2
307.593	158.55
307.807	121.68
308.021	29.52
308.235	35.67
308.449	23.38
308.663	64.34
308.877	183.12
309.091	9.05
309.305	62.29
309.519	-31.91
309.733	95.06
309.947	60.24
310.161	41.81
310.374	95.06
310.588	41.81
310.802	37.72
311.016	66.39
311.23	13.14
311.444	93.01
311.658	78.68
311.872	68.44
312.085	64.34
312.299	60.24
312.513	121.68
312.727	78.68
312.941	13.14
313.154	50
313.368	35.67
313.582	54.1
313.796	76.63
314.009	97.11
314.223	72.53
314.437	37.72
314.651	103.25
314.864	72.53
315.078	17.24
315.292	-1.19
315.505	-11.43
315.719	101.2
315.933	82.77
316.146	37.72
316.36	50
316.573	11.09
316.787	62.29
317.001	56.15
317.214	43.86
317.428	58.2
317.641	27.48
317.855	74.58
318.068	160.59
318.282	52.05
318.495	129.88
318.709	162.64
318.922	82.77
319.136	99.16
319.349	29.52
319.563	9.05
319.776	123.73
319.99	60.24
320.203	93.01
320.417	54.1
320.63	152.4
320.843	136.02
321.057	52.05
321.27	56.15
321.483	62.29
321.697	105.3
321.91	19.29
322.124	90.96
322.337	23.38
322.55	52.05
322.763	-56.49
322.977	70.48
323.19	43.86
323.403	4.95
323.617	111.44
323.83	86.87
324.043	17.24
324.256	2.9
324.469	64.34
324.683	129.88
324.896	45.91
325.109	-21.67
325.322	9.05
325.535	47.96
325.748	123.73
325.962	54.1
326.175	50
326.388	179.03
326.601	43.86
326.814	25.43
327.027	152.4
327.24	90.96
327.453	76.63
327.666	78.68
327.879	35.67
328.092	86.87
328.305	84.82
328.518	50
328.731	25.43
328.944	113.49
329.157	15.19
329.37	95.06
329.583	146.26
329.796	107.35
330.009	60.24
330.222	39.76
330.435	99.16
330.648	138.07
330.861	80.72
331.073	64.34
331.286	58.2
331.499	117.59
331.712	-11.43
331.925	66.39
332.138	84.82
332.35	90.96
332.563	11.09
332.776	113.49
332.989	11.09
333.202	72.53
333.414	60.24
333.627	23.38
333.84	84.82
334.053	86.87
334.265	45.91
334.478	41.81
334.691	64.34
334.903	64.34
335.116	-9.39
335.329	0.85
335.541	50
335.754	154.45
335.966	19.29
336.179	60.24
336.392	93.01
336.604	115.54
336.817	78.68
337.029	154.45
337.242	41.81
337.454	86.87
337.667	11.09
337.88	119.64
338.092	76.63
338.305	129.88
338.517	37.72
338.729	76.63
338.942	43.86
339.154	-11.43
339.367	50
339.579	97.11
339.792	90.96
340.004	13.14
340.217	101.2
340.429	68.44
340.641	78.68
340.854	68.44
341.066	84.82
341.278	74.58
341.491	148.31
341.703	86.87
341.915	17.24
342.128	148.31
342.34	62.29
342.552	142.16
342.764	-21.67
342.977	80.72
343.189	19.29
343.401	86.87
343.613	7
343.826	-7.34
344.038	41.81
344.25	15.19
344.462	76.63
344.674	27.48
344.886	72.53
345.099	86.87
345.311	84.82
345.523	88.92
345.735	4.95
345.947	90.96
346.159	90.96
346.371	74.58
346.583	70.48
346.795	93.01
347.007	23.38
347.219	64.34
347.431	68.44
347.643	129.88
347.855	9.05
348.067	95.06
348.279	15.19
348.491	101.2
348.703	54.1
348.915	86.87
349.127	-31.91
349.339	109.4
349.551	41.81
349.763	129.88
349.975	86.87
350.187	111.44
350.399	74.58
350.61	111.44
350.822	29.52
351.034	82.77
351.246	115.54
351.458	127.83
351.669	90.96
351.881	129.88
352.093	103.25
352.305	86.87
352.517	54.1
352.728	52.05
352.94	76.63
353.152	86.87
353.363	-13.48
353.575	9.05
353.787	93.01
353.999	80.72
354.21	121.68
354.422	25.43
354.633	11.09
354.845	-7.34
355.057	29.52
355.268	56.15
355.48	125.78
355.692	74.58
355.903	66.39
356.115	70.48
356.326	-11.43
356.538	103.25
356.749	95.06
356.961	56.15
357.172	39.76
357.384	2.9
357.595	82.77
357.807	37.72
358.018	29.52
358.23	64.34
358.441	133.97
358.653	113.49
358.864	37.72
359.075	105.3
359.287	56.15
359.498	64.34
359.709	105.3
359.921	84.82
360.132	70.48
360.344	23.38
360.555	39.76
360.766	54.1
360.977	103.25
361.189	127.83
361.4	-1.19
361.611	144.21
361.823	56.15
362.034	93.01
362.245	-15.53
362.456	35.67
362.667	19.29
362.879	39.76
363.09	80.72
363.301	52.05
363.512	-29.87
363.723	45.91
363.935	19.29
364.146	41.81
364.357	60.24
364.568	21.33
364.779	-54.44
364.99	97.11
365.201	29.52
365.412	90.96
365.623	25.43
365.834	86.87
366.045	50
366.256	90.96
366.467	72.53
366.678	93.01
366.889	45.91
367.1	82.77
367.311	142.16
367.522	4.95
367.733	56.15
367.944	115.54
368.155	-1.19
368.366	97.11
368.577	107.35
368.788	121.68
368.999	90.96
369.209	121.68
369.42	144.21
369.631	131.92
369.842	105.3
370.053	35.67
370.264	103.25
370.474	117.59
370.685	-5.29
370.896	103.25
371.107	80.72
371.317	74.58
371.528	66.39
371.739	43.86
371.95	70.48
372.16	152.4
372.371	76.63
372.582	64.34
372.792	105.3
373.003	78.68
373.214	66.39
373.424	191.31
373.635	99.16
373.846	138.07
374.056	99.16
374.267	119.64
374.477	117.59
374.688	111.44
374.898	56.15
375.109	125.78
375.319	58.2
375.53	64.34
375.74	64.34
375.951	84.82
376.161	43.86
376.372	133.97
376.582	93.01
376.793	11.09
377.003	74.58
377.214	93.01
377.424	144.21
377.635	111.44
377.845	58.2
378.055	70.48
378.266	70.48
378.476	21.33
378.686	50
378.897	45.91
379.107	66.39
379.317	76.63
379.528	119.64
379.738	76.63
379.948	35.67
380.158	84.82
380.369	25.43
380.579	4.95
380.789	52.05
380.999	74.58
381.21	131.92
381.42	123.73
381.63	4.95
381.84	117.59
382.05	140.12
382.261	140.12
382.471	117.59
382.681	54.1
382.891	183.12
383.101	52.05
383.311	68.44
383.521	68.44
383.731	43.86
383.941	103.25
384.151	90.96
384.361	43.86
384.571	119.64
384.781	33.62
384.991	129.88
385.201	72.53
385.411	113.49
385.621	31.57
385.831	47.96
386.041	64.34
386.251	99.16
386.461	133.97
386.671	47.96
386.881	160.59
387.091	50
387.301	37.72
387.511	119.64
387.72	70.48
387.93	54.1
388.14	99.16
388.35	-13.48
388.56	125.78
388.769	107.35
388.979	52.05
389.189	136.02
389.399	154.45
389.609	127.83
389.818	148.31
390.028	33.62
390.238	47.96
390.447	136.02
390.657	129.88
390.867	187.22
391.076	35.67
391.286	39.76
391.496	90.96
391.705	43.86
391.915	111.44
392.125	148.31
392.334	129.88
392.544	88.92
392.753	115.54
392.963	113.49
393.172	47.96
393.382	4.95
393.591	113.49
393.801	41.81
394.01	-7.34
394.22	101.2
394.429	109.4
394.639	86.87
394.848	172.88
395.058	0.85
395.267	86.87
395.477	138.07
395.686	136.02
395.895	183.12
396.105	166.74
396.314	115.54
396.524	176.98
396.733	158.55
396.942	174.93
397.152	99.16
397.361	207.7
397.57	117.59
397.78	136.02
397.989	86.87
398.198	244.56
398.407	129.88
398.617	150.36
398.826	125.78
399.035	136.02
399.244	152.4
399.453	144.21
399.663	154.45
399.872	191.31
400.081	144.21
400.29	242.51
400.499	84.82
400.708	170.83
400.917	129.88
401.127	152.4
401.336	133.97
401.545	224.08
401.754	162.64
401.963	179.03
402.172	131.92
402.381	140.12
402.59	82.77
402.799	224.08
403.008	269.14
403.217	209.75
403.426	164.69
403.635	133.97
403.844	162.64
404.053	217.94
404.262	228.18
404.471	158.55
404.68	158.55
404.888	199.51
405.097	205.65
405.306	262.99
405.515	185.17
405.724	217.94
405.933	275.28
406.142	330.58
406.35	256.85
406.559	228.18
406.768	283.47
406.977	277.33
407.185	271.19
407.394	262.99
407.603	275.28
407.812	219.99
408.02	230.23
408.229	250.71
408.438	328.53
408.646	326.48
408.855	324.43
409.064	310.1
409.272	285.52
409.481	381.78
409.69	392.02
409.898	381.78
410.107	371.54
410.315	420.69
410.524	387.92
410.733	480.08
410.941	381.78
411.15	459.6
411.358	461.65
411.567	545.61
411.775	527.18
411.984	602.96
412.192	488.27
412.401	570.19
412.609	707.4
412.818	623.44
413.026	656.2
413.234	709.45
413.443	668.49
413.651	715.59
413.86	707.4
414.068	772.94
414.276	791.37
414.485	863.05
414.693	828.23
414.901	953.16
415.11	959.3
415.318	873.29
415.526	1024.84
415.734	1073.99
415.943	1067.85
416.151	1139.52
416.359	1049.41
416.567	1078.08
416.776	1198.92
416.984	1209.15
417.192	1274.69
417.4	1286.98
417.608	1342.27
417.817	1356.61
418.025	1381.18
418.233	1491.77
418.441	1504.06
418.649	1477.44
418.857	1663.8
419.065	1635.13
419.273	1700.67
419.481	1678.14
419.689	1764.15
419.897	1821.5
420.105	1887.03
420.313	1997.62
420.521	2116.41
420.729	2048.82
420.937	2224.95
421.145	2276.15
421.353	2212.66
421.561	2360.11
421.769	2550.57
421.977	2591.53
422.185	2552.62
422.393	2773.8
422.601	2837.29
422.809	3023.66
423.017	2792.23
423.224	3013.42
423.432	3148.58
423.64	3136.29
423.848	3474.21
424.056	3386.15
424.263	3586.85
424.471	3580.7
424.679	3746.59
424.887	3724.06
425.094	3957.53
425.302	3963.67
425.51	4305.68
425.718	4367.12
425.925	4332.31
426.133	4453.14
426.341	4690.7
426.548	5045
426.756	5022.47
426.964	5020.42
427.171	5356.29
427.379	5532.42
427.586	5403.39
427.794	5786.37
428.001	5946.11
428.209	6181.62
428.417	6263.54
428.624	6634.22
428.832	6707.95
429.039	6523.63
429.247	6787.82
429.454	7150.31
429.662	7619.3
429.869	7260.9
430.076	7738.08
430.284	7426.79
430.491	7901.92
430.699	8243.93
430.906	8235.74
431.114	8393.43
431.321	8807.12
431.528	8934.09
431.736	9183.95
431.943	9855.68
432.15	9409.22
432.358	9704.13
432.565	10025.66
432.772	10048.19
432.979	10830.51
433.187	10834.61
433.394	10721.97
433.601	11571.88
433.808	11645.6
434.016	11637.41
434.223	12233.37
434.43	12925.58
434.637	12323.48
434.844	13154.96
435.052	13535.88
435.259	13650.57
435.466	13720.2
435.673	13570.69
435.88	14277.24
436.087	15270.51
436.294	15383.15
436.501	14711.41
436.708	15121.01
436.915	15688.29
437.122	16259.68
437.329	16351.84
437.537	16820.82
437.743	17226.32
437.95	16906.84
438.157	17914.44
438.364	18301.5
438.571	18307.65
438.778	18479.68
438.985	20212.26
439.192	19313.2
439.399	19886.63
439.606	19505.71
439.813	20800.02
440.02	21977.61
440.227	21570.06
440.433	21103.12
440.64	22073.86
440.847	21600.78
441.054	22151.68
441.261	23755.24
441.467	23548.4
441.674	23826.92
441.881	24998.36
442.088	24883.67
442.294	24689.12
442.501	25348.56
442.708	25762.25
442.914	26571.2
443.121	27867.56
443.328	27255.22
443.534	29112.73
443.741	28289.45
443.948	27847.08
444.154	29778.32
444.361	29837.71
444.568	30073.23
444.774	30114.19
444.981	30548.36
445.187	31252.86
445.394	32375.14
445.6	32438.63
445.807	35055.93
446.013	33483.09
446.22	34365.77
446.426	35701.04
446.633	35574.07
446.839	37026.08
447.046	35707.19
447.252	37859.6
447.459	37814.55
447.665	37486.87
447.871	39258.37
448.078	41134.31
448.284	38983.94
448.491	40005.87
448.697	41414.88
448.903	42260.69
449.11	42135.76
449.316	41683.16
449.522	42358.99
449.728	43391.17
449.935	43565.24
450.141	43688.12
450.347	44228.79
450.553	43505.85
450.76	44132.53
450.966	45179.04
451.172	45099.17
451.378	46420.11
451.584	45082.79
451.791	46184.6
451.997	45936.79
452.203	46835.85
452.409	46979.21
452.615	46825.61
452.821	45138.08
453.027	44515.5
453.233	47212.68
453.44	45680.8
453.646	45727.9
453.852	45996.18
454.058	46985.35
454.264	45285.54
454.47	46387.35
454.676	45164.71
454.882	46704.78
455.088	42592.46
455.294	43346.11
455.5	44032.18
455.705	44521.65
455.911	42397.9
456.117	41973.97
456.323	41146.59
456.529	39381.24
456.735	41107.68
456.941	39723.26
457.147	39379.2
457.352	37875.99
457.558	37794.07
457.764	38021.39
457.97	36876.58
458.176	36100.4
458.381	36616.49
458.587	34396.49
458.793	34761.03
458.999	32688.48
459.204	35113.28
459.41	34083.15
459.616	32043.37
459.821	31826.29
460.027	31574.39
460.233	31248.76
460.438	29559.19
460.644	30054.79
460.85	28406.18
461.055	28015.02
461.261	27918.76
461.466	26032.58
461.672	25311.7
461.878	26806.72
462.083	25229.78
462.289	24707.55
462.494	24603.1
462.7	23437.81
462.905	22684.16
463.111	23214.58
463.316	23583.21
463.522	23355.89
463.727	22936.06
463.932	22766.07
464.138	23050.74
464.343	22985.21
464.549	22096.39
464.754	22960.63
464.959	22893.05
465.165	22534.65
465.37	21862.92
465.575	21223.95
465.781	22110.72
465.986	22100.48
466.191	21434.89
466.397	20900.37
466.602	19847.72
466.807	20640.28
467.012	20703.77
467.218	20521.5
467.423	20175.39
