Data from USB4F104151__28__12-41-12-947.txt Node

Date: Fri Mar 14 12:41:12 EDT 2025
User: louis
Spectrometer: USB4F10415
Trigger mode: 4
Integration Time (sec): 3.000000E-2
Scans to average: 1
Electric dark correction enabled: true
Nonlinearity correction enabled: false
Boxcar width: 0
XAxis mode: Wavelengths
Number of Pixels in Spectrum: 3648
>>>>>Begin Spectral Data<<<<<
178.204	-159.4
178.424	-159.4
178.644	-159.4
178.864	-104.11
179.084	-147.11
179.304	-5.8
179.524	-9.9
179.744	6.49
179.964	47.44
180.184	16.73
180.404	41.3
180.624	-22.19
180.844	-18.09
181.064	-30.38
181.283	-32.43
181.503	20.82
181.723	-13.99
181.943	-69.29
182.163	94.55
182.383	6.49
182.602	49.49
182.822	102.74
183.042	57.68
183.262	-3.75
183.482	-34.47
183.701	-3.75
183.921	26.96
184.141	2.39
184.361	63.83
184.58	-11.95
184.8	98.64
185.02	-48.81
185.239	39.25
185.459	39.25
185.679	96.6
185.898	-9.9
186.118	69.97
186.338	8.53
186.557	26.96
186.777	31.06
186.997	-11.95
187.216	31.06
187.436	-34.47
187.655	78.16
187.875	110.93
188.095	-1.71
188.314	-11.95
188.534	92.5
188.753	84.31
188.973	4.44
189.192	88.4
189.412	-20.14
189.631	59.73
189.851	12.63
190.07	20.82
190.29	-3.75
190.509	35.16
190.729	-16.04
190.948	47.44
191.168	119.12
191.387	98.64
191.607	24.92
191.826	59.73
192.045	24.92
192.265	0.34
192.484	49.49
192.704	16.73
192.923	104.79
193.142	78.16
193.362	-13.99
193.581	-36.52
193.8	12.63
194.02	41.3
194.239	39.25
194.458	-1.71
194.678	26.96
194.897	-7.85
195.116	47.44
195.335	24.92
195.555	41.3
195.774	39.25
195.993	20.82
196.212	-24.23
196.432	37.2
196.651	-48.81
196.87	-30.38
197.089	102.74
197.308	37.2
197.528	100.69
197.747	-9.9
197.966	-34.47
198.185	55.64
198.404	43.35
198.623	39.25
198.842	55.64
199.062	88.4
199.281	53.59
199.5	-30.38
199.719	61.78
199.938	86.36
200.157	51.54
200.376	16.73
200.595	-1.71
200.814	53.59
201.033	33.11
201.252	82.26
201.471	-5.8
201.69	74.07
201.909	6.49
202.128	26.96
202.347	16.73
202.566	49.49
202.785	-20.14
203.004	14.68
203.223	102.74
203.442	74.07
203.661	2.39
203.879	-22.19
204.098	104.79
204.317	0.34
204.536	-9.9
204.755	33.11
204.974	14.68
205.193	80.21
205.411	72.02
205.63	67.92
205.849	22.87
206.068	37.2
206.287	53.59
206.505	78.16
206.724	55.64
206.943	-7.85
207.162	31.06
207.381	33.11
207.599	26.96
207.818	6.49
208.037	-26.28
208.255	-26.28
208.474	-50.86
208.693	115.03
208.911	-34.47
209.13	55.64
209.349	-20.14
209.567	63.83
209.786	39.25
210.005	108.88
210.223	55.64
210.442	-20.14
210.661	12.63
210.879	18.77
211.098	37.2
211.316	14.68
211.535	74.07
211.753	14.68
211.972	8.53
212.191	92.5
212.409	67.92
212.628	35.16
212.846	24.92
213.065	80.21
213.283	80.21
213.502	51.54
213.72	106.84
213.938	24.92
214.157	69.97
214.375	2.39
214.594	4.44
214.812	35.16
215.031	96.6
215.249	61.78
215.467	39.25
215.686	90.45
215.904	29.01
216.122	16.73
216.341	141.65
216.559	37.2
216.778	29.01
216.996	76.12
217.214	47.44
217.432	53.59
217.651	-36.52
217.869	4.44
218.087	-40.62
218.306	45.4
218.524	24.92
218.742	-7.85
218.96	63.83
219.179	45.4
219.397	78.16
219.615	72.02
219.833	33.11
220.051	-32.43
220.27	47.44
220.488	31.06
220.706	-3.75
220.924	-7.85
221.142	-20.14
221.36	45.4
221.578	41.3
221.796	94.55
222.015	39.25
222.233	65.88
222.451	22.87
222.669	2.39
222.887	35.16
223.105	-5.8
223.323	-36.52
223.541	14.68
223.759	80.21
223.977	41.3
224.195	90.45
224.413	51.54
224.631	16.73
224.849	-13.99
225.067	98.64
225.285	47.44
225.503	72.02
225.721	-26.28
225.939	78.16
226.157	-1.71
226.375	104.79
226.592	-7.85
226.81	33.11
227.028	74.07
227.246	112.98
227.464	22.87
227.682	-9.9
227.9	6.49
228.117	-18.09
228.335	0.34
228.553	-11.95
228.771	-20.14
228.989	2.39
229.206	16.73
229.424	72.02
229.642	14.68
229.86	4.44
230.077	18.77
230.295	121.17
230.513	78.16
230.731	43.35
230.948	43.35
231.166	131.41
231.384	47.44
231.601	-9.9
231.819	74.07
232.037	-3.75
232.254	-11.95
232.472	131.41
232.689	-32.43
232.907	72.02
233.125	92.5
233.342	22.87
233.56	4.44
233.777	22.87
233.995	6.49
234.213	55.64
234.43	82.26
234.648	47.44
234.865	-1.71
235.083	72.02
235.3	18.77
235.518	88.4
235.735	65.88
235.953	84.31
236.17	22.87
236.388	-16.04
236.605	53.59
236.822	67.92
237.04	43.35
237.257	65.88
237.475	24.92
237.692	41.3
237.909	53.59
238.127	76.12
238.344	53.59
238.562	33.11
238.779	-28.33
238.996	55.64
239.214	127.32
239.431	117.08
239.648	16.73
239.865	39.25
240.083	78.16
240.3	31.06
240.517	29.01
240.735	35.16
240.952	80.21
241.169	119.12
241.386	29.01
241.603	-1.71
241.821	12.63
242.038	80.21
242.255	65.88
242.472	-52.91
242.689	4.44
242.907	108.88
243.124	-16.04
243.341	18.77
243.558	12.63
243.775	63.83
243.992	-24.23
244.209	115.03
244.426	117.08
244.643	84.31
244.86	55.64
245.078	-1.71
245.295	8.53
245.512	39.25
245.729	41.3
245.946	8.53
246.163	55.64
246.38	-20.14
246.597	4.44
246.814	53.59
247.031	51.54
247.248	84.31
247.464	41.3
247.681	125.27
247.898	0.34
248.115	96.6
248.332	24.92
248.549	80.21
248.766	104.79
248.983	96.6
249.2	29.01
249.417	57.68
249.633	-20.14
249.85	12.63
250.067	45.4
250.284	104.79
250.501	86.36
250.717	-26.28
250.934	-3.75
251.151	20.82
251.368	0.34
251.585	-20.14
251.801	12.63
252.018	31.06
252.235	76.12
252.451	-85.67
252.668	65.88
252.885	123.22
253.102	65.88
253.318	49.49
253.535	49.49
253.752	39.25
253.968	74.07
254.185	-34.47
254.401	29.01
254.618	47.44
254.835	-7.85
255.051	82.26
255.268	57.68
255.484	-1.71
255.701	20.82
255.917	33.11
256.134	20.82
256.351	67.92
256.567	-16.04
256.784	49.49
257	-52.91
257.217	22.87
257.433	35.16
257.65	76.12
257.866	31.06
258.082	-28.33
258.299	-46.76
258.515	24.92
258.732	-24.23
258.948	-11.95
259.165	6.49
259.381	-18.09
259.597	-24.23
259.814	88.4
260.03	43.35
260.246	65.88
260.463	102.74
260.679	39.25
260.895	-18.09
261.112	104.79
261.328	-38.57
261.544	0.34
261.761	80.21
261.977	6.49
262.193	-26.28
262.409	45.4
262.626	22.87
262.842	51.54
263.058	-73.39
263.274	72.02
263.49	10.58
263.707	0.34
263.923	39.25
264.139	47.44
264.355	-7.85
264.571	117.08
264.787	94.55
265.004	84.31
265.22	31.06
265.436	47.44
265.652	65.88
265.868	61.78
266.084	10.58
266.3	18.77
266.516	31.06
266.732	8.53
266.948	6.49
267.164	20.82
267.38	49.49
267.596	72.02
267.812	74.07
268.028	31.06
268.244	-42.67
268.46	61.78
268.676	31.06
268.892	-34.47
269.108	16.73
269.324	-36.52
269.54	-50.86
269.756	139.6
269.972	-7.85
270.188	100.69
270.403	-46.76
270.619	49.49
270.835	31.06
271.051	16.73
271.267	24.92
271.483	-11.95
271.698	-13.99
271.914	80.21
272.13	74.07
272.346	-1.71
272.562	65.88
272.777	86.36
272.993	78.16
273.209	74.07
273.425	6.49
273.64	-32.43
273.856	59.73
274.072	-3.75
274.287	43.35
274.503	31.06
274.719	20.82
274.934	41.3
275.15	-30.38
275.366	22.87
275.581	51.54
275.797	-40.62
276.012	-9.9
276.228	53.59
276.444	31.06
276.659	-13.99
276.875	16.73
277.09	-3.75
277.306	61.78
277.521	57.68
277.737	-24.23
277.952	53.59
278.168	0.34
278.383	108.88
278.599	16.73
278.814	123.22
279.03	82.26
279.245	104.79
279.461	51.54
279.676	49.49
279.892	4.44
280.107	31.06
280.322	-50.86
280.538	-13.99
280.753	-5.8
280.969	41.3
281.184	29.01
281.399	61.78
281.615	55.64
281.83	16.73
282.045	24.92
282.26	6.49
282.476	59.73
282.691	92.5
282.906	80.21
283.122	-7.85
283.337	45.4
283.552	78.16
283.767	20.82
283.983	24.92
284.198	82.26
284.413	74.07
284.628	39.25
284.843	-57
285.058	51.54
285.274	-3.75
285.489	-20.14
285.704	63.83
285.919	47.44
286.134	49.49
286.349	14.68
286.564	80.21
286.779	31.06
286.995	6.49
287.21	24.92
287.425	82.26
287.64	45.4
287.855	22.87
288.07	33.11
288.285	43.35
288.5	16.73
288.715	45.4
288.93	-7.85
289.145	-40.62
289.36	16.73
289.575	24.92
289.79	96.6
290.004	-28.33
290.219	76.12
290.434	-20.14
290.649	-40.62
290.864	-1.71
291.079	51.54
291.294	63.83
291.509	37.2
291.724	26.96
291.938	63.83
292.153	65.88
292.368	6.49
292.583	39.25
292.798	72.02
293.012	57.68
293.227	-46.76
293.442	33.11
293.657	4.44
293.871	57.68
294.086	86.36
294.301	22.87
294.516	57.68
294.73	127.32
294.945	57.68
295.16	18.77
295.374	127.32
295.589	6.49
295.804	29.01
296.018	31.06
296.233	51.54
296.447	4.44
296.662	-16.04
296.877	80.21
297.091	55.64
297.306	20.82
297.52	35.16
297.735	39.25
297.949	37.2
298.164	33.11
298.378	84.31
298.593	-18.09
298.807	37.2
299.022	6.49
299.236	76.12
299.451	76.12
299.665	57.68
299.88	-3.75
300.094	133.46
300.309	43.35
300.523	43.35
300.737	53.59
300.952	51.54
301.166	47.44
301.381	8.53
301.595	4.44
301.809	37.2
302.024	65.88
302.238	-20.14
302.452	57.68
302.667	47.44
302.881	72.02
303.095	65.88
303.309	4.44
303.524	65.88
303.738	-5.8
303.952	-5.8
304.166	112.98
304.381	0.34
304.595	112.98
304.809	12.63
305.023	39.25
305.237	41.3
305.452	90.45
305.666	6.49
305.88	112.98
306.094	74.07
306.308	47.44
306.522	24.92
306.736	37.2
306.95	18.77
307.164	4.44
307.379	69.97
307.593	143.7
307.807	55.64
308.021	39.25
308.235	43.35
308.449	51.54
308.663	39.25
308.877	86.36
309.091	49.49
309.305	-7.85
309.519	22.87
309.733	80.21
309.947	-9.9
310.161	155.99
310.374	59.73
310.588	76.12
310.802	-20.14
311.016	-7.85
311.23	53.59
311.444	-54.95
311.658	41.3
311.872	31.06
312.085	49.49
312.299	102.74
312.513	59.73
312.727	45.4
312.941	14.68
313.154	0.34
313.368	84.31
313.582	49.49
313.796	43.35
314.009	-28.33
314.223	55.64
314.437	55.64
314.651	35.16
314.864	-40.62
315.078	78.16
315.292	12.63
315.505	41.3
315.719	92.5
315.933	6.49
316.146	10.58
316.36	-50.86
316.573	2.39
316.787	82.26
317.001	43.35
317.214	33.11
317.428	26.96
317.641	33.11
317.855	24.92
318.068	55.64
318.282	-3.75
318.495	92.5
318.709	94.55
318.922	31.06
319.136	72.02
319.349	63.83
319.563	-59.05
319.776	-11.95
319.99	24.92
320.203	31.06
320.417	-5.8
320.63	37.2
320.843	137.56
321.057	39.25
321.27	29.01
321.483	37.2
321.697	76.12
321.91	55.64
322.124	67.92
322.337	63.83
322.55	80.21
322.763	86.36
322.977	20.82
323.19	16.73
323.403	35.16
323.617	24.92
323.83	26.96
324.043	39.25
324.256	80.21
324.469	31.06
324.683	72.02
324.896	49.49
325.109	0.34
325.322	37.2
325.535	-24.23
325.748	12.63
325.962	-18.09
326.175	6.49
326.388	10.58
326.601	78.16
326.814	76.12
327.027	24.92
327.24	59.73
327.453	-59.05
327.666	37.2
327.879	6.49
328.092	31.06
328.305	-7.85
328.518	49.49
328.731	-18.09
328.944	69.97
329.157	76.12
329.37	53.59
329.583	35.16
329.796	90.45
330.009	31.06
330.222	88.4
330.435	53.59
330.648	47.44
330.861	82.26
331.073	74.07
331.286	63.83
331.499	59.73
331.712	16.73
331.925	86.36
332.138	26.96
332.35	47.44
332.563	51.54
332.776	80.21
332.989	55.64
333.202	49.49
333.414	43.35
333.627	10.58
333.84	-18.09
334.053	26.96
334.265	53.59
334.478	74.07
334.691	-34.47
334.903	74.07
335.116	-16.04
335.329	8.53
335.541	92.5
335.754	43.35
335.966	22.87
336.179	-7.85
336.392	88.4
336.604	0.34
336.817	41.3
337.029	80.21
337.242	39.25
337.454	33.11
337.667	24.92
337.88	92.5
338.092	-3.75
338.305	115.03
338.517	18.77
338.729	31.06
338.942	92.5
339.154	-24.23
339.367	-5.8
339.579	45.4
339.792	29.01
340.004	57.68
340.217	47.44
340.429	88.4
340.641	49.49
340.854	16.73
341.066	16.73
341.278	121.17
341.491	61.78
341.703	137.56
341.915	-26.28
342.128	74.07
342.34	10.58
342.552	65.88
342.764	6.49
342.977	22.87
343.189	133.46
343.401	45.4
343.613	22.87
343.826	100.69
344.038	6.49
344.25	-5.8
344.462	0.34
344.674	63.83
344.886	82.26
345.099	80.21
345.311	104.79
345.523	10.58
345.735	-3.75
345.947	55.64
346.159	67.92
346.371	53.59
346.583	4.44
346.795	119.12
347.007	-16.04
347.219	74.07
347.431	22.87
347.643	26.96
347.855	20.82
348.067	84.31
348.279	100.69
348.491	-18.09
348.703	37.2
348.915	80.21
349.127	4.44
349.339	123.22
349.551	100.69
349.763	51.54
349.975	35.16
350.187	22.87
350.399	67.92
350.61	88.4
350.822	65.88
351.034	76.12
351.246	74.07
351.458	10.58
351.669	26.96
351.881	90.45
352.093	29.01
352.305	39.25
352.517	43.35
352.728	98.64
352.94	65.88
353.152	65.88
353.363	2.39
353.575	18.77
353.787	108.88
353.999	-3.75
354.21	92.5
354.422	18.77
354.633	74.07
354.845	31.06
355.057	10.58
355.268	98.64
355.48	20.82
355.692	76.12
355.903	31.06
356.115	22.87
356.326	14.68
356.538	35.16
356.749	24.92
356.961	104.79
357.172	67.92
357.384	86.36
357.595	155.99
357.807	104.79
358.018	57.68
358.23	121.17
358.441	104.79
358.653	102.74
358.864	94.55
359.075	39.25
359.287	41.3
359.498	106.84
359.709	80.21
359.921	112.98
360.132	80.21
360.344	10.58
360.555	-1.71
360.766	67.92
360.977	-5.8
361.189	55.64
361.4	26.96
361.611	78.16
361.823	39.25
362.034	67.92
362.245	74.07
362.456	90.45
362.667	86.36
362.879	-7.85
363.09	63.83
363.301	72.02
363.512	24.92
363.723	80.21
363.935	29.01
364.146	115.03
364.357	-5.8
364.568	72.02
364.779	-26.28
364.99	51.54
365.201	26.96
365.412	112.98
365.623	-9.9
365.834	37.2
366.045	102.74
366.256	47.44
366.467	41.3
366.678	51.54
366.889	51.54
367.1	106.84
367.311	33.11
367.522	82.26
367.733	76.12
367.944	35.16
368.155	41.3
368.366	143.7
368.577	37.2
368.788	104.79
368.999	18.77
369.209	45.4
369.42	115.03
369.631	112.98
369.842	6.49
370.053	115.03
370.264	18.77
370.474	26.96
370.685	26.96
370.896	-3.75
371.107	16.73
371.317	-16.04
371.528	-9.9
371.739	43.35
371.95	49.49
372.16	61.78
372.371	72.02
372.582	98.64
372.792	100.69
373.003	39.25
373.214	49.49
373.424	41.3
373.635	2.39
373.846	112.98
374.056	41.3
374.267	123.22
374.477	63.83
374.688	115.03
374.898	20.82
375.109	78.16
375.319	41.3
375.53	51.54
375.74	74.07
375.951	115.03
376.161	80.21
376.372	72.02
376.582	8.53
376.793	55.64
377.003	43.35
377.214	26.96
377.424	49.49
377.635	65.88
377.845	127.32
378.055	90.45
378.266	65.88
378.476	90.45
378.686	78.16
378.897	47.44
379.107	24.92
379.317	104.79
379.528	35.16
379.738	65.88
379.948	-3.75
380.158	82.26
380.369	-42.67
380.579	39.25
380.789	-18.09
380.999	39.25
381.21	82.26
381.42	141.65
381.63	39.25
381.84	78.16
382.05	65.88
382.261	117.08
382.471	20.82
382.681	108.88
382.891	51.54
383.101	98.64
383.311	6.49
383.521	20.82
383.731	84.31
383.941	100.69
384.151	149.84
384.361	49.49
384.571	112.98
384.781	49.49
384.991	102.74
385.201	63.83
385.411	45.4
385.621	49.49
385.831	10.58
386.041	12.63
386.251	18.77
386.461	104.79
386.671	43.35
386.881	37.2
387.091	24.92
387.301	55.64
387.511	108.88
387.72	69.97
387.93	67.92
388.14	108.88
388.35	33.11
388.56	53.59
388.769	86.36
388.979	47.44
389.189	65.88
389.399	88.4
389.609	84.31
389.818	123.22
390.028	72.02
390.238	117.08
390.447	41.3
390.657	160.08
390.867	-13.99
391.076	39.25
391.286	121.17
391.496	100.69
391.705	55.64
391.915	96.6
392.125	78.16
392.334	74.07
392.544	110.93
392.753	33.11
392.963	88.4
393.172	74.07
393.382	35.16
393.591	153.94
393.801	43.35
394.01	143.7
394.22	92.5
394.429	125.27
394.639	45.4
394.848	65.88
395.058	141.65
395.267	90.45
395.477	158.03
395.686	104.79
395.895	129.36
396.105	166.23
396.314	117.08
396.524	121.17
396.733	158.03
396.942	160.08
397.152	147.8
397.361	131.41
397.57	133.46
397.78	119.12
397.989	164.18
398.198	143.7
398.407	88.4
398.617	135.51
398.826	110.93
399.035	145.75
399.244	102.74
399.453	164.18
399.663	69.97
399.872	133.46
400.081	74.07
400.29	174.42
400.499	164.18
400.708	170.32
400.917	74.07
401.127	166.23
401.336	76.12
401.545	184.66
401.754	155.99
401.963	149.84
402.172	141.65
402.381	108.88
402.59	129.36
402.799	110.93
403.008	123.22
403.217	112.98
403.426	198.99
403.635	117.08
403.844	180.56
404.053	137.56
404.262	180.56
404.471	170.32
404.68	164.18
404.888	139.6
405.097	160.08
405.306	211.28
405.515	248.15
405.724	188.75
405.933	235.86
406.142	305.49
406.35	272.72
406.559	213.33
406.768	178.51
406.977	315.73
407.185	291.15
407.394	262.48
407.603	201.04
407.812	278.87
408.02	276.82
408.229	276.82
408.438	272.72
408.646	244.05
408.855	268.63
409.064	325.97
409.272	330.06
409.481	311.63
409.69	338.26
409.898	354.64
410.107	336.21
410.315	418.13
410.524	356.69
410.733	379.22
410.941	371.02
411.15	422.22
411.358	459.09
411.567	516.43
411.775	532.81
411.984	565.58
412.192	504.14
412.401	500.05
412.609	633.16
412.818	602.44
413.026	594.25
413.234	647.5
413.443	715.08
413.651	670.03
413.86	713.03
414.068	688.46
414.276	704.84
414.485	682.31
414.693	797
414.901	876.87
415.11	840.01
415.318	856.39
415.526	917.83
415.734	1022.28
415.943	932.17
416.151	917.83
416.359	1048.9
416.567	1063.24
416.776	1091.91
416.984	1104.2
417.192	1165.64
417.4	1294.66
417.608	1161.54
417.817	1333.57
418.025	1220.93
418.233	1362.24
418.441	1261.89
418.649	1427.78
418.857	1444.16
419.065	1567.04
419.273	1603.9
419.481	1866.04
419.689	1687.87
419.897	1833.27
420.105	1773.88
420.313	1747.26
420.521	2021.69
420.729	1956.15
420.937	2044.21
421.145	2185.52
421.353	2271.54
421.561	2289.97
421.769	2347.31
421.977	2343.22
422.185	2459.95
422.393	2646.32
422.601	2799.91
422.809	2707.76
423.017	2795.82
423.224	2806.06
423.432	2982.18
423.64	2955.56
423.848	3242.28
424.056	3266.85
424.263	3451.17
424.471	3510.56
424.679	3567.9
424.887	3782.94
425.094	3821.85
425.302	4004.12
425.51	4071.7
425.718	4219.16
425.925	4235.54
426.133	4350.23
426.341	4591.89
426.548	4722.96
426.756	4788.49
426.964	4876.55
427.171	5112.07
427.379	5247.24
427.586	5218.57
427.794	5544.19
428.001	5830.91
428.209	5916.92
428.417	6058.23
428.624	6439.16
428.832	6519.03
429.039	6414.58
429.247	6402.29
429.454	7004.39
429.662	7186.66
429.869	6840.56
430.076	7416.04
430.284	7096.55
430.491	7432.42
430.699	7940.32
430.906	8036.57
431.114	8071.39
431.321	8190.17
431.528	8626.39
431.736	9203.91
431.943	9371.85
432.15	9060.56
432.358	9220.3
432.565	9808.06
432.772	9822.4
432.979	10133.69
433.187	10469.56
433.394	10426.55
433.601	11102.38
433.808	11139.24
434.016	11129
434.223	11708.58
434.43	12261.53
434.637	12120.22
434.844	12882.06
435.052	13324.43
435.259	13172.88
435.466	12974.22
435.673	13191.31
435.88	14020.74
436.087	14610.55
436.294	14712.95
436.501	14567.54
436.708	14516.34
436.915	15321.2
437.122	15886.43
437.329	15798.37
437.537	16224.35
437.743	16506.97
437.95	16541.78
438.157	17414.22
438.364	17782.85
438.571	17700.94
438.778	17811.53
438.985	19402.8
439.192	18974.77
439.399	19214.38
439.606	19003.44
439.813	20111.39
440.02	21268.5
440.227	20660.25
440.433	20697.11
440.64	21245.97
440.847	21127.19
441.054	21755.91
441.261	23195.64
441.467	22855.67
441.674	23189.49
441.881	24174.56
442.088	23986.15
442.294	23941.1
442.501	24639.45
442.708	25161.69
442.914	26040.26
443.121	27178.93
443.328	26736.57
443.534	28123.05
443.741	27428.79
443.948	27062.2
444.154	29046.68
444.361	29101.98
444.568	29159.32
444.774	29026.2
444.981	29613.97
445.187	30504.84
445.394	31268.73
445.6	31192.95
445.807	34277.19
446.013	32638.82
446.22	33345.37
446.426	34905.92
446.633	34391.88
446.839	36134.7
447.046	34621.25
447.252	36828.96
447.459	36511.53
447.665	36493.1
447.871	37953.3
448.078	39917.3
448.284	37416.73
448.491	38655.75
448.697	40392.43
448.903	41150.18
449.11	40875.75
449.316	40455.92
449.522	41219.81
449.728	42129.11
449.935	42415.82
450.141	42571.47
450.347	43318.98
450.553	41995.99
450.76	42913.48
450.966	44285.62
451.172	43491.01
451.378	44652.2
451.584	44052.15
451.791	44476.08
451.997	44996.26
452.203	45424.29
452.409	45491.87
452.615	45110.95
452.821	43488.96
453.027	42991.3
453.233	45502.11
453.44	43515.58
453.646	43572.92
453.852	44381.87
454.058	44857
454.264	43368.13
454.47	44422.83
454.676	43325.12
454.882	44904.1
455.088	40503.02
455.294	41713.37
455.5	42489.55
455.705	42182.35
455.911	41006.82
456.117	39978.74
456.323	39800.57
456.529	37863.19
456.735	39137.02
456.941	38096.66
457.147	37189.41
457.352	36101.93
457.558	35921.71
457.764	36251.44
457.97	35358.52
458.176	34901.82
458.381	34576.2
458.587	32767.84
458.793	32970.59
458.999	31078.27
459.204	33449.81
459.41	32329.58
459.616	30519.17
459.821	30541.7
460.027	30193.54
460.233	29675.41
460.438	28278.69
460.644	28655.52
460.85	27246.52
461.055	26570.69
461.261	26877.88
461.466	24819.67
461.672	23967.72
461.878	25911.24
462.083	23910.38
462.289	23273.46
462.494	23422.96
462.7	22276.1
462.905	21512.21
463.111	22591.48
463.316	22411.26
463.522	22032.39
463.727	22220.8
463.932	22323.2
464.138	22052.87
464.343	21925.89
464.549	21276.69
464.754	22159.36
464.959	21762.06
465.165	21954.57
465.37	20760.6
465.575	20318.24
465.781	21065.75
465.986	21178.39
466.191	20293.66
466.397	20160.55
466.602	18944.05
466.807	19722.28
467.012	19800.1
467.218	19615.79
