Data from USB4F104151__26__12-41-09-085.txt Node

Date: Fri Mar 14 12:41:09 EDT 2025
User: louis
Spectrometer: USB4F10415
Trigger mode: 4
Integration Time (sec): 3.000000E-2
Scans to average: 1
Electric dark correction enabled: true
Nonlinearity correction enabled: false
Boxcar width: 0
XAxis mode: Wavelengths
Number of Pixels in Spectrum: 3648
>>>>>Begin Spectral Data<<<<<
178.204	-141.31
178.424	-141.31
178.644	-141.31
178.864	-169.98
179.084	-137.21
179.304	-2.05
179.524	-14.34
179.744	16.38
179.964	81.92
180.184	16.38
180.404	-67.58
180.624	14.34
180.844	-57.34
181.064	-26.62
181.283	8.19
181.503	18.43
181.723	12.29
181.943	-6.14
182.163	69.63
182.383	59.39
182.602	-28.67
182.822	36.86
183.042	16.38
183.262	8.19
183.482	10.24
183.701	45.06
183.921	38.91
184.141	69.63
184.361	43.01
184.58	10.24
184.8	8.19
185.02	45.06
185.239	53.25
185.459	55.3
185.679	51.2
185.898	16.38
186.118	77.82
186.338	110.59
186.557	81.92
186.777	108.54
186.997	40.96
187.216	28.67
187.436	61.44
187.655	67.58
187.875	22.53
188.095	-45.06
188.314	57.34
188.534	-22.53
188.753	-6.14
188.973	-40.96
189.192	40.96
189.412	77.82
189.631	114.69
189.851	-12.29
190.07	149.5
190.29	8.19
190.509	32.77
190.729	6.14
190.948	88.06
191.168	145.41
191.387	114.69
191.607	24.58
191.826	34.82
192.045	0
192.265	18.43
192.484	34.82
192.704	49.15
192.923	55.3
193.142	92.16
193.362	16.38
193.581	94.21
193.8	79.87
194.02	79.87
194.239	83.97
194.458	18.43
194.678	57.34
194.897	-2.05
195.116	-4.1
195.335	57.34
195.555	-8.19
195.774	86.01
195.993	69.63
196.212	-2.05
196.432	12.29
196.651	14.34
196.87	22.53
197.089	108.54
197.308	59.39
197.528	36.86
197.747	57.34
197.966	-32.77
198.185	65.54
198.404	88.06
198.623	-32.77
198.842	75.77
199.062	75.77
199.281	65.54
199.5	-14.34
199.719	14.34
199.938	36.86
200.157	32.77
200.376	110.59
200.595	67.58
200.814	4.1
201.033	75.77
201.252	108.54
201.471	81.92
201.69	57.34
201.909	38.91
202.128	77.82
202.347	88.06
202.566	18.43
202.785	38.91
203.004	57.34
203.223	26.62
203.442	63.49
203.661	24.58
203.879	49.15
204.098	124.93
204.317	-34.82
204.536	73.73
204.755	20.48
204.974	43.01
205.193	133.12
205.411	94.21
205.63	-10.24
205.849	79.87
206.068	-38.91
206.287	67.58
206.505	86.01
206.724	55.3
206.943	-24.58
207.162	79.87
207.381	34.82
207.599	43.01
207.818	59.39
208.037	43.01
208.255	53.25
208.474	36.86
208.693	24.58
208.911	61.44
209.13	36.86
209.349	77.82
209.567	32.77
209.786	102.4
210.005	88.06
210.223	-10.24
210.442	-24.58
210.661	98.3
210.879	92.16
211.098	104.45
211.316	81.92
211.535	79.87
211.753	96.25
211.972	88.06
212.191	22.53
212.409	0
212.628	57.34
212.846	32.77
213.065	30.72
213.283	157.69
213.502	112.64
213.72	30.72
213.938	16.38
214.157	59.39
214.375	83.97
214.594	40.96
214.812	26.62
215.031	47.1
215.249	18.43
215.467	-28.67
215.686	75.77
215.904	79.87
216.122	61.44
216.341	57.34
216.559	73.73
216.778	51.2
216.996	114.69
217.214	18.43
217.432	38.91
217.651	-14.34
217.869	77.82
218.087	20.48
218.306	40.96
218.524	-20.48
218.742	-12.29
218.96	61.44
219.179	88.06
219.397	90.11
219.615	4.1
219.833	73.73
220.051	26.62
220.27	55.3
220.488	49.15
220.706	24.58
220.924	4.1
221.142	26.62
221.36	75.77
221.578	57.34
221.796	-4.1
222.015	28.67
222.233	22.53
222.451	75.77
222.669	18.43
222.887	116.73
223.105	4.1
223.323	57.34
223.541	57.34
223.759	83.97
223.977	-22.53
224.195	172.03
224.413	102.4
224.631	38.91
224.849	26.62
225.067	116.73
225.285	79.87
225.503	65.54
225.721	22.53
225.939	-24.58
226.157	-6.14
226.375	51.2
226.592	-10.24
226.81	57.34
227.028	69.63
227.246	106.49
227.464	2.05
227.682	57.34
227.9	-2.05
228.117	-14.34
228.335	45.06
228.553	88.06
228.771	92.16
228.989	51.2
229.206	90.11
229.424	2.05
229.642	-2.05
229.86	0
230.077	65.54
230.295	38.91
230.513	30.72
230.731	30.72
230.948	36.86
231.166	122.88
231.384	90.11
231.601	67.58
231.819	49.15
232.037	61.44
232.254	-32.77
232.472	34.82
232.689	59.39
232.907	63.49
233.125	2.05
233.342	6.14
233.56	36.86
233.777	45.06
233.995	16.38
234.213	49.15
234.43	20.48
234.648	67.58
234.865	14.34
235.083	92.16
235.3	34.82
235.518	63.49
235.735	43.01
235.953	100.35
236.17	65.54
236.388	49.15
236.605	92.16
236.822	174.08
237.04	-36.86
237.257	4.1
237.475	32.77
237.692	55.3
237.909	65.54
238.127	45.06
238.344	-8.19
238.562	116.73
238.779	69.63
238.996	-100.35
239.214	36.86
239.431	86.01
239.648	2.05
239.865	79.87
240.083	-12.29
240.3	92.16
240.517	-10.24
240.735	51.2
240.952	126.97
241.169	14.34
241.386	-2.05
241.603	16.38
241.821	36.86
242.038	51.2
242.255	28.67
242.472	-18.43
242.689	92.16
242.907	124.93
243.124	51.2
243.341	63.49
243.558	16.38
243.775	28.67
243.992	-40.96
244.209	47.1
244.426	83.97
244.643	63.49
244.86	-12.29
245.078	106.49
245.295	102.4
245.512	96.25
245.729	69.63
245.946	65.54
246.163	53.25
246.38	24.58
246.597	118.78
246.814	30.72
247.031	-20.48
247.248	59.39
247.464	90.11
247.681	83.97
247.898	26.62
248.115	55.3
248.332	57.34
248.549	69.63
248.766	67.58
248.983	73.73
249.2	26.62
249.417	49.15
249.633	34.82
249.85	69.63
250.067	-47.1
250.284	30.72
250.501	126.97
250.717	73.73
250.934	43.01
251.151	83.97
251.368	12.29
251.585	180.22
251.801	22.53
252.018	57.34
252.235	81.92
252.451	47.1
252.668	57.34
252.885	90.11
253.102	59.39
253.318	38.91
253.535	116.73
253.752	65.54
253.968	22.53
254.185	79.87
254.401	45.06
254.618	61.44
254.835	55.3
255.051	114.69
255.268	45.06
255.484	69.63
255.701	-2.05
255.917	38.91
256.134	36.86
256.351	-2.05
256.567	-4.1
256.784	110.59
257	24.58
257.217	79.87
257.433	18.43
257.65	79.87
257.866	108.54
258.082	2.05
258.299	26.62
258.515	114.69
258.732	71.68
258.948	73.73
259.165	40.96
259.381	20.48
259.597	12.29
259.814	4.1
260.03	10.24
260.246	102.4
260.463	8.19
260.679	61.44
260.895	6.14
261.112	22.53
261.328	38.91
261.544	69.63
261.761	116.73
261.977	-2.05
262.193	-18.43
262.409	96.25
262.626	49.15
262.842	61.44
263.058	22.53
263.274	59.39
263.49	20.48
263.707	77.82
263.923	59.39
264.139	34.82
264.355	30.72
264.571	83.97
264.787	112.64
265.004	24.58
265.22	24.58
265.436	-10.24
265.652	131.07
265.868	69.63
266.084	28.67
266.3	-6.14
266.516	8.19
266.732	96.25
266.948	116.73
267.164	178.17
267.38	98.3
267.596	53.25
267.812	36.86
268.028	57.34
268.244	94.21
268.46	102.4
268.676	49.15
268.892	96.25
269.108	22.53
269.324	63.49
269.54	10.24
269.756	24.58
269.972	-32.77
270.188	57.34
270.403	-16.38
270.619	67.58
270.835	-4.1
271.051	59.39
271.267	-36.86
271.483	-6.14
271.698	24.58
271.914	92.16
272.13	53.25
272.346	69.63
272.562	26.62
272.777	73.73
272.993	18.43
273.209	34.82
273.425	-24.58
273.64	49.15
273.856	73.73
274.072	61.44
274.287	24.58
274.503	81.92
274.719	61.44
274.934	88.06
275.15	55.3
275.366	28.67
275.581	-12.29
275.797	94.21
276.012	67.58
276.228	16.38
276.444	120.83
276.659	178.17
276.875	-12.29
277.09	59.39
277.306	59.39
277.521	79.87
277.737	53.25
277.952	43.01
278.168	65.54
278.383	69.63
278.599	16.38
278.814	40.96
279.03	47.1
279.245	114.69
279.461	38.91
279.676	77.82
279.892	34.82
280.107	14.34
280.322	90.11
280.538	14.34
280.753	-45.06
280.969	47.1
281.184	-26.62
281.399	169.98
281.615	34.82
281.83	100.35
282.045	20.48
282.26	38.91
282.476	30.72
282.691	43.01
282.906	86.01
283.122	14.34
283.337	-18.43
283.552	0
283.767	22.53
283.983	106.49
284.198	36.86
284.413	79.87
284.628	-32.77
284.843	75.77
285.058	63.49
285.274	94.21
285.489	-22.53
285.704	108.54
285.919	108.54
286.134	16.38
286.349	120.83
286.564	59.39
286.779	129.02
286.995	38.91
287.21	-24.58
287.425	110.59
287.64	61.44
287.855	51.2
288.07	-22.53
288.285	71.68
288.5	73.73
288.715	77.82
288.93	14.34
289.145	0
289.36	112.64
289.575	22.53
289.79	73.73
290.004	63.49
290.219	104.45
290.434	47.1
290.649	57.34
290.864	106.49
291.079	53.25
291.294	53.25
291.509	-12.29
291.724	40.96
291.938	24.58
292.153	73.73
292.368	47.1
292.583	71.68
292.798	108.54
293.012	83.97
293.227	67.58
293.442	20.48
293.657	96.25
293.871	75.77
294.086	49.15
294.301	137.21
294.516	26.62
294.73	14.34
294.945	143.36
295.16	75.77
295.374	55.3
295.589	43.01
295.804	0
296.018	174.08
296.233	92.16
296.447	122.88
296.662	43.01
296.877	81.92
297.091	57.34
297.306	59.39
297.52	81.92
297.735	79.87
297.949	112.64
298.164	38.91
298.378	0
298.593	59.39
298.807	73.73
299.022	43.01
299.236	65.54
299.451	4.1
299.665	32.77
299.88	69.63
300.094	43.01
300.309	-28.67
300.523	36.86
300.737	75.77
300.952	112.64
301.166	24.58
301.381	12.29
301.595	32.77
301.809	69.63
302.024	57.34
302.238	20.48
302.452	116.73
302.667	51.2
302.881	96.25
303.095	51.2
303.309	43.01
303.524	26.62
303.738	-18.43
303.952	43.01
304.166	83.97
304.381	14.34
304.595	100.35
304.809	-65.54
305.023	2.05
305.237	16.38
305.452	45.06
305.666	79.87
305.88	83.97
306.094	131.07
306.308	67.58
306.522	28.67
306.736	100.35
306.95	55.3
307.164	102.4
307.379	36.86
307.593	36.86
307.807	102.4
308.021	6.14
308.235	53.25
308.449	92.16
308.663	90.11
308.877	98.3
309.091	-2.05
309.305	135.17
309.519	34.82
309.733	79.87
309.947	36.86
310.161	98.3
310.374	-2.05
310.588	-12.29
310.802	14.34
311.016	59.39
311.23	16.38
311.444	139.26
311.658	10.24
311.872	61.44
312.085	129.02
312.299	98.3
312.513	100.35
312.727	49.15
312.941	126.97
313.154	12.29
313.368	32.77
313.582	92.16
313.796	22.53
314.009	98.3
314.223	94.21
314.437	124.93
314.651	90.11
314.864	65.54
315.078	98.3
315.292	2.05
315.505	51.2
315.719	2.05
315.933	106.49
316.146	2.05
316.36	4.1
316.573	122.88
316.787	63.49
317.001	106.49
317.214	12.29
317.428	26.62
317.641	6.14
317.855	67.58
318.068	49.15
318.282	141.31
318.495	174.08
318.709	88.06
318.922	126.97
319.136	145.41
319.349	63.49
319.563	61.44
319.776	86.01
319.99	-6.14
320.203	57.34
320.417	59.39
320.63	92.16
320.843	178.17
321.057	96.25
321.27	116.73
321.483	67.58
321.697	43.01
321.91	45.06
322.124	77.82
322.337	75.77
322.55	-38.91
322.763	100.35
322.977	71.68
323.19	57.34
323.403	108.54
323.617	16.38
323.83	159.74
324.043	-6.14
324.256	40.96
324.469	83.97
324.683	47.1
324.896	51.2
325.109	-8.19
325.322	16.38
325.535	81.92
325.748	92.16
325.962	116.73
326.175	-6.14
326.388	38.91
326.601	73.73
326.814	59.39
327.027	86.01
327.24	81.92
327.453	43.01
327.666	49.15
327.879	90.11
328.092	126.97
328.305	-26.62
328.518	16.38
328.731	110.59
328.944	16.38
329.157	63.49
329.37	53.25
329.583	110.59
329.796	69.63
330.009	51.2
330.222	65.54
330.435	51.2
330.648	65.54
330.861	10.24
331.073	67.58
331.286	55.3
331.499	86.01
331.712	8.19
331.925	98.3
332.138	-6.14
332.35	112.64
332.563	104.45
332.776	98.3
332.989	75.77
333.202	-26.62
333.414	83.97
333.627	18.43
333.84	32.77
334.053	57.34
334.265	4.1
334.478	108.54
334.691	69.63
334.903	90.11
335.116	22.53
335.329	112.64
335.541	59.39
335.754	139.26
335.966	86.01
336.179	51.2
336.392	61.44
336.604	-4.1
336.817	77.82
337.029	45.06
337.242	86.01
337.454	69.63
337.667	141.31
337.88	118.78
338.092	36.86
338.305	71.68
338.517	-4.1
338.729	102.4
338.942	106.49
339.154	14.34
339.367	26.62
339.579	94.21
339.792	12.29
340.004	92.16
340.217	61.44
340.429	79.87
340.641	40.96
340.854	81.92
341.066	40.96
341.278	98.3
341.491	114.69
341.703	38.91
341.915	45.06
342.128	92.16
342.34	69.63
342.552	32.77
342.764	122.88
342.977	61.44
343.189	45.06
343.401	55.3
343.613	26.62
343.826	92.16
344.038	28.67
344.25	34.82
344.462	36.86
344.674	126.97
344.886	47.1
345.099	110.59
345.311	-26.62
345.523	75.77
345.735	8.19
345.947	129.02
346.159	69.63
346.371	45.06
346.583	14.34
346.795	135.17
347.007	124.93
347.219	108.54
347.431	34.82
347.643	86.01
347.855	69.63
348.067	151.55
348.279	8.19
348.491	77.82
348.703	18.43
348.915	94.21
349.127	98.3
349.339	73.73
349.551	-38.91
349.763	65.54
349.975	96.25
350.187	92.16
350.399	106.49
350.61	151.55
350.822	51.2
351.034	59.39
351.246	133.12
351.458	55.3
351.669	67.58
351.881	55.3
352.093	88.06
352.305	4.1
352.517	57.34
352.728	34.82
352.94	69.63
353.152	63.49
353.363	-24.58
353.575	94.21
353.787	92.16
353.999	92.16
354.21	73.73
354.422	-16.38
354.633	-30.72
354.845	104.45
355.057	65.54
355.268	90.11
355.48	2.05
355.692	122.88
355.903	94.21
356.115	67.58
356.326	43.01
356.538	59.39
356.749	108.54
356.961	51.2
357.172	98.3
357.384	118.78
357.595	61.44
357.807	83.97
358.018	18.43
358.23	75.77
358.441	104.45
358.653	34.82
358.864	-12.29
359.075	100.35
359.287	90.11
359.498	83.97
359.709	10.24
359.921	108.54
360.132	88.06
360.344	-2.05
360.555	53.25
360.766	145.41
360.977	53.25
361.189	86.01
361.4	32.77
361.611	133.12
361.823	-10.24
362.034	141.31
362.245	-6.14
362.456	108.54
362.667	129.02
362.879	16.38
363.09	47.1
363.301	112.64
363.512	92.16
363.723	26.62
363.935	63.49
364.146	92.16
364.357	118.78
364.568	98.3
364.779	61.44
364.99	98.3
365.201	-2.05
365.412	81.92
365.623	57.34
365.834	106.49
366.045	96.25
366.256	81.92
366.467	67.58
366.678	88.06
366.889	53.25
367.1	67.58
367.311	63.49
367.522	18.43
367.733	86.01
367.944	98.3
368.155	100.35
368.366	71.68
368.577	49.15
368.788	77.82
368.999	112.64
369.209	100.35
369.42	145.41
369.631	172.03
369.842	77.82
370.053	55.3
370.264	98.3
370.474	69.63
370.685	122.88
370.896	69.63
371.107	92.16
371.317	59.39
371.528	22.53
371.739	114.69
371.95	98.3
372.16	65.54
372.371	61.44
372.582	47.1
372.792	131.07
373.003	73.73
373.214	73.73
373.424	118.78
373.635	63.49
373.846	24.58
374.056	77.82
374.267	71.68
374.477	79.87
374.688	71.68
374.898	40.96
375.109	110.59
375.319	59.39
375.53	114.69
375.74	12.29
375.951	43.01
376.161	61.44
376.372	55.3
376.582	106.49
376.793	98.3
377.003	88.06
377.214	102.4
377.424	90.11
377.635	73.73
377.845	20.48
378.055	135.17
378.266	73.73
378.476	32.77
378.686	90.11
378.897	75.77
379.107	88.06
379.317	137.21
379.528	65.54
379.738	112.64
379.948	-20.48
380.158	133.12
380.369	77.82
380.579	86.01
380.789	34.82
380.999	67.58
381.21	81.92
381.42	108.54
381.63	4.1
381.84	65.54
382.05	122.88
382.261	45.06
382.471	71.68
382.681	30.72
382.891	120.83
383.101	145.41
383.311	63.49
383.521	81.92
383.731	133.12
383.941	61.44
384.151	100.35
384.361	67.58
384.571	124.93
384.781	47.1
384.991	106.49
385.201	92.16
385.411	169.98
385.621	75.77
385.831	61.44
386.041	126.97
386.251	2.05
386.461	75.77
386.671	2.05
386.881	110.59
387.091	112.64
387.301	38.91
387.511	86.01
387.72	165.89
387.93	71.68
388.14	73.73
388.35	63.49
388.56	155.65
388.769	86.01
388.979	96.25
389.189	131.07
389.399	81.92
389.609	77.82
389.818	122.88
390.028	94.21
390.238	106.49
390.447	69.63
390.657	77.82
390.867	75.77
391.076	71.68
391.286	77.82
391.496	61.44
391.705	126.97
391.915	129.02
392.125	2.05
392.334	69.63
392.544	110.59
392.753	126.97
392.963	45.06
393.172	79.87
393.382	124.93
393.591	131.07
393.801	106.49
394.01	112.64
394.22	120.83
394.429	83.97
394.639	83.97
394.848	137.21
395.058	86.01
395.267	96.25
395.477	135.17
395.686	81.92
395.895	155.65
396.105	129.02
396.314	137.21
396.524	100.35
396.733	106.49
396.942	67.58
397.152	169.98
397.361	96.25
397.57	174.08
397.78	124.93
397.989	143.36
398.198	137.21
398.407	100.35
398.617	122.88
398.826	122.88
399.035	-2.05
399.244	159.74
399.453	94.21
399.663	102.4
399.872	118.78
400.081	90.11
400.29	174.08
400.499	88.06
400.708	192.51
400.917	172.03
401.127	129.02
401.336	104.45
401.545	176.13
401.754	186.37
401.963	141.31
402.172	69.63
402.381	51.2
402.59	118.78
402.799	176.13
403.008	145.41
403.217	225.28
403.426	245.76
403.635	169.98
403.844	174.08
404.053	159.74
404.262	114.69
404.471	194.56
404.68	202.75
404.888	200.7
405.097	184.32
405.306	184.32
405.515	178.17
405.724	135.17
405.933	237.56
406.142	194.56
406.35	198.65
406.559	137.21
406.768	258.04
406.977	251.9
407.185	239.61
407.394	229.37
407.603	266.24
407.812	282.62
408.02	286.72
408.229	270.33
408.438	239.61
408.646	339.96
408.855	258.04
409.064	299
409.272	309.24
409.481	352.25
409.69	305.15
409.898	256
410.107	335.87
410.315	380.92
410.524	362.49
410.733	321.53
410.941	419.83
411.15	411.64
411.358	362.49
411.567	376.83
411.775	475.13
411.984	534.52
412.192	587.77
412.401	464.89
412.609	571.38
412.818	643.06
413.026	573.43
413.234	641.01
413.443	659.45
413.651	575.48
413.86	589.82
414.068	684.02
414.276	776.18
414.485	681.97
414.693	722.93
414.901	772.08
415.11	823.28
415.318	761.84
415.526	729.08
415.734	897.01
415.943	933.87
416.151	868.34
416.359	827.38
416.567	966.64
416.776	985.07
416.984	1026.03
417.192	1097.71
417.4	1071.09
417.608	1091.57
417.817	1142.77
418.025	1185.77
418.233	1257.45
418.441	1226.73
418.649	1312.75
418.857	1400.81
419.065	1492.97
419.273	1531.88
419.481	1488.87
419.689	1751.01
419.897	1669.09
420.105	1773.54
420.313	1783.78
420.521	1882.08
420.729	1845.22
420.937	1886.18
421.145	2009.06
421.353	2070.5
421.561	2078.69
421.769	2105.31
421.977	2232.29
422.185	2244.57
422.393	2412.51
422.601	2570.2
422.809	2598.87
423.017	2535.39
423.224	2512.86
423.432	2826.2
423.64	2809.81
423.848	3125.2
424.056	2967.51
424.263	3153.87
424.471	3276.75
424.679	3311.57
424.887	3454.92
425.094	3512.27
425.302	3456.97
425.51	3647.43
425.718	3751.88
425.925	3792.84
426.133	3952.58
426.341	4175.81
426.548	4364.22
426.756	4298.69
426.964	4501.44
427.171	4698.04
427.379	4898.74
427.586	4736.95
427.794	4929.46
428.001	5164.98
428.209	5570.47
428.417	5263.28
428.624	5943.21
428.832	5679.02
429.039	5730.22
429.247	5717.93
429.454	6326.18
429.662	6750.1
429.869	6317.98
430.076	6780.82
430.284	6442.91
430.491	6813.59
430.699	7198.61
430.906	6954.9
431.114	7311.25
431.321	7536.52
431.528	7786.38
431.736	8228.74
431.943	8669.05
432.15	8290.18
432.358	8531.84
432.565	8908.66
432.772	8783.74
432.979	9217.91
433.187	9568.11
433.394	9510.77
433.601	10196.84
433.808	10313.57
434.016	10129.25
434.223	10633.05
434.43	11210.58
434.637	10858.33
434.844	11593.55
435.052	11884.36
435.259	11790.16
435.466	11886.41
435.673	11671.37
435.88	12640.06
436.087	13252.41
436.294	13295.41
436.501	12973.88
436.708	13295.41
436.915	13764.4
437.122	14341.93
437.329	14026.54
437.537	14542.63
437.743	14815.01
437.95	14610.21
438.157	15744.78
438.364	15838.99
438.571	16041.74
438.778	16264.97
438.985	17577.72
439.192	16772.86
439.399	17524.47
439.606	17229.56
439.813	18015.98
440.02	19187.42
440.227	18671.33
440.433	18679.52
440.64	19209.95
440.847	19332.82
441.054	19779.28
441.261	20881.09
441.467	20678.34
441.674	21024.45
441.881	21935.79
442.088	21710.52
442.294	21444.28
442.501	22025.9
442.708	22412.97
442.914	23402.14
443.121	24442.51
443.328	23717.53
443.534	25450.11
443.741	24923.78
443.948	24585.86
444.154	26353.26
444.361	25951.86
444.568	26287.73
444.774	26205.81
444.981	26580.59
445.187	27620.95
445.394	28583.5
445.6	28417.61
445.807	30903.85
446.013	29371.97
446.22	30076.47
446.426	31446.56
446.633	31360.55
446.839	33076.74
447.046	31401.5
447.252	33351.17
447.459	33441.28
447.665	33074.7
447.871	34387.44
448.078	35735.01
448.284	34151.93
448.491	35200.49
448.697	36459.99
448.903	36916.68
449.11	37291.46
449.316	36343.25
449.522	37238.22
449.728	38450.61
449.935	38540.72
450.141	38569.4
450.347	39507.37
450.553	38237.62
450.76	38868.4
450.966	39710.11
451.172	39486.89
451.378	40283.55
451.584	39804.32
451.791	40342.94
451.997	40240.54
452.203	40846.74
452.409	41551.24
452.615	41006.48
452.821	39609.76
453.027	39222.7
453.233	41489.8
453.44	39677.35
453.646	40045.98
453.852	40441.24
454.058	40881.55
454.264	39665.06
454.47	40504.73
454.676	39640.48
454.882	40697.23
455.088	37354.95
455.294	37811.65
455.5	38555.06
455.705	38741.42
455.911	37244.36
456.117	36490.71
456.323	36312.53
456.529	34002.43
456.735	35626.46
456.941	34924.01
457.147	34215.41
457.352	33324.55
457.558	32630.29
457.764	32925.19
457.97	32290.32
458.176	31647.26
458.381	31571.49
458.587	30305.84
458.793	30039.61
458.999	28407.37
459.204	30504.49
459.41	29888.06
459.616	27618.91
459.821	27901.53
460.027	27522.65
460.233	27186.79
460.438	26023.54
460.644	25968.24
460.85	25032.32
461.055	24645.26
461.261	24438.41
461.466	22228.65
461.672	21700.28
461.878	23637.66
462.083	22027.95
462.289	21479.1
462.494	21130.94
462.7	20342.47
462.905	19969.74
463.111	20565.7
463.316	20530.89
463.522	20074.19
463.727	20045.52
463.932	20121.29
464.138	20061.9
464.343	20047.57
464.549	19312.35
464.754	20197.07
464.959	19644.12
465.165	19736.27
465.37	19117.79
465.575	18478.82
465.781	19089.12
465.986	19472.09
466.191	18448.1
466.397	18384.62
466.602	17366.78
