Data from USB4F104151__98__12-42-58-304.txt Node

Date: Fri Mar 14 12:42:58 EDT 2025
User: louis
Spectrometer: USB4F10415
Trigger mode: 4
Integration Time (sec): 3.000000E-2
Scans to average: 1
Electric dark correction enabled: true
Nonlinearity correction enabled: false
Boxcar width: 0
XAxis mode: Wavelengths
Number of Pixels in Spectrum: 3648
>>>>>Begin Spectral Data<<<<<
178.204	-85.84
178.424	-85.84
178.644	-85.84
178.864	-218.96
179.084	-114.52
179.304	-75.6
179.524	-65.36
179.744	2.22
179.964	82.09
180.184	49.32
180.404	24.75
180.624	-53.08
180.844	0.17
181.064	6.31
181.283	22.7
181.503	-51.03
181.723	57.51
181.943	-10.07
182.163	108.71
182.383	8.36
182.602	98.47
182.822	16.55
183.042	94.38
183.262	18.6
183.482	-12.12
183.701	39.08
183.921	65.71
184.141	0.17
184.361	90.28
184.58	-51.03
184.8	22.7
185.02	-26.45
185.239	61.61
185.459	69.8
185.679	47.27
185.898	-83.8
186.118	-51.03
186.338	55.47
186.557	57.51
186.777	63.66
186.997	24.75
187.216	-12.12
187.436	32.94
187.655	61.61
187.875	30.89
188.095	71.85
188.314	57.51
188.534	18.6
188.753	-42.84
188.973	100.52
189.192	73.9
189.412	-14.17
189.631	61.61
189.851	22.7
190.07	22.7
190.29	24.75
190.509	41.13
190.729	61.61
190.948	61.61
191.168	141.48
191.387	41.13
191.607	-24.4
191.826	49.32
192.045	45.23
192.265	49.32
192.484	8.36
192.704	18.6
192.923	-20.31
193.142	86.19
193.362	4.27
193.581	125.1
193.8	10.41
194.02	55.47
194.239	12.46
194.458	90.28
194.678	30.89
194.897	71.85
195.116	49.32
195.335	73.9
195.555	16.55
195.774	39.08
195.993	0.17
196.212	75.95
196.432	-26.45
196.651	43.18
196.87	4.27
197.089	92.33
197.308	-22.36
197.528	-20.31
197.747	14.51
197.966	84.14
198.185	121
198.404	18.6
198.623	18.6
198.842	121
199.062	73.9
199.281	61.61
199.5	53.42
199.719	65.71
199.938	-3.93
200.157	67.75
200.376	22.7
200.595	45.23
200.814	49.32
201.033	-1.88
201.252	49.32
201.471	57.51
201.69	34.99
201.909	-3.93
202.128	39.08
202.347	53.42
202.566	39.08
202.785	6.31
203.004	-51.03
203.223	108.71
203.442	-1.88
203.661	-1.88
203.879	51.37
204.098	77.99
204.317	14.51
204.536	34.99
204.755	53.42
204.974	28.84
205.193	-16.21
205.411	90.28
205.63	32.94
205.849	53.42
206.068	22.7
206.287	30.89
206.505	12.46
206.724	-1.88
206.943	63.66
207.162	26.79
207.381	34.99
207.599	16.55
207.818	92.33
208.037	55.47
208.255	14.51
208.474	82.09
208.693	49.32
208.911	18.6
209.13	51.37
209.349	96.43
209.567	55.47
209.786	116.9
210.005	90.28
210.223	26.79
210.442	2.22
210.661	73.9
210.879	10.41
211.098	102.57
211.316	94.38
211.535	84.14
211.753	77.99
211.972	18.6
212.191	-55.12
212.409	22.7
212.628	106.67
212.846	4.27
213.065	37.03
213.283	57.51
213.502	-44.88
213.72	28.84
213.938	8.36
214.157	8.36
214.375	-26.45
214.594	-18.26
214.812	55.47
215.031	32.94
215.249	30.89
215.467	45.23
215.686	69.8
215.904	67.75
216.122	18.6
216.341	100.52
216.559	2.22
216.778	-1.88
216.996	61.61
217.214	-69.46
217.432	14.51
217.651	51.37
217.869	-63.32
218.087	10.41
218.306	45.23
218.524	100.52
218.742	51.37
218.96	129.19
219.179	-5.97
219.397	-8.02
219.615	57.51
219.833	53.42
220.051	57.51
220.27	94.38
220.488	2.22
220.706	71.85
220.924	-42.84
221.142	104.62
221.36	82.09
221.578	47.27
221.796	55.47
222.015	47.27
222.233	75.95
222.451	55.47
222.669	65.71
222.887	92.33
223.105	57.51
223.323	28.84
223.541	26.79
223.759	28.84
223.977	39.08
224.195	94.38
224.413	32.94
224.631	18.6
224.849	22.7
225.067	110.76
225.285	43.18
225.503	73.9
225.721	-40.79
225.939	51.37
226.157	41.13
226.375	86.19
226.592	-10.07
226.81	-10.07
227.028	100.52
227.246	80.04
227.464	75.95
227.682	67.75
227.9	73.9
228.117	24.75
228.335	39.08
228.553	0.17
228.771	28.84
228.989	32.94
229.206	73.9
229.424	57.51
229.642	-1.88
229.86	47.27
230.077	0.17
230.295	8.36
230.513	59.56
230.731	28.84
230.948	18.6
231.166	0.17
231.384	63.66
231.601	34.99
231.819	110.76
232.037	-22.36
232.254	14.51
232.472	90.28
232.689	30.89
232.907	118.95
233.125	16.55
233.342	8.36
233.56	32.94
233.777	41.13
233.995	12.46
234.213	69.8
234.43	108.71
234.648	61.61
234.865	2.22
235.083	37.03
235.3	43.18
235.518	-10.07
235.735	80.04
235.953	14.51
236.17	96.43
236.388	45.23
236.605	41.13
236.822	108.71
237.04	69.8
237.257	63.66
237.475	2.22
237.692	0.17
237.909	28.84
238.127	84.14
238.344	6.31
238.562	20.65
238.779	41.13
238.996	-5.97
239.214	51.37
239.431	125.1
239.648	8.36
239.865	45.23
240.083	28.84
240.3	2.22
240.517	-10.07
240.735	104.62
240.952	75.95
241.169	155.82
241.386	47.27
241.603	20.65
241.821	39.08
242.038	88.23
242.255	65.71
242.472	-8.02
242.689	51.37
242.907	80.04
243.124	12.46
243.341	65.71
243.558	-20.31
243.775	2.22
243.992	18.6
244.209	14.51
244.426	118.95
244.643	47.27
244.86	45.23
245.078	-38.74
245.295	86.19
245.512	125.1
245.729	18.6
245.946	96.43
246.163	24.75
246.38	12.46
246.597	47.27
246.814	92.33
247.031	37.03
247.248	34.99
247.464	8.36
247.681	32.94
247.898	-1.88
248.115	34.99
248.332	14.51
248.549	63.66
248.766	20.65
248.983	45.23
249.2	82.09
249.417	69.8
249.633	0.17
249.85	12.46
250.067	39.08
250.284	41.13
250.501	26.79
250.717	43.18
250.934	30.89
251.151	28.84
251.368	30.89
251.585	94.38
251.801	-5.97
252.018	-1.88
252.235	61.61
252.451	59.56
252.668	6.31
252.885	53.42
253.102	16.55
253.318	28.84
253.535	12.46
253.752	45.23
253.968	57.51
254.185	32.94
254.401	24.75
254.618	55.47
254.835	55.47
255.051	-14.17
255.268	6.31
255.484	39.08
255.701	6.31
255.917	90.28
256.134	96.43
256.351	80.04
256.567	55.47
256.784	16.55
257	20.65
257.217	16.55
257.433	49.32
257.65	61.61
257.866	10.41
258.082	20.65
258.299	0.17
258.515	-34.64
258.732	75.95
258.948	73.9
259.165	61.61
259.381	45.23
259.597	49.32
259.814	63.66
260.03	47.27
260.246	-12.12
260.463	61.61
260.679	116.9
260.895	73.9
261.112	90.28
261.328	14.51
261.544	32.94
261.761	141.48
261.977	39.08
262.193	49.32
262.409	20.65
262.626	2.22
262.842	14.51
263.058	55.47
263.274	45.23
263.49	24.75
263.707	22.7
263.923	63.66
264.139	37.03
264.355	55.47
264.571	86.19
264.787	14.51
265.004	71.85
265.22	22.7
265.436	-18.26
265.652	53.42
265.868	100.52
266.084	39.08
266.3	20.65
266.516	-18.26
266.732	59.56
266.948	16.55
267.164	32.94
267.38	30.89
267.596	30.89
267.812	39.08
268.028	61.61
268.244	65.71
268.46	-12.12
268.676	10.41
268.892	47.27
269.108	32.94
269.324	10.41
269.54	49.32
269.756	90.28
269.972	53.42
270.188	16.55
270.403	-14.17
270.619	71.85
270.835	-20.31
271.051	65.71
271.267	26.79
271.483	55.47
271.698	39.08
271.914	80.04
272.13	63.66
272.346	28.84
272.562	24.75
272.777	86.19
272.993	10.41
273.209	34.99
273.425	41.13
273.64	-61.27
273.856	90.28
274.072	28.84
274.287	-22.36
274.503	63.66
274.719	80.04
274.934	49.32
275.15	4.27
275.366	24.75
275.581	34.99
275.797	80.04
276.012	57.51
276.228	12.46
276.444	32.94
276.659	92.33
276.875	-20.31
277.09	39.08
277.306	61.61
277.521	41.13
277.737	-5.97
277.952	49.32
278.168	-1.88
278.383	-28.5
278.599	-26.45
278.814	37.03
279.03	86.19
279.245	123.05
279.461	12.46
279.676	39.08
279.892	32.94
280.107	-14.17
280.322	22.7
280.538	59.56
280.753	45.23
280.969	55.47
281.184	63.66
281.399	63.66
281.615	65.71
281.83	69.8
282.045	39.08
282.26	-3.93
282.476	59.56
282.691	55.47
282.906	53.42
283.122	-14.17
283.337	-22.36
283.552	73.9
283.767	14.51
283.983	6.31
284.198	86.19
284.413	49.32
284.628	-18.26
284.843	30.89
285.058	102.57
285.274	55.47
285.489	-12.12
285.704	30.89
285.919	20.65
286.134	24.75
286.349	2.22
286.564	-5.97
286.779	-24.4
286.995	45.23
287.21	2.22
287.425	47.27
287.64	71.85
287.855	16.55
288.07	-16.21
288.285	82.09
288.5	90.28
288.715	143.53
288.93	102.57
289.145	2.22
289.36	45.23
289.575	12.46
289.79	127.14
290.004	-3.93
290.219	63.66
290.434	61.61
290.649	45.23
290.864	37.03
291.079	24.75
291.294	102.57
291.509	22.7
291.724	65.71
291.938	-26.45
292.153	32.94
292.368	-5.97
292.583	75.95
292.798	-48.98
293.012	114.86
293.227	59.56
293.442	41.13
293.657	55.47
293.871	96.43
294.086	59.56
294.301	26.79
294.516	45.23
294.73	41.13
294.945	37.03
295.16	75.95
295.374	26.79
295.589	147.62
295.804	14.51
296.018	102.57
296.233	75.95
296.447	30.89
296.662	102.57
296.877	65.71
297.091	10.41
297.306	-3.93
297.52	2.22
297.735	77.99
297.949	75.95
298.164	30.89
298.378	59.56
298.593	4.27
298.807	-28.5
299.022	-1.88
299.236	59.56
299.451	47.27
299.665	39.08
299.88	71.85
300.094	34.99
300.309	28.84
300.523	10.41
300.737	10.41
300.952	32.94
301.166	16.55
301.381	-10.07
301.595	41.13
301.809	45.23
302.024	-14.17
302.238	94.38
302.452	84.14
302.667	49.32
302.881	86.19
303.095	41.13
303.309	77.99
303.524	-30.55
303.738	61.61
303.952	2.22
304.166	28.84
304.381	-12.12
304.595	51.37
304.809	-3.93
305.023	18.6
305.237	28.84
305.452	41.13
305.666	63.66
305.88	26.79
306.094	71.85
306.308	57.51
306.522	41.13
306.736	116.9
306.95	82.09
307.164	-8.02
307.379	2.22
307.593	108.71
307.807	14.51
308.021	88.23
308.235	26.79
308.449	41.13
308.663	65.71
308.877	63.66
309.091	34.99
309.305	32.94
309.519	71.85
309.733	116.9
309.947	-40.79
310.161	57.51
310.374	71.85
310.588	123.05
310.802	10.41
311.016	61.61
311.23	-16.21
311.444	26.79
311.658	18.6
311.872	75.95
312.085	137.38
312.299	43.18
312.513	53.42
312.727	137.38
312.941	-5.97
313.154	20.65
313.368	77.99
313.582	10.41
313.796	61.61
314.009	51.37
314.223	90.28
314.437	67.75
314.651	67.75
314.864	82.09
315.078	20.65
315.292	14.51
315.505	28.84
315.719	45.23
315.933	55.47
316.146	-8.02
316.36	30.89
316.573	67.75
316.787	71.85
317.001	92.33
317.214	2.22
317.428	14.51
317.641	-3.93
317.855	32.94
318.068	102.57
318.282	30.89
318.495	-3.93
318.709	59.56
318.922	65.71
319.136	37.03
319.349	161.96
319.563	-12.12
319.776	84.14
319.99	0.17
320.203	67.75
320.417	51.37
320.63	67.75
320.843	127.14
321.057	14.51
321.27	94.38
321.483	20.65
321.697	41.13
321.91	43.18
322.124	77.99
322.337	53.42
322.55	34.99
322.763	55.47
322.977	75.95
323.19	-8.02
323.403	-26.45
323.617	65.71
323.83	39.08
324.043	10.41
324.256	49.32
324.469	59.56
324.683	-1.88
324.896	-3.93
325.109	73.9
325.322	12.46
325.535	82.09
325.748	96.43
325.962	16.55
326.175	-1.88
326.388	80.04
326.601	67.75
326.814	20.65
327.027	57.51
327.24	82.09
327.453	39.08
327.666	190.63
327.879	82.09
328.092	26.79
328.305	-26.45
328.518	-51.03
328.731	-14.17
328.944	75.95
329.157	-1.88
329.37	22.7
329.583	121
329.796	86.19
330.009	-42.84
330.222	43.18
330.435	12.46
330.648	0.17
330.861	2.22
331.073	30.89
331.286	98.47
331.499	75.95
331.712	67.75
331.925	100.52
332.138	65.71
332.35	14.51
332.563	-16.21
332.776	129.19
332.989	2.22
333.202	45.23
333.414	-51.03
333.627	51.37
333.84	80.04
334.053	45.23
334.265	100.52
334.478	53.42
334.691	51.37
334.903	90.28
335.116	-3.93
335.329	8.36
335.541	75.95
335.754	96.43
335.966	73.9
336.179	55.47
336.392	-71.51
336.604	47.27
336.817	94.38
337.029	112.81
337.242	-3.93
337.454	39.08
337.667	112.81
337.88	96.43
338.092	47.27
338.305	55.47
338.517	100.52
338.729	84.14
338.942	82.09
339.154	57.51
339.367	88.23
339.579	28.84
339.792	49.32
340.004	65.71
340.217	86.19
340.429	34.99
340.641	-26.45
340.854	53.42
341.066	37.03
341.278	104.62
341.491	104.62
341.703	12.46
341.915	59.56
342.128	92.33
342.34	51.37
342.552	22.7
342.764	2.22
342.977	86.19
343.189	45.23
343.401	39.08
343.613	-22.36
343.826	47.27
344.038	47.27
344.25	16.55
344.462	37.03
344.674	57.51
344.886	41.13
345.099	84.14
345.311	92.33
345.523	24.75
345.735	59.56
345.947	41.13
346.159	20.65
346.371	61.61
346.583	-3.93
346.795	71.85
347.007	-8.02
347.219	34.99
347.431	47.27
347.643	108.71
347.855	49.32
348.067	137.38
348.279	14.51
348.491	4.27
348.703	90.28
348.915	22.7
349.127	10.41
349.339	2.22
349.551	43.18
349.763	65.71
349.975	43.18
350.187	80.04
350.399	6.31
350.61	14.51
350.822	-16.21
351.034	65.71
351.246	94.38
351.458	41.13
351.669	67.75
351.881	71.85
352.093	43.18
352.305	80.04
352.517	98.47
352.728	75.95
352.94	39.08
353.152	30.89
353.363	49.32
353.575	47.27
353.787	43.18
353.999	77.99
354.21	77.99
354.422	10.41
354.633	24.75
354.845	96.43
355.057	53.42
355.268	57.51
355.48	55.47
355.692	30.89
355.903	53.42
356.115	43.18
356.326	55.47
356.538	100.52
356.749	71.85
356.961	6.31
357.172	118.95
357.384	18.6
357.595	137.38
357.807	30.89
358.018	37.03
358.23	75.95
358.441	123.05
358.653	37.03
358.864	98.47
359.075	51.37
359.287	37.03
359.498	145.58
359.709	49.32
359.921	127.14
360.132	65.71
360.344	98.47
360.555	37.03
360.766	92.33
360.977	-12.12
361.189	63.66
361.4	121
361.611	104.62
361.823	67.75
362.034	153.77
362.245	80.04
362.456	65.71
362.667	96.43
362.879	37.03
363.09	137.38
363.301	129.19
363.512	34.99
363.723	20.65
363.935	49.32
364.146	26.79
364.357	49.32
364.568	135.34
364.779	22.7
364.99	49.32
365.201	-12.12
365.412	121
365.623	-42.84
365.834	69.8
366.045	131.24
366.256	133.29
366.467	41.13
366.678	65.71
366.889	57.51
367.1	84.14
367.311	51.37
367.522	69.8
367.733	45.23
367.944	84.14
368.155	45.23
368.366	77.99
368.577	118.95
368.788	102.57
368.999	69.8
369.209	4.27
369.42	57.51
369.631	129.19
369.842	34.99
370.053	102.57
370.264	71.85
370.474	30.89
370.685	61.61
370.896	100.52
371.107	123.05
371.317	61.61
371.528	-16.21
371.739	127.14
371.95	67.75
372.16	92.33
372.371	92.33
372.582	63.66
372.792	82.09
373.003	112.81
373.214	61.61
373.424	77.99
373.635	67.75
373.846	75.95
374.056	8.36
374.267	69.8
374.477	43.18
374.688	30.89
374.898	114.86
375.109	88.23
375.319	43.18
375.53	157.86
375.74	69.8
375.951	37.03
376.161	41.13
376.372	118.95
376.582	61.61
376.793	24.75
377.003	8.36
377.214	84.14
377.424	49.32
377.635	45.23
377.845	34.99
378.055	104.62
378.266	94.38
378.476	75.95
378.686	18.6
378.897	88.23
379.107	86.19
379.317	88.23
379.528	39.08
379.738	71.85
379.948	34.99
380.158	84.14
380.369	47.27
380.579	96.43
380.789	84.14
380.999	80.04
381.21	86.19
381.42	149.67
381.63	8.36
381.84	71.85
382.05	125.1
382.261	121
382.471	90.28
382.681	28.84
382.891	26.79
383.101	73.9
383.311	-38.74
383.521	71.85
383.731	43.18
383.941	153.77
384.151	24.75
384.361	28.84
384.571	-12.12
384.781	108.71
384.991	59.56
385.201	106.67
385.411	164.01
385.621	84.14
385.831	-24.4
386.041	102.57
386.251	75.95
386.461	145.58
386.671	47.27
386.881	102.57
387.091	127.14
387.301	86.19
387.511	108.71
387.72	149.67
387.93	53.42
388.14	102.57
388.35	71.85
388.56	90.28
388.769	94.38
388.979	112.81
389.189	77.99
389.399	102.57
389.609	73.9
389.818	114.86
390.028	129.19
390.238	-3.93
390.447	45.23
390.657	30.89
390.867	22.7
391.076	88.23
391.286	65.71
391.496	139.43
391.705	34.99
391.915	92.33
392.125	166.06
392.334	8.36
392.544	121
392.753	102.57
392.963	108.71
393.172	104.62
393.382	61.61
393.591	168.1
393.801	98.47
394.01	118.95
394.22	100.52
394.429	92.33
394.639	127.14
394.848	118.95
395.058	94.38
395.267	121
395.477	121
395.686	155.82
395.895	168.1
396.105	252.07
396.314	129.19
396.524	135.34
396.733	155.82
396.942	121
397.152	170.15
397.361	149.67
397.57	112.81
397.78	129.19
397.989	147.62
398.198	176.3
398.407	112.81
398.617	96.43
398.826	123.05
399.035	57.51
399.244	174.25
399.453	67.75
399.663	145.58
399.872	129.19
400.081	118.95
400.29	168.1
400.499	90.28
400.708	114.86
400.917	123.05
401.127	211.11
401.336	176.3
401.545	227.5
401.754	204.97
401.963	190.63
402.172	182.44
402.381	98.47
402.59	114.86
402.799	188.58
403.008	204.97
403.217	155.82
403.426	223.4
403.635	184.49
403.844	151.72
404.053	141.48
404.262	176.3
404.471	219.3
404.68	252.07
404.888	227.5
405.097	209.06
405.306	274.6
405.515	168.1
405.724	207.02
405.933	233.64
406.142	252.07
406.35	274.6
406.559	280.74
406.768	247.97
406.977	420
407.185	311.46
407.394	288.93
407.603	258.21
407.812	270.5
408.02	336.04
408.229	254.12
408.438	319.65
408.646	305.32
408.855	323.75
409.064	372.9
409.272	350.37
409.481	331.94
409.69	405.67
409.898	389.28
410.107	463.01
410.315	497.83
410.524	503.97
410.733	465.06
410.941	546.98
411.15	503.97
411.358	643.23
411.567	651.42
411.775	581.79
411.984	598.18
412.192	610.47
412.401	645.28
412.609	678.05
412.818	669.86
413.026	755.87
413.234	725.15
413.443	774.3
413.651	823.45
413.86	848.03
414.068	897.18
414.276	870.56
414.485	868.51
414.693	936.09
414.901	999.58
415.11	1020.06
415.318	899.23
415.526	1058.97
415.734	1200.28
415.943	1237.14
416.151	1177.75
416.359	1233.05
416.567	1233.05
416.776	1429.65
416.984	1448.08
417.192	1503.38
417.4	1460.37
417.608	1357.97
417.817	1415.32
418.025	1638.55
418.233	1702.03
418.441	1734.8
418.649	1753.23
418.857	1900.69
419.065	1949.84
419.273	1964.17
419.481	2021.52
419.689	2099.34
419.897	2207.88
420.105	2197.64
420.313	2404.49
420.521	2375.81
420.729	2392.2
420.937	2527.36
421.145	2697.35
421.353	2611.33
421.561	2762.88
421.769	2916.48
421.977	2979.97
422.185	2984.06
422.393	3049.6
422.601	3534.96
422.809	3321.98
423.017	3354.74
423.224	3539.06
423.432	3790.96
423.64	3674.23
423.848	4053.1
424.056	3946.61
424.263	4165.74
424.471	4294.76
424.679	4352.1
424.887	4452.45
425.094	4716.64
425.302	4710.5
425.51	4739.17
425.718	5021.79
425.925	5116
426.133	5304.41
426.341	5580.89
426.548	5873.75
426.756	5728.34
426.964	5926.99
427.171	6332.49
427.379	6568.01
427.586	6428.74
427.794	6758.47
428.001	7002.18
428.209	7235.64
428.417	7254.08
428.624	7706.68
428.832	7710.77
429.039	7522.36
429.247	7667.77
429.454	8548.39
429.662	8988.71
429.869	8319.02
430.076	8802.34
430.284	8747.05
430.491	9072.67
430.699	9691.16
430.906	9691.16
431.114	9832.47
431.321	10070.03
431.528	10354.7
431.736	10829.83
431.943	11577.34
432.15	11194.37
432.358	11192.32
432.565	11886.58
432.772	11874.29
432.979	12492.78
433.187	12662.76
433.394	12713.96
433.601	13699.03
433.808	13682.65
434.016	13377.5
434.223	13961.17
434.43	14958.53
434.637	14833.61
434.844	15681.47
435.052	15978.42
435.259	15896.5
435.466	16074.68
435.673	15806.39
435.88	16789.42
436.087	17794.97
436.294	17823.64
436.501	17119.14
436.708	17457.06
436.915	18507.66
437.122	19203.97
437.329	19128.2
437.537	19888
437.743	20266.87
437.95	19818.36
438.157	20860.78
438.364	21673.82
438.571	21731.17
438.778	21733.22
438.985	23633.73
439.192	22622.03
439.399	23555.91
439.606	23005
439.813	23953.21
440.02	25499.43
440.227	25077.55
440.433	24807.22
440.64	25730.85
440.847	25481
441.054	26218.27
441.261	27895.55
441.467	27571.97
441.674	28360.44
441.881	29185.77
442.088	29380.33
442.294	29036.27
442.501	29787.88
442.708	30398.17
442.914	31506.12
443.121	32908.98
443.328	32210.62
443.534	34287.26
443.741	33236.66
443.948	32636.6
444.154	35329.68
444.361	34799.26
444.568	35518.09
444.774	35067.54
444.981	35671.69
445.187	36615.8
445.394	38237.8
445.6	37359.22
445.807	41137.72
446.013	39775.82
446.22	40525.38
446.426	42067.5
446.633	41905.71
446.839	43630.1
447.046	41934.38
447.252	43890.19
447.459	44199.43
447.665	43777.55
447.871	45993.45
448.078	48133.58
448.284	45610.48
448.491	47058.4
448.697	48414.15
448.903	49231.29
449.11	49868.21
449.316	48872.9
449.522	49802.67
449.728	51271.07
449.935	51475.87
450.141	51096.99
450.347	52243.85
450.553	50685.35
450.76	51096.99
450.966	53083.52
451.172	52368.78
451.378	53618.04
451.584	52614.54
451.791	53470.59
451.997	53851.51
452.203	54766.95
452.409	54902.12
452.615	54259.05
452.821	52594.06
453.027	52301.2
453.233	54328.69
453.44	52657.54
453.646	53466.49
453.852	53204.35
454.058	54275.44
454.264	52876.68
454.47	53618.04
454.676	52399.5
454.882	54033.78
455.088	49386.94
455.294	50355.63
455.5	51027.36
455.705	51221.92
455.911	49675.7
456.117	48680.39
456.323	47693.27
456.529	45653.49
456.735	47338.97
456.941	46046.7
457.147	45247.99
457.352	44205.58
457.558	43787.79
457.764	43726.35
457.97	42907.16
458.176	42194.47
458.381	41838.12
458.587	40140.36
458.793	40029.77
458.999	38014.57
459.204	40576.58
459.41	39589.45
459.616	36941.43
459.821	36980.34
460.027	36531.84
460.233	36138.63
460.438	34416.29
460.644	35038.87
460.85	33242.8
461.055	32571.07
461.261	31856.32
461.466	30140.13
461.672	29146.86
461.878	31153.87
462.083	29218.54
462.289	28651.25
462.494	28335.87
462.7	26793.75
462.905	26394.39
463.111	27262.73
463.316	27420.42
463.522	26797.84
463.727	27045.65
463.932	26920.72
464.138	26578.71
464.343	26926.86
464.549	25937.69
464.754	27008.78
464.959	26298.14
465.165	26152.73
465.37	25343.78
465.575	24772.4
465.781	25730.85
465.986	25841.44
466.191	24864.56
466.397	24282.94
466.602	23134.03
466.807	24244.02
467.012	24321.85
467.218	23801.66
