Data from USB4F104151__9__12-40-58-136.txt Node

Date: Fri Mar 14 12:40:58 EDT 2025
User: louis
Spectrometer: USB4F10415
Trigger mode: 4
Integration Time (sec): 3.000000E-2
Scans to average: 1
Electric dark correction enabled: true
Nonlinearity correction enabled: false
Boxcar width: 0
XAxis mode: Wavelengths
Number of Pixels in Spectrum: 3648
>>>>>Begin Spectral Data<<<<<
178.204	-86.7
178.424	-86.7
178.644	-86.7
178.864	-129.7
179.084	-47.79
179.304	-41.64
179.524	-29.35
179.744	42.32
179.964	23.89
180.184	-21.16
180.404	-10.92
180.624	-15.02
180.844	1.37
181.064	-27.31
181.283	25.94
181.503	40.28
181.723	11.61
181.943	-94.89
182.163	52.56
182.383	1.37
182.602	-0.68
182.822	105.81
183.042	87.38
183.262	68.95
183.482	87.38
183.701	23.89
183.921	34.13
184.141	-55.98
184.361	32.08
184.58	-27.31
184.8	-4.78
185.02	21.85
185.239	32.08
185.459	21.85
185.679	62.8
185.898	-45.74
186.118	19.8
186.338	36.18
186.557	32.08
186.777	1.37
186.997	-27.31
187.216	17.75
187.436	42.32
187.655	23.89
187.875	48.47
188.095	-31.4
188.314	58.71
188.534	87.38
188.753	-74.41
188.973	83.28
189.192	44.37
189.412	-2.73
189.631	89.43
189.851	79.19
190.07	25.94
190.29	25.94
190.509	-25.26
190.729	15.7
190.948	19.8
191.168	167.25
191.387	71
191.607	27.99
191.826	60.76
192.045	-25.26
192.265	-60.07
192.484	-49.83
192.704	13.65
192.923	-47.79
193.142	71
193.362	95.57
193.581	46.42
193.8	-41.64
194.02	46.42
194.239	1.37
194.458	89.43
194.678	25.94
194.897	42.32
195.116	34.13
195.335	-35.5
195.555	25.94
195.774	-6.83
195.993	40.28
196.212	48.47
196.432	-17.07
196.651	77.14
196.87	48.47
197.089	36.18
197.308	40.28
197.528	68.95
197.747	-4.78
197.966	-4.78
198.185	38.23
198.404	-49.83
198.623	32.08
198.842	111.96
199.062	66.9
199.281	56.66
199.5	-0.68
199.719	7.51
199.938	50.52
200.157	48.47
200.376	48.47
200.595	40.28
200.814	30.04
201.033	5.46
201.252	62.8
201.471	17.75
201.69	56.66
201.909	124.24
202.128	56.66
202.347	77.14
202.566	-31.4
202.785	-8.87
203.004	75.09
203.223	103.76
203.442	21.85
203.661	-19.11
203.879	-2.73
204.098	5.46
204.317	66.9
204.536	46.42
204.755	-31.4
204.974	44.37
205.193	34.13
205.411	126.29
205.63	27.99
205.849	56.66
206.068	-12.97
206.287	48.47
206.505	60.76
206.724	40.28
206.943	7.51
207.162	-66.22
207.381	75.09
207.599	73.04
207.818	25.94
208.037	38.23
208.255	83.28
208.474	71
208.693	52.56
208.911	32.08
209.13	40.28
209.349	50.52
209.567	11.61
209.786	56.66
210.005	13.65
210.223	-6.83
210.442	-17.07
210.661	-15.02
210.879	73.04
211.098	68.95
211.316	-23.21
211.535	11.61
211.753	-29.35
211.972	21.85
212.191	48.47
212.409	-43.69
212.628	89.43
212.846	13.65
213.065	44.37
213.283	34.13
213.502	21.85
213.72	52.56
213.938	15.7
214.157	25.94
214.375	11.61
214.594	81.24
214.812	30.04
215.031	13.65
215.249	75.09
215.467	40.28
215.686	13.65
215.904	-0.68
216.122	17.75
216.341	58.71
216.559	40.28
216.778	60.76
216.996	73.04
217.214	60.76
217.432	107.86
217.651	32.08
217.869	30.04
218.087	-8.87
218.306	11.61
218.524	62.8
218.742	13.65
218.96	89.43
219.179	-17.07
219.397	5.46
219.615	-10.92
219.833	-19.11
220.051	30.04
220.27	13.65
220.488	-10.92
220.706	109.91
220.924	-10.92
221.142	-4.78
221.36	71
221.578	71
221.796	7.51
222.015	7.51
222.233	5.46
222.451	77.14
222.669	-45.74
222.887	48.47
223.105	-35.5
223.323	-19.11
223.541	13.65
223.759	60.76
223.977	116.05
224.195	62.8
224.413	38.23
224.631	15.7
224.849	32.08
225.067	50.52
225.285	89.43
225.503	-29.35
225.721	1.37
225.939	-37.55
226.157	1.37
226.375	136.53
226.592	1.37
226.81	-0.68
227.028	52.56
227.246	73.04
227.464	56.66
227.682	21.85
227.9	46.42
228.117	3.41
228.335	13.65
228.553	62.8
228.771	62.8
228.989	111.96
229.206	58.71
229.424	3.41
229.642	66.9
229.86	-15.02
230.077	111.96
230.295	-49.83
230.513	50.52
230.731	36.18
230.948	124.24
231.166	5.46
231.384	66.9
231.601	71
231.819	68.95
232.037	-25.26
232.254	23.89
232.472	5.46
232.689	19.8
232.907	64.85
233.125	1.37
233.342	17.75
233.56	52.56
233.777	-10.92
233.995	5.46
234.213	21.85
234.43	52.56
234.648	13.65
234.865	54.61
235.083	42.32
235.3	-6.83
235.518	-10.92
235.735	58.71
235.953	23.89
236.17	36.18
236.388	-82.6
236.605	1.37
236.822	73.04
237.04	68.95
237.257	7.51
237.475	-2.73
237.692	1.37
237.909	23.89
238.127	44.37
238.344	-15.02
238.562	97.62
238.779	3.41
238.996	85.33
239.214	9.56
239.431	17.75
239.648	11.61
239.865	25.94
240.083	34.13
240.3	-39.59
240.517	17.75
240.735	91.48
240.952	15.7
241.169	97.62
241.386	-23.21
241.603	23.89
241.821	5.46
242.038	71
242.255	32.08
242.472	66.9
242.689	9.56
242.907	75.09
243.124	23.89
243.341	25.94
243.558	23.89
243.775	50.52
243.992	-23.21
244.209	52.56
244.426	111.96
244.643	101.72
244.86	-39.59
245.078	75.09
245.295	13.65
245.512	-33.45
245.729	38.23
245.946	-51.88
246.163	15.7
246.38	-29.35
246.597	73.04
246.814	83.28
247.031	21.85
247.248	87.38
247.464	25.94
247.681	85.33
247.898	38.23
248.115	27.99
248.332	81.24
248.549	101.72
248.766	48.47
248.983	114
249.2	21.85
249.417	36.18
249.633	-53.93
249.85	68.95
250.067	17.75
250.284	54.61
250.501	46.42
250.717	23.89
250.934	56.66
251.151	40.28
251.368	-31.4
251.585	71
251.801	21.85
252.018	-12.97
252.235	89.43
252.451	-4.78
252.668	11.61
252.885	36.18
253.102	50.52
253.318	13.65
253.535	-53.93
253.752	64.85
253.968	23.89
254.185	42.32
254.401	30.04
254.618	93.52
254.835	13.65
255.051	5.46
255.268	3.41
255.484	99.67
255.701	68.95
255.917	34.13
256.134	-2.73
256.351	-2.73
256.567	3.41
256.784	64.85
257	-0.68
257.217	13.65
257.433	46.42
257.65	38.23
257.866	87.38
258.082	46.42
258.299	3.41
258.515	-6.83
258.732	-2.73
258.948	40.28
259.165	42.32
259.381	21.85
259.597	32.08
259.814	36.18
260.03	3.41
260.246	30.04
260.463	23.89
260.679	62.8
260.895	58.71
261.112	97.62
261.328	38.23
261.544	-37.55
261.761	75.09
261.977	11.61
262.193	-12.97
262.409	44.37
262.626	97.62
262.842	85.33
263.058	-29.35
263.274	38.23
263.49	48.47
263.707	77.14
263.923	56.66
264.139	19.8
264.355	114
264.571	64.85
264.787	34.13
265.004	-4.78
265.22	3.41
265.436	17.75
265.652	34.13
265.868	56.66
266.084	81.24
266.3	46.42
266.516	1.37
266.732	95.57
266.948	-88.75
267.164	42.32
267.38	58.71
267.596	50.52
267.812	83.28
268.028	130.39
268.244	-19.11
268.46	44.37
268.676	-4.78
268.892	-15.02
269.108	-53.93
269.324	3.41
269.54	66.9
269.756	89.43
269.972	-25.26
270.188	38.23
270.403	1.37
270.619	48.47
270.835	83.28
271.051	42.32
271.267	-29.35
271.483	-19.11
271.698	13.65
271.914	-25.26
272.13	9.56
272.346	-17.07
272.562	15.7
272.777	-2.73
272.993	9.56
273.209	11.61
273.425	50.52
273.64	15.7
273.856	44.37
274.072	40.28
274.287	-21.16
274.503	23.89
274.719	5.46
274.934	77.14
275.15	48.47
275.366	21.85
275.581	-31.4
275.797	21.85
276.012	7.51
276.228	11.61
276.444	38.23
276.659	-4.78
276.875	32.08
277.09	-6.83
277.306	54.61
277.521	-47.79
277.737	-41.64
277.952	68.95
278.168	62.8
278.383	75.09
278.599	71
278.814	-2.73
279.03	-17.07
279.245	30.04
279.461	38.23
279.676	54.61
279.892	5.46
280.107	77.14
280.322	-109.22
280.538	1.37
280.753	-15.02
280.969	-12.97
281.184	120.15
281.399	30.04
281.615	91.48
281.83	5.46
282.045	38.23
282.26	27.99
282.476	-31.4
282.691	56.66
282.906	-8.87
283.122	38.23
283.337	15.7
283.552	52.56
283.767	48.47
283.983	83.28
284.198	-58.03
284.413	5.46
284.628	34.13
284.843	-12.97
285.058	42.32
285.274	-2.73
285.489	1.37
285.704	68.95
285.919	-6.83
286.134	109.91
286.349	-12.97
286.564	5.46
286.779	64.85
286.995	42.32
287.21	-23.21
287.425	60.76
287.64	-49.83
287.855	-15.02
288.07	11.61
288.285	46.42
288.5	21.85
288.715	60.76
288.93	23.89
289.145	42.32
289.36	46.42
289.575	60.76
289.79	62.8
290.004	-10.92
290.219	124.24
290.434	-33.45
290.649	46.42
290.864	15.7
291.079	25.94
291.294	27.99
291.509	50.52
291.724	44.37
291.938	25.94
292.153	17.75
292.368	3.41
292.583	46.42
292.798	132.44
293.012	23.89
293.227	38.23
293.442	17.75
293.657	77.14
293.871	3.41
294.086	-15.02
294.301	87.38
294.516	32.08
294.73	73.04
294.945	13.65
295.16	83.28
295.374	114
295.589	54.61
295.804	9.56
296.018	48.47
296.233	17.75
296.447	93.52
296.662	11.61
296.877	93.52
297.091	23.89
297.306	-47.79
297.52	36.18
297.735	-0.68
297.949	101.72
298.164	5.46
298.378	130.39
298.593	-2.73
298.807	95.57
299.022	-37.55
299.236	87.38
299.451	62.8
299.665	87.38
299.88	66.9
300.094	48.47
300.309	32.08
300.523	42.32
300.737	-2.73
300.952	87.38
301.166	30.04
301.381	42.32
301.595	64.85
301.809	-12.97
302.024	-76.46
302.238	50.52
302.452	-4.78
302.667	27.99
302.881	107.86
303.095	15.7
303.309	46.42
303.524	-4.78
303.738	17.75
303.952	-43.69
304.166	-15.02
304.381	36.18
304.595	15.7
304.809	50.52
305.023	95.57
305.237	5.46
305.452	75.09
305.666	30.04
305.88	66.9
306.094	52.56
306.308	85.33
306.522	107.86
306.736	25.94
306.95	-12.97
307.164	60.76
307.379	62.8
307.593	42.32
307.807	62.8
308.021	91.48
308.235	54.61
308.449	19.8
308.663	-4.78
308.877	124.24
309.091	-2.73
309.305	56.66
309.519	-53.93
309.733	27.99
309.947	23.89
310.161	85.33
310.374	52.56
310.588	23.89
310.802	9.56
311.016	-41.64
311.23	38.23
311.444	21.85
311.658	5.46
311.872	66.9
312.085	27.99
312.299	107.86
312.513	126.29
312.727	-4.78
312.941	17.75
313.154	111.96
313.368	77.14
313.582	-8.87
313.796	-47.79
314.009	11.61
314.223	97.62
314.437	30.04
314.651	66.9
314.864	11.61
315.078	34.13
315.292	32.08
315.505	23.89
315.719	15.7
315.933	-12.97
316.146	-10.92
316.36	1.37
316.573	32.08
316.787	71
317.001	44.37
317.214	-6.83
317.428	-17.07
317.641	38.23
317.855	21.85
318.068	81.24
318.282	-55.98
318.495	136.53
318.709	46.42
318.922	44.37
319.136	107.86
319.349	152.92
319.563	36.18
319.776	71
319.99	38.23
320.203	81.24
320.417	1.37
320.63	62.8
320.843	85.33
321.057	5.46
321.27	-0.68
321.483	27.99
321.697	83.28
321.91	30.04
322.124	36.18
322.337	-17.07
322.55	-10.92
322.763	48.47
322.977	-45.74
323.19	13.65
323.403	77.14
323.617	50.52
323.83	17.75
324.043	89.43
324.256	27.99
324.469	30.04
324.683	87.38
324.896	38.23
325.109	38.23
325.322	-43.69
325.535	58.71
325.748	50.52
325.962	5.46
326.175	15.7
326.388	93.52
326.601	48.47
326.814	30.04
327.027	-47.79
327.24	126.29
327.453	-62.12
327.666	73.04
327.879	13.65
328.092	179.54
328.305	116.05
328.518	25.94
328.731	15.7
328.944	-21.16
329.157	-0.68
329.37	27.99
329.583	132.44
329.796	167.25
330.009	32.08
330.222	13.65
330.435	56.66
330.648	71
330.861	85.33
331.073	40.28
331.286	-0.68
331.499	5.46
331.712	-19.11
331.925	75.09
332.138	66.9
332.35	44.37
332.563	-0.68
332.776	128.34
332.989	-2.73
333.202	27.99
333.414	44.37
333.627	42.32
333.84	93.52
334.053	7.51
334.265	-60.07
334.478	68.95
334.691	85.33
334.903	11.61
335.116	11.61
335.329	120.15
335.541	17.75
335.754	50.52
335.966	52.56
336.179	111.96
336.392	38.23
336.604	32.08
336.817	-10.92
337.029	60.76
337.242	62.8
337.454	66.9
337.667	15.7
337.88	3.41
338.092	19.8
338.305	52.56
338.517	62.8
338.729	44.37
338.942	81.24
339.154	27.99
339.367	11.61
339.579	13.65
339.792	-43.69
340.004	87.38
340.217	27.99
340.429	68.95
340.641	-19.11
340.854	64.85
341.066	44.37
341.278	71
341.491	89.43
341.703	46.42
341.915	3.41
342.128	66.9
342.34	-15.02
342.552	46.42
342.764	11.61
342.977	120.15
343.189	54.61
343.401	81.24
343.613	-33.45
343.826	54.61
344.038	-31.4
344.25	93.52
344.462	40.28
344.674	15.7
344.886	44.37
345.099	25.94
345.311	34.13
345.523	30.04
345.735	-37.55
345.947	1.37
346.159	-21.16
346.371	64.85
346.583	85.33
346.795	44.37
347.007	38.23
347.219	54.61
347.431	-23.21
347.643	85.33
347.855	3.41
348.067	66.9
348.279	23.89
348.491	5.46
348.703	-23.21
348.915	30.04
349.127	34.13
349.339	13.65
349.551	87.38
349.763	64.85
349.975	15.7
350.187	122.2
350.399	71
350.61	1.37
350.822	62.8
351.034	97.62
351.246	1.37
351.458	-10.92
351.669	48.47
351.881	120.15
352.093	44.37
352.305	68.95
352.517	83.28
352.728	124.24
352.94	64.85
353.152	3.41
353.363	17.75
353.575	79.19
353.787	107.86
353.999	-17.07
354.21	81.24
354.422	40.28
354.633	42.32
354.845	30.04
355.057	54.61
355.268	21.85
355.48	95.57
355.692	30.04
355.903	91.48
356.115	17.75
356.326	13.65
356.538	32.08
356.749	114
356.961	77.14
357.172	71
357.384	-37.55
357.595	132.44
357.807	32.08
358.018	64.85
358.23	7.51
358.441	101.72
358.653	75.09
358.864	71
359.075	3.41
359.287	111.96
359.498	52.56
359.709	30.04
359.921	36.18
360.132	95.57
360.344	60.76
360.555	71
360.766	44.37
360.977	-31.4
361.189	73.04
361.4	27.99
361.611	95.57
361.823	132.44
362.034	-12.97
362.245	58.71
362.456	-10.92
362.667	132.44
362.879	-47.79
363.09	77.14
363.301	36.18
363.512	46.42
363.723	79.19
363.935	-4.78
364.146	5.46
364.357	-2.73
364.568	89.43
364.779	46.42
364.99	79.19
365.201	50.52
365.412	79.19
365.623	56.66
365.834	52.56
366.045	99.67
366.256	77.14
366.467	58.71
366.678	3.41
366.889	77.14
367.1	1.37
367.311	60.76
367.522	15.7
367.733	27.99
367.944	134.48
368.155	11.61
368.366	-10.92
368.577	71
368.788	71
368.999	19.8
369.209	-37.55
369.42	40.28
369.631	99.67
369.842	116.05
370.053	99.67
370.264	75.09
370.474	73.04
370.685	-23.21
370.896	34.13
371.107	62.8
371.317	56.66
371.528	19.8
371.739	120.15
371.95	52.56
372.16	89.43
372.371	15.7
372.582	-37.55
372.792	52.56
373.003	79.19
373.214	101.72
373.424	79.19
373.635	32.08
373.846	64.85
374.056	46.42
374.267	64.85
374.477	34.13
374.688	93.52
374.898	56.66
375.109	-49.83
375.319	87.38
375.53	126.29
375.74	83.28
375.951	-35.5
376.161	66.9
376.372	77.14
376.582	75.09
376.793	93.52
377.003	17.75
377.214	87.38
377.424	-58.03
377.635	25.94
377.845	40.28
378.055	64.85
378.266	-41.64
378.476	30.04
378.686	-41.64
378.897	105.81
379.107	58.71
379.317	83.28
379.528	-29.35
379.738	111.96
379.948	13.65
380.158	-4.78
380.369	71
380.579	23.89
380.789	-10.92
380.999	52.56
381.21	32.08
381.42	66.9
381.63	-15.02
381.84	44.37
382.05	91.48
382.261	9.56
382.471	124.24
382.681	89.43
382.891	68.95
383.101	85.33
383.311	30.04
383.521	93.52
383.731	-2.73
383.941	114
384.151	23.89
384.361	48.47
384.571	97.62
384.781	-25.26
384.991	128.34
385.201	183.63
385.411	105.81
385.621	34.13
385.831	7.51
386.041	11.61
386.251	-29.35
386.461	89.43
386.671	136.53
386.881	34.13
387.091	77.14
387.301	91.48
387.511	15.7
387.72	7.51
387.93	89.43
388.14	64.85
388.35	56.66
388.56	62.8
388.769	81.24
388.979	44.37
389.189	-45.74
389.399	126.29
389.609	77.14
389.818	93.52
390.028	25.94
390.238	38.23
390.447	71
390.657	111.96
390.867	9.56
391.076	19.8
391.286	64.85
391.496	44.37
391.705	79.19
391.915	118.1
392.125	157.01
392.334	103.76
392.544	79.19
392.753	68.95
392.963	-23.21
393.172	77.14
393.382	83.28
393.591	165.2
393.801	32.08
394.01	73.04
394.22	15.7
394.429	140.63
394.639	44.37
394.848	17.75
395.058	54.61
395.267	38.23
395.477	-4.78
395.686	25.94
395.895	81.24
396.105	142.68
396.314	58.71
396.524	81.24
396.733	58.71
396.942	56.66
397.152	116.05
397.361	120.15
397.57	38.23
397.78	40.28
397.989	103.76
398.198	101.72
398.407	95.57
398.617	97.62
398.826	89.43
399.035	107.86
399.244	89.43
399.453	66.9
399.663	36.18
399.872	152.92
400.081	73.04
400.29	103.76
400.499	30.04
400.708	142.68
400.917	101.72
401.127	101.72
401.336	177.49
401.545	185.68
401.754	103.76
401.963	71
402.172	64.85
402.381	75.09
402.59	77.14
402.799	146.77
403.008	83.28
403.217	109.91
403.426	118.1
403.635	118.1
403.844	120.15
404.053	68.95
404.262	99.67
404.471	202.07
404.68	142.68
404.888	132.44
405.097	60.76
405.306	97.62
405.515	173.39
405.724	109.91
405.933	152.92
406.142	200.02
406.35	150.87
406.559	159.06
406.768	109.91
406.977	169.3
407.185	185.68
407.394	177.49
407.603	130.39
407.812	222.55
408.02	208.21
408.229	224.59
408.438	142.68
408.646	185.68
408.855	167.25
409.064	218.45
409.272	191.83
409.481	251.22
409.69	255.31
409.898	230.74
410.107	288.08
410.315	193.87
410.524	200.02
410.733	251.22
410.941	275.79
411.15	292.18
411.358	376.14
411.567	267.6
411.775	335.18
411.984	437.58
412.192	351.57
412.401	372.05
412.609	443.73
412.818	427.34
413.026	482.64
413.234	326.99
413.443	429.39
413.651	423.25
413.86	464.21
414.068	560.46
414.276	519.5
414.485	509.26
414.693	531.79
414.901	486.73
415.11	546.12
415.318	550.22
415.526	712.01
415.734	697.67
415.943	642.38
416.151	767.31
416.359	736.59
416.567	736.59
416.776	761.16
416.984	828.74
417.192	824.65
417.4	720.2
417.608	795.98
417.817	771.4
418.025	896.33
418.233	945.48
418.441	830.79
418.649	1047.88
418.857	1035.59
419.065	1076.55
419.273	984.39
419.481	974.15
419.689	1224
419.897	1275.2
420.105	1252.67
420.313	1264.96
420.521	1371.46
420.729	1408.32
420.937	1453.38
421.145	1406.27
421.353	1541.44
421.561	1568.06
421.769	1652.03
421.977	1672.51
422.185	1678.65
422.393	1772.86
422.601	1891.64
422.809	1948.98
423.017	1840.44
423.224	1838.39
423.432	1981.75
423.64	2020.66
423.848	2141.49
424.056	2108.73
424.263	2319.67
424.471	2403.63
424.679	2487.6
424.887	2477.36
425.094	2698.54
425.302	2743.6
425.51	2796.84
425.718	2762.03
425.925	2870.57
426.133	2946.34
426.341	3028.26
426.548	3155.24
426.756	3231.01
426.964	3200.29
427.171	3357.99
427.379	3648.8
427.586	3706.14
427.794	3591.45
428.001	3849.5
428.209	3884.31
428.417	3929.37
428.624	4279.57
428.832	4418.83
429.039	4236.56
429.247	4328.72
429.454	4529.42
429.662	5016.84
429.869	4734.22
430.076	5029.13
430.284	4861.2
430.491	5119.24
430.699	5344.52
430.906	5430.53
431.114	5416.19
431.321	5633.28
431.528	5633.28
431.736	6122.74
431.943	6556.91
432.15	6274.29
432.358	6159.61
432.565	6681.84
432.772	6685.94
432.979	6917.36
433.187	6976.75
433.394	6986.99
433.601	7523.55
433.808	7677.15
434.016	7480.55
434.223	7818.46
434.43	8371.41
434.637	8183
434.844	8711.38
435.052	8688.85
435.259	8482
435.466	8766.67
435.673	8709.33
435.88	9362.63
436.087	9831.62
436.294	9831.62
436.501	9577.67
436.708	9841.86
436.915	10294.46
437.122	10722.48
437.329	10448.05
437.537	10939.57
437.743	11144.36
437.95	11029.68
438.157	11431.08
438.364	12061.85
438.571	11885.73
438.778	11961.5
438.985	13044.88
439.192	12729.49
439.399	13051.02
439.606	12885.14
439.813	13569.16
440.02	14181.5
440.227	13960.32
440.433	13737.09
440.64	14351.48
440.847	14191.74
441.054	14627.96
441.261	15477.87
441.467	15185.01
441.674	15690.85
441.881	16387.16
442.088	16215.13
442.294	16030.82
442.501	16426.07
442.708	16845.91
442.914	17425.48
443.121	18285.63
443.328	17738.82
443.534	18918.45
443.741	18502.71
443.948	18342.97
444.154	19844.13
444.361	19688.49
444.568	19514.41
444.774	19633.19
444.981	19913.77
445.187	20438.05
445.394	21089.3
445.6	21117.97
445.807	23079.93
446.013	21918.73
446.22	22561.79
446.426	23567.34
446.633	23636.97
446.839	24177.64
447.046	23000.05
447.252	24644.57
447.459	24572.89
447.665	24488.93
447.871	26037.19
448.078	26635.2
448.284	25322.45
448.491	26250.18
448.697	27118.52
448.903	27696.05
449.11	27773.87
449.316	27323.32
449.522	27823.02
449.728	28388.26
449.935	28787.61
450.141	28466.08
450.347	29438.87
450.553	28410.79
450.76	28711.84
450.966	29606.8
451.172	29266.84
451.378	30155.66
451.584	29651.86
451.791	30534.53
451.997	30194.57
452.203	30634.88
452.409	30731.14
452.615	30376.84
452.821	29621.14
453.027	29266.84
453.233	30751.62
453.44	29481.88
453.646	29877.13
453.852	30106.51
454.058	30145.42
454.264	29455.25
454.47	30157.71
454.676	29328.28
454.882	30434.18
455.088	28027.82
455.294	28228.52
455.5	28609.44
455.705	28967.84
455.911	27765.68
456.117	27388.85
456.323	26813.37
456.529	25420.75
456.735	26516.42
456.941	25904.07
457.147	25621.45
457.352	24568.8
457.558	24312.8
457.764	24435.68
457.97	24165.35
458.176	23026.68
458.381	23516.14
458.587	22203.39
458.793	22252.55
458.999	21269.52
459.204	22752.25
459.41	21847.05
459.616	20724.76
459.821	20581.4
460.027	20577.31
460.233	19940.39
460.438	19254.32
460.644	19389.49
460.85	18523.19
461.055	18201.66
461.261	18281.53
461.466	16886.87
461.672	16231.52
461.878	17337.42
462.083	16096.35
462.289	16061.54
462.494	15799.4
462.7	14947.44
462.905	14632.05
463.111	15006.83
463.316	15180.91
463.522	15174.77
463.727	15039.6
463.932	14834.8
464.138	14918.77
464.343	14679.16
464.549	14191.74
464.754	14935.15
464.959	14656.63
465.165	14703.73
465.37	14101.63
465.575	13665.41
465.781	14146.69
465.986	14369.91
466.191	13968.51
466.397	13534.34
466.602	12752.02
466.807	13055.12
467.012	13542.53
467.218	13184.14
467.423	12909.71
467.628	13341.83
467.833	13739.14
468.038	13372.55
468.244	13067.41
468.449	13425.8
