Data from USB4F104151__56__12-41-54-890.txt Node

Date: Fri Mar 14 12:41:54 EDT 2025
User: louis
Spectrometer: USB4F10415
Trigger mode: 4
Integration Time (sec): 3.000000E-2
Scans to average: 1
Electric dark correction enabled: true
Nonlinearity correction enabled: false
Boxcar width: 0
XAxis mode: Wavelengths
Number of Pixels in Spectrum: 3648
>>>>>Begin Spectral Data<<<<<
178.204	-201.38
178.424	-201.38
178.644	-201.38
178.864	-144.04
179.084	-107.18
179.304	30.04
179.524	-15.02
179.744	-0.68
179.964	73.04
180.184	5.46
180.404	-62.12
180.624	30.04
180.844	-12.97
181.064	-53.93
181.283	-19.11
181.503	-29.35
181.723	54.61
181.943	21.84
182.163	64.85
182.383	13.65
182.602	75.09
182.822	-21.16
183.042	38.23
183.262	5.46
183.482	5.46
183.701	27.99
183.921	42.32
184.141	9.56
184.361	1.37
184.58	-45.74
184.8	60.76
185.02	36.18
185.239	68.95
185.459	-25.26
185.679	87.38
185.898	-25.26
186.118	34.13
186.338	85.33
186.557	-43.69
186.777	-4.78
186.997	50.52
187.216	-6.83
187.436	50.52
187.655	46.42
187.875	11.61
188.095	9.56
188.314	-0.68
188.534	44.37
188.753	-10.92
188.973	44.37
189.192	75.09
189.412	52.56
189.631	85.33
189.851	15.7
190.07	38.23
190.29	-55.98
190.509	-17.07
190.729	25.94
190.948	95.57
191.168	75.09
191.387	93.52
191.607	34.13
191.826	-12.97
192.045	-6.83
192.265	34.13
192.484	56.66
192.704	30.04
192.923	-21.16
193.142	46.42
193.362	15.7
193.581	58.71
193.8	-12.97
194.02	60.76
194.239	-29.35
194.458	5.46
194.678	-41.64
194.897	-19.11
195.116	11.61
195.335	-0.68
195.555	11.61
195.774	-10.92
195.993	9.56
196.212	13.65
196.432	15.7
196.651	46.42
196.87	-23.21
197.089	114
197.308	77.14
197.528	32.08
197.747	-8.87
197.966	7.51
198.185	89.43
198.404	-10.92
198.623	66.9
198.842	105.81
199.062	17.75
199.281	27.99
199.5	38.23
199.719	50.52
199.938	-4.78
200.157	66.9
200.376	-0.68
200.595	54.61
200.814	-6.83
201.033	-12.97
201.252	50.52
201.471	42.32
201.69	64.85
201.909	-33.45
202.128	13.65
202.347	66.9
202.566	46.42
202.785	-25.26
203.004	-82.6
203.223	122.2
203.442	73.04
203.661	23.89
203.879	19.8
204.098	-10.92
204.317	-17.07
204.536	7.51
204.755	-25.26
204.974	48.47
205.193	87.38
205.411	83.28
205.63	9.56
205.849	25.94
206.068	25.94
206.287	7.51
206.505	64.85
206.724	-4.78
206.943	7.51
207.162	-10.92
207.381	52.56
207.599	40.28
207.818	-4.78
208.037	71
208.255	48.47
208.474	46.42
208.693	56.66
208.911	-0.68
209.13	23.89
209.349	-2.73
209.567	95.57
209.786	54.61
210.005	36.18
210.223	87.38
210.442	-66.22
210.661	44.37
210.879	1.37
211.098	-15.02
211.316	52.56
211.535	56.66
211.753	5.46
211.972	50.52
212.191	17.75
212.409	15.7
212.628	21.84
212.846	-2.73
213.065	9.56
213.283	32.08
213.502	30.04
213.72	52.56
213.938	19.8
214.157	-29.35
214.375	60.76
214.594	-15.02
214.812	11.61
215.031	9.56
215.249	-27.31
215.467	-0.68
215.686	-15.02
215.904	38.23
216.122	-8.87
216.341	83.28
216.559	-17.07
216.778	56.66
216.996	54.61
217.214	-58.03
217.432	-43.69
217.651	-58.03
217.869	-23.21
218.087	56.66
218.306	19.8
218.524	-17.07
218.742	-41.64
218.96	32.08
219.179	23.89
219.397	50.52
219.615	77.14
219.833	99.67
220.051	56.66
220.27	34.13
220.488	17.75
220.706	1.37
220.924	-6.83
221.142	30.04
221.36	101.72
221.578	-10.92
221.796	11.61
222.015	91.48
222.233	1.37
222.451	32.08
222.669	-41.64
222.887	62.8
223.105	-88.75
223.323	-0.68
223.541	11.61
223.759	11.61
223.977	-15.02
224.195	23.89
224.413	32.08
224.631	50.52
224.849	7.51
225.067	44.37
225.285	9.56
225.503	-25.26
225.721	-33.45
225.939	105.81
226.157	27.99
226.375	64.85
226.592	-23.21
226.81	-60.07
227.028	38.23
227.246	111.96
227.464	-0.68
227.682	54.61
227.9	46.42
228.117	71
228.335	48.47
228.553	107.86
228.771	124.24
228.989	46.42
229.206	30.04
229.424	-45.74
229.642	-27.31
229.86	5.46
230.077	21.84
230.295	23.89
230.513	34.13
230.731	40.28
230.948	79.19
231.166	97.62
231.384	-66.22
231.601	36.18
231.819	62.8
232.037	52.56
232.254	-62.12
232.472	56.66
232.689	25.94
232.907	34.13
233.125	-23.21
233.342	7.51
233.56	-39.59
233.777	40.28
233.995	48.47
234.213	71
234.43	64.85
234.648	-25.26
234.865	1.37
235.083	48.47
235.3	-41.64
235.518	46.42
235.735	71
235.953	85.33
236.17	-35.5
236.388	5.46
236.605	17.75
236.822	7.51
237.04	-55.98
237.257	66.9
237.475	-58.03
237.692	50.52
237.909	11.61
238.127	13.65
238.344	93.52
238.562	-17.07
238.779	1.37
238.996	38.23
239.214	40.28
239.431	-31.4
239.648	-58.03
239.865	52.56
240.083	75.09
240.3	17.75
240.517	-82.6
240.735	81.24
240.952	11.61
241.169	30.04
241.386	-47.79
241.603	9.56
241.821	-12.97
242.038	107.86
242.255	36.18
242.472	-0.68
242.689	13.65
242.907	58.71
243.124	87.38
243.341	-10.92
243.558	-10.92
243.775	32.08
243.992	-35.5
244.209	-6.83
244.426	97.62
244.643	93.52
244.86	1.37
245.078	66.9
245.295	34.13
245.512	-6.83
245.729	3.41
245.946	-6.83
246.163	-4.78
246.38	66.9
246.597	60.76
246.814	1.37
247.031	56.66
247.248	1.37
247.464	85.33
247.681	25.94
247.898	15.7
248.115	38.23
248.332	-90.79
248.549	1.37
248.766	103.76
248.983	71
249.2	42.32
249.417	21.84
249.633	23.89
249.85	77.14
250.067	9.56
250.284	-17.07
250.501	52.56
250.717	-23.21
250.934	27.99
251.151	99.67
251.368	34.13
251.585	-37.55
251.801	13.65
252.018	60.76
252.235	85.33
252.451	-47.79
252.668	-53.93
252.885	-15.02
253.102	66.9
253.318	73.04
253.535	-2.73
253.752	62.8
253.968	136.53
254.185	-15.02
254.401	66.9
254.618	21.84
254.835	38.23
255.051	15.7
255.268	1.37
255.484	17.75
255.701	30.04
255.917	64.85
256.134	-0.68
256.351	36.18
256.567	-74.41
256.784	50.52
257	19.8
257.217	21.84
257.433	23.89
257.65	73.04
257.866	3.41
258.082	15.7
258.299	-43.69
258.515	27.99
258.732	48.47
258.948	15.7
259.165	1.37
259.381	11.61
259.597	68.95
259.814	-51.88
260.03	7.51
260.246	7.51
260.463	23.89
260.679	46.42
260.895	58.71
261.112	71
261.328	-29.35
261.544	15.7
261.761	23.89
261.977	30.04
262.193	17.75
262.409	91.48
262.626	50.52
262.842	-78.51
263.058	-80.55
263.274	-66.22
263.49	91.48
263.707	13.65
263.923	46.42
264.139	-4.78
264.355	50.52
264.571	46.42
264.787	36.18
265.004	62.8
265.22	-10.92
265.436	107.86
265.652	87.38
265.868	5.46
266.084	-33.45
266.3	23.89
266.516	7.51
266.732	1.37
266.948	-37.55
267.164	23.89
267.38	21.84
267.596	17.75
267.812	23.89
268.028	48.47
268.244	-0.68
268.46	21.84
268.676	-37.55
268.892	56.66
269.108	-8.87
269.324	54.61
269.54	48.47
269.756	105.81
269.972	-6.83
270.188	-80.55
270.403	-76.46
270.619	3.41
270.835	9.56
271.051	-6.83
271.267	27.99
271.483	99.67
271.698	60.76
271.914	30.04
272.13	58.71
272.346	52.56
272.562	48.47
272.777	25.94
272.993	27.99
273.209	1.37
273.425	-19.11
273.64	-37.55
273.856	48.47
274.072	42.32
274.287	-15.02
274.503	64.85
274.719	-27.31
274.934	-27.31
275.15	-19.11
275.366	-21.16
275.581	-23.21
275.797	32.08
276.012	3.41
276.228	38.23
276.444	40.28
276.659	27.99
276.875	1.37
277.09	-41.64
277.306	-39.59
277.521	71
277.737	13.65
277.952	116.05
278.168	36.18
278.383	-15.02
278.599	60.76
278.814	75.09
279.03	-55.98
279.245	7.51
279.461	54.61
279.676	7.51
279.892	30.04
280.107	-15.02
280.322	62.8
280.538	17.75
280.753	44.37
280.969	97.62
281.184	62.8
281.399	79.19
281.615	91.48
281.83	11.61
282.045	-2.73
282.26	-12.97
282.476	-19.11
282.691	64.85
282.906	-33.45
283.122	68.95
283.337	3.41
283.552	44.37
283.767	11.61
283.983	62.8
284.198	-45.74
284.413	58.71
284.628	-31.4
284.843	71
285.058	-0.68
285.274	15.7
285.489	79.19
285.704	87.38
285.919	-47.79
286.134	-41.64
286.349	-4.78
286.564	58.71
286.779	58.71
286.995	19.8
287.21	-53.93
287.425	85.33
287.64	-12.97
287.855	54.61
288.07	-6.83
288.285	11.61
288.5	54.61
288.715	50.52
288.93	-35.5
289.145	15.7
289.36	32.08
289.575	15.7
289.79	50.52
290.004	38.23
290.219	75.09
290.434	-10.92
290.649	7.51
290.864	-49.83
291.079	7.51
291.294	11.61
291.509	-10.92
291.724	-2.73
291.938	-37.55
292.153	60.76
292.368	-70.31
292.583	36.18
292.798	64.85
293.012	-27.31
293.227	42.32
293.442	79.19
293.657	19.8
293.871	58.71
294.086	-23.21
294.301	50.52
294.516	48.47
294.73	-41.64
294.945	-35.5
295.16	-45.74
295.374	-0.68
295.589	107.86
295.804	36.18
296.018	68.95
296.233	95.57
296.447	44.37
296.662	52.56
296.877	75.09
297.091	64.85
297.306	3.41
297.52	42.32
297.735	44.37
297.949	-12.97
298.164	71
298.378	36.18
298.593	79.19
298.807	-33.45
299.022	58.71
299.236	-43.69
299.451	-4.78
299.665	-2.73
299.88	40.28
300.094	-12.97
300.309	52.56
300.523	3.41
300.737	105.81
300.952	23.89
301.166	3.41
301.381	17.75
301.595	-17.07
301.809	118.1
302.024	27.99
302.238	-58.03
302.452	73.04
302.667	40.28
302.881	32.08
303.095	34.13
303.309	32.08
303.524	21.84
303.738	32.08
303.952	-12.97
304.166	44.37
304.381	-96.94
304.595	40.28
304.809	21.84
305.023	79.19
305.237	-33.45
305.452	30.04
305.666	34.13
305.88	71
306.094	60.76
306.308	-12.97
306.522	111.96
306.736	42.32
306.95	62.8
307.164	-19.11
307.379	-29.35
307.593	83.28
307.807	-12.97
308.021	-8.87
308.235	116.05
308.449	11.61
308.663	-8.87
308.877	71
309.091	21.84
309.305	85.33
309.519	-47.79
309.733	50.52
309.947	23.89
310.161	-15.02
310.374	9.56
310.588	68.95
310.802	17.75
311.016	-19.11
311.23	60.76
311.444	-51.88
311.658	-39.59
311.872	89.43
312.085	-12.97
312.299	38.23
312.513	66.9
312.727	7.51
312.941	44.37
313.154	21.84
313.368	93.52
313.582	11.61
313.796	73.04
314.009	91.48
314.223	64.85
314.437	66.9
314.651	81.24
314.864	-8.87
315.078	13.65
315.292	-17.07
315.505	83.28
315.719	73.04
315.933	44.37
316.146	73.04
316.36	23.89
316.573	-19.11
316.787	-23.21
317.001	30.04
317.214	48.47
317.428	71
317.641	36.18
317.855	-19.11
318.068	-2.73
318.282	-8.87
318.495	83.28
318.709	44.37
318.922	-33.45
319.136	114
319.349	91.48
319.563	-12.97
319.776	50.52
319.99	13.65
320.203	73.04
320.417	19.8
320.63	34.13
320.843	64.85
321.057	66.9
321.27	44.37
321.483	-15.02
321.697	75.09
321.91	75.09
322.124	19.8
322.337	46.42
322.55	40.28
322.763	75.09
322.977	-23.21
323.19	38.23
323.403	-43.69
323.617	134.48
323.83	105.81
324.043	-47.79
324.256	56.66
324.469	52.56
324.683	27.99
324.896	46.42
325.109	-21.16
325.322	19.8
325.535	64.85
325.748	34.13
325.962	-19.11
326.175	73.04
326.388	60.76
326.601	-6.83
326.814	17.75
327.027	19.8
327.24	30.04
327.453	23.89
327.666	42.32
327.879	99.67
328.092	-19.11
328.305	-29.35
328.518	15.7
328.731	-8.87
328.944	87.38
329.157	23.89
329.37	27.99
329.583	40.28
329.796	58.71
330.009	-17.07
330.222	73.04
330.435	-19.11
330.648	7.51
330.861	13.65
331.073	23.89
331.286	40.28
331.499	64.85
331.712	-0.68
331.925	-23.21
332.138	40.28
332.35	130.39
332.563	-19.11
332.776	60.76
332.989	1.37
333.202	5.46
333.414	32.08
333.627	154.96
333.84	103.76
334.053	25.94
334.265	50.52
334.478	-17.07
334.691	1.37
334.903	48.47
335.116	-4.78
335.329	23.89
335.541	64.85
335.754	11.61
335.966	3.41
336.179	-15.02
336.392	7.51
336.604	56.66
336.817	50.52
337.029	30.04
337.242	58.71
337.454	32.08
337.667	64.85
337.88	128.34
338.092	-0.68
338.305	50.52
338.517	54.61
338.729	134.48
338.942	13.65
339.154	3.41
339.367	-70.31
339.579	73.04
339.792	27.99
340.004	7.51
340.217	105.81
340.429	107.86
340.641	62.8
340.854	-6.83
341.066	11.61
341.278	140.63
341.491	52.56
341.703	38.23
341.915	-4.78
342.128	27.99
342.34	-0.68
342.552	52.56
342.764	11.61
342.977	79.19
343.189	3.41
343.401	32.08
343.613	91.48
343.826	23.89
344.038	46.42
344.25	54.61
344.462	77.14
344.674	11.61
344.886	19.8
345.099	66.9
345.311	40.28
345.523	-29.35
345.735	-49.83
345.947	21.84
346.159	44.37
346.371	25.94
346.583	93.52
346.795	5.46
347.007	9.56
347.219	27.99
347.431	93.52
347.643	62.8
347.855	73.04
348.067	42.32
348.279	19.8
348.491	36.18
348.703	21.84
348.915	-12.97
349.127	46.42
349.339	101.72
349.551	5.46
349.763	19.8
349.975	36.18
350.187	34.13
350.399	89.43
350.61	56.66
350.822	85.33
351.034	13.65
351.246	15.7
351.458	91.48
351.669	71
351.881	11.61
352.093	54.61
352.305	-19.11
352.517	32.08
352.728	56.66
352.94	73.04
353.152	23.89
353.363	-4.78
353.575	21.84
353.787	120.15
353.999	3.41
354.21	42.32
354.422	114
354.633	-0.68
354.845	27.99
355.057	-2.73
355.268	40.28
355.48	73.04
355.692	11.61
355.903	44.37
356.115	-0.68
356.326	-31.4
356.538	68.95
356.749	46.42
356.961	15.7
357.172	48.47
357.384	-23.21
357.595	73.04
357.807	-6.83
358.018	7.51
358.23	32.08
358.441	56.66
358.653	42.32
358.864	48.47
359.075	23.89
359.287	95.57
359.498	105.81
359.709	17.75
359.921	46.42
360.132	58.71
360.344	-2.73
360.555	11.61
360.766	27.99
360.977	75.09
361.189	46.42
361.4	58.71
361.611	-33.45
361.823	60.76
362.034	-25.26
362.245	40.28
362.456	19.8
362.667	-6.83
362.879	54.61
363.09	-4.78
363.301	60.76
363.512	-29.35
363.723	25.94
363.935	-19.11
364.146	68.95
364.357	17.75
364.568	56.66
364.779	-10.92
364.99	-6.83
365.201	40.28
365.412	11.61
365.623	27.99
365.834	-12.97
366.045	-15.02
366.256	103.76
366.467	17.75
366.678	19.8
366.889	-12.97
367.1	19.8
367.311	73.04
367.522	-25.26
367.733	95.57
367.944	52.56
368.155	-49.83
368.366	68.95
368.577	83.28
368.788	79.19
368.999	62.8
369.209	56.66
369.42	83.28
369.631	73.04
369.842	1.37
370.053	83.28
370.264	71
370.474	15.7
370.685	81.24
370.896	27.99
371.107	13.65
371.317	30.04
371.528	71
371.739	128.34
371.95	-17.07
372.16	25.94
372.371	68.95
372.582	42.32
372.792	97.62
373.003	23.89
373.214	-27.31
373.424	128.34
373.635	-10.92
373.846	116.05
374.056	40.28
374.267	87.38
374.477	25.94
374.688	19.8
374.898	-19.11
375.109	17.75
375.319	9.56
375.53	15.7
375.74	3.41
375.951	56.66
376.161	23.89
376.372	120.15
376.582	9.56
376.793	75.09
377.003	91.48
377.214	95.57
377.424	60.76
377.635	46.42
377.845	32.08
378.055	32.08
378.266	77.14
378.476	77.14
378.686	71
378.897	58.71
379.107	60.76
379.317	32.08
379.528	54.61
379.738	-47.79
379.948	81.24
380.158	71
380.369	23.89
380.579	62.8
380.789	40.28
380.999	111.96
381.21	11.61
381.42	120.15
381.63	-2.73
381.84	48.47
382.05	126.29
382.261	71
382.471	52.56
382.681	36.18
382.891	71
383.101	95.57
383.311	1.37
383.521	-12.97
383.731	42.32
383.941	136.53
384.151	64.85
384.361	56.66
384.571	52.56
384.781	-0.68
384.991	105.81
385.201	60.76
385.411	9.56
385.621	52.56
385.831	56.66
386.041	17.75
386.251	-4.78
386.461	101.72
386.671	-19.11
386.881	58.71
387.091	101.72
387.301	71
387.511	11.61
387.72	17.75
387.93	-23.21
388.14	42.32
388.35	89.43
388.56	30.04
388.769	30.04
388.979	38.23
389.189	13.65
389.399	62.8
389.609	87.38
389.818	15.7
390.028	32.08
390.238	40.28
390.447	36.18
390.657	99.67
390.867	32.08
391.076	40.28
391.286	46.42
391.496	32.08
391.705	107.86
391.915	64.85
392.125	36.18
392.334	111.96
392.544	83.28
392.753	52.56
392.963	48.47
393.172	32.08
393.382	25.94
393.591	161.11
393.801	54.61
394.01	120.15
394.22	124.24
394.429	50.52
394.639	101.72
394.848	103.76
395.058	5.46
395.267	81.24
395.477	91.48
395.686	154.96
395.895	89.43
396.105	136.53
396.314	105.81
396.524	40.28
396.733	38.23
396.942	142.68
397.152	81.24
397.361	71
397.57	5.46
397.78	152.91
397.989	144.72
398.198	64.85
398.407	138.58
398.617	107.86
398.826	66.9
399.035	83.28
399.244	103.76
399.453	56.66
399.663	87.38
399.872	148.82
400.081	38.23
400.29	132.44
400.499	32.08
400.708	114
400.917	71
401.127	114
401.336	138.58
401.545	157.01
401.754	167.25
401.963	89.43
402.172	52.56
402.381	9.56
402.59	167.25
402.799	101.72
403.008	181.59
403.217	150.87
403.426	83.28
403.635	157.01
403.844	148.82
404.053	136.53
404.262	122.2
404.471	177.49
404.68	144.72
404.888	163.15
405.097	183.63
405.306	97.62
405.515	187.73
405.724	118.1
405.933	224.59
406.142	165.2
406.35	232.79
406.559	212.31
406.768	208.21
406.977	202.07
407.185	193.87
407.394	222.55
407.603	132.44
407.812	261.46
408.02	275.79
408.229	175.44
408.438	204.11
408.646	183.63
408.855	243.03
409.064	322.9
409.272	277.84
409.481	341.33
409.69	257.36
409.898	279.89
410.107	298.32
410.315	372.05
410.524	245.07
410.733	390.48
410.941	427.34
411.15	367.95
411.358	378.19
411.567	394.58
411.775	376.14
411.984	421.2
412.192	390.48
412.401	521.55
412.609	433.49
412.818	539.98
413.026	443.73
413.234	501.07
413.443	527.69
413.651	494.93
413.86	558.41
414.068	623.95
414.276	613.71
414.485	695.63
414.693	697.67
414.901	726.35
415.11	699.72
415.318	648.52
415.526	732.49
415.734	771.4
415.943	679.24
416.151	855.37
416.359	808.26
416.567	892.23
416.776	894.28
416.984	1000.77
417.192	908.62
417.4	1004.87
417.608	976.2
417.817	1039.69
418.025	1070.4
418.233	1154.37
418.441	1187.14
418.649	1178.95
418.857	1289.54
419.065	1434.94
419.273	1328.45
419.481	1363.26
419.689	1500.48
419.897	1547.58
420.105	1592.64
420.313	1668.41
420.521	1619.26
420.729	1596.73
420.937	1793.34
421.145	1797.43
421.353	1877.3
421.561	2000.18
421.769	1965.37
421.977	2006.33
422.185	1965.37
422.393	2090.29
422.601	2233.65
422.809	2317.62
423.017	2393.39
423.224	2377.01
423.432	2526.51
423.64	2540.85
423.848	2872.62
424.056	2749.74
424.263	2913.58
424.471	2882.86
424.679	2897.19
424.887	3020.07
425.094	3155.24
425.302	3198.24
425.51	3267.88
425.718	3476.77
425.925	3380.51
426.133	3609.89
426.341	3769.63
426.548	3910.94
426.756	3974.42
426.964	4205.85
427.171	4236.56
427.379	4261.14
427.586	4306.2
427.794	4707.6
428.001	4836.62
428.209	5029.13
428.417	4926.73
428.624	5299.46
428.832	5328.13
429.039	5143.81
429.247	5256.45
429.454	5610.75
429.662	6051.06
429.869	5739.77
430.076	6206.71
430.284	6008.06
430.491	6147.32
430.699	6657.26
430.906	6419.7
431.114	6632.69
431.321	6849.77
431.528	7230.69
431.736	7396.58
431.943	7771.36
432.15	7472.36
432.358	7728.35
432.565	8189.14
432.772	8217.82
432.979	8627.41
433.187	8762.58
433.394	8619.22
433.601	9206.98
433.808	9442.5
434.016	9370.82
434.223	9751.74
434.43	10194.11
434.637	9993.4
434.844	10745.01
435.052	11007.15
435.259	10931.37
435.466	11041.96
435.673	10859.7
435.88	11381.93
436.087	12164.25
436.294	12221.59
436.501	12080.28
436.708	12049.57
436.915	12313.75
437.122	13081.74
437.329	12772.5
437.537	13624.45
437.743	13845.63
437.95	13350.03
438.157	14257.28
438.364	14799.99
438.571	14888.05
438.778	14875.76
438.985	16139.36
439.192	15498.34
439.399	15971.43
439.606	15975.52
439.813	16577.62
440.02	17822.79
440.227	17464.39
440.433	16995.41
440.64	17679.43
440.847	17501.26
441.054	18140.22
441.261	19196.98
441.467	19231.79
441.674	19401.77
441.881	19960.87
442.088	19946.53
442.294	20032.55
442.501	20288.54
442.708	20681.75
442.914	21570.57
443.121	22496.25
443.328	22078.47
443.534	23342.07
443.741	22488.06
443.948	22502.4
444.154	24142.82
444.361	24280.03
444.568	23954.41
444.774	24308.71
444.981	24224.74
445.187	25179.09
445.394	26278.85
445.6	26180.55
445.807	28693.41
446.013	27550.64
446.22	27845.55
446.426	28539.81
446.633	29305.75
446.839	30118.79
447.046	28644.26
447.252	30425.99
447.459	30139.27
447.665	30251.91
447.871	31472.5
448.078	33080.16
448.284	31654.77
448.491	32357.22
448.697	33420.12
448.903	33721.17
449.11	34337.61
449.316	33848.14
449.522	34231.11
449.728	35556.15
449.935	35507
450.141	35554.1
450.347	36234.03
450.553	35111.74
450.76	35871.54
450.966	36940.58
451.172	36533.03
451.378	37319.45
451.584	36279.08
451.791	37528.34
451.997	37661.46
452.203	38075.15
452.409	37856.02
452.615	37888.79
452.821	36377.39
453.027	36006.7
453.233	37761.81
453.44	36729.64
453.646	37073.7
453.852	36973.35
454.058	37702.42
454.264	36535.08
454.47	37550.87
454.676	36672.29
454.882	37587.74
455.088	34548.55
455.294	35070.78
455.5	35627.83
455.705	35867.44
455.911	34300.75
456.117	34145.1
456.323	33487.7
456.529	31722.35
456.735	32977.76
456.941	32633.7
457.147	31683.44
457.352	30442.37
457.558	30430.08
457.764	30507.91
457.97	29647.76
458.176	29504.4
458.381	29232.02
458.587	27849.64
458.793	27663.28
458.999	26465.22
459.204	28269.48
459.41	27327.41
459.616	25492.43
459.821	25887.69
460.027	25773
460.233	25048.02
460.438	24136.68
460.644	24206.31
460.85	22885.37
461.055	22952.95
461.261	22637.56
461.466	21083.16
461.672	20352.03
461.878	22060.04
462.083	20352.03
462.289	19792.94
462.494	19921.96
462.7	18887.73
462.905	18187.33
463.111	19041.33
463.316	19186.74
463.522	18859.06
463.727	18777.14
463.932	18783.29
464.138	18545.72
464.343	18570.3
464.549	17988.67
464.754	18494.52
464.959	18414.65
465.165	18340.93
465.37	17585.22
465.575	17079.38
465.781	17646.66
465.986	18007.11
466.191	17245.26
466.397	16862.29
466.602	16022.62
466.807	16727.13
467.012	16807
467.218	16454.75
467.423	16342.11
467.628	16419.93
