Data from USB4F104151__31__12-41-14-034.txt Node

Date: Fri Mar 14 12:41:14 EDT 2025
User: louis
Spectrometer: USB4F10415
Trigger mode: 4
Integration Time (sec): 3.000000E-2
Scans to average: 1
Electric dark correction enabled: true
Nonlinearity correction enabled: false
Boxcar width: 0
XAxis mode: Wavelengths
Number of Pixels in Spectrum: 3648
>>>>>Begin Spectral Data<<<<<
178.204	-170.49
178.424	-170.49
178.644	-170.49
178.864	-137.73
179.084	-150.01
179.304	38.4
179.524	-51.71
179.744	11.78
179.964	-55.81
180.184	1.54
180.404	-0.51
180.624	50.69
180.844	-31.23
181.064	-53.76
181.283	24.06
181.503	11.78
181.723	54.78
181.943	-12.8
182.163	110.08
182.383	50.69
182.602	38.4
182.822	54.78
183.042	97.79
183.262	3.58
183.482	93.69
183.701	54.78
183.921	34.3
184.141	-16.9
184.361	44.54
184.58	26.11
184.8	124.41
185.02	19.97
185.239	87.55
185.459	62.98
185.679	65.02
185.898	15.87
186.118	69.12
186.338	-0.51
186.557	71.17
186.777	1.54
186.997	30.21
187.216	-6.66
187.436	3.58
187.655	-4.61
187.875	56.83
188.095	108.03
188.314	114.17
188.534	75.26
188.753	48.64
188.973	75.26
189.192	48.64
189.412	75.26
189.631	17.92
189.851	-39.42
190.07	110.08
190.29	24.06
190.509	40.45
190.729	-12.8
190.948	73.21
191.168	97.79
191.387	91.65
191.607	30.21
191.826	77.31
192.045	81.41
192.265	-6.66
192.484	26.11
192.704	42.5
192.923	5.63
193.142	54.78
193.362	42.5
193.581	73.21
193.8	-14.85
194.02	-14.85
194.239	58.88
194.458	34.3
194.678	-4.61
194.897	69.12
195.116	40.45
195.335	9.73
195.555	42.5
195.774	-12.8
195.993	71.17
196.212	34.3
196.432	42.5
196.651	13.82
196.87	81.41
197.089	48.64
197.308	95.74
197.528	87.55
197.747	32.26
197.966	-27.14
198.185	65.02
198.404	42.5
198.623	105.98
198.842	-39.42
199.062	116.22
199.281	75.26
199.5	-66.05
199.719	-14.85
199.938	97.79
200.157	73.21
200.376	5.63
200.595	26.11
200.814	-31.23
201.033	46.59
201.252	65.02
201.471	-14.85
201.69	48.64
201.909	36.35
202.128	-10.75
202.347	9.73
202.566	48.64
202.785	-12.8
203.004	44.54
203.223	97.79
203.442	-12.8
203.661	34.3
203.879	87.55
204.098	34.3
204.317	-47.62
204.536	120.32
204.755	62.98
204.974	38.4
205.193	44.54
205.411	71.17
205.63	26.11
205.849	85.5
206.068	48.64
206.287	79.36
206.505	-59.9
206.724	-55.81
206.943	58.88
207.162	50.69
207.381	1.54
207.599	3.58
207.818	-35.33
208.037	-18.94
208.255	11.78
208.474	87.55
208.693	34.3
208.911	48.64
209.13	46.59
209.349	40.45
209.567	7.68
209.786	77.31
210.005	42.5
210.223	3.58
210.442	-14.85
210.661	36.35
210.879	15.87
211.098	15.87
211.316	-14.85
211.535	40.45
211.753	22.02
211.972	58.88
212.191	75.26
212.409	28.16
212.628	73.21
212.846	67.07
213.065	44.54
213.283	112.13
213.502	9.73
213.72	17.92
213.938	38.4
214.157	9.73
214.375	40.45
214.594	56.83
214.812	30.21
215.031	13.82
215.249	65.02
215.467	58.88
215.686	67.07
215.904	28.16
216.122	-16.9
216.341	50.69
216.559	138.75
216.778	71.17
216.996	-8.7
217.214	-31.23
217.432	36.35
217.651	42.5
217.869	9.73
218.087	-4.61
218.306	52.74
218.524	79.36
218.742	11.78
218.96	36.35
219.179	38.4
219.397	46.59
219.615	130.56
219.833	13.82
220.051	3.58
220.27	13.82
220.488	15.87
220.706	-6.66
220.924	65.02
221.142	-33.28
221.36	40.45
221.578	1.54
221.796	44.54
222.015	13.82
222.233	-10.75
222.451	65.02
222.669	-68.09
222.887	9.73
223.105	-35.33
223.323	48.64
223.541	-39.42
223.759	15.87
223.977	65.02
224.195	36.35
224.413	26.11
224.631	30.21
224.849	71.17
225.067	17.92
225.285	-14.85
225.503	28.16
225.721	-55.81
225.939	97.79
226.157	103.93
226.375	75.26
226.592	52.74
226.81	-10.75
227.028	-2.56
227.246	97.79
227.464	-33.28
227.682	54.78
227.9	97.79
228.117	-0.51
228.335	56.83
228.553	136.7
228.771	-10.75
228.989	93.69
229.206	26.11
229.424	-12.8
229.642	24.06
229.86	-20.99
230.077	103.93
230.295	30.21
230.513	77.31
230.731	50.69
230.948	48.64
231.166	116.22
231.384	52.74
231.601	7.68
231.819	42.5
232.037	38.4
232.254	54.78
232.472	32.26
232.689	-70.14
232.907	83.45
233.125	32.26
233.342	-18.94
233.56	19.97
233.777	69.12
233.995	73.21
234.213	11.78
234.43	46.59
234.648	9.73
234.865	36.35
235.083	-16.9
235.3	-10.75
235.518	38.4
235.735	99.84
235.953	-35.33
236.17	-31.23
236.388	93.69
236.605	13.82
236.822	110.08
237.04	22.02
237.257	103.93
237.475	-2.56
237.692	69.12
237.909	73.21
238.127	50.69
238.344	-12.8
238.562	62.98
238.779	15.87
238.996	1.54
239.214	17.92
239.431	67.07
239.648	-6.66
239.865	19.97
240.083	105.98
240.3	30.21
240.517	-27.14
240.735	40.45
240.952	99.84
241.169	77.31
241.386	-4.61
241.603	-8.7
241.821	1.54
242.038	54.78
242.255	15.87
242.472	40.45
242.689	75.26
242.907	62.98
243.124	-20.99
243.341	28.16
243.558	95.74
243.775	46.59
243.992	-27.14
244.209	38.4
244.426	-39.42
244.643	-0.51
244.86	28.16
245.078	30.21
245.295	81.41
245.512	17.92
245.729	36.35
245.946	13.82
246.163	114.17
246.38	85.5
246.597	28.16
246.814	22.02
247.031	67.07
247.248	67.07
247.464	1.54
247.681	24.06
247.898	77.31
248.115	93.69
248.332	-20.99
248.549	56.83
248.766	73.21
248.983	-18.94
249.2	38.4
249.417	26.11
249.633	11.78
249.85	44.54
250.067	-12.8
250.284	-12.8
250.501	48.64
250.717	93.69
250.934	-57.86
251.151	19.97
251.368	93.69
251.585	28.16
251.801	99.84
252.018	26.11
252.235	58.88
252.451	28.16
252.668	-41.47
252.885	73.21
253.102	11.78
253.318	124.41
253.535	-6.66
253.752	-31.23
253.968	79.36
254.185	1.54
254.401	24.06
254.618	26.11
254.835	-14.85
255.051	108.03
255.268	36.35
255.484	54.78
255.701	24.06
255.917	124.41
256.134	46.59
256.351	46.59
256.567	19.97
256.784	15.87
257	13.82
257.217	17.92
257.433	62.98
257.65	22.02
257.866	122.37
258.082	83.45
258.299	9.73
258.515	24.06
258.732	-57.86
258.948	15.87
259.165	153.09
259.381	-4.61
259.597	52.74
259.814	34.3
260.03	38.4
260.246	-61.95
260.463	3.58
260.679	83.45
260.895	9.73
261.112	73.21
261.328	40.45
261.544	34.3
261.761	40.45
261.977	54.78
262.193	-57.86
262.409	32.26
262.626	-18.94
262.842	17.92
263.058	-4.61
263.274	97.79
263.49	36.35
263.707	83.45
263.923	17.92
264.139	-18.94
264.355	46.59
264.571	34.3
264.787	38.4
265.004	30.21
265.22	93.69
265.436	11.78
265.652	7.68
265.868	65.02
266.084	32.26
266.3	26.11
266.516	24.06
266.732	87.55
266.948	60.93
267.164	-18.94
267.38	99.84
267.596	26.11
267.812	60.93
268.028	48.64
268.244	7.68
268.46	40.45
268.676	87.55
268.892	-4.61
269.108	17.92
269.324	-8.7
269.54	-47.62
269.756	105.98
269.972	13.82
270.188	-6.66
270.403	13.82
270.619	9.73
270.835	54.78
271.051	81.41
271.267	-0.51
271.483	38.4
271.698	101.89
271.914	-23.04
272.13	44.54
272.346	17.92
272.562	75.26
272.777	75.26
272.993	95.74
273.209	36.35
273.425	101.89
273.64	-8.7
273.856	81.41
274.072	30.21
274.287	40.45
274.503	24.06
274.719	56.83
274.934	46.59
275.15	-14.85
275.366	-6.66
275.581	40.45
275.797	46.59
276.012	48.64
276.228	19.97
276.444	38.4
276.659	73.21
276.875	42.5
277.09	-10.75
277.306	48.64
277.521	91.65
277.737	65.02
277.952	83.45
278.168	60.93
278.383	-10.75
278.599	36.35
278.814	19.97
279.03	77.31
279.245	11.78
279.461	15.87
279.676	60.93
279.892	-29.18
280.107	40.45
280.322	17.92
280.538	73.21
280.753	46.59
280.969	48.64
281.184	40.45
281.399	42.5
281.615	40.45
281.83	71.17
282.045	11.78
282.26	26.11
282.476	-2.56
282.691	26.11
282.906	11.78
283.122	67.07
283.337	42.5
283.552	67.07
283.767	5.63
283.983	103.93
284.198	93.69
284.413	69.12
284.628	-2.56
284.843	42.5
285.058	83.45
285.274	50.69
285.489	79.36
285.704	38.4
285.919	24.06
286.134	54.78
286.349	-14.85
286.564	83.45
286.779	112.13
286.995	46.59
287.21	3.58
287.425	24.06
287.64	30.21
287.855	97.79
288.07	-16.9
288.285	-12.8
288.5	85.5
288.715	91.65
288.93	48.64
289.145	-4.61
289.36	73.21
289.575	69.12
289.79	56.83
290.004	9.73
290.219	93.69
290.434	3.58
290.649	7.68
290.864	52.74
291.079	-39.42
291.294	3.58
291.509	54.78
291.724	17.92
291.938	99.84
292.153	99.84
292.368	36.35
292.583	11.78
292.798	1.54
293.012	91.65
293.227	48.64
293.442	81.41
293.657	91.65
293.871	99.84
294.086	7.68
294.301	67.07
294.516	93.69
294.73	97.79
294.945	54.78
295.16	-2.56
295.374	54.78
295.589	83.45
295.804	-0.51
296.018	56.83
296.233	89.6
296.447	46.59
296.662	-45.57
296.877	-43.52
297.091	110.08
297.306	60.93
297.52	15.87
297.735	42.5
297.949	-53.76
298.164	60.93
298.378	34.3
298.593	9.73
298.807	42.5
299.022	32.26
299.236	73.21
299.451	22.02
299.665	9.73
299.88	44.54
300.094	11.78
300.309	-12.8
300.523	130.56
300.737	17.92
300.952	58.88
301.166	58.88
301.381	-14.85
301.595	32.26
301.809	40.45
302.024	-14.85
302.238	-20.99
302.452	85.5
302.667	34.3
302.881	116.22
303.095	44.54
303.309	65.02
303.524	30.21
303.738	-18.94
303.952	-29.18
304.166	65.02
304.381	30.21
304.595	148.99
304.809	75.26
305.023	120.32
305.237	91.65
305.452	11.78
305.666	-12.8
305.88	22.02
306.094	42.5
306.308	75.26
306.522	44.54
306.736	73.21
306.95	71.17
307.164	-31.23
307.379	65.02
307.593	108.03
307.807	36.35
308.021	38.4
308.235	110.08
308.449	-39.42
308.663	34.3
308.877	79.36
309.091	26.11
309.305	52.74
309.519	-8.7
309.733	99.84
309.947	-10.75
310.161	46.59
310.374	79.36
310.588	93.69
310.802	-2.56
311.016	32.26
311.23	1.54
311.444	-18.94
311.658	77.31
311.872	99.84
312.085	75.26
312.299	-45.57
312.513	83.45
312.727	54.78
312.941	67.07
313.154	-12.8
313.368	-4.61
313.582	50.69
313.796	19.97
314.009	30.21
314.223	67.07
314.437	34.3
314.651	28.16
314.864	99.84
315.078	40.45
315.292	-47.62
315.505	36.35
315.719	-10.75
315.933	62.98
316.146	46.59
316.36	28.16
316.573	99.84
316.787	13.82
317.001	130.56
317.214	122.37
317.428	19.97
317.641	85.5
317.855	7.68
318.068	17.92
318.282	71.17
318.495	93.69
318.709	97.79
318.922	15.87
319.136	110.08
319.349	40.45
319.563	38.4
319.776	46.59
319.99	19.97
320.203	-31.23
320.417	112.13
320.63	22.02
320.843	71.17
321.057	11.78
321.27	5.63
321.483	77.31
321.697	177.66
321.91	48.64
322.124	85.5
322.337	7.68
322.55	48.64
322.763	11.78
322.977	118.27
323.19	17.92
323.403	9.73
323.617	34.3
323.83	91.65
324.043	28.16
324.256	22.02
324.469	19.97
324.683	89.6
324.896	28.16
325.109	50.69
325.322	1.54
325.535	46.59
325.748	54.78
325.962	-41.47
326.175	103.93
326.388	73.21
326.601	-2.56
326.814	91.65
327.027	50.69
327.24	120.32
327.453	-14.85
327.666	65.02
327.879	19.97
328.092	30.21
328.305	42.5
328.518	38.4
328.731	3.58
328.944	32.26
329.157	9.73
329.37	83.45
329.583	151.04
329.796	132.61
330.009	36.35
330.222	-25.09
330.435	48.64
330.648	-8.7
330.861	110.08
331.073	19.97
331.286	54.78
331.499	34.3
331.712	-8.7
331.925	46.59
332.138	26.11
332.35	93.69
332.563	-16.9
332.776	50.69
332.989	15.87
333.202	65.02
333.414	42.5
333.627	50.69
333.84	81.41
334.053	83.45
334.265	-6.66
334.478	32.26
334.691	38.4
334.903	77.31
335.116	-2.56
335.329	110.08
335.541	118.27
335.754	26.11
335.966	67.07
336.179	40.45
336.392	58.88
336.604	99.84
336.817	56.83
337.029	81.41
337.242	85.5
337.454	54.78
337.667	38.4
337.88	67.07
338.092	15.87
338.305	56.83
338.517	-33.28
338.729	13.82
338.942	101.89
339.154	-25.09
339.367	46.59
339.579	56.83
339.792	-8.7
340.004	87.55
340.217	46.59
340.429	50.69
340.641	-2.56
340.854	77.31
341.066	52.74
341.278	13.82
341.491	65.02
341.703	38.4
341.915	5.63
342.128	169.47
342.34	44.54
342.552	32.26
342.764	1.54
342.977	17.92
343.189	60.93
343.401	138.75
343.613	-25.09
343.826	71.17
344.038	13.82
344.25	120.32
344.462	-0.51
344.674	9.73
344.886	-20.99
345.099	75.26
345.311	58.88
345.523	44.54
345.735	-2.56
345.947	105.98
346.159	83.45
346.371	81.41
346.583	48.64
346.795	71.17
347.007	30.21
347.219	93.69
347.431	85.5
347.643	19.97
347.855	38.4
348.067	112.13
348.279	-25.09
348.491	69.12
348.703	-37.38
348.915	75.26
349.127	60.93
349.339	34.3
349.551	-2.56
349.763	28.16
349.975	65.02
350.187	17.92
350.399	71.17
350.61	126.46
350.822	60.93
351.034	-14.85
351.246	32.26
351.458	130.56
351.669	13.82
351.881	1.54
352.093	81.41
352.305	108.03
352.517	19.97
352.728	103.93
352.94	110.08
353.152	-2.56
353.363	-25.09
353.575	105.98
353.787	85.5
353.999	26.11
354.21	81.41
354.422	91.65
354.633	19.97
354.845	114.17
355.057	95.74
355.268	32.26
355.48	103.93
355.692	36.35
355.903	32.26
356.115	-6.66
356.326	-12.8
356.538	134.65
356.749	60.93
356.961	148.99
357.172	83.45
357.384	77.31
357.595	161.28
357.807	42.5
358.018	34.3
358.23	9.73
358.441	75.26
358.653	81.41
358.864	99.84
359.075	-6.66
359.287	13.82
359.498	128.51
359.709	5.63
359.921	-33.28
360.132	126.46
360.344	19.97
360.555	-47.62
360.766	32.26
360.977	7.68
361.189	93.69
361.4	-12.8
361.611	85.5
361.823	62.98
362.034	36.35
362.245	-20.99
362.456	7.68
362.667	44.54
362.879	7.68
363.09	65.02
363.301	42.5
363.512	38.4
363.723	32.26
363.935	48.64
364.146	110.08
364.357	24.06
364.568	79.36
364.779	-8.7
364.99	89.6
365.201	89.6
365.412	85.5
365.623	-33.28
365.834	91.65
366.045	65.02
366.256	34.3
366.467	148.99
366.678	67.07
366.889	81.41
367.1	26.11
367.311	-2.56
367.522	79.36
367.733	44.54
367.944	32.26
368.155	13.82
368.366	118.27
368.577	56.83
368.788	97.79
368.999	40.45
369.209	65.02
369.42	93.69
369.631	138.75
369.842	73.21
370.053	81.41
370.264	83.45
370.474	50.69
370.685	105.98
370.896	105.98
371.107	42.5
371.317	93.69
371.528	36.35
371.739	17.92
371.95	34.3
372.16	69.12
372.371	-53.76
372.582	58.88
372.792	44.54
373.003	87.55
373.214	103.93
373.424	32.26
373.635	-27.14
373.846	108.03
374.056	62.98
374.267	56.83
374.477	93.69
374.688	50.69
374.898	52.74
375.109	93.69
375.319	40.45
375.53	54.78
375.74	46.59
375.951	83.45
376.161	103.93
376.372	124.41
376.582	60.93
376.793	42.5
377.003	32.26
377.214	81.41
377.424	24.06
377.635	99.84
377.845	85.5
378.055	105.98
378.266	-29.18
378.476	122.37
378.686	52.74
378.897	89.6
379.107	157.18
379.317	52.74
379.528	26.11
379.738	65.02
379.948	38.4
380.158	79.36
380.369	30.21
380.579	26.11
380.789	93.69
380.999	136.7
381.21	77.31
381.42	105.98
381.63	30.21
381.84	95.74
382.05	44.54
382.261	151.04
382.471	95.74
382.681	83.45
382.891	144.89
383.101	99.84
383.311	42.5
383.521	11.78
383.731	26.11
383.941	28.16
384.151	19.97
384.361	60.93
384.571	32.26
384.781	108.03
384.991	157.18
385.201	122.37
385.411	122.37
385.621	85.5
385.831	34.3
386.041	87.55
386.251	42.5
386.461	103.93
386.671	-29.18
386.881	48.64
387.091	26.11
387.301	34.3
387.511	93.69
387.72	56.83
387.93	99.84
388.14	-6.66
388.35	-0.51
388.56	69.12
388.769	103.93
388.979	110.08
389.189	32.26
389.399	-20.99
389.609	108.03
389.818	44.54
390.028	103.93
390.238	83.45
390.447	95.74
390.657	42.5
390.867	28.16
391.076	58.88
391.286	112.13
391.496	114.17
391.705	62.98
391.915	101.89
392.125	13.82
392.334	36.35
392.544	167.42
392.753	30.21
392.963	112.13
393.172	81.41
393.382	77.31
393.591	83.45
393.801	17.92
394.01	116.22
394.22	69.12
394.429	81.41
394.639	77.31
394.848	108.03
395.058	77.31
395.267	89.6
395.477	26.11
395.686	75.26
395.895	194.05
396.105	157.18
396.314	159.23
396.524	42.5
396.733	120.32
396.942	81.41
397.152	151.04
397.361	83.45
397.57	138.75
397.78	22.02
397.989	142.85
398.198	91.65
398.407	77.31
398.617	89.6
398.826	126.46
399.035	161.28
399.244	83.45
399.453	103.93
399.663	128.51
399.872	93.69
400.081	148.99
400.29	163.33
400.499	142.85
400.708	165.37
400.917	81.41
401.127	108.03
401.336	65.02
401.545	171.52
401.754	155.13
401.963	105.98
402.172	171.52
402.381	126.46
402.59	126.46
402.799	196.09
403.008	159.23
403.217	138.75
403.426	275.96
403.635	214.52
403.844	112.13
404.053	136.7
404.262	140.8
404.471	208.38
404.68	210.43
404.888	105.98
405.097	114.17
405.306	89.6
405.515	210.43
405.724	108.03
405.933	142.85
406.142	216.57
406.35	177.66
406.559	159.23
406.768	151.04
406.977	226.81
407.185	286.2
407.394	208.38
407.603	202.24
407.812	263.68
408.02	278.01
408.229	306.68
408.438	247.29
408.646	273.92
408.855	308.73
409.064	349.69
409.272	321.02
409.481	390.65
409.69	243.2
409.898	347.64
410.107	361.98
410.315	357.88
410.524	364.03
410.733	325.12
410.941	353.79
411.15	519.67
411.358	447.99
411.567	523.77
411.775	464.38
411.984	617.97
412.192	468.47
412.401	515.58
412.609	523.77
412.818	601.59
413.026	605.69
413.234	542.2
413.443	654.84
413.651	683.51
413.86	658.93
414.068	810.48
414.276	753.14
414.485	714.23
414.693	802.29
414.901	841.2
415.11	796.15
415.318	806.39
415.526	943.6
415.734	935.41
415.943	912.88
416.151	943.6
416.359	976.37
416.567	994.8
416.776	1103.34
416.984	1244.65
417.192	1095.15
417.4	1263.08
417.608	1121.77
417.817	1160.69
418.025	1379.82
418.233	1476.07
418.441	1349.1
418.649	1443.31
418.857	1476.07
419.065	1482.22
419.273	1467.88
419.481	1584.62
419.689	1658.34
419.897	1793.51
420.105	1848.8
420.313	1816.04
420.521	1953.25
420.729	1990.11
420.937	1998.31
421.145	2059.74
421.353	2162.14
421.561	2325.98
421.769	2409.95
421.977	2475.48
422.185	2409.95
422.393	2500.06
422.601	2739.67
422.809	2811.35
423.017	2643.42
423.224	2862.55
423.432	2958.8
423.64	2948.56
423.848	3259.85
424.056	3206.61
424.263	3366.35
424.471	3468.75
424.679	3452.36
424.887	3628.49
425.094	3812.81
425.302	3814.85
425.51	3884.48
425.718	4191.68
425.925	4183.49
426.133	4267.45
426.341	4416.96
426.548	4664.76
426.756	4677.05
426.964	4758.97
427.171	5121.46
427.379	5242.29
427.586	5174.71
427.794	5469.61
428.001	5719.46
428.209	5979.56
428.417	5938.6
428.624	6086.05
428.832	6067.62
429.039	6065.57
429.247	6182.31
429.454	6643.1
429.662	7173.52
429.869	6845.85
430.076	7361.94
430.284	7196.05
430.491	7441.81
430.699	7771.53
430.906	7718.28
431.114	7804.3
431.321	8207.75
431.528	8213.89
431.736	8988.02
431.943	9272.69
432.15	9022.84
432.358	9112.95
432.565	9641.32
432.772	9629.04
432.979	10009.96
433.187	10319.2
433.394	10300.77
433.601	11103.57
433.808	11187.54
434.016	11070.81
434.223	11443.54
434.43	12223.81
434.637	11722.06
434.844	12496.19
435.052	13018.43
435.259	12680.51
435.466	13020.47
435.673	12649.79
435.88	13507.89
436.087	14249.25
436.294	14335.27
436.501	13944.11
436.708	14234.92
436.915	14882.08
437.122	15238.42
437.329	15482.13
437.537	15961.36
437.743	16203.02
437.95	15942.92
438.157	16663.81
438.364	17358.07
438.571	17386.74
438.778	17425.65
438.985	19131.61
439.192	18511.08
439.399	18978.01
439.606	18547.94
439.813	19571.93
440.02	21011.65
440.227	20399.3
440.433	20157.64
440.64	21052.61
440.847	20638.92
441.054	21431.48
441.261	22451.37
441.467	22600.87
441.674	22754.47
441.881	23438.49
442.088	23415.96
442.294	23297.18
442.501	24073.36
442.708	24595.59
442.914	25445.5
443.121	26588.27
443.328	25756.79
443.534	27978.84
443.741	26715.24
443.948	26752.1
444.154	28496.97
444.361	28175.44
444.568	28664.91
444.774	28329.04
444.981	28863.56
445.187	29393.98
445.394	31091.75
445.6	30331.95
445.807	33311.75
446.013	32119.83
446.22	32644.11
446.426	33795.07
446.633	33883.13
446.839	35441.64
447.046	33670.14
447.252	35570.66
447.459	35931.1
447.665	35576.8
447.871	37532.61
448.078	39347.11
448.284	37055.43
448.491	38026.17
448.697	39594.92
448.903	40500.12
449.11	40307.61
449.316	39353.26
449.522	39910.3
449.728	41067.41
449.935	41722.76
450.141	41573.25
450.347	42331
450.553	41063.31
450.76	41599.88
450.966	43223.92
451.172	43002.74
451.378	43555.69
451.584	42869.62
451.791	43713.38
451.997	43432.81
452.203	44626.78
452.409	44493.66
452.615	44168.03
452.821	42613.62
453.027	42261.37
453.233	44346.2
453.44	42892.15
453.646	43563.88
453.852	43311.98
454.058	43989.86
454.264	42597.24
454.47	43555.69
454.676	42523.51
454.882	43860.83
455.088	39967.65
455.294	40541.08
455.5	41431.94
455.705	41804.67
455.911	39969.69
456.117	39199.66
456.323	38968.24
456.529	36856.78
456.735	38542.26
456.941	37450.69
457.147	36764.62
457.352	35685.34
457.558	35298.28
457.764	35486.69
457.97	34610.16
458.176	33917.95
458.381	33827.84
458.587	32201.75
458.793	32406.55
458.999	30561.33
459.204	32930.83
459.41	31962.14
459.616	29977.65
459.821	29731.9
460.027	29436.99
460.233	29064.26
460.438	27636.83
460.644	28187.73
460.85	26920.04
461.055	26477.68
461.261	26297.45
461.466	24235.15
461.672	23628.95
461.878	25259.13
462.083	23782.55
462.289	23237.79
462.494	22723.75
462.7	21894.32
462.905	21271.74
463.111	22019.25
463.316	21859.51
463.522	21787.83
463.727	21871.79
463.932	21882.03
464.138	21478.58
464.343	22027.44
464.549	21167.29
464.754	21750.96
464.959	21779.64
465.165	21318.84
465.37	20581.57
465.575	20032.72
465.781	20847.81
465.986	20692.16
466.191	20253.9
466.397	19729.62
466.602	18695.39
466.807	19471.57
467.012	19399.9
