Data from USB4F104151__81__12-42-26-297.txt Node

Date: Fri Mar 14 12:42:26 EDT 2025
User: louis
Spectrometer: USB4F10415
Trigger mode: 4
Integration Time (sec): 3.000000E-2
Scans to average: 1
Electric dark correction enabled: true
Nonlinearity correction enabled: false
Boxcar width: 0
XAxis mode: Wavelengths
Number of Pixels in Spectrum: 3648
>>>>>Begin Spectral Data<<<<<
178.204	-108.03
178.424	-108.03
178.644	-108.03
178.864	-60.93
179.084	-157.18
179.304	43.52
179.524	-56.83
179.744	-62.98
179.964	31.23
180.184	33.28
180.404	35.33
180.624	72.19
180.844	-36.35
181.064	-69.12
181.283	-7.68
181.503	18.94
181.723	-1.54
181.943	-30.21
182.163	55.81
182.383	2.56
182.602	123.39
182.822	-32.26
183.042	115.2
183.262	-22.02
183.482	12.8
183.701	2.56
183.921	-62.98
184.141	-67.07
184.361	59.9
184.58	20.99
184.8	88.57
185.02	-58.88
185.239	115.2
185.459	20.99
185.679	43.52
185.898	-13.82
186.118	57.86
186.338	4.61
186.557	66.05
186.777	8.7
186.997	-13.82
187.216	64
187.436	55.81
187.655	-26.11
187.875	31.23
188.095	20.99
188.314	14.85
188.534	43.52
188.753	-32.26
188.973	-3.58
189.192	64
189.412	51.71
189.631	33.28
189.851	0.51
190.07	45.57
190.29	-28.16
190.509	57.86
190.729	25.09
190.948	117.25
191.168	135.68
191.387	90.62
191.607	64
191.826	-9.73
192.045	-32.26
192.265	31.23
192.484	-15.87
192.704	88.57
192.923	-11.78
193.142	74.24
193.362	-7.68
193.581	74.24
193.8	45.57
194.02	123.39
194.239	39.42
194.458	55.81
194.678	29.18
194.897	39.42
195.116	27.14
195.335	82.43
195.555	61.95
195.774	27.14
195.993	-26.11
196.212	76.29
196.432	-3.58
196.651	61.95
196.87	-34.3
197.089	64
197.308	86.53
197.528	51.71
197.747	37.38
197.966	31.23
198.185	59.9
198.404	-36.35
198.623	-17.92
198.842	117.25
199.062	94.72
199.281	33.28
199.5	49.66
199.719	53.76
199.938	117.25
200.157	53.76
200.376	96.77
200.595	80.38
200.814	8.7
201.033	6.66
201.252	8.7
201.471	-24.06
201.69	43.52
201.909	61.95
202.128	27.14
202.347	-9.73
202.566	-24.06
202.785	-15.87
203.004	2.56
203.223	47.62
203.442	37.38
203.661	6.66
203.879	70.14
204.098	51.71
204.317	80.38
204.536	113.15
204.755	74.24
204.974	66.05
205.193	2.56
205.411	104.96
205.63	115.2
205.849	39.42
206.068	-15.87
206.287	-1.54
206.505	31.23
206.724	96.77
206.943	47.62
207.162	-3.58
207.381	33.28
207.599	10.75
207.818	14.85
208.037	27.14
208.255	-17.92
208.474	41.47
208.693	68.09
208.911	53.76
209.13	31.23
209.349	18.94
209.567	76.29
209.786	57.86
210.005	25.09
210.223	29.18
210.442	10.75
210.661	72.19
210.879	-26.11
211.098	31.23
211.316	-17.92
211.535	78.33
211.753	-17.92
211.972	4.61
212.191	12.8
212.409	29.18
212.628	74.24
212.846	-15.87
213.065	6.66
213.283	55.81
213.502	0.51
213.72	-17.92
213.938	-9.73
214.157	25.09
214.375	41.47
214.594	10.75
214.812	90.62
215.031	31.23
215.249	8.7
215.467	-11.78
215.686	35.33
215.904	47.62
216.122	-7.68
216.341	141.82
216.559	33.28
216.778	45.57
216.996	47.62
217.214	68.09
217.432	39.42
217.651	-19.97
217.869	6.66
218.087	31.23
218.306	37.38
218.524	41.47
218.742	57.86
218.96	66.05
219.179	14.85
219.397	84.48
219.615	72.19
219.833	76.29
220.051	-58.88
220.27	154.11
220.488	39.42
220.706	72.19
220.924	-30.21
221.142	8.7
221.36	-11.78
221.578	76.29
221.796	57.86
222.015	47.62
222.233	6.66
222.451	92.67
222.669	45.57
222.887	59.9
223.105	16.9
223.323	45.57
223.541	-42.5
223.759	47.62
223.977	66.05
224.195	127.49
224.413	47.62
224.631	35.33
224.849	94.72
225.067	43.52
225.285	-15.87
225.503	-34.3
225.721	10.75
225.939	70.14
226.157	-7.68
226.375	117.25
226.592	14.85
226.81	-3.58
227.028	49.66
227.246	70.14
227.464	102.91
227.682	61.95
227.9	78.33
228.117	74.24
228.335	12.8
228.553	70.14
228.771	-7.68
228.989	-3.58
229.206	10.75
229.424	92.67
229.642	12.8
229.86	23.04
230.077	27.14
230.295	-52.74
230.513	131.58
230.731	14.85
230.948	113.15
231.166	80.38
231.384	25.09
231.601	2.56
231.819	55.81
232.037	-7.68
232.254	-15.87
232.472	61.95
232.689	-65.02
232.907	33.28
233.125	4.61
233.342	35.33
233.56	72.19
233.777	57.86
233.995	20.99
234.213	109.05
234.43	74.24
234.648	53.76
234.865	6.66
235.083	23.04
235.3	-22.02
235.518	111.1
235.735	111.1
235.953	-38.4
236.17	12.8
236.388	-15.87
236.605	53.76
236.822	121.34
237.04	61.95
237.257	-34.3
237.475	43.52
237.692	47.62
237.909	27.14
238.127	-19.97
238.344	61.95
238.562	64
238.779	-7.68
238.996	39.42
239.214	45.57
239.431	64
239.648	12.8
239.865	37.38
240.083	76.29
240.3	31.23
240.517	25.09
240.735	76.29
240.952	117.25
241.169	45.57
241.386	43.52
241.603	-7.68
241.821	-15.87
242.038	25.09
242.255	76.29
242.472	-48.64
242.689	133.63
242.907	107.01
243.124	57.86
243.341	-46.59
243.558	61.95
243.775	-19.97
243.992	16.9
244.209	59.9
244.426	123.39
244.643	49.66
244.86	74.24
245.078	100.86
245.295	49.66
245.512	70.14
245.729	35.33
245.946	33.28
246.163	4.61
246.38	68.09
246.597	-1.54
246.814	57.86
247.031	76.29
247.248	-22.02
247.464	25.09
247.681	121.34
247.898	-9.73
248.115	170.49
248.332	49.66
248.549	35.33
248.766	135.68
248.983	125.44
249.2	64
249.417	29.18
249.633	-26.11
249.85	82.43
250.067	-17.92
250.284	-17.92
250.501	61.95
250.717	64
250.934	-38.4
251.151	66.05
251.368	57.86
251.585	37.38
251.801	82.43
252.018	6.66
252.235	66.05
252.451	-1.54
252.668	-13.82
252.885	133.63
253.102	80.38
253.318	59.9
253.535	-32.26
253.752	41.47
253.968	-60.93
254.185	-5.63
254.401	94.72
254.618	76.29
254.835	31.23
255.051	113.15
255.268	33.28
255.484	90.62
255.701	39.42
255.917	74.24
256.134	14.85
256.351	72.19
256.567	25.09
256.784	0.51
257	-13.82
257.217	96.77
257.433	16.9
257.65	43.52
257.866	139.77
258.082	29.18
258.299	25.09
258.515	72.19
258.732	102.91
258.948	14.85
259.165	80.38
259.381	-22.02
259.597	53.76
259.814	8.7
260.03	18.94
260.246	43.52
260.463	43.52
260.679	31.23
260.895	78.33
261.112	102.91
261.328	-11.78
261.544	66.05
261.761	170.49
261.977	23.04
262.193	45.57
262.409	33.28
262.626	92.67
262.842	4.61
263.058	-1.54
263.274	96.77
263.49	84.48
263.707	29.18
263.923	55.81
264.139	6.66
264.355	43.52
264.571	113.15
264.787	43.52
265.004	78.33
265.22	80.38
265.436	113.15
265.652	20.99
265.868	123.39
266.084	12.8
266.3	-11.78
266.516	-11.78
266.732	-9.73
266.948	41.47
267.164	39.42
267.38	57.86
267.596	53.76
267.812	94.72
268.028	14.85
268.244	-7.68
268.46	-30.21
268.676	72.19
268.892	68.09
269.108	-7.68
269.324	-32.26
269.54	51.71
269.756	27.14
269.972	-1.54
270.188	57.86
270.403	-42.5
270.619	18.94
270.835	-1.54
271.051	55.81
271.267	45.57
271.483	0.51
271.698	102.91
271.914	-1.54
272.13	59.9
272.346	39.42
272.562	0.51
272.777	68.09
272.993	35.33
273.209	14.85
273.425	150.01
273.64	-32.26
273.856	70.14
274.072	72.19
274.287	12.8
274.503	14.85
274.719	74.24
274.934	35.33
275.15	115.2
275.366	27.14
275.581	18.94
275.797	-5.63
276.012	6.66
276.228	6.66
276.444	10.75
276.659	20.99
276.875	29.18
277.09	14.85
277.306	39.42
277.521	111.1
277.737	-52.74
277.952	88.57
278.168	-42.5
278.383	39.42
278.599	0.51
278.814	102.91
279.03	80.38
279.245	111.1
279.461	16.9
279.676	115.2
279.892	-50.69
280.107	43.52
280.322	64
280.538	43.52
280.753	100.86
280.969	78.33
281.184	66.05
281.399	78.33
281.615	-13.82
281.83	47.62
282.045	-3.58
282.26	4.61
282.476	-26.11
282.691	66.05
282.906	35.33
283.122	41.47
283.337	0.51
283.552	37.38
283.767	10.75
283.983	39.42
284.198	74.24
284.413	12.8
284.628	-5.63
284.843	125.44
285.058	43.52
285.274	72.19
285.489	47.62
285.704	78.33
285.919	74.24
286.134	-1.54
286.349	76.29
286.564	16.9
286.779	137.73
286.995	39.42
287.21	-52.74
287.425	33.28
287.64	-3.58
287.855	33.28
288.07	-32.26
288.285	74.24
288.5	84.48
288.715	59.9
288.93	12.8
289.145	76.29
289.36	152.06
289.575	20.99
289.79	-42.5
290.004	25.09
290.219	104.96
290.434	35.33
290.649	-38.4
290.864	-24.06
291.079	4.61
291.294	76.29
291.509	8.7
291.724	45.57
291.938	59.9
292.153	47.62
292.368	-17.92
292.583	61.95
292.798	47.62
293.012	-15.87
293.227	88.57
293.442	-7.68
293.657	64
293.871	147.97
294.086	16.9
294.301	125.44
294.516	-7.68
294.73	-3.58
294.945	31.23
295.16	43.52
295.374	119.29
295.589	82.43
295.804	57.86
296.018	88.57
296.233	14.85
296.447	70.14
296.662	-1.54
296.877	68.09
297.091	109.05
297.306	78.33
297.52	-7.68
297.735	104.96
297.949	55.81
298.164	125.44
298.378	0.51
298.593	53.76
298.807	6.66
299.022	74.24
299.236	98.81
299.451	90.62
299.665	-28.16
299.88	29.18
300.094	4.61
300.309	37.38
300.523	45.57
300.737	84.48
300.952	43.52
301.166	57.86
301.381	70.14
301.595	-9.73
301.809	35.33
302.024	39.42
302.238	33.28
302.452	107.01
302.667	45.57
302.881	84.48
303.095	29.18
303.309	-38.4
303.524	72.19
303.738	72.19
303.952	53.76
304.166	59.9
304.381	41.47
304.595	66.05
304.809	76.29
305.023	10.75
305.237	45.57
305.452	94.72
305.666	39.42
305.88	27.14
306.094	-1.54
306.308	86.53
306.522	0.51
306.736	-9.73
306.95	31.23
307.164	68.09
307.379	23.04
307.593	68.09
307.807	66.05
308.021	53.76
308.235	76.29
308.449	39.42
308.663	37.38
308.877	107.01
309.091	53.76
309.305	53.76
309.519	29.18
309.733	55.81
309.947	-28.16
310.161	117.25
310.374	61.95
310.588	92.67
310.802	57.86
311.016	14.85
311.23	57.86
311.444	53.76
311.658	12.8
311.872	64
312.085	98.81
312.299	131.58
312.513	33.28
312.727	14.85
312.941	18.94
313.154	84.48
313.368	119.29
313.582	43.52
313.796	74.24
314.009	86.53
314.223	94.72
314.437	35.33
314.651	80.38
314.864	64
315.078	82.43
315.292	2.56
315.505	104.96
315.719	49.66
315.933	14.85
316.146	-48.64
316.36	29.18
316.573	55.81
316.787	-1.54
317.001	96.77
317.214	43.52
317.428	92.67
317.641	59.9
317.855	135.68
318.068	72.19
318.282	53.76
318.495	72.19
318.709	84.48
318.922	8.7
319.136	68.09
319.349	31.23
319.563	33.28
319.776	76.29
319.99	41.47
320.203	47.62
320.417	61.95
320.63	109.05
320.843	137.73
321.057	10.75
321.27	-7.68
321.483	72.19
321.697	94.72
321.91	51.71
322.124	4.61
322.337	4.61
322.55	78.33
322.763	102.91
322.977	-48.64
323.19	45.57
323.403	8.7
323.617	82.43
323.83	92.67
324.043	8.7
324.256	25.09
324.469	0.51
324.683	74.24
324.896	10.75
325.109	27.14
325.322	-26.11
325.535	-13.82
325.748	70.14
325.962	72.19
326.175	53.76
326.388	6.66
326.601	104.96
326.814	37.38
327.027	55.81
327.24	104.96
327.453	55.81
327.666	35.33
327.879	29.18
328.092	47.62
328.305	43.52
328.518	39.42
328.731	61.95
328.944	43.52
329.157	61.95
329.37	43.52
329.583	61.95
329.796	96.77
330.009	-60.93
330.222	94.72
330.435	43.52
330.648	86.53
330.861	55.81
331.073	72.19
331.286	41.47
331.499	6.66
331.712	59.9
331.925	39.42
332.138	29.18
332.35	100.86
332.563	49.66
332.776	88.57
332.989	51.71
333.202	156.16
333.414	-11.78
333.627	6.66
333.84	115.2
334.053	45.57
334.265	0.51
334.478	-46.59
334.691	27.14
334.903	39.42
335.116	-40.45
335.329	35.33
335.541	92.67
335.754	139.77
335.966	86.53
336.179	78.33
336.392	90.62
336.604	39.42
336.817	115.2
337.029	111.1
337.242	113.15
337.454	129.53
337.667	113.15
337.88	102.91
338.092	72.19
338.305	27.14
338.517	100.86
338.729	104.96
338.942	72.19
339.154	51.71
339.367	55.81
339.579	70.14
339.792	18.94
340.004	53.76
340.217	76.29
340.429	109.05
340.641	-1.54
340.854	55.81
341.066	-52.74
341.278	68.09
341.491	49.66
341.703	0.51
341.915	123.39
342.128	82.43
342.34	-32.26
342.552	27.14
342.764	12.8
342.977	113.15
343.189	107.01
343.401	29.18
343.613	10.75
343.826	76.29
344.038	53.76
344.25	18.94
344.462	-1.54
344.674	121.34
344.886	25.09
345.099	64
345.311	109.05
345.523	27.14
345.735	31.23
345.947	96.77
346.159	49.66
346.371	121.34
346.583	4.61
346.795	117.25
347.007	-17.92
347.219	33.28
347.431	98.81
347.643	125.44
347.855	18.94
348.067	72.19
348.279	12.8
348.491	39.42
348.703	41.47
348.915	84.48
349.127	53.76
349.339	88.57
349.551	0.51
349.763	31.23
349.975	-26.11
350.187	66.05
350.399	35.33
350.61	82.43
350.822	29.18
351.034	41.47
351.246	37.38
351.458	43.52
351.669	-13.82
351.881	76.29
352.093	104.96
352.305	74.24
352.517	68.09
352.728	121.34
352.94	31.23
353.152	49.66
353.363	123.39
353.575	16.9
353.787	125.44
353.999	61.95
354.21	96.77
354.422	-5.63
354.633	100.86
354.845	27.14
355.057	18.94
355.268	53.76
355.48	35.33
355.692	68.09
355.903	80.38
356.115	18.94
356.326	-40.45
356.538	92.67
356.749	121.34
356.961	72.19
357.172	35.33
357.384	-32.26
357.595	166.4
357.807	16.9
358.018	25.09
358.23	-30.21
358.441	104.96
358.653	51.71
358.864	-17.92
359.075	57.86
359.287	57.86
359.498	14.85
359.709	152.06
359.921	29.18
360.132	86.53
360.344	31.23
360.555	31.23
360.766	29.18
360.977	41.47
361.189	82.43
361.4	45.57
361.611	45.57
361.823	53.76
362.034	82.43
362.245	-15.87
362.456	70.14
362.667	86.53
362.879	55.81
363.09	59.9
363.301	57.86
363.512	72.19
363.723	123.39
363.935	74.24
364.146	61.95
364.357	-11.78
364.568	96.77
364.779	31.23
364.99	82.43
365.201	88.57
365.412	174.59
365.623	10.75
365.834	133.63
366.045	25.09
366.256	35.33
366.467	61.95
366.678	57.86
366.889	-7.68
367.1	41.47
367.311	80.38
367.522	57.86
367.733	12.8
367.944	176.64
368.155	47.62
368.366	55.81
368.577	111.1
368.788	82.43
368.999	107.01
369.209	92.67
369.42	152.06
369.631	88.57
369.842	49.66
370.053	82.43
370.264	145.92
370.474	14.85
370.685	70.14
370.896	66.05
371.107	57.86
371.317	102.91
371.528	86.53
371.739	109.05
371.95	66.05
372.16	41.47
372.371	70.14
372.582	41.47
372.792	137.73
373.003	98.81
373.214	66.05
373.424	123.39
373.635	10.75
373.846	107.01
374.056	14.85
374.267	107.01
374.477	98.81
374.688	31.23
374.898	41.47
375.109	66.05
375.319	37.38
375.53	102.91
375.74	59.9
375.951	53.76
376.161	57.86
376.372	164.35
376.582	-9.73
376.793	82.43
377.003	33.28
377.214	61.95
377.424	35.33
377.635	74.24
377.845	47.62
378.055	84.48
378.266	53.76
378.476	88.57
378.686	55.81
378.897	82.43
379.107	78.33
379.317	133.63
379.528	64
379.738	174.59
379.948	61.95
380.158	94.72
380.369	72.19
380.579	107.01
380.789	43.52
380.999	74.24
381.21	66.05
381.42	100.86
381.63	-1.54
381.84	39.42
382.05	109.05
382.261	61.95
382.471	143.87
382.681	94.72
382.891	68.09
383.101	29.18
383.311	123.39
383.521	64
383.731	66.05
383.941	82.43
384.151	143.87
384.361	18.94
384.571	88.57
384.781	59.9
384.991	117.25
385.201	113.15
385.411	76.29
385.621	143.87
385.831	160.25
386.041	59.9
386.251	78.33
386.461	25.09
386.671	66.05
386.881	92.67
387.091	8.7
387.301	78.33
387.511	76.29
387.72	61.95
387.93	64
388.14	66.05
388.35	41.47
388.56	113.15
388.769	121.34
388.979	23.04
389.189	-1.54
389.399	119.29
389.609	16.9
389.818	96.77
390.028	88.57
390.238	98.81
390.447	82.43
390.657	98.81
390.867	68.09
391.076	4.61
391.286	76.29
391.496	125.44
391.705	100.86
391.915	41.47
392.125	119.29
392.334	88.57
392.544	88.57
392.753	123.39
392.963	92.67
393.172	70.14
393.382	70.14
393.591	193.02
393.801	102.91
394.01	139.77
394.22	96.77
394.429	66.05
394.639	68.09
394.848	84.48
395.058	92.67
395.267	135.68
395.477	180.73
395.686	45.57
395.895	156.16
396.105	168.45
396.314	113.15
396.524	100.86
396.733	45.57
396.942	100.86
397.152	90.62
397.361	260.6
397.57	98.81
397.78	113.15
397.989	188.93
398.198	313.85
398.407	96.77
398.617	94.72
398.826	119.29
399.035	109.05
399.244	92.67
399.453	178.69
399.663	170.49
399.872	201.21
400.081	156.16
400.29	197.12
400.499	113.15
400.708	197.12
400.917	137.73
401.127	131.58
401.336	84.48
401.545	178.69
401.754	156.16
401.963	172.54
402.172	156.16
402.381	176.64
402.59	150.01
402.799	221.69
403.008	229.88
403.217	150.01
403.426	107.01
403.635	125.44
403.844	205.31
404.053	274.94
404.262	184.83
404.471	219.64
404.68	256.51
404.888	168.45
405.097	184.83
405.306	164.35
405.515	299.52
405.724	211.45
405.933	317.95
406.142	248.32
406.35	246.27
406.559	193.02
406.768	227.84
406.977	354.81
407.185	348.67
407.394	342.52
407.603	215.55
407.812	346.62
408.02	322.04
408.229	276.99
408.438	315.9
408.646	358.91
408.855	334.33
409.064	358.91
409.272	309.76
409.481	387.58
409.69	356.86
409.898	412.15
410.107	326.14
410.315	475.64
410.524	459.26
410.733	520.7
410.941	547.32
411.15	532.98
411.358	453.11
411.567	596.47
411.775	608.76
411.984	547.32
412.192	635.38
412.401	647.67
412.609	672.25
412.818	655.86
413.026	666.1
413.234	725.49
413.443	727.54
413.651	739.83
413.86	711.16
414.068	870.9
414.276	836.08
414.485	825.84
414.693	907.76
414.901	893.43
415.11	932.34
415.318	997.87
415.526	983.54
415.734	983.54
415.943	1004.02
416.151	1151.47
416.359	1081.84
416.567	1108.46
416.776	1235.44
416.984	1339.88
417.192	1399.27
417.4	1323.5
417.608	1411.56
417.817	1440.23
418.025	1540.58
418.233	1745.38
418.441	1577.45
418.649	1606.12
418.857	1892.84
419.065	1804.77
419.273	1839.59
419.481	1819.11
419.689	2023.91
419.897	2040.29
420.105	2005.47
420.313	2245.09
420.521	2284
420.729	2214.37
420.937	2306.52
421.145	2402.78
421.353	2601.43
421.561	2701.78
421.769	2783.7
421.977	2824.66
422.185	2904.53
422.393	2951.63
422.601	3111.38
422.809	3140.05
423.017	3084.75
423.224	3389.9
423.432	3461.58
423.64	3516.87
423.848	3844.55
424.056	3797.45
424.263	4008.39
424.471	3883.46
424.679	4116.93
424.887	4297.15
425.094	4381.12
425.302	4420.03
425.51	4747.7
425.718	4784.57
425.925	4753.85
426.133	5091.76
426.341	5253.55
426.548	5525.93
426.756	5530.03
426.964	5466.54
427.171	5829.03
427.379	6037.92
427.586	6203.81
427.794	6244.77
428.001	6388.13
428.209	6953.37
428.417	6816.15
428.624	7373.2
428.832	7291.28
429.039	7414.16
429.247	7135.64
429.454	7967.11
429.662	8472.96
429.869	7895.43
430.076	8534.4
430.284	8262.02
430.491	8628.6
430.699	9040.25
430.906	9138.55
431.114	9228.66
431.321	9429.36
431.528	9857.39
431.736	10144.1
431.943	10871.13
432.15	10402.15
432.358	10717.53
432.565	11182.42
432.772	11028.82
432.979	11778.38
433.187	11784.52
433.394	12081.48
433.601	12910.91
433.808	12720.45
434.016	12859.71
434.223	13418.8
434.43	14063.91
434.637	13906.22
434.844	14866.72
435.052	14887.2
435.259	14831.9
435.466	15216.92
435.673	14946.59
435.88	15941.9
436.087	16822.53
436.294	16890.11
436.501	16474.37
436.708	16691.46
436.915	17371.38
437.122	18262.25
437.329	17912.05
437.537	18450.66
437.743	18979.04
437.95	18772.19
438.157	19708.12
438.364	20187.34
438.571	20537.54
438.778	20265.16
438.985	22249.64
439.192	21495.99
439.399	22169.77
439.606	21665.97
439.813	22915.23
440.02	24402.06
440.227	23937.17
440.433	23941.27
440.64	24735.88
440.847	24340.62
441.054	24758.41
441.261	26898.53
441.467	25976.95
441.674	26654.83
441.881	27385.95
442.088	27881.56
442.294	27568.22
442.501	28006.48
442.708	28698.7
442.914	29968.44
443.121	31146.02
443.328	30423.09
443.534	32626.7
443.741	31387.68
443.948	30783.53
444.154	33363.97
444.361	33247.24
444.568	33241.09
444.774	33361.92
444.981	33751.04
445.187	34836.46
445.394	35958.75
445.6	35583.97
445.807	39258.02
446.013	37398.47
446.22	38293.43
446.426	39554.98
446.633	40062.88
446.839	40933.26
447.046	39356.33
447.252	41723.78
447.459	41559.94
447.665	41475.98
447.871	43421.55
448.078	44975.95
448.284	43018.1
448.491	44279.64
448.697	46186.3
448.903	46792.5
449.11	47048.5
449.316	46006.08
449.522	46491.45
449.728	48273.18
449.935	48744.22
450.141	48705.3
450.347	49403.66
450.553	47898.41
450.76	49248.02
450.966	50214.66
451.172	49702.67
451.378	50757.37
451.584	49702.67
451.791	51384.05
451.997	51277.55
452.203	51738.35
452.409	52002.53
452.615	51855.08
452.821	49696.52
453.027	49477.39
453.233	52309.73
453.44	49741.58
453.646	51093.24
453.852	50781.95
454.058	51502.83
454.264	50360.06
454.47	51095.28
454.676	49805.06
454.882	51324.66
455.088	47085.36
455.294	47961.89
455.5	48639.77
455.705	48842.52
455.911	47195.95
456.117	46417.72
456.323	45555.53
456.529	43464.55
456.735	45330.25
456.941	44253.02
457.147	43343.72
457.352	42334.07
457.558	41914.24
457.764	42043.26
457.97	41332.62
458.176	40175.51
458.381	39837.6
458.587	38289.34
458.793	38254.52
458.999	36425.68
459.204	39225.26
459.41	37541.83
459.616	35391.46
459.821	35301.35
460.027	35244.01
460.233	34303.99
460.438	32890.89
460.644	33206.28
460.85	31580.19
461.055	31526.94
461.261	31313.95
461.466	28717.13
461.672	28121.17
461.878	30173.24
462.083	28078.16
462.289	27385.95
462.494	26972.26
462.7	25858.17
462.905	25557.11
463.111	26112.11
463.316	26273.9
463.522	25532.54
463.727	25909.36
463.932	25669.75
464.138	25524.35
464.343	25593.98
464.549	24746.12
464.754	25737.34
464.959	25200.77
465.165	25036.93
465.37	23840.92
465.575	23478.43
465.781	24586.38
465.986	24483.98
466.191	23646.36
466.397	23337.12
466.602	22040.75
