Data from USB4F104151__83__12-42-27-107.txt Node

Date: Fri Mar 14 12:42:27 EDT 2025
User: louis
Spectrometer: USB4F10415
Trigger mode: 4
Integration Time (sec): 3.000000E-2
Scans to average: 1
Electric dark correction enabled: true
Nonlinearity correction enabled: false
Boxcar width: 0
XAxis mode: Wavelengths
Number of Pixels in Spectrum: 3648
>>>>>Begin Spectral Data<<<<<
178.204	-177.32
178.424	-177.32
178.644	-177.32
178.864	-167.08
179.084	-101.55
179.304	15.19
179.524	-15.53
179.744	-27.82
179.964	58.2
180.184	15.19
180.404	29.52
180.624	0.85
180.844	-15.53
181.064	35.67
181.283	-17.58
181.503	-33.96
181.723	-44.2
181.943	-3.24
182.163	82.77
182.383	-9.39
182.602	25.43
182.822	101.2
183.042	144.21
183.262	15.19
183.482	60.24
183.701	-25.77
183.921	82.77
184.141	52.05
184.361	33.62
184.58	-1.19
184.8	39.76
185.02	-17.58
185.239	78.68
185.459	54.1
185.679	80.72
185.898	39.76
186.118	78.68
186.338	45.91
186.557	27.48
186.777	25.43
186.997	29.52
187.216	76.63
187.436	99.16
187.655	54.1
187.875	95.06
188.095	-1.19
188.314	68.44
188.534	52.05
188.753	39.76
188.973	43.86
189.192	99.16
189.412	35.67
189.631	25.43
189.851	-27.82
190.07	127.83
190.29	52.05
190.509	64.34
190.729	52.05
190.948	-5.29
191.168	76.63
191.387	21.33
191.607	29.52
191.826	31.57
192.045	11.09
192.265	-97.45
192.484	-9.39
192.704	31.57
192.923	-36.01
193.142	60.24
193.362	60.24
193.581	21.33
193.8	68.44
194.02	80.72
194.239	45.91
194.458	54.1
194.678	-36.01
194.897	13.14
195.116	11.09
195.335	39.76
195.555	4.95
195.774	-33.96
195.993	21.33
196.212	58.2
196.432	-3.24
196.651	-31.91
196.87	9.05
197.089	109.4
197.308	68.44
197.528	0.85
197.747	45.91
197.966	47.96
198.185	101.2
198.404	-11.43
198.623	41.81
198.842	62.29
199.062	33.62
199.281	45.91
199.5	41.81
199.719	45.91
199.938	64.34
200.157	54.1
200.376	7
200.595	170.83
200.814	93.01
201.033	39.76
201.252	-23.72
201.471	93.01
201.69	93.01
201.909	29.52
202.128	90.96
202.347	52.05
202.566	84.82
202.785	25.43
203.004	-13.48
203.223	74.58
203.442	9.05
203.661	35.67
203.879	70.48
204.098	50
204.317	68.44
204.536	60.24
204.755	64.34
204.974	86.87
205.193	64.34
205.411	142.16
205.63	84.82
205.849	21.33
206.068	19.29
206.287	-50.35
206.505	62.29
206.724	13.14
206.943	41.81
207.162	37.72
207.381	62.29
207.599	47.96
207.818	11.09
208.037	78.68
208.255	50
208.474	-38.06
208.693	45.91
208.911	9.05
209.13	2.9
209.349	54.1
209.567	111.44
209.786	39.76
210.005	39.76
210.223	58.2
210.442	2.9
210.661	-11.43
210.879	-13.48
211.098	29.52
211.316	84.82
211.535	27.48
211.753	11.09
211.972	9.05
212.191	80.72
212.409	37.72
212.628	0.85
212.846	-36.01
213.065	45.91
213.283	35.67
213.502	54.1
213.72	97.11
213.938	58.2
214.157	39.76
214.375	60.24
214.594	37.72
214.812	37.72
215.031	0.85
215.249	31.57
215.467	4.95
215.686	43.86
215.904	62.29
216.122	-1.19
216.341	97.11
216.559	76.63
216.778	123.73
216.996	52.05
217.214	2.9
217.432	13.14
217.651	-15.53
217.869	47.96
218.087	58.2
218.306	-17.58
218.524	74.58
218.742	78.68
218.96	68.44
219.179	-13.48
219.397	37.72
219.615	70.48
219.833	43.86
220.051	-15.53
220.27	115.54
220.488	82.77
220.706	-31.91
220.924	39.76
221.142	58.2
221.36	-29.87
221.578	-3.24
221.796	29.52
222.015	148.31
222.233	154.45
222.451	74.58
222.669	-23.72
222.887	66.39
223.105	23.38
223.323	-42.15
223.541	23.38
223.759	45.91
223.977	58.2
224.195	74.58
224.413	25.43
224.631	56.15
224.849	25.43
225.067	105.3
225.285	-1.19
225.503	43.86
225.721	-11.43
225.939	-9.39
226.157	121.68
226.375	62.29
226.592	35.67
226.81	23.38
227.028	-19.63
227.246	97.11
227.464	41.81
227.682	-13.48
227.9	43.86
228.117	107.35
228.335	101.2
228.553	25.43
228.771	23.38
228.989	125.78
229.206	15.19
229.424	74.58
229.642	-21.67
229.86	-5.29
230.077	31.57
230.295	9.05
230.513	31.57
230.731	52.05
230.948	4.95
231.166	78.68
231.384	-70.83
231.601	45.91
231.819	58.2
232.037	23.38
232.254	-15.53
232.472	-36.01
232.689	7
232.907	17.24
233.125	78.68
233.342	45.91
233.56	-40.11
233.777	97.11
233.995	37.72
234.213	136.02
234.43	21.33
234.648	80.72
234.865	41.81
235.083	50
235.3	21.33
235.518	54.1
235.735	99.16
235.953	66.39
236.17	-60.59
236.388	25.43
236.605	17.24
236.822	68.44
237.04	88.92
237.257	84.82
237.475	-15.53
237.692	52.05
237.909	47.96
238.127	-9.39
238.344	-9.39
238.562	21.33
238.779	17.24
238.996	-13.48
239.214	74.58
239.431	117.59
239.648	31.57
239.865	52.05
240.083	52.05
240.3	50
240.517	52.05
240.735	43.86
240.952	17.24
241.169	45.91
241.386	-15.53
241.603	66.39
241.821	9.05
242.038	50
242.255	27.48
242.472	-40.11
242.689	93.01
242.907	54.1
243.124	-3.24
243.341	-21.67
243.558	-42.15
243.775	31.57
243.992	-119.98
244.209	103.25
244.426	74.58
244.643	43.86
244.86	50
245.078	15.19
245.295	33.62
245.512	35.67
245.729	-19.63
245.946	80.72
246.163	62.29
246.38	7
246.597	33.62
246.814	2.9
247.031	0.85
247.248	23.38
247.464	117.59
247.681	76.63
247.898	64.34
248.115	31.57
248.332	7
248.549	35.67
248.766	107.35
248.983	78.68
249.2	27.48
249.417	33.62
249.633	43.86
249.85	66.39
250.067	25.43
250.284	31.57
250.501	78.68
250.717	-3.24
250.934	17.24
251.151	78.68
251.368	47.96
251.585	-42.15
251.801	-1.19
252.018	-13.48
252.235	35.67
252.451	-11.43
252.668	-13.48
252.885	19.29
253.102	74.58
253.318	58.2
253.535	31.57
253.752	99.16
253.968	54.1
254.185	-21.67
254.401	97.11
254.618	76.63
254.835	45.91
255.051	125.78
255.268	21.33
255.484	97.11
255.701	19.29
255.917	60.24
256.134	0.85
256.351	33.62
256.567	27.48
256.784	60.24
257	-19.63
257.217	109.4
257.433	-3.24
257.65	60.24
257.866	82.77
258.082	86.87
258.299	11.09
258.515	9.05
258.732	-54.44
258.948	43.86
259.165	60.24
259.381	21.33
259.597	107.35
259.814	31.57
260.03	-7.34
260.246	80.72
260.463	9.05
260.679	76.63
260.895	23.38
261.112	111.44
261.328	-40.11
261.544	47.96
261.761	103.25
261.977	33.62
262.193	41.81
262.409	13.14
262.626	82.77
262.842	58.2
263.058	-1.19
263.274	2.9
263.49	78.68
263.707	41.81
263.923	-3.24
264.139	-21.67
264.355	64.34
264.571	115.54
264.787	74.58
265.004	82.77
265.22	80.72
265.436	58.2
265.652	-1.19
265.868	9.05
266.084	-19.63
266.3	11.09
266.516	-11.43
266.732	119.64
266.948	74.58
267.164	66.39
267.38	11.09
267.596	101.2
267.812	144.21
268.028	97.11
268.244	43.86
268.46	41.81
268.676	68.44
268.892	86.87
269.108	23.38
269.324	35.67
269.54	82.77
269.756	115.54
269.972	86.87
270.188	-36.01
270.403	72.53
270.619	39.76
270.835	15.19
271.051	19.29
271.267	74.58
271.483	62.29
271.698	11.09
271.914	99.16
272.13	56.15
272.346	47.96
272.562	97.11
272.777	125.78
272.993	47.96
273.209	56.15
273.425	45.91
273.64	11.09
273.856	80.72
274.072	31.57
274.287	-11.43
274.503	105.3
274.719	33.62
274.934	45.91
275.15	50
275.366	52.05
275.581	60.24
275.797	80.72
276.012	0.85
276.228	54.1
276.444	45.91
276.659	37.72
276.875	21.33
277.09	74.58
277.306	-56.49
277.521	88.92
277.737	66.39
277.952	-23.72
278.168	17.24
278.383	64.34
278.599	-15.53
278.814	93.01
279.03	111.44
279.245	27.48
279.461	35.67
279.676	31.57
279.892	-15.53
280.107	-17.58
280.322	41.81
280.538	84.82
280.753	-38.06
280.969	80.72
281.184	56.15
281.399	39.76
281.615	-5.29
281.83	76.63
282.045	54.1
282.26	27.48
282.476	21.33
282.691	29.52
282.906	43.86
283.122	45.91
283.337	66.39
283.552	50
283.767	41.81
283.983	140.12
284.198	2.9
284.413	117.59
284.628	-5.29
284.843	82.77
285.058	66.39
285.274	33.62
285.489	19.29
285.704	107.35
285.919	-40.11
286.134	17.24
286.349	9.05
286.564	109.4
286.779	142.16
286.995	64.34
287.21	39.76
287.425	33.62
287.64	97.11
287.855	45.91
288.07	-36.01
288.285	84.82
288.5	56.15
288.715	21.33
288.93	-13.48
289.145	17.24
289.36	45.91
289.575	60.24
289.79	107.35
290.004	82.77
290.219	54.1
290.434	19.29
290.649	4.95
290.864	-1.19
291.079	37.72
291.294	17.24
291.509	-23.72
291.724	56.15
291.938	21.33
292.153	35.67
292.368	45.91
292.583	35.67
292.798	97.11
293.012	68.44
293.227	25.43
293.442	19.29
293.657	76.63
293.871	64.34
294.086	23.38
294.301	84.82
294.516	127.83
294.73	9.05
294.945	19.29
295.16	21.33
295.374	39.76
295.589	52.05
295.804	35.67
296.018	2.9
296.233	84.82
296.447	54.1
296.662	-5.29
296.877	72.53
297.091	84.82
297.306	-27.82
297.52	109.4
297.735	62.29
297.949	70.48
298.164	144.21
298.378	35.67
298.593	43.86
298.807	64.34
299.022	29.52
299.236	113.49
299.451	25.43
299.665	4.95
299.88	31.57
300.094	54.1
300.309	66.39
300.523	29.52
300.737	9.05
300.952	47.96
301.166	82.77
301.381	19.29
301.595	56.15
301.809	4.95
302.024	56.15
302.238	47.96
302.452	45.91
302.667	54.1
302.881	90.96
303.095	62.29
303.309	37.72
303.524	0.85
303.738	105.3
303.952	-58.54
304.166	17.24
304.381	66.39
304.595	80.72
304.809	33.62
305.023	9.05
305.237	9.05
305.452	19.29
305.666	0.85
305.88	72.53
306.094	93.01
306.308	80.72
306.522	23.38
306.736	113.49
306.95	13.14
307.164	52.05
307.379	78.68
307.593	72.53
307.807	74.58
308.021	47.96
308.235	52.05
308.449	-1.19
308.663	43.86
308.877	84.82
309.091	-7.34
309.305	64.34
309.519	7
309.733	50
309.947	-27.82
310.161	45.91
310.374	78.68
310.588	181.07
310.802	-17.58
311.016	27.48
311.23	86.87
311.444	47.96
311.658	43.86
311.872	56.15
312.085	80.72
312.299	86.87
312.513	84.82
312.727	7
312.941	15.19
313.154	41.81
313.368	35.67
313.582	29.52
313.796	0.85
314.009	93.01
314.223	101.2
314.437	68.44
314.651	58.2
314.864	54.1
315.078	86.87
315.292	56.15
315.505	86.87
315.719	27.48
315.933	82.77
316.146	60.24
316.36	37.72
316.573	37.72
316.787	37.72
317.001	95.06
317.214	27.48
317.428	37.72
317.641	82.77
317.855	115.54
318.068	70.48
318.282	113.49
318.495	111.44
318.709	23.38
318.922	25.43
319.136	117.59
319.349	54.1
319.563	93.01
319.776	103.25
319.99	-25.77
320.203	125.78
320.417	0.85
320.63	27.48
320.843	99.16
321.057	86.87
321.27	29.52
321.483	54.1
321.697	66.39
321.91	29.52
322.124	15.19
322.337	54.1
322.55	25.43
322.763	43.86
322.977	54.1
323.19	99.16
323.403	72.53
323.617	43.86
323.83	90.96
324.043	33.62
324.256	27.48
324.469	72.53
324.683	88.92
324.896	99.16
325.109	37.72
325.322	11.09
325.535	45.91
325.748	37.72
325.962	19.29
326.175	66.39
326.388	95.06
326.601	125.78
326.814	21.33
327.027	72.53
327.24	62.29
327.453	27.48
327.666	-17.58
327.879	66.39
328.092	13.14
328.305	29.52
328.518	109.4
328.731	29.52
328.944	68.44
329.157	25.43
329.37	138.07
329.583	121.68
329.796	103.25
330.009	90.96
330.222	117.59
330.435	93.01
330.648	25.43
330.861	0.85
331.073	17.24
331.286	50
331.499	162.64
331.712	13.14
331.925	68.44
332.138	66.39
332.35	111.44
332.563	31.57
332.776	103.25
332.989	-1.19
333.202	43.86
333.414	-46.25
333.627	43.86
333.84	-13.48
334.053	62.29
334.265	58.2
334.478	-33.96
334.691	52.05
334.903	111.44
335.116	68.44
335.329	31.57
335.541	35.67
335.754	47.96
335.966	21.33
336.179	52.05
336.392	21.33
336.604	62.29
336.817	64.34
337.029	-15.53
337.242	68.44
337.454	154.45
337.667	43.86
337.88	133.97
338.092	103.25
338.305	21.33
338.517	58.2
338.729	144.21
338.942	58.2
339.154	-56.49
339.367	27.48
339.579	82.77
339.792	-48.3
340.004	64.34
340.217	35.67
340.429	11.09
340.641	58.2
340.854	23.38
341.066	72.53
341.278	101.2
341.491	97.11
341.703	119.64
341.915	25.43
342.128	52.05
342.34	58.2
342.552	31.57
342.764	107.35
342.977	9.05
343.189	47.96
343.401	45.91
343.613	-3.24
343.826	66.39
344.038	-42.15
344.25	66.39
344.462	33.62
344.674	84.82
344.886	58.2
345.099	76.63
345.311	103.25
345.523	88.92
345.735	33.62
345.947	68.44
346.159	27.48
346.371	15.19
346.583	17.24
346.795	72.53
347.007	21.33
347.219	19.29
347.431	11.09
347.643	86.87
347.855	19.29
348.067	43.86
348.279	27.48
348.491	50
348.703	41.81
348.915	33.62
349.127	146.26
349.339	33.62
349.551	105.3
349.763	125.78
349.975	62.29
350.187	107.35
350.399	95.06
350.61	99.16
350.822	21.33
351.034	76.63
351.246	29.52
351.458	2.9
351.669	41.81
351.881	62.29
352.093	113.49
352.305	113.49
352.517	50
352.728	117.59
352.94	37.72
353.152	88.92
353.363	7
353.575	93.01
353.787	127.83
353.999	50
354.21	82.77
354.422	123.73
354.633	31.57
354.845	88.92
355.057	-3.24
355.268	39.76
355.48	95.06
355.692	43.86
355.903	50
356.115	88.92
356.326	9.05
356.538	97.11
356.749	52.05
356.961	62.29
357.172	62.29
357.384	2.9
357.595	119.64
357.807	2.9
358.018	15.19
358.23	84.82
358.441	123.73
358.653	125.78
358.864	56.15
359.075	60.24
359.287	9.05
359.498	121.68
359.709	78.68
359.921	72.53
360.132	129.88
360.344	113.49
360.555	82.77
360.766	113.49
360.977	80.72
361.189	170.83
361.4	47.96
361.611	115.54
361.823	129.88
362.034	129.88
362.245	-27.82
362.456	35.67
362.667	86.87
362.879	109.4
363.09	43.86
363.301	19.29
363.512	31.57
363.723	84.82
363.935	9.05
364.146	74.58
364.357	64.34
364.568	-15.53
364.779	23.38
364.99	140.12
365.201	72.53
365.412	72.53
365.623	19.29
365.834	68.44
366.045	84.82
366.256	27.48
366.467	86.87
366.678	117.59
366.889	76.63
367.1	68.44
367.311	84.82
367.522	-21.67
367.733	9.05
367.944	162.64
368.155	27.48
368.366	88.92
368.577	41.81
368.788	37.72
368.999	35.67
369.209	41.81
369.42	105.3
369.631	72.53
369.842	90.96
370.053	103.25
370.264	74.58
370.474	138.07
370.685	54.1
370.896	45.91
371.107	78.68
371.317	158.55
371.528	80.72
371.739	82.77
371.95	-1.19
372.16	33.62
372.371	27.48
372.582	13.14
372.792	99.16
373.003	23.38
373.214	66.39
373.424	156.5
373.635	15.19
373.846	97.11
374.056	121.68
374.267	70.48
374.477	50
374.688	-3.24
374.898	86.87
375.109	66.39
375.319	35.67
375.53	54.1
375.74	70.48
375.951	52.05
376.161	109.4
376.372	60.24
376.582	45.91
376.793	68.44
377.003	47.96
377.214	50
377.424	70.48
377.635	29.52
377.845	0.85
378.055	60.24
378.266	70.48
378.476	95.06
378.686	23.38
378.897	74.58
379.107	105.3
379.317	99.16
379.528	70.48
379.738	74.58
379.948	37.72
380.158	84.82
380.369	101.2
380.579	107.35
380.789	66.39
380.999	123.73
381.21	23.38
381.42	99.16
381.63	146.26
381.84	90.96
382.05	50
382.261	21.33
382.471	68.44
382.681	109.4
382.891	131.92
383.101	52.05
383.311	93.01
383.521	52.05
383.731	31.57
383.941	93.01
384.151	66.39
384.361	66.39
384.571	84.82
384.781	52.05
384.991	80.72
385.201	93.01
385.411	54.1
385.621	150.36
385.831	76.63
386.041	60.24
386.251	99.16
386.461	103.25
386.671	47.96
386.881	115.54
387.091	86.87
387.301	101.2
387.511	47.96
387.72	31.57
387.93	113.49
388.14	70.48
388.35	103.25
388.56	117.59
388.769	60.24
388.979	95.06
389.189	107.35
389.399	150.36
389.609	113.49
389.818	119.64
390.028	62.29
390.238	150.36
390.447	70.48
390.657	76.63
390.867	125.78
391.076	52.05
391.286	52.05
391.496	60.24
391.705	66.39
391.915	115.54
392.125	131.92
392.334	47.96
392.544	99.16
392.753	123.73
392.963	105.3
393.172	172.88
393.382	47.96
393.591	152.4
393.801	156.5
394.01	115.54
394.22	127.83
394.429	95.06
394.639	50
394.848	133.97
395.058	123.73
395.267	62.29
395.477	13.14
395.686	103.25
395.895	113.49
396.105	228.18
396.314	101.2
396.524	27.48
396.733	62.29
396.942	154.45
397.152	205.65
397.361	152.4
397.57	170.83
397.78	146.26
397.989	103.25
398.198	170.83
398.407	97.11
398.617	129.88
398.826	115.54
399.035	179.03
399.244	203.6
399.453	133.97
399.663	88.92
399.872	191.31
400.081	234.32
400.29	187.22
400.499	125.78
400.708	174.93
400.917	140.12
401.127	111.44
401.336	162.64
401.545	174.93
401.754	109.4
401.963	174.93
402.172	164.69
402.381	228.18
402.59	138.07
402.799	228.18
403.008	217.94
403.217	150.36
403.426	148.31
403.635	117.59
403.844	205.65
404.053	226.13
404.262	197.46
404.471	203.6
404.68	219.99
404.888	209.75
405.097	215.89
405.306	162.64
405.515	252.75
405.724	250.71
405.933	197.46
406.142	215.89
406.35	203.6
406.559	230.23
406.768	256.85
406.977	361.3
407.185	271.19
407.394	349.01
407.603	236.37
407.812	242.51
408.02	330.58
408.229	318.29
408.438	314.19
408.646	328.53
408.855	353.1
409.064	316.24
409.272	316.24
409.481	443.21
409.69	418.64
409.898	379.73
410.107	437.07
410.315	385.87
410.524	482.13
410.733	475.98
410.941	516.94
411.15	504.65
411.358	537.42
411.567	545.61
411.775	572.24
411.984	605
412.192	605
412.401	697.16
412.609	584.52
412.818	637.77
413.026	705.35
413.234	758.6
413.443	777.03
413.651	811.85
413.86	752.46
414.068	815.94
414.276	887.62
414.485	820.04
414.693	906.06
414.901	887.62
415.11	1039.17
415.318	998.21
415.526	955.21
415.734	1055.56
415.943	1090.37
416.151	1205.06
416.359	1192.77
416.567	1178.44
416.776	1272.64
416.984	1352.51
417.192	1370.94
417.4	1284.93
417.608	1368.9
417.817	1479.49
418.025	1635.13
418.233	1610.56
418.441	1532.73
418.649	1606.46
418.857	1790.78
419.065	1821.5
419.273	1694.52
419.481	1889.08
419.689	2009.91
419.897	2038.58
420.105	2104.12
420.313	2218.8
420.521	2245.43
420.729	2292.53
420.937	2419.5
421.145	2399.02
421.353	2550.57
421.561	2818.86
421.769	2706.22
421.977	2841.39
422.185	2847.53
422.393	3083.05
422.601	3261.22
422.809	3138.34
423.017	3277.6
423.224	3310.37
423.432	3502.88
423.64	3480.35
423.848	3863.32
424.056	3717.92
424.263	4074.26
424.471	3969.82
424.679	3994.39
424.887	4373.27
425.094	4391.7
425.302	4541.2
425.51	4700.94
425.718	4645.65
425.925	4868.88
426.133	4942.6
426.341	5303.04
426.548	5479.17
426.756	5495.55
426.964	5649.15
427.171	5796.6
427.379	5946.11
427.586	6038.27
427.794	6230.77
428.001	6441.72
428.209	6836.97
428.417	6832.88
428.624	7361.25
428.832	7377.64
429.039	7291.62
429.247	7197.42
429.454	8039.13
429.662	8356.57
429.869	7951.07
430.076	8557.27
430.284	8295.13
430.491	8645.33
430.699	9067.21
430.906	8880.85
431.114	9167.56
431.321	9536.2
431.528	9802.43
431.736	10171.07
431.943	10830.51
432.15	10607.28
432.358	10650.29
432.565	11233.96
432.772	11182.76
432.979	11643.56
433.187	11963.04
433.394	12028.57
433.601	12771.99
433.808	12853.91
434.016	12812.95
434.223	13410.95
434.43	14174.85
434.637	13980.29
434.844	14789.24
435.052	14967.41
435.259	14899.83
435.466	14977.65
435.673	14920.31
435.88	15905.38
436.087	16747.09
436.294	17005.14
436.501	16054.88
436.708	16736.85
436.915	17553.99
437.122	17969.73
437.329	17871.43
437.537	18487.87
437.743	19051.06
437.95	18551.35
438.157	19624.49
438.364	20521.5
438.571	20468.25
438.778	20447.77
438.985	22252.03
439.192	21520.91
439.399	22176.26
439.606	21381.65
439.813	23175.67
440.02	24234.47
440.227	23706.09
440.433	23646.7
440.64	24381.92
440.847	24144.36
441.054	24693.21
441.261	26497.47
441.467	26325.44
441.674	26773.95
441.881	27619.76
442.088	27840.94
442.294	27367.86
442.501	28129.7
442.708	28658.08
442.914	29751.7
443.121	30857.6
443.328	30290.31
443.534	32258.41
443.741	31455.61
443.948	31234.42
444.154	33339.74
444.361	32928.09
444.568	33184.09
444.774	33196.38
444.981	33784.15
445.187	34404.68
445.394	36002.1
445.6	35844.4
445.807	38738.18
446.013	37361.95
446.22	37927.19
446.426	39635.19
446.633	39856.37
446.839	41404.64
447.046	39745.78
447.252	41769.18
447.459	41847
447.665	41634.01
447.871	43782.33
448.078	45297.83
448.284	43194.56
448.491	44005.56
448.697	46069.91
448.903	46678.16
449.11	46901.39
449.316	46200.98
449.522	47071.37
449.728	48390.26
449.935	48371.83
450.141	48369.78
450.347	49672.29
450.553	47986.81
450.76	48502.9
450.966	50221.14
451.172	49916
451.378	50870.35
451.584	49508.45
451.791	51042.38
451.997	51374.15
452.203	51970.11
452.409	51875.9
452.615	51941.44
452.821	50002.01
453.027	49309.8
453.233	51730.5
453.44	50344.02
453.646	50401.36
453.852	50751.57
454.058	51570.75
454.264	50124.89
454.47	51130.44
454.676	49793.12
454.882	51628.1
455.088	47179.91
455.294	47597.7
455.5	48679.02
455.705	49266.79
455.911	47306.88
456.117	46426.26
456.323	45531.29
456.529	43612.35
456.735	45254.82
456.941	44107.96
457.147	43475.13
457.352	42342.61
457.558	41445.6
457.764	41951.45
457.97	40734.95
458.176	40204.53
458.381	40007.92
458.587	38273.29
458.793	38338.83
458.999	36325.68
459.204	38832.39
459.41	37812.5
459.616	35459.38
459.821	35510.58
460.027	35238.2
460.233	34515.27
460.438	32770.4
460.644	33343.83
460.85	31379.83
461.055	31097.21
461.261	31232.38
461.466	28930.46
461.672	27877.8
461.878	30171.53
462.083	27877.8
462.289	27335.09
462.494	26964.41
462.7	26145.22
462.905	25045.46
463.111	26081.74
463.316	26421.7
463.522	25549.26
463.727	25917.9
463.932	25749.96
464.138	25364.95
464.343	25393.62
464.549	24572.38
464.754	25328.08
464.959	25446.87
465.165	25264.6
465.37	24326.63
465.575	23382.51
465.781	24543.71
465.986	24570.33
466.191	23486.96
466.397	23048.69
466.602	22172.16
466.807	22915.58
467.012	23052.79
467.218	22768.12
467.423	22645.24
