Data from USB4F104151__79__12-42-25-487.txt Node

Date: Fri Mar 14 12:42:25 EDT 2025
User: louis
Spectrometer: USB4F10415
Trigger mode: 4
Integration Time (sec): 3.000000E-2
Scans to average: 1
Electric dark correction enabled: true
Nonlinearity correction enabled: false
Boxcar width: 0
XAxis mode: Wavelengths
Number of Pixels in Spectrum: 3648
>>>>>Begin Spectral Data<<<<<
178.204	-171.86
178.424	-171.86
178.644	-171.86
178.864	-85.84
179.084	-137.04
179.304	49.32
179.524	-3.93
179.744	-36.69
179.964	43.18
180.184	-38.74
180.404	0.17
180.624	37.03
180.844	22.7
181.064	-14.17
181.283	-30.55
181.503	-24.4
181.723	-3.93
181.943	-71.51
182.163	63.66
182.383	43.18
182.602	-12.12
182.822	41.13
183.042	8.36
183.262	12.46
183.482	-20.31
183.701	80.04
183.921	127.14
184.141	32.94
184.361	34.99
184.58	10.41
184.8	12.46
185.02	-48.98
185.239	4.27
185.459	-12.12
185.679	18.6
185.898	37.03
186.118	37.03
186.338	96.43
186.557	43.18
186.777	24.75
186.997	39.08
187.216	28.84
187.436	129.19
187.655	18.6
187.875	77.99
188.095	34.99
188.314	59.56
188.534	71.85
188.753	-12.12
188.973	32.94
189.192	71.85
189.412	80.04
189.631	75.95
189.851	-30.55
190.07	102.57
190.29	10.41
190.509	18.6
190.729	18.6
190.948	-3.93
191.168	168.1
191.387	131.24
191.607	37.03
191.826	18.6
192.045	34.99
192.265	43.18
192.484	-24.4
192.704	96.43
192.923	22.7
193.142	166.06
193.362	80.04
193.581	63.66
193.8	47.27
194.02	55.47
194.239	55.47
194.458	106.67
194.678	90.28
194.897	84.14
195.116	61.61
195.335	24.75
195.555	24.75
195.774	24.75
195.993	18.6
196.212	32.94
196.432	-10.07
196.651	-38.74
196.87	-8.02
197.089	69.8
197.308	12.46
197.528	22.7
197.747	-24.4
197.966	80.04
198.185	12.46
198.404	20.65
198.623	53.42
198.842	104.62
199.062	26.79
199.281	112.81
199.5	39.08
199.719	45.23
199.938	18.6
200.157	49.32
200.376	77.99
200.595	73.9
200.814	47.27
201.033	-22.36
201.252	22.7
201.471	-8.02
201.69	84.14
201.909	8.36
202.128	2.22
202.347	49.32
202.566	-14.17
202.785	41.13
203.004	22.7
203.223	84.14
203.442	34.99
203.661	2.22
203.879	-20.31
204.098	57.51
204.317	-38.74
204.536	28.84
204.755	34.99
204.974	28.84
205.193	80.04
205.411	51.37
205.63	75.95
205.849	4.27
206.068	49.32
206.287	24.75
206.505	57.51
206.724	59.56
206.943	6.31
207.162	90.28
207.381	104.62
207.599	-34.64
207.818	92.33
208.037	4.27
208.255	51.37
208.474	32.94
208.693	30.89
208.911	80.04
209.13	69.8
209.349	75.95
209.567	69.8
209.786	73.9
210.005	102.57
210.223	10.41
210.442	51.37
210.661	49.32
210.879	-12.12
211.098	47.27
211.316	28.84
211.535	75.95
211.753	-61.27
211.972	69.8
212.191	-20.31
212.409	41.13
212.628	96.43
212.846	18.6
213.065	22.7
213.283	108.71
213.502	24.75
213.72	4.27
213.938	-42.84
214.157	-40.79
214.375	43.18
214.594	82.09
214.812	145.58
215.031	41.13
215.249	28.84
215.467	16.55
215.686	96.43
215.904	92.33
216.122	84.14
216.341	57.51
216.559	118.95
216.778	49.32
216.996	84.14
217.214	22.7
217.432	10.41
217.651	63.66
217.869	26.79
218.087	45.23
218.306	61.61
218.524	86.19
218.742	75.95
218.96	94.38
219.179	47.27
219.397	47.27
219.615	53.42
219.833	51.37
220.051	-22.36
220.27	4.27
220.488	18.6
220.706	-18.26
220.924	80.04
221.142	-14.17
221.36	57.51
221.578	84.14
221.796	22.7
222.015	59.56
222.233	2.22
222.451	41.13
222.669	92.33
222.887	32.94
223.105	34.99
223.323	8.36
223.541	-8.02
223.759	94.38
223.977	32.94
224.195	28.84
224.413	-1.88
224.631	73.9
224.849	20.65
225.067	26.79
225.285	16.55
225.503	34.99
225.721	59.56
225.939	69.8
226.157	131.24
226.375	164.01
226.592	-1.88
226.81	77.99
227.028	100.52
227.246	133.29
227.464	51.37
227.682	59.56
227.9	-22.36
228.117	61.61
228.335	125.1
228.553	-26.45
228.771	67.75
228.989	30.89
229.206	-14.17
229.424	14.51
229.642	18.6
229.86	30.89
230.077	14.51
230.295	34.99
230.513	121
230.731	100.52
230.948	53.42
231.166	73.9
231.384	-14.17
231.601	18.6
231.819	51.37
232.037	-38.74
232.254	37.03
232.472	98.47
232.689	8.36
232.907	30.89
233.125	110.76
233.342	59.56
233.56	26.79
233.777	34.99
233.995	45.23
234.213	26.79
234.43	-24.4
234.648	47.27
234.865	73.9
235.083	94.38
235.3	51.37
235.518	63.66
235.735	65.71
235.953	34.99
236.17	41.13
236.388	39.08
236.605	51.37
236.822	16.55
237.04	51.37
237.257	75.95
237.475	-14.17
237.692	22.7
237.909	22.7
238.127	-20.31
238.344	53.42
238.562	14.51
238.779	18.6
238.996	-20.31
239.214	45.23
239.431	71.85
239.648	88.23
239.865	4.27
240.083	32.94
240.3	47.27
240.517	90.28
240.735	90.28
240.952	65.71
241.169	53.42
241.386	20.65
241.603	28.84
241.821	49.32
242.038	110.76
242.255	55.47
242.472	37.03
242.689	32.94
242.907	71.85
243.124	82.09
243.341	28.84
243.558	8.36
243.775	55.47
243.992	6.31
244.209	55.47
244.426	80.04
244.643	51.37
244.86	37.03
245.078	-36.69
245.295	102.57
245.512	4.27
245.729	2.22
245.946	41.13
246.163	100.52
246.38	75.95
246.597	86.19
246.814	61.61
247.031	22.7
247.248	30.89
247.464	6.31
247.681	59.56
247.898	39.08
248.115	114.86
248.332	-53.08
248.549	98.47
248.766	112.81
248.983	59.56
249.2	129.19
249.417	84.14
249.633	-16.21
249.85	53.42
250.067	28.84
250.284	51.37
250.501	37.03
250.717	10.41
250.934	34.99
251.151	26.79
251.368	65.71
251.585	92.33
251.801	63.66
252.018	20.65
252.235	51.37
252.451	-40.79
252.668	0.17
252.885	-10.07
253.102	43.18
253.318	4.27
253.535	45.23
253.752	57.51
253.968	49.32
254.185	24.75
254.401	45.23
254.618	102.57
254.835	14.51
255.051	67.75
255.268	-5.97
255.484	-3.93
255.701	-55.12
255.917	34.99
256.134	12.46
256.351	57.51
256.567	-8.02
256.784	41.13
257	75.95
257.217	96.43
257.433	30.89
257.65	92.33
257.866	53.42
258.082	63.66
258.299	4.27
258.515	-10.07
258.732	-5.97
258.948	4.27
259.165	26.79
259.381	-26.45
259.597	63.66
259.814	39.08
260.03	-10.07
260.246	-34.64
260.463	61.61
260.679	26.79
260.895	20.65
261.112	30.89
261.328	10.41
261.544	-16.21
261.761	80.04
261.977	43.18
262.193	80.04
262.409	57.51
262.626	41.13
262.842	104.62
263.058	-22.36
263.274	20.65
263.49	22.7
263.707	45.23
263.923	86.19
264.139	-16.21
264.355	67.75
264.571	125.1
264.787	0.17
265.004	47.27
265.22	26.79
265.436	43.18
265.652	69.8
265.868	-1.88
266.084	41.13
266.3	26.79
266.516	28.84
266.732	18.6
266.948	37.03
267.164	-34.64
267.38	24.75
267.596	30.89
267.812	41.13
268.028	-8.02
268.244	-46.93
268.46	-3.93
268.676	65.71
268.892	41.13
269.108	24.75
269.324	8.36
269.54	49.32
269.756	57.51
269.972	-10.07
270.188	47.27
270.403	26.79
270.619	-38.74
270.835	24.75
271.051	69.8
271.267	-16.21
271.483	24.75
271.698	53.42
271.914	69.8
272.13	-51.03
272.346	12.46
272.562	8.36
272.777	84.14
272.993	-34.64
273.209	22.7
273.425	55.47
273.64	34.99
273.856	143.53
274.072	73.9
274.287	8.36
274.503	47.27
274.719	104.62
274.934	14.51
275.15	20.65
275.366	84.14
275.581	43.18
275.797	39.08
276.012	100.52
276.228	20.65
276.444	51.37
276.659	24.75
276.875	0.17
277.09	59.56
277.306	-46.93
277.521	45.23
277.737	-10.07
277.952	77.99
278.168	47.27
278.383	24.75
278.599	86.19
278.814	49.32
279.03	-18.26
279.245	49.32
279.461	34.99
279.676	116.9
279.892	24.75
280.107	24.75
280.322	6.31
280.538	28.84
280.753	22.7
280.969	102.57
281.184	47.27
281.399	157.86
281.615	2.22
281.83	6.31
282.045	-12.12
282.26	20.65
282.476	26.79
282.691	73.9
282.906	-3.93
283.122	104.62
283.337	34.99
283.552	125.1
283.767	4.27
283.983	-18.26
284.198	47.27
284.413	75.95
284.628	28.84
284.843	90.28
285.058	86.19
285.274	24.75
285.489	37.03
285.704	145.58
285.919	41.13
286.134	22.7
286.349	34.99
286.564	-10.07
286.779	53.42
286.995	-1.88
287.21	-51.03
287.425	92.33
287.64	34.99
287.855	53.42
288.07	-12.12
288.285	30.89
288.5	18.6
288.715	37.03
288.93	28.84
289.145	-63.32
289.36	112.81
289.575	53.42
289.79	53.42
290.004	28.84
290.219	112.81
290.434	-10.07
290.649	16.55
290.864	100.52
291.079	61.61
291.294	32.94
291.509	-18.26
291.724	77.99
291.938	43.18
292.153	41.13
292.368	16.55
292.583	82.09
292.798	96.43
293.012	133.29
293.227	-14.17
293.442	26.79
293.657	0.17
293.871	94.38
294.086	-16.21
294.301	108.71
294.516	69.8
294.73	86.19
294.945	2.22
295.16	-1.88
295.374	51.37
295.589	41.13
295.804	34.99
296.018	30.89
296.233	82.09
296.447	57.51
296.662	16.55
296.877	41.13
297.091	125.1
297.306	34.99
297.52	75.95
297.735	51.37
297.949	-42.84
298.164	63.66
298.378	80.04
298.593	43.18
298.807	34.99
299.022	28.84
299.236	65.71
299.451	41.13
299.665	-3.93
299.88	26.79
300.094	71.85
300.309	92.33
300.523	114.86
300.737	6.31
300.952	10.41
301.166	18.6
301.381	37.03
301.595	32.94
301.809	45.23
302.024	69.8
302.238	-42.84
302.452	55.47
302.667	16.55
302.881	94.38
303.095	12.46
303.309	34.99
303.524	73.9
303.738	-3.93
303.952	37.03
304.166	80.04
304.381	2.22
304.595	57.51
304.809	39.08
305.023	45.23
305.237	14.51
305.452	8.36
305.666	16.55
305.88	53.42
306.094	106.67
306.308	20.65
306.522	90.28
306.736	114.86
306.95	61.61
307.164	80.04
307.379	45.23
307.593	121
307.807	34.99
308.021	108.71
308.235	112.81
308.449	-1.88
308.663	-5.97
308.877	49.32
309.091	4.27
309.305	86.19
309.519	47.27
309.733	108.71
309.947	-12.12
310.161	75.95
310.374	80.04
310.588	149.67
310.802	41.13
311.016	53.42
311.23	16.55
311.444	32.94
311.658	53.42
311.872	43.18
312.085	77.99
312.299	28.84
312.513	26.79
312.727	80.04
312.941	-20.31
313.154	73.9
313.368	125.1
313.582	96.43
313.796	59.56
314.009	45.23
314.223	92.33
314.437	34.99
314.651	16.55
314.864	69.8
315.078	30.89
315.292	16.55
315.505	94.38
315.719	90.28
315.933	39.08
316.146	-1.88
316.36	26.79
316.573	77.99
316.787	55.47
317.001	135.34
317.214	59.56
317.428	65.71
317.641	-34.64
317.855	8.36
318.068	37.03
318.282	116.9
318.495	28.84
318.709	57.51
318.922	28.84
319.136	65.71
319.349	37.03
319.563	86.19
319.776	106.67
319.99	2.22
320.203	88.23
320.417	55.47
320.63	41.13
320.843	75.95
321.057	112.81
321.27	77.99
321.483	6.31
321.697	98.47
321.91	-3.93
322.124	88.23
322.337	86.19
322.55	-38.74
322.763	41.13
322.977	10.41
323.19	43.18
323.403	108.71
323.617	47.27
323.83	73.9
324.043	4.27
324.256	53.42
324.469	-63.32
324.683	51.37
324.896	24.75
325.109	53.42
325.322	77.99
325.535	49.32
325.748	57.51
325.962	51.37
326.175	77.99
326.388	116.9
326.601	39.08
326.814	86.19
327.027	84.14
327.24	84.14
327.453	12.46
327.666	57.51
327.879	32.94
328.092	82.09
328.305	37.03
328.518	-20.31
328.731	10.41
328.944	2.22
329.157	57.51
329.37	61.61
329.583	30.89
329.796	116.9
330.009	69.8
330.222	20.65
330.435	37.03
330.648	71.85
330.861	92.33
331.073	43.18
331.286	143.53
331.499	86.19
331.712	32.94
331.925	-8.02
332.138	84.14
332.35	73.9
332.563	71.85
332.776	86.19
332.989	47.27
333.202	28.84
333.414	49.32
333.627	22.7
333.84	41.13
334.053	106.67
334.265	73.9
334.478	102.57
334.691	84.14
334.903	30.89
335.116	75.95
335.329	80.04
335.541	100.52
335.754	112.81
335.966	32.94
336.179	57.51
336.392	61.61
336.604	49.32
336.817	39.08
337.029	45.23
337.242	10.41
337.454	73.9
337.667	61.61
337.88	82.09
338.092	28.84
338.305	65.71
338.517	-12.12
338.729	164.01
338.942	59.56
339.154	45.23
339.367	14.51
339.579	34.99
339.792	24.75
340.004	51.37
340.217	59.56
340.429	-1.88
340.641	37.03
340.854	45.23
341.066	18.6
341.278	82.09
341.491	98.47
341.703	75.95
341.915	-5.97
342.128	41.13
342.34	51.37
342.552	-22.36
342.764	65.71
342.977	82.09
343.189	37.03
343.401	141.48
343.613	32.94
343.826	104.62
344.038	16.55
344.25	80.04
344.462	43.18
344.674	71.85
344.886	55.47
345.099	61.61
345.311	14.51
345.523	34.99
345.735	2.22
345.947	-10.07
346.159	51.37
346.371	-40.79
346.583	-40.79
346.795	43.18
347.007	61.61
347.219	43.18
347.431	26.79
347.643	139.43
347.855	32.94
348.067	98.47
348.279	34.99
348.491	51.37
348.703	67.75
348.915	125.1
349.127	-28.5
349.339	98.47
349.551	32.94
349.763	96.43
349.975	77.99
350.187	84.14
350.399	92.33
350.61	51.37
350.822	49.32
351.034	45.23
351.246	41.13
351.458	137.38
351.669	61.61
351.881	55.47
352.093	116.9
352.305	86.19
352.517	55.47
352.728	94.38
352.94	108.71
353.152	32.94
353.363	8.36
353.575	84.14
353.787	90.28
353.999	182.44
354.21	135.34
354.422	69.8
354.633	26.79
354.845	92.33
355.057	43.18
355.268	88.23
355.48	94.38
355.692	30.89
355.903	-14.17
356.115	63.66
356.326	-5.97
356.538	84.14
356.749	53.42
356.961	65.71
357.172	65.71
357.384	45.23
357.595	98.47
357.807	75.95
358.018	8.36
358.23	102.57
358.441	61.61
358.653	73.9
358.864	61.61
359.075	84.14
359.287	37.03
359.498	131.24
359.709	65.71
359.921	67.75
360.132	77.99
360.344	100.52
360.555	32.94
360.766	28.84
360.977	98.47
361.189	80.04
361.4	22.7
361.611	45.23
361.823	75.95
362.034	45.23
362.245	57.51
362.456	6.31
362.667	63.66
362.879	59.56
363.09	37.03
363.301	86.19
363.512	143.53
363.723	0.17
363.935	-42.84
364.146	100.52
364.357	82.09
364.568	121
364.779	16.55
364.99	34.99
365.201	47.27
365.412	112.81
365.623	20.65
365.834	75.95
366.045	28.84
366.256	96.43
366.467	86.19
366.678	41.13
366.889	43.18
367.1	0.17
367.311	90.28
367.522	94.38
367.733	53.42
367.944	39.08
368.155	0.17
368.366	86.19
368.577	141.48
368.788	102.57
368.999	98.47
369.209	65.71
369.42	108.71
369.631	141.48
369.842	123.05
370.053	73.9
370.264	71.85
370.474	63.66
370.685	22.7
370.896	24.75
371.107	80.04
371.317	47.27
371.528	2.22
371.739	131.24
371.95	39.08
372.16	112.81
372.371	69.8
372.582	14.51
372.792	32.94
373.003	71.85
373.214	34.99
373.424	84.14
373.635	24.75
373.846	82.09
374.056	108.71
374.267	131.24
374.477	88.23
374.688	123.05
374.898	16.55
375.109	98.47
375.319	43.18
375.53	133.29
375.74	51.37
375.951	18.6
376.161	127.14
376.372	133.29
376.582	82.09
376.793	-3.93
377.003	82.09
377.214	63.66
377.424	75.95
377.635	133.29
377.845	28.84
378.055	71.85
378.266	59.56
378.476	118.95
378.686	100.52
378.897	57.51
379.107	145.58
379.317	28.84
379.528	59.56
379.738	82.09
379.948	-30.55
380.158	16.55
380.369	49.32
380.579	84.14
380.789	26.79
380.999	32.94
381.21	133.29
381.42	151.72
381.63	32.94
381.84	112.81
382.05	131.24
382.261	125.1
382.471	98.47
382.681	118.95
382.891	110.76
383.101	69.8
383.311	65.71
383.521	32.94
383.731	71.85
383.941	108.71
384.151	49.32
384.361	127.14
384.571	34.99
384.781	143.53
384.991	116.9
385.201	59.56
385.411	71.85
385.621	104.62
385.831	84.14
386.041	67.75
386.251	16.55
386.461	65.71
386.671	47.27
386.881	61.61
387.091	98.47
387.301	143.53
387.511	88.23
387.72	67.75
387.93	73.9
388.14	39.08
388.35	106.67
388.56	65.71
388.769	118.95
388.979	37.03
389.189	49.32
389.399	77.99
389.609	80.04
389.818	61.61
390.028	16.55
390.238	69.8
390.447	90.28
390.657	116.9
390.867	112.81
391.076	118.95
391.286	133.29
391.496	116.9
391.705	174.25
391.915	96.43
392.125	178.34
392.334	131.24
392.544	73.9
392.753	57.51
392.963	65.71
393.172	204.97
393.382	104.62
393.591	116.9
393.801	88.23
394.01	182.44
394.22	121
394.429	129.19
394.639	129.19
394.848	159.91
395.058	110.76
395.267	135.34
395.477	190.63
395.686	114.86
395.895	192.68
396.105	161.96
396.314	143.53
396.524	92.33
396.733	57.51
396.942	121
397.152	170.15
397.361	92.33
397.57	176.3
397.78	143.53
397.989	141.48
398.198	166.06
398.407	114.86
398.617	166.06
398.826	118.95
399.035	131.24
399.244	147.62
399.453	108.71
399.663	166.06
399.872	204.97
400.081	164.01
400.29	164.01
400.499	110.76
400.708	110.76
400.917	114.86
401.127	153.77
401.336	98.47
401.545	182.44
401.754	194.73
401.963	225.45
402.172	69.8
402.381	141.48
402.59	125.1
402.799	176.3
403.008	219.3
403.217	145.58
403.426	176.3
403.635	151.72
403.844	213.16
404.053	217.26
404.262	196.78
404.471	272.55
404.68	280.74
404.888	198.82
405.097	247.97
405.306	194.73
405.515	223.4
405.724	237.74
405.933	280.74
406.142	202.92
406.35	247.97
406.559	270.5
406.768	262.31
406.977	317.61
407.185	243.88
407.394	211.11
407.603	288.93
407.812	338.09
408.02	301.22
408.229	303.27
408.438	331.94
408.646	305.32
408.855	352.42
409.064	401.57
409.272	401.57
409.481	401.57
409.69	397.48
409.898	440.48
410.107	352.42
410.315	444.58
410.524	454.82
410.733	506.02
410.941	458.92
411.15	501.92
411.358	477.35
411.567	563.36
411.775	532.64
411.984	602.27
412.192	589.99
412.401	598.18
412.609	653.47
412.818	696.48
413.026	755.87
413.234	544.93
413.443	614.56
413.651	825.5
413.86	743.58
414.068	862.37
414.276	880.8
414.485	858.27
414.693	868.51
414.901	950.43
415.11	985.24
415.318	989.34
415.526	1030.3
415.734	1085.59
415.943	1032.35
416.151	1194.14
416.359	1128.6
416.567	1175.7
416.776	1259.67
416.984	1378.45
417.192	1376.41
417.4	1353.88
417.608	1312.92
417.817	1540.24
418.025	1616.02
418.233	1650.83
418.441	1538.2
418.649	1683.6
418.857	1783.95
419.065	1740.94
419.273	1722.51
419.481	1958.03
419.689	1927.31
419.897	2085
420.105	2113.67
420.313	2207.88
420.521	2367.62
420.729	2377.86
420.937	2343.05
421.145	2467.97
421.353	2494.6
421.561	2732.16
421.769	2752.64
421.977	2756.74
422.185	2838.66
422.393	2818.18
422.601	3156.09
422.809	3186.81
423.017	3184.76
423.224	3225.72
423.432	3440.76
423.64	3463.29
423.848	3694.71
424.056	3756.15
424.263	3973.23
424.471	4040.81
424.679	4143.21
424.887	4218.99
425.094	4438.12
425.302	4284.52
425.51	4667.49
425.718	4587.62
425.925	4694.12
426.133	4946.02
426.341	5259.35
426.548	5253.21
426.756	5460.06
426.964	5517.4
427.171	5802.07
427.379	5906.51
427.586	6082.64
427.794	6271.05
428.001	6611.01
428.209	6821.95
428.417	6654.02
428.624	7270.46
428.832	7348.28
429.039	7010.37
429.247	7159.87
429.454	7972.91
429.662	8452.14
429.869	7749.68
430.076	8491.05
430.284	8007.73
430.491	8656.93
430.699	9170.97
430.906	9082.91
431.114	9089.06
431.321	9601.05
431.528	9744.41
431.736	10092.56
431.943	10774.53
432.15	10502.15
432.358	10514.44
432.565	11102.21
432.772	10962.95
432.979	11730.94
433.187	12085.23
433.394	11984.88
433.601	12720.1
433.808	12537.84
434.016	12910.57
434.223	13377.5
434.43	13952.98
434.637	13717.47
434.844	14477.26
435.052	14948.29
435.259	14976.97
435.466	15271.87
435.673	14727.11
435.88	15683.52
436.087	16402.35
436.294	16811.95
436.501	16324.53
436.708	16498.61
436.915	17438.62
437.122	17784.73
437.329	17883.03
437.537	18472.85
437.743	18605.97
437.95	18497.42
438.157	19951.48
438.364	20293.49
438.571	20490.1
438.778	20201.33
438.985	22009.69
439.192	21358.44
439.399	21915.48
439.606	21393.25
439.813	22951.76
440.02	24145.72
440.227	23803.71
440.433	23488.32
440.64	24553.27
440.847	24342.33
441.054	24880.94
441.261	26228.51
441.467	26251.03
441.674	26328.86
441.881	27318.03
442.088	27406.09
442.294	27389.7
442.501	28083.97
442.708	28643.06
442.914	29683.43
443.121	30842.58
443.328	29957.86
443.534	32261.82
443.741	31348.43
443.948	31033.04
444.154	32847.54
444.361	32855.73
444.568	33351.34
444.774	32822.97
444.981	33687.21
445.187	34502.3
445.394	36048.52
445.6	35198.61
445.807	38870.62
446.013	37138.04
446.22	37959.27
446.426	39532.11
446.633	39450.19
446.839	40951.35
447.046	39128.66
447.252	41817.64
447.459	41434.67
447.665	41238.07
447.871	43083.29
448.078	45276.66
448.284	43095.58
448.491	44125.71
448.697	45694.45
448.903	46507.49
449.11	46589.41
449.316	45585.91
449.522	46575.08
449.728	47795.67
449.935	48098.76
450.141	48715.2
450.347	49450.42
450.553	47783.38
450.76	48491.97
450.966	50398.63
451.172	49241.53
451.378	50660.77
451.584	49886.64
451.791	50742.69
451.997	50771.36
452.203	51522.97
452.409	51668.37
452.615	51357.08
452.821	49894.83
453.027	49176
453.233	52125.07
453.44	49753.52
453.646	50197.93
453.852	50595.24
454.058	51338.65
454.264	49892.79
454.47	51084.7
454.676	49485.24
454.882	51352.99
455.088	46632.42
455.294	47922.64
455.5	48442.82
455.705	48608.71
455.911	46751.2
456.117	46271.98
456.323	45739.5
456.529	43265.56
456.735	44987.9
456.941	43845.13
457.147	43343.38
457.352	42059.3
457.558	41512.5
457.764	41909.8
457.97	40601.15
458.176	40398.4
458.381	40498.75
458.587	38088.29
458.793	38321.76
458.999	36443.77
459.204	38252.13
459.41	37545.58
459.616	35243.66
459.821	35427.98
460.027	34954.9
460.233	34086.56
460.438	32896.69
460.644	33050.29
460.85	31506.12
461.055	31043.28
461.261	31172.3
461.466	28731.12
461.672	27598.6
461.878	29794.02
462.083	27909.89
462.289	27322.12
462.494	27029.26
462.7	26119.96
462.905	25069.36
463.111	26308.38
463.316	26050.33
463.522	25476.9
463.727	25335.59
463.932	25696.03
464.138	25212.71
464.343	25437.99
464.549	24663.86
464.754	25442.09
464.959	25157.42
465.165	24823.6
465.37	23922.49
465.575	23312.2
465.781	24403.77
465.986	24463.16
466.191	23594.82
466.397	23338.82
466.602	21634.91
