Data from USB4F104151__33__12-41-18-384.txt Node

Date: Fri Mar 14 12:41:18 EDT 2025
User: louis
Spectrometer: USB4F10415
Trigger mode: 4
Integration Time (sec): 3.000000E-2
Scans to average: 1
Electric dark correction enabled: true
Nonlinearity correction enabled: false
Boxcar width: 0
XAxis mode: Wavelengths
Number of Pixels in Spectrum: 3648
>>>>>Begin Spectral Data<<<<<
178.204	-109.22
178.424	-109.22
178.644	-109.22
178.864	-182.95
179.084	-123.56
179.304	-47.79
179.524	15.7
179.744	32.08
179.964	48.47
180.184	32.08
180.404	-49.83
180.624	9.56
180.844	-27.31
181.064	-12.97
181.283	-19.11
181.503	-19.11
181.723	38.23
181.943	7.51
182.163	36.18
182.383	-27.31
182.602	40.28
182.822	81.24
183.042	56.66
183.262	-45.74
183.482	-6.83
183.701	44.37
183.921	38.23
184.141	-35.5
184.361	30.04
184.58	-51.88
184.8	75.09
185.02	101.72
185.239	114
185.459	-0.68
185.679	11.61
185.898	-0.68
186.118	44.37
186.338	-39.59
186.557	58.71
186.777	-2.73
186.997	-41.64
187.216	-4.78
187.436	44.37
187.655	-4.78
187.875	75.09
188.095	-33.45
188.314	85.33
188.534	3.41
188.753	-27.31
188.973	1.37
189.192	46.42
189.412	7.51
189.631	-19.11
189.851	-4.78
190.07	54.61
190.29	62.8
190.509	-51.88
190.729	15.7
190.948	79.19
191.168	146.77
191.387	62.8
191.607	23.89
191.826	-39.59
192.045	-8.87
192.265	-37.55
192.484	68.95
192.704	-10.92
192.923	-90.79
193.142	83.28
193.362	11.61
193.581	36.18
193.8	27.99
194.02	34.13
194.239	7.51
194.458	32.08
194.678	-41.64
194.897	73.04
195.116	62.8
195.335	50.52
195.555	83.28
195.774	-2.73
195.993	9.56
196.212	40.28
196.432	19.8
196.651	-41.64
196.87	64.85
197.089	27.99
197.308	68.95
197.528	46.42
197.747	-43.69
197.966	9.56
198.185	118.1
198.404	44.37
198.623	-58.03
198.842	19.8
199.062	-12.97
199.281	32.08
199.5	34.13
199.719	13.65
199.938	46.42
200.157	-19.11
200.376	62.8
200.595	17.75
200.814	11.61
201.033	-62.12
201.252	77.14
201.471	124.24
201.69	7.51
201.909	54.61
202.128	-15.02
202.347	42.32
202.566	1.37
202.785	-0.68
203.004	54.61
203.223	138.58
203.442	58.71
203.661	13.65
203.879	27.99
204.098	60.76
204.317	17.75
204.536	95.57
204.755	79.19
204.974	25.94
205.193	62.8
205.411	95.57
205.63	21.85
205.849	-25.26
206.068	-15.02
206.287	-82.6
206.505	17.75
206.724	-17.07
206.943	-6.83
207.162	-33.45
207.381	-8.87
207.599	-45.74
207.818	64.85
208.037	-6.83
208.255	-31.4
208.474	-43.69
208.693	-6.83
208.911	-19.11
209.13	3.41
209.349	40.28
209.567	32.08
209.786	17.75
210.005	97.62
210.223	13.65
210.442	-47.79
210.661	62.8
210.879	-15.02
211.098	-0.68
211.316	21.85
211.535	54.61
211.753	9.56
211.972	-119.46
212.191	-4.78
212.409	19.8
212.628	-60.07
212.846	81.24
213.065	-4.78
213.283	109.91
213.502	40.28
213.72	30.04
213.938	56.66
214.157	-17.07
214.375	-19.11
214.594	19.8
214.812	-4.78
215.031	48.47
215.249	-17.07
215.467	7.51
215.686	23.89
215.904	54.61
216.122	7.51
216.341	107.86
216.559	5.46
216.778	17.75
216.996	34.13
217.214	75.09
217.432	-17.07
217.651	-45.74
217.869	-2.73
218.087	13.65
218.306	-17.07
218.524	-8.87
218.742	-41.64
218.96	71
219.179	9.56
219.397	-8.87
219.615	118.1
219.833	-8.87
220.051	-72.36
220.27	-8.87
220.488	81.24
220.706	62.8
220.924	-45.74
221.142	-0.68
221.36	-45.74
221.578	50.52
221.796	44.37
222.015	56.66
222.233	17.75
222.451	21.85
222.669	5.46
222.887	3.41
223.105	99.67
223.323	-12.97
223.541	-31.4
223.759	66.9
223.977	9.56
224.195	81.24
224.413	-10.92
224.631	50.52
224.849	44.37
225.067	36.18
225.285	62.8
225.503	17.75
225.721	-92.84
225.939	54.61
226.157	54.61
226.375	87.38
226.592	-0.68
226.81	-72.36
227.028	11.61
227.246	116.05
227.464	38.23
227.682	101.72
227.9	54.61
228.117	-8.87
228.335	48.47
228.553	44.37
228.771	-8.87
228.989	-43.69
229.206	34.13
229.424	27.99
229.642	40.28
229.86	-15.02
230.077	32.08
230.295	-15.02
230.513	-66.22
230.731	73.04
230.948	62.8
231.166	81.24
231.384	-15.02
231.601	19.8
231.819	30.04
232.037	-55.98
232.254	-31.4
232.472	23.89
232.689	15.7
232.907	15.7
233.125	52.56
233.342	71
233.56	-10.92
233.777	79.19
233.995	-29.35
234.213	-2.73
234.43	36.18
234.648	1.37
234.865	17.75
235.083	44.37
235.3	44.37
235.518	9.56
235.735	19.8
235.953	40.28
236.17	-12.97
236.388	-45.74
236.605	42.32
236.822	54.61
237.04	66.9
237.257	54.61
237.475	42.32
237.692	68.95
237.909	54.61
238.127	-37.55
238.344	75.09
238.562	1.37
238.779	-62.12
238.996	17.75
239.214	25.94
239.431	38.23
239.648	1.37
239.865	75.09
240.083	27.99
240.3	1.37
240.517	-15.02
240.735	48.47
240.952	89.43
241.169	-23.21
241.386	-37.55
241.603	-0.68
241.821	3.41
242.038	54.61
242.255	87.38
242.472	30.04
242.689	30.04
242.907	-19.11
243.124	-43.69
243.341	7.51
243.558	-12.97
243.775	-41.64
243.992	-15.02
244.209	25.94
244.426	114
244.643	19.8
244.86	-23.21
245.078	-47.79
245.295	89.43
245.512	-6.83
245.729	60.76
245.946	-8.87
246.163	27.99
246.38	27.99
246.597	60.76
246.814	5.46
247.031	-2.73
247.248	-29.35
247.464	30.04
247.681	17.75
247.898	64.85
248.115	48.47
248.332	54.61
248.549	89.43
248.766	97.62
248.983	46.42
249.2	-72.36
249.417	15.7
249.633	64.85
249.85	5.46
250.067	-23.21
250.284	25.94
250.501	64.85
250.717	-27.31
250.934	-51.88
251.151	-90.79
251.368	-76.46
251.585	46.42
251.801	87.38
252.018	60.76
252.235	103.76
252.451	-23.21
252.668	68.95
252.885	-0.68
253.102	21.85
253.318	58.71
253.535	89.43
253.752	-43.69
253.968	42.32
254.185	-37.55
254.401	46.42
254.618	36.18
254.835	-19.11
255.051	32.08
255.268	27.99
255.484	15.7
255.701	27.99
255.917	25.94
256.134	-33.45
256.351	95.57
256.567	17.75
256.784	15.7
257	-105.13
257.217	122.2
257.433	132.44
257.65	21.85
257.866	32.08
258.082	-17.07
258.299	-17.07
258.515	19.8
258.732	-41.64
258.948	36.18
259.165	54.61
259.381	-27.31
259.597	48.47
259.814	-15.02
260.03	-21.16
260.246	11.61
260.463	32.08
260.679	114
260.895	-23.21
261.112	52.56
261.328	15.7
261.544	-0.68
261.761	75.09
261.977	-12.97
262.193	-25.26
262.409	120.15
262.626	19.8
262.842	62.8
263.058	27.99
263.274	7.51
263.49	40.28
263.707	111.96
263.923	9.56
264.139	23.89
264.355	44.37
264.571	62.8
264.787	109.91
265.004	46.42
265.22	17.75
265.436	-4.78
265.652	-29.35
265.868	107.86
266.084	52.56
266.3	-19.11
266.516	-35.5
266.732	40.28
266.948	56.66
267.164	79.19
267.38	-8.87
267.596	3.41
267.812	83.28
268.028	3.41
268.244	21.85
268.46	-6.83
268.676	5.46
268.892	1.37
269.108	-66.22
269.324	-23.21
269.54	-107.18
269.756	38.23
269.972	46.42
270.188	3.41
270.403	40.28
270.619	-68.27
270.835	-45.74
271.051	32.08
271.267	-21.16
271.483	13.65
271.698	5.46
271.914	48.47
272.13	-45.74
272.346	95.57
272.562	44.37
272.777	46.42
272.993	44.37
273.209	40.28
273.425	32.08
273.64	21.85
273.856	-4.78
274.072	46.42
274.287	-39.59
274.503	-10.92
274.719	17.75
274.934	56.66
275.15	-62.12
275.366	46.42
275.581	-23.21
275.797	50.52
276.012	52.56
276.228	23.89
276.444	-4.78
276.659	52.56
276.875	36.18
277.09	58.71
277.306	25.94
277.521	21.85
277.737	-15.02
277.952	30.04
278.168	-45.74
278.383	-4.78
278.599	46.42
278.814	38.23
279.03	7.51
279.245	19.8
279.461	-4.78
279.676	9.56
279.892	30.04
280.107	-25.26
280.322	-33.45
280.538	32.08
280.753	62.8
280.969	89.43
281.184	40.28
281.399	58.71
281.615	38.23
281.83	40.28
282.045	-68.27
282.26	15.7
282.476	-2.73
282.691	79.19
282.906	56.66
283.122	-43.69
283.337	1.37
283.552	-31.4
283.767	1.37
283.983	-45.74
284.198	64.85
284.413	48.47
284.628	-49.83
284.843	54.61
285.058	60.76
285.274	25.94
285.489	21.85
285.704	44.37
285.919	21.85
286.134	30.04
286.349	-49.83
286.564	32.08
286.779	124.24
286.995	-55.98
287.21	27.99
287.425	-23.21
287.64	-6.83
287.855	9.56
288.07	32.08
288.285	71
288.5	60.76
288.715	-37.55
288.93	-2.73
289.145	23.89
289.36	68.95
289.575	-17.07
289.79	25.94
290.004	32.08
290.219	101.72
290.434	21.85
290.649	56.66
290.864	66.9
291.079	13.65
291.294	13.65
291.509	71
291.724	-19.11
291.938	30.04
292.153	58.71
292.368	48.47
292.583	87.38
292.798	7.51
293.012	89.43
293.227	25.94
293.442	32.08
293.657	42.32
293.871	114
294.086	32.08
294.301	32.08
294.516	124.24
294.73	44.37
294.945	1.37
295.16	-4.78
295.374	36.18
295.589	40.28
295.804	13.65
296.018	30.04
296.233	44.37
296.447	52.56
296.662	38.23
296.877	105.81
297.091	79.19
297.306	58.71
297.52	56.66
297.735	44.37
297.949	23.89
298.164	30.04
298.378	-37.55
298.593	44.37
298.807	-58.03
299.022	56.66
299.236	13.65
299.451	27.99
299.665	-35.5
299.88	34.13
300.094	-29.35
300.309	95.57
300.523	-2.73
300.737	21.85
300.952	42.32
301.166	19.8
301.381	11.61
301.595	-35.5
301.809	9.56
302.024	-21.16
302.238	3.41
302.452	97.62
302.667	68.95
302.881	48.47
303.095	62.8
303.309	-25.26
303.524	50.52
303.738	21.85
303.952	81.24
304.166	56.66
304.381	17.75
304.595	56.66
304.809	54.61
305.023	34.13
305.237	-45.74
305.452	46.42
305.666	13.65
305.88	9.56
306.094	5.46
306.308	-15.02
306.522	-12.97
306.736	83.28
306.95	27.99
307.164	36.18
307.379	-0.68
307.593	64.85
307.807	89.43
308.021	75.09
308.235	44.37
308.449	87.38
308.663	-35.5
308.877	124.24
309.091	23.89
309.305	15.7
309.519	-51.88
309.733	-0.68
309.947	-12.97
310.161	11.61
310.374	50.52
310.588	42.32
310.802	7.51
311.016	-12.97
311.23	32.08
311.444	-4.78
311.658	34.13
311.872	87.38
312.085	30.04
312.299	81.24
312.513	-2.73
312.727	42.32
312.941	77.14
313.154	36.18
313.368	-35.5
313.582	60.76
313.796	71
314.009	42.32
314.223	-19.11
314.437	3.41
314.651	-6.83
314.864	-10.92
315.078	-0.68
315.292	-27.31
315.505	23.89
315.719	-6.83
315.933	40.28
316.146	-41.64
316.36	-2.73
316.573	71
316.787	52.56
317.001	50.52
317.214	19.8
317.428	87.38
317.641	23.89
317.855	62.8
318.068	103.76
318.282	-68.27
318.495	122.2
318.709	87.38
318.922	21.85
319.136	107.86
319.349	103.76
319.563	66.9
319.776	58.71
319.99	5.46
320.203	19.8
320.417	132.44
320.63	34.13
320.843	120.15
321.057	54.61
321.27	-12.97
321.483	50.52
321.697	38.23
321.91	64.85
322.124	19.8
322.337	81.24
322.55	46.42
322.763	93.52
322.977	15.7
323.19	44.37
323.403	13.65
323.617	34.13
323.83	36.18
324.043	62.8
324.256	-4.78
324.469	-35.5
324.683	95.57
324.896	79.19
325.109	44.37
325.322	-10.92
325.535	105.81
325.748	30.04
325.962	36.18
326.175	71
326.388	19.8
326.601	48.47
326.814	-15.02
327.027	25.94
327.24	91.48
327.453	23.89
327.666	95.57
327.879	185.68
328.092	-8.87
328.305	1.37
328.518	9.56
328.731	19.8
328.944	27.99
329.157	5.46
329.37	15.7
329.583	122.2
329.796	21.85
330.009	-8.87
330.222	19.8
330.435	38.23
330.648	25.94
330.861	64.85
331.073	7.51
331.286	-17.07
331.499	71
331.712	-23.21
331.925	36.18
332.138	93.52
332.35	-4.78
332.563	50.52
332.776	9.56
332.989	-2.73
333.202	25.94
333.414	32.08
333.627	73.04
333.84	30.04
334.053	13.65
334.265	60.76
334.478	-0.68
334.691	-17.07
334.903	11.61
335.116	-15.02
335.329	11.61
335.541	40.28
335.754	105.81
335.966	-15.02
336.179	32.08
336.392	73.04
336.604	77.14
336.817	50.52
337.029	50.52
337.242	101.72
337.454	48.47
337.667	34.13
337.88	81.24
338.092	46.42
338.305	50.52
338.517	-17.07
338.729	66.9
338.942	52.56
339.154	25.94
339.367	38.23
339.579	56.66
339.792	21.85
340.004	32.08
340.217	58.71
340.429	34.13
340.641	17.75
340.854	-23.21
341.066	7.51
341.278	87.38
341.491	32.08
341.703	50.52
341.915	54.61
342.128	48.47
342.34	11.61
342.552	-27.31
342.764	40.28
342.977	23.89
343.189	77.14
343.401	46.42
343.613	-43.69
343.826	36.18
344.038	21.85
344.25	87.38
344.462	-62.12
344.674	62.8
344.886	83.28
345.099	87.38
345.311	75.09
345.523	-39.59
345.735	15.7
345.947	23.89
346.159	15.7
346.371	15.7
346.583	9.56
346.795	93.52
347.007	71
347.219	34.13
347.431	30.04
347.643	25.94
347.855	-70.31
348.067	-0.68
348.279	13.65
348.491	91.48
348.703	32.08
348.915	13.65
349.127	68.95
349.339	58.71
349.551	40.28
349.763	36.18
349.975	42.32
350.187	87.38
350.399	30.04
350.61	27.99
350.822	32.08
351.034	17.75
351.246	38.23
351.458	58.71
351.669	77.14
351.881	19.8
352.093	83.28
352.305	81.24
352.517	-37.55
352.728	58.71
352.94	13.65
353.152	32.08
353.363	-55.98
353.575	99.67
353.787	79.19
353.999	34.13
354.21	77.14
354.422	32.08
354.633	68.95
354.845	5.46
355.057	62.8
355.268	68.95
355.48	50.52
355.692	66.9
355.903	27.99
356.115	85.33
356.326	-8.87
356.538	48.47
356.749	105.81
356.961	25.94
357.172	11.61
357.384	-4.78
357.595	32.08
357.807	-12.97
358.018	-8.87
358.23	56.66
358.441	101.72
358.653	7.51
358.864	-0.68
359.075	27.99
359.287	71
359.498	56.66
359.709	73.04
359.921	1.37
360.132	44.37
360.344	64.85
360.555	-17.07
360.766	38.23
360.977	130.39
361.189	44.37
361.4	66.9
361.611	77.14
361.823	75.09
362.034	87.38
362.245	23.89
362.456	-10.92
362.667	42.32
362.879	-35.5
363.09	-4.78
363.301	89.43
363.512	48.47
363.723	5.46
363.935	-64.17
364.146	68.95
364.357	38.23
364.568	60.76
364.779	3.41
364.99	60.76
365.201	-21.16
365.412	81.24
365.623	30.04
365.834	11.61
366.045	7.51
366.256	77.14
366.467	15.7
366.678	11.61
366.889	-6.83
367.1	-12.97
367.311	23.89
367.522	7.51
367.733	23.89
367.944	21.85
368.155	-8.87
368.366	48.47
368.577	-10.92
368.788	111.96
368.999	30.04
369.209	40.28
369.42	77.14
369.631	87.38
369.842	11.61
370.053	-12.97
370.264	89.43
370.474	13.65
370.685	46.42
370.896	44.37
371.107	44.37
371.317	99.67
371.528	-4.78
371.739	95.57
371.95	79.19
372.16	73.04
372.371	5.46
372.582	97.62
372.792	79.19
373.003	11.61
373.214	23.89
373.424	17.75
373.635	23.89
373.846	40.28
374.056	114
374.267	73.04
374.477	-12.97
374.688	-8.87
374.898	48.47
375.109	-19.11
375.319	77.14
375.53	13.65
375.74	52.56
375.951	19.8
376.161	-51.88
376.372	130.39
376.582	62.8
376.793	73.04
377.003	56.66
377.214	101.72
377.424	97.62
377.635	111.96
377.845	71
378.055	114
378.266	-49.83
378.476	40.28
378.686	54.61
378.897	60.76
379.107	9.56
379.317	46.42
379.528	60.76
379.738	21.85
379.948	15.7
380.158	114
380.369	54.61
380.579	19.8
380.789	19.8
380.999	13.65
381.21	-35.5
381.42	111.96
381.63	95.57
381.84	64.85
382.05	60.76
382.261	97.62
382.471	30.04
382.681	32.08
382.891	5.46
383.101	27.99
383.311	36.18
383.521	25.94
383.731	50.52
383.941	71
384.151	21.85
384.361	27.99
384.571	62.8
384.781	-8.87
384.991	42.32
385.201	66.9
385.411	50.52
385.621	17.75
385.831	30.04
386.041	40.28
386.251	32.08
386.461	138.58
386.671	48.47
386.881	40.28
387.091	15.7
387.301	32.08
387.511	50.52
387.72	71
387.93	97.62
388.14	79.19
388.35	99.67
388.56	81.24
388.769	27.99
388.979	-2.73
389.189	-17.07
389.399	44.37
389.609	95.57
389.818	132.44
390.028	50.52
390.238	85.33
390.447	54.61
390.657	27.99
390.867	46.42
391.076	34.13
391.286	15.7
391.496	-23.21
391.705	-10.92
391.915	114
392.125	122.2
392.334	109.91
392.544	95.57
392.753	34.13
392.963	54.61
393.172	111.96
393.382	7.51
393.591	116.05
393.801	5.46
394.01	148.82
394.22	58.71
394.429	73.04
394.639	83.28
394.848	142.68
395.058	71
395.267	-12.97
395.477	87.38
395.686	79.19
395.895	134.48
396.105	111.96
396.314	103.76
396.524	50.52
396.733	66.9
396.942	85.33
397.152	120.15
397.361	62.8
397.57	77.14
397.78	83.28
397.989	34.13
398.198	118.1
398.407	81.24
398.617	85.33
398.826	91.48
399.035	85.33
399.244	171.35
399.453	146.77
399.663	64.85
399.872	187.73
400.081	60.76
400.29	163.15
400.499	89.43
400.708	175.44
400.917	109.91
401.127	44.37
401.336	87.38
401.545	99.67
401.754	210.26
401.963	138.58
402.172	114
402.381	111.96
402.59	68.95
402.799	105.81
403.008	66.9
403.217	177.49
403.426	99.67
403.635	97.62
403.844	93.52
404.053	118.1
404.262	146.77
404.471	210.26
404.68	159.06
404.888	107.86
405.097	200.02
405.306	193.87
405.515	152.92
405.724	130.39
405.933	212.31
406.142	167.25
406.35	243.03
406.559	128.34
406.768	103.76
406.977	202.07
407.185	161.11
407.394	243.03
407.603	183.63
407.812	136.53
408.02	214.35
408.229	281.94
408.438	183.63
408.646	257.36
408.855	253.27
409.064	228.69
409.272	275.79
409.481	267.6
409.69	302.42
409.898	269.65
410.107	290.13
410.315	347.47
410.524	290.13
410.733	314.7
410.941	310.61
411.15	357.71
411.358	363.86
411.567	456.01
411.775	433.49
411.984	357.71
412.192	456.01
412.401	415.06
412.609	533.84
412.818	529.74
413.026	494.93
413.234	570.7
413.443	546.12
413.651	529.74
413.86	595.28
414.068	628.04
414.276	673.1
414.485	628.04
414.693	697.67
414.901	634.19
415.11	681.29
415.318	699.72
415.526	744.78
415.734	793.93
415.943	834.89
416.151	755.02
416.359	814.41
416.567	953.67
416.776	943.43
416.984	984.39
417.192	980.29
417.4	998.73
417.608	945.48
417.817	1056.07
418.025	1082.69
418.233	1183.04
418.441	1176.9
418.649	1219.91
418.857	1293.63
419.065	1357.12
419.273	1242.43
419.481	1344.83
419.689	1488.19
419.897	1518.91
420.105	1637.69
420.313	1688.89
420.521	1703.23
420.729	1785.15
420.937	1731.9
421.145	1867.06
421.353	1850.68
421.561	1977.66
421.769	2018.61
421.977	2086.2
422.185	2176.31
422.393	2268.47
422.601	2274.61
422.809	2368.82
423.017	2454.83
423.224	2452.78
423.432	2719.02
423.64	2532.65
423.848	2815.27
424.056	2807.08
424.263	2913.58
424.471	2848.04
424.679	3024.17
424.887	3220.77
425.094	3308.83
425.302	3185.96
425.51	3542.3
425.718	3542.3
425.925	3568.93
426.133	3767.58
426.341	3829.02
426.548	4148.5
426.756	4238.61
426.964	4128.02
427.171	4281.62
427.379	4465.94
427.586	4451.6
427.794	4726.03
428.001	4721.93
428.209	5137.67
428.417	4990.22
428.624	5455.11
428.832	5287.17
429.039	5401.86
429.247	5418.24
429.454	5965.05
429.662	6270.2
429.869	5911.8
430.076	6313.2
430.284	6065.4
430.491	6321.4
430.699	6808.81
430.906	6747.37
431.114	6968.55
431.321	7193.83
431.528	7251.17
431.736	7744.74
431.943	7978.2
432.15	7832.8
432.358	8010.97
432.565	8490.2
432.772	8281.3
432.979	8725.71
433.187	8842.45
433.394	8834.25
433.601	9467.08
433.808	9612.48
434.016	9651.39
434.223	9835.71
434.43	10355.9
434.637	10181.82
434.844	10986.67
435.052	11142.32
435.259	10851.5
435.466	11320.49
435.673	11115.69
435.88	11764.9
436.087	12588.18
436.294	12254.36
436.501	12203.16
436.708	12299.42
436.915	12766.35
437.122	13419.66
437.329	13227.15
437.537	13481.1
437.743	14115.97
437.95	13872.26
438.157	14453.88
438.364	14718.07
438.571	14902.39
438.778	15193.2
438.985	16409.69
439.192	15983.71
439.399	16315.48
439.606	15963.23
439.813	16936.02
440.02	17980.48
440.227	17300.56
440.433	17423.44
440.64	18465.85
440.847	17853.51
441.054	18314.3
441.261	19581.99
441.467	19184.69
441.674	19856.42
441.881	20249.63
442.088	20417.57
442.294	20177.95
442.501	20669.47
442.708	21304.34
442.914	21902.34
443.121	22789.11
443.328	22121.48
443.534	23942.12
443.741	23122.93
443.948	22877.18
444.154	24443.87
444.361	24495.07
444.568	24771.55
444.774	24306.66
444.981	24890.33
445.187	25529.3
445.394	26776.51
445.6	26100.68
445.807	28597.15
446.013	27661.23
446.22	28085.16
446.426	29004.7
446.633	29072.28
446.839	31011.71
447.046	29098.91
447.252	31202.17
447.459	30987.13
447.665	30626.69
447.871	32138.09
448.078	33674.07
448.284	31787.89
448.491	32834.4
448.697	34067.28
448.903	34329.42
449.11	34614.09
449.316	34075.47
449.522	34988.86
449.728	35924.79
449.935	36127.53
450.141	35756.85
450.347	36598.57
450.553	35439.42
450.76	36002.61
450.966	37223.2
451.172	36875.04
451.378	37708.57
451.584	36969.25
451.791	37817.11
451.997	37231.39
452.203	38636.3
452.409	38546.19
452.615	38107.92
452.821	36877.09
453.027	36444.97
453.233	38568.71
453.44	36967.2
453.646	37370.65
453.852	37163.81
454.058	38044.43
454.264	36526.89
454.47	37886.74
454.676	36473.64
454.882	37989.14
455.088	34857.79
455.294	35093.31
455.5	35701.56
455.705	35986.22
455.911	34808.64
456.117	33741.65
456.323	33579.86
456.529	32097.13
456.735	33301.34
456.941	32664.42
457.147	31859.57
457.352	30784.38
457.558	30520.2
457.764	31075.2
457.97	30006.16
458.176	29578.13
458.381	29139.86
458.587	27880.36
458.793	27884.46
458.999	26596.29
459.204	28525.47
459.41	27728.81
459.616	25732.04
459.821	26180.55
460.027	25625.55
460.233	25175
460.438	23901.16
460.644	24531.93
460.85	23262.19
461.055	22807.55
461.261	22895.61
461.466	21066.77
461.672	20444.19
461.878	21582.86
462.083	20331.55
462.289	19819.56
462.494	19809.32
462.7	18930.74
462.905	18428.99
463.111	19213.36
463.316	19393.58
463.522	18961.46
463.727	18932.79
463.932	18684.98
464.138	18775.09
464.343	18955.32
464.549	17923.14
464.754	18707.51
464.959	18588.73
465.165	18291.77
465.37	17691.72
465.575	17130.58
465.781	17771.59
465.986	17945.67
466.191	17202.25
466.397	16833.62
466.602	16360.54
466.807	16751.7
467.012	16948.31
467.218	16710.74
467.423	16489.56
467.628	16467.03
