Data from USB4F104151__84__12-42-31-336.txt Node

Date: Fri Mar 14 12:42:31 EDT 2025
User: louis
Spectrometer: USB4F10415
Trigger mode: 4
Integration Time (sec): 3.000000E-2
Scans to average: 1
Electric dark correction enabled: true
Nonlinearity correction enabled: false
Boxcar width: 0
XAxis mode: Wavelengths
Number of Pixels in Spectrum: 3648
>>>>>Begin Spectral Data<<<<<
178.204	-96.25
178.424	-96.25
178.644	-96.25
178.864	-159.74
179.084	-102.4
179.304	-69.63
179.524	-32.77
179.744	94.21
179.964	24.58
180.184	67.58
180.404	12.29
180.624	32.77
180.844	-38.91
181.064	-61.44
181.283	14.34
181.503	-20.48
181.723	-22.53
181.943	-112.64
182.163	81.92
182.383	14.34
182.602	49.15
182.822	98.3
183.042	63.49
183.262	16.38
183.482	14.34
183.701	40.96
183.921	20.48
184.141	2.05
184.361	73.73
184.58	53.25
184.8	92.16
185.02	65.53
185.239	24.58
185.459	36.86
185.679	86.01
185.898	-14.34
186.118	92.16
186.338	-0
186.557	30.72
186.777	43.01
186.997	-26.62
187.216	-28.67
187.436	55.3
187.655	14.34
187.875	88.06
188.095	-43.01
188.314	47.1
188.534	16.38
188.753	61.44
188.973	18.43
189.192	83.97
189.412	83.97
189.631	102.4
189.851	81.92
190.07	-2.05
190.29	-10.24
190.509	24.58
190.729	43.01
190.948	28.67
191.168	149.5
191.387	73.73
191.607	79.87
191.826	24.58
192.045	-34.82
192.265	71.68
192.484	43.01
192.704	-16.38
192.923	34.82
193.142	172.03
193.362	102.4
193.581	6.14
193.8	38.91
194.02	59.39
194.239	122.88
194.458	61.44
194.678	30.72
194.897	30.72
195.116	94.21
195.335	86.01
195.555	18.43
195.774	-24.58
195.993	106.49
196.212	8.19
196.432	98.3
196.651	30.72
196.87	69.63
197.089	77.82
197.308	-8.19
197.528	55.3
197.747	-10.24
197.966	30.72
198.185	114.69
198.404	22.53
198.623	53.25
198.842	69.63
199.062	20.48
199.281	14.34
199.5	34.82
199.719	96.25
199.938	98.3
200.157	90.11
200.376	69.63
200.595	47.1
200.814	16.38
201.033	-26.62
201.252	63.49
201.471	53.25
201.69	118.78
201.909	45.06
202.128	83.97
202.347	43.01
202.566	4.1
202.785	30.72
203.004	18.43
203.223	32.77
203.442	43.01
203.661	12.29
203.879	36.86
204.098	69.63
204.317	20.48
204.536	116.73
204.755	40.96
204.974	43.01
205.193	124.93
205.411	122.88
205.63	90.11
205.849	-0
206.068	36.86
206.287	51.2
206.505	69.63
206.724	-32.77
206.943	-14.34
207.162	32.77
207.381	61.44
207.599	-2.05
207.818	83.97
208.037	28.67
208.255	38.91
208.474	-16.38
208.693	137.21
208.911	-10.24
209.13	106.49
209.349	-14.34
209.567	61.44
209.786	96.25
210.005	57.34
210.223	-4.1
210.442	-24.58
210.661	4.1
210.879	16.38
211.098	-18.43
211.316	2.05
211.535	104.45
211.753	59.39
211.972	18.43
212.191	-63.49
212.409	81.92
212.628	26.62
212.846	55.3
213.065	20.48
213.283	122.88
213.502	4.1
213.72	-24.58
213.938	73.73
214.157	77.82
214.375	12.29
214.594	40.96
214.812	86.01
215.031	32.77
215.249	59.39
215.467	43.01
215.686	-4.1
215.904	4.1
216.122	14.34
216.341	40.96
216.559	55.3
216.778	110.59
216.996	73.73
217.214	-59.39
217.432	34.82
217.651	-2.05
217.869	51.2
218.087	28.67
218.306	67.58
218.524	6.14
218.742	-16.38
218.96	34.82
219.179	-10.24
219.397	49.15
219.615	38.91
219.833	36.86
220.051	32.77
220.27	63.49
220.488	122.88
220.706	61.44
220.924	-0
221.142	-8.19
221.36	57.34
221.578	20.48
221.796	-28.67
222.015	57.34
222.233	53.25
222.451	88.06
222.669	47.1
222.887	47.1
223.105	-36.86
223.323	34.82
223.541	24.58
223.759	4.1
223.977	51.2
224.195	98.3
224.413	96.25
224.631	73.73
224.849	59.39
225.067	75.77
225.285	-59.39
225.503	51.2
225.721	-18.43
225.939	55.3
226.157	45.06
226.375	86.01
226.592	38.91
226.81	2.05
227.028	67.58
227.246	79.87
227.464	98.3
227.682	79.87
227.9	24.58
228.117	55.3
228.335	14.34
228.553	36.86
228.771	61.44
228.989	-24.58
229.206	30.72
229.424	-24.58
229.642	65.53
229.86	-22.53
230.077	30.72
230.295	67.58
230.513	79.87
230.731	69.63
230.948	77.82
231.166	28.67
231.384	124.93
231.601	59.39
231.819	161.79
232.037	53.25
232.254	34.82
232.472	-6.14
232.689	8.19
232.907	38.91
233.125	61.44
233.342	-20.48
233.56	-47.1
233.777	30.72
233.995	100.35
234.213	14.34
234.43	-45.06
234.648	6.14
234.865	30.72
235.083	53.25
235.3	59.39
235.518	40.96
235.735	67.58
235.953	98.3
236.17	129.02
236.388	14.34
236.605	-12.29
236.822	96.25
237.04	122.88
237.257	81.92
237.475	2.05
237.692	57.34
237.909	86.01
238.127	2.05
238.344	34.82
238.562	26.62
238.779	24.58
238.996	18.43
239.214	24.58
239.431	88.06
239.648	-18.43
239.865	40.96
240.083	51.2
240.3	22.53
240.517	55.3
240.735	96.25
240.952	6.14
241.169	92.16
241.386	36.86
241.603	24.58
241.821	-18.43
242.038	61.44
242.255	108.54
242.472	75.77
242.689	57.34
242.907	118.78
243.124	18.43
243.341	63.49
243.558	14.34
243.775	-16.38
243.992	53.25
244.209	67.58
244.426	102.4
244.643	45.06
244.86	32.77
245.078	104.45
245.295	71.68
245.512	63.49
245.729	55.3
245.946	53.25
246.163	32.77
246.38	73.73
246.597	2.05
246.814	4.1
247.031	59.39
247.248	100.35
247.464	-38.91
247.681	69.63
247.898	-18.43
248.115	112.64
248.332	18.43
248.549	65.53
248.766	65.53
248.983	63.49
249.2	-4.1
249.417	53.25
249.633	59.39
249.85	49.15
250.067	59.39
250.284	90.11
250.501	16.38
250.717	4.1
250.934	-98.3
251.151	57.34
251.368	55.3
251.585	43.01
251.801	51.2
252.018	43.01
252.235	77.82
252.451	-0
252.668	96.25
252.885	124.93
253.102	71.68
253.318	45.06
253.535	-49.15
253.752	65.53
253.968	18.43
254.185	-2.05
254.401	-40.96
254.618	126.97
254.835	-10.24
255.051	47.1
255.268	57.34
255.484	6.14
255.701	63.49
255.917	81.92
256.134	12.29
256.351	30.72
256.567	4.1
256.784	131.07
257	53.25
257.217	67.58
257.433	-34.82
257.65	45.06
257.866	139.26
258.082	-18.43
258.299	67.58
258.515	77.82
258.732	-36.86
258.948	43.01
259.165	98.3
259.381	63.49
259.597	71.68
259.814	-43.01
260.03	-16.38
260.246	65.53
260.463	106.49
260.679	53.25
260.895	-34.82
261.112	20.48
261.328	24.58
261.544	22.53
261.761	90.11
261.977	47.1
262.193	34.82
262.409	55.3
262.626	40.96
262.842	69.63
263.058	57.34
263.274	81.92
263.49	45.06
263.707	75.77
263.923	55.3
264.139	20.48
264.355	20.48
264.571	57.34
264.787	28.67
265.004	92.16
265.22	-55.3
265.436	63.49
265.652	20.48
265.868	4.1
266.084	30.72
266.3	16.38
266.516	-6.14
266.732	45.06
266.948	114.69
267.164	92.16
267.38	102.4
267.596	36.86
267.812	61.44
268.028	36.86
268.244	4.1
268.46	75.77
268.676	73.73
268.892	-20.48
269.108	18.43
269.324	47.1
269.54	-14.34
269.756	106.49
269.972	-59.39
270.188	63.49
270.403	22.53
270.619	-8.19
270.835	40.96
271.051	-2.05
271.267	81.92
271.483	24.58
271.698	-22.53
271.914	49.15
272.13	18.43
272.346	73.73
272.562	24.58
272.777	59.39
272.993	2.05
273.209	69.63
273.425	10.24
273.64	-47.1
273.856	75.77
274.072	43.01
274.287	20.48
274.503	24.58
274.719	94.21
274.934	24.58
275.15	18.43
275.366	-34.82
275.581	63.49
275.797	51.2
276.012	22.53
276.228	38.91
276.444	28.67
276.659	69.63
276.875	10.24
277.09	-14.34
277.306	12.29
277.521	55.3
277.737	45.06
277.952	79.87
278.168	22.53
278.383	24.58
278.599	32.77
278.814	28.67
279.03	32.77
279.245	81.92
279.461	-0
279.676	100.35
279.892	30.72
280.107	47.1
280.322	-26.62
280.538	69.63
280.753	14.34
280.969	77.82
281.184	10.24
281.399	83.97
281.615	16.38
281.83	22.53
282.045	-12.29
282.26	32.77
282.476	-24.58
282.691	51.2
282.906	102.4
283.122	10.24
283.337	112.64
283.552	49.15
283.767	38.91
283.983	47.1
284.198	67.58
284.413	92.16
284.628	30.72
284.843	40.96
285.058	63.49
285.274	-2.05
285.489	-18.43
285.704	43.01
285.919	49.15
286.134	47.1
286.349	6.14
286.564	49.15
286.779	28.67
286.995	57.34
287.21	-20.48
287.425	94.21
287.64	12.29
287.855	137.21
288.07	8.19
288.285	69.63
288.5	57.34
288.715	73.73
288.93	36.86
289.145	16.38
289.36	104.45
289.575	18.43
289.79	135.17
290.004	92.16
290.219	108.54
290.434	32.77
290.649	57.34
290.864	30.72
291.079	133.12
291.294	104.45
291.509	79.87
291.724	-0
291.938	-63.49
292.153	65.53
292.368	53.25
292.583	-0
292.798	129.02
293.012	38.91
293.227	92.16
293.442	69.63
293.657	51.2
293.871	32.77
294.086	2.05
294.301	71.68
294.516	102.4
294.73	12.29
294.945	49.15
295.16	14.34
295.374	30.72
295.589	45.06
295.804	61.44
296.018	81.92
296.233	81.92
296.447	67.58
296.662	88.06
296.877	100.35
297.091	67.58
297.306	94.21
297.52	-16.38
297.735	6.14
297.949	57.34
298.164	98.3
298.378	53.25
298.593	32.77
298.807	43.01
299.022	36.86
299.236	59.39
299.451	-32.77
299.665	10.24
299.88	55.3
300.094	77.82
300.309	102.4
300.523	51.2
300.737	22.53
300.952	18.43
301.166	77.82
301.381	55.3
301.595	-71.68
301.809	83.97
302.024	24.58
302.238	-30.72
302.452	59.39
302.667	28.67
302.881	165.89
303.095	81.92
303.309	-4.1
303.524	20.48
303.738	20.48
303.952	6.14
304.166	100.35
304.381	16.38
304.595	79.87
304.809	55.3
305.023	104.45
305.237	-26.62
305.452	81.92
305.666	53.25
305.88	32.77
306.094	118.78
306.308	34.82
306.522	-47.1
306.736	100.35
306.95	49.15
307.164	110.59
307.379	43.01
307.593	114.69
307.807	28.67
308.021	98.3
308.235	12.29
308.449	-28.67
308.663	26.62
308.877	110.59
309.091	-10.24
309.305	38.91
309.519	-18.43
309.733	98.3
309.947	-38.91
310.161	92.16
310.374	36.86
310.588	86.01
310.802	45.06
311.016	36.86
311.23	90.11
311.444	20.48
311.658	28.67
311.872	24.58
312.085	163.84
312.299	114.69
312.513	75.77
312.727	94.21
312.941	-14.34
313.154	118.78
313.368	45.06
313.582	51.2
313.796	8.19
314.009	-6.14
314.223	96.25
314.437	110.59
314.651	73.73
314.864	-22.53
315.078	43.01
315.292	47.1
315.505	77.82
315.719	30.72
315.933	-0
316.146	12.29
316.36	45.06
316.573	122.88
316.787	100.35
317.001	2.05
317.214	-14.34
317.428	47.1
317.641	-34.82
317.855	116.73
318.068	47.1
318.282	-16.38
318.495	120.83
318.709	90.11
318.922	53.25
319.136	61.44
319.349	81.92
319.563	77.82
319.776	-67.58
319.99	-16.38
320.203	88.06
320.417	69.63
320.63	26.62
320.843	34.82
321.057	102.4
321.27	67.58
321.483	49.15
321.697	122.88
321.91	79.87
322.124	43.01
322.337	57.34
322.55	110.59
322.763	104.45
322.977	77.82
323.19	59.39
323.403	100.35
323.617	34.82
323.83	55.3
324.043	4.1
324.256	30.72
324.469	98.3
324.683	55.3
324.896	102.4
325.109	32.77
325.322	14.34
325.535	77.82
325.748	61.44
325.962	55.3
326.175	61.44
326.388	100.35
326.601	71.68
326.814	57.34
327.027	151.55
327.24	36.86
327.453	75.77
327.666	77.82
327.879	108.54
328.092	24.58
328.305	75.77
328.518	-20.48
328.731	65.53
328.944	28.67
329.157	133.12
329.37	-2.05
329.583	81.92
329.796	59.39
330.009	6.14
330.222	47.1
330.435	30.72
330.648	98.3
330.861	24.58
331.073	40.96
331.286	102.4
331.499	112.64
331.712	18.43
331.925	22.53
332.138	-26.62
332.35	88.06
332.563	92.16
332.776	67.58
332.989	32.77
333.202	73.73
333.414	77.82
333.627	81.92
333.84	67.58
334.053	90.11
334.265	53.25
334.478	110.59
334.691	34.82
334.903	108.54
335.116	55.3
335.329	104.45
335.541	63.49
335.754	65.53
335.966	-10.24
336.179	102.4
336.392	98.3
336.604	-4.1
336.817	47.1
337.029	104.45
337.242	79.87
337.454	120.83
337.667	77.82
337.88	57.34
338.092	75.77
338.305	45.06
338.517	106.49
338.729	96.25
338.942	20.48
339.154	75.77
339.367	8.19
339.579	73.73
339.792	14.34
340.004	79.87
340.217	-0
340.429	79.87
340.641	6.14
340.854	-0
341.066	40.96
341.278	141.31
341.491	108.54
341.703	79.87
341.915	86.01
342.128	47.1
342.34	67.58
342.552	10.24
342.764	14.34
342.977	110.59
343.189	94.21
343.401	32.77
343.613	96.25
343.826	4.1
344.038	20.48
344.25	102.4
344.462	45.06
344.674	124.93
344.886	75.77
345.099	57.34
345.311	65.53
345.523	67.58
345.735	22.53
345.947	47.1
346.159	61.44
346.371	63.49
346.583	67.58
346.795	75.77
347.007	30.72
347.219	102.4
347.431	94.21
347.643	100.35
347.855	43.01
348.067	30.72
348.279	22.53
348.491	106.49
348.703	73.73
348.915	36.86
349.127	28.67
349.339	73.73
349.551	79.87
349.763	28.67
349.975	34.82
350.187	45.06
350.399	88.06
350.61	143.36
350.822	120.83
351.034	137.21
351.246	6.14
351.458	55.3
351.669	98.3
351.881	88.06
352.093	36.86
352.305	174.08
352.517	77.82
352.728	141.31
352.94	30.72
353.152	28.67
353.363	30.72
353.575	81.92
353.787	79.87
353.999	26.62
354.21	94.21
354.422	45.06
354.633	32.77
354.845	-0
355.057	139.26
355.268	98.3
355.48	51.2
355.692	110.59
355.903	47.1
356.115	81.92
356.326	81.92
356.538	73.73
356.749	45.06
356.961	161.79
357.172	67.58
357.384	63.49
357.595	120.83
357.807	14.34
358.018	51.2
358.23	38.91
358.441	145.41
358.653	47.1
358.864	67.58
359.075	88.06
359.287	67.58
359.498	65.53
359.709	90.11
359.921	81.92
360.132	28.67
360.344	75.77
360.555	32.77
360.766	159.74
360.977	59.39
361.189	157.69
361.4	-6.14
361.611	96.25
361.823	116.73
362.034	94.21
362.245	-43.01
362.456	55.3
362.667	94.21
362.879	94.21
363.09	106.49
363.301	43.01
363.512	114.69
363.723	-4.1
363.935	59.39
364.146	92.16
364.357	53.25
364.568	63.49
364.779	40.96
364.99	61.44
365.201	67.58
365.412	38.91
365.623	59.39
365.834	88.06
366.045	149.5
366.256	49.15
366.467	81.92
366.678	147.45
366.889	129.02
367.1	96.25
367.311	98.3
367.522	81.92
367.733	16.38
367.944	79.87
368.155	16.38
368.366	49.15
368.577	145.41
368.788	112.64
368.999	69.63
369.209	26.62
369.42	102.4
369.631	143.36
369.842	77.82
370.053	65.53
370.264	100.35
370.474	88.06
370.685	151.55
370.896	22.53
371.107	153.6
371.317	141.31
371.528	86.01
371.739	96.25
371.95	55.3
372.16	65.53
372.371	57.34
372.582	-32.77
372.792	137.21
373.003	20.48
373.214	79.87
373.424	163.84
373.635	100.35
373.846	141.31
374.056	38.91
374.267	57.34
374.477	104.45
374.688	26.62
374.898	73.73
375.109	126.97
375.319	112.64
375.53	174.08
375.74	88.06
375.951	110.59
376.161	112.64
376.372	110.59
376.582	104.45
376.793	-4.1
377.003	12.29
377.214	24.58
377.424	55.3
377.635	16.38
377.845	32.77
378.055	174.08
378.266	126.97
378.476	79.87
378.686	135.17
378.897	90.11
379.107	106.49
379.317	114.69
379.528	116.73
379.738	100.35
379.948	34.82
380.158	124.93
380.369	67.58
380.579	22.53
380.789	57.34
380.999	83.97
381.21	110.59
381.42	100.35
381.63	22.53
381.84	96.25
382.05	57.34
382.261	126.97
382.471	92.16
382.681	129.02
382.891	110.59
383.101	45.06
383.311	63.49
383.521	-4.1
383.731	110.59
383.941	98.3
384.151	36.86
384.361	86.01
384.571	53.25
384.781	53.25
384.991	49.15
385.201	124.93
385.411	88.06
385.621	122.88
385.831	53.25
386.041	81.92
386.251	100.35
386.461	55.3
386.671	10.24
386.881	73.73
387.091	61.44
387.301	227.32
387.511	118.78
387.72	112.64
387.93	67.58
388.14	51.2
388.35	49.15
388.56	139.26
388.769	57.34
388.979	94.21
389.189	135.17
389.399	45.06
389.609	141.31
389.818	81.92
390.028	83.97
390.238	106.49
390.447	124.93
390.657	139.26
390.867	129.02
391.076	104.45
391.286	88.06
391.496	143.36
391.705	32.77
391.915	122.88
392.125	161.79
392.334	118.78
392.544	161.79
392.753	126.97
392.963	106.49
393.172	110.59
393.382	169.98
393.591	129.02
393.801	75.77
394.01	100.35
394.22	102.4
394.429	120.83
394.639	108.54
394.848	219.13
395.058	112.64
395.267	178.17
395.477	141.31
395.686	122.88
395.895	176.13
396.105	227.32
396.314	102.4
396.524	77.82
396.733	141.31
396.942	169.98
397.152	45.06
397.361	159.74
397.57	159.74
397.78	184.32
397.989	141.31
398.198	241.66
398.407	188.41
398.617	180.22
398.826	114.69
399.035	190.46
399.244	153.6
399.453	129.02
399.663	94.21
399.872	174.08
400.081	163.84
400.29	178.17
400.499	126.97
400.708	237.56
400.917	153.6
401.127	208.89
401.336	92.16
401.545	223.23
401.754	159.74
401.963	165.89
402.172	163.84
402.381	108.54
402.59	112.64
402.799	206.84
403.008	331.77
403.217	221.18
403.426	210.94
403.635	149.5
403.844	256
404.053	159.74
404.262	219.13
404.471	321.53
404.68	258.04
404.888	204.8
405.097	212.99
405.306	229.37
405.515	188.41
405.724	292.86
405.933	303.1
406.142	272.38
406.35	200.7
406.559	262.14
406.768	286.72
406.977	378.87
407.185	323.58
407.394	327.67
407.603	270.33
407.812	364.54
408.02	446.46
408.229	366.59
408.438	327.67
408.646	342.01
408.855	419.83
409.064	407.55
409.272	540.66
409.481	473.08
409.69	362.49
409.898	413.69
410.107	516.09
410.315	561.14
410.524	493.56
410.733	507.9
410.941	559.1
411.15	555
411.358	636.92
411.567	624.63
411.775	708.6
411.984	645.11
412.192	622.58
412.401	681.97
412.609	806.9
412.818	720.88
413.026	802.8
413.234	794.61
413.443	794.61
413.651	825.33
413.86	872.43
414.068	974.83
414.276	995.31
414.485	1036.27
414.693	1062.9
414.901	1120.24
415.11	1138.67
415.318	1019.89
415.526	1183.73
415.734	1265.64
415.943	1232.88
416.151	1316.84
416.359	1355.76
416.567	1398.76
416.776	1439.72
416.984	1476.59
417.192	1550.31
417.4	1470.44
417.608	1581.03
417.817	1701.86
418.025	1734.63
418.233	1863.65
418.441	1914.85
418.649	1943.52
418.857	1937.38
419.065	2160.61
419.273	1992.67
419.481	2226.14
419.689	2277.34
419.897	2430.94
420.105	2414.56
420.313	2445.27
420.521	2609.11
420.729	2650.07
420.937	2713.56
421.145	2912.21
421.353	2996.18
421.561	3035.09
421.769	3248.08
421.977	3307.47
422.185	3149.78
422.393	3403.72
422.601	3729.35
422.809	3708.87
423.017	3702.73
423.224	3844.04
423.432	4032.45
423.64	4083.65
423.848	4325.31
424.056	4259.77
424.263	4517.82
424.471	4669.37
424.679	4874.17
424.887	4984.76
425.094	5095.35
425.302	5306.29
425.51	5240.75
425.718	5455.79
425.925	5564.33
426.133	5875.62
426.341	6133.67
426.548	6408.09
426.756	6315.94
426.964	6457.25
427.171	6813.59
427.379	6985.62
427.586	7198.61
427.794	7372.69
428.001	7702.41
428.209	8112
428.417	7978.89
428.624	8361.86
428.832	8443.78
429.039	8345.47
429.247	8243.07
429.454	9086.84
429.662	9748.33
429.869	9201.52
430.076	9848.68
430.284	9611.12
430.491	9979.75
430.699	10526.56
430.906	10526.56
431.114	10563.42
431.321	10897.24
431.528	11546.45
431.736	12050.25
431.943	12425.03
432.15	12212.04
432.358	12474.18
432.565	13084.47
432.772	13035.32
432.979	13436.72
433.187	13842.22
433.394	13874.99
433.601	14776.09
433.808	14974.75
434.016	14780.19
434.223	15492.88
434.43	16406.28
434.637	16127.75
434.844	17131.26
435.052	17331.96
435.259	17090.3
435.466	17444.6
435.673	17383.16
435.88	18527.97
436.087	19562.2
436.294	19429.08
436.501	18986.72
436.708	19449.56
436.915	20141.77
437.122	20793.03
437.329	21098.17
437.537	21634.74
437.743	21821.11
437.95	21864.11
438.157	22902.43
438.364	23363.23
438.571	23283.36
438.778	23649.94
438.985	25935.48
439.192	24995.46
439.399	25562.75
439.606	25095.81
439.813	26637.93
440.02	28352.08
440.227	27487.84
440.433	27256.42
440.64	28272.21
440.847	28120.66
441.054	28759.63
441.261	30694.96
441.467	30232.11
441.674	30780.97
441.881	31946.26
442.088	31974.94
442.294	31766.04
442.501	32695.82
442.708	33213.96
442.914	34473.46
443.121	35591.65
443.328	34899.44
443.534	37455.3
443.741	36355.54
443.948	35452.39
444.154	38571.44
444.361	38415.8
444.568	38546.87
444.774	38436.28
444.981	38897.07
445.187	40125.85
445.394	41739.65
445.6	41059.73
445.807	45249.87
446.013	43107.69
446.22	44037.47
446.426	45983.04
446.633	45851.97
446.839	47455.53
447.046	45731.14
447.252	47975.72
447.459	48033.06
447.665	48051.49
447.871	49640.71
448.078	52106.47
448.284	49310.99
448.491	51186.93
448.697	52866.27
448.903	53292.24
449.11	54361.28
449.316	52933.85
449.522	53937.35
449.728	55262.39
449.935	55633.07
450.141	55710.89
450.347	56947.87
450.553	55221.43
450.76	55962.79
450.966	57613.46
451.172	56843.42
451.378	58322.05
451.584	57261.21
451.791	58559.62
451.997	58563.71
452.203	59147.39
452.409	59456.63
452.615	58985.6
452.821	57263.25
453.027	56294.57
453.233	59339.89
453.44	57234.58
453.646	57689.23
453.852	58068.11
454.058	58875.01
454.264	57167
454.47	58141.83
454.676	56943.77
454.882	58774.66
455.088	54211.78
455.294	54768.83
455.5	56005.8
455.705	56186.02
455.911	54047.94
456.117	53028.05
456.323	52284.64
456.529	49825.03
456.735	52008.17
456.941	51037.43
457.147	49804.55
457.352	48416.03
457.558	47945
457.764	48043.3
457.97	47467.82
458.176	46054.72
458.381	46112.06
458.587	44080.48
458.793	44119.39
458.999	41440.65
459.204	44457.31
459.41	43550.06
459.616	40695.19
459.821	40940.94
460.027	40652.18
460.233	39742.88
460.438	37617.09
460.644	38167.99
460.85	36511.19
461.055	35902.94
461.261	35964.38
461.466	33150.47
461.672	31968.79
461.878	34418.16
462.083	32515.6
462.289	31720.99
462.494	31282.72
462.7	29855.29
462.905	28978.76
463.111	30307.89
463.316	29859.38
463.522	29617.72
463.727	30021.17
463.932	29646.4
464.138	29232.71
464.343	29648.44
464.549	28364.37
464.754	29605.44
464.959	29103.68
465.165	29312.58
465.37	28114.51
465.575	26955.36
465.781	27913.81
465.986	28325.46
466.191	27344.48
466.397	26906.21
