Data from USB4F104151__15__12-41-01-383.txt Node

Date: Fri Mar 14 12:41:01 EDT 2025
User: louis
Spectrometer: USB4F10415
Trigger mode: 4
Integration Time (sec): 3.000000E-2
Scans to average: 1
Electric dark correction enabled: true
Nonlinearity correction enabled: false
Boxcar width: 0
XAxis mode: Wavelengths
Number of Pixels in Spectrum: 3648
>>>>>Begin Spectral Data<<<<<
178.204	-178
178.424	-178
178.644	-178
178.864	-137.04
179.084	-184.15
179.304	26.79
179.524	-38.74
179.744	47.27
179.964	57.51
180.184	-1.88
180.404	0.17
180.624	-83.8
180.844	88.23
181.064	-48.98
181.283	22.7
181.503	-10.07
181.723	-59.22
181.943	12.46
182.163	61.61
182.383	4.27
182.602	-1.88
182.822	84.14
183.042	51.37
183.262	4.27
183.482	22.7
183.701	30.89
183.921	-24.4
184.141	-85.84
184.361	0.17
184.58	39.08
184.8	43.18
185.02	-42.84
185.239	67.75
185.459	53.42
185.679	16.55
185.898	-79.7
186.118	0.17
186.338	-40.79
186.557	82.09
186.777	16.55
186.997	2.22
187.216	-46.93
187.436	2.22
187.655	32.94
187.875	75.95
188.095	-81.75
188.314	37.03
188.534	-18.26
188.753	-38.74
188.973	12.46
189.192	26.79
189.412	24.75
189.631	14.51
189.851	14.51
190.07	6.31
190.29	-3.93
190.509	118.95
190.729	-18.26
190.948	14.51
191.168	104.62
191.387	82.09
191.607	0.17
191.826	-22.36
192.045	-36.69
192.265	-24.4
192.484	26.79
192.704	24.75
192.923	-8.02
193.142	123.05
193.362	51.37
193.581	30.89
193.8	4.27
194.02	77.99
194.239	71.85
194.458	77.99
194.678	39.08
194.897	43.18
195.116	71.85
195.335	32.94
195.555	18.6
195.774	-22.36
195.993	90.28
196.212	-28.5
196.432	4.27
196.651	-8.02
196.87	-28.5
197.089	86.19
197.308	4.27
197.528	0.17
197.747	-10.07
197.966	49.32
198.185	39.08
198.404	45.23
198.623	53.42
198.842	67.75
199.062	26.79
199.281	20.65
199.5	34.99
199.719	34.99
199.938	90.28
200.157	43.18
200.376	14.51
200.595	0.17
200.814	18.6
201.033	28.84
201.252	32.94
201.471	143.53
201.69	43.18
201.909	-57.17
202.128	71.85
202.347	41.13
202.566	6.31
202.785	45.23
203.004	-22.36
203.223	139.43
203.442	-22.36
203.661	32.94
203.879	18.6
204.098	80.04
204.317	16.55
204.536	92.33
204.755	28.84
204.974	88.23
205.193	32.94
205.411	127.14
205.63	32.94
205.849	-20.31
206.068	39.08
206.287	32.94
206.505	2.22
206.724	-1.88
206.943	-57.17
207.162	8.36
207.381	47.27
207.599	-53.08
207.818	45.23
208.037	-1.88
208.255	-55.12
208.474	16.55
208.693	-24.4
208.911	102.57
209.13	12.46
209.349	-28.5
209.567	67.75
209.786	-14.17
210.005	80.04
210.223	12.46
210.442	-48.98
210.661	-63.32
210.879	-1.88
211.098	18.6
211.316	-10.07
211.535	90.28
211.753	-32.6
211.972	59.56
212.191	-10.07
212.409	55.47
212.628	-30.55
212.846	-5.97
213.065	135.34
213.283	-34.64
213.502	37.03
213.72	-24.4
213.938	30.89
214.157	133.29
214.375	69.8
214.594	16.55
214.812	22.7
215.031	22.7
215.249	-30.55
215.467	30.89
215.686	22.7
215.904	18.6
216.122	73.9
216.341	45.23
216.559	43.18
216.778	10.41
216.996	22.7
217.214	39.08
217.432	63.66
217.651	8.36
217.869	-14.17
218.087	28.84
218.306	24.75
218.524	53.42
218.742	88.23
218.96	59.56
219.179	-36.69
219.397	-57.17
219.615	135.34
219.833	8.36
220.051	-3.93
220.27	24.75
220.488	0.17
220.706	63.66
220.924	28.84
221.142	4.27
221.36	-1.88
221.578	18.6
221.796	55.47
222.015	45.23
222.233	6.31
222.451	86.19
222.669	-24.4
222.887	22.7
223.105	-20.31
223.323	41.13
223.541	-34.64
223.759	8.36
223.977	-3.93
224.195	47.27
224.413	-14.17
224.631	26.79
224.849	45.23
225.067	73.9
225.285	37.03
225.503	55.47
225.721	-8.02
225.939	-10.07
226.157	0.17
226.375	45.23
226.592	-22.36
226.81	8.36
227.028	2.22
227.246	149.67
227.464	65.71
227.682	18.6
227.9	43.18
228.117	14.51
228.335	24.75
228.553	-12.12
228.771	6.31
228.989	10.41
229.206	2.22
229.424	-22.36
229.642	-1.88
229.86	57.51
230.077	6.31
230.295	53.42
230.513	61.61
230.731	34.99
230.948	94.38
231.166	86.19
231.384	-20.31
231.601	-26.45
231.819	24.75
232.037	-22.36
232.254	-28.5
232.472	61.61
232.689	69.8
232.907	71.85
233.125	75.95
233.342	-8.02
233.56	14.51
233.777	30.89
233.995	84.14
234.213	63.66
234.43	4.27
234.648	-22.36
234.865	10.41
235.083	75.95
235.3	61.61
235.518	-28.5
235.735	92.33
235.953	96.43
236.17	77.99
236.388	75.95
236.605	12.46
236.822	28.84
237.04	69.8
237.257	26.79
237.475	8.36
237.692	8.36
237.909	-10.07
238.127	41.13
238.344	98.47
238.562	133.29
238.779	-22.36
238.996	55.47
239.214	26.79
239.431	137.38
239.648	28.84
239.865	10.41
240.083	73.9
240.3	92.33
240.517	45.23
240.735	16.55
240.952	75.95
241.169	98.47
241.386	14.51
241.603	16.55
241.821	37.03
242.038	121
242.255	-36.69
242.472	45.23
242.689	75.95
242.907	34.99
243.124	55.47
243.341	26.79
243.558	-59.22
243.775	-30.55
243.992	-73.56
244.209	14.51
244.426	127.14
244.643	73.9
244.86	0.17
245.078	69.8
245.295	41.13
245.512	2.22
245.729	-36.69
245.946	34.99
246.163	22.7
246.38	94.38
246.597	28.84
246.814	-30.55
247.031	22.7
247.248	26.79
247.464	-3.93
247.681	63.66
247.898	30.89
248.115	61.61
248.332	30.89
248.549	30.89
248.766	75.95
248.983	49.32
249.2	18.6
249.417	71.85
249.633	-12.12
249.85	-30.55
250.067	59.56
250.284	37.03
250.501	39.08
250.717	82.09
250.934	4.27
251.151	65.71
251.368	61.61
251.585	84.14
251.801	63.66
252.018	-22.36
252.235	-46.93
252.451	32.94
252.668	12.46
252.885	57.51
253.102	-5.97
253.318	-3.93
253.535	16.55
253.752	-34.64
253.968	22.7
254.185	4.27
254.401	8.36
254.618	71.85
254.835	-1.88
255.051	55.47
255.268	59.56
255.484	55.47
255.701	49.32
255.917	-44.88
256.134	14.51
256.351	63.66
256.567	49.32
256.784	-5.97
257	49.32
257.217	71.85
257.433	0.17
257.65	114.86
257.866	75.95
258.082	28.84
258.299	-16.21
258.515	32.94
258.732	-14.17
258.948	34.99
259.165	20.65
259.381	18.6
259.597	-3.93
259.814	-28.5
260.03	-12.12
260.246	39.08
260.463	-32.6
260.679	80.04
260.895	59.56
261.112	0.17
261.328	-34.64
261.544	-5.97
261.761	90.28
261.977	55.47
262.193	12.46
262.409	-71.51
262.626	51.37
262.842	32.94
263.058	55.47
263.274	6.31
263.49	-30.55
263.707	47.27
263.923	43.18
264.139	-16.21
264.355	10.41
264.571	47.27
264.787	96.43
265.004	49.32
265.22	-51.03
265.436	75.95
265.652	43.18
265.868	28.84
266.084	-16.21
266.3	16.55
266.516	16.55
266.732	-8.02
266.948	51.37
267.164	-3.93
267.38	49.32
267.596	90.28
267.812	26.79
268.028	51.37
268.244	-36.69
268.46	-44.88
268.676	-10.07
268.892	51.37
269.108	10.41
269.324	-24.4
269.54	108.71
269.756	67.75
269.972	-38.74
270.188	-48.98
270.403	18.6
270.619	2.22
270.835	-1.88
271.051	49.32
271.267	28.84
271.483	41.13
271.698	57.51
271.914	82.09
272.13	77.99
272.346	30.89
272.562	-10.07
272.777	69.8
272.993	-32.6
273.209	16.55
273.425	39.08
273.64	34.99
273.856	-20.31
274.072	24.75
274.287	57.51
274.503	18.6
274.719	37.03
274.934	69.8
275.15	10.41
275.366	43.18
275.581	24.75
275.797	45.23
276.012	-18.26
276.228	88.23
276.444	8.36
276.659	53.42
276.875	-61.27
277.09	22.7
277.306	53.42
277.521	28.84
277.737	-22.36
277.952	49.32
278.168	65.71
278.383	94.38
278.599	-1.88
278.814	30.89
279.03	-1.88
279.245	6.31
279.461	45.23
279.676	84.14
279.892	47.27
280.107	20.65
280.322	-28.5
280.538	4.27
280.753	-12.12
280.969	61.61
281.184	-12.12
281.399	47.27
281.615	47.27
281.83	96.43
282.045	20.65
282.26	-28.5
282.476	30.89
282.691	63.66
282.906	-36.69
283.122	43.18
283.337	-5.97
283.552	125.1
283.767	-3.93
283.983	18.6
284.198	16.55
284.413	12.46
284.628	32.94
284.843	57.51
285.058	55.47
285.274	10.41
285.489	43.18
285.704	0.17
285.919	-20.31
286.134	45.23
286.349	43.18
286.564	110.76
286.779	32.94
286.995	8.36
287.21	-12.12
287.425	24.75
287.64	57.51
287.855	71.85
288.07	-53.08
288.285	24.75
288.5	-22.36
288.715	12.46
288.93	14.51
289.145	41.13
289.36	100.52
289.575	14.51
289.79	53.42
290.004	-14.17
290.219	39.08
290.434	63.66
290.649	47.27
290.864	26.79
291.079	4.27
291.294	82.09
291.509	43.18
291.724	20.65
291.938	16.55
292.153	12.46
292.368	-1.88
292.583	84.14
292.798	30.89
293.012	-12.12
293.227	28.84
293.442	57.51
293.657	30.89
293.871	55.47
294.086	32.94
294.301	-16.21
294.516	49.32
294.73	-67.41
294.945	-8.02
295.16	47.27
295.374	59.56
295.589	-3.93
295.804	24.75
296.018	2.22
296.233	96.43
296.447	57.51
296.662	53.42
296.877	-16.21
297.091	69.8
297.306	30.89
297.52	71.85
297.735	112.81
297.949	98.47
298.164	57.51
298.378	8.36
298.593	-44.88
298.807	55.47
299.022	28.84
299.236	22.7
299.451	4.27
299.665	106.67
299.88	18.6
300.094	-16.21
300.309	67.75
300.523	47.27
300.737	16.55
300.952	55.47
301.166	116.9
301.381	67.75
301.595	49.32
301.809	55.47
302.024	24.75
302.238	-8.02
302.452	80.04
302.667	26.79
302.881	110.76
303.095	45.23
303.309	32.94
303.524	-81.75
303.738	92.33
303.952	55.47
304.166	51.37
304.381	-46.93
304.595	59.56
304.809	-34.64
305.023	20.65
305.237	8.36
305.452	39.08
305.666	75.95
305.88	12.46
306.094	49.32
306.308	73.9
306.522	39.08
306.736	151.72
306.95	-12.12
307.164	24.75
307.379	67.75
307.593	106.67
307.807	71.85
308.021	51.37
308.235	43.18
308.449	67.75
308.663	-14.17
308.877	69.8
309.091	61.61
309.305	47.27
309.519	-85.84
309.733	32.94
309.947	-32.6
310.161	55.47
310.374	88.23
310.588	65.71
310.802	-12.12
311.016	28.84
311.23	14.51
311.444	34.99
311.658	22.7
311.872	75.95
312.085	80.04
312.299	75.95
312.513	88.23
312.727	-16.21
312.941	-26.45
313.154	88.23
313.368	34.99
313.582	47.27
313.796	-8.02
314.009	59.56
314.223	43.18
314.437	41.13
314.651	65.71
314.864	45.23
315.078	92.33
315.292	59.56
315.505	86.19
315.719	55.47
315.933	61.61
316.146	92.33
316.36	8.36
316.573	84.14
316.787	14.51
317.001	30.89
317.214	2.22
317.428	41.13
317.641	26.79
317.855	16.55
318.068	37.03
318.282	-5.97
318.495	131.24
318.709	108.71
318.922	10.41
319.136	-18.26
319.349	12.46
319.563	22.7
319.776	61.61
319.99	8.36
320.203	43.18
320.417	-34.64
320.63	37.03
320.843	110.76
321.057	-46.93
321.27	-26.45
321.483	80.04
321.697	63.66
321.91	39.08
322.124	84.14
322.337	-16.21
322.55	67.75
322.763	37.03
322.977	37.03
323.19	16.55
323.403	39.08
323.617	-57.17
323.83	-5.97
324.043	47.27
324.256	34.99
324.469	39.08
324.683	37.03
324.896	37.03
325.109	-55.12
325.322	-26.45
325.535	53.42
325.748	51.37
325.962	98.47
326.175	24.75
326.388	65.71
326.601	90.28
326.814	-30.55
327.027	63.66
327.24	123.05
327.453	53.42
327.666	77.99
327.879	69.8
328.092	51.37
328.305	59.56
328.518	0.17
328.731	-12.12
328.944	20.65
329.157	43.18
329.37	45.23
329.583	41.13
329.796	106.67
330.009	4.27
330.222	4.27
330.435	45.23
330.648	57.51
330.861	45.23
331.073	82.09
331.286	67.75
331.499	75.95
331.712	63.66
331.925	-5.97
332.138	-32.6
332.35	34.99
332.563	32.94
332.776	32.94
332.989	0.17
333.202	-10.07
333.414	41.13
333.627	-26.45
333.84	108.71
334.053	-1.88
334.265	0.17
334.478	8.36
334.691	86.19
334.903	57.51
335.116	8.36
335.329	22.7
335.541	32.94
335.754	59.56
335.966	90.28
336.179	73.9
336.392	32.94
336.604	26.79
336.817	30.89
337.029	106.67
337.242	55.47
337.454	26.79
337.667	24.75
337.88	61.61
338.092	65.71
338.305	43.18
338.517	-36.69
338.729	100.52
338.942	73.9
339.154	-20.31
339.367	34.99
339.579	51.37
339.792	-24.4
340.004	37.03
340.217	118.95
340.429	100.52
340.641	-63.32
340.854	4.27
341.066	47.27
341.278	51.37
341.491	133.29
341.703	106.67
341.915	10.41
342.128	20.65
342.34	59.56
342.552	-16.21
342.764	69.8
342.977	49.32
343.189	-1.88
343.401	88.23
343.613	16.55
343.826	10.41
344.038	-18.26
344.25	65.71
344.462	-12.12
344.674	39.08
344.886	-32.6
345.099	98.47
345.311	59.56
345.523	28.84
345.735	45.23
345.947	43.18
346.159	39.08
346.371	51.37
346.583	37.03
346.795	139.43
347.007	34.99
347.219	41.13
347.431	125.1
347.643	94.38
347.855	24.75
348.067	84.14
348.279	32.94
348.491	43.18
348.703	22.7
348.915	51.37
349.127	37.03
349.339	92.33
349.551	-8.02
349.763	45.23
349.975	73.9
350.187	65.71
350.399	16.55
350.61	59.56
350.822	26.79
351.034	98.47
351.246	-10.07
351.458	106.67
351.669	77.99
351.881	110.76
352.093	55.47
352.305	164.01
352.517	77.99
352.728	8.36
352.94	59.56
353.152	98.47
353.363	10.41
353.575	59.56
353.787	51.37
353.999	94.38
354.21	145.58
354.422	37.03
354.633	-8.02
354.845	4.27
355.057	75.95
355.268	65.71
355.48	67.75
355.692	47.27
355.903	84.14
356.115	123.05
356.326	24.75
356.538	106.67
356.749	51.37
356.961	106.67
357.172	-10.07
357.384	86.19
357.595	67.75
357.807	43.18
358.018	-5.97
358.23	39.08
358.441	137.38
358.653	82.09
358.864	30.89
359.075	75.95
359.287	-8.02
359.498	80.04
359.709	77.99
359.921	-16.21
360.132	65.71
360.344	22.7
360.555	47.27
360.766	8.36
360.977	80.04
361.189	37.03
361.4	100.52
361.611	100.52
361.823	84.14
362.034	59.56
362.245	39.08
362.456	75.95
362.667	10.41
362.879	80.04
363.09	88.23
363.301	37.03
363.512	18.6
363.723	39.08
363.935	20.65
364.146	94.38
364.357	63.66
364.568	123.05
364.779	34.99
364.99	55.47
365.201	22.7
365.412	59.56
365.623	18.6
365.834	90.28
366.045	45.23
366.256	32.94
366.467	125.1
366.678	8.36
366.889	57.51
367.1	14.51
367.311	67.75
367.522	26.79
367.733	-42.84
367.944	59.56
368.155	12.46
368.366	51.37
368.577	63.66
368.788	61.61
368.999	12.46
369.209	39.08
369.42	135.34
369.631	61.61
369.842	63.66
370.053	22.7
370.264	61.61
370.474	37.03
370.685	39.08
370.896	39.08
371.107	127.14
371.317	47.27
371.528	82.09
371.739	59.56
371.95	86.19
372.16	71.85
372.371	14.51
372.582	51.37
372.792	90.28
373.003	133.29
373.214	49.32
373.424	26.79
373.635	18.6
373.846	106.67
374.056	37.03
374.267	8.36
374.477	20.65
374.688	47.27
374.898	43.18
375.109	51.37
375.319	65.71
375.53	100.52
375.74	61.61
375.951	43.18
376.161	8.36
376.372	73.9
376.582	114.86
376.793	59.56
377.003	32.94
377.214	30.89
377.424	47.27
377.635	61.61
377.845	63.66
378.055	108.71
378.266	82.09
378.476	34.99
378.686	94.38
378.897	121
379.107	125.1
379.317	92.33
379.528	82.09
379.738	39.08
379.948	20.65
380.158	63.66
380.369	12.46
380.579	49.32
380.789	69.8
380.999	65.71
381.21	129.19
381.42	164.01
381.63	-40.79
381.84	86.19
382.05	67.75
382.261	100.52
382.471	77.99
382.681	6.31
382.891	22.7
383.101	16.55
383.311	-36.69
383.521	59.56
383.731	71.85
383.941	43.18
384.151	125.1
384.361	20.65
384.571	94.38
384.781	49.32
384.991	125.1
385.201	155.82
385.411	100.52
385.621	53.42
385.831	12.46
386.041	80.04
386.251	59.56
386.461	8.36
386.671	84.14
386.881	84.14
387.091	43.18
387.301	106.67
387.511	34.99
387.72	30.89
387.93	28.84
388.14	-3.93
388.35	18.6
388.56	104.62
388.769	63.66
388.979	98.47
389.189	2.22
389.399	47.27
389.609	51.37
389.818	32.94
390.028	51.37
390.238	88.23
390.447	14.51
390.657	20.65
390.867	118.95
391.076	41.13
391.286	53.42
391.496	106.67
391.705	45.23
391.915	125.1
392.125	116.9
392.334	65.71
392.544	82.09
392.753	75.95
392.963	63.66
393.172	110.76
393.382	20.65
393.591	155.82
393.801	51.37
394.01	104.62
394.22	34.99
394.429	73.9
394.639	57.51
394.848	125.1
395.058	118.95
395.267	41.13
395.477	77.99
395.686	47.27
395.895	127.14
396.105	170.15
396.314	159.91
396.524	92.33
396.733	30.89
396.942	112.81
397.152	104.62
397.361	149.67
397.57	82.09
397.78	98.47
397.989	145.58
398.198	180.39
398.407	71.85
398.617	73.9
398.826	88.23
399.035	65.71
399.244	80.04
399.453	168.1
399.663	149.67
399.872	106.67
400.081	129.19
400.29	133.29
400.499	139.43
400.708	106.67
400.917	88.23
401.127	155.82
401.336	129.19
401.545	223.4
401.754	182.44
401.963	164.01
402.172	112.81
402.381	182.44
402.59	131.24
402.799	90.28
403.008	247.97
403.217	221.35
403.426	84.14
403.635	127.14
403.844	168.1
404.053	137.38
404.262	125.1
404.471	260.26
404.68	164.01
404.888	170.15
405.097	233.64
405.306	141.48
405.515	178.34
405.724	215.21
405.933	194.73
406.142	153.77
406.35	231.59
406.559	223.4
406.768	168.1
406.977	338.09
407.185	256.17
407.394	311.46
407.603	227.5
407.812	252.07
408.02	313.51
408.229	354.47
408.438	321.7
408.646	258.21
408.855	264.36
409.064	362.66
409.272	268.45
409.481	401.57
409.69	342.18
409.898	348.33
410.107	432.29
410.315	381.09
410.524	456.87
410.733	432.29
410.941	362.66
411.15	538.79
411.358	514.21
411.567	481.44
411.775	497.83
411.984	497.83
412.192	546.98
412.401	516.26
412.609	540.83
412.818	569.51
413.026	643.23
413.234	583.84
413.443	632.99
413.651	620.71
413.86	809.12
414.068	809.12
414.276	821.41
414.485	776.35
414.693	768.16
414.901	821.41
415.11	932
415.318	919.71
415.526	934.04
415.734	995.48
415.943	999.58
416.151	1034.39
416.359	1024.16
416.567	1067.16
416.776	1212.57
416.984	1239.19
417.192	1214.62
417.4	1327.25
417.608	1251.48
417.817	1255.58
418.025	1321.11
418.233	1433.75
418.441	1464.47
418.649	1446.04
418.857	1603.73
419.065	1702.03
419.273	1724.56
419.481	1794.19
419.689	1867.92
419.897	1849.49
420.105	1933.45
420.313	1964.17
420.521	2082.95
420.729	2199.69
420.937	2136.2
421.145	2211.98
421.353	2297.99
421.561	2504.84
421.769	2416.77
421.977	2629.76
422.185	2627.71
422.393	2760.83
422.601	2887.81
422.809	2836.61
423.017	2973.82
423.224	3076.22
423.432	3117.18
423.64	3145.85
423.848	3442.81
424.056	3334.26
424.263	3582.07
424.471	3586.16
424.679	3829.87
424.887	3768.43
425.094	4028.53
425.302	4114.54
425.51	4055.15
425.718	4221.03
425.925	4391.02
426.133	4591.72
426.341	4724.83
426.548	5007.45
426.756	4989.02
426.964	5242.97
427.171	5398.62
427.379	5537.88
427.586	5630.04
427.794	5701.72
428.001	6123.6
428.209	6176.84
428.417	6193.23
428.624	6619.21
428.832	6598.73
429.039	6670.4
429.247	6596.68
429.454	7241.79
429.662	7499.83
429.869	7125.05
430.076	7778.36
430.284	7544.89
430.491	7917.62
430.699	8425.51
430.906	8484.91
431.114	8529.96
431.321	8933.41
431.528	9003.04
431.736	9611.29
431.943	9865.24
432.15	9633.82
432.358	9711.64
432.565	10283.02
432.772	10178.58
432.979	10723.34
433.187	10915.84
433.394	10891.27
433.601	11775.99
433.808	11694.07
434.016	11563
434.223	12238.83
434.43	12845.03
434.637	12787.69
434.844	13344.74
435.052	13576.16
435.259	13639.64
435.466	13879.25
435.673	13811.67
435.88	14553.04
436.087	15304.64
436.294	15200.19
436.501	15040.45
436.708	15318.98
436.915	15775.67
437.122	16431.02
437.329	16465.84
437.537	16861.1
437.743	17092.52
437.95	17178.53
438.157	18026.39
438.364	18665.36
438.571	18712.46
438.778	18653.07
438.985	20496.24
439.192	19644.29
439.399	20359.03
439.606	19857.28
439.813	21186.41
440.02	22255.45
440.227	22001.5
440.433	21704.54
440.64	22404.95
440.847	22048.6
441.054	22656.85
441.261	24131.39
441.467	23629.63
441.674	24504.12
441.881	25388.84
442.088	25300.78
442.294	24813.36
442.501	25755.43
442.708	26365.72
442.914	27313.93
443.121	28112.64
443.328	27729.67
443.534	29650.66
443.741	28659.45
443.948	28346.11
444.154	30547.67
444.361	30097.12
444.568	30547.67
444.774	30539.48
444.981	30725.85
445.187	31874.76
445.394	32612.03
445.6	32923.32
445.807	35653.26
446.013	34109.09
446.22	35094.16
446.426	36423.29
446.633	36206.21
446.839	37838.44
447.046	36224.64
447.252	38112.87
447.459	38288.99
447.665	38219.36
447.871	39923.27
448.078	41492.02
448.284	39308.88
448.491	40236.61
448.697	42116.65
448.903	42364.45
449.11	42657.31
449.316	42405.41
449.522	42780.19
449.728	44406.28
449.935	44779.01
450.141	44740.1
450.347	45387.25
450.553	43789.84
450.76	44740.1
450.966	46071.28
451.172	45538.8
451.378	46575.08
451.584	45868.53
451.791	47039.96
451.997	47035.87
452.203	47177.18
452.409	47316.44
452.615	47377.88
452.821	45678.07
453.027	44797.44
453.233	47144.41
453.44	45886.96
453.646	46030.32
453.852	46464.49
454.058	47386.07
454.264	45520.37
454.47	46769.63
454.676	45164.03
454.882	47162.84
455.088	42860.06
455.294	43695.63
455.5	44469.76
455.705	44879.36
455.911	42636.83
456.117	42241.57
456.323	41862.7
456.529	39454.29
456.735	40853.05
456.941	40185.41
457.147	39476.82
457.352	38379.11
457.558	37895.78
457.764	38084.2
457.97	37318.26
458.176	36406.91
458.381	36527.74
458.587	34449.05
458.793	34528.92
458.999	32861.88
459.204	35149.46
459.41	34231.97
459.616	31944.39
459.821	31633.1
460.027	31837.89
460.233	31184.59
460.438	29961.95
460.644	30273.24
460.85	28690.16
461.055	28108.54
461.261	28104.45
461.466	26148.64
461.672	25419.56
461.878	27178.76
462.083	25532.2
462.289	24631.09
462.494	24837.94
462.7	23328.58
462.905	22802.25
463.111	23586.63
463.316	23744.32
463.522	23347.01
463.727	23385.93
463.932	23201.61
464.138	23086.92
464.343	23207.75
464.549	22527.83
464.754	23392.07
464.959	22826.83
465.165	22785.87
465.37	22073.18
465.575	21213.03
465.781	22093.66
465.986	22531.92
466.191	21585.76
466.397	20991.85
466.602	20127.61
466.807	21063.53
