Data from USB4F104151__63__12-42-02-449.txt Node

Date: Fri Mar 14 12:42:02 EDT 2025
User: louis
Spectrometer: USB4F10415
Trigger mode: 4
Integration Time (sec): 3.000000E-2
Scans to average: 1
Electric dark correction enabled: true
Nonlinearity correction enabled: false
Boxcar width: 0
XAxis mode: Wavelengths
Number of Pixels in Spectrum: 3648
>>>>>Begin Spectral Data<<<<<
178.204	-122.88
178.424	-122.88
178.644	-122.88
178.864	-120.83
179.084	-135.17
179.304	55.3
179.524	-14.34
179.744	20.48
179.964	12.29
180.184	-16.38
180.404	-2.05
180.624	-40.96
180.844	16.38
181.064	-92.16
181.283	45.06
181.503	-16.38
181.723	32.77
181.943	-47.1
182.163	149.5
182.383	30.72
182.602	67.58
182.822	71.68
183.042	26.62
183.262	-40.96
183.482	22.53
183.701	73.73
183.921	-45.06
184.141	43.01
184.361	26.62
184.58	-43.01
184.8	38.91
185.02	16.38
185.239	45.06
185.459	45.06
185.679	83.97
185.898	32.77
186.118	61.44
186.338	8.19
186.557	38.91
186.777	-8.19
186.997	-30.72
187.216	34.82
187.436	65.54
187.655	47.1
187.875	120.83
188.095	34.82
188.314	14.34
188.534	51.2
188.753	6.14
188.973	92.16
189.192	79.87
189.412	-4.1
189.631	26.62
189.851	-12.29
190.07	12.29
190.29	24.58
190.509	22.53
190.729	36.86
190.948	141.31
191.168	172.03
191.387	45.06
191.607	-4.1
191.826	49.15
192.045	36.86
192.265	61.44
192.484	16.38
192.704	47.1
192.923	0
193.142	104.45
193.362	61.44
193.581	133.12
193.8	20.48
194.02	61.44
194.239	12.29
194.458	-30.72
194.678	-36.86
194.897	36.86
195.116	22.53
195.335	36.86
195.555	18.43
195.774	122.88
195.993	45.06
196.212	65.54
196.432	40.96
196.651	-26.62
196.87	16.38
197.089	38.91
197.308	20.48
197.528	61.44
197.747	49.15
197.966	79.87
198.185	14.34
198.404	14.34
198.623	24.58
198.842	30.72
199.062	63.49
199.281	65.54
199.5	-8.19
199.719	77.82
199.938	24.58
200.157	98.3
200.376	114.69
200.595	38.91
200.814	43.01
201.033	16.38
201.252	67.58
201.471	94.21
201.69	81.92
201.909	59.39
202.128	67.58
202.347	55.3
202.566	-16.38
202.785	65.54
203.004	-10.24
203.223	147.45
203.442	18.43
203.661	51.2
203.879	57.34
204.098	149.5
204.317	14.34
204.536	141.31
204.755	147.45
204.974	67.58
205.193	32.77
205.411	90.11
205.63	4.1
205.849	30.72
206.068	53.25
206.287	36.86
206.505	6.14
206.724	24.58
206.943	83.97
207.162	-63.49
207.381	90.11
207.599	18.43
207.818	149.5
208.037	40.96
208.255	67.58
208.474	34.82
208.693	63.49
208.911	45.06
209.13	100.35
209.349	8.19
209.567	118.78
209.786	114.69
210.005	45.06
210.223	6.14
210.442	24.58
210.661	-4.1
210.879	67.58
211.098	22.53
211.316	-38.91
211.535	81.92
211.753	4.1
211.972	86.01
212.191	81.92
212.409	47.1
212.628	26.62
212.846	40.96
213.065	59.39
213.283	-16.38
213.502	61.44
213.72	-6.14
213.938	47.1
214.157	61.44
214.375	-22.53
214.594	-26.62
214.812	38.91
215.031	45.06
215.249	88.06
215.467	40.96
215.686	20.48
215.904	79.87
216.122	26.62
216.341	51.2
216.559	116.73
216.778	22.53
216.996	30.72
217.214	118.78
217.432	67.58
217.651	8.19
217.869	-2.05
218.087	-34.82
218.306	-10.24
218.524	63.49
218.742	75.77
218.96	-2.05
219.179	-34.82
219.397	-57.34
219.615	65.54
219.833	53.25
220.051	-36.86
220.27	-2.05
220.488	83.97
220.706	73.73
220.924	20.48
221.142	8.19
221.36	51.2
221.578	32.77
221.796	12.29
222.015	90.11
222.233	47.1
222.451	118.78
222.669	-8.19
222.887	67.58
223.105	110.59
223.323	-20.48
223.541	92.16
223.759	53.25
223.977	-20.48
224.195	67.58
224.413	18.43
224.631	26.62
224.849	-8.19
225.067	43.01
225.285	36.86
225.503	12.29
225.721	-10.24
225.939	88.06
226.157	-36.86
226.375	94.21
226.592	69.63
226.81	59.39
227.028	45.06
227.246	106.49
227.464	12.29
227.682	49.15
227.9	73.73
228.117	24.58
228.335	61.44
228.553	45.06
228.771	75.77
228.989	47.1
229.206	75.77
229.424	77.82
229.642	36.86
229.86	-32.77
230.077	77.82
230.295	59.39
230.513	106.49
230.731	108.54
230.948	59.39
231.166	92.16
231.384	-47.1
231.601	-8.19
231.819	63.49
232.037	-47.1
232.254	45.06
232.472	55.3
232.689	-6.14
232.907	49.15
233.125	-20.48
233.342	-30.72
233.56	26.62
233.777	67.58
233.995	12.29
234.213	6.14
234.43	51.2
234.648	79.87
234.865	6.14
235.083	59.39
235.3	8.19
235.518	28.67
235.735	53.25
235.953	104.45
236.17	-34.82
236.388	71.68
236.605	108.54
236.822	79.87
237.04	59.39
237.257	36.86
237.475	53.25
237.692	26.62
237.909	69.63
238.127	0
238.344	71.68
238.562	67.58
238.779	43.01
238.996	-4.1
239.214	-43.01
239.431	71.68
239.648	38.91
239.865	30.72
240.083	63.49
240.3	-4.1
240.517	-24.58
240.735	28.67
240.952	122.88
241.169	86.01
241.386	116.73
241.603	24.58
241.821	10.24
242.038	90.11
242.255	28.67
242.472	83.97
242.689	-8.19
242.907	22.53
243.124	67.58
243.341	94.21
243.558	8.19
243.775	18.43
243.992	-2.05
244.209	77.82
244.426	45.06
244.643	59.39
244.86	36.86
245.078	73.73
245.295	26.62
245.512	8.19
245.729	55.3
245.946	28.67
246.163	96.25
246.38	2.05
246.597	65.54
246.814	73.73
247.031	20.48
247.248	81.92
247.464	63.49
247.681	155.65
247.898	4.1
248.115	10.24
248.332	-6.14
248.549	61.44
248.766	36.86
248.983	45.06
249.2	4.1
249.417	102.4
249.633	-2.05
249.85	126.97
250.067	71.68
250.284	28.67
250.501	75.77
250.717	45.06
250.934	53.25
251.151	110.59
251.368	0
251.585	83.97
251.801	43.01
252.018	24.58
252.235	83.97
252.451	28.67
252.668	-14.34
252.885	104.45
253.102	-6.14
253.318	-45.06
253.535	-26.62
253.752	34.82
253.968	47.1
254.185	2.05
254.401	43.01
254.618	83.97
254.835	90.11
255.051	71.68
255.268	22.53
255.484	20.48
255.701	77.82
255.917	-14.34
256.134	71.68
256.351	55.3
256.567	104.45
256.784	22.53
257	18.43
257.217	43.01
257.433	12.29
257.65	26.62
257.866	102.4
258.082	51.2
258.299	49.15
258.515	10.24
258.732	12.29
258.948	-16.38
259.165	16.38
259.381	20.48
259.597	57.34
259.814	63.49
260.03	67.58
260.246	59.39
260.463	61.44
260.679	61.44
260.895	18.43
261.112	106.49
261.328	20.48
261.544	16.38
261.761	86.01
261.977	49.15
262.193	-12.29
262.409	55.3
262.626	24.58
262.842	88.06
263.058	49.15
263.274	49.15
263.49	16.38
263.707	69.63
263.923	40.96
264.139	8.19
264.355	38.91
264.571	53.25
264.787	2.05
265.004	71.68
265.22	43.01
265.436	47.1
265.652	71.68
265.868	-14.34
266.084	-38.91
266.3	28.67
266.516	43.01
266.732	61.44
266.948	34.82
267.164	55.3
267.38	43.01
267.596	-2.05
267.812	126.97
268.028	59.39
268.244	57.34
268.46	114.69
268.676	49.15
268.892	32.77
269.108	55.3
269.324	-10.24
269.54	14.34
269.756	71.68
269.972	10.24
270.188	67.58
270.403	10.24
270.619	118.78
270.835	63.49
271.051	-2.05
271.267	38.91
271.483	20.48
271.698	8.19
271.914	40.96
272.13	12.29
272.346	32.77
272.562	77.82
272.777	122.88
272.993	55.3
273.209	106.49
273.425	61.44
273.64	49.15
273.856	120.83
274.072	59.39
274.287	38.91
274.503	38.91
274.719	61.44
274.934	51.2
275.15	36.86
275.366	43.01
275.581	6.14
275.797	0
276.012	22.53
276.228	18.43
276.444	10.24
276.659	83.97
276.875	18.43
277.09	38.91
277.306	90.11
277.521	151.55
277.737	32.77
277.952	36.86
278.168	-22.53
278.383	26.62
278.599	4.1
278.814	61.44
279.03	69.63
279.245	86.01
279.461	43.01
279.676	126.97
279.892	-47.1
280.107	110.59
280.322	-2.05
280.538	110.59
280.753	-8.19
280.969	53.25
281.184	59.39
281.399	30.72
281.615	92.16
281.83	43.01
282.045	36.86
282.26	-16.38
282.476	53.25
282.691	28.67
282.906	26.62
283.122	-34.82
283.337	22.53
283.552	30.72
283.767	14.34
283.983	38.91
284.198	14.34
284.413	22.53
284.628	28.67
284.843	57.34
285.058	73.73
285.274	-28.67
285.489	40.96
285.704	-12.29
285.919	38.91
286.134	100.35
286.349	22.53
286.564	12.29
286.779	149.5
286.995	30.72
287.21	-34.82
287.425	8.19
287.64	38.91
287.855	-47.1
288.07	65.54
288.285	36.86
288.5	10.24
288.715	-4.1
288.93	53.25
289.145	40.96
289.36	28.67
289.575	47.1
289.79	145.41
290.004	81.92
290.219	112.64
290.434	120.83
290.649	30.72
290.864	51.2
291.079	86.01
291.294	133.12
291.509	73.73
291.724	57.34
291.938	79.87
292.153	40.96
292.368	77.82
292.583	45.06
292.798	61.44
293.012	18.43
293.227	-32.77
293.442	32.77
293.657	108.54
293.871	61.44
294.086	10.24
294.301	92.16
294.516	53.25
294.73	63.49
294.945	26.62
295.16	63.49
295.374	26.62
295.589	63.49
295.804	47.1
296.018	51.2
296.233	98.3
296.447	71.68
296.662	94.21
296.877	20.48
297.091	69.63
297.306	30.72
297.52	-57.34
297.735	88.06
297.949	92.16
298.164	-6.14
298.378	51.2
298.593	0
298.807	28.67
299.022	22.53
299.236	57.34
299.451	53.25
299.665	-59.39
299.88	-2.05
300.094	26.62
300.309	49.15
300.523	61.44
300.737	40.96
300.952	36.86
301.166	63.49
301.381	26.62
301.595	86.01
301.809	24.58
302.024	38.91
302.238	71.68
302.452	129.02
302.667	53.25
302.881	65.54
303.095	94.21
303.309	-6.14
303.524	20.48
303.738	51.2
303.952	40.96
304.166	81.92
304.381	-57.34
304.595	110.59
304.809	38.91
305.023	79.87
305.237	73.73
305.452	-10.24
305.666	-34.82
305.88	71.68
306.094	57.34
306.308	-10.24
306.522	43.01
306.736	28.67
306.95	-34.82
307.164	139.26
307.379	61.44
307.593	-2.05
307.807	67.58
308.021	63.49
308.235	90.11
308.449	-59.39
308.663	49.15
308.877	36.86
309.091	43.01
309.305	-12.29
309.519	63.49
309.733	22.53
309.947	2.05
310.161	51.2
310.374	86.01
310.588	16.38
310.802	-6.14
311.016	83.97
311.23	28.67
311.444	61.44
311.658	4.1
311.872	96.25
312.085	36.86
312.299	55.3
312.513	18.43
312.727	67.58
312.941	104.45
313.154	63.49
313.368	131.07
313.582	75.77
313.796	26.62
314.009	65.54
314.223	88.06
314.437	22.53
314.651	45.06
314.864	-40.96
315.078	26.62
315.292	67.58
315.505	65.54
315.719	69.63
315.933	12.29
316.146	-53.25
316.36	22.53
316.573	90.11
316.787	118.78
317.001	57.34
317.214	32.77
317.428	45.06
317.641	106.49
317.855	51.2
318.068	-43.01
318.282	34.82
318.495	88.06
318.709	63.49
318.922	65.54
319.136	69.63
319.349	110.59
319.563	28.67
319.776	65.54
319.99	6.14
320.203	108.54
320.417	65.54
320.63	83.97
320.843	96.25
321.057	4.1
321.27	6.14
321.483	116.73
321.697	63.49
321.91	-36.86
322.124	94.21
322.337	59.39
322.55	32.77
322.763	61.44
322.977	26.62
323.19	-20.48
323.403	88.06
323.617	36.86
323.83	104.45
324.043	28.67
324.256	40.96
324.469	8.19
324.683	49.15
324.896	86.01
325.109	96.25
325.322	-28.67
325.535	40.96
325.748	79.87
325.962	16.38
326.175	8.19
326.388	69.63
326.601	49.15
326.814	51.2
327.027	88.06
327.24	102.4
327.453	-57.34
327.666	61.44
327.879	118.78
328.092	96.25
328.305	34.82
328.518	63.49
328.731	24.58
328.944	-14.34
329.157	6.14
329.37	28.67
329.583	176.13
329.796	40.96
330.009	32.77
330.222	65.54
330.435	86.01
330.648	4.1
330.861	-22.53
331.073	106.49
331.286	79.87
331.499	88.06
331.712	-53.25
331.925	-96.25
332.138	90.11
332.35	-4.1
332.563	32.77
332.776	98.3
332.989	79.87
333.202	14.34
333.414	49.15
333.627	81.92
333.84	69.63
334.053	98.3
334.265	8.19
334.478	10.24
334.691	108.54
334.903	53.25
335.116	0
335.329	28.67
335.541	28.67
335.754	57.34
335.966	43.01
336.179	61.44
336.392	77.82
336.604	61.44
336.817	90.11
337.029	112.64
337.242	83.97
337.454	92.16
337.667	4.1
337.88	65.54
338.092	51.2
338.305	57.34
338.517	-6.14
338.729	98.3
338.942	118.78
339.154	26.62
339.367	-10.24
339.579	77.82
339.792	49.15
340.004	63.49
340.217	-6.14
340.429	57.34
340.641	75.77
340.854	94.21
341.066	-8.19
341.278	75.77
341.491	79.87
341.703	75.77
341.915	-2.05
342.128	100.35
342.34	88.06
342.552	45.06
342.764	22.53
342.977	61.44
343.189	71.68
343.401	104.45
343.613	22.53
343.826	102.4
344.038	18.43
344.25	36.86
344.462	-26.62
344.674	92.16
344.886	47.1
345.099	34.82
345.311	81.92
345.523	88.06
345.735	-32.77
345.947	6.14
346.159	77.82
346.371	53.25
346.583	6.14
346.795	90.11
347.007	47.1
347.219	79.87
347.431	73.73
347.643	86.01
347.855	73.73
348.067	53.25
348.279	26.62
348.491	67.58
348.703	90.11
348.915	79.87
349.127	18.43
349.339	83.97
349.551	4.1
349.763	61.44
349.975	45.06
350.187	100.35
350.399	-2.05
350.61	110.59
350.822	96.25
351.034	86.01
351.246	-12.29
351.458	47.1
351.669	55.3
351.881	73.73
352.093	16.38
352.305	112.64
352.517	61.44
352.728	77.82
352.94	6.14
353.152	79.87
353.363	20.48
353.575	30.72
353.787	75.77
353.999	10.24
354.21	79.87
354.422	40.96
354.633	69.63
354.845	6.14
355.057	63.49
355.268	90.11
355.48	86.01
355.692	0
355.903	2.05
356.115	-16.38
356.326	40.96
356.538	88.06
356.749	92.16
356.961	94.21
357.172	30.72
357.384	51.2
357.595	53.25
357.807	55.3
358.018	18.43
358.23	100.35
358.441	92.16
358.653	2.05
358.864	38.91
359.075	-10.24
359.287	77.82
359.498	63.49
359.709	131.07
359.921	45.06
360.132	67.58
360.344	32.77
360.555	67.58
360.766	14.34
360.977	-24.58
361.189	120.83
361.4	65.54
361.611	108.54
361.823	65.54
362.034	34.82
362.245	-34.82
362.456	51.2
362.667	131.07
362.879	51.2
363.09	79.87
363.301	88.06
363.512	0
363.723	8.19
363.935	18.43
364.146	30.72
364.357	40.96
364.568	14.34
364.779	-4.1
364.99	88.06
365.201	22.53
365.412	61.44
365.623	-10.24
365.834	-6.14
366.045	75.77
366.256	116.73
366.467	110.59
366.678	57.34
366.889	-6.14
367.1	153.6
367.311	59.39
367.522	6.14
367.733	26.62
367.944	155.65
368.155	-16.38
368.366	81.92
368.577	98.3
368.788	90.11
368.999	-6.14
369.209	47.1
369.42	129.02
369.631	165.89
369.842	83.97
370.053	-4.1
370.264	45.06
370.474	-14.34
370.685	75.77
370.896	43.01
371.107	147.45
371.317	131.07
371.528	43.01
371.739	90.11
371.95	157.69
372.16	71.68
372.371	55.3
372.582	77.82
372.792	102.4
373.003	65.54
373.214	34.82
373.424	116.73
373.635	34.82
373.846	90.11
374.056	-26.62
374.267	108.54
374.477	49.15
374.688	40.96
374.898	47.1
375.109	77.82
375.319	86.01
375.53	100.35
375.74	-22.53
375.951	36.86
376.161	38.91
376.372	16.38
376.582	12.29
376.793	69.63
377.003	30.72
377.214	71.68
377.424	88.06
377.635	47.1
377.845	24.58
378.055	73.73
378.266	-79.87
378.476	24.58
378.686	77.82
378.897	90.11
379.107	18.43
379.317	112.64
379.528	6.14
379.738	106.49
379.948	34.82
380.158	4.1
380.369	96.25
380.579	116.73
380.789	51.2
380.999	61.44
381.21	129.02
381.42	106.49
381.63	100.35
381.84	71.68
382.05	83.97
382.261	98.3
382.471	65.54
382.681	16.38
382.891	155.65
383.101	24.58
383.311	-18.43
383.521	22.53
383.731	32.77
383.941	57.34
384.151	4.1
384.361	53.25
384.571	65.54
384.781	118.78
384.991	112.64
385.201	96.25
385.411	104.45
385.621	83.97
385.831	61.44
386.041	73.73
386.251	65.54
386.461	88.06
386.671	98.3
386.881	24.58
387.091	36.86
387.301	129.02
387.511	26.62
387.72	55.3
387.93	53.25
388.14	-14.34
388.35	18.43
388.56	92.16
388.769	59.39
388.979	71.68
389.189	12.29
389.399	116.73
389.609	63.49
389.818	120.83
390.028	77.82
390.238	-24.58
390.447	67.58
390.657	141.31
390.867	110.59
391.076	16.38
391.286	75.77
391.496	45.06
391.705	73.73
391.915	129.02
392.125	100.35
392.334	143.36
392.544	116.73
392.753	30.72
392.963	114.69
393.172	149.5
393.382	86.01
393.591	49.15
393.801	98.3
394.01	102.4
394.22	98.3
394.429	65.54
394.639	65.54
394.848	94.21
395.058	75.77
395.267	104.45
395.477	49.15
395.686	71.68
395.895	137.21
396.105	196.61
396.314	129.02
396.524	96.25
396.733	71.68
396.942	184.32
397.152	79.87
397.361	155.65
397.57	69.63
397.78	81.92
397.989	77.82
398.198	129.02
398.407	73.73
398.617	122.88
398.826	57.34
399.035	118.78
399.244	77.82
399.453	139.26
399.663	116.73
399.872	145.41
400.081	61.44
400.29	149.5
400.499	135.17
400.708	114.69
400.917	90.11
401.127	81.92
401.336	83.97
401.545	90.11
401.754	182.27
401.963	100.35
402.172	104.45
402.381	81.92
402.59	141.31
402.799	61.44
403.008	133.12
403.217	73.73
403.426	79.87
403.635	120.83
403.844	100.35
404.053	112.64
404.262	63.49
404.471	196.61
404.68	215.04
404.888	129.02
405.097	229.37
405.306	122.88
405.515	147.45
405.724	217.08
405.933	188.41
406.142	235.52
406.35	184.32
406.559	131.07
406.768	167.93
406.977	194.56
407.185	200.7
407.394	260.09
407.603	206.84
407.812	219.13
408.02	239.61
408.229	227.32
408.438	174.08
408.646	198.65
408.855	272.38
409.064	258.04
409.272	278.52
409.481	264.19
409.69	319.48
409.898	270.33
410.107	262.14
410.315	296.96
410.524	370.68
410.733	405.5
410.941	290.81
411.15	372.73
411.358	405.5
411.567	458.75
411.775	438.27
411.984	495.61
412.192	477.18
412.401	409.59
412.609	481.27
412.818	417.79
413.026	432.12
413.234	585.72
413.443	434.17
413.651	600.05
413.86	528.38
414.068	636.92
414.276	585.72
414.485	614.39
414.693	614.39
414.901	724.98
415.11	684.02
415.318	712.69
415.526	741.36
415.734	767.99
415.943	772.08
416.151	888.82
416.359	843.76
416.567	811
416.776	894.96
416.984	1001.46
417.192	923.63
417.4	954.35
417.608	972.79
417.817	1040.37
418.025	1130.48
418.233	1155.05
418.441	1058.8
418.649	1157.1
418.857	1230.83
419.065	1275.88
419.273	1312.75
419.481	1325.04
419.689	1415.15
419.897	1507.31
420.105	1468.39
420.313	1472.49
420.521	1646.57
420.729	1595.37
420.937	1689.57
421.145	1611.75
421.353	1808.36
421.561	1888.23
421.769	1937.38
421.977	2009.06
422.185	2097.12
422.393	2211.81
422.601	2289.63
422.809	2267.1
423.017	2213.85
423.224	2367.45
423.432	2465.75
423.64	2465.75
423.848	2658.26
424.056	2617.3
424.263	2754.52
424.471	2832.34
424.679	2871.25
424.887	2893.78
425.094	3100.62
425.302	3209.17
425.51	3200.98
425.718	3418.06
425.925	3477.45
426.133	3600.33
426.341	3717.06
426.548	3786.69
426.756	4014.02
426.964	4005.83
427.171	4116.42
427.379	4368.32
427.586	4227.01
427.794	4448.19
428.001	4669.37
428.209	4863.93
428.417	4827.06
428.624	5205.94
428.832	5078.96
429.039	5056.43
429.247	5294
429.454	5717.93
429.662	6072.23
429.869	5607.34
430.076	5961.64
430.284	5851.05
430.491	6121.38
430.699	6375.33
430.906	6571.93
431.114	6539.16
431.321	6705.05
431.528	6905.75
431.736	7321.49
431.943	7526.29
432.15	7534.48
432.358	7491.47
432.565	8046.47
432.772	7843.72
432.979	8480.64
433.187	8402.82
433.394	8429.44
433.601	9115.51
433.808	9064.31
434.016	9015.16
434.223	9461.62
434.43	10022.76
434.637	9838.44
434.844	10354.53
435.052	10616.67
435.259	10346.34
435.466	10719.07
435.673	10688.35
435.88	11319.12
436.087	11931.47
436.294	12091.21
436.501	11700.05
436.708	11880.27
436.915	11992.9
437.122	12746.56
437.329	12640.06
437.537	13125.43
437.743	13254.45
437.95	13289.27
438.157	13918
438.364	14276.39
438.571	14384.93
438.778	14235.43
438.985	15714.06
439.192	15034.14
439.399	15683.34
439.606	15230.74
439.813	16121.61
440.02	17075.96
440.227	16770.82
440.433	16764.67
440.64	17204.99
440.847	17166.07
441.054	17575.67
441.261	18775.78
441.467	18622.18
441.674	18841.31
441.881	19728.08
442.088	19373.78
442.294	19130.08
442.501	19920.59
442.708	20422.34
442.914	20844.23
443.121	21913.27
443.328	21239.48
443.534	22865.57
443.741	22199.98
443.948	21726.9
444.154	23625.37
444.361	23066.27
444.568	23494.3
444.774	23299.74
444.981	23975.57
445.187	24520.33
445.394	25312.89
445.6	24884.87
445.807	27510.36
446.013	26519.15
446.22	26906.21
446.426	27999.83
446.633	28204.63
446.839	29193.79
447.046	27997.78
447.252	29658.68
447.459	29681.21
447.665	29439.55
447.871	30701.1
448.078	31751.71
448.284	30176.82
448.491	31378.98
448.697	32335.38
448.903	33240.58
449.11	33627.65
449.316	32824.84
449.522	33445.38
449.728	34377.2
449.935	34477.55
450.141	34559.47
450.347	35192.29
450.553	34139.64
450.76	34375.16
450.966	35859.93
451.172	35319.27
451.378	36267.48
451.584	35474.91
451.791	36447.7
451.997	36462.04
452.203	37084.62
452.409	37064.14
452.615	36617.68
452.821	35620.32
453.027	35134.95
453.233	36912.59
453.44	35528.16
453.646	35847.64
453.852	35890.65
454.058	36572.63
454.264	35431.91
454.47	36453.84
454.676	35634.66
454.882	36734.42
455.088	33510.91
455.294	33977.85
455.5	34166.26
455.705	34618.86
455.911	33756.67
456.117	32693.77
456.323	32773.64
456.529	30567.98
456.735	31979.03
456.941	31313.44
457.147	30535.21
457.352	29806.14
457.558	29433.41
457.764	29404.74
457.97	28950.09
458.176	28661.32
458.381	28575.31
458.587	26891.88
458.793	27020.9
458.999	25591.42
459.204	27539.04
459.41	26574.44
459.616	24929.92
459.821	24915.59
460.027	24882.82
460.233	24080.02
460.438	22943.39
460.644	23565.98
460.85	22269.61
461.055	22073.01
461.261	22099.63
461.466	20338.38
461.672	19525.33
461.878	20928.19
462.083	19660.5
462.289	19115.74
462.494	19044.06
462.7	18222.83
462.905	17848.05
463.111	18536.17
463.316	18568.93
463.522	17802.99
463.727	17747.7
463.932	18099.95
464.138	17925.87
464.343	18069.23
464.549	17247.99
464.754	17966.83
464.959	17862.38
465.165	17610.48
465.37	17075.96
465.575	16371.46
465.781	17254.14
465.986	17123.07
466.191	16656.13
466.397	16396.04
466.602	15474.45
466.807	16299.78
467.012	16193.29
467.218	16080.65
467.423	15951.63
