Data from USB4F104151__52__12-41-44-391.txt Node

Date: Fri Mar 14 12:41:44 EDT 2025
User: louis
Spectrometer: USB4F10415
Trigger mode: 4
Integration Time (sec): 3.000000E-2
Scans to average: 1
Electric dark correction enabled: true
Nonlinearity correction enabled: false
Boxcar width: 0
XAxis mode: Wavelengths
Number of Pixels in Spectrum: 3648
>>>>>Begin Spectral Data<<<<<
178.204	-98.47
178.424	-98.47
178.644	-98.47
178.864	-92.33
179.084	-114.86
179.304	63.32
179.524	-28.84
179.744	-43.18
179.964	89.94
180.184	-30.89
180.404	5.97
180.624	69.46
180.844	3.93
181.064	-80.04
181.283	-51.37
181.503	-16.55
181.723	18.26
181.943	-67.75
182.163	104.28
182.383	18.26
182.602	63.32
182.822	26.45
183.042	18.26
183.262	-45.23
183.482	20.31
183.701	77.65
183.921	42.84
184.141	-37.03
184.361	-10.41
184.58	28.5
184.8	30.55
185.02	30.55
185.239	22.36
185.459	-26.79
185.679	26.45
185.898	-18.6
186.118	89.94
186.338	3.93
186.557	30.55
186.777	5.97
186.997	46.93
187.216	-49.32
187.436	65.36
187.655	8.02
187.875	71.51
188.095	36.69
188.314	3.93
188.534	98.13
188.753	-53.42
188.973	-10.41
189.192	-18.6
189.412	34.64
189.631	22.36
189.851	36.69
190.07	42.84
190.29	28.5
190.509	79.7
190.729	-10.41
190.948	-6.31
191.168	122.71
191.387	100.18
191.607	-14.51
191.826	1.88
192.045	28.5
192.265	-6.31
192.484	24.4
192.704	16.21
192.923	24.4
193.142	24.4
193.362	-37.03
193.581	61.27
193.8	32.6
194.02	69.46
194.239	77.65
194.458	73.56
194.678	-8.36
194.897	65.36
195.116	-32.94
195.335	89.94
195.555	24.4
195.774	-37.03
195.993	-8.36
196.212	8.02
196.432	96.08
196.651	14.17
196.87	3.93
197.089	55.12
197.308	36.69
197.528	77.65
197.747	14.17
197.966	1.88
198.185	40.79
198.404	42.84
198.623	30.55
198.842	22.36
199.062	104.28
199.281	73.56
199.5	20.31
199.719	26.45
199.938	61.27
200.157	48.98
200.376	32.6
200.595	100.18
200.814	32.6
201.033	46.93
201.252	-10.41
201.471	28.5
201.69	32.6
201.909	-2.22
202.128	69.46
202.347	16.21
202.566	20.31
202.785	34.64
203.004	71.51
203.223	85.84
203.442	5.97
203.661	48.98
203.879	-10.41
204.098	14.17
204.317	44.88
204.536	40.79
204.755	22.36
204.974	55.12
205.193	48.98
205.411	87.89
205.63	89.94
205.849	10.07
206.068	65.36
206.287	-6.31
206.505	14.17
206.724	57.17
206.943	12.12
207.162	-16.55
207.381	48.98
207.599	-28.84
207.818	71.51
208.037	-20.65
208.255	-47.27
208.474	67.41
208.693	14.17
208.911	61.27
209.13	-32.94
209.349	57.17
209.567	16.21
209.786	-30.89
210.005	18.26
210.223	-37.03
210.442	-28.84
210.661	51.03
210.879	44.88
211.098	57.17
211.316	38.74
211.535	94.04
211.753	14.17
211.972	-24.75
212.191	26.45
212.409	36.69
212.628	57.17
212.846	-88.23
213.065	-26.79
213.283	8.02
213.502	36.69
213.72	48.98
213.938	-53.42
214.157	-2.22
214.375	51.03
214.594	18.26
214.812	34.64
215.031	12.12
215.249	-18.6
215.467	87.89
215.686	42.84
215.904	61.27
216.122	42.84
216.341	28.5
216.559	-49.32
216.778	42.84
216.996	34.64
217.214	20.31
217.432	-24.75
217.651	48.98
217.869	-22.7
218.087	14.17
218.306	24.4
218.524	-0.17
218.742	38.74
218.96	-41.13
219.179	20.31
219.397	44.88
219.615	44.88
219.833	18.26
220.051	36.69
220.27	69.46
220.488	5.97
220.706	61.27
220.924	-28.84
221.142	104.28
221.36	-6.31
221.578	36.69
221.796	-22.7
222.015	24.4
222.233	-14.51
222.451	83.8
222.669	3.93
222.887	110.42
223.105	-20.65
223.323	28.5
223.541	-10.41
223.759	57.17
223.977	-6.31
224.195	18.26
224.413	46.93
224.631	3.93
224.849	-2.22
225.067	55.12
225.285	-0.17
225.503	20.31
225.721	-20.65
225.939	53.08
226.157	-8.36
226.375	104.28
226.592	-12.46
226.81	14.17
227.028	61.27
227.246	1.88
227.464	30.55
227.682	18.26
227.9	8.02
228.117	96.08
228.335	1.88
228.553	-28.84
228.771	-32.94
228.989	14.17
229.206	38.74
229.424	-45.23
229.642	42.84
229.86	-34.99
230.077	57.17
230.295	22.36
230.513	44.88
230.731	32.6
230.948	-10.41
231.166	108.37
231.384	-14.51
231.601	46.93
231.819	28.5
232.037	28.5
232.254	-51.37
232.472	65.36
232.689	46.93
232.907	5.97
233.125	32.6
233.342	-10.41
233.56	100.18
233.777	22.36
233.995	63.32
234.213	79.7
234.43	85.84
234.648	-26.79
234.865	10.07
235.083	12.12
235.3	38.74
235.518	26.45
235.735	34.64
235.953	30.55
236.17	12.12
236.388	24.4
236.605	-6.31
236.822	67.41
237.04	38.74
237.257	-2.22
237.475	-4.27
237.692	46.93
237.909	5.97
238.127	10.07
238.344	53.08
238.562	-2.22
238.779	-71.85
238.996	-49.32
239.214	28.5
239.431	48.98
239.648	38.74
239.865	1.88
240.083	69.46
240.3	12.12
240.517	-37.03
240.735	40.79
240.952	53.08
241.169	69.46
241.386	89.94
241.603	12.12
241.821	40.79
242.038	79.7
242.255	30.55
242.472	32.6
242.689	91.99
242.907	42.84
243.124	-32.94
243.341	-8.36
243.558	48.98
243.775	-14.51
243.992	-67.75
244.209	44.88
244.426	8.02
244.643	108.37
244.86	-37.03
245.078	20.31
245.295	-32.94
245.512	79.7
245.729	44.88
245.946	85.84
246.163	18.26
246.38	44.88
246.597	28.5
246.814	55.12
247.031	-18.6
247.248	81.75
247.464	38.74
247.681	34.64
247.898	32.6
248.115	59.22
248.332	-102.57
248.549	38.74
248.766	79.7
248.983	36.69
249.2	42.84
249.417	71.51
249.633	73.56
249.85	89.94
250.067	75.6
250.284	14.17
250.501	-6.31
250.717	38.74
250.934	38.74
251.151	53.08
251.368	-10.41
251.585	16.21
251.801	38.74
252.018	-28.84
252.235	-41.13
252.451	22.36
252.668	8.02
252.885	5.97
253.102	22.36
253.318	55.12
253.535	10.07
253.752	32.6
253.968	22.36
254.185	26.45
254.401	-32.94
254.618	118.61
254.835	20.31
255.051	85.84
255.268	5.97
255.484	20.31
255.701	110.42
255.917	18.26
256.134	110.42
256.351	22.36
256.567	28.5
256.784	75.6
257	-2.22
257.217	96.08
257.433	42.84
257.65	-6.31
257.866	87.89
258.082	20.31
258.299	32.6
258.515	38.74
258.732	40.79
258.948	-18.6
259.165	87.89
259.381	14.17
259.597	-2.22
259.814	-6.31
260.03	14.17
260.246	-98.47
260.463	77.65
260.679	5.97
260.895	14.17
261.112	44.88
261.328	-55.47
261.544	-26.79
261.761	91.99
261.977	-51.37
262.193	36.69
262.409	-0.17
262.626	22.36
262.842	-53.42
263.058	-22.7
263.274	48.98
263.49	83.8
263.707	38.74
263.923	51.03
264.139	14.17
264.355	-0.17
264.571	18.26
264.787	-8.36
265.004	114.52
265.22	-16.55
265.436	1.88
265.652	-18.6
265.868	36.69
266.084	-63.66
266.3	-37.03
266.516	-88.23
266.732	16.21
266.948	94.04
267.164	112.47
267.38	46.93
267.596	75.6
267.812	-2.22
268.028	65.36
268.244	71.51
268.46	126.8
268.676	28.5
268.892	-4.27
269.108	22.36
269.324	63.32
269.54	-0.17
269.756	42.84
269.972	-26.79
270.188	42.84
270.403	-26.79
270.619	32.6
270.835	-26.79
271.051	5.97
271.267	34.64
271.483	14.17
271.698	-2.22
271.914	-30.89
272.13	32.6
272.346	77.65
272.562	-2.22
272.777	59.22
272.993	46.93
273.209	3.93
273.425	20.31
273.64	-47.27
273.856	59.22
274.072	100.18
274.287	10.07
274.503	83.8
274.719	44.88
274.934	67.41
275.15	-37.03
275.366	-18.6
275.581	-10.41
275.797	-12.46
276.012	5.97
276.228	46.93
276.444	-0.17
276.659	104.28
276.875	-24.75
277.09	-2.22
277.306	71.51
277.521	36.69
277.737	22.36
277.952	34.64
278.168	48.98
278.383	57.17
278.599	53.08
278.814	32.6
279.03	10.07
279.245	87.89
279.461	-18.6
279.676	24.4
279.892	-16.55
280.107	32.6
280.322	26.45
280.538	48.98
280.753	-2.22
280.969	34.64
281.184	59.22
281.399	77.65
281.615	5.97
281.83	110.42
282.045	5.97
282.26	28.5
282.476	-18.6
282.691	57.17
282.906	-39.08
283.122	-14.51
283.337	42.84
283.552	85.84
283.767	14.17
283.983	73.56
284.198	26.45
284.413	14.17
284.628	-2.22
284.843	89.94
285.058	30.55
285.274	40.79
285.489	16.21
285.704	79.7
285.919	24.4
286.134	1.88
286.349	51.03
286.564	83.8
286.779	18.26
286.995	77.65
287.21	-49.32
287.425	18.26
287.64	40.79
287.855	38.74
288.07	10.07
288.285	40.79
288.5	-16.55
288.715	96.08
288.93	75.6
289.145	59.22
289.36	-2.22
289.575	40.79
289.79	57.17
290.004	28.5
290.219	30.55
290.434	26.45
290.649	38.74
290.864	-12.46
291.079	63.32
291.294	24.4
291.509	48.98
291.724	-2.22
291.938	14.17
292.153	73.56
292.368	22.36
292.583	8.02
292.798	32.6
293.012	69.46
293.227	-8.36
293.442	83.8
293.657	-12.46
293.871	94.04
294.086	20.31
294.301	87.89
294.516	5.97
294.73	10.07
294.945	36.69
295.16	38.74
295.374	10.07
295.589	-30.89
295.804	77.65
296.018	5.97
296.233	44.88
296.447	71.51
296.662	-4.27
296.877	5.97
297.091	73.56
297.306	20.31
297.52	-47.27
297.735	53.08
297.949	42.84
298.164	18.26
298.378	-28.84
298.593	24.4
298.807	18.26
299.022	-4.27
299.236	69.46
299.451	-47.27
299.665	75.6
299.88	75.6
300.094	38.74
300.309	-6.31
300.523	10.07
300.737	94.04
300.952	48.98
301.166	42.84
301.381	-0.17
301.595	-37.03
301.809	38.74
302.024	65.36
302.238	79.7
302.452	46.93
302.667	36.69
302.881	87.89
303.095	-34.99
303.309	-20.65
303.524	-24.75
303.738	-0.17
303.952	-22.7
304.166	48.98
304.381	-2.22
304.595	143.19
304.809	10.07
305.023	79.7
305.237	91.99
305.452	42.84
305.666	20.31
305.88	10.07
306.094	32.6
306.308	81.75
306.522	83.8
306.736	38.74
306.95	96.08
307.164	46.93
307.379	34.64
307.593	106.32
307.807	108.37
308.021	51.03
308.235	94.04
308.449	-16.55
308.663	-10.41
308.877	114.52
309.091	-10.41
309.305	96.08
309.519	-18.6
309.733	89.94
309.947	71.51
310.161	59.22
310.374	-24.75
310.588	89.94
310.802	-22.7
311.016	26.45
311.23	44.88
311.444	-26.79
311.658	12.12
311.872	51.03
312.085	71.51
312.299	65.36
312.513	22.36
312.727	71.51
312.941	20.31
313.154	3.93
313.368	44.88
313.582	104.28
313.796	36.69
314.009	65.36
314.223	51.03
314.437	22.36
314.651	85.84
314.864	53.08
315.078	-18.6
315.292	-80.04
315.505	10.07
315.719	106.32
315.933	42.84
316.146	-28.84
316.36	10.07
316.573	59.22
316.787	-0.17
317.001	106.32
317.214	12.12
317.428	53.08
317.641	12.12
317.855	55.12
318.068	16.21
318.282	14.17
318.495	48.98
318.709	53.08
318.922	75.6
319.136	53.08
319.349	30.55
319.563	3.93
319.776	106.32
319.99	-10.41
320.203	38.74
320.417	42.84
320.63	79.7
320.843	53.08
321.057	30.55
321.27	94.04
321.483	-12.46
321.697	69.46
321.91	42.84
322.124	8.02
322.337	46.93
322.55	24.4
322.763	67.41
322.977	71.51
323.19	63.32
323.403	24.4
323.617	32.6
323.83	94.04
324.043	61.27
324.256	59.22
324.469	-10.41
324.683	94.04
324.896	61.27
325.109	59.22
325.322	5.97
325.535	69.46
325.748	65.36
325.962	36.69
326.175	59.22
326.388	40.79
326.601	8.02
326.814	36.69
327.027	61.27
327.24	89.94
327.453	-43.18
327.666	3.93
327.879	57.17
328.092	42.84
328.305	-18.6
328.518	32.6
328.731	18.26
328.944	-4.27
329.157	44.88
329.37	5.97
329.583	75.6
329.796	75.6
330.009	-14.51
330.222	30.55
330.435	55.12
330.648	16.21
330.861	61.27
331.073	28.5
331.286	83.8
331.499	110.42
331.712	-30.89
331.925	18.26
332.138	96.08
332.35	14.17
332.563	67.41
332.776	65.36
332.989	-12.46
333.202	28.5
333.414	-18.6
333.627	57.17
333.84	20.31
334.053	18.26
334.265	32.6
334.478	40.79
334.691	22.36
334.903	5.97
335.116	51.03
335.329	114.52
335.541	57.17
335.754	36.69
335.966	28.5
336.179	36.69
336.392	-0.17
336.604	24.4
336.817	26.45
337.029	73.56
337.242	42.84
337.454	81.75
337.667	53.08
337.88	65.36
338.092	-37.03
338.305	108.37
338.517	-24.75
338.729	44.88
338.942	96.08
339.154	1.88
339.367	-2.22
339.579	28.5
339.792	12.12
340.004	102.23
340.217	42.84
340.429	28.5
340.641	42.84
340.854	44.88
341.066	44.88
341.278	118.61
341.491	106.32
341.703	112.47
341.915	55.12
342.128	67.41
342.34	38.74
342.552	85.84
342.764	8.02
342.977	14.17
343.189	1.88
343.401	-14.51
343.613	-39.08
343.826	44.88
344.038	-4.27
344.25	53.08
344.462	8.02
344.674	98.13
344.886	65.36
345.099	81.75
345.311	65.36
345.523	67.41
345.735	18.26
345.947	100.18
346.159	-4.27
346.371	59.22
346.583	65.36
346.795	69.46
347.007	69.46
347.219	85.84
347.431	14.17
347.643	102.23
347.855	40.79
348.067	20.31
348.279	-2.22
348.491	18.26
348.703	91.99
348.915	28.5
349.127	26.45
349.339	28.5
349.551	24.4
349.763	34.64
349.975	20.31
350.187	22.36
350.399	75.6
350.61	14.17
350.822	-0.17
351.034	85.84
351.246	55.12
351.458	38.74
351.669	42.84
351.881	-24.75
352.093	24.4
352.305	69.46
352.517	30.55
352.728	55.12
352.94	53.08
353.152	24.4
353.363	-14.51
353.575	36.69
353.787	143.19
353.999	96.08
354.21	106.32
354.422	18.26
354.633	36.69
354.845	69.46
355.057	3.93
355.268	26.45
355.48	100.18
355.692	73.56
355.903	61.27
356.115	14.17
356.326	-37.03
356.538	28.5
356.749	48.98
356.961	94.04
357.172	104.28
357.384	71.51
357.595	155.47
357.807	1.88
358.018	-22.7
358.23	48.98
358.441	116.56
358.653	59.22
358.864	3.93
359.075	38.74
359.287	59.22
359.498	53.08
359.709	42.84
359.921	67.41
360.132	75.6
360.344	71.51
360.555	12.12
360.766	28.5
360.977	12.12
361.189	83.8
361.4	112.47
361.611	24.4
361.823	100.18
362.034	71.51
362.245	24.4
362.456	14.17
362.667	-2.22
362.879	-32.94
363.09	44.88
363.301	53.08
363.512	55.12
363.723	46.93
363.935	69.46
364.146	112.47
364.357	48.98
364.568	57.17
364.779	20.31
364.99	116.56
365.201	22.36
365.412	65.36
365.623	-2.22
365.834	38.74
366.045	-12.46
366.256	75.6
366.467	118.61
366.678	28.5
366.889	12.12
367.1	69.46
367.311	124.76
367.522	30.55
367.733	-14.51
367.944	83.8
368.155	36.69
368.366	36.69
368.577	40.79
368.788	100.18
368.999	-2.22
369.209	38.74
369.42	71.51
369.631	48.98
369.842	91.99
370.053	36.69
370.264	10.07
370.474	10.07
370.685	108.37
370.896	67.41
371.107	1.88
371.317	5.97
371.528	65.36
371.739	85.84
371.95	51.03
372.16	106.32
372.371	57.17
372.582	26.45
372.792	48.98
373.003	42.84
373.214	22.36
373.424	73.56
373.635	3.93
373.846	77.65
374.056	12.12
374.267	51.03
374.477	-43.18
374.688	-6.31
374.898	-2.22
375.109	63.32
375.319	79.7
375.53	40.79
375.74	87.89
375.951	81.75
376.161	81.75
376.372	112.47
376.582	44.88
376.793	-41.13
377.003	28.5
377.214	-2.22
377.424	51.03
377.635	12.12
377.845	53.08
378.055	89.94
378.266	40.79
378.476	-2.22
378.686	44.88
378.897	69.46
379.107	26.45
379.317	38.74
379.528	32.6
379.738	69.46
379.948	-51.37
380.158	69.46
380.369	108.37
380.579	77.65
380.789	3.93
380.999	73.56
381.21	130.9
381.42	81.75
381.63	38.74
381.84	89.94
382.05	91.99
382.261	42.84
382.471	106.32
382.681	18.26
382.891	98.13
383.101	63.32
383.311	44.88
383.521	-18.6
383.731	79.7
383.941	98.13
384.151	10.07
384.361	114.52
384.571	83.8
384.781	73.56
384.991	40.79
385.201	59.22
385.411	96.08
385.621	71.51
385.831	79.7
386.041	48.98
386.251	8.02
386.461	106.32
386.671	40.79
386.881	137.04
387.091	98.13
387.301	46.93
387.511	36.69
387.72	24.4
387.93	53.08
388.14	-2.22
388.35	8.02
388.56	132.95
388.769	120.66
388.979	81.75
389.189	81.75
389.399	87.89
389.609	65.36
389.818	1.88
390.028	87.89
390.238	145.24
390.447	26.45
390.657	46.93
390.867	100.18
391.076	96.08
391.286	100.18
391.496	108.37
391.705	59.22
391.915	89.94
392.125	36.69
392.334	79.7
392.544	124.76
392.753	24.4
392.963	108.37
393.172	51.03
393.382	44.88
393.591	65.36
393.801	91.99
394.01	143.19
394.22	77.65
394.429	36.69
394.639	16.21
394.848	112.47
395.058	89.94
395.267	89.94
395.477	28.5
395.686	75.6
395.895	106.32
396.105	122.71
396.314	36.69
396.524	91.99
396.733	83.8
396.942	46.93
397.152	116.56
397.361	94.04
397.57	91.99
397.78	71.51
397.989	69.46
398.198	137.04
398.407	130.9
398.617	81.75
398.826	96.08
399.035	102.23
399.244	110.42
399.453	110.42
399.663	130.9
399.872	114.52
400.081	87.89
400.29	85.84
400.499	55.12
400.708	122.71
400.917	-8.36
401.127	137.04
401.336	42.84
401.545	143.19
401.754	106.32
401.963	159.57
402.172	120.66
402.381	91.99
402.59	157.52
402.799	96.08
403.008	81.75
403.217	118.61
403.426	116.56
403.635	104.28
403.844	116.56
404.053	155.47
404.262	163.67
404.471	147.28
404.68	175.95
404.888	169.81
405.097	91.99
405.306	180.05
405.515	151.38
405.724	167.76
405.933	194.39
406.142	132.95
406.35	227.15
406.559	184.15
406.768	165.71
406.977	284.5
407.185	227.15
407.394	151.38
407.603	116.56
407.812	184.15
408.02	155.47
408.229	180.05
408.438	155.47
408.646	208.72
408.855	251.73
409.064	304.98
409.272	292.69
409.481	231.25
409.69	249.68
409.898	317.26
410.107	395.09
410.315	296.78
410.524	313.17
410.733	356.18
410.941	343.89
411.15	368.46
411.358	438.09
411.567	380.75
411.775	356.18
411.984	479.05
412.192	444.24
412.401	450.38
412.609	511.82
412.818	466.77
413.026	536.4
413.234	577.36
413.443	554.83
413.651	517.97
413.86	571.21
414.068	620.36
414.276	687.95
414.485	669.52
414.693	671.56
414.901	681.8
415.11	649.04
415.318	696.14
415.526	743.24
415.734	759.63
415.943	853.83
416.151	737.1
416.359	837.45
416.567	814.92
416.776	821.06
416.984	978.76
417.192	1064.77
417.4	1007.43
417.608	984.9
417.817	1062.73
418.025	1199.94
418.233	1232.71
418.441	1163.08
418.649	1183.56
418.857	1285.95
419.065	1302.34
419.273	1322.82
419.481	1318.72
419.689	1544
419.897	1544
420.105	1568.57
420.313	1591.1
420.521	1601.34
420.729	1670.97
420.937	1763.13
421.145	1802.04
421.353	1914.68
421.561	1992.5
421.769	2025.27
421.977	2062.13
422.185	2064.18
422.393	2156.34
422.601	2305.84
422.809	2293.55
423.017	2277.17
423.224	2457.39
423.432	2547.5
423.64	2635.57
423.848	2797.35
424.056	2678.57
424.263	2873.13
424.471	3053.35
424.679	2834.22
424.887	3231.52
425.094	3311.39
425.302	3315.49
425.51	3348.26
425.718	3397.41
425.925	3559.2
426.133	3778.33
426.341	3866.39
426.548	4067.1
426.756	3974.94
426.964	4079.38
427.171	4284.18
427.379	4474.64
427.586	4435.73
427.794	4634.38
428.001	4978.44
428.209	5125.9
428.417	4998.92
428.624	5367.56
428.832	5383.94
429.039	5373.7
429.247	5338.88
429.454	5777.15
429.662	6147.83
429.869	5871.36
430.076	6233.85
430.284	5883.64
430.491	6295.29
430.699	6678.26
430.906	6577.9
431.114	6735.6
431.321	6973.16
431.528	7134.95
431.736	7448.29
431.943	7898.84
432.15	7788.25
432.358	7722.72
432.565	8273.62
432.772	8077.02
432.979	8529.62
433.187	8832.72
433.394	8912.59
433.601	9426.63
433.808	9496.26
434.016	9531.08
434.223	9668.29
434.43	10467
434.637	10256.06
434.844	10800.82
435.052	11083.44
435.259	10712.75
435.466	11101.87
435.673	11099.82
435.88	11667.11
436.087	12185.24
436.294	12478.1
436.501	12316.31
436.708	12287.64
436.915	12588.69
437.122	13135.5
437.329	13231.76
437.537	13559.43
437.743	13948.54
437.95	13776.52
438.157	14470.78
438.364	14970.48
438.571	14863.99
438.778	15054.45
438.985	16377.44
439.192	15806.05
439.399	16234.08
439.606	15861.35
439.813	16950.87
440.02	17854.02
440.227	17567.31
440.433	17342.03
440.64	18214.46
440.847	17743.43
441.054	17925.7
441.261	19602.99
441.467	19279.41
441.674	19676.71
441.881	20008.48
442.088	20051.49
442.294	20008.48
442.501	20612.63
442.708	21005.84
442.914	21878.28
443.121	22541.82
443.328	22388.22
443.534	23860.71
443.741	23029.24
443.948	22554.11
444.154	24358.37
444.361	24294.88
444.568	24530.4
444.774	24448.48
444.981	24872.41
445.187	25370.07
445.394	26777.02
445.6	26168.77
445.807	28702.11
446.013	27508.15
446.22	28013.99
446.426	29195.67
446.633	29552.02
446.839	30426.5
447.046	28941.72
447.252	30915.97
447.459	30881.15
447.665	30705.02
447.871	31743.34
448.078	33406.3
448.284	31651.19
448.491	32832.86
448.697	34334.03
448.903	34385.22
449.11	34397.51
449.316	34174.28
449.522	34903.36
449.728	35712.31
449.935	35646.77
450.141	35591.48
450.347	36390.19
450.553	35312.95
450.76	35898.67
450.966	37125.41
451.172	36447.53
451.378	38028.56
451.584	36756.77
451.791	37891.35
451.997	38065.42
452.203	38448.39
452.409	38413.58
452.615	38350.09
452.821	36637.99
453.027	36492.58
453.233	37965.07
453.44	36906.27
453.646	37260.57
453.852	37352.73
454.058	38292.75
454.264	37111.07
454.47	37629.21
454.676	37010.72
454.882	37557.53
455.088	34606.41
455.294	35183.93
455.5	35931.44
455.705	35837.23
455.911	34596.17
456.117	34176.33
456.323	33578.32
456.529	31761.78
456.735	33150.3
456.941	32271.72
457.147	31874.41
457.352	30754.18
457.558	30598.53
457.764	30762.37
457.97	30309.77
458.176	29517.2
458.381	29367.7
458.587	27870.64
458.793	27559.34
458.999	26357.19
459.204	28298.66
459.41	27631.02
459.616	25871.82
459.821	25818.57
460.027	25748.94
460.233	25230.8
460.438	24135.14
460.644	24272.35
460.85	23039.48
461.055	22816.25
461.261	22693.37
461.466	20934.17
461.672	20237.86
461.878	21859.85
462.083	20332.06
462.289	19967.52
462.494	19824.17
462.7	19033.65
462.905	18513.47
463.111	18945.59
463.316	19324.46
463.522	18759.22
463.727	18828.85
463.932	18726.46
464.138	18449.98
464.343	18390.59
464.549	18089.54
464.754	18703.93
464.959	18607.67
465.165	18460.22
465.37	17251.92
465.575	16952.91
465.781	17833.54
465.986	17851.97
466.191	17258.06
466.397	16821.84
466.602	15982.18
466.807	16668.25
467.012	16723.54
467.218	16758.36
467.423	16629.34
