Data from USB4F104151__21__12-41-05-125.txt Node

Date: Fri Mar 14 12:41:05 EDT 2025
User: louis
Spectrometer: USB4F10415
Trigger mode: 4
Integration Time (sec): 3.000000E-2
Scans to average: 1
Electric dark correction enabled: true
Nonlinearity correction enabled: false
Boxcar width: 0
XAxis mode: Wavelengths
Number of Pixels in Spectrum: 3648
>>>>>Begin Spectral Data<<<<<
178.204	-133.12
178.424	-133.12
178.644	-133.12
178.864	-182.27
179.084	-122.88
179.304	-106.49
179.524	75.77
179.744	-24.58
179.964	77.82
180.184	-6.14
180.404	14.34
180.624	-4.1
180.844	30.72
181.064	0
181.283	-4.1
181.503	8.19
181.723	-61.44
181.943	-75.77
182.163	49.15
182.383	40.96
182.602	30.72
182.822	20.48
183.042	-20.48
183.262	-8.19
183.482	90.11
183.701	0
183.921	4.1
184.141	32.77
184.361	59.39
184.58	36.86
184.8	10.24
185.02	-38.91
185.239	104.45
185.459	14.34
185.679	73.73
185.898	-51.2
186.118	4.1
186.338	-61.44
186.557	30.72
186.777	45.06
186.997	8.19
187.216	-14.34
187.436	92.16
187.655	26.62
187.875	75.77
188.095	-4.1
188.314	30.72
188.534	16.38
188.753	-8.19
188.973	67.58
189.192	53.25
189.412	4.1
189.631	53.25
189.851	4.1
190.07	51.2
190.29	-24.58
190.509	-20.48
190.729	-10.24
190.948	-61.44
191.168	104.45
191.387	34.82
191.607	-12.29
191.826	79.87
192.045	-20.48
192.265	4.1
192.484	28.67
192.704	-2.05
192.923	-40.96
193.142	88.06
193.362	96.25
193.581	36.86
193.8	43.01
194.02	45.06
194.239	94.21
194.458	73.73
194.678	30.72
194.897	-18.43
195.116	20.48
195.335	-14.34
195.555	55.3
195.774	0
195.993	2.05
196.212	14.34
196.432	-24.58
196.651	-28.67
196.87	20.48
197.089	43.01
197.308	57.34
197.528	88.06
197.747	65.53
197.966	-12.29
198.185	28.67
198.404	-45.06
198.623	-18.43
198.842	24.58
199.062	45.06
199.281	161.79
199.5	47.1
199.719	-10.24
199.938	147.45
200.157	-40.96
200.376	24.58
200.595	69.63
200.814	36.86
201.033	-32.77
201.252	34.82
201.471	61.44
201.69	-12.29
201.909	10.24
202.128	-28.67
202.347	16.38
202.566	47.1
202.785	-24.58
203.004	69.63
203.223	20.48
203.442	-34.82
203.661	69.63
203.879	94.21
204.098	38.91
204.317	22.53
204.536	65.53
204.755	-22.53
204.974	18.43
205.193	-53.25
205.411	112.64
205.63	-24.58
205.849	4.1
206.068	28.67
206.287	36.86
206.505	4.1
206.724	2.05
206.943	40.96
207.162	-6.14
207.381	36.86
207.599	-18.43
207.818	-4.1
208.037	67.58
208.255	34.82
208.474	22.53
208.693	63.49
208.911	20.48
209.13	-22.53
209.349	16.38
209.567	2.05
209.786	-28.67
210.005	16.38
210.223	-2.05
210.442	-4.1
210.661	53.25
210.879	-38.91
211.098	26.62
211.316	-36.86
211.535	49.15
211.753	-22.53
211.972	40.96
212.191	24.58
212.409	24.58
212.628	30.72
212.846	-6.14
213.065	55.3
213.283	45.06
213.502	-6.14
213.72	47.1
213.938	36.86
214.157	2.05
214.375	30.72
214.594	2.05
214.812	-67.58
215.031	20.48
215.249	20.48
215.467	-18.43
215.686	6.14
215.904	10.24
216.122	71.68
216.341	67.58
216.559	-40.96
216.778	-10.24
216.996	30.72
217.214	20.48
217.432	-24.58
217.651	26.62
217.869	79.87
218.087	100.35
218.306	98.3
218.524	26.62
218.742	20.48
218.96	12.29
219.179	16.38
219.397	-18.43
219.615	14.34
219.833	43.01
220.051	18.43
220.27	38.91
220.488	24.58
220.706	14.34
220.924	20.48
221.142	16.38
221.36	-16.38
221.578	16.38
221.796	-24.58
222.015	59.39
222.233	45.06
222.451	63.49
222.669	-18.43
222.887	45.06
223.105	-4.1
223.323	71.68
223.541	14.34
223.759	30.72
223.977	55.3
224.195	-16.38
224.413	102.4
224.631	4.1
224.849	36.86
225.067	53.25
225.285	75.77
225.503	24.58
225.721	20.48
225.939	61.44
226.157	47.1
226.375	100.35
226.592	67.58
226.81	110.59
227.028	18.43
227.246	98.3
227.464	12.29
227.682	59.39
227.9	30.72
228.117	53.25
228.335	18.43
228.553	24.58
228.771	4.1
228.989	51.2
229.206	36.86
229.424	28.67
229.642	43.01
229.86	-18.43
230.077	38.91
230.295	8.19
230.513	118.78
230.731	12.29
230.948	96.25
231.166	53.25
231.384	-20.48
231.601	-10.24
231.819	32.77
232.037	-2.05
232.254	49.15
232.472	-38.91
232.689	40.96
232.907	81.92
233.125	-26.62
233.342	49.15
233.56	-4.1
233.777	-6.14
233.995	36.86
234.213	24.58
234.43	40.96
234.648	-20.48
234.865	63.49
235.083	67.58
235.3	8.19
235.518	-2.05
235.735	57.34
235.953	79.87
236.17	38.91
236.388	8.19
236.605	-47.1
236.822	45.06
237.04	40.96
237.257	59.39
237.475	10.24
237.692	38.91
237.909	59.39
238.127	4.1
238.344	30.72
238.562	16.38
238.779	-18.43
238.996	-26.62
239.214	65.53
239.431	6.14
239.648	-16.38
239.865	10.24
240.083	53.25
240.3	2.05
240.517	-14.34
240.735	-6.14
240.952	51.2
241.169	36.86
241.386	26.62
241.603	34.82
241.821	-20.48
242.038	69.63
242.255	-20.48
242.472	10.24
242.689	65.53
242.907	90.11
243.124	-24.58
243.341	4.1
243.558	6.14
243.775	-28.67
243.992	59.39
244.209	30.72
244.426	73.73
244.643	47.1
244.86	-10.24
245.078	-24.58
245.295	32.77
245.512	43.01
245.729	0
245.946	12.29
246.163	32.77
246.38	12.29
246.597	32.77
246.814	65.53
247.031	12.29
247.248	69.63
247.464	73.73
247.681	32.77
247.898	40.96
248.115	86.01
248.332	-16.38
248.549	131.07
248.766	63.49
248.983	8.19
249.2	83.97
249.417	67.58
249.633	10.24
249.85	59.39
250.067	-2.05
250.284	69.63
250.501	-14.34
250.717	53.25
250.934	38.91
251.151	-8.19
251.368	49.15
251.585	4.1
251.801	45.06
252.018	36.86
252.235	30.72
252.451	-2.05
252.668	-8.19
252.885	40.96
253.102	32.77
253.318	-12.29
253.535	-53.25
253.752	28.67
253.968	10.24
254.185	-16.38
254.401	0
254.618	-22.53
254.835	30.72
255.051	86.01
255.268	6.14
255.484	63.49
255.701	-16.38
255.917	14.34
256.134	-43.01
256.351	30.72
256.567	51.2
256.784	47.1
257	-69.63
257.217	24.58
257.433	20.48
257.65	36.86
257.866	43.01
258.082	-28.67
258.299	14.34
258.515	49.15
258.732	0
258.948	20.48
259.165	-2.05
259.381	-71.68
259.597	12.29
259.814	135.17
260.03	28.67
260.246	-28.67
260.463	26.62
260.679	-32.77
260.895	-12.29
261.112	55.3
261.328	-24.58
261.544	-12.29
261.761	104.45
261.977	63.49
262.193	30.72
262.409	55.3
262.626	20.48
262.842	51.2
263.058	-18.43
263.274	26.62
263.49	22.53
263.707	45.06
263.923	63.49
264.139	-98.3
264.355	36.86
264.571	47.1
264.787	65.53
265.004	124.93
265.22	16.38
265.436	36.86
265.652	45.06
265.868	30.72
266.084	-45.06
266.3	88.06
266.516	-6.14
266.732	14.34
266.948	2.05
267.164	20.48
267.38	8.19
267.596	-6.14
267.812	16.38
268.028	12.29
268.244	30.72
268.46	51.2
268.676	83.97
268.892	108.54
269.108	-24.58
269.324	4.1
269.54	69.63
269.756	75.77
269.972	-28.67
270.188	106.49
270.403	-43.01
270.619	47.1
270.835	-28.67
271.051	-22.53
271.267	34.82
271.483	16.38
271.698	26.62
271.914	53.25
272.13	30.72
272.346	49.15
272.562	108.54
272.777	38.91
272.993	28.67
273.209	34.82
273.425	0
273.64	40.96
273.856	-40.96
274.072	0
274.287	-34.82
274.503	49.15
274.719	55.3
274.934	-8.19
275.15	-92.16
275.366	16.38
275.581	-2.05
275.797	36.86
276.012	-20.48
276.228	47.1
276.444	10.24
276.659	53.25
276.875	30.72
277.09	88.06
277.306	79.87
277.521	90.11
277.737	-30.72
277.952	-16.38
278.168	-16.38
278.383	47.1
278.599	0
278.814	12.29
279.03	16.38
279.245	43.01
279.461	20.48
279.676	45.06
279.892	106.49
280.107	43.01
280.322	-32.77
280.538	65.53
280.753	-20.48
280.969	55.3
281.184	22.53
281.399	112.64
281.615	30.72
281.83	43.01
282.045	-75.77
282.26	67.58
282.476	0
282.691	81.92
282.906	55.3
283.122	59.39
283.337	36.86
283.552	8.19
283.767	-20.48
283.983	67.58
284.198	-16.38
284.413	-2.05
284.628	-18.43
284.843	12.29
285.058	-28.67
285.274	0
285.489	-22.53
285.704	139.26
285.919	-20.48
286.134	20.48
286.349	18.43
286.564	75.77
286.779	53.25
286.995	55.3
287.21	-10.24
287.425	6.14
287.64	57.34
287.855	-10.24
288.07	-6.14
288.285	55.3
288.5	96.25
288.715	133.12
288.93	-24.58
289.145	53.25
289.36	-4.1
289.575	22.53
289.79	69.63
290.004	43.01
290.219	81.92
290.434	34.82
290.649	16.38
290.864	61.44
291.079	22.53
291.294	-30.72
291.509	-20.48
291.724	65.53
291.938	110.59
292.153	-43.01
292.368	-28.67
292.583	55.3
292.798	47.1
293.012	34.82
293.227	34.82
293.442	0
293.657	26.62
293.871	40.96
294.086	43.01
294.301	67.58
294.516	53.25
294.73	32.77
294.945	-16.38
295.16	26.62
295.374	45.06
295.589	34.82
295.804	75.77
296.018	-30.72
296.233	43.01
296.447	102.4
296.662	16.38
296.877	16.38
297.091	-67.58
297.306	-12.29
297.52	57.34
297.735	12.29
297.949	2.05
298.164	114.69
298.378	28.67
298.593	-8.19
298.807	57.34
299.022	47.1
299.236	18.43
299.451	73.73
299.665	53.25
299.88	10.24
300.094	34.82
300.309	53.25
300.523	22.53
300.737	36.86
300.952	45.06
301.166	6.14
301.381	-40.96
301.595	4.1
301.809	100.35
302.024	45.06
302.238	40.96
302.452	81.92
302.667	2.05
302.881	96.25
303.095	47.1
303.309	18.43
303.524	10.24
303.738	8.19
303.952	45.06
304.166	-18.43
304.381	-2.05
304.595	0
304.809	51.2
305.023	79.87
305.237	-47.1
305.452	-53.25
305.666	16.38
305.88	43.01
306.094	22.53
306.308	106.49
306.522	88.06
306.736	-6.14
306.95	77.82
307.164	67.58
307.379	-12.29
307.593	24.58
307.807	2.05
308.021	26.62
308.235	24.58
308.449	-12.29
308.663	65.53
308.877	112.64
309.091	28.67
309.305	55.3
309.519	-12.29
309.733	36.86
309.947	-10.24
310.161	36.86
310.374	47.1
310.588	40.96
310.802	-26.62
311.016	-8.19
311.23	100.35
311.444	-36.86
311.658	12.29
311.872	2.05
312.085	67.58
312.299	-16.38
312.513	16.38
312.727	38.91
312.941	16.38
313.154	34.82
313.368	-14.34
313.582	32.77
313.796	75.77
314.009	-61.44
314.223	96.25
314.437	69.63
314.651	77.82
314.864	28.67
315.078	-32.77
315.292	-2.05
315.505	-12.29
315.719	-4.1
315.933	28.67
316.146	63.49
316.36	28.67
316.573	30.72
316.787	118.78
317.001	61.44
317.214	34.82
317.428	77.82
317.641	36.86
317.855	118.78
318.068	63.49
318.282	-18.43
318.495	61.44
318.709	73.73
318.922	-28.67
319.136	98.3
319.349	43.01
319.563	4.1
319.776	20.48
319.99	-18.43
320.203	55.3
320.417	0
320.63	59.39
320.843	73.73
321.057	8.19
321.27	36.86
321.483	77.82
321.697	120.83
321.91	36.86
322.124	59.39
322.337	14.34
322.55	-12.29
322.763	53.25
322.977	45.06
323.19	12.29
323.403	71.68
323.617	102.4
323.83	20.48
324.043	12.29
324.256	131.07
324.469	34.82
324.683	10.24
324.896	55.3
325.109	16.38
325.322	-79.87
325.535	-10.24
325.748	24.58
325.962	-2.05
326.175	-98.3
326.388	-24.58
326.601	6.14
326.814	38.91
327.027	45.06
327.24	36.86
327.453	-18.43
327.666	32.77
327.879	118.78
328.092	120.83
328.305	-2.05
328.518	43.01
328.731	-8.19
328.944	-16.38
329.157	-34.82
329.37	-6.14
329.583	22.53
329.796	98.3
330.009	-2.05
330.222	38.91
330.435	2.05
330.648	43.01
330.861	83.97
331.073	71.68
331.286	69.63
331.499	-16.38
331.712	-4.1
331.925	108.54
332.138	-6.14
332.35	88.06
332.563	22.53
332.776	90.11
332.989	22.53
333.202	47.1
333.414	-14.34
333.627	-6.14
333.84	-36.86
334.053	67.58
334.265	36.86
334.478	55.3
334.691	16.38
334.903	22.53
335.116	24.58
335.329	73.73
335.541	45.06
335.754	196.61
335.966	22.53
336.179	10.24
336.392	63.49
336.604	86.01
336.817	47.1
337.029	71.68
337.242	-16.38
337.454	94.21
337.667	34.82
337.88	24.58
338.092	34.82
338.305	-16.38
338.517	-18.43
338.729	10.24
338.942	28.67
339.154	4.1
339.367	14.34
339.579	90.11
339.792	24.58
340.004	135.17
340.217	34.82
340.429	59.39
340.641	4.1
340.854	-43.01
341.066	-36.86
341.278	12.29
341.491	69.63
341.703	30.72
341.915	-4.1
342.128	75.77
342.34	14.34
342.552	-51.2
342.764	124.93
342.977	63.49
343.189	63.49
343.401	120.83
343.613	-43.01
343.826	10.24
344.038	-45.06
344.25	63.49
344.462	-16.38
344.674	-14.34
344.886	73.73
345.099	8.19
345.311	18.43
345.523	94.21
345.735	26.62
345.947	8.19
346.159	-22.53
346.371	2.05
346.583	-45.06
346.795	137.21
347.007	40.96
347.219	92.16
347.431	30.72
347.643	22.53
347.855	-32.77
348.067	90.11
348.279	-69.63
348.491	22.53
348.703	40.96
348.915	63.49
349.127	30.72
349.339	-14.34
349.551	106.49
349.763	90.11
349.975	51.2
350.187	118.78
350.399	67.58
350.61	69.63
350.822	-6.14
351.034	34.82
351.246	38.91
351.458	12.29
351.669	-18.43
351.881	77.82
352.093	114.69
352.305	71.68
352.517	86.01
352.728	0
352.94	34.82
353.152	45.06
353.363	16.38
353.575	63.49
353.787	34.82
353.999	36.86
354.21	110.59
354.422	-34.82
354.633	-16.38
354.845	40.96
355.057	-12.29
355.268	24.58
355.48	79.87
355.692	-10.24
355.903	45.06
356.115	0
356.326	-14.34
356.538	65.53
356.749	16.38
356.961	73.73
357.172	12.29
357.384	32.77
357.595	92.16
357.807	59.39
358.018	43.01
358.23	59.39
358.441	153.6
358.653	28.67
358.864	36.86
359.075	86.01
359.287	59.39
359.498	-22.53
359.709	88.06
359.921	-20.48
360.132	92.16
360.344	71.68
360.555	-4.1
360.766	61.44
360.977	-12.29
361.189	92.16
361.4	32.77
361.611	-4.1
361.823	-4.1
362.034	51.2
362.245	-32.77
362.456	108.54
362.667	6.14
362.879	43.01
363.09	53.25
363.301	32.77
363.512	32.77
363.723	24.58
363.935	51.2
364.146	40.96
364.357	38.91
364.568	10.24
364.779	30.72
364.99	22.53
365.201	57.34
365.412	118.78
365.623	36.86
365.834	110.59
366.045	6.14
366.256	92.16
366.467	18.43
366.678	114.69
366.889	18.43
367.1	6.14
367.311	88.06
367.522	49.15
367.733	59.39
367.944	47.1
368.155	88.06
368.366	45.06
368.577	51.2
368.788	16.38
368.999	10.24
369.209	30.72
369.42	141.31
369.631	81.92
369.842	-2.05
370.053	118.78
370.264	63.49
370.474	104.45
370.685	-34.82
370.896	69.63
371.107	126.97
371.317	57.34
371.528	14.34
371.739	77.82
371.95	43.01
372.16	24.58
372.371	28.67
372.582	79.87
372.792	22.53
373.003	30.72
373.214	65.53
373.424	-2.05
373.635	10.24
373.846	90.11
374.056	43.01
374.267	88.06
374.477	71.68
374.688	0
374.898	73.73
375.109	65.53
375.319	34.82
375.53	131.07
375.74	49.15
375.951	116.73
376.161	77.82
376.372	14.34
376.582	-4.1
376.793	12.29
377.003	34.82
377.214	94.21
377.424	102.4
377.635	114.69
377.845	90.11
378.055	90.11
378.266	0
378.476	12.29
378.686	28.67
378.897	73.73
379.107	59.39
379.317	16.38
379.528	12.29
379.738	53.25
379.948	30.72
380.158	79.87
380.369	51.2
380.579	116.73
380.789	49.15
380.999	65.53
381.21	20.48
381.42	47.1
381.63	-4.1
381.84	96.25
382.05	51.2
382.261	34.82
382.471	49.15
382.681	59.39
382.891	36.86
383.101	-26.62
383.311	2.05
383.521	98.3
383.731	40.96
383.941	96.25
384.151	114.69
384.361	40.96
384.571	22.53
384.781	106.49
384.991	180.22
385.201	63.49
385.411	63.49
385.621	110.59
385.831	96.25
386.041	20.48
386.251	63.49
386.461	104.45
386.671	114.69
386.881	122.88
387.091	43.01
387.301	30.72
387.511	16.38
387.72	61.44
387.93	79.87
388.14	-12.29
388.35	24.58
388.56	139.26
388.769	40.96
388.979	26.62
389.189	61.44
389.399	-34.82
389.609	30.72
389.818	55.3
390.028	40.96
390.238	100.35
390.447	59.39
390.657	40.96
390.867	10.24
391.076	36.86
391.286	-8.19
391.496	22.53
391.705	77.82
391.915	77.82
392.125	38.91
392.334	-12.29
392.544	149.5
392.753	98.3
392.963	-47.1
393.172	79.87
393.382	-61.44
393.591	110.59
393.801	67.58
394.01	206.84
394.22	75.77
394.429	65.53
394.639	79.87
394.848	176.13
395.058	139.26
395.267	36.86
395.477	108.54
395.686	126.97
395.895	49.15
396.105	169.98
396.314	108.54
396.524	38.91
396.733	49.15
396.942	79.87
397.152	55.3
397.361	135.17
397.57	124.93
397.78	75.77
397.989	98.3
398.198	176.13
398.407	53.25
398.617	40.96
398.826	75.77
399.035	67.58
399.244	114.69
399.453	131.07
399.663	43.01
399.872	104.45
400.081	61.44
400.29	112.64
400.499	57.34
400.708	120.83
400.917	81.92
401.127	73.73
401.336	59.39
401.545	102.4
401.754	77.82
401.963	124.93
402.172	116.73
402.381	55.3
402.59	61.44
402.799	163.84
403.008	137.21
403.217	112.64
403.426	167.93
403.635	57.34
403.844	59.39
404.053	112.64
404.262	94.21
404.471	149.5
404.68	172.03
404.888	65.53
405.097	165.89
405.306	145.41
405.515	126.97
405.724	151.55
405.933	204.8
406.142	161.79
406.35	149.5
406.559	194.56
406.768	196.61
406.977	184.32
407.185	161.79
407.394	180.22
407.603	114.69
407.812	219.13
408.02	266.24
408.229	145.41
408.438	266.24
408.646	215.04
408.855	141.31
409.064	245.76
409.272	237.56
409.481	280.57
409.69	184.32
409.898	237.56
410.107	319.48
410.315	233.47
410.524	268.28
410.733	260.09
410.941	270.33
411.15	452.6
411.358	311.29
411.567	417.79
411.775	370.68
411.984	423.93
412.192	421.88
412.401	458.74
412.609	430.07
412.818	438.27
413.026	454.65
413.234	485.37
413.443	483.32
413.651	544.76
413.86	466.94
414.068	587.77
414.276	595.96
414.485	522.23
414.693	600.05
414.901	696.31
415.11	618.49
415.318	663.54
415.526	679.93
415.734	702.45
415.943	747.51
416.151	815.09
416.359	800.76
416.567	788.47
416.776	858.1
416.984	931.83
417.192	892.91
417.4	870.39
417.608	940.02
417.817	886.77
418.025	958.45
418.233	1126.38
418.441	1091.57
418.649	1062.9
418.857	1204.21
419.065	1218.54
419.273	1198.06
419.481	1206.25
419.689	1302.51
419.897	1398.76
420.105	1370.09
420.313	1492.97
420.521	1501.16
420.729	1398.76
420.937	1521.64
421.145	1673.19
421.353	1757.16
421.561	1769.44
421.769	1650.66
421.977	1902.56
422.185	1873.89
422.393	2033.63
422.601	2088.93
422.809	2078.69
423.017	2093.02
423.224	2211.81
423.432	2297.82
423.64	2211.81
423.848	2467.8
424.056	2357.21
424.263	2533.34
424.471	2586.58
424.679	2662.36
424.887	2783.19
425.094	2951.12
425.302	2981.84
425.51	2990.03
425.718	3186.64
425.925	3123.15
426.133	3338.19
426.341	3487.69
426.548	3624.9
426.756	3530.7
426.964	3614.66
427.171	3749.83
427.379	4022.21
427.586	4100.03
427.794	4151.23
428.001	4306.88
428.209	4616.12
428.417	4507.58
428.624	4798.39
428.832	4661.18
429.039	4675.51
429.247	4704.18
429.454	5195.7
429.662	5570.47
429.869	5248.94
430.076	5658.54
430.284	5396.4
430.491	5674.92
430.699	5873.57
430.906	5914.53
431.114	6086.56
431.321	6260.64
431.528	6436.77
431.736	6924.18
431.943	7315.34
432.15	6911.89
432.358	7022.48
432.565	7313.3
432.772	7483.28
432.979	7874.44
433.187	7729.03
433.394	8009.61
433.601	8517.5
433.808	8558.46
434.016	8392.58
434.223	8736.63
434.43	9179
434.637	9146.23
434.844	9686.89
435.052	9756.52
435.259	9678.7
435.466	9883.5
435.673	9844.59
435.88	10454.88
436.087	10841.95
436.294	11134.81
436.501	10780.51
436.708	10919.77
436.915	11351.89
437.122	11849.55
437.329	11810.64
437.537	12138.31
437.743	12418.88
437.95	12427.07
438.157	13066.04
438.364	13070.14
438.571	13303.6
438.778	13514.55
438.985	14763.81
439.192	14008.11
439.399	14432.04
439.606	14292.77
439.813	15040.28
440.02	16236.3
440.227	15775.5
440.433	15525.65
440.64	16176.91
440.847	16129.8
441.054	16242.44
441.261	17282.81
441.467	17194.75
441.674	17542.9
441.881	18249.45
442.088	17915.63
442.294	17977.07
442.501	18702.05
442.708	19031.77
442.914	19674.84
443.121	20428.49
443.328	19924.69
443.534	21202.62
443.741	20629.19
443.948	20305.61
444.154	21694.13
444.361	21728.95
444.568	22111.92
444.774	21982.9
444.981	22419.11
445.187	23010.98
445.394	23672.47
445.6	23494.3
445.807	25947.76
446.013	24671.88
446.22	25126.53
446.426	26381.93
446.633	26347.12
446.839	27493.98
447.046	25941.62
447.252	27373.15
447.459	27731.54
447.665	27467.36
447.871	28587.6
448.078	29894.2
448.284	28565.07
448.491	29240.9
448.697	30586.41
448.903	30938.66
449.11	31165.99
449.316	30420.53
449.522	31249.96
449.728	31792.67
449.935	32235.03
450.141	31913.5
450.347	32937.48
450.553	31704.6
450.76	32228.88
450.966	33515.01
451.172	32828.94
451.378	33803.77
451.584	33242.63
451.791	33922.55
451.997	33918.46
452.203	34190.84
452.409	34551.28
452.615	34131.45
452.821	33019.4
453.027	32577.04
453.233	34227.7
453.44	33113.61
453.646	33781.24
453.852	33695.23
454.058	33723.9
454.264	33052.17
454.47	34113.02
454.676	33197.57
454.882	33877.5
455.088	31075.88
455.294	31276.58
455.5	32243.22
455.705	32421.39
455.911	31102.5
456.117	30500.4
456.323	29963.83
456.529	28167.76
456.735	29539.9
456.941	28802.63
457.147	28044.88
457.352	27702.87
457.558	27086.43
457.764	27399.77
457.97	26758.76
458.176	26152.56
458.381	26080.88
458.587	25015.94
458.793	25034.37
458.999	23459.48
459.204	25130.62
459.41	24610.44
459.616	22967.97
459.821	22896.29
460.027	23041.7
460.233	22609.58
460.438	21726.9
460.644	21597.88
460.85	20471.5
461.055	20092.62
461.261	20408.01
461.466	18743.01
461.672	18190.06
461.878	19261.15
462.083	18298.6
462.289	17344.25
462.494	17669.87
462.7	16766.72
462.905	16502.53
463.111	17180.41
463.316	17014.52
463.522	16875.26
463.727	16832.26
463.932	16598.79
464.138	16533.25
464.343	16365.32
464.549	16047.88
464.754	16498.44
464.959	16320.26
465.165	16015.12
465.37	15703.82
465.575	15140.63
465.781	15855.37
465.986	15935.24
466.191	15548.18
466.397	15099.67
466.602	14329.64
466.807	15114.01
467.012	14921.5
467.218	14843.68
467.423	14511.91
467.628	14718.75
467.833	15154.97
