Data from USB4F104151__19__12-41-04-316.txt Node

Date: Fri Mar 14 12:41:04 EDT 2025
User: louis
Spectrometer: USB4F10415
Trigger mode: 4
Integration Time (sec): 3.000000E-2
Scans to average: 1
Electric dark correction enabled: true
Nonlinearity correction enabled: false
Boxcar width: 0
XAxis mode: Wavelengths
Number of Pixels in Spectrum: 3648
>>>>>Begin Spectral Data<<<<<
178.204	-181.25
178.424	-181.25
178.644	-181.25
178.864	-89.09
179.084	-158.72
179.304	11.26
179.524	-11.26
179.744	31.74
179.964	15.36
180.184	-11.26
180.404	23.55
180.624	-7.17
180.844	1.02
181.064	-37.89
181.283	-7.17
181.503	-13.31
181.723	5.12
181.943	-78.85
182.163	138.24
182.383	-1.02
182.602	48.13
182.822	62.46
183.042	1.02
183.262	23.55
183.482	-13.31
183.701	44.03
183.921	-1.02
184.141	-27.65
184.361	-1.02
184.58	-11.26
184.8	46.08
185.02	-27.65
185.239	23.55
185.459	27.65
185.679	-1.02
185.898	-74.75
186.118	54.27
186.338	74.75
186.557	-64.51
186.777	-31.74
186.997	9.22
187.216	-31.74
187.436	5.12
187.655	23.55
187.875	1.02
188.095	27.65
188.314	50.18
188.534	70.65
188.753	13.31
188.973	9.22
189.192	25.6
189.412	-5.12
189.631	82.94
189.851	-5.12
190.07	21.5
190.29	-99.33
190.509	52.22
190.729	7.17
190.948	74.75
191.168	89.09
191.387	95.23
191.607	15.36
191.826	37.89
192.045	15.36
192.265	-17.41
192.484	27.65
192.704	15.36
192.923	5.12
193.142	128
193.362	62.46
193.581	15.36
193.8	31.74
194.02	-3.07
194.239	41.98
194.458	13.31
194.678	-52.22
194.897	-17.41
195.116	13.31
195.335	17.41
195.555	48.13
195.774	27.65
195.993	13.31
196.212	-19.46
196.432	-35.84
196.651	-21.5
196.87	-41.98
197.089	31.74
197.308	-46.08
197.528	11.26
197.747	-27.65
197.966	-1.02
198.185	95.23
198.404	-11.26
198.623	39.94
198.842	56.32
199.062	-7.17
199.281	54.27
199.5	97.28
199.719	-64.51
199.938	27.65
200.157	5.12
200.376	19.46
200.595	82.94
200.814	-1.02
201.033	33.79
201.252	54.27
201.471	87.04
201.69	46.08
201.909	76.8
202.128	-64.51
202.347	-17.41
202.566	13.31
202.785	-27.65
203.004	31.74
203.223	54.27
203.442	58.37
203.661	-62.46
203.879	17.41
204.098	54.27
204.317	-19.46
204.536	74.75
204.755	-29.7
204.974	76.8
205.193	23.55
205.411	46.08
205.63	13.31
205.849	15.36
206.068	23.55
206.287	-70.65
206.505	52.22
206.724	-25.6
206.943	-19.46
207.162	-37.89
207.381	21.5
207.599	41.98
207.818	35.84
208.037	41.98
208.255	-17.41
208.474	-29.7
208.693	48.13
208.911	37.89
209.13	-27.65
209.349	52.22
209.567	52.22
209.786	46.08
210.005	5.12
210.223	17.41
210.442	-5.12
210.661	-56.32
210.879	23.55
211.098	62.46
211.316	33.79
211.535	-11.26
211.753	37.89
211.972	84.99
212.191	-7.17
212.409	-9.22
212.628	80.89
212.846	29.7
213.065	11.26
213.283	-3.07
213.502	29.7
213.72	44.03
213.938	-25.6
214.157	-35.84
214.375	31.74
214.594	23.55
214.812	-11.26
215.031	-39.94
215.249	-13.31
215.467	33.79
215.686	-41.98
215.904	76.8
216.122	64.51
216.341	17.41
216.559	13.31
216.778	-13.31
216.996	9.22
217.214	23.55
217.432	25.6
217.651	-13.31
217.869	-31.74
218.087	-1.02
218.306	25.6
218.524	78.85
218.742	-9.22
218.96	-5.12
219.179	-74.75
219.397	37.89
219.615	87.04
219.833	-15.36
220.051	-27.65
220.27	5.12
220.488	37.89
220.706	5.12
220.924	-17.41
221.142	3.07
221.36	-11.26
221.578	7.17
221.796	-15.36
222.015	-3.07
222.233	52.22
222.451	-3.07
222.669	9.22
222.887	21.5
223.105	5.12
223.323	-35.84
223.541	-11.26
223.759	31.74
223.977	-17.41
224.195	11.26
224.413	-56.32
224.631	72.7
224.849	-1.02
225.067	54.27
225.285	-21.5
225.503	-5.12
225.721	-70.65
225.939	70.65
226.157	44.03
226.375	74.75
226.592	-19.46
226.81	25.6
227.028	15.36
227.246	76.8
227.464	11.26
227.682	107.52
227.9	58.37
228.117	9.22
228.335	27.65
228.553	-35.84
228.771	-15.36
228.989	11.26
229.206	-52.22
229.424	5.12
229.642	-27.65
229.86	-11.26
230.077	64.51
230.295	76.8
230.513	37.89
230.731	74.75
230.948	29.7
231.166	13.31
231.384	-35.84
231.601	-64.51
231.819	70.65
232.037	41.98
232.254	-1.02
232.472	-19.46
232.689	-13.31
232.907	72.7
233.125	41.98
233.342	46.08
233.56	3.07
233.777	-7.17
233.995	17.41
234.213	29.7
234.43	1.02
234.648	13.31
234.865	-17.41
235.083	5.12
235.3	-5.12
235.518	-23.55
235.735	-5.12
235.953	48.13
236.17	17.41
236.388	29.7
236.605	-33.79
236.822	91.13
237.04	37.89
237.257	-9.22
237.475	-37.89
237.692	64.51
237.909	9.22
238.127	-48.13
238.344	-15.36
238.562	70.65
238.779	-9.22
238.996	-19.46
239.214	-58.37
239.431	-9.22
239.648	21.5
239.865	11.26
240.083	56.32
240.3	-5.12
240.517	-52.22
240.735	-21.5
240.952	41.98
241.169	17.41
241.386	-17.41
241.603	-72.7
241.821	-93.18
242.038	33.79
242.255	-33.79
242.472	33.79
242.689	29.7
242.907	78.85
243.124	15.36
243.341	-27.65
243.558	-7.17
243.775	72.7
243.992	-23.55
244.209	-9.22
244.426	19.46
244.643	101.37
244.86	25.6
245.078	-25.6
245.295	33.79
245.512	-54.27
245.729	-17.41
245.946	5.12
246.163	-5.12
246.38	52.22
246.597	19.46
246.814	-27.65
247.031	5.12
247.248	3.07
247.464	21.5
247.681	-11.26
247.898	-46.08
248.115	-23.55
248.332	-62.46
248.549	60.42
248.766	91.13
248.983	44.03
249.2	-25.6
249.417	95.23
249.633	13.31
249.85	31.74
250.067	-17.41
250.284	-64.51
250.501	54.27
250.717	21.5
250.934	-54.27
251.151	60.42
251.368	-39.94
251.585	1.02
251.801	-21.5
252.018	-37.89
252.235	15.36
252.451	-44.03
252.668	-117.76
252.885	56.32
253.102	13.31
253.318	5.12
253.535	-13.31
253.752	-58.37
253.968	-41.98
254.185	-56.32
254.401	-23.55
254.618	64.51
254.835	27.65
255.051	5.12
255.268	-11.26
255.484	21.5
255.701	54.27
255.917	78.85
256.134	-15.36
256.351	50.18
256.567	17.41
256.784	-15.36
257	-25.6
257.217	39.94
257.433	-3.07
257.65	27.65
257.866	105.47
258.082	19.46
258.299	-35.84
258.515	46.08
258.732	-23.55
258.948	-41.98
259.165	35.84
259.381	64.51
259.597	-11.26
259.814	-7.17
260.03	5.12
260.246	44.03
260.463	27.65
260.679	56.32
260.895	33.79
261.112	101.37
261.328	-35.84
261.544	13.31
261.761	23.55
261.977	13.31
262.193	-56.32
262.409	-58.37
262.626	11.26
262.842	70.65
263.058	-3.07
263.274	44.03
263.49	-19.46
263.707	35.84
263.923	91.13
264.139	-9.22
264.355	-17.41
264.571	84.99
264.787	50.18
265.004	103.42
265.22	39.94
265.436	31.74
265.652	58.37
265.868	23.55
266.084	15.36
266.3	-13.31
266.516	-50.18
266.732	-27.65
266.948	23.55
267.164	9.22
267.38	25.6
267.596	76.8
267.812	68.61
268.028	107.52
268.244	-41.98
268.46	15.36
268.676	-19.46
268.892	50.18
269.108	-7.17
269.324	29.7
269.54	-17.41
269.756	62.46
269.972	39.94
270.188	-78.85
270.403	-7.17
270.619	23.55
270.835	-62.46
271.051	-46.08
271.267	46.08
271.483	-3.07
271.698	-25.6
271.914	13.31
272.13	-37.89
272.346	-35.84
272.562	17.41
272.777	1.02
272.993	-31.74
273.209	50.18
273.425	1.02
273.64	23.55
273.856	31.74
274.072	21.5
274.287	-9.22
274.503	11.26
274.719	-17.41
274.934	-33.79
275.15	-87.04
275.366	-3.07
275.581	-74.75
275.797	3.07
276.012	-46.08
276.228	17.41
276.444	27.65
276.659	44.03
276.875	9.22
277.09	23.55
277.306	-37.89
277.521	117.76
277.737	-1.02
277.952	35.84
278.168	60.42
278.383	48.13
278.599	33.79
278.814	-50.18
279.03	-46.08
279.245	46.08
279.461	-13.31
279.676	62.46
279.892	-89.09
280.107	9.22
280.322	-17.41
280.538	31.74
280.753	-66.56
280.969	5.12
281.184	-11.26
281.399	93.18
281.615	1.02
281.83	41.98
282.045	-107.52
282.26	54.27
282.476	48.13
282.691	74.75
282.906	3.07
283.122	111.61
283.337	11.26
283.552	50.18
283.767	-1.02
283.983	11.26
284.198	-58.37
284.413	-33.79
284.628	-44.03
284.843	-35.84
285.058	25.6
285.274	46.08
285.489	-19.46
285.704	80.89
285.919	-41.98
286.134	-17.41
286.349	15.36
286.564	1.02
286.779	58.37
286.995	17.41
287.21	-13.31
287.425	15.36
287.64	3.07
287.855	-19.46
288.07	-66.56
288.285	-9.22
288.5	-39.94
288.715	7.17
288.93	5.12
289.145	-7.17
289.36	25.6
289.575	-35.84
289.79	3.07
290.004	1.02
290.219	-48.13
290.434	-19.46
290.649	-17.41
290.864	-84.99
291.079	46.08
291.294	-44.03
291.509	15.36
291.724	19.46
291.938	52.22
292.153	-1.02
292.368	25.6
292.583	23.55
292.798	101.37
293.012	37.89
293.227	95.23
293.442	-50.18
293.657	25.6
293.871	13.31
294.086	64.51
294.301	37.89
294.516	58.37
294.73	39.94
294.945	3.07
295.16	-15.36
295.374	84.99
295.589	-31.74
295.804	41.98
296.018	1.02
296.233	19.46
296.447	109.57
296.662	-15.36
296.877	134.14
297.091	91.13
297.306	39.94
297.52	-29.7
297.735	-48.13
297.949	50.18
298.164	21.5
298.378	-62.46
298.593	-13.31
298.807	-15.36
299.022	5.12
299.236	62.46
299.451	15.36
299.665	-46.08
299.88	13.31
300.094	37.89
300.309	87.04
300.523	11.26
300.737	3.07
300.952	-35.84
301.166	64.51
301.381	-39.94
301.595	23.55
301.809	-17.41
302.024	33.79
302.238	-7.17
302.452	-1.02
302.667	-37.89
302.881	39.94
303.095	29.7
303.309	-3.07
303.524	-15.36
303.738	60.42
303.952	62.46
304.166	23.55
304.381	-54.27
304.595	48.13
304.809	-13.31
305.023	37.89
305.237	50.18
305.452	11.26
305.666	-7.17
305.88	19.46
306.094	-37.89
306.308	95.23
306.522	44.03
306.736	-56.32
306.95	13.31
307.164	-50.18
307.379	54.27
307.593	-11.26
307.807	80.89
308.021	-64.51
308.235	56.32
308.449	23.55
308.663	-5.12
308.877	80.89
309.091	3.07
309.305	87.04
309.519	9.22
309.733	46.08
309.947	-56.32
310.161	21.5
310.374	21.5
310.588	46.08
310.802	-44.03
311.016	54.27
311.23	19.46
311.444	-17.41
311.658	41.98
311.872	39.94
312.085	97.28
312.299	1.02
312.513	17.41
312.727	62.46
312.941	66.56
313.154	54.27
313.368	-33.79
313.582	3.07
313.796	35.84
314.009	-5.12
314.223	35.84
314.437	33.79
314.651	-9.22
314.864	80.89
315.078	7.17
315.292	-23.55
315.505	19.46
315.719	-60.42
315.933	11.26
316.146	25.6
316.36	54.27
316.573	9.22
316.787	54.27
317.001	-27.65
317.214	-99.33
317.428	130.05
317.641	-52.22
317.855	29.7
318.068	31.74
318.282	70.65
318.495	66.56
318.709	1.02
318.922	19.46
319.136	68.61
319.349	44.03
319.563	19.46
319.776	44.03
319.99	-50.18
320.203	76.8
320.417	-15.36
320.63	68.61
320.843	113.66
321.057	-13.31
321.27	5.12
321.483	31.74
321.697	39.94
321.91	54.27
322.124	64.51
322.337	9.22
322.55	-39.94
322.763	1.02
322.977	39.94
323.19	3.07
323.403	-29.7
323.617	19.46
323.83	44.03
324.043	1.02
324.256	-39.94
324.469	-62.46
324.683	15.36
324.896	31.74
325.109	-15.36
325.322	23.55
325.535	60.42
325.748	64.51
325.962	-7.17
326.175	-29.7
326.388	-9.22
326.601	-29.7
326.814	54.27
327.027	3.07
327.24	48.13
327.453	-44.03
327.666	117.76
327.879	3.07
328.092	66.56
328.305	-7.17
328.518	1.02
328.731	-19.46
328.944	29.7
329.157	-11.26
329.37	95.23
329.583	37.89
329.796	31.74
330.009	-95.23
330.222	9.22
330.435	1.02
330.648	11.26
330.861	46.08
331.073	-27.65
331.286	-11.26
331.499	15.36
331.712	-19.46
331.925	70.65
332.138	48.13
332.35	87.04
332.563	-1.02
332.776	74.75
332.989	-3.07
333.202	56.32
333.414	-44.03
333.627	46.08
333.84	-48.13
334.053	-5.12
334.265	54.27
334.478	-7.17
334.691	-1.02
334.903	31.74
335.116	-27.65
335.329	-3.07
335.541	-19.46
335.754	37.89
335.966	41.98
336.179	1.02
336.392	48.13
336.604	17.41
336.817	-1.02
337.029	-9.22
337.242	-3.07
337.454	9.22
337.667	41.98
337.88	-1.02
338.092	13.31
338.305	58.37
338.517	13.31
338.729	60.42
338.942	70.65
339.154	48.13
339.367	-35.84
339.579	103.42
339.792	35.84
340.004	-13.31
340.217	35.84
340.429	39.94
340.641	-9.22
340.854	25.6
341.066	19.46
341.278	19.46
341.491	33.79
341.703	17.41
341.915	-76.8
342.128	7.17
342.34	7.17
342.552	17.41
342.764	58.37
342.977	-41.98
343.189	62.46
343.401	-1.02
343.613	31.74
343.826	19.46
344.038	23.55
344.25	64.51
344.462	35.84
344.674	-44.03
344.886	21.5
345.099	11.26
345.311	19.46
345.523	58.37
345.735	-9.22
345.947	62.46
346.159	21.5
346.371	17.41
346.583	31.74
346.795	52.22
347.007	-25.6
347.219	37.89
347.431	29.7
347.643	46.08
347.855	29.7
348.067	35.84
348.279	-44.03
348.491	-21.5
348.703	109.57
348.915	-3.07
349.127	31.74
349.339	25.6
349.551	-46.08
349.763	-3.07
349.975	-9.22
350.187	64.51
350.399	84.99
350.61	82.94
350.822	62.46
351.034	-19.46
351.246	19.46
351.458	25.6
351.669	64.51
351.881	97.28
352.093	13.31
352.305	9.22
352.517	-64.51
352.728	23.55
352.94	48.13
353.152	33.79
353.363	1.02
353.575	72.7
353.787	44.03
353.999	35.84
354.21	-23.55
354.422	35.84
354.633	33.79
354.845	21.5
355.057	87.04
355.268	60.42
355.48	-19.46
355.692	-3.07
355.903	5.12
356.115	27.65
356.326	-29.7
356.538	62.46
356.749	76.8
356.961	21.5
357.172	-33.79
357.384	13.31
357.595	117.76
357.807	-41.98
358.018	31.74
358.23	115.71
358.441	62.46
358.653	48.13
358.864	107.52
359.075	7.17
359.287	70.65
359.498	60.42
359.709	7.17
359.921	-56.32
360.132	-15.36
360.344	58.37
360.555	-5.12
360.766	37.89
360.977	37.89
361.189	39.94
361.4	37.89
361.611	97.28
361.823	1.02
362.034	21.5
362.245	44.03
362.456	-46.08
362.667	48.13
362.879	15.36
363.09	-1.02
363.301	33.79
363.512	9.22
363.723	5.12
363.935	-5.12
364.146	37.89
364.357	54.27
364.568	41.98
364.779	-44.03
364.99	19.46
365.201	1.02
365.412	37.89
365.623	-33.79
365.834	113.66
366.045	31.74
366.256	60.42
366.467	25.6
366.678	9.22
366.889	23.55
367.1	76.8
367.311	52.22
367.522	62.46
367.733	89.09
367.944	44.03
368.155	15.36
368.366	21.5
368.577	13.31
368.788	19.46
368.999	-41.98
369.209	-35.84
369.42	111.61
369.631	84.99
369.842	35.84
370.053	54.27
370.264	66.56
370.474	11.26
370.685	29.7
370.896	144.38
371.107	64.51
371.317	48.13
371.528	44.03
371.739	107.52
371.95	56.32
372.16	50.18
372.371	-31.74
372.582	11.26
372.792	23.55
373.003	17.41
373.214	101.37
373.424	52.22
373.635	5.12
373.846	56.32
374.056	-15.36
374.267	46.08
374.477	9.22
374.688	80.89
374.898	84.99
375.109	23.55
375.319	19.46
375.53	11.26
375.74	58.37
375.951	56.32
376.161	39.94
376.372	56.32
376.582	37.89
376.793	9.22
377.003	-17.41
377.214	58.37
377.424	-7.17
377.635	23.55
377.845	-11.26
378.055	-7.17
378.266	-52.22
378.476	13.31
378.686	-19.46
378.897	21.5
379.107	111.61
379.317	-9.22
379.528	37.89
379.738	-15.36
379.948	68.61
380.158	50.18
380.369	-3.07
380.579	99.33
380.789	35.84
380.999	35.84
381.21	70.65
381.42	80.89
381.63	7.17
381.84	80.89
382.05	11.26
382.261	84.99
382.471	58.37
382.681	15.36
382.891	105.47
383.101	-1.02
383.311	-27.65
383.521	23.55
383.731	37.89
383.941	95.23
384.151	27.65
384.361	-15.36
384.571	-37.89
384.781	62.46
384.991	80.89
385.201	111.61
385.411	41.98
385.621	-27.65
385.831	50.18
386.041	21.5
386.251	-9.22
386.461	13.31
386.671	68.61
386.881	72.7
387.091	27.65
387.301	9.22
387.511	52.22
387.72	9.22
387.93	78.85
388.14	-3.07
388.35	-13.31
388.56	25.6
388.769	23.55
388.979	-9.22
389.189	17.41
389.399	9.22
389.609	72.7
389.818	56.32
390.028	56.32
390.238	115.71
390.447	25.6
390.657	64.51
390.867	-52.22
391.076	-3.07
391.286	52.22
391.496	89.09
391.705	64.51
391.915	78.85
392.125	113.66
392.334	-19.46
392.544	-39.94
392.753	23.55
392.963	19.46
393.172	23.55
393.382	31.74
393.591	128
393.801	31.74
394.01	95.23
394.22	111.61
394.429	82.94
394.639	-27.65
394.848	72.7
395.058	76.8
395.267	-7.17
395.477	17.41
395.686	103.42
395.895	138.24
396.105	97.28
396.314	68.61
396.524	121.85
396.733	-48.13
396.942	62.46
397.152	68.61
397.361	136.19
397.57	95.23
397.78	56.32
397.989	119.81
398.198	134.14
398.407	64.51
398.617	87.04
398.826	60.42
399.035	89.09
399.244	58.37
399.453	39.94
399.663	62.46
399.872	44.03
400.081	-13.31
400.29	111.61
400.499	91.13
400.708	119.81
400.917	64.51
401.127	37.89
401.336	41.98
401.545	144.38
401.754	66.56
401.963	105.47
402.172	62.46
402.381	35.84
402.59	95.23
402.799	168.96
403.008	119.81
403.217	76.8
403.426	101.37
403.635	23.55
403.844	142.33
404.053	146.43
404.262	97.28
404.471	138.24
404.68	76.8
404.888	164.86
405.097	119.81
405.306	95.23
405.515	111.61
405.724	95.23
405.933	107.52
406.142	103.42
406.35	179.2
406.559	117.76
406.768	111.61
406.977	216.06
407.185	171.01
407.394	203.77
407.603	168.96
407.812	168.96
408.02	226.3
408.229	144.38
408.438	144.38
408.646	164.86
408.855	189.44
409.064	248.83
409.272	257.02
409.481	240.64
409.69	248.83
409.898	228.35
410.107	238.59
410.315	369.66
410.524	279.55
410.733	334.84
410.941	236.54
411.15	322.56
411.358	359.42
411.567	312.32
411.775	336.89
411.984	367.61
412.192	336.89
412.401	334.84
412.609	427
412.818	519.16
413.026	508.92
413.234	494.58
413.443	465.91
413.651	474.1
413.86	490.49
414.068	594.93
414.276	474.1
414.485	484.34
414.693	611.32
414.901	576.5
415.11	625.65
415.318	644.09
415.526	619.51
415.734	777.2
415.943	769.01
416.151	809.97
416.359	805.88
416.567	771.06
416.776	752.63
416.984	885.75
417.192	883.7
417.4	865.27
417.608	902.13
417.817	908.27
418.025	977.91
418.233	924.66
418.441	1094.64
418.649	1016.82
418.857	1209.33
419.065	1219.57
419.273	1203.18
419.481	1248.24
419.689	1235.95
419.897	1473.51
420.105	1342.44
420.313	1467.37
420.521	1467.37
420.729	1563.62
420.937	1539.05
421.145	1631.21
421.353	1633.26
421.561	1803.24
421.769	1868.77
421.977	1874.92
422.185	1844.2
422.393	1901.54
422.601	2167.77
422.809	2096.1
423.017	2053.09
423.224	2231.26
423.432	2282.46
423.64	2341.85
423.848	2505.69
424.056	2399.2
424.263	2552.79
424.471	2685.91
424.679	2679.77
424.887	2741.21
425.094	2894.8
425.302	2943.96
425.51	2964.43
425.718	3046.35
425.925	3197.9
426.133	3269.58
426.341	3580.87
426.548	3609.54
426.756	3556.3
426.964	3750.85
427.171	3849.16
427.379	4002.75
427.586	3937.22
427.794	4266.94
428.001	4256.7
428.209	4535.23
428.417	4471.74
428.624	4793.27
428.832	4846.52
429.039	4826.04
429.247	4670.39
429.454	5313.45
429.662	5489.58
429.869	5118.9
430.076	5727.14
430.284	5372.85
430.491	5477.29
430.699	5954.47
430.906	6024.1
431.114	6024.1
431.321	6189.99
431.528	6425.5
431.736	6863.77
431.943	7093.14
432.15	6908.82
432.358	6929.3
432.565	7338.9
432.772	7373.71
432.979	7996.29
433.187	7791.5
433.394	7859.08
433.601	8598.4
433.808	8430.46
434.016	8264.58
434.223	8934.26
434.43	9405.3
434.637	9184.12
434.844	9653.1
435.052	9923.43
435.259	9821.03
435.466	9980.78
435.673	9782.12
435.88	10316.64
436.087	11121.49
436.294	11017.05
436.501	10888.03
436.708	10988.38
436.915	11494.22
437.122	11848.52
437.329	11940.68
437.537	12215.11
437.743	12776.25
437.95	12204.87
438.157	12790.59
438.364	13382.45
438.571	13284.15
438.778	13347.64
438.985	14797.6
439.192	14086.95
439.399	14691.1
439.606	14242.6
439.813	15217.43
440.02	16022.28
440.227	15887.12
440.433	15502.1
440.64	16128.78
440.847	15840.01
441.054	16425.73
441.261	17482.49
441.467	17380.09
441.674	17574.64
441.881	18352.87
442.088	18250.47
442.294	18084.59
442.501	18459.37
442.708	18854.62
442.914	19653.33
443.121	20458.18
443.328	19917.52
443.534	21322.43
443.741	20781.76
443.948	20460.23
444.154	21969.58
444.361	21691.06
444.568	22387.37
444.774	21799.6
444.981	22274.73
445.187	22784.68
445.394	23786.13
445.6	23587.48
445.807	26063.47
446.013	24502.92
446.22	24939.14
446.426	26002.04
446.633	26106.48
446.839	27142.75
447.046	26006.13
447.252	27585.12
447.459	27599.45
447.665	27544.16
447.871	29028.93
448.078	29874.74
448.284	28609.1
448.491	29362.75
448.697	30515.76
448.903	31162.92
449.11	31384.1
449.316	30738.99
449.522	30949.93
449.728	32154.13
449.935	32295.44
450.141	32277.01
450.347	32905.74
450.553	31777.31
450.76	32115.22
450.966	33354.24
451.172	33278.47
451.378	33847.8
451.584	33108.49
451.791	34056.7
451.997	34085.37
452.203	34462.19
452.409	34136.57
452.615	34204.15
452.821	33214.98
453.027	32813.58
453.233	34445.81
453.44	33102.34
453.646	33487.36
453.852	33534.46
454.058	34241.01
454.264	33229.32
454.47	33493.5
454.676	32911.88
454.882	34595.31
455.088	31042.09
455.294	31683.1
455.5	32104.98
455.705	31896.09
455.911	30974.5
456.117	30362.16
456.323	29981.24
456.529	28539.47
456.735	29807.16
456.941	28731.98
457.147	28375.63
457.352	27548.25
457.558	27177.57
457.764	27525.72
457.97	26727.02
458.176	26399.34
458.381	26323.57
458.587	24580.74
458.793	24920.71
458.999	23470.75
459.204	25285.25
459.41	24832.65
459.616	22870.69
459.821	22782.63
460.027	22796.96
460.233	22536.87
460.438	21228.22
460.644	21742.26
460.85	20523.72
461.055	20468.42
461.261	20136.65
461.466	18522.85
461.672	18096.88
461.878	19235.55
462.083	18211.56
462.289	17711.86
462.494	17402.61
462.7	16888.57
462.905	16421.64
463.111	16884.48
463.316	17185.53
463.522	16685.83
463.727	16888.57
463.932	16610.05
464.138	16554.76
464.343	16489.22
464.549	16104.2
464.754	16648.96
464.959	16481.03
465.165	16403.21
465.37	15717.14
465.575	15575.83
465.781	16016.14
465.986	16110.35
466.191	15440.66
466.397	15020.83
466.602	14209.83
466.807	14930.72
