Data from USB4F104151__71__12-42-15-108.txt Node

Date: Fri Mar 14 12:42:15 EDT 2025
User: louis
Spectrometer: USB4F10415
Trigger mode: 4
Integration Time (sec): 3.000000E-2
Scans to average: 1
Electric dark correction enabled: true
Nonlinearity correction enabled: false
Boxcar width: 0
XAxis mode: Wavelengths
Number of Pixels in Spectrum: 3648
>>>>>Begin Spectral Data<<<<<
178.204	-159.4
178.424	-159.4
178.644	-159.4
178.864	-147.11
179.084	-190.12
179.304	-32.43
179.524	-38.57
179.744	24.92
179.964	-30.38
180.184	18.77
180.404	49.49
180.624	-30.38
180.844	-5.8
181.064	-16.04
181.283	-61.1
181.503	2.39
181.723	119.12
181.943	-65.19
182.163	24.92
182.383	-22.19
182.602	-13.99
182.822	43.35
183.042	31.06
183.262	-44.71
183.482	47.44
183.701	-30.38
183.921	-5.8
184.141	-71.34
184.361	69.97
184.58	6.49
184.8	6.49
185.02	-7.85
185.239	29.01
185.459	10.58
185.679	104.79
185.898	-63.15
186.118	35.16
186.338	20.82
186.557	14.68
186.777	2.39
186.997	-67.24
187.216	10.58
187.436	43.35
187.655	55.64
187.875	53.59
188.095	67.92
188.314	-9.9
188.534	129.36
188.753	-63.15
188.973	10.58
189.192	51.54
189.412	35.16
189.631	8.53
189.851	67.92
190.07	57.68
190.29	-61.1
190.509	-16.04
190.729	43.35
190.948	35.16
191.168	186.71
191.387	53.59
191.607	-22.19
191.826	37.2
192.045	-38.57
192.265	6.49
192.484	-30.38
192.704	-22.19
192.923	-22.19
193.142	18.77
193.362	-18.09
193.581	41.3
193.8	61.78
194.02	55.64
194.239	4.44
194.458	-13.99
194.678	-9.9
194.897	12.63
195.116	72.02
195.335	-18.09
195.555	29.01
195.774	22.87
195.993	-7.85
196.212	29.01
196.432	-32.43
196.651	0.34
196.87	-38.57
197.089	117.08
197.308	-13.99
197.528	49.49
197.747	16.73
197.966	41.3
198.185	29.01
198.404	-1.71
198.623	-5.8
198.842	14.68
199.062	31.06
199.281	-3.75
199.5	-46.76
199.719	53.59
199.938	37.2
200.157	-11.95
200.376	37.2
200.595	55.64
200.814	20.82
201.033	-11.95
201.252	67.92
201.471	8.53
201.69	10.58
201.909	63.83
202.128	41.3
202.347	-9.9
202.566	8.53
202.785	16.73
203.004	4.44
203.223	41.3
203.442	-36.52
203.661	26.96
203.879	102.74
204.098	8.53
204.317	-54.95
204.536	8.53
204.755	-5.8
204.974	86.36
205.193	20.82
205.411	72.02
205.63	2.39
205.849	18.77
206.068	6.49
206.287	4.44
206.505	-11.95
206.724	33.11
206.943	-5.8
207.162	59.73
207.381	-7.85
207.599	2.39
207.818	49.49
208.037	24.92
208.255	24.92
208.474	20.82
208.693	14.68
208.911	-11.95
209.13	-11.95
209.349	2.39
209.567	35.16
209.786	69.97
210.005	-28.33
210.223	45.4
210.442	-32.43
210.661	84.31
210.879	2.39
211.098	20.82
211.316	14.68
211.535	33.11
211.753	4.44
211.972	35.16
212.191	14.68
212.409	-54.95
212.628	8.53
212.846	35.16
213.065	-18.09
213.283	106.84
213.502	-11.95
213.72	8.53
213.938	35.16
214.157	-38.57
214.375	82.26
214.594	-9.9
214.812	-13.99
215.031	6.49
215.249	-22.19
215.467	20.82
215.686	67.92
215.904	63.83
216.122	-9.9
216.341	74.07
216.559	84.31
216.778	43.35
216.996	-20.14
217.214	-50.86
217.432	31.06
217.651	-7.85
217.869	0.34
218.087	43.35
218.306	20.82
218.524	-36.52
218.742	12.63
218.96	-28.33
219.179	35.16
219.397	-3.75
219.615	151.89
219.833	24.92
220.051	-40.62
220.27	14.68
220.488	14.68
220.706	53.59
220.924	72.02
221.142	-28.33
221.36	-46.76
221.578	4.44
221.796	4.44
222.015	12.63
222.233	37.2
222.451	59.73
222.669	-54.95
222.887	2.39
223.105	-93.87
223.323	43.35
223.541	-52.91
223.759	-11.95
223.977	65.88
224.195	31.06
224.413	0.34
224.631	112.98
224.849	12.63
225.067	2.39
225.285	-36.52
225.503	63.83
225.721	-28.33
225.939	39.25
226.157	2.39
226.375	82.26
226.592	0.34
226.81	82.26
227.028	22.87
227.246	-18.09
227.464	10.58
227.682	-7.85
227.9	26.96
228.117	43.35
228.335	39.25
228.553	-26.28
228.771	-13.99
228.989	-11.95
229.206	-3.75
229.424	-9.9
229.642	-1.71
229.86	-1.71
230.077	41.3
230.295	37.2
230.513	55.64
230.731	35.16
230.948	-20.14
231.166	69.97
231.384	-28.33
231.601	2.39
231.819	41.3
232.037	37.2
232.254	-7.85
232.472	84.31
232.689	-44.71
232.907	31.06
233.125	-22.19
233.342	49.49
233.56	-28.33
233.777	47.44
233.995	51.54
234.213	92.5
234.43	24.92
234.648	20.82
234.865	22.87
235.083	-26.28
235.3	-13.99
235.518	63.83
235.735	65.88
235.953	26.96
236.17	-13.99
236.388	-5.8
236.605	-48.81
236.822	117.08
237.04	94.55
237.257	31.06
237.475	-85.67
237.692	16.73
237.909	-44.71
238.127	12.63
238.344	-1.71
238.562	-5.8
238.779	0.34
238.996	-7.85
239.214	-11.95
239.431	57.68
239.648	-28.33
239.865	10.58
240.083	37.2
240.3	-63.15
240.517	-22.19
240.735	-22.19
240.952	59.73
241.169	37.2
241.386	26.96
241.603	26.96
241.821	-26.28
242.038	41.3
242.255	78.16
242.472	47.44
242.689	0.34
242.907	6.49
243.124	4.44
243.341	-18.09
243.558	29.01
243.775	-61.1
243.992	-95.91
244.209	16.73
244.426	-5.8
244.643	8.53
244.86	61.78
245.078	-32.43
245.295	-3.75
245.512	37.2
245.729	41.3
245.946	0.34
246.163	-81.58
246.38	-26.28
246.597	-3.75
246.814	8.53
247.031	-40.62
247.248	-42.67
247.464	8.53
247.681	2.39
247.898	18.77
248.115	53.59
248.332	35.16
248.549	41.3
248.766	57.68
248.983	49.49
249.2	-67.24
249.417	20.82
249.633	14.68
249.85	53.59
250.067	10.58
250.284	-3.75
250.501	45.4
250.717	22.87
250.934	-54.95
251.151	-38.57
251.368	18.77
251.585	82.26
251.801	14.68
252.018	41.3
252.235	45.4
252.451	12.63
252.668	-63.15
252.885	-13.99
253.102	18.77
253.318	69.97
253.535	-1.71
253.752	-16.04
253.968	-52.91
254.185	-5.8
254.401	24.92
254.618	22.87
254.835	-7.85
255.051	67.92
255.268	4.44
255.484	8.53
255.701	10.58
255.917	14.68
256.134	26.96
256.351	-9.9
256.567	-13.99
256.784	29.01
257	-26.28
257.217	-34.47
257.433	20.82
257.65	74.07
257.866	123.22
258.082	-11.95
258.299	57.68
258.515	-16.04
258.732	-44.71
258.948	-50.86
259.165	-9.9
259.381	-22.19
259.597	22.87
259.814	-36.52
260.03	18.77
260.246	49.49
260.463	151.89
260.679	-5.8
260.895	-16.04
261.112	26.96
261.328	55.64
261.544	-16.04
261.761	88.4
261.977	-9.9
262.193	-1.71
262.409	18.77
262.626	-7.85
262.842	10.58
263.058	12.63
263.274	-20.14
263.49	61.78
263.707	45.4
263.923	74.07
264.139	8.53
264.355	12.63
264.571	47.44
264.787	16.73
265.004	37.2
265.22	41.3
265.436	-34.47
265.652	-1.71
265.868	20.82
266.084	-40.62
266.3	-42.67
266.516	14.68
266.732	-7.85
266.948	8.53
267.164	29.01
267.38	-24.23
267.596	-11.95
267.812	4.44
268.028	65.88
268.244	-1.71
268.46	6.49
268.676	-71.34
268.892	26.96
269.108	12.63
269.324	-1.71
269.54	8.53
269.756	57.68
269.972	-32.43
270.188	20.82
270.403	8.53
270.619	135.51
270.835	-1.71
271.051	31.06
271.267	31.06
271.483	47.44
271.698	43.35
271.914	-1.71
272.13	-3.75
272.346	35.16
272.562	26.96
272.777	-11.95
272.993	47.44
273.209	53.59
273.425	-16.04
273.64	-5.8
273.856	80.21
274.072	47.44
274.287	-36.52
274.503	166.23
274.719	10.58
274.934	-50.86
275.15	-20.14
275.366	18.77
275.581	-32.43
275.797	43.35
276.012	47.44
276.228	-48.81
276.444	6.49
276.659	37.2
276.875	-30.38
277.09	49.49
277.306	-67.24
277.521	29.01
277.737	24.92
277.952	18.77
278.168	-36.52
278.383	6.49
278.599	14.68
278.814	8.53
279.03	31.06
279.245	18.77
279.461	24.92
279.676	26.96
279.892	-71.34
280.107	35.16
280.322	-26.28
280.538	24.92
280.753	-48.81
280.969	76.12
281.184	-1.71
281.399	22.87
281.615	-28.33
281.83	43.35
282.045	-28.33
282.26	-42.67
282.476	59.73
282.691	67.92
282.906	82.26
283.122	20.82
283.337	41.3
283.552	131.41
283.767	33.11
283.983	31.06
284.198	-28.33
284.413	10.58
284.628	29.01
284.843	-69.29
285.058	-1.71
285.274	-44.71
285.489	31.06
285.704	69.97
285.919	20.82
286.134	57.68
286.349	35.16
286.564	31.06
286.779	18.77
286.995	37.2
287.21	-5.8
287.425	33.11
287.64	12.63
287.855	74.07
288.07	10.58
288.285	24.92
288.5	69.97
288.715	49.49
288.93	-30.38
289.145	-75.43
289.36	10.58
289.575	31.06
289.79	16.73
290.004	-1.71
290.219	74.07
290.434	-16.04
290.649	-52.91
290.864	-73.39
291.079	-30.38
291.294	12.63
291.509	43.35
291.724	-36.52
291.938	26.96
292.153	2.39
292.368	-63.15
292.583	39.25
292.798	78.16
293.012	-42.67
293.227	-7.85
293.442	67.92
293.657	41.3
293.871	29.01
294.086	49.49
294.301	104.79
294.516	117.08
294.73	35.16
294.945	-36.52
295.16	0.34
295.374	22.87
295.589	37.2
295.804	18.77
296.018	45.4
296.233	92.5
296.447	0.34
296.662	-32.43
296.877	2.39
297.091	53.59
297.306	61.78
297.52	37.2
297.735	-20.14
297.949	10.58
298.164	72.02
298.378	-16.04
298.593	-48.81
298.807	-20.14
299.022	-16.04
299.236	22.87
299.451	14.68
299.665	47.44
299.88	-13.99
300.094	-7.85
300.309	29.01
300.523	-48.81
300.737	-3.75
300.952	-61.1
301.166	78.16
301.381	-61.1
301.595	10.58
301.809	-22.19
302.024	-40.62
302.238	29.01
302.452	-13.99
302.667	-69.29
302.881	59.73
303.095	127.32
303.309	63.83
303.524	-40.62
303.738	108.88
303.952	45.4
304.166	76.12
304.381	16.73
304.595	65.88
304.809	10.58
305.023	59.73
305.237	-44.71
305.452	14.68
305.666	-18.09
305.88	102.74
306.094	-65.19
306.308	16.73
306.522	63.83
306.736	22.87
306.95	-11.95
307.164	-11.95
307.379	47.44
307.593	20.82
307.807	14.68
308.021	135.51
308.235	53.59
308.449	-102.06
308.663	92.5
308.877	45.4
309.091	-1.71
309.305	31.06
309.519	-48.81
309.733	39.25
309.947	-57
310.161	18.77
310.374	29.01
310.588	51.54
310.802	55.64
311.016	-83.63
311.23	-20.14
311.444	61.78
311.658	35.16
311.872	74.07
312.085	92.5
312.299	129.36
312.513	76.12
312.727	4.44
312.941	-40.62
313.154	-3.75
313.368	31.06
313.582	61.78
313.796	2.39
314.009	-5.8
314.223	41.3
314.437	22.87
314.651	37.2
314.864	-32.43
315.078	-32.43
315.292	-46.76
315.505	0.34
315.719	41.3
315.933	-16.04
316.146	33.11
316.36	4.44
316.573	86.36
316.787	-32.43
317.001	6.49
317.214	-18.09
317.428	-3.75
317.641	96.6
317.855	-9.9
318.068	26.96
318.282	29.01
318.495	69.97
318.709	6.49
318.922	-28.33
319.136	82.26
319.349	-7.85
319.563	16.73
319.776	8.53
319.99	-40.62
320.203	39.25
320.417	12.63
320.63	78.16
320.843	90.45
321.057	45.4
321.27	12.63
321.483	57.68
321.697	61.78
321.91	90.45
322.124	14.68
322.337	-3.75
322.55	22.87
322.763	65.88
322.977	-16.04
323.19	6.49
323.403	47.44
323.617	29.01
323.83	-16.04
324.043	88.4
324.256	-42.67
324.469	8.53
324.683	53.59
324.896	24.92
325.109	24.92
325.322	-18.09
325.535	74.07
325.748	18.77
325.962	43.35
326.175	18.77
326.388	29.01
326.601	59.73
326.814	-1.71
327.027	2.39
327.24	22.87
327.453	-7.85
327.666	-22.19
327.879	-3.75
328.092	14.68
328.305	2.39
328.518	43.35
328.731	4.44
328.944	-20.14
329.157	63.83
329.37	20.82
329.583	24.92
329.796	108.88
330.009	43.35
330.222	41.3
330.435	115.03
330.648	53.59
330.861	6.49
331.073	8.53
331.286	12.63
331.499	41.3
331.712	-30.38
331.925	45.4
332.138	-24.23
332.35	39.25
332.563	-71.34
332.776	45.4
332.989	-18.09
333.202	-5.8
333.414	-44.71
333.627	-40.62
333.84	-11.95
334.053	49.49
334.265	39.25
334.478	45.4
334.691	-13.99
334.903	-44.71
335.116	-7.85
335.329	49.49
335.541	65.88
335.754	33.11
335.966	-32.43
336.179	6.49
336.392	33.11
336.604	12.63
336.817	6.49
337.029	24.92
337.242	-28.33
337.454	88.4
337.667	-22.19
337.88	76.12
338.092	69.97
338.305	45.4
338.517	53.59
338.729	-3.75
338.942	4.44
339.154	33.11
339.367	57.68
339.579	-5.8
339.792	2.39
340.004	-11.95
340.217	65.88
340.429	47.44
340.641	12.63
340.854	-22.19
341.066	-7.85
341.278	57.68
341.491	49.49
341.703	45.4
341.915	-30.38
342.128	45.4
342.34	14.68
342.552	-34.47
342.764	24.92
342.977	16.73
343.189	43.35
343.401	10.58
343.613	-22.19
343.826	-63.15
344.038	26.96
344.25	49.49
344.462	31.06
344.674	8.53
344.886	37.2
345.099	45.4
345.311	26.96
345.523	12.63
345.735	115.03
345.947	51.54
346.159	16.73
346.371	33.11
346.583	-5.8
346.795	61.78
347.007	4.44
347.219	84.31
347.431	51.54
347.643	45.4
347.855	0.34
348.067	12.63
348.279	-38.57
348.491	74.07
348.703	94.55
348.915	-13.99
349.127	43.35
349.339	76.12
349.551	10.58
349.763	-18.09
349.975	16.73
350.187	74.07
350.399	49.49
350.61	55.64
350.822	-1.71
351.034	18.77
351.246	-77.48
351.458	57.68
351.669	8.53
351.881	74.07
352.093	80.21
352.305	110.93
352.517	57.68
352.728	63.83
352.94	45.4
353.152	43.35
353.363	-5.8
353.575	69.97
353.787	-5.8
353.999	-11.95
354.21	-7.85
354.422	6.49
354.633	43.35
354.845	8.53
355.057	55.64
355.268	22.87
355.48	4.44
355.692	-36.52
355.903	41.3
356.115	67.92
356.326	-36.52
356.538	63.83
356.749	69.97
356.961	53.59
357.172	29.01
357.384	-1.71
357.595	49.49
357.807	61.78
358.018	-9.9
358.23	45.4
358.441	51.54
358.653	14.68
358.864	-11.95
359.075	14.68
359.287	131.41
359.498	69.97
359.709	24.92
359.921	-5.8
360.132	98.64
360.344	-13.99
360.555	29.01
360.766	-9.9
360.977	-11.95
361.189	92.5
361.4	35.16
361.611	49.49
361.823	53.59
362.034	110.93
362.245	2.39
362.456	63.83
362.667	59.73
362.879	90.45
363.09	61.78
363.301	6.49
363.512	16.73
363.723	92.5
363.935	-44.71
364.146	49.49
364.357	55.64
364.568	51.54
364.779	-87.72
364.99	76.12
365.201	-59.05
365.412	-18.09
365.623	10.58
365.834	37.2
366.045	41.3
366.256	43.35
366.467	4.44
366.678	67.92
366.889	106.84
367.1	45.4
367.311	10.58
367.522	80.21
367.733	115.03
367.944	72.02
368.155	57.68
368.366	35.16
368.577	39.25
368.788	51.54
368.999	37.2
369.209	-69.29
369.42	35.16
369.631	18.77
369.842	47.44
370.053	-22.19
370.264	51.54
370.474	39.25
370.685	0.34
370.896	18.77
371.107	86.36
371.317	37.2
371.528	22.87
371.739	16.73
371.95	8.53
372.16	47.44
372.371	-16.04
372.582	-9.9
372.792	-3.75
373.003	14.68
373.214	14.68
373.424	33.11
373.635	6.49
373.846	98.64
374.056	-3.75
374.267	76.12
374.477	2.39
374.688	2.39
374.898	-24.23
375.109	55.64
375.319	37.2
375.53	90.45
375.74	29.01
375.951	-13.99
376.161	20.82
376.372	16.73
376.582	0.34
376.793	-9.9
377.003	31.06
377.214	6.49
377.424	6.49
377.635	47.44
377.845	-40.62
378.055	80.21
378.266	4.44
378.476	86.36
378.686	49.49
378.897	22.87
379.107	20.82
379.317	61.78
379.528	-42.67
379.738	-13.99
379.948	35.16
380.158	-5.8
380.369	61.78
380.579	78.16
380.789	43.35
380.999	94.55
381.21	12.63
381.42	61.78
381.63	-7.85
381.84	69.97
382.05	29.01
382.261	20.82
382.471	51.54
382.681	61.78
382.891	119.12
383.101	35.16
383.311	-22.19
383.521	35.16
383.731	43.35
383.941	10.58
384.151	45.4
384.361	39.25
384.571	16.73
384.781	51.54
384.991	57.68
385.201	117.08
385.411	59.73
385.621	45.4
385.831	-28.33
386.041	84.31
386.251	6.49
386.461	84.31
386.671	86.36
386.881	-7.85
387.091	121.17
387.301	84.31
387.511	12.63
387.72	106.84
387.93	31.06
388.14	20.82
388.35	59.73
388.56	47.44
388.769	43.35
388.979	49.49
389.189	49.49
389.399	90.45
389.609	53.59
389.818	65.88
390.028	31.06
390.238	29.01
390.447	31.06
390.657	39.25
390.867	18.77
391.076	-3.75
391.286	-1.71
391.496	55.64
391.705	24.92
391.915	153.94
392.125	88.4
392.334	125.27
392.544	61.78
392.753	74.07
392.963	57.68
393.172	59.73
393.382	18.77
393.591	61.78
393.801	18.77
394.01	55.64
394.22	10.58
394.429	82.26
394.639	78.16
394.848	115.03
395.058	117.08
395.267	72.02
395.477	133.46
395.686	53.59
395.895	117.08
396.105	90.45
396.314	57.68
396.524	80.21
396.733	80.21
396.942	141.65
397.152	51.54
397.361	178.51
397.57	92.5
397.78	4.44
397.989	131.41
398.198	100.69
398.407	100.69
398.617	69.97
398.826	49.49
399.035	59.73
399.244	162.13
399.453	51.54
399.663	82.26
399.872	119.12
400.081	88.4
400.29	168.27
400.499	84.31
400.708	143.7
400.917	117.08
401.127	78.16
401.336	74.07
401.545	180.56
401.754	31.06
401.963	133.46
402.172	78.16
402.381	96.6
402.59	67.92
402.799	115.03
403.008	69.97
403.217	92.5
403.426	82.26
403.635	47.44
403.844	110.93
404.053	133.46
404.262	96.6
404.471	82.26
404.68	125.27
404.888	100.69
405.097	133.46
405.306	184.66
405.515	131.41
405.724	151.89
405.933	162.13
406.142	160.08
406.35	147.8
406.559	194.9
406.768	137.56
406.977	182.61
407.185	219.47
407.394	215.38
407.603	176.47
407.812	188.75
408.02	256.34
408.229	237.91
408.438	180.56
408.646	168.27
408.855	188.75
409.064	287.06
409.272	186.71
409.481	321.87
409.69	188.75
409.898	264.53
410.107	348.5
410.315	354.64
410.524	293.2
410.733	323.92
410.941	338.26
411.15	330.06
411.358	381.26
411.567	422.22
411.775	274.77
411.984	346.45
412.192	500.05
412.401	454.99
412.609	508.24
412.818	469.33
413.026	432.46
413.234	405.84
413.443	489.81
413.651	473.42
413.86	467.28
414.068	571.72
414.276	614.73
414.485	510.29
414.693	663.88
414.901	667.98
415.11	633.16
415.318	717.13
415.526	653.64
415.734	706.89
415.943	667.98
416.151	797
416.359	850.25
416.567	831.82
416.776	835.91
416.984	889.16
417.192	948.55
417.4	907.59
417.608	891.21
417.817	960.84
418.025	962.89
418.233	1145.16
418.441	956.74
418.649	1089.86
418.857	1124.68
419.065	1247.55
419.273	1190.21
419.481	1194.31
419.689	1390.91
419.897	1333.57
420.105	1364.29
420.313	1454.4
420.521	1487.17
420.729	1538.37
420.937	1585.47
421.145	1589.57
421.353	1730.87
421.561	1876.28
421.769	1775.93
421.977	2023.73
422.185	1853.75
422.393	2036.02
422.601	2052.41
422.809	2138.42
423.017	2070.84
423.224	2347.31
423.432	2289.97
423.64	2283.83
423.848	2629.93
424.056	2472.24
424.263	2646.32
424.471	2672.94
424.679	2724.14
424.887	2887.98
425.094	2996.52
425.302	2924.84
425.51	3029.29
425.718	3193.12
425.925	3387.68
426.133	3232.04
426.341	3475.74
426.548	3594.53
426.756	3739.93
426.964	3623.2
427.171	4028.7
427.379	4086.04
427.586	4186.39
427.794	4172.05
428.001	4436.24
428.209	4636.94
428.417	4593.94
428.624	4884.75
428.832	4952.33
429.039	4954.38
429.247	5015.82
429.454	5261.57
429.662	5728.51
429.869	5193.99
430.076	5820.67
430.284	5345.54
430.491	5802.24
430.699	6035.71
430.906	5927.16
431.114	6240.5
431.321	6635.76
431.528	6519.03
431.736	6875.37
431.943	7153.9
432.15	6940.91
432.358	7284.97
432.565	7502.05
432.772	7428.32
432.979	7854.3
433.187	8034.52
433.394	8194.26
433.601	8440.02
433.808	8669.39
434.016	8632.53
434.223	9003.21
434.43	9377.99
434.637	9220.3
434.844	9924.8
435.052	10285.24
435.259	9973.95
435.466	9951.42
435.673	9996.48
435.88	10610.87
436.087	11237.55
436.294	11098.28
436.501	11012.27
436.708	11301.03
436.915	11884.7
437.122	12101.79
437.329	12107.93
437.537	12548.25
437.743	12564.63
437.95	12619.92
438.157	13248.65
438.364	13633.67
438.571	13578.37
438.778	13801.6
438.985	15202.41
439.192	14321.79
439.399	14719.09
439.606	14628.98
439.813	15226.99
440.02	16283.74
440.227	15994.98
440.433	15906.91
440.64	16486.49
440.847	16230.49
441.054	16736.34
441.261	17750.09
441.467	17530.95
441.674	17870.92
441.881	18438.2
442.088	18344
442.294	18397.24
442.501	18937.91
442.708	19365.93
442.914	20047.91
443.121	21084.18
443.328	20150.31
443.534	21573.64
443.741	21157.91
443.948	20738.07
444.154	22339.58
444.361	22364.16
444.568	22468.61
444.774	22493.18
444.981	22743.03
445.187	23515.12
445.394	24256.48
445.6	23861.23
445.807	26286.02
446.013	25286.61
446.22	25579.47
446.426	26484.67
446.633	26832.83
446.839	27762.61
447.046	26755.01
447.252	28393.38
447.459	28168.1
447.665	28219.3
447.871	29558.67
448.078	30486.4
448.284	28913.56
448.491	29861.77
448.697	31238.01
448.903	31829.87
449.11	31764.34
449.316	31278.97
449.522	32126.83
449.728	32773.99
449.935	33169.24
450.141	33077.08
450.347	33787.73
450.553	32714.59
450.76	33212.25
450.966	34064.21
451.172	33976.14
451.378	34658.12
451.584	34031.44
451.791	34895.68
451.997	34791.23
452.203	35182.4
452.409	35460.92
452.615	35323.71
452.821	34262.86
453.027	33404.76
453.233	35428.15
453.44	33920.85
453.646	34258.76
453.852	34387.78
454.058	35012.42
454.264	34105.16
454.47	34608.97
454.676	33851.22
454.882	35043.13
455.088	32006
455.294	32759.65
455.5	32837.47
455.705	33437.53
455.911	32300.9
456.117	31094.65
456.323	30883.71
456.529	29261.72
456.735	30697.34
456.941	29872.01
457.147	29425.56
457.352	28780.45
457.558	28151.72
457.764	28340.13
457.97	27885.48
458.176	27330.48
458.381	27068.34
458.587	26017.74
458.793	25941.96
458.999	24455.14
459.204	26376.13
459.41	25417.68
459.616	23986.15
459.821	24029.16
460.027	23691.24
460.233	23474.16
460.438	22079.49
460.644	22439.93
460.85	21407.76
461.055	21202.96
461.261	21151.76
461.466	19441.71
461.672	18952.24
461.878	20095.01
462.083	18855.99
462.289	18698.3
462.494	18303.04
462.7	17500.23
462.905	16986.19
463.111	17633.35
463.316	17809.48
463.522	17426.51
463.727	17272.91
463.932	16957.52
464.138	16898.13
464.343	17012.82
464.549	16920.66
464.754	17315.92
464.959	16906.32
465.165	17037.39
465.37	16253.02
465.575	15931.49
465.781	16359.52
465.986	16613.46
466.191	15886.43
466.397	15689.83
466.602	14958.71
466.807	15616.1
467.012	15614.06
467.218	15458.41
467.423	14952.56
