Data from USB4F104151__27__12-41-12-596.txt Node

Date: Fri Mar 14 12:41:12 EDT 2025
User: louis
Spectrometer: USB4F10415
Trigger mode: 4
Integration Time (sec): 3.000000E-2
Scans to average: 1
Electric dark correction enabled: true
Nonlinearity correction enabled: false
Boxcar width: 0
XAxis mode: Wavelengths
Number of Pixels in Spectrum: 3648
>>>>>Begin Spectral Data<<<<<
178.204	-125.95
178.424	-125.95
178.644	-125.95
178.864	-132.09
179.084	-105.47
179.304	82.94
179.524	-29.7
179.744	-46.08
179.964	15.36
180.184	-9.22
180.404	46.08
180.624	3.07
180.844	-1.02
181.064	-84.99
181.283	27.65
181.503	-58.37
181.723	54.27
181.943	-76.8
182.163	113.66
182.383	48.13
182.602	54.27
182.822	78.85
183.042	64.51
183.262	44.03
183.482	-27.65
183.701	17.41
183.921	74.75
184.141	-3.07
184.361	136.19
184.58	5.12
184.8	-21.5
185.02	19.46
185.239	89.09
185.459	-11.26
185.679	93.18
185.898	-52.22
186.118	115.71
186.338	54.27
186.557	99.33
186.777	46.08
186.997	46.08
187.216	29.7
187.436	64.51
187.655	97.28
187.875	23.55
188.095	29.7
188.314	39.94
188.534	27.65
188.753	3.07
188.973	60.42
189.192	107.52
189.412	41.98
189.631	37.89
189.851	48.13
190.07	138.24
190.29	33.79
190.509	-1.02
190.729	33.79
190.948	48.13
191.168	218.11
191.387	56.32
191.607	-80.89
191.826	99.33
192.045	-21.5
192.265	-1.02
192.484	-66.56
192.704	-9.22
192.923	60.42
193.142	87.04
193.362	84.99
193.581	9.22
193.8	80.89
194.02	23.55
194.239	-19.46
194.458	13.31
194.678	5.12
194.897	41.98
195.116	-1.02
195.335	50.18
195.555	87.04
195.774	31.74
195.993	76.8
196.212	29.7
196.432	31.74
196.651	23.55
196.87	74.75
197.089	54.27
197.308	93.18
197.528	56.32
197.747	19.46
197.966	54.27
198.185	80.89
198.404	62.46
198.623	82.94
198.842	70.65
199.062	72.7
199.281	44.03
199.5	-13.31
199.719	3.07
199.938	52.22
200.157	91.13
200.376	29.7
200.595	64.51
200.814	91.13
201.033	52.22
201.252	44.03
201.471	35.84
201.69	17.41
201.909	13.31
202.128	33.79
202.347	56.32
202.566	15.36
202.785	29.7
203.004	11.26
203.223	62.46
203.442	97.28
203.661	41.98
203.879	5.12
204.098	87.04
204.317	46.08
204.536	107.52
204.755	125.95
204.974	66.56
205.193	84.99
205.411	80.89
205.63	95.23
205.849	74.75
206.068	19.46
206.287	-37.89
206.505	99.33
206.724	-23.55
206.943	37.89
207.162	33.79
207.381	72.7
207.599	-11.26
207.818	41.98
208.037	7.17
208.255	17.41
208.474	72.7
208.693	-9.22
208.911	25.6
209.13	99.33
209.349	101.37
209.567	25.6
209.786	15.36
210.005	19.46
210.223	-3.07
210.442	-3.07
210.661	82.94
210.879	37.89
211.098	25.6
211.316	54.27
211.535	70.65
211.753	-64.51
211.972	70.65
212.191	-39.94
212.409	72.7
212.628	84.99
212.846	41.98
213.065	89.09
213.283	54.27
213.502	1.02
213.72	41.98
213.938	91.13
214.157	-19.46
214.375	82.94
214.594	21.5
214.812	29.7
215.031	37.89
215.249	15.36
215.467	7.17
215.686	19.46
215.904	48.13
216.122	5.12
216.341	54.27
216.559	66.56
216.778	-17.41
216.996	31.74
217.214	19.46
217.432	9.22
217.651	21.5
217.869	15.36
218.087	25.6
218.306	23.55
218.524	19.46
218.742	99.33
218.96	117.76
219.179	68.61
219.397	46.08
219.615	97.28
219.833	62.46
220.051	25.6
220.27	105.47
220.488	-5.12
220.706	-3.07
220.924	107.52
221.142	87.04
221.36	31.74
221.578	50.18
221.796	60.42
222.015	76.8
222.233	50.18
222.451	105.47
222.669	54.27
222.887	41.98
223.105	25.6
223.323	87.04
223.541	-17.41
223.759	31.74
223.977	19.46
224.195	84.99
224.413	19.46
224.631	5.12
224.849	74.75
225.067	111.61
225.285	13.31
225.503	-5.12
225.721	-46.08
225.939	-33.79
226.157	29.7
226.375	183.29
226.592	19.46
226.81	105.47
227.028	125.95
227.246	80.89
227.464	13.31
227.682	76.8
227.9	82.94
228.117	107.52
228.335	136.19
228.553	27.65
228.771	-5.12
228.989	37.89
229.206	-3.07
229.424	76.8
229.642	19.46
229.86	7.17
230.077	50.18
230.295	13.31
230.513	113.66
230.731	41.98
230.948	80.89
231.166	52.22
231.384	58.37
231.601	1.02
231.819	125.95
232.037	66.56
232.254	-11.26
232.472	9.22
232.689	19.46
232.907	31.74
233.125	58.37
233.342	87.04
233.56	70.65
233.777	64.51
233.995	101.37
234.213	87.04
234.43	78.85
234.648	115.71
234.865	-21.5
235.083	84.99
235.3	27.65
235.518	41.98
235.735	121.85
235.953	78.85
236.17	19.46
236.388	62.46
236.605	56.32
236.822	56.32
237.04	101.37
237.257	80.89
237.475	-15.36
237.692	62.46
237.909	29.7
238.127	70.65
238.344	41.98
238.562	31.74
238.779	60.42
238.996	-56.32
239.214	82.94
239.431	125.95
239.648	89.09
239.865	72.7
240.083	41.98
240.3	25.6
240.517	-35.84
240.735	82.94
240.952	109.57
241.169	31.74
241.386	84.99
241.603	35.84
241.821	70.65
242.038	115.71
242.255	60.42
242.472	5.12
242.689	103.42
242.907	105.47
243.124	97.28
243.341	25.6
243.558	-13.31
243.775	1.02
243.992	29.7
244.209	21.5
244.426	19.46
244.643	74.75
244.86	-21.5
245.078	19.46
245.295	9.22
245.512	44.03
245.729	-46.08
245.946	64.51
246.163	103.42
246.38	21.5
246.597	11.26
246.814	11.26
247.031	-1.02
247.248	-25.6
247.464	80.89
247.681	46.08
247.898	109.57
248.115	132.09
248.332	13.31
248.549	119.81
248.766	113.66
248.983	39.94
249.2	152.57
249.417	58.37
249.633	54.27
249.85	101.37
250.067	54.27
250.284	41.98
250.501	117.76
250.717	76.8
250.934	-19.46
251.151	-9.22
251.368	13.31
251.585	3.07
251.801	54.27
252.018	29.7
252.235	107.52
252.451	-17.41
252.668	68.61
252.885	95.23
253.102	9.22
253.318	11.26
253.535	-5.12
253.752	89.09
253.968	62.46
254.185	41.98
254.401	78.85
254.618	31.74
254.835	5.12
255.051	56.32
255.268	54.27
255.484	76.8
255.701	11.26
255.917	76.8
256.134	-29.7
256.351	70.65
256.567	-11.26
256.784	54.27
257	35.84
257.217	48.13
257.433	31.74
257.65	25.6
257.866	44.03
258.082	15.36
258.299	27.65
258.515	56.32
258.732	56.32
258.948	23.55
259.165	-25.6
259.381	27.65
259.597	35.84
259.814	25.6
260.03	50.18
260.246	37.89
260.463	25.6
260.679	95.23
260.895	105.47
261.112	109.57
261.328	72.7
261.544	41.98
261.761	107.52
261.977	1.02
262.193	-54.27
262.409	35.84
262.626	41.98
262.842	25.6
263.058	1.02
263.274	62.46
263.49	60.42
263.707	64.51
263.923	82.94
264.139	21.5
264.355	15.36
264.571	48.13
264.787	19.46
265.004	35.84
265.22	35.84
265.436	60.42
265.652	25.6
265.868	78.85
266.084	54.27
266.3	46.08
266.516	-3.07
266.732	-9.22
266.948	21.5
267.164	35.84
267.38	93.18
267.596	64.51
267.812	62.46
268.028	74.75
268.244	33.79
268.46	128
268.676	17.41
268.892	56.32
269.108	-25.6
269.324	-33.79
269.54	-21.5
269.756	84.99
269.972	7.17
270.188	37.89
270.403	11.26
270.619	29.7
270.835	68.61
271.051	107.52
271.267	66.56
271.483	82.94
271.698	74.75
271.914	46.08
272.13	46.08
272.346	54.27
272.562	15.36
272.777	78.85
272.993	1.02
273.209	56.32
273.425	15.36
273.64	62.46
273.856	54.27
274.072	82.94
274.287	7.17
274.503	80.89
274.719	27.65
274.934	5.12
275.15	29.7
275.366	15.36
275.581	74.75
275.797	72.7
276.012	1.02
276.228	48.13
276.444	39.94
276.659	128
276.875	70.65
277.09	97.28
277.306	19.46
277.521	72.7
277.737	89.09
277.952	60.42
278.168	7.17
278.383	62.46
278.599	19.46
278.814	140.29
279.03	3.07
279.245	21.5
279.461	35.84
279.676	54.27
279.892	-54.27
280.107	21.5
280.322	29.7
280.538	46.08
280.753	-1.02
280.969	70.65
281.184	78.85
281.399	97.28
281.615	13.31
281.83	9.22
282.045	72.7
282.26	1.02
282.476	41.98
282.691	13.31
282.906	41.98
283.122	35.84
283.337	66.56
283.552	19.46
283.767	23.55
283.983	54.27
284.198	-23.55
284.413	80.89
284.628	27.65
284.843	29.7
285.058	84.99
285.274	9.22
285.489	29.7
285.704	64.51
285.919	-27.65
286.134	19.46
286.349	39.94
286.564	25.6
286.779	66.56
286.995	64.51
287.21	7.17
287.425	103.42
287.64	7.17
287.855	13.31
288.07	-87.04
288.285	105.47
288.5	105.47
288.715	33.79
288.93	19.46
289.145	5.12
289.36	56.32
289.575	11.26
289.79	154.62
290.004	37.89
290.219	64.51
290.434	64.51
290.649	-7.17
290.864	15.36
291.079	35.84
291.294	72.7
291.509	21.5
291.724	48.13
291.938	84.99
292.153	78.85
292.368	-21.5
292.583	41.98
292.798	111.61
293.012	52.22
293.227	52.22
293.442	-7.17
293.657	111.61
293.871	80.89
294.086	27.65
294.301	119.81
294.516	123.9
294.73	35.84
294.945	37.89
295.16	91.13
295.374	93.18
295.589	78.85
295.804	-25.6
296.018	37.89
296.233	25.6
296.447	52.22
296.662	35.84
296.877	31.74
297.091	48.13
297.306	56.32
297.52	48.13
297.735	128
297.949	119.81
298.164	50.18
298.378	-11.26
298.593	48.13
298.807	39.94
299.022	13.31
299.236	89.09
299.451	117.76
299.665	11.26
299.88	23.55
300.094	70.65
300.309	29.7
300.523	87.04
300.737	-5.12
300.952	70.65
301.166	48.13
301.381	5.12
301.595	52.22
301.809	-9.22
302.024	74.75
302.238	37.89
302.452	136.19
302.667	35.84
302.881	64.51
303.095	95.23
303.309	84.99
303.524	5.12
303.738	97.28
303.952	66.56
304.166	74.75
304.381	62.46
304.595	-7.17
304.809	66.56
305.023	29.7
305.237	64.51
305.452	111.61
305.666	107.52
305.88	138.24
306.094	58.37
306.308	107.52
306.522	60.42
306.736	54.27
306.95	107.52
307.164	56.32
307.379	23.55
307.593	146.43
307.807	58.37
308.021	105.47
308.235	74.75
308.449	68.61
308.663	-25.6
308.877	168.96
309.091	35.84
309.305	103.42
309.519	21.5
309.733	123.9
309.947	21.5
310.161	-9.22
310.374	72.7
310.588	154.62
310.802	89.09
311.016	29.7
311.23	119.81
311.444	21.5
311.658	15.36
311.872	9.22
312.085	78.85
312.299	93.18
312.513	56.32
312.727	123.9
312.941	33.79
313.154	46.08
313.368	-60.42
313.582	72.7
313.796	74.75
314.009	142.33
314.223	11.26
314.437	50.18
314.651	103.42
314.864	23.55
315.078	48.13
315.292	54.27
315.505	84.99
315.719	-3.07
315.933	46.08
316.146	60.42
316.36	74.75
316.573	109.57
316.787	1.02
317.001	72.7
317.214	3.07
317.428	64.51
317.641	1.02
317.855	5.12
318.068	27.65
318.282	101.37
318.495	80.89
318.709	113.66
318.922	97.28
319.136	52.22
319.349	89.09
319.563	70.65
319.776	3.07
319.99	21.5
320.203	95.23
320.417	27.65
320.63	58.37
320.843	125.95
321.057	-15.36
321.27	56.32
321.483	80.89
321.697	60.42
321.91	72.7
322.124	29.7
322.337	39.94
322.55	35.84
322.763	113.66
322.977	5.12
323.19	-37.89
323.403	76.8
323.617	121.85
323.83	103.42
324.043	123.9
324.256	80.89
324.469	31.74
324.683	130.05
324.896	66.56
325.109	41.98
325.322	15.36
325.535	35.84
325.748	35.84
325.962	152.57
326.175	33.79
326.388	1.02
326.601	33.79
326.814	54.27
327.027	95.23
327.24	87.04
327.453	11.26
327.666	29.7
327.879	95.23
328.092	89.09
328.305	58.37
328.518	-3.07
328.731	-5.12
328.944	70.65
329.157	76.8
329.37	11.26
329.583	111.61
329.796	58.37
330.009	31.74
330.222	105.47
330.435	103.42
330.648	95.23
330.861	46.08
331.073	31.74
331.286	89.09
331.499	48.13
331.712	15.36
331.925	41.98
332.138	76.8
332.35	54.27
332.563	50.18
332.776	89.09
332.989	21.5
333.202	41.98
333.414	52.22
333.627	99.33
333.84	15.36
334.053	125.95
334.265	-29.7
334.478	58.37
334.691	74.75
334.903	78.85
335.116	60.42
335.329	48.13
335.541	54.27
335.754	19.46
335.966	19.46
336.179	25.6
336.392	101.37
336.604	50.18
336.817	50.18
337.029	72.7
337.242	58.37
337.454	58.37
337.667	-13.31
337.88	48.13
338.092	89.09
338.305	58.37
338.517	82.94
338.729	113.66
338.942	148.48
339.154	52.22
339.367	-1.02
339.579	74.75
339.792	60.42
340.004	50.18
340.217	52.22
340.429	64.51
340.641	-1.02
340.854	25.6
341.066	52.22
341.278	97.28
341.491	117.76
341.703	41.98
341.915	33.79
342.128	9.22
342.34	39.94
342.552	62.46
342.764	56.32
342.977	66.56
343.189	109.57
343.401	134.14
343.613	-5.12
343.826	7.17
344.038	21.5
344.25	66.56
344.462	60.42
344.674	99.33
344.886	80.89
345.099	97.28
345.311	93.18
345.523	78.85
345.735	-11.26
345.947	109.57
346.159	64.51
346.371	91.13
346.583	35.84
346.795	103.42
347.007	44.03
347.219	64.51
347.431	-7.17
347.643	21.5
347.855	66.56
348.067	99.33
348.279	-19.46
348.491	132.09
348.703	97.28
348.915	5.12
349.127	21.5
349.339	136.19
349.551	60.42
349.763	37.89
349.975	-11.26
350.187	78.85
350.399	130.05
350.61	68.61
350.822	62.46
351.034	130.05
351.246	31.74
351.458	44.03
351.669	80.89
351.881	74.75
352.093	33.79
352.305	70.65
352.517	84.99
352.728	46.08
352.94	97.28
353.152	60.42
353.363	68.61
353.575	74.75
353.787	48.13
353.999	101.37
354.21	70.65
354.422	48.13
354.633	62.46
354.845	68.61
355.057	97.28
355.268	56.32
355.48	111.61
355.692	37.89
355.903	54.27
356.115	21.5
356.326	31.74
356.538	107.52
356.749	29.7
356.961	119.81
357.172	23.55
357.384	68.61
357.595	111.61
357.807	44.03
358.018	15.36
358.23	130.05
358.441	111.61
358.653	115.71
358.864	58.37
359.075	39.94
359.287	-21.5
359.498	70.65
359.709	62.46
359.921	109.57
360.132	50.18
360.344	27.65
360.555	70.65
360.766	62.46
360.977	-19.46
361.189	144.38
361.4	80.89
361.611	72.7
361.823	33.79
362.034	115.71
362.245	46.08
362.456	64.51
362.667	35.84
362.879	33.79
363.09	95.23
363.301	121.85
363.512	113.66
363.723	70.65
363.935	7.17
364.146	95.23
364.357	136.19
364.568	48.13
364.779	41.98
364.99	117.76
365.201	54.27
365.412	105.47
365.623	101.37
365.834	29.7
366.045	41.98
366.256	87.04
366.467	76.8
366.678	44.03
366.889	76.8
367.1	39.94
367.311	66.56
367.522	58.37
367.733	160.77
367.944	33.79
368.155	33.79
368.366	21.5
368.577	50.18
368.788	82.94
368.999	15.36
369.209	103.42
369.42	56.32
369.631	128
369.842	105.47
370.053	99.33
370.264	84.99
370.474	60.42
370.685	105.47
370.896	68.61
371.107	66.56
371.317	97.28
371.528	39.94
371.739	87.04
371.95	68.61
372.16	113.66
372.371	62.46
372.582	82.94
372.792	76.8
373.003	111.61
373.214	72.7
373.424	89.09
373.635	97.28
373.846	121.85
374.056	68.61
374.267	101.37
374.477	66.56
374.688	95.23
374.898	5.12
375.109	27.65
375.319	52.22
375.53	101.37
375.74	87.04
375.951	87.04
376.161	33.79
376.372	105.47
376.582	138.24
376.793	91.13
377.003	84.99
377.214	70.65
377.424	48.13
377.635	54.27
377.845	7.17
378.055	56.32
378.266	35.84
378.476	99.33
378.686	113.66
378.897	101.37
379.107	95.23
379.317	66.56
379.528	64.51
379.738	140.29
379.948	-1.02
380.158	130.05
380.369	31.74
380.579	87.04
380.789	33.79
380.999	41.98
381.21	44.03
381.42	193.53
381.63	31.74
381.84	52.22
382.05	84.99
382.261	97.28
382.471	72.7
382.681	87.04
382.891	146.43
383.101	60.42
383.311	44.03
383.521	29.7
383.731	109.57
383.941	58.37
384.151	78.85
384.361	115.71
384.571	95.23
384.781	74.75
384.991	134.14
385.201	125.95
385.411	80.89
385.621	50.18
385.831	66.56
386.041	66.56
386.251	31.74
386.461	95.23
386.671	80.89
386.881	-17.41
387.091	68.61
387.301	121.85
387.511	29.7
387.72	123.9
387.93	113.66
388.14	19.46
388.35	97.28
388.56	111.61
388.769	93.18
388.979	89.09
389.189	35.84
389.399	82.94
389.609	138.24
389.818	70.65
390.028	89.09
390.238	113.66
390.447	17.41
390.657	82.94
390.867	46.08
391.076	39.94
391.286	76.8
391.496	154.62
391.705	13.31
391.915	123.9
392.125	207.87
392.334	113.66
392.544	95.23
392.753	60.42
392.963	130.05
393.172	142.33
393.382	70.65
393.591	138.24
393.801	41.98
394.01	99.33
394.22	136.19
394.429	95.23
394.639	152.57
394.848	144.38
395.058	156.67
395.267	91.13
395.477	109.57
395.686	181.25
395.895	142.33
396.105	160.77
396.314	166.91
396.524	78.85
396.733	193.53
396.942	105.47
397.152	115.71
397.361	160.77
397.57	181.25
397.78	136.19
397.989	97.28
398.198	152.57
398.407	46.08
398.617	142.33
398.826	115.71
399.035	115.71
399.244	216.06
399.453	128
399.663	218.11
399.872	185.34
400.081	99.33
400.29	228.35
400.499	70.65
400.708	146.43
400.917	134.14
401.127	175.1
401.336	111.61
401.545	168.96
401.754	140.29
401.963	152.57
402.172	113.66
402.381	93.18
402.59	107.52
402.799	140.29
403.008	211.96
403.217	187.39
403.426	238.59
403.635	134.14
403.844	160.77
404.053	189.44
404.262	164.86
404.471	246.78
404.68	226.3
404.888	193.53
405.097	91.13
405.306	199.68
405.515	230.4
405.724	244.73
405.933	185.34
406.142	185.34
406.35	214.01
406.559	173.05
406.768	250.88
406.977	234.49
407.185	277.5
407.394	220.16
407.603	193.53
407.812	273.4
408.02	271.36
408.229	244.73
408.438	302.08
408.646	291.84
408.855	306.17
409.064	343.03
409.272	371.71
409.481	414.71
409.69	367.61
409.898	373.75
410.107	414.71
410.315	418.81
410.524	441.34
410.733	486.39
410.941	433.15
411.15	510.97
411.358	414.71
411.567	523.26
411.775	396.28
411.984	517.11
412.192	553.98
412.401	551.93
412.609	568.31
412.818	564.22
413.026	627.7
413.234	658.42
413.443	605.17
413.651	678.9
413.86	637.94
414.068	752.63
414.276	820.21
414.485	752.63
414.693	764.92
414.901	857.07
415.11	809.97
415.318	936.95
415.526	869.36
415.734	1002.48
415.943	943.09
416.151	1018.86
416.359	1016.82
416.567	1022.96
416.776	1031.15
416.984	1156.08
417.192	1151.98
417.4	1238
417.608	1229.81
417.817	1274.86
418.025	1348.59
418.233	1491.95
418.441	1393.64
418.649	1416.17
418.857	1518.57
419.065	1647.59
419.273	1565.67
419.481	1674.21
419.689	1700.84
419.897	1901.54
420.105	1973.22
420.313	1907.68
420.521	1936.35
420.729	2085.86
420.937	2106.34
421.145	2151.39
421.353	2319.32
421.561	2391
421.769	2417.63
421.977	2462.68
422.185	2550.75
422.393	2655.19
422.601	2757.59
422.809	2773.97
423.017	3003.35
423.224	2978.77
423.432	3005.39
423.64	3083.22
423.848	3296.21
424.056	3265.49
424.263	3580.87
424.471	3666.89
424.679	3539.91
424.887	3685.32
425.094	3800.01
425.302	3969.99
425.51	4006.85
425.718	4027.33
425.925	4148.16
426.133	4238.27
426.341	4516.8
426.548	4977.59
426.756	4840.37
426.964	4944.82
427.171	5225.39
427.379	5325.74
427.586	5393.33
427.794	5438.38
428.001	5702.57
428.209	5993.38
428.417	5903.27
428.624	6341.54
428.832	6357.92
429.039	6263.71
429.247	6308.77
429.454	6943.64
429.662	7535.5
429.869	6906.77
430.076	7316.37
430.284	7152.53
430.491	7539.6
430.699	7906.18
430.906	7992.2
431.114	8027.01
431.321	8463.23
431.528	8510.33
431.736	9069.43
431.943	9390.96
432.15	9315.19
432.358	9345.91
432.565	9913.19
432.772	9917.29
432.979	10337.12
433.187	10320.74
433.394	10533.73
433.601	11230.04
433.808	11324.24
434.016	11375.44
434.223	11828.04
434.43	12251.97
434.637	12376.9
434.844	12833.6
435.052	12968.76
435.259	13089.59
435.466	13220.66
435.673	13067.06
435.88	14084.91
436.087	14615.33
436.294	14805.79
436.501	14345
436.708	14656.29
436.915	15022.87
437.122	15760.14
437.329	15532.82
437.537	16268.04
437.743	16380.68
437.95	16372.49
438.157	17044.22
438.364	17844.98
438.571	17885.94
438.778	17613.56
438.985	19442.39
439.192	18754.27
439.399	19311.32
439.606	18961.12
439.813	20097.74
440.02	21330.62
440.227	20785.86
440.433	20554.44
440.64	21252.8
440.847	20904.64
441.054	21666.49
441.261	23286.43
441.467	22889.12
441.674	23313.05
441.881	23841.43
442.088	24232.59
442.294	23732.89
442.501	24627.85
442.708	24881.8
442.914	25911.92
443.121	27138.66
443.328	26249.84
443.534	28228.18
443.741	27357.79
443.948	26874.47
444.154	29258.31
444.361	29059.65
444.568	29026.89
444.774	29071.94
444.981	29409.86
445.187	29979.19
445.394	31339.04
445.6	30825
445.807	33962.49
446.013	32807.44
446.22	33210.89
446.426	34564.59
446.633	34796.01
446.839	36053.47
447.046	34537.97
447.252	36708.82
447.459	36385.24
447.665	36123.1
447.871	37636.55
448.078	39524.77
448.284	37605.83
448.491	38459.83
448.697	40239.51
448.903	40933.78
449.11	40864.14
449.316	40731.03
449.522	41568.65
449.728	42027.39
449.935	42279.29
450.141	42371.45
450.347	43391.34
450.553	42080.64
450.76	42563.96
450.966	43856.23
451.172	43604.33
451.378	44743
451.584	43409.77
451.791	44581.21
451.997	44679.51
452.203	45132.11
452.409	45670.73
452.615	45201.74
452.821	43395.43
453.027	42764.66
453.233	45322.57
453.44	43379.05
453.646	43716.96
453.852	44564.82
454.058	45259.09
454.264	43884.9
454.47	44478.81
454.676	43565.42
454.882	44845.4
455.088	40876.43
455.294	41718.15
455.5	42066.3
455.705	42643.83
455.911	40714.64
456.117	39924.13
456.323	39567.78
456.529	37929.41
456.735	39098.8
456.941	38152.63
457.147	37386.69
457.352	36463.06
457.558	36147.67
457.764	36053.47
457.97	35373.54
458.176	34361.84
458.381	34970.09
458.587	33038.86
458.793	33223.17
458.999	31121.96
459.204	33313.28
459.41	32512.53
459.616	30628.4
459.821	30390.83
460.027	29979.19
460.233	29717.05
460.438	28648.01
460.644	28285.52
460.85	27298.4
461.055	26604.14
461.261	26815.08
461.466	24695.43
461.672	24038.03
461.878	25766.52
462.083	23929.49
462.289	23270.04
462.494	23239.33
462.7	22196.91
462.905	21885.62
463.111	22629.03
463.316	22594.22
463.522	22295.21
463.727	22252.2
463.932	22332.08
464.138	21858.99
464.343	22098.61
464.549	21535.42
464.754	22162.09
464.959	21877.43
465.165	21936.82
465.37	21125.82
465.575	20396.74
465.781	21150.4
465.986	21125.82
466.191	20957.89
466.397	20202.19
466.602	18977.5
466.807	19921.62
467.012	19870.42
467.218	19563.22
