Data from USB4F104151__88__12-42-40-726.txt Node

Date: Fri Mar 14 12:42:40 EDT 2025
User: louis
Spectrometer: USB4F10415
Trigger mode: 4
Integration Time (sec): 3.000000E-2
Scans to average: 1
Electric dark correction enabled: true
Nonlinearity correction enabled: false
Boxcar width: 0
XAxis mode: Wavelengths
Number of Pixels in Spectrum: 3648
>>>>>Begin Spectral Data<<<<<
178.204	-122.54
178.424	-122.54
178.644	-122.54
178.864	-140.97
179.084	-110.25
179.304	-59.05
179.524	33.11
179.744	0.34
179.964	2.39
180.184	31.06
180.404	33.11
180.624	-22.19
180.844	-9.9
181.064	-28.33
181.283	-1.71
181.503	24.92
181.723	-3.75
181.943	-61.1
182.163	31.06
182.383	-54.95
182.602	57.68
182.822	72.02
183.042	63.83
183.262	-11.95
183.482	-3.75
183.701	-34.47
183.921	26.96
184.141	-24.23
184.361	0.34
184.58	33.11
184.8	-30.38
185.02	8.53
185.239	59.73
185.459	33.11
185.679	43.35
185.898	-30.38
186.118	53.59
186.338	74.07
186.557	37.2
186.777	-77.48
186.997	24.92
187.216	-3.75
187.436	86.36
187.655	14.68
187.875	20.82
188.095	43.35
188.314	74.07
188.534	59.73
188.753	-18.09
188.973	26.96
189.192	53.59
189.412	49.49
189.631	53.59
189.851	92.5
190.07	82.26
190.29	-30.38
190.509	-26.28
190.729	22.87
190.948	10.58
191.168	131.41
191.387	100.69
191.607	-1.71
191.826	53.59
192.045	26.96
192.265	-7.85
192.484	14.68
192.704	-42.67
192.923	-36.52
193.142	0.34
193.362	49.49
193.581	94.55
193.8	-20.14
194.02	67.92
194.239	51.54
194.458	61.78
194.678	-26.28
194.897	76.12
195.116	72.02
195.335	41.3
195.555	43.35
195.774	-30.38
195.993	119.12
196.212	-5.8
196.432	29.01
196.651	6.49
196.87	37.2
197.089	35.16
197.308	2.39
197.528	61.78
197.747	-73.39
197.966	-11.95
198.185	55.64
198.404	-11.95
198.623	-5.8
198.842	90.45
199.062	29.01
199.281	117.08
199.5	-26.28
199.719	94.55
199.938	-28.33
200.157	43.35
200.376	123.22
200.595	65.88
200.814	76.12
201.033	24.92
201.252	88.4
201.471	47.44
201.69	14.68
201.909	33.11
202.128	20.82
202.347	43.35
202.566	0.34
202.785	-67.24
203.004	-22.19
203.223	84.31
203.442	14.68
203.661	29.01
203.879	22.87
204.098	53.59
204.317	59.73
204.536	-5.8
204.755	31.06
204.974	4.44
205.193	84.31
205.411	100.69
205.63	16.73
205.849	110.93
206.068	31.06
206.287	16.73
206.505	72.02
206.724	26.96
206.943	33.11
207.162	31.06
207.381	-22.19
207.599	61.78
207.818	26.96
208.037	2.39
208.255	20.82
208.474	51.54
208.693	33.11
208.911	2.39
209.13	53.59
209.349	49.49
209.567	37.2
209.786	98.64
210.005	-20.14
210.223	80.21
210.442	41.3
210.661	6.49
210.879	55.64
211.098	78.16
211.316	16.73
211.535	37.2
211.753	26.96
211.972	16.73
212.191	72.02
212.409	-28.33
212.628	4.44
212.846	16.73
213.065	2.39
213.283	45.4
213.502	6.49
213.72	18.77
213.938	59.73
214.157	-50.86
214.375	53.59
214.594	-16.04
214.812	98.64
215.031	14.68
215.249	-20.14
215.467	-1.71
215.686	-5.8
215.904	80.21
216.122	59.73
216.341	-20.14
216.559	80.21
216.778	45.4
216.996	88.4
217.214	35.16
217.432	39.25
217.651	-24.23
217.869	84.31
218.087	43.35
218.306	-7.85
218.524	26.96
218.742	86.36
218.96	-22.19
219.179	31.06
219.397	10.58
219.615	65.88
219.833	92.5
220.051	-18.09
220.27	39.25
220.488	26.96
220.706	49.49
220.924	78.16
221.142	-24.23
221.36	20.82
221.578	24.92
221.796	-9.9
222.015	90.45
222.233	20.82
222.451	92.5
222.669	115.03
222.887	82.26
223.105	33.11
223.323	74.07
223.541	10.58
223.759	-7.85
223.977	-22.19
224.195	67.92
224.413	-16.04
224.631	69.97
224.849	2.39
225.067	108.88
225.285	12.63
225.503	12.63
225.721	-65.19
225.939	72.02
226.157	12.63
226.375	35.16
226.592	24.92
226.81	8.53
227.028	43.35
227.246	100.69
227.464	-44.71
227.682	20.82
227.9	37.2
228.117	51.54
228.335	119.12
228.553	47.44
228.771	12.63
228.989	78.16
229.206	74.07
229.424	-42.67
229.642	-5.8
229.86	24.92
230.077	69.97
230.295	41.3
230.513	18.77
230.731	76.12
230.948	65.88
231.166	98.64
231.384	-7.85
231.601	43.35
231.819	57.68
232.037	26.96
232.254	12.63
232.472	24.92
232.689	92.5
232.907	-18.09
233.125	53.59
233.342	31.06
233.56	-54.95
233.777	12.63
233.995	35.16
234.213	72.02
234.43	-24.23
234.648	127.32
234.865	43.35
235.083	22.87
235.3	8.53
235.518	8.53
235.735	135.51
235.953	82.26
236.17	61.78
236.388	35.16
236.605	26.96
236.822	72.02
237.04	10.58
237.257	41.3
237.475	35.16
237.692	74.07
237.909	61.78
238.127	41.3
238.344	2.39
238.562	8.53
238.779	41.3
238.996	-42.67
239.214	-7.85
239.431	43.35
239.648	26.96
239.865	88.4
240.083	61.78
240.3	123.22
240.517	-32.43
240.735	33.11
240.952	39.25
241.169	117.08
241.386	37.2
241.603	78.16
241.821	0.34
242.038	100.69
242.255	41.3
242.472	-34.47
242.689	33.11
242.907	-30.38
243.124	76.12
243.341	20.82
243.558	35.16
243.775	-57
243.992	-5.8
244.209	41.3
244.426	37.2
244.643	16.73
244.86	94.55
245.078	10.58
245.295	26.96
245.512	29.01
245.729	51.54
245.946	92.5
246.163	-32.43
246.38	0.34
246.597	59.73
246.814	18.77
247.031	24.92
247.248	63.83
247.464	2.39
247.681	14.68
247.898	0.34
248.115	20.82
248.332	57.68
248.549	100.69
248.766	12.63
248.983	39.25
249.2	-38.57
249.417	55.64
249.633	4.44
249.85	80.21
250.067	-3.75
250.284	20.82
250.501	37.2
250.717	78.16
250.934	-1.71
251.151	4.44
251.368	-13.99
251.585	12.63
251.801	49.49
252.018	26.96
252.235	106.84
252.451	18.77
252.668	2.39
252.885	26.96
253.102	86.36
253.318	43.35
253.535	-22.19
253.752	57.68
253.968	-32.43
254.185	37.2
254.401	33.11
254.618	43.35
254.835	43.35
255.051	80.21
255.268	55.64
255.484	86.36
255.701	6.49
255.917	20.82
256.134	-54.95
256.351	-5.8
256.567	8.53
256.784	31.06
257	-20.14
257.217	26.96
257.433	-24.23
257.65	82.26
257.866	49.49
258.082	-22.19
258.299	-7.85
258.515	26.96
258.732	45.4
258.948	86.36
259.165	51.54
259.381	-11.95
259.597	37.2
259.814	41.3
260.03	-11.95
260.246	67.92
260.463	63.83
260.679	45.4
260.895	26.96
261.112	20.82
261.328	22.87
261.544	-28.33
261.761	74.07
261.977	53.59
262.193	-20.14
262.409	112.98
262.626	37.2
262.842	41.3
263.058	-16.04
263.274	47.44
263.49	16.73
263.707	37.2
263.923	76.12
264.139	-13.99
264.355	24.92
264.571	72.02
264.787	-5.8
265.004	35.16
265.22	67.92
265.436	72.02
265.652	-28.33
265.868	33.11
266.084	14.68
266.3	35.16
266.516	24.92
266.732	59.73
266.948	59.73
267.164	24.92
267.38	100.69
267.596	39.25
267.812	162.13
268.028	-13.99
268.244	37.2
268.46	26.96
268.676	24.92
268.892	92.5
269.108	-24.23
269.324	49.49
269.54	-36.52
269.756	98.64
269.972	-18.09
270.188	47.44
270.403	29.01
270.619	49.49
270.835	20.82
271.051	0.34
271.267	51.54
271.483	6.49
271.698	43.35
271.914	43.35
272.13	20.82
272.346	-9.9
272.562	29.01
272.777	78.16
272.993	8.53
273.209	35.16
273.425	26.96
273.64	82.26
273.856	26.96
274.072	33.11
274.287	26.96
274.503	31.06
274.719	12.63
274.934	4.44
275.15	8.53
275.366	20.82
275.581	26.96
275.797	-30.38
276.012	-3.75
276.228	0.34
276.444	49.49
276.659	61.78
276.875	-40.62
277.09	65.88
277.306	12.63
277.521	72.02
277.737	-5.8
277.952	63.83
278.168	43.35
278.383	110.93
278.599	106.84
278.814	80.21
279.03	35.16
279.245	35.16
279.461	31.06
279.676	127.32
279.892	-26.28
280.107	-9.9
280.322	10.58
280.538	41.3
280.753	24.92
280.969	88.4
281.184	16.73
281.399	72.02
281.615	41.3
281.83	55.64
282.045	26.96
282.26	0.34
282.476	-13.99
282.691	47.44
282.906	80.21
283.122	-9.9
283.337	33.11
283.552	141.65
283.767	41.3
283.983	67.92
284.198	2.39
284.413	137.56
284.628	-57
284.843	121.17
285.058	37.2
285.274	43.35
285.489	22.87
285.704	63.83
285.919	8.53
286.134	59.73
286.349	-1.71
286.564	-3.75
286.779	45.4
286.995	67.92
287.21	88.4
287.425	24.92
287.64	45.4
287.855	8.53
288.07	16.73
288.285	43.35
288.5	108.88
288.715	104.79
288.93	31.06
289.145	33.11
289.36	78.16
289.575	4.44
289.79	26.96
290.004	-81.58
290.219	29.01
290.434	43.35
290.649	53.59
290.864	-20.14
291.079	61.78
291.294	61.78
291.509	121.17
291.724	74.07
291.938	14.68
292.153	92.5
292.368	76.12
292.583	90.45
292.798	33.11
293.012	47.44
293.227	16.73
293.442	22.87
293.657	74.07
293.871	2.39
294.086	41.3
294.301	106.84
294.516	41.3
294.73	10.58
294.945	-26.28
295.16	-16.04
295.374	108.88
295.589	55.64
295.804	6.49
296.018	39.25
296.233	112.98
296.447	96.6
296.662	-26.28
296.877	39.25
297.091	76.12
297.306	51.54
297.52	2.39
297.735	0.34
297.949	63.83
298.164	45.4
298.378	90.45
298.593	26.96
298.807	16.73
299.022	43.35
299.236	24.92
299.451	-34.47
299.665	-5.8
299.88	-34.47
300.094	63.83
300.309	12.63
300.523	72.02
300.737	51.54
300.952	22.87
301.166	45.4
301.381	-3.75
301.595	37.2
301.809	106.84
302.024	-7.85
302.238	-42.67
302.452	106.84
302.667	78.16
302.881	102.74
303.095	155.99
303.309	80.21
303.524	69.97
303.738	20.82
303.952	-9.9
304.166	35.16
304.381	-11.95
304.595	90.45
304.809	0.34
305.023	76.12
305.237	35.16
305.452	-7.85
305.666	119.12
305.88	76.12
306.094	131.41
306.308	88.4
306.522	16.73
306.736	0.34
306.95	104.79
307.164	-44.71
307.379	29.01
307.593	59.73
307.807	31.06
308.021	106.84
308.235	94.55
308.449	-16.04
308.663	-20.14
308.877	108.88
309.091	78.16
309.305	24.92
309.519	4.44
309.733	110.93
309.947	-57
310.161	80.21
310.374	76.12
310.588	72.02
310.802	51.54
311.016	-3.75
311.23	-36.52
311.444	49.49
311.658	76.12
311.872	43.35
312.085	41.3
312.299	72.02
312.513	33.11
312.727	45.4
312.941	-46.76
313.154	12.63
313.368	86.36
313.582	49.49
313.796	4.44
314.009	67.92
314.223	94.55
314.437	110.93
314.651	74.07
314.864	69.97
315.078	2.39
315.292	16.73
315.505	8.53
315.719	-20.14
315.933	33.11
316.146	0.34
316.36	26.96
316.573	186.71
316.787	-36.52
317.001	76.12
317.214	-42.67
317.428	69.97
317.641	-22.19
317.855	-26.28
318.068	22.87
318.282	35.16
318.495	-5.8
318.709	43.35
318.922	16.73
319.136	174.42
319.349	94.55
319.563	100.69
319.776	69.97
319.99	43.35
320.203	37.2
320.417	82.26
320.63	8.53
320.843	67.92
321.057	43.35
321.27	104.79
321.483	145.75
321.697	59.73
321.91	82.26
322.124	133.46
322.337	74.07
322.55	80.21
322.763	84.31
322.977	-18.09
323.19	14.68
323.403	65.88
323.617	59.73
323.83	72.02
324.043	29.01
324.256	53.59
324.469	-61.1
324.683	69.97
324.896	92.5
325.109	37.2
325.322	-59.05
325.535	43.35
325.748	24.92
325.962	88.4
326.175	72.02
326.388	-11.95
326.601	-5.8
326.814	53.59
327.027	31.06
327.24	102.74
327.453	-28.33
327.666	59.73
327.879	96.6
328.092	92.5
328.305	74.07
328.518	26.96
328.731	31.06
328.944	-32.43
329.157	26.96
329.37	39.25
329.583	110.93
329.796	104.79
330.009	16.73
330.222	35.16
330.435	26.96
330.648	43.35
330.861	4.44
331.073	80.21
331.286	74.07
331.499	0.34
331.712	33.11
331.925	-38.57
332.138	53.59
332.35	39.25
332.563	-7.85
332.776	80.21
332.989	35.16
333.202	14.68
333.414	4.44
333.627	-13.99
333.84	10.58
334.053	37.2
334.265	47.44
334.478	69.97
334.691	33.11
334.903	47.44
335.116	39.25
335.329	35.16
335.541	16.73
335.754	92.5
335.966	26.96
336.179	63.83
336.392	112.98
336.604	88.4
336.817	8.53
337.029	45.4
337.242	6.49
337.454	119.12
337.667	57.68
337.88	119.12
338.092	110.93
338.305	35.16
338.517	57.68
338.729	76.12
338.942	108.88
339.154	14.68
339.367	2.39
339.579	18.77
339.792	-24.23
340.004	98.64
340.217	31.06
340.429	55.64
340.641	43.35
340.854	51.54
341.066	108.88
341.278	76.12
341.491	10.58
341.703	112.98
341.915	-1.71
342.128	72.02
342.34	94.55
342.552	43.35
342.764	86.36
342.977	37.2
343.189	26.96
343.401	57.68
343.613	33.11
343.826	63.83
344.038	33.11
344.25	43.35
344.462	47.44
344.674	53.59
344.886	51.54
345.099	0.34
345.311	35.16
345.523	76.12
345.735	-1.71
345.947	65.88
346.159	108.88
346.371	102.74
346.583	18.77
346.795	117.08
347.007	18.77
347.219	51.54
347.431	47.44
347.643	100.69
347.855	127.32
348.067	39.25
348.279	-38.57
348.491	82.26
348.703	41.3
348.915	29.01
349.127	20.82
349.339	82.26
349.551	33.11
349.763	76.12
349.975	-18.09
350.187	88.4
350.399	108.88
350.61	47.44
350.822	88.4
351.034	-24.23
351.246	117.08
351.458	22.87
351.669	-24.23
351.881	108.88
352.093	96.6
352.305	80.21
352.517	-28.33
352.728	22.87
352.94	76.12
353.152	102.74
353.363	69.97
353.575	147.8
353.787	67.92
353.999	63.83
354.21	121.17
354.422	-11.95
354.633	31.06
354.845	137.56
355.057	22.87
355.268	20.82
355.48	47.44
355.692	53.59
355.903	47.44
356.115	51.54
356.326	53.59
356.538	98.64
356.749	106.84
356.961	61.78
357.172	47.44
357.384	31.06
357.595	43.35
357.807	59.73
358.018	106.84
358.23	86.36
358.441	67.92
358.653	31.06
358.864	78.16
359.075	63.83
359.287	55.64
359.498	115.03
359.709	37.2
359.921	43.35
360.132	51.54
360.344	57.68
360.555	69.97
360.766	20.82
360.977	43.35
361.189	94.55
361.4	-42.67
361.611	61.78
361.823	33.11
362.034	43.35
362.245	110.93
362.456	45.4
362.667	47.44
362.879	12.63
363.09	63.83
363.301	80.21
363.512	55.64
363.723	-9.9
363.935	72.02
364.146	49.49
364.357	-9.9
364.568	12.63
364.779	12.63
364.99	74.07
365.201	47.44
365.412	112.98
365.623	49.49
365.834	41.3
366.045	-11.95
366.256	119.12
366.467	45.4
366.678	18.77
366.889	55.64
367.1	106.84
367.311	57.68
367.522	20.82
367.733	29.01
367.944	59.73
368.155	-13.99
368.366	119.12
368.577	39.25
368.788	10.58
368.999	-11.95
369.209	47.44
369.42	31.06
369.631	143.7
369.842	59.73
370.053	24.92
370.264	102.74
370.474	24.92
370.685	100.69
370.896	29.01
371.107	117.08
371.317	35.16
371.528	-22.19
371.739	117.08
371.95	63.83
372.16	26.96
372.371	12.63
372.582	98.64
372.792	47.44
373.003	72.02
373.214	69.97
373.424	74.07
373.635	43.35
373.846	158.03
374.056	41.3
374.267	8.53
374.477	76.12
374.688	57.68
374.898	119.12
375.109	59.73
375.319	115.03
375.53	65.88
375.74	80.21
375.951	119.12
376.161	106.84
376.372	102.74
376.582	86.36
376.793	55.64
377.003	37.2
377.214	-3.75
377.424	74.07
377.635	43.35
377.845	37.2
378.055	106.84
378.266	-1.71
378.476	57.68
378.686	63.83
378.897	121.17
379.107	90.45
379.317	110.93
379.528	59.73
379.738	69.97
379.948	57.68
380.158	158.03
380.369	67.92
380.579	59.73
380.789	53.59
380.999	51.54
381.21	53.59
381.42	102.74
381.63	20.82
381.84	78.16
382.05	84.31
382.261	82.26
382.471	35.16
382.681	98.64
382.891	119.12
383.101	53.59
383.311	-32.43
383.521	53.59
383.731	61.78
383.941	108.88
384.151	78.16
384.361	104.79
384.571	51.54
384.781	12.63
384.991	39.25
385.201	94.55
385.411	100.69
385.621	76.12
385.831	76.12
386.041	86.36
386.251	72.02
386.461	67.92
386.671	-5.8
386.881	104.79
387.091	35.16
387.301	94.55
387.511	90.45
387.72	29.01
387.93	127.32
388.14	41.3
388.35	82.26
388.56	147.8
388.769	127.32
388.979	174.42
389.189	51.54
389.399	123.22
389.609	65.88
389.818	153.94
390.028	88.4
390.238	84.31
390.447	24.92
390.657	61.78
390.867	69.97
391.076	35.16
391.286	74.07
391.496	18.77
391.705	59.73
391.915	137.56
392.125	119.12
392.334	67.92
392.544	100.69
392.753	45.4
392.963	43.35
393.172	35.16
393.382	57.68
393.591	72.02
393.801	80.21
394.01	188.75
394.22	125.27
394.429	108.88
394.639	94.55
394.848	176.47
395.058	153.94
395.267	127.32
395.477	158.03
395.686	94.55
395.895	88.4
396.105	88.4
396.314	176.47
396.524	139.6
396.733	82.26
396.942	192.85
397.152	170.32
397.361	178.51
397.57	108.88
397.78	127.32
397.989	94.55
398.198	164.18
398.407	151.89
398.617	110.93
398.826	112.98
399.035	133.46
399.244	106.84
399.453	151.89
399.663	145.75
399.872	102.74
400.081	92.5
400.29	125.27
400.499	170.32
400.708	182.61
400.917	100.69
401.127	63.83
401.336	123.22
401.545	211.28
401.754	176.47
401.963	170.32
402.172	127.32
402.381	115.03
402.59	149.84
402.799	162.13
403.008	123.22
403.217	196.95
403.426	225.62
403.635	209.23
403.844	168.27
404.053	198.99
404.262	147.8
404.471	196.95
404.68	127.32
404.888	172.37
405.097	215.38
405.306	158.03
405.515	162.13
405.724	170.32
405.933	258.39
406.142	297.3
406.35	270.67
406.559	192.85
406.768	231.76
406.977	356.69
407.185	264.53
407.394	338.26
407.603	194.9
407.812	299.34
408.02	325.97
408.229	356.69
408.438	323.92
408.646	321.87
408.855	338.26
409.064	454.99
409.272	397.65
409.481	368.98
409.69	371.02
409.898	411.98
410.107	319.82
410.315	495.95
410.524	436.56
410.733	416.08
410.941	440.65
411.15	479.57
411.358	577.87
411.567	663.88
411.775	547.15
411.984	514.38
412.192	637.26
412.401	608.59
412.609	682.31
412.818	700.75
413.026	624.97
413.234	727.37
413.443	753.99
413.651	676.17
413.86	784.71
414.068	885.06
414.276	897.35
414.485	919.88
414.693	876.87
414.901	1063.24
415.11	966.98
415.318	966.98
415.526	1024.33
415.734	1122.63
415.943	1085.76
416.151	1204.55
416.359	1096
416.567	1304.9
416.776	1378.62
416.984	1343.81
417.192	1374.53
417.4	1294.66
417.608	1405.25
417.817	1462.59
418.025	1605.95
418.233	1605.95
418.441	1638.72
418.649	1790.27
418.857	1802.55
419.065	1820.99
419.273	1706.3
419.481	1898.81
419.689	2113.85
419.897	2111.8
420.105	2197.81
420.313	2257.2
420.521	2265.39
420.729	2365.75
420.937	2519.34
421.145	2693.42
421.353	2607.41
421.561	2806.06
421.769	2879.79
421.977	3029.29
422.185	2914.6
422.393	3193.12
422.601	3293.48
422.809	3133.73
423.017	3383.59
423.224	3449.12
423.432	3666.21
423.64	3629.34
423.848	3885.34
424.056	3764.51
424.263	4186.39
424.471	4122.9
424.679	4292.88
424.887	4442.39
425.094	4595.98
425.302	4552.98
425.51	4829.45
425.718	4909.32
425.925	4952.33
426.133	5087.5
426.341	5478.66
426.548	5744.89
426.756	5775.61
426.964	5714.17
427.171	6031.61
427.379	6224.12
427.586	6340.85
427.794	6541.55
428.001	6959.34
428.209	7053.55
428.417	6969.58
428.624	7553.25
428.832	7557.35
429.039	7598.31
429.247	7483.62
429.454	8337.62
429.662	8710.35
429.869	8255.7
430.076	8806.61
430.284	8573.14
430.491	8927.44
430.699	9466.05
430.906	9347.27
431.114	9633.99
431.321	9861.31
431.528	10023.1
431.736	10682.55
431.943	11176.11
432.15	10862.77
432.358	10979.5
432.565	11575.46
432.772	11860.13
432.979	12341.4
433.187	12368.02
433.394	12576.92
433.601	13363.34
433.808	13574.28
434.016	13424.78
434.223	13666.44
434.43	14633.08
434.637	14643.32
434.844	15253.61
435.052	15462.51
435.259	15415.4
435.466	15806.56
435.673	15296.62
435.88	16406.62
436.087	17238.09
436.294	17385.55
436.501	16867.41
436.708	17352.78
436.915	17926.21
437.122	18587.71
437.329	18825.27
437.537	19546.16
437.743	19642.41
437.95	19408.94
438.157	20547.61
438.364	21176.34
438.571	20746.26
438.778	21254.16
438.985	22996.98
439.192	22382.59
439.399	22861.82
439.606	22394.88
439.813	23816.17
440.02	25204.69
440.227	24690.65
440.433	24309.73
440.64	25565.14
440.847	25374.67
441.054	25690.06
441.261	27391.92
441.467	27029.43
441.674	27561.9
441.881	28528.55
442.088	28147.62
442.294	28473.25
442.501	29235.1
442.708	29689.74
442.914	31020.92
443.121	32372.58
443.328	30912.38
443.534	33550.17
443.741	32511.85
443.948	32145.26
444.154	34699.08
444.361	34154.32
444.568	34627.4
444.774	34359.11
444.981	35135.29
445.187	35766.07
445.394	37386.01
445.6	36896.55
445.807	40601.32
446.013	39218.94
446.22	39829.24
446.426	40822.5
446.633	41080.55
446.839	42884.81
447.046	41084.64
447.252	42782.41
447.459	43286.21
447.665	43331.26
447.871	45346.47
448.078	46794.38
448.284	44783.27
448.491	45653.66
448.697	47459.97
448.903	48467.57
449.11	48561.78
449.316	47943.29
449.522	48760.43
449.728	50093.66
449.935	50179.67
450.141	49847.9
450.347	51015.24
450.553	49978.97
450.76	50323.03
450.966	52033.08
451.172	51289.67
451.378	52696.63
451.584	51940.92
451.791	52893.23
451.997	52805.17
452.203	53763.62
452.409	54007.33
452.615	53308.97
452.821	51729.98
453.027	50511.44
453.233	54150.68
453.44	51820.09
453.646	52174.39
453.852	52538.93
454.058	53247.53
454.264	51486.28
454.47	52641.33
454.676	51517
454.882	53628.45
455.088	48854.64
455.294	49507.94
455.5	50175.58
455.705	50990.67
455.911	48701.04
456.117	47804.03
456.323	47302.28
456.529	44680.88
456.735	46837.39
456.941	45534.88
457.147	44959.4
457.352	43488.96
457.558	43089.6
457.764	43290.3
457.97	42168.02
458.176	41344.73
458.381	41477.85
458.587	39651.06
458.793	39450.36
458.999	37359.39
459.204	40259.31
459.41	39229.18
459.616	36462.38
459.821	36519.72
460.027	36579.11
460.233	35692.34
460.438	33754.96
460.644	34189.13
460.85	32259.95
461.055	32128.88
461.261	32194.41
461.466	29681.55
461.672	28739.49
461.878	31381.37
462.083	28592.03
462.289	28282.79
462.494	27828.14
462.7	26599.36
462.905	26085.32
463.111	27236.28
463.316	27031.48
463.522	26662.85
463.727	26638.27
463.932	26341.32
464.138	26341.32
464.343	26167.24
464.549	25808.84
464.754	26374.08
464.959	26202.05
465.165	26009.54
465.37	24815.58
465.575	24227.81
465.781	25145.3
465.986	25511.89
466.191	24426.46
466.397	23990.25
466.602	22800.38
