Data from USB4F104151__25__12-41-08-725.txt Node

Date: Fri Mar 14 12:41:08 EDT 2025
User: louis
Spectrometer: USB4F10415
Trigger mode: 4
Integration Time (sec): 3.000000E-2
Scans to average: 1
Electric dark correction enabled: true
Nonlinearity correction enabled: false
Boxcar width: 0
XAxis mode: Wavelengths
Number of Pixels in Spectrum: 3648
>>>>>Begin Spectral Data<<<<<
178.204	-120.49
178.424	-120.49
178.644	-120.49
178.864	-132.78
179.084	-112.3
179.304	10.58
179.524	2.39
179.744	37.2
179.964	31.06
180.184	0.34
180.404	-63.15
180.624	4.44
180.844	10.58
181.064	-38.57
181.283	22.87
181.503	-5.8
181.723	-11.95
181.943	-22.19
182.163	86.36
182.383	43.35
182.602	2.39
182.822	10.58
183.042	20.82
183.262	31.06
183.482	14.68
183.701	-9.9
183.921	-9.9
184.141	26.96
184.361	-18.09
184.58	37.2
184.8	6.49
185.02	-20.14
185.239	76.12
185.459	4.44
185.679	4.44
185.898	-3.75
186.118	29.01
186.338	69.97
186.557	-24.23
186.777	-34.47
186.997	47.44
187.216	-1.71
187.436	86.36
187.655	22.87
187.875	-40.62
188.095	31.06
188.314	26.96
188.534	0.34
188.753	0.34
188.973	41.3
189.192	125.27
189.412	-13.99
189.631	12.63
189.851	16.73
190.07	47.44
190.29	41.3
190.509	-16.04
190.729	57.68
190.948	29.01
191.168	170.32
191.387	49.49
191.607	-11.95
191.826	69.97
192.045	-5.8
192.265	-11.95
192.484	-40.62
192.704	18.77
192.923	10.58
193.142	18.77
193.362	35.16
193.581	45.4
193.8	35.16
194.02	80.21
194.239	24.92
194.458	69.97
194.678	82.26
194.897	63.83
195.116	-30.38
195.335	-7.85
195.555	127.32
195.774	31.06
195.993	86.36
196.212	-11.95
196.432	0.34
196.651	26.96
196.87	29.01
197.089	63.83
197.308	82.26
197.528	43.35
197.747	-34.47
197.966	53.59
198.185	59.73
198.404	20.82
198.623	14.68
198.842	119.12
199.062	-16.04
199.281	63.83
199.5	69.97
199.719	37.2
199.938	10.58
200.157	53.59
200.376	57.68
200.595	22.87
200.814	90.45
201.033	24.92
201.252	43.35
201.471	65.88
201.69	76.12
201.909	-5.8
202.128	2.39
202.347	29.01
202.566	20.82
202.785	-34.47
203.004	-3.75
203.223	147.8
203.442	43.35
203.661	31.06
203.879	18.77
204.098	20.82
204.317	-1.71
204.536	45.4
204.755	16.73
204.974	90.45
205.193	16.73
205.411	47.44
205.63	43.35
205.849	61.78
206.068	-40.62
206.287	53.59
206.505	49.49
206.724	-42.67
206.943	33.11
207.162	35.16
207.381	84.31
207.599	72.02
207.818	47.44
208.037	-5.8
208.255	14.68
208.474	18.77
208.693	121.17
208.911	-50.86
209.13	39.25
209.349	31.06
209.567	-7.85
209.786	51.54
210.005	4.44
210.223	-3.75
210.442	-50.86
210.661	-9.9
210.879	39.25
211.098	43.35
211.316	24.92
211.535	14.68
211.753	12.63
211.972	22.87
212.191	-67.24
212.409	29.01
212.628	0.34
212.846	-11.95
213.065	76.12
213.283	10.58
213.502	6.49
213.72	-16.04
213.938	6.49
214.157	12.63
214.375	16.73
214.594	63.83
214.812	10.58
215.031	35.16
215.249	47.44
215.467	29.01
215.686	-34.47
215.904	53.59
216.122	4.44
216.341	67.92
216.559	-5.8
216.778	31.06
216.996	49.49
217.214	16.73
217.432	53.59
217.651	35.16
217.869	33.11
218.087	67.92
218.306	-1.71
218.524	82.26
218.742	4.44
218.96	14.68
219.179	6.49
219.397	127.32
219.615	45.4
219.833	119.12
220.051	49.49
220.27	37.2
220.488	35.16
220.706	26.96
220.924	8.53
221.142	-52.91
221.36	20.82
221.578	-13.99
221.796	-40.62
222.015	33.11
222.233	41.3
222.451	104.79
222.669	-3.75
222.887	63.83
223.105	-18.09
223.323	92.5
223.541	-18.09
223.759	8.53
223.977	-57
224.195	63.83
224.413	31.06
224.631	26.96
224.849	55.64
225.067	51.54
225.285	63.83
225.503	26.96
225.721	-13.99
225.939	39.25
226.157	0.34
226.375	80.21
226.592	39.25
226.81	31.06
227.028	43.35
227.246	117.08
227.464	-32.43
227.682	35.16
227.9	20.82
228.117	57.68
228.335	47.44
228.553	84.31
228.771	31.06
228.989	78.16
229.206	-73.39
229.424	-28.33
229.642	12.63
229.86	-24.23
230.077	41.3
230.295	31.06
230.513	106.84
230.731	61.78
230.948	26.96
231.166	74.07
231.384	-5.8
231.601	29.01
231.819	47.44
232.037	39.25
232.254	16.73
232.472	33.11
232.689	-40.62
232.907	18.77
233.125	-3.75
233.342	-69.29
233.56	-18.09
233.777	-26.28
233.995	-13.99
234.213	41.3
234.43	22.87
234.648	2.39
234.865	63.83
235.083	102.74
235.3	6.49
235.518	18.77
235.735	69.97
235.953	4.44
236.17	43.35
236.388	57.68
236.605	57.68
236.822	-9.9
237.04	88.4
237.257	29.01
237.475	-44.71
237.692	-26.28
237.909	20.82
238.127	53.59
238.344	20.82
238.562	84.31
238.779	8.53
238.996	14.68
239.214	-1.71
239.431	22.87
239.648	-32.43
239.865	-7.85
240.083	10.58
240.3	65.88
240.517	-32.43
240.735	45.4
240.952	65.88
241.169	45.4
241.386	-32.43
241.603	74.07
241.821	-52.91
242.038	117.08
242.255	78.16
242.472	94.55
242.689	65.88
242.907	45.4
243.124	-5.8
243.341	8.53
243.558	53.59
243.775	61.78
243.992	43.35
244.209	-16.04
244.426	45.4
244.643	49.49
244.86	63.83
245.078	-13.99
245.295	33.11
245.512	53.59
245.729	-54.95
245.946	51.54
246.163	45.4
246.38	0.34
246.597	84.31
246.814	31.06
247.031	-32.43
247.248	129.36
247.464	84.31
247.681	16.73
247.898	-34.47
248.115	33.11
248.332	-91.82
248.549	41.3
248.766	-7.85
248.983	82.26
249.2	-20.14
249.417	59.73
249.633	4.44
249.85	80.21
250.067	4.44
250.284	61.78
250.501	47.44
250.717	29.01
250.934	-61.1
251.151	-26.28
251.368	-63.15
251.585	55.64
251.801	12.63
252.018	37.2
252.235	8.53
252.451	69.97
252.668	26.96
252.885	31.06
253.102	-7.85
253.318	20.82
253.535	51.54
253.752	39.25
253.968	26.96
254.185	51.54
254.401	92.5
254.618	35.16
254.835	18.77
255.051	72.02
255.268	106.84
255.484	29.01
255.701	67.92
255.917	41.3
256.134	12.63
256.351	-22.19
256.567	-71.34
256.784	47.44
257	14.68
257.217	33.11
257.433	2.39
257.65	84.31
257.866	49.49
258.082	-1.71
258.299	-18.09
258.515	29.01
258.732	-7.85
258.948	0.34
259.165	51.54
259.381	-3.75
259.597	18.77
259.814	47.44
260.03	18.77
260.246	45.4
260.463	39.25
260.679	49.49
260.895	-13.99
261.112	12.63
261.328	-11.95
261.544	18.77
261.761	147.8
261.977	33.11
262.193	6.49
262.409	24.92
262.626	-28.33
262.842	-7.85
263.058	-1.71
263.274	63.83
263.49	92.5
263.707	51.54
263.923	86.36
264.139	-11.95
264.355	33.11
264.571	98.64
264.787	41.3
265.004	14.68
265.22	10.58
265.436	4.44
265.652	-13.99
265.868	16.73
266.084	0.34
266.3	24.92
266.516	10.58
266.732	-3.75
266.948	53.59
267.164	31.06
267.38	-13.99
267.596	61.78
267.812	47.44
268.028	53.59
268.244	0.34
268.46	57.68
268.676	16.73
268.892	135.51
269.108	10.58
269.324	45.4
269.54	-11.95
269.756	63.83
269.972	-44.71
270.188	-16.04
270.403	37.2
270.619	8.53
270.835	82.26
271.051	37.2
271.267	14.68
271.483	-11.95
271.698	84.31
271.914	45.4
272.13	-48.81
272.346	26.96
272.562	74.07
272.777	37.2
272.993	-26.28
273.209	-9.9
273.425	47.44
273.64	98.64
273.856	49.49
274.072	-26.28
274.287	-20.14
274.503	29.01
274.719	14.68
274.934	8.53
275.15	39.25
275.366	39.25
275.581	31.06
275.797	26.96
276.012	-7.85
276.228	6.49
276.444	43.35
276.659	82.26
276.875	78.16
277.09	10.58
277.306	51.54
277.521	6.49
277.737	20.82
277.952	43.35
278.168	-3.75
278.383	31.06
278.599	-13.99
278.814	22.87
279.03	-11.95
279.245	61.78
279.461	-9.9
279.676	47.44
279.892	8.53
280.107	-11.95
280.322	31.06
280.538	24.92
280.753	41.3
280.969	51.54
281.184	59.73
281.399	51.54
281.615	45.4
281.83	29.01
282.045	-5.8
282.26	47.44
282.476	20.82
282.691	10.58
282.906	41.3
283.122	61.78
283.337	-13.99
283.552	47.44
283.767	-54.95
283.983	82.26
284.198	4.44
284.413	121.17
284.628	-5.8
284.843	88.4
285.058	149.84
285.274	12.63
285.489	-20.14
285.704	20.82
285.919	51.54
286.134	22.87
286.349	35.16
286.564	74.07
286.779	55.64
286.995	-13.99
287.21	-18.09
287.425	6.49
287.64	6.49
287.855	98.64
288.07	12.63
288.285	100.69
288.5	-20.14
288.715	69.97
288.93	8.53
289.145	4.44
289.36	35.16
289.575	57.68
289.79	76.12
290.004	26.96
290.219	115.03
290.434	20.82
290.649	26.96
290.864	10.58
291.079	14.68
291.294	16.73
291.509	-24.23
291.724	12.63
291.938	16.73
292.153	37.2
292.368	74.07
292.583	74.07
292.798	-42.67
293.012	4.44
293.227	41.3
293.442	29.01
293.657	78.16
293.871	59.73
294.086	33.11
294.301	100.69
294.516	4.44
294.73	12.63
294.945	37.2
295.16	18.77
295.374	0.34
295.589	98.64
295.804	31.06
296.018	-5.8
296.233	67.92
296.447	104.79
296.662	84.31
296.877	102.74
297.091	37.2
297.306	80.21
297.52	16.73
297.735	45.4
297.949	47.44
298.164	-1.71
298.378	43.35
298.593	92.5
298.807	10.58
299.022	18.77
299.236	55.64
299.451	4.44
299.665	37.2
299.88	55.64
300.094	43.35
300.309	-3.75
300.523	-61.1
300.737	53.59
300.952	31.06
301.166	16.73
301.381	-24.23
301.595	6.49
301.809	-87.72
302.024	45.4
302.238	-32.43
302.452	63.83
302.667	12.63
302.881	0.34
303.095	-13.99
303.309	76.12
303.524	43.35
303.738	115.03
303.952	-46.76
304.166	39.25
304.381	-48.81
304.595	57.68
304.809	29.01
305.023	37.2
305.237	55.64
305.452	-11.95
305.666	37.2
305.88	-18.09
306.094	37.2
306.308	37.2
306.522	86.36
306.736	0.34
306.95	-22.19
307.164	63.83
307.379	14.68
307.593	78.16
307.807	16.73
308.021	20.82
308.235	57.68
308.449	-1.71
308.663	78.16
308.877	33.11
309.091	18.77
309.305	67.92
309.519	12.63
309.733	6.49
309.947	26.96
310.161	-52.91
310.374	155.99
310.588	76.12
310.802	0.34
311.016	14.68
311.23	26.96
311.444	-3.75
311.658	63.83
311.872	-26.28
312.085	78.16
312.299	37.2
312.513	55.64
312.727	63.83
312.941	98.64
313.154	-34.47
313.368	16.73
313.582	10.58
313.796	14.68
314.009	45.4
314.223	100.69
314.437	12.63
314.651	123.22
314.864	55.64
315.078	65.88
315.292	20.82
315.505	-1.71
315.719	90.45
315.933	39.25
316.146	14.68
316.36	26.96
316.573	82.26
316.787	43.35
317.001	63.83
317.214	-5.8
317.428	112.98
317.641	8.53
317.855	8.53
318.068	-13.99
318.282	-13.99
318.495	39.25
318.709	72.02
318.922	92.5
319.136	65.88
319.349	84.31
319.563	67.92
319.776	69.97
319.99	-13.99
320.203	53.59
320.417	12.63
320.63	26.96
320.843	145.75
321.057	45.4
321.27	-48.81
321.483	26.96
321.697	88.4
321.91	53.59
322.124	41.3
322.337	-16.04
322.55	29.01
322.763	67.92
322.977	55.64
323.19	-13.99
323.403	137.56
323.617	88.4
323.83	55.64
324.043	41.3
324.256	24.92
324.469	-5.8
324.683	110.93
324.896	22.87
325.109	59.73
325.322	-20.14
325.535	96.6
325.748	14.68
325.962	8.53
326.175	43.35
326.388	-20.14
326.601	127.32
326.814	22.87
327.027	29.01
327.24	67.92
327.453	-7.85
327.666	74.07
327.879	82.26
328.092	41.3
328.305	10.58
328.518	14.68
328.731	-20.14
328.944	43.35
329.157	55.64
329.37	-22.19
329.583	96.6
329.796	39.25
330.009	18.77
330.222	39.25
330.435	41.3
330.648	-22.19
330.861	51.54
331.073	110.93
331.286	110.93
331.499	39.25
331.712	8.53
331.925	-20.14
332.138	41.3
332.35	49.49
332.563	14.68
332.776	61.78
332.989	22.87
333.202	65.88
333.414	67.92
333.627	18.77
333.84	0.34
334.053	39.25
334.265	61.78
334.478	29.01
334.691	26.96
334.903	78.16
335.116	43.35
335.329	55.64
335.541	65.88
335.754	45.4
335.966	39.25
336.179	14.68
336.392	84.31
336.604	49.49
336.817	88.4
337.029	24.92
337.242	-22.19
337.454	61.78
337.667	63.83
337.88	84.31
338.092	31.06
338.305	49.49
338.517	39.25
338.729	102.74
338.942	102.74
339.154	29.01
339.367	41.3
339.579	16.73
339.792	82.26
340.004	26.96
340.217	-1.71
340.429	45.4
340.641	76.12
340.854	22.87
341.066	-24.23
341.278	72.02
341.491	55.64
341.703	127.32
341.915	-18.09
342.128	133.46
342.34	-20.14
342.552	72.02
342.764	-16.04
342.977	57.68
343.189	55.64
343.401	76.12
343.613	-28.33
343.826	88.4
344.038	-26.28
344.25	84.31
344.462	-26.28
344.674	59.73
344.886	84.31
345.099	65.88
345.311	47.44
345.523	86.36
345.735	-20.14
345.947	18.77
346.159	14.68
346.371	39.25
346.583	53.59
346.795	67.92
347.007	0.34
347.219	35.16
347.431	12.63
347.643	12.63
347.855	12.63
348.067	35.16
348.279	24.92
348.491	45.4
348.703	65.88
348.915	-1.71
349.127	4.44
349.339	24.92
349.551	-11.95
349.763	47.44
349.975	55.64
350.187	69.97
350.399	12.63
350.61	112.98
350.822	43.35
351.034	102.74
351.246	65.88
351.458	20.82
351.669	18.77
351.881	96.6
352.093	82.26
352.305	84.31
352.517	59.73
352.728	26.96
352.94	72.02
353.152	84.31
353.363	-22.19
353.575	88.4
353.787	67.92
353.999	80.21
354.21	143.7
354.422	20.82
354.633	82.26
354.845	-18.09
355.057	78.16
355.268	69.97
355.48	49.49
355.692	2.39
355.903	82.26
356.115	-13.99
356.326	-20.14
356.538	86.36
356.749	82.26
356.961	115.03
357.172	12.63
357.384	31.06
357.595	151.89
357.807	-24.23
358.018	-24.23
358.23	-1.71
358.441	129.36
358.653	86.36
358.864	12.63
359.075	8.53
359.287	53.59
359.498	4.44
359.709	59.73
359.921	31.06
360.132	74.07
360.344	104.79
360.555	45.4
360.766	108.88
360.977	51.54
361.189	37.2
361.4	24.92
361.611	67.92
361.823	67.92
362.034	102.74
362.245	20.82
362.456	4.44
362.667	57.68
362.879	-26.28
363.09	43.35
363.301	41.3
363.512	43.35
363.723	24.92
363.935	74.07
364.146	108.88
364.357	78.16
364.568	102.74
364.779	22.87
364.99	78.16
365.201	-24.23
365.412	137.56
365.623	-44.71
365.834	6.49
366.045	78.16
366.256	125.27
366.467	39.25
366.678	29.01
366.889	119.12
367.1	-52.91
367.311	41.3
367.522	14.68
367.733	78.16
367.944	123.22
368.155	24.92
368.366	82.26
368.577	67.92
368.788	80.21
368.999	115.03
369.209	12.63
369.42	153.94
369.631	131.41
369.842	35.16
370.053	-38.57
370.264	106.84
370.474	-30.38
370.685	0.34
370.896	35.16
371.107	43.35
371.317	65.88
371.528	112.98
371.739	141.65
371.95	65.88
372.16	80.21
372.371	29.01
372.582	22.87
372.792	69.97
373.003	55.64
373.214	8.53
373.424	20.82
373.635	24.92
373.846	45.4
374.056	-3.75
374.267	33.11
374.477	49.49
374.688	-1.71
374.898	-13.99
375.109	131.41
375.319	31.06
375.53	45.4
375.74	86.36
375.951	86.36
376.161	26.96
376.372	94.55
376.582	16.73
376.793	43.35
377.003	41.3
377.214	59.73
377.424	51.54
377.635	155.99
377.845	123.22
378.055	102.74
378.266	18.77
378.476	61.78
378.686	57.68
378.897	51.54
379.107	41.3
379.317	135.51
379.528	47.44
379.738	51.54
379.948	22.87
380.158	98.64
380.369	72.02
380.579	104.79
380.789	31.06
380.999	106.84
381.21	47.44
381.42	92.5
381.63	86.36
381.84	49.49
382.05	76.12
382.261	80.21
382.471	-13.99
382.681	51.54
382.891	86.36
383.101	74.07
383.311	41.3
383.521	57.68
383.731	117.08
383.941	86.36
384.151	45.4
384.361	67.92
384.571	24.92
384.781	67.92
384.991	67.92
385.201	112.98
385.411	33.11
385.621	67.92
385.831	59.73
386.041	53.59
386.251	61.78
386.461	98.64
386.671	55.64
386.881	74.07
387.091	76.12
387.301	45.4
387.511	59.73
387.72	72.02
387.93	96.6
388.14	51.54
388.35	86.36
388.56	94.55
388.769	135.51
388.979	96.6
389.189	37.2
389.399	100.69
389.609	59.73
389.818	55.64
390.028	59.73
390.238	72.02
390.447	51.54
390.657	61.78
390.867	67.92
391.076	10.58
391.286	41.3
391.496	61.78
391.705	106.84
391.915	115.03
392.125	172.37
392.334	96.6
392.544	82.26
392.753	74.07
392.963	76.12
393.172	86.36
393.382	63.83
393.591	94.55
393.801	16.73
394.01	104.79
394.22	121.17
394.429	86.36
394.639	41.3
394.848	63.83
395.058	131.41
395.267	102.74
395.477	104.79
395.686	20.82
395.895	131.41
396.105	184.66
396.314	115.03
396.524	69.97
396.733	125.27
396.942	119.12
397.152	12.63
397.361	80.21
397.57	125.27
397.78	63.83
397.989	94.55
398.198	160.08
398.407	94.55
398.617	102.74
398.826	151.89
399.035	45.4
399.244	20.82
399.453	125.27
399.663	110.93
399.872	74.07
400.081	20.82
400.29	143.7
400.499	55.64
400.708	108.88
400.917	121.17
401.127	135.51
401.336	125.27
401.545	149.84
401.754	98.64
401.963	112.98
402.172	131.41
402.381	37.2
402.59	160.08
402.799	129.36
403.008	225.62
403.217	117.08
403.426	194.9
403.635	155.99
403.844	153.94
404.053	151.89
404.262	131.41
404.471	205.14
404.68	164.18
404.888	198.99
405.097	22.87
405.306	170.32
405.515	129.36
405.724	125.27
405.933	139.6
406.142	213.33
406.35	172.37
406.559	213.33
406.768	137.56
406.977	201.04
407.185	215.38
407.394	235.86
407.603	201.04
407.812	248.15
408.02	229.71
408.229	250.19
408.438	244.05
408.646	272.72
408.855	233.81
409.064	278.87
409.272	344.4
409.481	289.1
409.69	303.44
409.898	299.34
410.107	293.2
410.315	362.83
410.524	342.35
410.733	336.21
410.941	375.12
411.15	328.02
411.358	430.41
411.567	457.04
411.775	315.73
411.984	508.24
412.192	485.71
412.401	430.41
412.609	512.33
412.818	561.48
413.026	577.87
413.234	545.1
413.443	565.58
413.651	594.25
413.86	616.78
414.068	614.73
414.276	770.38
414.485	727.37
414.693	772.43
414.901	692.55
415.11	829.77
415.318	731.47
415.526	829.77
415.734	885.06
415.943	903.5
416.151	966.98
416.359	932.17
416.567	944.45
416.776	1085.76
416.984	1044.81
417.192	1102.15
417.4	1016.13
417.608	1077.57
417.817	1065.29
418.025	1298.75
418.233	1315.14
418.441	1247.55
418.649	1347.9
418.857	1405.25
419.065	1548.61
419.273	1403.2
419.481	1429.82
419.689	1487.17
419.897	1620.28
420.105	1648.96
420.313	1696.06
420.521	1798.46
420.729	1892.66
420.937	1855.8
421.145	1982.78
421.353	2001.21
421.561	2062.65
421.769	2218.29
421.977	2171.19
422.185	2265.39
422.393	2373.94
422.601	2574.64
422.809	2545.97
423.017	2470.19
423.224	2595.12
423.432	2672.94
423.64	2902.31
423.848	3017
424.056	2951.46
424.263	3227.94
424.471	3074.34
424.679	3277.09
424.887	3434.78
425.094	3588.38
425.302	3578.14
425.51	3637.53
425.718	3793.18
425.925	3692.83
426.133	3979.54
426.341	4163.86
426.548	4364.56
426.756	4301.08
426.964	4516.11
427.171	4733.2
427.379	4804.88
427.586	4772.11
427.794	4917.51
428.001	5265.67
428.209	5292.29
428.417	5425.41
428.624	5646.59
428.832	5716.22
429.039	5695.74
429.247	5658.88
429.454	6146.3
429.662	6662.38
429.869	6207.73
430.076	6738.16
430.284	6557.94
430.491	6705.39
430.699	7364.84
430.906	7291.11
431.114	7155.94
431.321	7520.48
431.528	7590.11
431.736	8167.64
431.943	8470.74
432.15	8347.86
432.358	8419.54
432.565	8876.24
432.772	8747.22
432.979	9152.71
433.187	9459.91
433.394	9566.4
433.601	9967.81
433.808	10111.16
434.016	10133.69
434.223	10592.44
434.43	11215.02
434.637	10836.14
434.844	11663.52
435.052	11966.62
435.259	11718.82
435.466	11915.42
435.673	11794.59
435.88	12679.32
436.087	13162.64
436.294	13240.46
436.501	12693.65
436.708	13250.7
436.915	13658.24
437.122	14454.9
437.329	14090.37
437.537	14469.24
437.743	14772.34
437.95	14852.21
438.157	15442.03
438.364	16158.81
438.571	15974.5
438.778	16113.76
438.985	17610.82
439.192	16965.71
439.399	17453.13
439.606	16975.95
439.813	17872.96
440.02	19066.93
440.227	18950.2
440.433	18610.23
440.64	19208.24
440.847	18882.61
441.054	19404.85
441.261	21041.17
441.467	20484.12
441.674	21186.58
441.881	21979.14
442.088	21630.99
442.294	21565.45
442.501	22093.83
442.708	22853.62
442.914	23193.59
443.121	24500.19
443.328	23517.17
443.534	25243.6
443.741	25108.44
443.948	24307.68
444.154	26236.87
444.361	26101.7
444.568	26458.05
444.774	26152.9
444.981	26351.56
445.187	27094.97
445.394	28489.63
445.6	28413.86
445.807	30898.05
446.013	29468.56
446.22	30093.19
446.426	31356.79
446.633	31321.98
446.839	32479.08
447.046	31242.1
447.252	32939.87
447.459	33138.52
447.665	32909.15
447.871	34373.45
448.078	35751.73
448.284	34195.28
448.491	35211.07
448.697	36450.09
448.903	36708.13
449.11	37209.89
449.316	36532.01
449.522	37435.16
449.728	38139.66
449.935	38489.87
450.141	38618.89
450.347	39239.42
450.553	38082.32
450.76	38512.39
450.966	39919.35
451.172	39421.69
451.378	40169.2
451.584	39851.77
451.791	40543.98
451.997	40404.72
452.203	41070.31
452.409	41258.72
452.615	40869.61
452.821	39532.28
453.027	39079.68
453.233	41051.87
453.44	39694.07
453.646	40013.55
453.852	39964.4
454.058	40634.09
454.264	39481.08
454.47	40554.22
454.676	39421.69
454.882	40943.33
455.088	37000.99
455.294	37742.36
455.5	38407.95
455.705	39020.29
455.911	37365.53
456.117	36745
456.323	36001.58
456.529	34131.79
456.735	35557.17
456.941	35055.42
457.147	34092.88
457.352	33019.74
457.558	32757.6
457.764	32943.97
457.97	32044.91
458.176	31516.53
458.381	31565.68
458.587	29888.4
458.793	30031.76
458.999	28776.35
459.204	30388.1
459.41	29855.63
459.616	27590.58
459.821	27662.26
460.027	27869.1
460.233	27070.39
460.438	25941.96
460.644	25878.47
460.85	24676.32
461.055	24479.71
461.261	24432.61
461.466	22358.02
461.672	22124.55
461.878	23468.02
462.083	22005.77
462.289	21479.44
462.494	21051.41
462.7	20396.06
462.905	19675.18
463.111	20613.15
463.316	20707.35
463.522	20039.72
463.727	20203.55
463.932	20279.33
464.138	19763.24
464.343	20054.05
464.549	19390.51
464.754	19927.08
464.959	19705.9
465.165	19576.87
465.37	18835.51
465.575	18311.23
465.781	18987.06
465.986	19247.15
466.191	18554.94
466.397	18085.95
466.602	17215.57
466.807	17928.26
467.012	17930.31
467.218	17883.2
467.423	17760.33
