Data from USB4F104151__50__12-41-43-582.txt Node

Date: Fri Mar 14 12:41:43 EDT 2025
User: louis
Spectrometer: USB4F10415
Trigger mode: 4
Integration Time (sec): 3.000000E-2
Scans to average: 1
Electric dark correction enabled: true
Nonlinearity correction enabled: false
Boxcar width: 0
XAxis mode: Wavelengths
Number of Pixels in Spectrum: 3648
>>>>>Begin Spectral Data<<<<<
178.204	-136.7
178.424	-136.7
178.644	-136.7
178.864	-71.17
179.084	-138.75
179.304	-32.26
179.524	-17.92
179.744	-11.78
179.964	10.75
180.184	35.33
180.404	68.09
180.624	2.56
180.844	8.7
181.064	-40.45
181.283	16.9
181.503	-3.58
181.723	-36.35
181.943	-32.26
182.163	80.38
182.383	16.9
182.602	74.24
182.822	113.15
183.042	10.75
183.262	88.57
183.482	14.85
183.701	53.76
183.921	98.81
184.141	-60.93
184.361	27.14
184.58	18.94
184.8	55.81
185.02	49.66
185.239	104.96
185.459	-9.73
185.679	121.34
185.898	70.14
186.118	70.14
186.338	133.63
186.557	94.72
186.777	-13.82
186.997	-5.63
187.216	-26.11
187.436	135.68
187.655	43.52
187.875	59.9
188.095	-44.54
188.314	39.42
188.534	82.43
188.753	80.38
188.973	39.42
189.192	51.71
189.412	-75.26
189.631	96.77
189.851	27.14
190.07	82.43
190.29	37.38
190.509	12.8
190.729	102.91
190.948	72.19
191.168	182.78
191.387	78.33
191.607	25.09
191.826	37.38
192.045	-36.35
192.265	66.05
192.484	33.28
192.704	33.28
192.923	33.28
193.142	104.96
193.362	33.28
193.581	-32.26
193.8	43.52
194.02	125.44
194.239	-3.58
194.458	49.66
194.678	-15.87
194.897	78.33
195.116	78.33
195.335	-1.54
195.555	29.18
195.774	-19.97
195.993	98.81
196.212	25.09
196.432	-13.82
196.651	-1.54
196.87	31.23
197.089	-26.11
197.308	68.09
197.528	-13.82
197.747	-44.54
197.966	94.72
198.185	27.14
198.404	-3.58
198.623	20.99
198.842	23.04
199.062	111.1
199.281	104.96
199.5	31.23
199.719	31.23
199.938	70.14
200.157	74.24
200.376	61.95
200.595	76.29
200.814	39.42
201.033	51.71
201.252	55.81
201.471	76.29
201.69	90.62
201.909	0.51
202.128	33.28
202.347	49.66
202.566	6.66
202.785	57.86
203.004	-15.87
203.223	107.01
203.442	82.43
203.661	33.28
203.879	66.05
204.098	107.01
204.317	-5.63
204.536	80.38
204.755	33.28
204.974	10.75
205.193	39.42
205.411	76.29
205.63	109.05
205.849	45.57
206.068	-30.21
206.287	-7.68
206.505	86.53
206.724	20.99
206.943	4.61
207.162	61.95
207.381	31.23
207.599	12.8
207.818	35.33
208.037	37.38
208.255	-52.74
208.474	66.05
208.693	10.75
208.911	6.66
209.13	115.2
209.349	41.47
209.567	23.04
209.786	33.28
210.005	23.04
210.223	53.76
210.442	-28.16
210.661	59.9
210.879	-36.35
211.098	39.42
211.316	10.75
211.535	41.47
211.753	98.81
211.972	92.67
212.191	55.81
212.409	51.71
212.628	-11.78
212.846	20.99
213.065	-11.78
213.283	51.71
213.502	-42.5
213.72	33.28
213.938	68.09
214.157	0.51
214.375	76.29
214.594	49.66
214.812	20.99
215.031	68.09
215.249	23.04
215.467	86.53
215.686	68.09
215.904	98.81
216.122	10.75
216.341	104.96
216.559	12.8
216.778	152.06
216.996	55.81
217.214	41.47
217.432	53.76
217.651	27.14
217.869	70.14
218.087	88.57
218.306	-36.35
218.524	43.52
218.742	-7.68
218.96	88.57
219.179	43.52
219.397	80.38
219.615	96.77
219.833	94.72
220.051	-17.92
220.27	84.48
220.488	35.33
220.706	64
220.924	74.24
221.142	16.9
221.36	12.8
221.578	16.9
221.796	88.57
222.015	25.09
222.233	64
222.451	174.59
222.669	4.61
222.887	76.29
223.105	-26.11
223.323	80.38
223.541	27.14
223.759	-7.68
223.977	-1.54
224.195	53.76
224.413	41.47
224.631	104.96
224.849	72.19
225.067	78.33
225.285	-7.68
225.503	-38.4
225.721	-30.21
225.939	27.14
226.157	23.04
226.375	70.14
226.592	-3.58
226.81	41.47
227.028	20.99
227.246	156.16
227.464	-30.21
227.682	92.67
227.9	39.42
228.117	68.09
228.335	61.95
228.553	100.86
228.771	80.38
228.989	90.62
229.206	18.94
229.424	31.23
229.642	18.94
229.86	4.61
230.077	66.05
230.295	61.95
230.513	66.05
230.731	37.38
230.948	94.72
231.166	64
231.384	23.04
231.601	20.99
231.819	29.18
232.037	33.28
232.254	12.8
232.472	10.75
232.689	-46.59
232.907	-1.54
233.125	23.04
233.342	23.04
233.56	33.28
233.777	23.04
233.995	57.86
234.213	92.67
234.43	27.14
234.648	31.23
234.865	16.9
235.083	51.71
235.3	-9.73
235.518	109.05
235.735	86.53
235.953	68.09
236.17	-19.97
236.388	-5.63
236.605	35.33
236.822	33.28
237.04	4.61
237.257	70.14
237.475	-7.68
237.692	74.24
237.909	33.28
238.127	31.23
238.344	68.09
238.562	18.94
238.779	29.18
238.996	-34.3
239.214	20.99
239.431	16.9
239.648	20.99
239.865	23.04
240.083	66.05
240.3	-40.45
240.517	113.15
240.735	61.95
240.952	111.1
241.169	25.09
241.386	57.86
241.603	68.09
241.821	-28.16
242.038	14.85
242.255	51.71
242.472	-28.16
242.689	4.61
242.907	-28.16
243.124	102.91
243.341	29.18
243.558	-28.16
243.775	-15.87
243.992	-5.63
244.209	14.85
244.426	29.18
244.643	86.53
244.86	23.04
245.078	92.67
245.295	33.28
245.512	-5.63
245.729	10.75
245.946	92.67
246.163	14.85
246.38	43.52
246.597	41.47
246.814	-9.73
247.031	57.86
247.248	25.09
247.464	10.75
247.681	23.04
247.898	43.52
248.115	12.8
248.332	29.18
248.549	43.52
248.766	68.09
248.983	27.14
249.2	6.66
249.417	90.62
249.633	29.18
249.85	-13.82
250.067	16.9
250.284	-5.63
250.501	51.71
250.717	82.43
250.934	59.9
251.151	-71.17
251.368	41.47
251.585	70.14
251.801	104.96
252.018	6.66
252.235	43.52
252.451	12.8
252.668	59.9
252.885	-5.63
253.102	104.96
253.318	78.33
253.535	0.51
253.752	57.86
253.968	53.76
254.185	45.57
254.401	57.86
254.618	14.85
254.835	92.67
255.051	39.42
255.268	98.81
255.484	35.33
255.701	-38.4
255.917	57.86
256.134	-15.87
256.351	6.66
256.567	27.14
256.784	-3.58
257	66.05
257.217	121.34
257.433	47.62
257.65	51.71
257.866	8.7
258.082	49.66
258.299	-62.98
258.515	94.72
258.732	80.38
258.948	41.47
259.165	96.77
259.381	-11.78
259.597	41.47
259.814	135.68
260.03	0.51
260.246	43.52
260.463	-3.58
260.679	98.81
260.895	152.06
261.112	51.71
261.328	12.8
261.544	6.66
261.761	150.01
261.977	-15.87
262.193	-28.16
262.409	43.52
262.626	66.05
262.842	57.86
263.058	0.51
263.274	14.85
263.49	53.76
263.707	35.33
263.923	59.9
264.139	23.04
264.355	68.09
264.571	51.71
264.787	39.42
265.004	117.25
265.22	-5.63
265.436	49.66
265.652	-36.35
265.868	4.61
266.084	8.7
266.3	16.9
266.516	8.7
266.732	70.14
266.948	49.66
267.164	43.52
267.38	41.47
267.596	80.38
267.812	127.49
268.028	-26.11
268.244	-11.78
268.46	6.66
268.676	8.7
268.892	29.18
269.108	68.09
269.324	53.76
269.54	-34.3
269.756	74.24
269.972	82.43
270.188	39.42
270.403	0.51
270.619	25.09
270.835	25.09
271.051	57.86
271.267	35.33
271.483	23.04
271.698	39.42
271.914	117.25
272.13	25.09
272.346	35.33
272.562	10.75
272.777	92.67
272.993	61.95
273.209	-15.87
273.425	47.62
273.64	4.61
273.856	61.95
274.072	35.33
274.287	-5.63
274.503	82.43
274.719	61.95
274.934	49.66
275.15	-34.3
275.366	16.9
275.581	0.51
275.797	20.99
276.012	107.01
276.228	18.94
276.444	53.76
276.659	117.25
276.875	55.81
277.09	-5.63
277.306	6.66
277.521	37.38
277.737	164.35
277.952	96.77
278.168	47.62
278.383	45.57
278.599	61.95
278.814	47.62
279.03	64
279.245	76.29
279.461	49.66
279.676	84.48
279.892	-11.78
280.107	10.75
280.322	31.23
280.538	-36.35
280.753	20.99
280.969	0.51
281.184	20.99
281.399	74.24
281.615	-36.35
281.83	43.52
282.045	88.57
282.26	-24.06
282.476	-62.98
282.691	94.72
282.906	12.8
283.122	39.42
283.337	-75.26
283.552	39.42
283.767	-5.63
283.983	90.62
284.198	12.8
284.413	-1.54
284.628	-24.06
284.843	55.81
285.058	121.34
285.274	37.38
285.489	27.14
285.704	4.61
285.919	-15.87
286.134	35.33
286.349	35.33
286.564	61.95
286.779	94.72
286.995	-3.58
287.21	8.7
287.425	51.71
287.64	-3.58
287.855	33.28
288.07	4.61
288.285	10.75
288.5	10.75
288.715	20.99
288.93	-3.58
289.145	45.57
289.36	29.18
289.575	14.85
289.79	84.48
290.004	31.23
290.219	123.39
290.434	51.71
290.649	94.72
290.864	84.48
291.079	49.66
291.294	-7.68
291.509	31.23
291.724	33.28
291.938	72.19
292.153	43.52
292.368	-24.06
292.583	90.62
292.798	16.9
293.012	33.28
293.227	33.28
293.442	49.66
293.657	94.72
293.871	84.48
294.086	16.9
294.301	29.18
294.516	33.28
294.73	68.09
294.945	6.66
295.16	51.71
295.374	33.28
295.589	82.43
295.804	27.14
296.018	37.38
296.233	35.33
296.447	74.24
296.662	-48.64
296.877	53.76
297.091	82.43
297.306	-3.58
297.52	-28.16
297.735	74.24
297.949	100.86
298.164	41.47
298.378	49.66
298.593	-24.06
298.807	72.19
299.022	37.38
299.236	84.48
299.451	80.38
299.665	6.66
299.88	0.51
300.094	-13.82
300.309	70.14
300.523	4.61
300.737	12.8
300.952	43.52
301.166	29.18
301.381	-1.54
301.595	14.85
301.809	0.51
302.024	41.47
302.238	39.42
302.452	113.15
302.667	25.09
302.881	82.43
303.095	-9.73
303.309	57.86
303.524	64
303.738	31.23
303.952	23.04
304.166	-5.63
304.381	35.33
304.595	80.38
304.809	-42.5
305.023	74.24
305.237	31.23
305.452	125.44
305.666	158.21
305.88	51.71
306.094	31.23
306.308	39.42
306.522	86.53
306.736	90.62
306.95	-19.97
307.164	-7.68
307.379	57.86
307.593	107.01
307.807	51.71
308.021	20.99
308.235	4.61
308.449	47.62
308.663	86.53
308.877	104.96
309.091	27.14
309.305	98.81
309.519	-42.5
309.733	154.11
309.947	-1.54
310.161	160.25
310.374	37.38
310.588	41.47
310.802	-30.21
311.016	-36.35
311.23	35.33
311.444	39.42
311.658	64
311.872	100.86
312.085	117.25
312.299	72.19
312.513	43.52
312.727	55.81
312.941	10.75
313.154	197.12
313.368	82.43
313.582	66.05
313.796	-56.83
314.009	84.48
314.223	82.43
314.437	121.34
314.651	27.14
314.864	-5.63
315.078	4.61
315.292	-3.58
315.505	-11.78
315.719	41.47
315.933	68.09
316.146	4.61
316.36	-28.16
316.573	107.01
316.787	70.14
317.001	137.73
317.214	6.66
317.428	80.38
317.641	12.8
317.855	-5.63
318.068	100.86
318.282	41.47
318.495	47.62
318.709	125.44
318.922	25.09
319.136	51.71
319.349	47.62
319.563	23.04
319.776	20.99
319.99	20.99
320.203	51.71
320.417	-3.58
320.63	90.62
320.843	76.29
321.057	78.33
321.27	12.8
321.483	49.66
321.697	49.66
321.91	90.62
322.124	-26.11
322.337	16.9
322.55	68.09
322.763	53.76
322.977	35.33
323.19	64
323.403	0.51
323.617	27.14
323.83	76.29
324.043	0.51
324.256	25.09
324.469	-11.78
324.683	53.76
324.896	-50.69
325.109	31.23
325.322	41.47
325.535	25.09
325.748	49.66
325.962	-15.87
326.175	6.66
326.388	80.38
326.601	76.29
326.814	49.66
327.027	68.09
327.24	102.91
327.453	-1.54
327.666	-13.82
327.879	29.18
328.092	84.48
328.305	84.48
328.518	31.23
328.731	12.8
328.944	160.25
329.157	14.85
329.37	84.48
329.583	4.61
329.796	86.53
330.009	51.71
330.222	16.9
330.435	45.57
330.648	18.94
330.861	20.99
331.073	70.14
331.286	98.81
331.499	70.14
331.712	64
331.925	59.9
332.138	41.47
332.35	92.67
332.563	23.04
332.776	84.48
332.989	-9.73
333.202	-65.02
333.414	35.33
333.627	14.85
333.84	72.19
334.053	111.1
334.265	47.62
334.478	-11.78
334.691	-5.63
334.903	59.9
335.116	10.75
335.329	27.14
335.541	133.63
335.754	82.43
335.966	-15.87
336.179	0.51
336.392	47.62
336.604	47.62
336.817	76.29
337.029	39.42
337.242	27.14
337.454	86.53
337.667	57.86
337.88	31.23
338.092	23.04
338.305	98.81
338.517	27.14
338.729	104.96
338.942	66.05
339.154	27.14
339.367	37.38
339.579	57.86
339.792	-7.68
340.004	104.96
340.217	18.94
340.429	107.01
340.641	49.66
340.854	119.29
341.066	14.85
341.278	94.72
341.491	113.15
341.703	27.14
341.915	78.33
342.128	66.05
342.34	96.77
342.552	-7.68
342.764	55.81
342.977	20.99
343.189	20.99
343.401	68.09
343.613	6.66
343.826	78.33
344.038	12.8
344.25	18.94
344.462	47.62
344.674	43.52
344.886	4.61
345.099	45.57
345.311	43.52
345.523	2.56
345.735	-19.97
345.947	53.76
346.159	47.62
346.371	14.85
346.583	12.8
346.795	98.81
347.007	88.57
347.219	51.71
347.431	90.62
347.643	59.9
347.855	39.42
348.067	57.86
348.279	-1.54
348.491	70.14
348.703	8.7
348.915	41.47
349.127	16.9
349.339	49.66
349.551	47.62
349.763	137.73
349.975	23.04
350.187	66.05
350.399	57.86
350.61	31.23
350.822	78.33
351.034	66.05
351.246	33.28
351.458	14.85
351.669	27.14
351.881	88.57
352.093	-5.63
352.305	88.57
352.517	80.38
352.728	141.82
352.94	12.8
353.152	49.66
353.363	-24.06
353.575	70.14
353.787	154.11
353.999	125.44
354.21	94.72
354.422	43.52
354.633	111.1
354.845	-15.87
355.057	117.25
355.268	64
355.48	64
355.692	123.39
355.903	16.9
356.115	43.52
356.326	-38.4
356.538	66.05
356.749	92.67
356.961	119.29
357.172	41.47
357.384	0.51
357.595	92.67
357.807	27.14
358.018	37.38
358.23	96.77
358.441	94.72
358.653	33.28
358.864	96.77
359.075	18.94
359.287	82.43
359.498	74.24
359.709	20.99
359.921	16.9
360.132	80.38
360.344	111.1
360.555	20.99
360.766	49.66
360.977	-13.82
361.189	31.23
361.4	18.94
361.611	90.62
361.823	127.49
362.034	6.66
362.245	51.71
362.456	100.86
362.667	76.29
362.879	74.24
363.09	80.38
363.301	43.52
363.512	90.62
363.723	16.9
363.935	-13.82
364.146	121.34
364.357	147.97
364.568	61.95
364.779	61.95
364.99	18.94
365.201	53.76
365.412	88.57
365.623	20.99
365.834	102.91
366.045	94.72
366.256	49.66
366.467	25.09
366.678	18.94
366.889	92.67
367.1	68.09
367.311	45.57
367.522	29.18
367.733	68.09
367.944	137.73
368.155	23.04
368.366	133.63
368.577	107.01
368.788	88.57
368.999	41.47
369.209	37.38
369.42	115.2
369.631	96.77
369.842	107.01
370.053	76.29
370.264	47.62
370.474	27.14
370.685	-1.54
370.896	39.42
371.107	94.72
371.317	-3.58
371.528	29.18
371.739	121.34
371.95	78.33
372.16	92.67
372.371	76.29
372.582	31.23
372.792	25.09
373.003	4.61
373.214	16.9
373.424	123.39
373.635	39.42
373.846	115.2
374.056	41.47
374.267	41.47
374.477	88.57
374.688	0.51
374.898	25.09
375.109	86.53
375.319	39.42
375.53	141.82
375.74	80.38
375.951	76.29
376.161	94.72
376.372	84.48
376.582	68.09
376.793	70.14
377.003	53.76
377.214	4.61
377.424	37.38
377.635	78.33
377.845	-32.26
378.055	18.94
378.266	0.51
378.476	133.63
378.686	29.18
378.897	25.09
379.107	96.77
379.317	109.05
379.528	86.53
379.738	43.52
379.948	18.94
380.158	158.21
380.369	18.94
380.579	43.52
380.789	43.52
380.999	61.95
381.21	23.04
381.42	72.19
381.63	100.86
381.84	111.1
382.05	70.14
382.261	78.33
382.471	61.95
382.681	111.1
382.891	72.19
383.101	88.57
383.311	14.85
383.521	57.86
383.731	90.62
383.941	59.9
384.151	68.09
384.361	27.14
384.571	88.57
384.781	55.81
384.991	80.38
385.201	72.19
385.411	96.77
385.621	104.96
385.831	35.33
386.041	82.43
386.251	37.38
386.461	57.86
386.671	-1.54
386.881	70.14
387.091	59.9
387.301	139.77
387.511	147.97
387.72	53.76
387.93	104.96
388.14	-7.68
388.35	88.57
388.56	86.53
388.769	76.29
388.979	66.05
389.189	57.86
389.399	64
389.609	47.62
389.818	127.49
390.028	72.19
390.238	70.14
390.447	14.85
390.657	152.06
390.867	18.94
391.076	68.09
391.286	18.94
391.496	102.91
391.705	64
391.915	70.14
392.125	158.21
392.334	119.29
392.544	80.38
392.753	109.05
392.963	49.66
393.172	121.34
393.382	8.7
393.591	123.39
393.801	121.34
394.01	80.38
394.22	104.96
394.429	162.3
394.639	4.61
394.848	92.67
395.058	41.47
395.267	80.38
395.477	57.86
395.686	43.52
395.895	131.58
396.105	90.62
396.314	111.1
396.524	98.81
396.733	143.87
396.942	203.26
397.152	156.16
397.361	139.77
397.57	72.19
397.78	158.21
397.989	133.63
398.198	186.88
398.407	45.57
398.617	76.29
398.826	66.05
399.035	127.49
399.244	172.54
399.453	47.62
399.663	111.1
399.872	162.3
400.081	94.72
400.29	268.8
400.499	39.42
400.708	178.69
400.917	102.91
401.127	70.14
401.336	111.1
401.545	139.77
401.754	119.29
401.963	172.54
402.172	193.02
402.381	123.39
402.59	121.34
402.799	41.47
403.008	176.64
403.217	176.64
403.426	102.91
403.635	164.35
403.844	156.16
404.053	174.59
404.262	111.1
404.471	219.64
404.68	184.83
404.888	176.64
405.097	203.26
405.306	184.83
405.515	203.26
405.724	135.68
405.933	199.16
406.142	231.93
406.35	203.26
406.559	229.88
406.768	242.17
406.977	236.03
407.185	254.46
407.394	199.16
407.603	125.44
407.812	236.03
408.02	168.45
408.229	270.84
408.438	156.16
408.646	256.51
408.855	276.99
409.064	287.23
409.272	307.71
409.481	268.8
409.69	295.42
409.898	322.04
410.107	391.67
410.315	393.72
410.524	332.28
410.733	338.43
410.941	371.19
411.15	346.62
411.358	440.83
411.567	496.12
411.775	416.25
411.984	469.5
412.192	539.13
412.401	465.4
412.609	494.07
412.818	543.22
413.026	498.17
413.234	573.94
413.443	580.09
413.651	555.51
413.86	561.66
414.068	621.05
414.276	659.96
414.485	526.84
414.693	735.73
414.901	682.49
415.11	764.4
415.318	766.45
415.526	786.93
415.734	846.32
415.943	860.66
416.151	854.51
416.359	848.37
416.567	936.43
416.776	981.49
416.984	950.77
417.192	913.91
417.4	1098.22
417.608	1051.12
417.817	1047.02
418.025	1073.65
418.233	1245.68
418.441	1104.37
418.649	1262.06
418.857	1245.68
419.065	1337.84
419.273	1253.87
419.481	1374.7
419.689	1491.43
419.897	1638.89
420.105	1573.35
420.313	1634.79
420.521	1632.74
420.729	1677.8
420.937	1763.81
421.145	1909.22
421.353	1984.99
421.561	1976.8
421.769	1929.7
421.977	2132.45
422.185	1995.23
422.393	2228.7
422.601	2349.53
422.809	2329.05
423.017	2245.09
423.224	2404.83
423.432	2589.14
423.64	2589.14
423.848	2703.83
424.056	2658.78
424.263	2984.4
424.471	3000.79
424.679	2963.92
424.887	3135.95
425.094	3264.97
425.302	3369.42
425.51	3387.85
425.718	3424.72
425.925	3635.66
426.133	3674.57
426.341	3684.81
426.548	4032.96
426.756	3965.38
426.964	4090.31
427.171	4340.16
427.379	4438.46
427.586	4532.67
427.794	4663.74
428.001	4716.98
428.209	5208.5
428.417	4981.17
428.624	5302.7
428.832	5351.85
429.039	5231.02
429.247	5368.24
429.454	5747.11
429.662	6320.54
429.869	5786.02
430.076	6087.08
430.284	5941.67
430.491	6357.41
430.699	6498.72
430.906	6461.85
431.114	6726.04
431.321	6869.4
431.528	7127.44
431.736	7606.67
431.943	7840.14
432.15	7686.54
432.358	7950.73
432.565	8440.19
432.772	8204.67
432.979	8671.61
433.187	8479.1
433.394	8886.65
433.601	9404.78
433.808	9507.18
434.016	9433.46
434.223	9738.6
434.43	10522.98
434.637	10318.18
434.844	10832.22
435.052	11037.02
435.259	11075.93
435.466	11061.59
435.673	10805.6
435.88	11643.21
436.087	12259.65
436.294	12253.51
436.501	12126.53
436.708	12259.65
436.915	12796.22
437.122	12996.92
437.329	13320.5
437.537	13592.88
437.743	13934.89
437.95	13762.86
438.157	14340.39
438.364	15184.15
438.571	15151.38
438.778	14928.16
438.985	16599.3
439.192	15841.55
439.399	16138.51
439.606	16066.83
439.813	16750.85
440.02	17930.48
440.227	17608.95
440.433	17371.38
440.64	18043.12
440.847	17864.94
441.054	18247.91
441.261	19488.98
441.467	19290.33
441.674	19556.57
441.881	20170.96
442.088	20252.87
442.294	20017.36
442.501	20719.81
442.708	20988.1
442.914	22018.22
443.121	22907.04
443.328	22460.59
443.534	23761.05
443.741	23113.89
443.948	22874.27
444.154	24264.85
444.361	24412.3
444.568	24438.92
444.774	24486.03
444.981	24649.86
445.187	25434.24
445.394	26527.85
445.6	26257.52
445.807	28465.23
446.013	27496.54
446.22	28268.62
446.426	29020.23
446.633	29491.26
446.839	30371.89
447.046	28979.27
447.252	30392.37
447.459	30736.43
447.665	30455.86
447.871	31948.82
448.078	33619.97
448.284	31705.12
448.491	32903.18
448.697	33611.78
448.903	34838.51
449.11	34574.32
449.316	34119.67
449.522	34498.55
449.728	35250.15
449.935	35854.3
450.141	35852.25
450.347	36491.22
450.553	35571.68
450.76	36032.47
450.966	37285.83
451.172	36601.81
451.378	37343.17
451.584	36906.96
451.791	37885.89
451.997	38090.68
452.203	37889.98
452.409	38553.52
452.615	37760.96
452.821	36808.65
453.027	36282.33
453.233	38428.6
453.44	36761.55
453.646	37232.58
453.852	37517.25
454.058	38125.5
454.264	36822.99
454.47	37611.46
454.676	36624.34
454.882	38340.53
455.088	34545.65
455.294	34951.15
455.5	35815.39
455.705	36034.52
455.911	34813.93
456.117	33996.79
456.323	33398.79
456.529	31975.45
456.735	33026.06
456.941	32178.2
457.147	31903.77
457.352	30853.16
457.558	30357.55
457.764	30335.03
457.97	29956.15
458.176	29589.56
458.381	29368.38
458.587	27861.08
458.793	27607.13
458.999	26464.36
459.204	28344.4
459.41	27498.59
459.616	25856.12
459.821	25745.53
460.027	25931.89
460.233	24891.52
460.438	23726.23
460.644	24270.99
460.85	22925.47
461.055	22507.69
461.261	22460.59
461.466	20893.89
461.672	20324.55
461.878	21954.74
462.083	20256.97
462.289	20041.93
462.494	19781.84
462.7	19091.68
462.905	17989.87
463.111	18913.5
463.316	18991.33
463.522	18634.98
463.727	18903.26
463.932	18465
464.138	18407.66
464.343	18680.03
464.549	17944.81
464.754	18456.81
464.959	18385.13
465.165	18311.4
465.37	17731.83
465.575	17264.89
465.781	17965.29
465.986	17746.16
466.191	17254.65
466.397	16910.59
466.602	16216.33
466.807	16480.52
467.012	16664.83
467.218	16558.34
467.423	16304.39
