Data from USB4F104151__2__12-40-51-598.txt Node

Date: Fri Mar 14 12:40:51 EDT 2025
User: louis
Spectrometer: USB4F10415
Trigger mode: 4
Integration Time (sec): 3.000000E-2
Scans to average: 1
Electric dark correction enabled: true
Nonlinearity correction enabled: false
Boxcar width: 0
XAxis mode: Wavelengths
Number of Pixels in Spectrum: 3648
>>>>>Begin Spectral Data<<<<<
178.204	-107.01
178.424	-107.01
178.644	-107.01
178.864	-123.39
179.084	-57.86
179.304	-72.19
179.524	15.87
179.744	-8.7
179.964	52.74
180.184	-68.09
180.404	-2.56
180.624	1.54
180.844	71.17
181.064	-25.09
181.283	13.82
181.503	13.82
181.723	7.68
181.943	19.97
182.163	93.69
182.383	-29.18
182.602	89.6
182.822	-8.7
183.042	22.02
183.262	5.63
183.482	22.02
183.701	9.73
183.921	83.45
184.141	9.73
184.361	24.06
184.58	46.59
184.8	17.92
185.02	-64
185.239	38.4
185.459	17.92
185.679	26.11
185.898	28.16
186.118	56.83
186.338	15.87
186.557	-2.56
186.777	-6.66
186.997	-49.66
187.216	13.82
187.436	105.98
187.655	48.64
187.875	65.02
188.095	91.65
188.314	124.41
188.534	118.27
188.753	40.45
188.973	54.78
189.192	46.59
189.412	15.87
189.631	22.02
189.851	105.98
190.07	52.74
190.29	-64
190.509	22.02
190.729	-2.56
190.948	17.92
191.168	146.94
191.387	42.5
191.607	42.5
191.826	54.78
192.045	-12.8
192.265	56.83
192.484	-12.8
192.704	15.87
192.923	-25.09
193.142	75.26
193.362	97.79
193.581	81.41
193.8	17.92
194.02	52.74
194.239	69.12
194.458	-6.66
194.678	19.97
194.897	99.84
195.116	89.6
195.335	-20.99
195.555	73.21
195.774	65.02
195.993	116.22
196.212	9.73
196.432	19.97
196.651	38.4
196.87	22.02
197.089	85.5
197.308	67.07
197.528	28.16
197.747	54.78
197.966	40.45
198.185	97.79
198.404	85.5
198.623	9.73
198.842	-18.94
199.062	65.02
199.281	28.16
199.5	69.12
199.719	36.35
199.938	38.4
200.157	75.26
200.376	54.78
200.595	136.7
200.814	136.7
201.033	81.41
201.252	91.65
201.471	-16.9
201.69	89.6
201.909	56.83
202.128	42.5
202.347	73.21
202.566	19.97
202.785	105.98
203.004	15.87
203.223	110.08
203.442	-68.09
203.661	24.06
203.879	34.3
204.098	30.21
204.317	-29.18
204.536	32.26
204.755	130.56
204.974	-0.51
205.193	93.69
205.411	108.03
205.63	48.64
205.849	60.93
206.068	42.5
206.287	75.26
206.505	75.26
206.724	52.74
206.943	44.54
207.162	73.21
207.381	26.11
207.599	-27.14
207.818	-4.61
208.037	40.45
208.255	24.06
208.474	-6.66
208.693	24.06
208.911	97.79
209.13	44.54
209.349	32.26
209.567	67.07
209.786	71.17
210.005	38.4
210.223	24.06
210.442	50.69
210.661	54.78
210.879	40.45
211.098	34.3
211.316	7.68
211.535	40.45
211.753	-0.51
211.972	93.69
212.191	73.21
212.409	-41.47
212.628	26.11
212.846	19.97
213.065	60.93
213.283	130.56
213.502	38.4
213.72	54.78
213.938	85.5
214.157	-12.8
214.375	79.36
214.594	5.63
214.812	22.02
215.031	-0.51
215.249	52.74
215.467	17.92
215.686	9.73
215.904	116.22
216.122	30.21
216.341	81.41
216.559	17.92
216.778	79.36
216.996	50.69
217.214	65.02
217.432	40.45
217.651	30.21
217.869	32.26
218.087	5.63
218.306	95.74
218.524	103.93
218.742	28.16
218.96	99.84
219.179	40.45
219.397	7.68
219.615	99.84
219.833	28.16
220.051	-25.09
220.27	62.98
220.488	40.45
220.706	46.59
220.924	89.6
221.142	77.31
221.36	89.6
221.578	-43.52
221.796	116.22
222.015	24.06
222.233	101.89
222.451	32.26
222.669	48.64
222.887	97.79
223.105	60.93
223.323	48.64
223.541	54.78
223.759	7.68
223.977	46.59
224.195	26.11
224.413	-39.42
224.631	91.65
224.849	42.5
225.067	38.4
225.285	58.88
225.503	54.78
225.721	-14.85
225.939	67.07
226.157	-45.57
226.375	130.56
226.592	46.59
226.81	81.41
227.028	71.17
227.246	116.22
227.464	71.17
227.682	32.26
227.9	46.59
228.117	87.55
228.335	40.45
228.553	73.21
228.771	24.06
228.989	75.26
229.206	67.07
229.424	54.78
229.642	65.02
229.86	-14.85
230.077	112.13
230.295	19.97
230.513	50.69
230.731	-6.66
230.948	105.98
231.166	36.35
231.384	5.63
231.601	58.88
231.819	48.64
232.037	50.69
232.254	34.3
232.472	-53.76
232.689	-78.33
232.907	110.08
233.125	24.06
233.342	42.5
233.56	1.54
233.777	69.12
233.995	28.16
234.213	91.65
234.43	44.54
234.648	75.26
234.865	44.54
235.083	97.79
235.3	101.89
235.518	101.89
235.735	161.28
235.953	52.74
236.17	9.73
236.388	93.69
236.605	-14.85
236.822	73.21
237.04	52.74
237.257	15.87
237.475	48.64
237.692	89.6
237.909	71.17
238.127	73.21
238.344	46.59
238.562	22.02
238.779	38.4
238.996	-53.76
239.214	38.4
239.431	42.5
239.648	24.06
239.865	-39.42
240.083	54.78
240.3	-23.04
240.517	52.74
240.735	91.65
240.952	71.17
241.169	40.45
241.386	62.98
241.603	48.64
241.821	-33.28
242.038	52.74
242.255	79.36
242.472	73.21
242.689	83.45
242.907	24.06
243.124	56.83
243.341	54.78
243.558	52.74
243.775	50.69
243.992	3.58
244.209	19.97
244.426	44.54
244.643	75.26
244.86	-18.94
245.078	1.54
245.295	15.87
245.512	95.74
245.729	-16.9
245.946	42.5
246.163	32.26
246.38	42.5
246.597	30.21
246.814	32.26
247.031	89.6
247.248	58.88
247.464	19.97
247.681	89.6
247.898	85.5
248.115	138.75
248.332	69.12
248.549	71.17
248.766	46.59
248.983	105.98
249.2	19.97
249.417	99.84
249.633	50.69
249.85	32.26
250.067	87.55
250.284	60.93
250.501	52.74
250.717	40.45
250.934	-2.56
251.151	5.63
251.368	-53.76
251.585	105.98
251.801	28.16
252.018	-49.66
252.235	146.94
252.451	3.58
252.668	-23.04
252.885	58.88
253.102	48.64
253.318	-25.09
253.535	-10.75
253.752	24.06
253.968	71.17
254.185	-8.7
254.401	15.87
254.618	97.79
254.835	17.92
255.051	128.51
255.268	103.93
255.484	42.5
255.701	9.73
255.917	69.12
256.134	34.3
256.351	105.98
256.567	-16.9
256.784	-16.9
257	-23.04
257.217	95.74
257.433	65.02
257.65	67.07
257.866	128.51
258.082	-20.99
258.299	32.26
258.515	114.17
258.732	60.93
258.948	22.02
259.165	30.21
259.381	28.16
259.597	-8.7
259.814	-35.33
260.03	44.54
260.246	87.55
260.463	65.02
260.679	60.93
260.895	34.3
261.112	3.58
261.328	95.74
261.544	83.45
261.761	46.59
261.977	-53.76
262.193	9.73
262.409	77.31
262.626	-2.56
262.842	1.54
263.058	58.88
263.274	71.17
263.49	85.5
263.707	69.12
263.923	81.41
264.139	11.78
264.355	7.68
264.571	-27.14
264.787	112.13
265.004	58.88
265.22	50.69
265.436	11.78
265.652	103.93
265.868	38.4
266.084	24.06
266.3	52.74
266.516	120.32
266.732	67.07
266.948	81.41
267.164	46.59
267.38	28.16
267.596	48.64
267.812	52.74
268.028	58.88
268.244	-8.7
268.46	48.64
268.676	3.58
268.892	3.58
269.108	48.64
269.324	62.98
269.54	69.12
269.756	83.45
269.972	-6.66
270.188	83.45
270.403	15.87
270.619	34.3
270.835	62.98
271.051	89.6
271.267	58.88
271.483	26.11
271.698	116.22
271.914	99.84
272.13	19.97
272.346	40.45
272.562	60.93
272.777	116.22
272.993	58.88
273.209	77.31
273.425	83.45
273.64	34.3
273.856	52.74
274.072	1.54
274.287	32.26
274.503	85.5
274.719	52.74
274.934	91.65
275.15	1.54
275.366	81.41
275.581	28.16
275.797	110.08
276.012	65.02
276.228	7.68
276.444	-39.42
276.659	126.46
276.875	40.45
277.09	40.45
277.306	34.3
277.521	58.88
277.737	95.74
277.952	62.98
278.168	95.74
278.383	71.17
278.599	56.83
278.814	56.83
279.03	73.21
279.245	65.02
279.461	42.5
279.676	65.02
279.892	-45.57
280.107	58.88
280.322	38.4
280.538	83.45
280.753	17.92
280.969	30.21
281.184	69.12
281.399	101.89
281.615	-10.75
281.83	38.4
282.045	-66.05
282.26	-6.66
282.476	73.21
282.691	24.06
282.906	79.36
283.122	97.79
283.337	-23.04
283.552	97.79
283.767	-2.56
283.983	83.45
284.198	42.5
284.413	32.26
284.628	-29.18
284.843	1.54
285.058	71.17
285.274	22.02
285.489	-14.85
285.704	79.36
285.919	30.21
286.134	67.07
286.349	118.27
286.564	58.88
286.779	77.31
286.995	32.26
287.21	-66.05
287.425	48.64
287.64	13.82
287.855	105.98
288.07	56.83
288.285	67.07
288.5	44.54
288.715	44.54
288.93	-2.56
289.145	40.45
289.36	15.87
289.575	157.18
289.79	58.88
290.004	28.16
290.219	91.65
290.434	-14.85
290.649	28.16
290.864	103.93
291.079	69.12
291.294	99.84
291.509	79.36
291.724	58.88
291.938	-8.7
292.153	130.56
292.368	7.68
292.583	85.5
292.798	36.35
293.012	34.3
293.227	67.07
293.442	30.21
293.657	56.83
293.871	77.31
294.086	-18.94
294.301	87.55
294.516	73.21
294.73	11.78
294.945	9.73
295.16	58.88
295.374	50.69
295.589	60.93
295.804	40.45
296.018	54.78
296.233	75.26
296.447	99.84
296.662	85.5
296.877	77.31
297.091	97.79
297.306	26.11
297.52	58.88
297.735	75.26
297.949	87.55
298.164	83.45
298.378	17.92
298.593	24.06
298.807	22.02
299.022	52.74
299.236	40.45
299.451	89.6
299.665	1.54
299.88	87.55
300.094	71.17
300.309	46.59
300.523	69.12
300.737	85.5
300.952	19.97
301.166	56.83
301.381	118.27
301.595	-12.8
301.809	65.02
302.024	91.65
302.238	17.92
302.452	30.21
302.667	5.63
302.881	77.31
303.095	46.59
303.309	118.27
303.524	13.82
303.738	56.83
303.952	32.26
304.166	134.65
304.381	7.68
304.595	93.69
304.809	3.58
305.023	67.07
305.237	42.5
305.452	58.88
305.666	36.35
305.88	9.73
306.094	73.21
306.308	91.65
306.522	99.84
306.736	42.5
306.95	120.32
307.164	-16.9
307.379	17.92
307.593	56.83
307.807	38.4
308.021	132.61
308.235	73.21
308.449	28.16
308.663	46.59
308.877	120.32
309.091	91.65
309.305	38.4
309.519	-12.8
309.733	32.26
309.947	42.5
310.161	103.93
310.374	-29.18
310.588	73.21
310.802	-18.94
311.016	91.65
311.23	5.63
311.444	85.5
311.658	54.78
311.872	83.45
312.085	60.93
312.299	120.32
312.513	44.54
312.727	-12.8
312.941	-29.18
313.154	60.93
313.368	54.78
313.582	62.98
313.796	9.73
314.009	19.97
314.223	-10.75
314.437	34.3
314.651	54.78
314.864	30.21
315.078	-31.23
315.292	40.45
315.505	34.3
315.719	32.26
315.933	83.45
316.146	-35.33
316.36	56.83
316.573	163.33
316.787	93.69
317.001	24.06
317.214	40.45
317.428	116.22
317.641	28.16
317.855	9.73
318.068	-12.8
318.282	60.93
318.495	95.74
318.709	73.21
318.922	89.6
319.136	177.66
319.349	120.32
319.563	34.3
319.776	52.74
319.99	85.5
320.203	65.02
320.417	71.17
320.63	42.5
320.843	103.93
321.057	60.93
321.27	48.64
321.483	75.26
321.697	95.74
321.91	30.21
322.124	83.45
322.337	73.21
322.55	73.21
322.763	42.5
322.977	148.99
323.19	17.92
323.403	77.31
323.617	-16.9
323.83	93.69
324.043	50.69
324.256	56.83
324.469	13.82
324.683	73.21
324.896	44.54
325.109	46.59
325.322	13.82
325.535	5.63
325.748	58.88
325.962	-6.66
326.175	54.78
326.388	105.98
326.601	69.12
326.814	32.26
327.027	128.51
327.24	54.78
327.453	-6.66
327.666	52.74
327.879	58.88
328.092	48.64
328.305	71.17
328.518	56.83
328.731	30.21
328.944	67.07
329.157	95.74
329.37	73.21
329.583	77.31
329.796	202.24
330.009	28.16
330.222	24.06
330.435	120.32
330.648	24.06
330.861	52.74
331.073	93.69
331.286	75.26
331.499	40.45
331.712	32.26
331.925	87.55
332.138	40.45
332.35	75.26
332.563	122.37
332.776	67.07
332.989	60.93
333.202	-4.61
333.414	95.74
333.627	3.58
333.84	54.78
334.053	120.32
334.265	103.93
334.478	-47.62
334.691	75.26
334.903	112.13
335.116	36.35
335.329	52.74
335.541	-10.75
335.754	136.7
335.966	5.63
336.179	54.78
336.392	46.59
336.604	15.87
336.817	38.4
337.029	73.21
337.242	17.92
337.454	73.21
337.667	38.4
337.88	71.17
338.092	42.5
338.305	75.26
338.517	75.26
338.729	42.5
338.942	110.08
339.154	58.88
339.367	-39.42
339.579	120.32
339.792	44.54
340.004	44.54
340.217	60.93
340.429	44.54
340.641	54.78
340.854	87.55
341.066	40.45
341.278	140.8
341.491	19.97
341.703	81.41
341.915	130.56
342.128	83.45
342.34	140.8
342.552	44.54
342.764	89.6
342.977	3.58
343.189	40.45
343.401	19.97
343.613	26.11
343.826	60.93
344.038	69.12
344.25	62.98
344.462	65.02
344.674	75.26
344.886	81.41
345.099	58.88
345.311	169.47
345.523	118.27
345.735	9.73
345.947	116.22
346.159	26.11
346.371	83.45
346.583	62.98
346.795	173.57
347.007	58.88
347.219	67.07
347.431	-23.04
347.643	95.74
347.855	56.83
348.067	89.6
348.279	-4.61
348.491	87.55
348.703	73.21
348.915	-29.18
349.127	46.59
349.339	105.98
349.551	52.74
349.763	28.16
349.975	62.98
350.187	65.02
350.399	58.88
350.61	118.27
350.822	108.03
351.034	71.17
351.246	93.69
351.458	50.69
351.669	103.93
351.881	130.56
352.093	105.98
352.305	83.45
352.517	97.79
352.728	105.98
352.94	95.74
353.152	62.98
353.363	-14.85
353.575	3.58
353.787	112.13
353.999	69.12
354.21	144.89
354.422	40.45
354.633	30.21
354.845	58.88
355.057	97.79
355.268	118.27
355.48	85.5
355.692	83.45
355.903	19.97
356.115	120.32
356.326	73.21
356.538	75.26
356.749	148.99
356.961	118.27
357.172	11.78
357.384	5.63
357.595	42.5
357.807	101.89
358.018	-2.56
358.23	65.02
358.441	73.21
358.653	99.84
358.864	44.54
359.075	67.07
359.287	132.61
359.498	73.21
359.709	83.45
359.921	110.08
360.132	101.89
360.344	128.51
360.555	85.5
360.766	5.63
360.977	69.12
361.189	161.28
361.4	52.74
361.611	81.41
361.823	103.93
362.034	36.35
362.245	3.58
362.456	91.65
362.667	60.93
362.879	3.58
363.09	97.79
363.301	81.41
363.512	73.21
363.723	15.87
363.935	77.31
364.146	91.65
364.357	87.55
364.568	-8.7
364.779	-14.85
364.99	187.9
365.201	1.54
365.412	15.87
365.623	22.02
365.834	62.98
366.045	40.45
366.256	67.07
366.467	38.4
366.678	11.78
366.889	116.22
367.1	65.02
367.311	140.8
367.522	32.26
367.733	60.93
367.944	93.69
368.155	36.35
368.366	93.69
368.577	77.31
368.788	146.94
368.999	83.45
369.209	46.59
369.42	146.94
369.631	169.47
369.842	83.45
370.053	85.5
370.264	97.79
370.474	67.07
370.685	75.26
370.896	73.21
371.107	89.6
371.317	103.93
371.528	-29.18
371.739	60.93
371.95	71.17
372.16	19.97
372.371	56.83
372.582	52.74
372.792	99.84
373.003	101.89
373.214	99.84
373.424	116.22
373.635	32.26
373.846	77.31
374.056	110.08
374.267	161.28
374.477	52.74
374.688	50.69
374.898	93.69
375.109	99.84
375.319	114.17
375.53	50.69
375.74	163.33
375.951	118.27
376.161	13.82
376.372	85.5
376.582	48.64
376.793	99.84
377.003	54.78
377.214	118.27
377.424	62.98
377.635	101.89
377.845	75.26
378.055	116.22
378.266	36.35
378.476	54.78
378.686	34.3
378.897	50.69
379.107	175.61
379.317	50.69
379.528	79.36
379.738	36.35
379.948	73.21
380.158	69.12
380.369	83.45
380.579	38.4
380.789	140.8
380.999	97.79
381.21	91.65
381.42	132.61
381.63	15.87
381.84	134.65
382.05	138.75
382.261	138.75
382.471	83.45
382.681	128.51
382.891	58.88
383.101	103.93
383.311	85.5
383.521	81.41
383.731	130.56
383.941	77.31
384.151	116.22
384.361	77.31
384.571	-0.51
384.781	36.35
384.991	130.56
385.201	136.7
385.411	24.06
385.621	73.21
385.831	60.93
386.041	153.09
386.251	69.12
386.461	114.17
386.671	79.36
386.881	22.02
387.091	87.55
387.301	65.02
387.511	91.65
387.72	138.75
387.93	101.89
388.14	108.03
388.35	114.17
388.56	114.17
388.769	101.89
388.979	108.03
389.189	75.26
389.399	62.98
389.609	75.26
389.818	175.61
390.028	56.83
390.238	120.32
390.447	73.21
390.657	83.45
390.867	114.17
391.076	77.31
391.286	181.76
391.496	67.07
391.705	22.02
391.915	118.27
392.125	58.88
392.334	34.3
392.544	110.08
392.753	32.26
392.963	58.88
393.172	77.31
393.382	65.02
393.591	192
393.801	132.61
394.01	157.18
394.22	89.6
394.429	36.35
394.639	177.66
394.848	183.81
395.058	99.84
395.267	79.36
395.477	153.09
395.686	138.75
395.895	124.41
396.105	189.95
396.314	146.94
396.524	204.28
396.733	97.79
396.942	116.22
397.152	155.13
397.361	171.52
397.57	140.8
397.78	220.67
397.989	155.13
398.198	179.71
398.407	77.31
398.617	103.93
398.826	192
399.035	108.03
399.244	40.45
399.453	73.21
399.663	124.41
399.872	161.28
400.081	118.27
400.29	163.33
400.499	114.17
400.708	134.65
400.917	155.13
401.127	130.56
401.336	148.99
401.545	253.44
401.754	126.46
401.963	189.95
402.172	136.7
402.381	114.17
402.59	148.99
402.799	171.52
403.008	148.99
403.217	196.09
403.426	204.28
403.635	112.13
403.844	161.28
404.053	171.52
404.262	189.95
404.471	282.11
404.68	220.67
404.888	163.33
405.097	198.14
405.306	198.14
405.515	173.57
405.724	159.23
405.933	189.95
406.142	220.67
406.35	214.52
406.559	249.34
406.768	251.39
406.977	312.83
407.185	278.01
407.394	286.2
407.603	237.05
407.812	316.92
408.02	314.88
408.229	364.03
408.438	253.44
408.646	282.11
408.855	288.25
409.064	343.55
409.272	327.16
409.481	394.75
409.69	396.79
409.898	421.37
410.107	423.42
410.315	353.79
410.524	458.23
410.733	419.32
410.941	450.04
411.15	425.47
411.358	574.97
411.567	505.34
411.775	634.36
411.984	513.53
412.192	534.01
412.401	564.73
412.609	640.5
412.818	667.13
413.026	681.46
413.234	759.28
413.443	620.02
413.651	695.8
413.86	747
414.068	847.35
414.276	847.35
414.485	814.58
414.693	884.21
414.901	888.31
415.11	857.59
415.318	894.45
415.526	890.35
415.734	990.7
415.943	1009.14
416.151	1103.34
416.359	1080.82
416.567	1107.44
416.776	1236.46
416.984	1228.27
417.192	1211.89
417.4	1424.87
417.608	1242.61
417.817	1314.28
418.025	1400.3
418.233	1521.13
418.441	1445.35
418.649	1549.8
418.857	1633.77
419.065	1664.49
419.273	1621.48
419.481	1711.59
419.689	1736.17
419.897	1852.9
420.105	2029.03
420.313	2026.98
420.521	2203.1
420.729	2080.22
420.937	2325.98
421.145	2354.65
421.353	2377.18
421.561	2457.05
421.769	2557.4
421.977	2760.15
422.185	2733.53
422.393	2719.19
422.601	3048.91
422.809	3014.1
423.017	3065.3
423.224	3253.71
423.432	3229.13
423.64	3335.63
423.848	3685.83
424.056	3532.23
424.263	3669.45
424.471	3745.22
424.679	3835.33
424.887	4085.19
425.094	4171.2
425.302	4191.68
425.51	4191.68
425.718	4533.69
425.925	4609.47
426.133	4801.97
426.341	4926.9
426.548	5139.89
426.756	5184.94
426.964	5324.21
427.171	5428.65
427.379	5711.27
427.586	5737.9
427.794	5973.41
428.001	6075.81
428.209	6645.15
428.417	6413.73
428.624	6667.67
428.832	6780.31
429.039	6845.85
429.247	6876.57
429.454	7404.94
429.662	7691.66
429.869	7458.19
430.076	7976.33
430.284	7863.69
430.491	7984.52
430.699	8451.46
430.906	8588.67
431.114	8654.2
431.321	8967.54
431.528	9131.38
431.736	9618.8
431.943	10229.09
432.15	9880.94
432.358	10026.34
432.565	10538.34
432.772	10585.44
432.979	11167.06
433.187	11038.04
433.394	11144.53
433.601	11933
433.808	11922.76
434.016	11949.39
434.223	12518.72
434.43	13192.5
434.637	13204.79
434.844	13946.16
435.052	14292.26
435.259	14011.69
435.466	14361.89
435.673	14089.51
435.88	14951.71
436.087	15742.22
436.294	15822.09
436.501	15291.67
436.708	15734.03
436.915	16506.12
437.122	17079.55
437.329	16815.36
437.537	17569.01
437.743	17718.51
437.95	17491.19
438.157	18412.78
438.364	19154.14
438.571	19209.43
438.778	19291.35
438.985	21023.94
439.192	20135.12
439.399	20800.71
439.606	20401.35
439.813	21753.01
440.02	22678.69
440.227	22428.84
440.433	22099.12
440.64	22842.53
440.847	22678.69
441.054	23221.41
441.261	24900.74
441.467	24370.32
441.674	25328.77
441.881	25959.54
442.088	25975.92
442.294	25502.84
442.501	26360.94
442.708	27044.96
442.914	28148.82
443.121	29201.47
443.328	28286.03
443.534	30223.41
443.741	29735.99
443.948	29185.09
444.154	31632.41
444.361	31061.03
444.568	31407.14
444.774	31300.64
444.981	31675.42
445.187	32525.33
445.394	34122.74
445.6	33563.65
445.807	36684.75
446.013	35230.69
446.22	35894.24
446.426	36936.65
446.633	37725.12
446.839	38769.58
447.046	37221.32
447.252	39457.7
447.459	39328.68
447.665	39093.16
447.871	40981.39
448.078	42552.18
448.284	40645.52
448.491	41681.8
448.697	43557.74
448.903	44194.65
449.11	44358.49
449.316	43807.59
449.522	44247.9
449.728	45394.76
449.935	45972.29
450.141	45761.35
450.347	46971.7
450.553	45499.21
450.76	45828.93
450.966	47117.11
451.172	46904.12
451.378	48120.61
451.584	47297.33
451.791	47909.67
451.997	47983.4
452.203	48798.49
452.409	48929.56
452.615	48552.73
452.821	47252.27
453.027	46723.9
453.233	49029.91
453.44	47381.29
453.646	47479.6
453.852	47491.88
454.058	48933.65
454.264	46932.79
454.47	48421.66
454.676	46861.11
454.882	48603.93
455.088	44663.64
455.294	44807
455.5	45400.91
455.705	46433.08
455.911	44397.4
456.117	43330.41
456.323	42838.9
456.529	40926.1
456.735	42892.15
456.941	41276.3
457.147	41061.26
457.352	39814.05
457.558	39025.58
457.764	39472.04
457.97	38556.6
458.176	38036.41
458.381	37809.09
458.587	35894.24
458.793	35492.83
458.999	33975.29
459.204	36357.08
459.41	35498.98
459.616	33104.9
459.821	33227.78
460.027	33051.66
460.233	32496.66
460.438	30940.2
460.644	31355.94
460.85	29463.61
461.055	29434.94
461.261	29373.5
461.466	27171.94
461.672	26440.81
461.878	27956.31
462.083	26270.83
462.289	25478.27
462.494	25498.75
462.7	24378.51
462.905	23641.24
463.111	24341.64
463.316	24657.03
463.522	24218.77
463.727	24374.41
463.932	23944.34
464.138	23790.74
464.343	23989.39
464.549	23248.03
464.754	24394.89
464.959	23680.15
465.165	23651.48
465.37	22598.82
465.575	22138.03
465.781	22953.12
465.986	23184.54
466.191	22363.31
466.397	22037.68
466.602	20628.68
466.807	21787.83
467.012	21540.02
