Data from USB4F104151__22__12-41-07-586.txt Node

Date: Fri Mar 14 12:41:07 EDT 2025
User: louis
Spectrometer: USB4F10415
Trigger mode: 4
Integration Time (sec): 3.000000E-2
Scans to average: 1
Electric dark correction enabled: true
Nonlinearity correction enabled: false
Boxcar width: 0
XAxis mode: Wavelengths
Number of Pixels in Spectrum: 3648
>>>>>Begin Spectral Data<<<<<
178.204	-85.33
178.424	-85.33
178.644	-85.33
178.864	-132.44
179.084	-128.34
179.304	27.31
179.524	-40.28
179.744	-95.57
179.964	51.88
180.184	-11.61
180.404	62.12
180.624	-5.46
180.844	-3.41
181.064	-77.14
181.283	53.93
181.503	-9.56
181.723	47.79
181.943	-38.23
182.163	109.23
182.383	72.36
182.602	51.88
182.822	17.07
183.042	55.98
183.262	-7.51
183.482	-27.99
183.701	-27.99
183.921	-13.65
184.141	-19.8
184.361	68.27
184.58	39.59
184.8	-36.18
185.02	35.5
185.239	64.17
185.459	0.68
185.679	19.11
185.898	-19.8
186.118	76.46
186.338	12.97
186.557	35.5
186.777	41.64
186.997	45.74
187.216	29.35
187.436	8.87
187.655	21.16
187.875	-25.94
188.095	21.16
188.314	21.16
188.534	51.88
188.753	25.26
188.973	25.26
189.192	68.27
189.412	68.27
189.631	78.51
189.851	6.83
190.07	27.31
190.29	-71
190.509	-17.75
190.729	-58.71
190.948	33.45
191.168	109.23
191.387	96.94
191.607	-44.37
191.826	17.07
192.045	21.16
192.265	-5.46
192.484	4.78
192.704	17.07
192.923	27.31
193.142	92.84
193.362	-7.51
193.581	55.98
193.8	64.17
194.02	94.89
194.239	39.59
194.458	23.21
194.678	-1.37
194.897	-17.75
195.116	51.88
195.335	-5.46
195.555	-7.51
195.774	-17.75
195.993	-3.41
196.212	-9.56
196.432	-79.19
196.651	47.79
196.87	-5.46
197.089	80.55
197.308	88.75
197.528	82.6
197.747	6.83
197.966	-13.65
198.185	51.88
198.404	-32.08
198.623	21.16
198.842	80.55
199.062	-1.37
199.281	84.65
199.5	-3.41
199.719	55.98
199.938	109.23
200.157	51.88
200.376	-1.37
200.595	90.79
200.814	-46.42
201.033	23.21
201.252	21.16
201.471	-34.13
201.69	41.64
201.909	86.7
202.128	35.5
202.347	60.07
202.566	27.31
202.785	6.83
203.004	-40.28
203.223	8.87
203.442	39.59
203.661	-1.37
203.879	-62.8
204.098	78.51
204.317	-11.61
204.536	74.41
204.755	-11.61
204.974	-5.46
205.193	-11.61
205.411	4.78
205.63	41.64
205.849	68.27
206.068	45.74
206.287	-32.08
206.505	31.4
206.724	51.88
206.943	31.4
207.162	8.87
207.381	-27.99
207.599	-34.13
207.818	64.17
208.037	94.89
208.255	-11.61
208.474	-36.18
208.693	4.78
208.911	25.26
209.13	-1.37
209.349	6.83
209.567	33.45
209.786	60.07
210.005	-50.52
210.223	-36.18
210.442	-44.37
210.661	68.27
210.879	-23.89
211.098	-30.04
211.316	76.46
211.535	121.51
211.753	2.73
211.972	12.97
212.191	-40.28
212.409	12.97
212.628	31.4
212.846	8.87
213.065	2.73
213.283	-1.37
213.502	29.35
213.72	43.69
213.938	2.73
214.157	109.23
214.375	-19.8
214.594	33.45
214.812	2.73
215.031	76.46
215.249	25.26
215.467	31.4
215.686	17.07
215.904	127.66
216.122	29.35
216.341	21.16
216.559	8.87
216.778	78.51
216.996	33.45
217.214	-23.89
217.432	27.31
217.651	-30.04
217.869	60.07
218.087	68.27
218.306	-11.61
218.524	31.4
218.742	-17.75
218.96	-5.46
219.179	-38.23
219.397	45.74
219.615	80.55
219.833	31.4
220.051	-17.75
220.27	123.56
220.488	53.93
220.706	27.31
220.924	-85.33
221.142	-34.13
221.36	33.45
221.578	-36.18
221.796	33.45
222.015	-50.52
222.233	-32.08
222.451	90.79
222.669	-21.84
222.887	55.98
223.105	-21.84
223.323	45.74
223.541	-54.61
223.759	80.55
223.977	2.73
224.195	80.55
224.413	35.5
224.631	45.74
224.849	-5.46
225.067	187.05
225.285	-38.23
225.503	-13.65
225.721	-87.38
225.939	55.98
226.157	21.16
226.375	74.41
226.592	-23.89
226.81	47.79
227.028	4.78
227.246	37.55
227.464	49.83
227.682	-25.94
227.9	-1.37
228.117	17.07
228.335	-19.8
228.553	25.26
228.771	64.17
228.989	-23.89
229.206	51.88
229.424	6.83
229.642	-3.41
229.86	8.87
230.077	-27.99
230.295	-46.42
230.513	60.07
230.731	33.45
230.948	39.59
231.166	98.99
231.384	8.87
231.601	-17.75
231.819	74.41
232.037	-62.8
232.254	-3.41
232.472	6.83
232.689	2.73
232.907	-1.37
233.125	-48.47
233.342	66.22
233.56	4.78
233.777	-32.08
233.995	96.94
234.213	10.92
234.43	41.64
234.648	-3.41
234.865	2.73
235.083	72.36
235.3	-17.75
235.518	66.22
235.735	105.13
235.953	-27.99
236.17	4.78
236.388	45.74
236.605	39.59
236.822	64.17
237.04	94.89
237.257	-15.7
237.475	39.59
237.692	72.36
237.909	33.45
238.127	31.4
238.344	33.45
238.562	27.31
238.779	-25.94
238.996	72.36
239.214	27.31
239.431	51.88
239.648	31.4
239.865	55.98
240.083	47.79
240.3	-32.08
240.517	-38.23
240.735	6.83
240.952	62.12
241.169	45.74
241.386	17.07
241.603	-7.51
241.821	-19.8
242.038	76.46
242.255	80.55
242.472	-32.08
242.689	78.51
242.907	39.59
243.124	-3.41
243.341	39.59
243.558	0.68
243.775	-46.42
243.992	-32.08
244.209	72.36
244.426	39.59
244.643	60.07
244.86	-32.08
245.078	-11.61
245.295	-36.18
245.512	45.74
245.729	-13.65
245.946	39.59
246.163	-5.46
246.38	31.4
246.597	47.79
246.814	29.35
247.031	23.21
247.248	19.11
247.464	19.11
247.681	-30.04
247.898	29.35
248.115	45.74
248.332	68.27
248.549	64.17
248.766	80.55
248.983	10.92
249.2	92.84
249.417	-13.65
249.633	8.87
249.85	-52.56
250.067	-44.37
250.284	29.35
250.501	43.69
250.717	76.46
250.934	70.31
251.151	49.83
251.368	10.92
251.585	19.11
251.801	27.31
252.018	31.4
252.235	64.17
252.451	10.92
252.668	12.97
252.885	64.17
253.102	49.83
253.318	6.83
253.535	17.07
253.752	39.59
253.968	8.87
254.185	27.31
254.401	10.92
254.618	68.27
254.835	-7.51
255.051	72.36
255.268	70.31
255.484	41.64
255.701	-15.7
255.917	15.02
256.134	-34.13
256.351	8.87
256.567	10.92
256.784	45.74
257	-19.8
257.217	23.21
257.433	55.98
257.65	17.07
257.866	-19.8
258.082	31.4
258.299	39.59
258.515	-25.94
258.732	31.4
258.948	-68.95
259.165	-19.8
259.381	-3.41
259.597	23.21
259.814	53.93
260.03	27.31
260.246	68.27
260.463	62.12
260.679	-7.51
260.895	-36.18
261.112	-13.65
261.328	23.21
261.544	10.92
261.761	129.7
261.977	45.74
262.193	-7.51
262.409	31.4
262.626	80.55
262.842	8.87
263.058	-34.13
263.274	55.98
263.49	25.26
263.707	29.35
263.923	94.89
264.139	-23.89
264.355	-66.9
264.571	107.18
264.787	41.64
265.004	15.02
265.22	35.5
265.436	68.27
265.652	-15.7
265.868	70.31
266.084	-58.71
266.3	76.46
266.516	-19.8
266.732	23.21
266.948	72.36
267.164	25.26
267.38	90.79
267.596	64.17
267.812	51.88
268.028	41.64
268.244	-11.61
268.46	15.02
268.676	49.83
268.892	76.46
269.108	-27.99
269.324	41.64
269.54	27.31
269.756	64.17
269.972	41.64
270.188	-3.41
270.403	-13.65
270.619	-46.42
270.835	-13.65
271.051	70.31
271.267	-73.04
271.483	2.73
271.698	17.07
271.914	49.83
272.13	51.88
272.346	-89.43
272.562	15.02
272.777	0.68
272.993	-15.7
273.209	23.21
273.425	-1.37
273.64	2.73
273.856	-7.51
274.072	27.31
274.287	-34.13
274.503	8.87
274.719	25.26
274.934	39.59
275.15	-21.84
275.366	66.22
275.581	8.87
275.797	29.35
276.012	33.45
276.228	90.79
276.444	80.55
276.659	70.31
276.875	-25.94
277.09	8.87
277.306	39.59
277.521	39.59
277.737	4.78
277.952	25.26
278.168	35.5
278.383	51.88
278.599	45.74
278.814	43.69
279.03	33.45
279.245	51.88
279.461	23.21
279.676	43.69
279.892	-23.89
280.107	29.35
280.322	82.6
280.538	68.27
280.753	-9.56
280.969	72.36
281.184	15.02
281.399	80.55
281.615	-9.56
281.83	19.11
282.045	-27.99
282.26	-34.13
282.476	-3.41
282.691	33.45
282.906	47.79
283.122	-52.56
283.337	-58.71
283.552	72.36
283.767	-5.46
283.983	107.18
284.198	43.69
284.413	33.45
284.628	4.78
284.843	70.31
285.058	31.4
285.274	-7.51
285.489	74.41
285.704	21.16
285.919	-9.56
286.134	-19.8
286.349	-19.8
286.564	15.02
286.779	55.98
286.995	-17.75
287.21	53.93
287.425	74.41
287.64	-40.28
287.855	-23.89
288.07	-11.61
288.285	35.5
288.5	17.07
288.715	76.46
288.93	96.94
289.145	21.16
289.36	23.21
289.575	-48.47
289.79	45.74
290.004	33.45
290.219	19.11
290.434	15.02
290.649	45.74
290.864	-25.94
291.079	51.88
291.294	135.85
291.509	43.69
291.724	39.59
291.938	29.35
292.153	-1.37
292.368	37.55
292.583	51.88
292.798	21.16
293.012	64.17
293.227	58.03
293.442	31.4
293.657	98.99
293.871	90.79
294.086	-1.37
294.301	96.94
294.516	66.22
294.73	55.98
294.945	-48.47
295.16	80.55
295.374	-52.56
295.589	70.31
295.804	-3.41
296.018	51.88
296.233	68.27
296.447	-5.46
296.662	-23.89
296.877	53.93
297.091	37.55
297.306	49.83
297.52	51.88
297.735	51.88
297.949	84.65
298.164	15.02
298.378	70.31
298.593	-5.46
298.807	-21.84
299.022	33.45
299.236	80.55
299.451	-38.23
299.665	33.45
299.88	58.03
300.094	53.93
300.309	4.78
300.523	17.07
300.737	-21.84
300.952	10.92
301.166	27.31
301.381	27.31
301.595	-52.56
301.809	45.74
302.024	8.87
302.238	41.64
302.452	43.69
302.667	49.83
302.881	78.51
303.095	17.07
303.309	21.16
303.524	27.31
303.738	-23.89
303.952	47.79
304.166	72.36
304.381	12.97
304.595	31.4
304.809	17.07
305.023	45.74
305.237	72.36
305.452	25.26
305.666	17.07
305.88	-1.37
306.094	60.07
306.308	60.07
306.522	70.31
306.736	27.31
306.95	51.88
307.164	49.83
307.379	58.03
307.593	86.7
307.807	33.45
308.021	33.45
308.235	84.65
308.449	12.97
308.663	12.97
308.877	60.07
309.091	8.87
309.305	80.55
309.519	-40.28
309.733	51.88
309.947	-52.56
310.161	90.79
310.374	39.59
310.588	2.73
310.802	-5.46
311.016	58.03
311.23	-27.99
311.444	39.59
311.658	37.55
311.872	101.03
312.085	78.51
312.299	58.03
312.513	35.5
312.727	39.59
312.941	-25.94
313.154	21.16
313.368	58.03
313.582	33.45
313.796	41.64
314.009	51.88
314.223	51.88
314.437	-5.46
314.651	-7.51
314.864	21.16
315.078	12.97
315.292	-27.99
315.505	47.79
315.719	72.36
315.933	-11.61
316.146	62.12
316.36	4.78
316.573	55.98
316.787	2.73
317.001	-1.37
317.214	-32.08
317.428	51.88
317.641	68.27
317.855	72.36
318.068	25.26
318.282	68.27
318.495	15.02
318.709	33.45
318.922	119.46
319.136	88.75
319.349	58.03
319.563	10.92
319.776	78.51
319.99	23.21
320.203	33.45
320.417	-7.51
320.63	55.98
320.843	148.14
321.057	-48.47
321.27	-25.94
321.483	-7.51
321.697	68.27
321.91	31.4
322.124	10.92
322.337	27.31
322.55	-21.84
322.763	123.56
322.977	-19.8
323.19	107.18
323.403	58.03
323.617	131.75
323.83	15.02
324.043	31.4
324.256	17.07
324.469	39.59
324.683	-11.61
324.896	4.78
325.109	-17.75
325.322	-3.41
325.535	47.79
325.748	92.84
325.962	68.27
326.175	-40.28
326.388	6.83
326.601	0.68
326.814	29.35
327.027	6.83
327.24	105.13
327.453	-7.51
327.666	41.64
327.879	58.03
328.092	37.55
328.305	15.02
328.518	-25.94
328.731	37.55
328.944	39.59
329.157	82.6
329.37	49.83
329.583	35.5
329.796	76.46
330.009	-30.04
330.222	64.17
330.435	43.69
330.648	33.45
330.861	12.97
331.073	-1.37
331.286	94.89
331.499	21.16
331.712	25.26
331.925	19.11
332.138	53.93
332.35	78.51
332.563	68.27
332.776	0.68
332.989	-25.94
333.202	-3.41
333.414	107.18
333.627	27.31
333.84	-7.51
334.053	-3.41
334.265	-9.56
334.478	51.88
334.691	-11.61
334.903	86.7
335.116	19.11
335.329	15.02
335.541	72.36
335.754	88.75
335.966	58.03
336.179	-15.7
336.392	-17.75
336.604	-19.8
336.817	23.21
337.029	64.17
337.242	-17.75
337.454	43.69
337.667	19.11
337.88	152.23
338.092	23.21
338.305	78.51
338.517	33.45
338.729	64.17
338.942	33.45
339.154	-40.28
339.367	-32.08
339.579	98.99
339.792	-19.8
340.004	64.17
340.217	35.5
340.429	6.83
340.641	0.68
340.854	21.16
341.066	47.79
341.278	-13.65
341.491	-46.42
341.703	53.93
341.915	0.68
342.128	23.21
342.34	66.22
342.552	-23.89
342.764	49.83
342.977	29.35
343.189	19.11
343.401	58.03
343.613	-7.51
343.826	109.23
344.038	21.16
344.25	66.22
344.462	-27.99
344.674	-32.08
344.886	8.87
345.099	96.94
345.311	86.7
345.523	-36.18
345.735	-40.28
345.947	17.07
346.159	80.55
346.371	45.74
346.583	-23.89
346.795	39.59
347.007	15.02
347.219	60.07
347.431	12.97
347.643	43.69
347.855	-1.37
348.067	72.36
348.279	-11.61
348.491	-32.08
348.703	21.16
348.915	41.64
349.127	62.12
349.339	68.27
349.551	29.35
349.763	43.69
349.975	17.07
350.187	47.79
350.399	92.84
350.61	51.88
350.822	101.03
351.034	39.59
351.246	21.16
351.458	58.03
351.669	58.03
351.881	94.89
352.093	92.84
352.305	51.88
352.517	-17.75
352.728	74.41
352.94	82.6
353.152	66.22
353.363	-42.32
353.575	35.5
353.787	53.93
353.999	68.27
354.21	119.46
354.422	-38.23
354.633	64.17
354.845	-9.56
355.057	74.41
355.268	47.79
355.48	51.88
355.692	68.27
355.903	70.31
356.115	-36.18
356.326	25.26
356.538	45.74
356.749	43.69
356.961	37.55
357.172	21.16
357.384	15.02
357.595	80.55
357.807	43.69
358.018	17.07
358.23	70.31
358.441	139.94
358.653	70.31
358.864	92.84
359.075	68.27
359.287	76.46
359.498	33.45
359.709	80.55
359.921	10.92
360.132	43.69
360.344	41.64
360.555	-34.13
360.766	17.07
360.977	-11.61
361.189	55.98
361.4	33.45
361.611	117.42
361.823	66.22
362.034	-32.08
362.245	12.97
362.456	70.31
362.667	-11.61
362.879	51.88
363.09	12.97
363.301	72.36
363.512	74.41
363.723	21.16
363.935	-25.94
364.146	64.17
364.357	-1.37
364.568	43.69
364.779	-68.95
364.99	101.03
365.201	62.12
365.412	29.35
365.623	-3.41
365.834	72.36
366.045	51.88
366.256	-1.37
366.467	55.98
366.678	70.31
366.889	4.78
367.1	60.07
367.311	74.41
367.522	8.87
367.733	70.31
367.944	68.27
368.155	53.93
368.366	35.5
368.577	98.99
368.788	94.89
368.999	53.93
369.209	-32.08
369.42	150.18
369.631	115.37
369.842	90.79
370.053	31.4
370.264	72.36
370.474	-23.89
370.685	78.51
370.896	19.11
371.107	-15.7
371.317	49.83
371.528	27.31
371.739	84.65
371.95	78.51
372.16	66.22
372.371	-34.13
372.582	10.92
372.792	39.59
373.003	51.88
373.214	21.16
373.424	66.22
373.635	66.22
373.846	88.75
374.056	37.55
374.267	76.46
374.477	10.92
374.688	90.79
374.898	39.59
375.109	64.17
375.319	-15.7
375.53	94.89
375.74	35.5
375.951	121.51
376.161	80.55
376.372	41.64
376.582	33.45
376.793	101.03
377.003	2.73
377.214	-15.7
377.424	4.78
377.635	86.7
377.845	66.22
378.055	60.07
378.266	35.5
378.476	12.97
378.686	23.21
378.897	58.03
379.107	80.55
379.317	70.31
379.528	60.07
379.738	90.79
379.948	55.98
380.158	68.27
380.369	-38.23
380.579	82.6
380.789	58.03
380.999	12.97
381.21	80.55
381.42	51.88
381.63	49.83
381.84	80.55
382.05	103.08
382.261	23.21
382.471	-13.65
382.681	94.89
382.891	19.11
383.101	146.09
383.311	6.83
383.521	43.69
383.731	12.97
383.941	55.98
384.151	41.64
384.361	109.23
384.571	109.23
384.781	-5.46
384.991	88.75
385.201	96.94
385.411	90.79
385.621	78.51
385.831	55.98
386.041	27.31
386.251	92.84
386.461	101.03
386.671	51.88
386.881	82.6
387.091	58.03
387.301	-56.66
387.511	53.93
387.72	88.75
387.93	88.75
388.14	-1.37
388.35	-13.65
388.56	117.42
388.769	19.11
388.979	86.7
389.189	51.88
389.399	17.07
389.609	33.45
389.818	37.55
390.028	43.69
390.238	47.79
390.447	68.27
390.657	84.65
390.867	58.03
391.076	92.84
391.286	74.41
391.496	148.14
391.705	21.16
391.915	45.74
392.125	107.18
392.334	82.6
392.544	55.98
392.753	64.17
392.963	90.79
393.172	55.98
393.382	45.74
393.591	154.28
393.801	86.7
394.01	96.94
394.22	17.07
394.429	96.94
394.639	137.9
394.848	139.94
395.058	88.75
395.267	2.73
395.477	109.23
395.686	25.26
395.895	94.89
396.105	164.52
396.314	78.51
396.524	17.07
396.733	68.27
396.942	90.79
397.152	90.79
397.361	25.26
397.57	82.6
397.78	82.6
397.989	80.55
398.198	148.14
398.407	19.11
398.617	86.7
398.826	117.42
399.035	123.56
399.244	66.22
399.453	113.32
399.663	92.84
399.872	141.99
400.081	39.59
400.29	137.9
400.499	80.55
400.708	178.86
400.917	37.55
401.127	162.47
401.336	105.13
401.545	121.51
401.754	98.99
401.963	55.98
402.172	139.94
402.381	33.45
402.59	10.92
402.799	141.99
403.008	150.18
403.217	98.99
403.426	131.75
403.635	139.94
403.844	68.27
404.053	232.1
404.262	152.23
404.471	119.46
404.68	92.84
404.888	189.1
405.097	152.23
405.306	139.94
405.515	166.57
405.724	117.42
405.933	279.21
406.142	248.49
406.35	301.73
406.559	213.67
406.768	146.09
406.977	234.15
407.185	240.3
407.394	172.71
407.603	137.9
407.812	166.57
408.02	285.35
408.229	182.95
408.438	144.04
408.646	221.86
408.855	228.01
409.064	258.73
409.272	297.64
409.481	266.92
409.69	357.03
409.898	258.73
410.107	289.45
410.315	412.32
410.524	330.41
410.733	420.52
410.941	354.98
411.15	414.37
411.358	432.8
411.567	467.62
411.775	314.02
411.984	438.95
412.192	434.85
412.401	514.72
412.609	572.07
412.818	541.35
413.026	500.39
413.234	541.35
413.443	545.44
413.651	541.35
413.86	696.99
414.068	635.55
414.276	645.79
414.485	664.22
414.693	699.04
414.901	791.2
415.11	826.01
415.318	727.71
415.526	772.77
415.734	780.96
415.943	858.78
416.151	883.36
416.359	881.31
416.567	946.84
416.776	975.52
416.984	1043.1
417.192	1010.33
417.4	1014.43
417.608	1141.4
417.817	1102.49
418.025	1288.86
418.233	1313.43
418.441	1174.17
418.649	1305.24
418.857	1256.09
419.065	1419.92
419.273	1438.36
419.481	1407.64
419.689	1495.7
419.897	1573.52
420.105	1657.49
420.313	1542.8
420.521	1804.94
420.729	1700.5
420.937	1964.68
421.145	1833.61
421.353	2003.6
421.561	2071.18
421.769	2157.19
421.977	2204.3
422.185	2194.06
422.393	2359.94
422.601	2552.45
422.809	2462.34
423.017	2650.75
423.224	2560.64
423.432	2763.39
423.64	2751.1
423.848	2947.71
424.056	2912.89
424.263	3066.49
424.471	3168.89
424.679	3129.98
424.887	3213.95
425.094	3433.08
425.302	3547.76
425.51	3621.49
425.718	3871.34
425.925	3842.67
426.133	3842.67
426.341	4061.8
426.548	4213.35
426.756	4299.37
426.964	4428.39
427.171	4448.87
427.379	4577.89
427.586	4735.59
427.794	4962.91
428.001	5030.49
428.209	5298.78
428.417	5300.83
428.624	5640.79
428.832	5597.78
429.039	5694.04
429.247	5679.7
429.454	6025.81
429.662	6609.48
429.869	6013.52
430.076	6761.03
430.284	6361.67
430.491	6740.55
430.699	7113.28
430.906	7148.09
431.114	7168.57
431.321	7481.91
431.528	7649.85
431.736	7957.04
431.943	8333.87
432.15	8049.2
432.358	8350.25
432.565	8790.56
432.772	8571.43
432.979	9194.01
433.187	9402.91
433.394	9368.09
433.601	9865.75
433.808	10187.28
434.016	10000.91
434.223	10439.18
434.43	11209.22
434.637	10578.44
434.844	11377.15
435.052	11737.59
435.259	11446.78
435.466	11567.61
435.673	11839.99
435.88	12607.98
436.087	13042.15
436.294	12765.67
436.501	12567.02
436.708	12943.85
436.915	13228.51
437.122	13947.35
437.329	13935.06
437.537	14385.62
437.743	14672.33
437.95	14539.21
438.157	15366.59
438.364	15944.12
438.571	15831.48
438.778	15882.68
438.985	17435.04
439.192	16884.14
439.399	17041.83
439.606	16974.25
439.813	18135.45
440.02	18979.21
440.227	18641.29
440.433	18313.62
440.64	18940.3
440.847	19122.57
441.054	19364.23
441.261	20648.3
441.467	20447.6
441.674	20875.63
441.881	21399.91
442.088	21707.1
442.294	21412.2
442.501	22141.27
442.708	22329.69
442.914	23447.88
443.121	24269.11
443.328	23320.9
443.534	25278.76
443.741	24475.96
443.948	24361.27
444.154	25876.77
444.361	26128.67
444.568	25942.3
444.774	25960.73
444.981	26153.24
445.187	27220.24
445.394	28371.19
445.6	27734.28
445.807	30744.79
446.013	29157.61
446.22	29944.03
446.426	31172.81
446.633	31123.66
446.839	32215.23
447.046	30847.19
447.252	32733.37
447.459	32692.41
447.665	32409.79
447.871	33704.1
448.078	35307.66
448.284	34044.07
448.491	34670.75
448.697	35850.38
448.903	36743.29
449.11	36618.36
449.316	36196.48
449.522	36987
449.728	37726.31
449.935	38068.33
450.141	38461.54
450.347	38596.7
450.553	38043.75
450.76	38156.39
450.966	39628.88
451.172	38940.76
451.378	40323.14
451.584	38907.99
451.791	39901.26
451.997	39807.05
452.203	41031.74
452.409	40425.54
452.615	40374.34
452.821	39239.76
453.027	38668.38
453.233	40577.09
453.44	39123.03
453.646	39866.44
453.852	39852.11
454.058	40247.36
454.264	39073.88
454.47	40216.64
454.676	39061.59
454.882	40329.28
455.088	36857.98
455.294	37466.22
455.5	37949.54
455.705	38291.55
455.911	36810.87
456.117	36028.55
456.323	35827.85
456.529	33824.93
456.735	35455.12
456.941	34437.28
457.147	33894.57
457.352	32864.44
457.558	32485.56
457.764	32250.05
457.97	31834.31
458.176	31307.98
458.381	31305.93
458.587	29698.28
458.793	29655.27
458.999	27957.5
459.204	30249.18
459.41	29069.55
459.616	27552.01
459.821	27738.37
460.027	27533.57
460.233	26794.26
460.438	25545
460.644	25895.2
460.85	24525.11
461.055	23826.75
461.261	24275.26
461.466	22278.49
461.672	21721.44
461.878	22939.98
462.083	21782.88
462.289	21172.58
462.494	21018.99
462.7	20128.12
462.905	19478.91
463.111	20197.75
463.316	20386.16
463.522	19790.2
463.727	20144.5
463.932	19960.19
464.138	19741.05
464.343	19831.16
464.549	18925.96
464.754	19886.46
464.959	19667.33
465.165	19718.53
465.37	18637.2
465.575	18012.57
465.781	18958.73
465.986	19081.61
466.191	18530.7
466.397	17842.59
466.602	17254.82
466.807	18076.05
