Data from USB4F104151__43__12-41-30-263.txt Node

Date: Fri Mar 14 12:41:30 EDT 2025
User: louis
Spectrometer: USB4F10415
Trigger mode: 4
Integration Time (sec): 3.000000E-2
Scans to average: 1
Electric dark correction enabled: true
Nonlinearity correction enabled: false
Boxcar width: 0
XAxis mode: Wavelengths
Number of Pixels in Spectrum: 3648
>>>>>Begin Spectral Data<<<<<
178.204	-68.61
178.424	-68.61
178.644	-68.61
178.864	-103.42
179.084	-103.42
179.304	-5.12
179.524	23.55
179.744	5.12
179.964	-19.46
180.184	-5.12
180.404	-3.07
180.624	-1.02
180.844	11.26
181.064	-11.26
181.283	7.17
181.503	-25.6
181.723	23.55
181.943	-29.7
182.163	44.03
182.383	7.17
182.602	13.31
182.822	46.08
183.042	11.26
183.262	23.55
183.482	3.07
183.701	9.22
183.921	62.46
184.141	-37.89
184.361	68.61
184.58	91.13
184.8	3.07
185.02	25.6
185.239	-11.26
185.459	39.94
185.679	37.89
185.898	-76.8
186.118	-5.12
186.338	25.6
186.557	111.61
186.777	17.41
186.997	33.79
187.216	-52.22
187.436	140.29
187.655	39.94
187.875	95.23
188.095	-13.31
188.314	17.41
188.534	103.42
188.753	62.46
188.973	35.84
189.192	130.05
189.412	5.12
189.631	-1.02
189.851	-5.12
190.07	66.56
190.29	-44.03
190.509	31.74
190.729	33.79
190.948	60.42
191.168	154.62
191.387	19.46
191.607	23.55
191.826	25.6
192.045	58.37
192.265	15.36
192.484	41.98
192.704	39.94
192.923	11.26
193.142	87.04
193.362	89.09
193.581	70.65
193.8	58.37
194.02	103.42
194.239	46.08
194.458	74.75
194.678	68.61
194.897	62.46
195.116	41.98
195.335	17.41
195.555	140.29
195.774	21.5
195.993	54.27
196.212	-3.07
196.432	41.98
196.651	21.5
196.87	-48.13
197.089	68.61
197.308	58.37
197.528	70.65
197.747	-23.55
197.966	115.71
198.185	21.5
198.404	89.09
198.623	29.7
198.842	103.42
199.062	54.27
199.281	93.18
199.5	-1.02
199.719	25.6
199.938	134.14
200.157	74.75
200.376	125.95
200.595	66.56
200.814	44.03
201.033	-7.17
201.252	111.61
201.471	-33.79
201.69	19.46
201.909	72.7
202.128	95.23
202.347	21.5
202.566	50.18
202.785	39.94
203.004	-1.02
203.223	54.27
203.442	17.41
203.661	-15.36
203.879	74.75
204.098	-25.6
204.317	39.94
204.536	99.33
204.755	13.31
204.974	109.57
205.193	58.37
205.411	123.9
205.63	68.61
205.849	60.42
206.068	29.7
206.287	25.6
206.505	46.08
206.724	39.94
206.943	-9.22
207.162	31.74
207.381	58.37
207.599	-25.6
207.818	48.13
208.037	48.13
208.255	-48.13
208.474	56.32
208.693	37.89
208.911	7.17
209.13	80.89
209.349	78.85
209.567	27.65
209.786	76.8
210.005	89.09
210.223	35.84
210.442	-3.07
210.661	23.55
210.879	44.03
211.098	17.41
211.316	50.18
211.535	-13.31
211.753	-46.08
211.972	50.18
212.191	9.22
212.409	-25.6
212.628	70.65
212.846	25.6
213.065	62.46
213.283	70.65
213.502	70.65
213.72	-13.31
213.938	5.12
214.157	27.65
214.375	68.61
214.594	48.13
214.812	23.55
215.031	84.99
215.249	44.03
215.467	84.99
215.686	70.65
215.904	93.18
216.122	-11.26
216.341	101.37
216.559	9.22
216.778	66.56
216.996	64.51
217.214	52.22
217.432	50.18
217.651	84.99
217.869	58.37
218.087	39.94
218.306	-5.12
218.524	33.79
218.742	9.22
218.96	54.27
219.179	-46.08
219.397	64.51
219.615	48.13
219.833	82.94
220.051	-52.22
220.27	52.22
220.488	33.79
220.706	142.33
220.924	17.41
221.142	41.98
221.36	101.37
221.578	87.04
221.796	23.55
222.015	-13.31
222.233	87.04
222.451	54.27
222.669	97.28
222.887	68.61
223.105	-56.32
223.323	66.56
223.541	37.89
223.759	56.32
223.977	39.94
224.195	125.95
224.413	58.37
224.631	72.7
224.849	27.65
225.067	115.71
225.285	9.22
225.503	-1.02
225.721	7.17
225.939	19.46
226.157	95.23
226.375	58.37
226.592	-35.84
226.81	103.42
227.028	39.94
227.246	60.42
227.464	11.26
227.682	17.41
227.9	-19.46
228.117	87.04
228.335	-23.55
228.553	58.37
228.771	60.42
228.989	5.12
229.206	66.56
229.424	-5.12
229.642	13.31
229.86	13.31
230.077	84.99
230.295	87.04
230.513	46.08
230.731	70.65
230.948	50.18
231.166	31.74
231.384	-44.03
231.601	11.26
231.819	23.55
232.037	7.17
232.254	29.7
232.472	64.51
232.689	21.5
232.907	13.31
233.125	44.03
233.342	19.46
233.56	-11.26
233.777	-21.5
233.995	-17.41
234.213	97.28
234.43	13.31
234.648	-21.5
234.865	37.89
235.083	84.99
235.3	-3.07
235.518	87.04
235.735	29.7
235.953	52.22
236.17	11.26
236.388	17.41
236.605	19.46
236.822	9.22
237.04	80.89
237.257	68.61
237.475	-64.51
237.692	17.41
237.909	3.07
238.127	-27.65
238.344	15.36
238.562	25.6
238.779	21.5
238.996	58.37
239.214	78.85
239.431	-41.98
239.648	13.31
239.865	68.61
240.083	-35.84
240.3	52.22
240.517	33.79
240.735	48.13
240.952	80.89
241.169	62.46
241.386	68.61
241.603	41.98
241.821	-13.31
242.038	27.65
242.255	46.08
242.472	82.94
242.689	48.13
242.907	70.65
243.124	56.32
243.341	68.61
243.558	15.36
243.775	66.56
243.992	78.85
244.209	-3.07
244.426	50.18
244.643	80.89
244.86	48.13
245.078	54.27
245.295	17.41
245.512	72.7
245.729	-37.89
245.946	44.03
246.163	68.61
246.38	70.65
246.597	117.76
246.814	29.7
247.031	-5.12
247.248	74.75
247.464	5.12
247.681	9.22
247.898	46.08
248.115	72.7
248.332	-23.55
248.549	113.66
248.766	91.13
248.983	87.04
249.2	56.32
249.417	58.37
249.633	1.02
249.85	58.37
250.067	99.33
250.284	31.74
250.501	58.37
250.717	70.65
250.934	-1.02
251.151	41.98
251.368	-9.22
251.585	130.05
251.801	-11.26
252.018	-21.5
252.235	31.74
252.451	70.65
252.668	37.89
252.885	89.09
253.102	-7.17
253.318	15.36
253.535	78.85
253.752	5.12
253.968	80.89
254.185	-11.26
254.401	27.65
254.618	60.42
254.835	44.03
255.051	76.8
255.268	29.7
255.484	74.75
255.701	31.74
255.917	74.75
256.134	1.02
256.351	56.32
256.567	-31.74
256.784	91.13
257	-13.31
257.217	84.99
257.433	44.03
257.65	37.89
257.866	72.7
258.082	41.98
258.299	-1.02
258.515	7.17
258.732	11.26
258.948	56.32
259.165	50.18
259.381	23.55
259.597	33.79
259.814	-35.84
260.03	9.22
260.246	60.42
260.463	74.75
260.679	-33.79
260.895	41.98
261.112	105.47
261.328	-23.55
261.544	109.57
261.761	105.47
261.977	-27.65
262.193	-17.41
262.409	7.17
262.626	23.55
262.842	-27.65
263.058	23.55
263.274	48.13
263.49	87.04
263.707	125.95
263.923	29.7
264.139	3.07
264.355	13.31
264.571	123.9
264.787	68.61
265.004	66.56
265.22	62.46
265.436	19.46
265.652	1.02
265.868	-17.41
266.084	119.81
266.3	23.55
266.516	9.22
266.732	13.31
266.948	19.46
267.164	37.89
267.38	52.22
267.596	-37.89
267.812	41.98
268.028	23.55
268.244	68.61
268.46	78.85
268.676	56.32
268.892	97.28
269.108	80.89
269.324	-25.6
269.54	56.32
269.756	89.09
269.972	3.07
270.188	7.17
270.403	29.7
270.619	11.26
270.835	-39.94
271.051	23.55
271.267	31.74
271.483	-46.08
271.698	-9.22
271.914	68.61
272.13	37.89
272.346	5.12
272.562	54.27
272.777	132.09
272.993	-33.79
273.209	-54.27
273.425	5.12
273.64	1.02
273.856	146.43
274.072	66.56
274.287	-11.26
274.503	66.56
274.719	91.13
274.934	39.94
275.15	-27.65
275.366	78.85
275.581	-15.36
275.797	74.75
276.012	13.31
276.228	19.46
276.444	27.65
276.659	136.19
276.875	97.28
277.09	-5.12
277.306	-1.02
277.521	68.61
277.737	-9.22
277.952	72.7
278.168	84.99
278.383	17.41
278.599	78.85
278.814	76.8
279.03	56.32
279.245	44.03
279.461	41.98
279.676	72.7
279.892	-5.12
280.107	27.65
280.322	78.85
280.538	-9.22
280.753	41.98
280.969	35.84
281.184	-7.17
281.399	76.8
281.615	78.85
281.83	-3.07
282.045	31.74
282.26	31.74
282.476	41.98
282.691	78.85
282.906	68.61
283.122	-39.94
283.337	-13.31
283.552	60.42
283.767	-7.17
283.983	99.33
284.198	58.37
284.413	56.32
284.628	9.22
284.843	66.56
285.058	132.09
285.274	52.22
285.489	35.84
285.704	87.04
285.919	78.85
286.134	27.65
286.349	-11.26
286.564	-1.02
286.779	146.43
286.995	7.17
287.21	15.36
287.425	39.94
287.64	107.52
287.855	56.32
288.07	-19.46
288.285	46.08
288.5	21.5
288.715	48.13
288.93	62.46
289.145	-37.89
289.36	37.89
289.575	87.04
289.79	60.42
290.004	3.07
290.219	66.56
290.434	-1.02
290.649	-1.02
290.864	35.84
291.079	27.65
291.294	13.31
291.509	54.27
291.724	-17.41
291.938	17.41
292.153	-23.55
292.368	48.13
292.583	54.27
292.798	50.18
293.012	3.07
293.227	93.18
293.442	29.7
293.657	48.13
293.871	19.46
294.086	58.37
294.301	152.57
294.516	70.65
294.73	27.65
294.945	-56.32
295.16	82.94
295.374	136.19
295.589	80.89
295.804	50.18
296.018	27.65
296.233	82.94
296.447	101.37
296.662	60.42
296.877	84.99
297.091	113.66
297.306	89.09
297.52	19.46
297.735	103.42
297.949	76.8
298.164	44.03
298.378	25.6
298.593	3.07
298.807	-9.22
299.022	76.8
299.236	52.22
299.451	56.32
299.665	-41.98
299.88	25.6
300.094	27.65
300.309	7.17
300.523	76.8
300.737	52.22
300.952	80.89
301.166	84.99
301.381	15.36
301.595	101.37
301.809	37.89
302.024	46.08
302.238	35.84
302.452	111.61
302.667	62.46
302.881	91.13
303.095	76.8
303.309	50.18
303.524	76.8
303.738	9.22
303.952	50.18
304.166	78.85
304.381	7.17
304.595	25.6
304.809	107.52
305.023	31.74
305.237	46.08
305.452	39.94
305.666	66.56
305.88	97.28
306.094	46.08
306.308	-15.36
306.522	9.22
306.736	101.37
306.95	37.89
307.164	-23.55
307.379	66.56
307.593	52.22
307.807	9.22
308.021	33.79
308.235	35.84
308.449	11.26
308.663	-52.22
308.877	29.7
309.091	50.18
309.305	46.08
309.519	-39.94
309.733	52.22
309.947	62.46
310.161	76.8
310.374	-31.74
310.588	58.37
310.802	95.23
311.016	33.79
311.23	115.71
311.444	56.32
311.658	44.03
311.872	54.27
312.085	101.37
312.299	97.28
312.513	66.56
312.727	84.99
312.941	46.08
313.154	97.28
313.368	-5.12
313.582	130.05
313.796	58.37
314.009	-11.26
314.223	37.89
314.437	50.18
314.651	13.31
314.864	31.74
315.078	33.79
315.292	99.33
315.505	29.7
315.719	115.71
315.933	48.13
316.146	-21.5
316.36	23.55
316.573	68.61
316.787	-35.84
317.001	99.33
317.214	115.71
317.428	105.47
317.641	-17.41
317.855	103.42
318.068	78.85
318.282	44.03
318.495	97.28
318.709	68.61
318.922	-35.84
319.136	130.05
319.349	136.19
319.563	31.74
319.776	46.08
319.99	23.55
320.203	66.56
320.417	1.02
320.63	64.51
320.843	25.6
321.057	23.55
321.27	35.84
321.483	89.09
321.697	37.89
321.91	50.18
322.124	33.79
322.337	58.37
322.55	76.8
322.763	-15.36
322.977	52.22
323.19	33.79
323.403	44.03
323.617	5.12
323.83	109.57
324.043	-17.41
324.256	93.18
324.469	25.6
324.683	91.13
324.896	-9.22
325.109	117.76
325.322	-31.74
325.535	29.7
325.748	56.32
325.962	-33.79
326.175	113.66
326.388	39.94
326.601	82.94
326.814	84.99
327.027	66.56
327.24	115.71
327.453	-19.46
327.666	113.66
327.879	52.22
328.092	136.19
328.305	74.75
328.518	99.33
328.731	-25.6
328.944	29.7
329.157	113.66
329.37	17.41
329.583	66.56
329.796	80.89
330.009	15.36
330.222	84.99
330.435	7.17
330.648	31.74
330.861	119.81
331.073	11.26
331.286	46.08
331.499	58.37
331.712	-5.12
331.925	107.52
332.138	78.85
332.35	91.13
332.563	13.31
332.776	109.57
332.989	7.17
333.202	23.55
333.414	17.41
333.627	27.65
333.84	27.65
334.053	21.5
334.265	76.8
334.478	-37.89
334.691	9.22
334.903	166.91
335.116	66.56
335.329	60.42
335.541	54.27
335.754	54.27
335.966	74.75
336.179	107.52
336.392	37.89
336.604	7.17
336.817	56.32
337.029	89.09
337.242	82.94
337.454	35.84
337.667	21.5
337.88	70.65
338.092	-7.17
338.305	39.94
338.517	68.61
338.729	101.37
338.942	132.09
339.154	29.7
339.367	-15.36
339.579	70.65
339.792	-44.03
340.004	78.85
340.217	5.12
340.429	130.05
340.641	-11.26
340.854	39.94
341.066	11.26
341.278	78.85
341.491	97.28
341.703	60.42
341.915	-1.02
342.128	119.81
342.34	54.27
342.552	-3.07
342.764	25.6
342.977	97.28
343.189	35.84
343.401	48.13
343.613	1.02
343.826	1.02
344.038	46.08
344.25	87.04
344.462	60.42
344.674	54.27
344.886	72.7
345.099	60.42
345.311	44.03
345.523	84.99
345.735	-19.46
345.947	58.37
346.159	41.98
346.371	62.46
346.583	89.09
346.795	125.95
347.007	-11.26
347.219	113.66
347.431	35.84
347.643	89.09
347.855	41.98
348.067	7.17
348.279	130.05
348.491	82.94
348.703	11.26
348.915	113.66
349.127	29.7
349.339	-7.17
349.551	68.61
349.763	76.8
349.975	72.7
350.187	66.56
350.399	82.94
350.61	15.36
350.822	52.22
351.034	78.85
351.246	46.08
351.458	54.27
351.669	60.42
351.881	84.99
352.093	109.57
352.305	95.23
352.517	84.99
352.728	33.79
352.94	52.22
353.152	58.37
353.363	9.22
353.575	25.6
353.787	64.51
353.999	-7.17
354.21	99.33
354.422	52.22
354.633	-11.26
354.845	-33.79
355.057	128
355.268	-13.31
355.48	76.8
355.692	19.46
355.903	121.85
356.115	23.55
356.326	-17.41
356.538	97.28
356.749	44.03
356.961	44.03
357.172	-13.31
357.384	25.6
357.595	70.65
357.807	80.89
358.018	-31.74
358.23	27.65
358.441	48.13
358.653	70.65
358.864	37.89
359.075	78.85
359.287	37.89
359.498	74.75
359.709	66.56
359.921	78.85
360.132	56.32
360.344	9.22
360.555	105.47
360.766	37.89
360.977	72.7
361.189	111.61
361.4	37.89
361.611	58.37
361.823	89.09
362.034	70.65
362.245	41.98
362.456	29.7
362.667	48.13
362.879	50.18
363.09	19.46
363.301	89.09
363.512	21.5
363.723	13.31
363.935	-27.65
364.146	74.75
364.357	41.98
364.568	58.37
364.779	41.98
364.99	60.42
365.201	35.84
365.412	41.98
365.623	31.74
365.834	27.65
366.045	99.33
366.256	35.84
366.467	76.8
366.678	68.61
366.889	50.18
367.1	33.79
367.311	66.56
367.522	39.94
367.733	70.65
367.944	-13.31
368.155	27.65
368.366	-17.41
368.577	123.9
368.788	93.18
368.999	87.04
369.209	31.74
369.42	109.57
369.631	140.29
369.842	-33.79
370.053	76.8
370.264	82.94
370.474	21.5
370.685	74.75
370.896	19.46
371.107	52.22
371.317	17.41
371.528	7.17
371.739	93.18
371.95	1.02
372.16	74.75
372.371	-29.7
372.582	74.75
372.792	125.95
373.003	54.27
373.214	17.41
373.424	103.42
373.635	33.79
373.846	80.89
374.056	-52.22
374.267	27.65
374.477	39.94
374.688	80.89
374.898	64.51
375.109	76.8
375.319	46.08
375.53	62.46
375.74	74.75
375.951	78.85
376.161	52.22
376.372	158.72
376.582	58.37
376.793	52.22
377.003	117.76
377.214	39.94
377.424	107.52
377.635	156.67
377.845	74.75
378.055	121.85
378.266	68.61
378.476	74.75
378.686	52.22
378.897	121.85
379.107	25.6
379.317	128
379.528	31.74
379.738	58.37
379.948	-39.94
380.158	109.57
380.369	58.37
380.579	105.47
380.789	7.17
380.999	99.33
381.21	72.7
381.42	125.95
381.63	64.51
381.84	101.37
382.05	156.67
382.261	148.48
382.471	128
382.681	107.52
382.891	113.66
383.101	121.85
383.311	13.31
383.521	48.13
383.731	11.26
383.941	68.61
384.151	101.37
384.361	44.03
384.571	76.8
384.781	68.61
384.991	93.18
385.201	130.05
385.411	78.85
385.621	41.98
385.831	72.7
386.041	48.13
386.251	54.27
386.461	68.61
386.671	39.94
386.881	23.55
387.091	7.17
387.301	78.85
387.511	56.32
387.72	66.56
387.93	7.17
388.14	-58.37
388.35	173.05
388.56	93.18
388.769	80.89
388.979	72.7
389.189	27.65
389.399	48.13
389.609	113.66
389.818	111.61
390.028	103.42
390.238	27.65
390.447	58.37
390.657	84.99
390.867	74.75
391.076	103.42
391.286	62.46
391.496	84.99
391.705	97.28
391.915	119.81
392.125	37.89
392.334	62.46
392.544	80.89
392.753	93.18
392.963	80.89
393.172	130.05
393.382	5.12
393.591	158.72
393.801	50.18
394.01	89.09
394.22	123.9
394.429	-11.26
394.639	78.85
394.848	56.32
395.058	89.09
395.267	-9.22
395.477	128
395.686	19.46
395.895	97.28
396.105	123.9
396.314	91.13
396.524	107.52
396.733	89.09
396.942	113.66
397.152	21.5
397.361	117.76
397.57	121.85
397.78	60.42
397.989	146.43
398.198	101.37
398.407	148.48
398.617	56.32
398.826	128
399.035	76.8
399.244	64.51
399.453	97.28
399.663	56.32
399.872	103.42
400.081	23.55
400.29	117.76
400.499	44.03
400.708	19.46
400.917	123.9
401.127	95.23
401.336	35.84
401.545	148.48
401.754	121.85
401.963	142.33
402.172	76.8
402.381	121.85
402.59	93.18
402.799	158.72
403.008	123.9
403.217	189.44
403.426	125.95
403.635	56.32
403.844	97.28
404.053	91.13
404.262	119.81
404.471	177.15
404.68	115.71
404.888	164.86
405.097	191.49
405.306	125.95
405.515	254.97
405.724	148.48
405.933	205.82
406.142	193.53
406.35	191.49
406.559	209.92
406.768	160.77
406.977	236.54
407.185	218.11
407.394	287.74
407.603	162.81
407.812	187.39
408.02	355.32
408.229	214.01
408.438	228.35
408.646	207.87
408.855	189.44
409.064	177.15
409.272	203.77
409.481	359.42
409.69	207.87
409.898	211.96
410.107	371.71
410.315	297.98
410.524	236.54
410.733	314.36
410.941	304.12
411.15	326.65
411.358	398.33
411.567	367.61
411.775	402.43
411.984	408.57
412.192	388.09
412.401	371.71
412.609	461.82
412.818	474.1
413.026	476.15
413.234	416.76
413.443	510.97
413.651	494.58
413.86	617.46
414.068	599.03
414.276	621.56
414.485	627.7
414.693	603.13
414.901	740.34
415.11	633.85
415.318	586.74
415.526	578.55
415.734	699.38
415.943	744.44
416.151	781.3
416.359	754.68
416.567	832.5
416.776	834.55
416.984	947.19
417.192	889.84
417.4	953.33
417.608	924.66
417.817	1004.53
418.025	1020.91
418.233	1113.07
418.441	1070.06
418.649	1154.03
418.857	1270.76
419.065	1176.56
419.273	1188.85
419.481	1242.09
419.689	1272.81
419.897	1414.12
420.105	1293.29
420.313	1387.5
420.521	1559.53
420.729	1496.04
420.937	1567.72
421.145	1602.54
421.353	1698.79
421.561	1829.86
421.769	1745.89
421.977	1840.1
422.185	1956.83
422.393	1905.63
422.601	2184.16
422.809	2188.25
423.017	2092
423.224	2094.05
423.432	2302.94
423.64	2350.04
423.848	2546.65
424.056	2405.34
424.263	2651.1
424.471	2558.94
424.679	2702.29
424.887	2800.6
425.094	2943.96
425.302	3038.16
425.51	3064.79
425.718	3118.03
425.925	3247.05
426.133	3306.45
426.341	3447.76
426.548	3544.01
426.756	3630.02
426.964	3609.54
427.171	3849.16
427.379	4031.43
427.586	3986.37
427.794	4244.42
428.001	4365.25
428.209	4586.43
428.417	4559.8
428.624	4883.38
428.832	4834.23
429.039	4756.41
429.247	4692.92
429.454	5159.86
429.662	5524.4
429.869	5247.92
430.076	5604.27
430.284	5391.28
430.491	5651.37
430.699	6048.68
430.906	5929.89
431.114	5938.09
431.321	6146.98
431.528	6407.07
431.736	7005.08
431.943	6947.73
432.15	6831
432.358	7015.32
432.565	7420.81
432.772	7261.07
432.979	7889.8
433.187	7805.83
433.394	8141.7
433.601	8510.33
433.808	8534.91
434.016	8604.54
434.223	8838.01
434.43	9401.2
434.637	9315.19
434.844	9773.93
435.052	9986.92
435.259	9833.32
435.466	10134.37
435.673	10068.84
435.88	10543.97
436.087	10914.65
436.294	11187.03
436.501	10685.28
436.708	11000.66
436.915	11424.59
437.122	11877.19
437.329	11742.03
437.537	12129.09
437.743	12628.8
437.95	12131.14
438.157	13058.87
438.364	13327.16
438.571	13415.22
438.778	13630.26
438.985	14834.46
439.192	14185.26
439.399	14316.33
439.606	14213.93
439.813	15067.93
440.02	16153.35
440.227	15743.76
440.433	15481.62
440.64	15903.5
440.847	16057.1
441.054	16339.72
441.261	17496.82
441.467	17249.02
441.674	17654.51
441.881	18103.02
442.088	17994.48
442.294	17875.7
442.501	18328.3
442.708	18948.83
442.914	19573.46
443.121	20411.08
443.328	20048.59
443.534	21244.6
443.741	20466.38
443.948	20255.43
444.154	22059.7
444.361	21775.03
444.568	22237.87
444.774	22127.28
444.981	21983.92
445.187	22928.03
445.394	23874.2
445.6	23442.07
445.807	25875.06
446.013	24464.01
446.22	25076.35
446.426	26055.28
446.633	26391.15
446.839	27333.21
447.046	25952.88
447.252	27255.39
447.459	27785.82
447.665	27552.35
447.871	28645.96
448.078	29891.13
448.284	28449.36
448.491	29092.42
448.697	30671.4
448.903	31070.76
449.11	31207.97
449.316	30321.2
449.522	31173.16
449.728	32090.65
449.935	31912.47
450.141	32158.23
450.347	32422.42
450.553	31685.15
450.76	32211.48
450.966	33464.83
451.172	33301
451.378	34062.84
451.584	33137.16
451.791	34214.39
451.997	33798.65
452.203	34410.99
452.409	34396.66
452.615	33968.63
452.821	33001.99
453.027	32643.6
453.233	34324.98
453.44	32934.41
453.646	33462.79
453.852	33450.5
454.058	34056.7
454.264	32989.7
454.47	33464.83
454.676	32504.34
454.882	34011.64
455.088	31365.67
455.294	31930.9
455.5	31930.9
455.705	32207.38
455.911	30544.43
456.117	30536.24
456.323	30147.12
456.529	28459.6
456.735	30097.97
456.941	28807.75
457.147	28383.82
457.352	27515.48
457.558	27449.95
457.764	27566.68
457.97	26733.16
458.176	26112.63
458.381	26190.45
458.587	24742.53
458.793	25098.88
458.999	23648.92
459.204	25225.86
459.41	24838.79
459.616	23149.21
459.821	22934.18
460.027	22731.43
460.233	22444.71
460.438	21469.88
460.644	21449.4
460.85	20460.23
461.055	20271.82
461.261	20183.76
461.466	18574.05
461.672	18100.97
461.878	19264.22
462.083	18107.12
462.289	17593.08
462.494	17562.36
462.7	16651.01
462.905	16378.63
463.111	17052.41
463.316	17103.61
463.522	16397.06
463.727	16655.11
463.932	16669.44
464.138	16302.86
464.343	16657.15
464.549	16005.9
464.754	16601.86
464.959	16372.49
465.165	16456.45
465.37	15782.67
465.575	15338.26
465.781	15688.46
465.986	15848.21
466.191	15219.48
466.397	15061.79
466.602	14273.32
466.807	15104.79
467.012	14918.43
467.218	14689.06
467.423	14699.3
