Data from USB4F104151__77__12-42-22-277.txt Node

Date: Fri Mar 14 12:42:22 EDT 2025
User: louis
Spectrometer: USB4F10415
Trigger mode: 4
Integration Time (sec): 3.000000E-2
Scans to average: 1
Electric dark correction enabled: true
Nonlinearity correction enabled: false
Boxcar width: 0
XAxis mode: Wavelengths
Number of Pixels in Spectrum: 3648
>>>>>Begin Spectral Data<<<<<
178.204	-99.84
178.424	-99.84
178.644	-99.84
178.864	-103.93
179.084	-202.24
179.304	-60.93
179.524	16.9
179.744	-19.97
179.964	23.04
180.184	-13.82
180.404	49.66
180.624	14.85
180.844	-26.11
181.064	-34.3
181.283	27.14
181.503	0.51
181.723	23.04
181.943	-34.3
182.163	41.47
182.383	43.52
182.602	61.95
182.822	96.77
183.042	100.86
183.262	59.9
183.482	57.86
183.701	72.19
183.921	10.75
184.141	12.8
184.361	76.29
184.58	6.66
184.8	96.77
185.02	-13.82
185.239	82.43
185.459	53.76
185.679	8.7
185.898	-42.5
186.118	96.77
186.338	47.62
186.557	-24.06
186.777	-34.3
186.997	23.04
187.216	-26.11
187.436	107.01
187.655	94.72
187.875	100.86
188.095	57.86
188.314	6.66
188.534	57.86
188.753	113.15
188.973	96.77
189.192	61.95
189.412	55.81
189.631	90.62
189.851	53.76
190.07	86.53
190.29	45.57
190.509	57.86
190.729	-7.68
190.948	80.38
191.168	131.58
191.387	14.85
191.607	0.51
191.826	47.62
192.045	20.99
192.265	-24.06
192.484	-17.92
192.704	27.14
192.923	27.14
193.142	61.95
193.362	127.49
193.581	57.86
193.8	6.66
194.02	47.62
194.239	86.53
194.458	14.85
194.678	14.85
194.897	12.8
195.116	16.9
195.335	31.23
195.555	33.28
195.774	31.23
195.993	76.29
196.212	74.24
196.432	-13.82
196.651	-3.58
196.87	8.7
197.089	59.9
197.308	57.86
197.528	98.81
197.747	33.28
197.966	102.91
198.185	74.24
198.404	-1.54
198.623	57.86
198.842	84.48
199.062	8.7
199.281	94.72
199.5	16.9
199.719	-3.58
199.938	70.14
200.157	80.38
200.376	100.86
200.595	57.86
200.814	74.24
201.033	51.71
201.252	-38.4
201.471	-1.54
201.69	100.86
201.909	53.76
202.128	31.23
202.347	55.81
202.566	59.9
202.785	23.04
203.004	-1.54
203.223	92.67
203.442	57.86
203.661	35.33
203.879	12.8
204.098	31.23
204.317	61.95
204.536	104.96
204.755	100.86
204.974	35.33
205.193	8.7
205.411	162.3
205.63	156.16
205.849	57.86
206.068	51.71
206.287	-1.54
206.505	139.77
206.724	57.86
206.943	64
207.162	-15.87
207.381	98.81
207.599	33.28
207.818	59.9
208.037	25.09
208.255	-5.63
208.474	78.33
208.693	35.33
208.911	61.95
209.13	18.94
209.349	18.94
209.567	27.14
209.786	51.71
210.005	64
210.223	39.42
210.442	-44.54
210.661	84.48
210.879	61.95
211.098	53.76
211.316	16.9
211.535	74.24
211.753	37.38
211.972	16.9
212.191	20.99
212.409	12.8
212.628	41.47
212.846	12.8
213.065	74.24
213.283	80.38
213.502	51.71
213.72	27.14
213.938	18.94
214.157	51.71
214.375	109.05
214.594	6.66
214.812	59.9
215.031	14.85
215.249	43.52
215.467	27.14
215.686	64
215.904	88.57
216.122	-44.54
216.341	-3.58
216.559	31.23
216.778	39.42
216.996	80.38
217.214	59.9
217.432	80.38
217.651	31.23
217.869	47.62
218.087	-32.26
218.306	31.23
218.524	53.76
218.742	47.62
218.96	31.23
219.179	-7.68
219.397	29.18
219.615	121.34
219.833	-24.06
220.051	43.52
220.27	98.81
220.488	55.81
220.706	123.39
220.924	88.57
221.142	41.47
221.36	55.81
221.578	25.09
221.796	53.76
222.015	8.7
222.233	43.52
222.451	100.86
222.669	-3.58
222.887	43.52
223.105	-9.73
223.323	27.14
223.541	-3.58
223.759	31.23
223.977	25.09
224.195	61.95
224.413	-42.5
224.631	-19.97
224.849	45.57
225.067	117.25
225.285	45.57
225.503	61.95
225.721	4.61
225.939	61.95
226.157	-19.97
226.375	219.64
226.592	74.24
226.81	14.85
227.028	115.2
227.246	102.91
227.464	29.18
227.682	88.57
227.9	16.9
228.117	100.86
228.335	53.76
228.553	-11.78
228.771	37.38
228.989	16.9
229.206	66.05
229.424	25.09
229.642	4.61
229.86	4.61
230.077	23.04
230.295	31.23
230.513	59.9
230.731	137.73
230.948	139.77
231.166	92.67
231.384	70.14
231.601	51.71
231.819	86.53
232.037	37.38
232.254	45.57
232.472	2.56
232.689	-7.68
232.907	121.34
233.125	64
233.342	57.86
233.56	70.14
233.777	-7.68
233.995	82.43
234.213	16.9
234.43	80.38
234.648	76.29
234.865	18.94
235.083	41.47
235.3	68.09
235.518	111.1
235.735	33.28
235.953	14.85
236.17	-36.35
236.388	25.09
236.605	51.71
236.822	68.09
237.04	55.81
237.257	107.01
237.475	16.9
237.692	39.42
237.909	10.75
238.127	117.25
238.344	35.33
238.562	66.05
238.779	6.66
238.996	-9.73
239.214	8.7
239.431	18.94
239.648	14.85
239.865	78.33
240.083	82.43
240.3	43.52
240.517	47.62
240.735	35.33
240.952	53.76
241.169	104.96
241.386	37.38
241.603	64
241.821	10.75
242.038	23.04
242.255	113.15
242.472	49.66
242.689	55.81
242.907	59.9
243.124	25.09
243.341	61.95
243.558	55.81
243.775	27.14
243.992	31.23
244.209	74.24
244.426	92.67
244.643	31.23
244.86	45.57
245.078	80.38
245.295	31.23
245.512	6.66
245.729	12.8
245.946	66.05
246.163	10.75
246.38	-9.73
246.597	29.18
246.814	0.51
247.031	16.9
247.248	51.71
247.464	23.04
247.681	117.25
247.898	23.04
248.115	-13.82
248.332	20.99
248.549	119.29
248.766	55.81
248.983	68.09
249.2	109.05
249.417	98.81
249.633	-28.16
249.85	39.42
250.067	16.9
250.284	70.14
250.501	84.48
250.717	35.33
250.934	129.53
251.151	-52.74
251.368	-44.54
251.585	35.33
251.801	29.18
252.018	72.19
252.235	119.29
252.451	20.99
252.668	49.66
252.885	76.29
253.102	35.33
253.318	55.81
253.535	-46.59
253.752	-40.45
253.968	80.38
254.185	33.28
254.401	16.9
254.618	-7.68
254.835	20.99
255.051	-17.92
255.268	90.62
255.484	61.95
255.701	70.14
255.917	66.05
256.134	-17.92
256.351	8.7
256.567	-5.63
256.784	31.23
257	61.95
257.217	137.73
257.433	-1.54
257.65	27.14
257.866	76.29
258.082	104.96
258.299	64
258.515	37.38
258.732	-19.97
258.948	10.75
259.165	51.71
259.381	14.85
259.597	8.7
259.814	47.62
260.03	29.18
260.246	27.14
260.463	33.28
260.679	150.01
260.895	-65.02
261.112	20.99
261.328	-3.58
261.544	39.42
261.761	8.7
261.977	53.76
262.193	-50.69
262.409	125.44
262.626	55.81
262.842	90.62
263.058	16.9
263.274	47.62
263.49	121.34
263.707	8.7
263.923	66.05
264.139	-3.58
264.355	31.23
264.571	102.91
264.787	111.1
265.004	20.99
265.22	29.18
265.436	68.09
265.652	35.33
265.868	35.33
266.084	41.47
266.3	43.52
266.516	-28.16
266.732	84.48
266.948	27.14
267.164	64
267.38	39.42
267.596	96.77
267.812	98.81
268.028	8.7
268.244	-38.4
268.46	82.43
268.676	64
268.892	55.81
269.108	29.18
269.324	-19.97
269.54	35.33
269.756	57.86
269.972	43.52
270.188	20.99
270.403	8.7
270.619	64
270.835	82.43
271.051	-24.06
271.267	-36.35
271.483	0.51
271.698	64
271.914	27.14
272.13	53.76
272.346	41.47
272.562	64
272.777	18.94
272.993	78.33
273.209	76.29
273.425	14.85
273.64	14.85
273.856	23.04
274.072	6.66
274.287	6.66
274.503	133.63
274.719	61.95
274.934	35.33
275.15	41.47
275.366	-5.63
275.581	-77.31
275.797	23.04
276.012	-1.54
276.228	41.47
276.444	29.18
276.659	133.63
276.875	82.43
277.09	4.61
277.306	47.62
277.521	0.51
277.737	16.9
277.952	49.66
278.168	25.09
278.383	61.95
278.599	-1.54
278.814	35.33
279.03	6.66
279.245	68.09
279.461	41.47
279.676	82.43
279.892	104.96
280.107	14.85
280.322	27.14
280.538	129.53
280.753	39.42
280.969	-3.58
281.184	27.14
281.399	92.67
281.615	8.7
281.83	86.53
282.045	16.9
282.26	0.51
282.476	20.99
282.691	49.66
282.906	31.23
283.122	39.42
283.337	-1.54
283.552	64
283.767	57.86
283.983	-9.73
284.198	-9.73
284.413	61.95
284.628	-62.98
284.843	78.33
285.058	82.43
285.274	25.09
285.489	23.04
285.704	78.33
285.919	37.38
286.134	74.24
286.349	70.14
286.564	47.62
286.779	113.15
286.995	47.62
287.21	59.9
287.425	102.91
287.64	-7.68
287.855	94.72
288.07	-81.41
288.285	80.38
288.5	61.95
288.715	72.19
288.93	6.66
289.145	12.8
289.36	49.66
289.575	14.85
289.79	66.05
290.004	12.8
290.219	88.57
290.434	16.9
290.649	0.51
290.864	113.15
291.079	53.76
291.294	35.33
291.509	-36.35
291.724	80.38
291.938	86.53
292.153	74.24
292.368	59.9
292.583	27.14
292.798	76.29
293.012	98.81
293.227	-1.54
293.442	23.04
293.657	47.62
293.871	96.77
294.086	80.38
294.301	64
294.516	-7.68
294.73	29.18
294.945	59.9
295.16	-7.68
295.374	37.38
295.589	66.05
295.804	12.8
296.018	127.49
296.233	111.1
296.447	25.09
296.662	-9.73
296.877	102.91
297.091	117.25
297.306	45.57
297.52	2.56
297.735	-19.97
297.949	33.28
298.164	86.53
298.378	49.66
298.593	-48.64
298.807	-67.07
299.022	37.38
299.236	45.57
299.451	31.23
299.665	-11.78
299.88	18.94
300.094	-3.58
300.309	2.56
300.523	55.81
300.737	78.33
300.952	61.95
301.166	64
301.381	16.9
301.595	8.7
301.809	74.24
302.024	2.56
302.238	96.77
302.452	14.85
302.667	74.24
302.881	84.48
303.095	131.58
303.309	-3.58
303.524	33.28
303.738	23.04
303.952	35.33
304.166	76.29
304.381	-44.54
304.595	53.76
304.809	10.75
305.023	37.38
305.237	47.62
305.452	12.8
305.666	66.05
305.88	121.34
306.094	152.06
306.308	8.7
306.522	113.15
306.736	29.18
306.95	53.76
307.164	76.29
307.379	39.42
307.593	100.86
307.807	43.52
308.021	27.14
308.235	-9.73
308.449	-44.54
308.663	18.94
308.877	115.2
309.091	129.53
309.305	20.99
309.519	-46.59
309.733	80.38
309.947	27.14
310.161	64
310.374	59.9
310.588	92.67
310.802	16.9
311.016	84.48
311.23	64
311.444	49.66
311.658	86.53
311.872	72.19
312.085	64
312.299	90.62
312.513	115.2
312.727	74.24
312.941	14.85
313.154	166.4
313.368	61.95
313.582	14.85
313.796	72.19
314.009	119.29
314.223	107.01
314.437	31.23
314.651	31.23
314.864	-26.11
315.078	57.86
315.292	35.33
315.505	33.28
315.719	16.9
315.933	47.62
316.146	53.76
316.36	96.77
316.573	25.09
316.787	53.76
317.001	41.47
317.214	-3.58
317.428	33.28
317.641	70.14
317.855	45.57
318.068	0.51
318.282	88.57
318.495	66.05
318.709	88.57
318.922	45.57
319.136	33.28
319.349	107.01
319.563	25.09
319.776	64
319.99	131.58
320.203	92.67
320.417	-11.78
320.63	-22.02
320.843	35.33
321.057	35.33
321.27	0.51
321.483	20.99
321.697	115.2
321.91	39.42
322.124	41.47
322.337	53.76
322.55	43.52
322.763	20.99
322.977	43.52
323.19	-24.06
323.403	-5.63
323.617	-5.63
323.83	66.05
324.043	20.99
324.256	20.99
324.469	2.56
324.683	41.47
324.896	86.53
325.109	104.96
325.322	64
325.535	84.48
325.748	41.47
325.962	64
326.175	64
326.388	115.2
326.601	41.47
326.814	-28.16
327.027	37.38
327.24	72.19
327.453	61.95
327.666	82.43
327.879	86.53
328.092	102.91
328.305	100.86
328.518	53.76
328.731	6.66
328.944	39.42
329.157	84.48
329.37	41.47
329.583	53.76
329.796	-1.54
330.009	-1.54
330.222	61.95
330.435	31.23
330.648	47.62
330.861	109.05
331.073	61.95
331.286	51.71
331.499	20.99
331.712	-17.92
331.925	74.24
332.138	41.47
332.35	139.77
332.563	59.9
332.776	90.62
332.989	10.75
333.202	25.09
333.414	31.23
333.627	61.95
333.84	41.47
334.053	111.1
334.265	18.94
334.478	16.9
334.691	41.47
334.903	23.04
335.116	78.33
335.329	14.85
335.541	53.76
335.754	68.09
335.966	20.99
336.179	35.33
336.392	111.1
336.604	111.1
336.817	51.71
337.029	72.19
337.242	88.57
337.454	86.53
337.667	90.62
337.88	59.9
338.092	10.75
338.305	31.23
338.517	12.8
338.729	23.04
338.942	80.38
339.154	80.38
339.367	64
339.579	111.1
339.792	-34.3
340.004	111.1
340.217	68.09
340.429	64
340.641	33.28
340.854	-9.73
341.066	72.19
341.278	147.97
341.491	119.29
341.703	41.47
341.915	0.51
342.128	25.09
342.34	80.38
342.552	80.38
342.764	-9.73
342.977	80.38
343.189	49.66
343.401	121.34
343.613	-13.82
343.826	68.09
344.038	119.29
344.25	125.44
344.462	92.67
344.674	20.99
344.886	117.25
345.099	43.52
345.311	104.96
345.523	109.05
345.735	45.57
345.947	10.75
346.159	61.95
346.371	109.05
346.583	41.47
346.795	86.53
347.007	86.53
347.219	59.9
347.431	-11.78
347.643	90.62
347.855	14.85
348.067	104.96
348.279	-9.73
348.491	66.05
348.703	80.38
348.915	20.99
349.127	4.61
349.339	59.9
349.551	20.99
349.763	25.09
349.975	41.47
350.187	92.67
350.399	64
350.61	53.76
350.822	107.01
351.034	47.62
351.246	49.66
351.458	-1.54
351.669	113.15
351.881	14.85
352.093	111.1
352.305	76.29
352.517	84.48
352.728	119.29
352.94	49.66
353.152	121.34
353.363	61.95
353.575	90.62
353.787	78.33
353.999	96.77
354.21	104.96
354.422	-15.87
354.633	72.19
354.845	23.04
355.057	57.86
355.268	14.85
355.48	43.52
355.692	-42.5
355.903	27.14
356.115	49.66
356.326	10.75
356.538	131.58
356.749	90.62
356.961	129.53
357.172	35.33
357.384	16.9
357.595	137.73
357.807	61.95
358.018	47.62
358.23	29.18
358.441	107.01
358.653	37.38
358.864	45.57
359.075	78.33
359.287	66.05
359.498	49.66
359.709	121.34
359.921	10.75
360.132	100.86
360.344	51.71
360.555	53.76
360.766	127.49
360.977	29.18
361.189	125.44
361.4	-19.97
361.611	92.67
361.823	176.64
362.034	88.57
362.245	-9.73
362.456	10.75
362.667	86.53
362.879	86.53
363.09	104.96
363.301	70.14
363.512	-1.54
363.723	193.02
363.935	74.24
364.146	53.76
364.357	35.33
364.568	61.95
364.779	16.9
364.99	84.48
365.201	35.33
365.412	51.71
365.623	-7.68
365.834	111.1
366.045	98.81
366.256	104.96
366.467	25.09
366.678	2.56
366.889	57.86
367.1	72.19
367.311	123.39
367.522	121.34
367.733	47.62
367.944	117.25
368.155	121.34
368.366	49.66
368.577	98.81
368.788	61.95
368.999	16.9
369.209	100.86
369.42	150.01
369.631	145.92
369.842	94.72
370.053	0.51
370.264	76.29
370.474	-3.58
370.685	45.57
370.896	88.57
371.107	74.24
371.317	49.66
371.528	12.8
371.739	-13.82
371.95	86.53
372.16	23.04
372.371	-13.82
372.582	45.57
372.792	45.57
373.003	131.58
373.214	53.76
373.424	170.49
373.635	31.23
373.846	82.43
374.056	170.49
374.267	68.09
374.477	53.76
374.688	64
374.898	8.7
375.109	18.94
375.319	102.91
375.53	53.76
375.74	53.76
375.951	100.86
376.161	43.52
376.372	139.77
376.582	55.81
376.793	76.29
377.003	43.52
377.214	45.57
377.424	70.14
377.635	41.47
377.845	37.38
378.055	47.62
378.266	47.62
378.476	49.66
378.686	53.76
378.897	90.62
379.107	113.15
379.317	55.81
379.528	74.24
379.738	55.81
379.948	121.34
380.158	119.29
380.369	-58.88
380.579	80.38
380.789	111.1
380.999	90.62
381.21	96.77
381.42	197.12
381.63	10.75
381.84	123.39
382.05	61.95
382.261	80.38
382.471	49.66
382.681	125.44
382.891	84.48
383.101	57.86
383.311	37.38
383.521	59.9
383.731	147.97
383.941	45.57
384.151	111.1
384.361	90.62
384.571	82.43
384.781	37.38
384.991	2.56
385.201	113.15
385.411	115.2
385.621	152.06
385.831	123.39
386.041	18.94
386.251	41.47
386.461	117.25
386.671	61.95
386.881	78.33
387.091	84.48
387.301	115.2
387.511	-38.4
387.72	115.2
387.93	102.91
388.14	51.71
388.35	51.71
388.56	123.39
388.769	61.95
388.979	86.53
389.189	41.47
389.399	135.68
389.609	119.29
389.818	88.57
390.028	86.53
390.238	74.24
390.447	109.05
390.657	119.29
390.867	33.28
391.076	64
391.286	113.15
391.496	92.67
391.705	86.53
391.915	139.77
392.125	143.87
392.334	80.38
392.544	100.86
392.753	154.11
392.963	123.39
393.172	88.57
393.382	96.77
393.591	139.77
393.801	127.49
394.01	98.81
394.22	78.33
394.429	96.77
394.639	102.91
394.848	88.57
395.058	115.2
395.267	102.91
395.477	104.96
395.686	57.86
395.895	104.96
396.105	133.63
396.314	129.53
396.524	127.49
396.733	119.29
396.942	170.49
397.152	125.44
397.361	115.2
397.57	86.53
397.78	109.05
397.989	150.01
398.198	186.88
398.407	164.35
398.617	209.4
398.826	135.68
399.035	59.9
399.244	170.49
399.453	113.15
399.663	72.19
399.872	186.88
400.081	92.67
400.29	147.97
400.499	172.54
400.708	217.6
400.917	123.39
401.127	45.57
401.336	115.2
401.545	147.97
401.754	215.55
401.963	209.4
402.172	135.68
402.381	115.2
402.59	113.15
402.799	172.54
403.008	188.93
403.217	139.77
403.426	174.59
403.635	113.15
403.844	199.16
404.053	199.16
404.262	180.73
404.471	145.92
404.68	248.32
404.888	166.4
405.097	266.75
405.306	231.93
405.515	242.17
405.724	201.21
405.933	145.92
406.142	201.21
406.35	242.17
406.559	219.64
406.768	201.21
406.977	256.51
407.185	244.22
407.394	315.9
407.603	266.75
407.812	322.04
408.02	309.76
408.229	326.14
408.438	336.38
408.646	385.53
408.855	340.47
409.064	354.81
409.272	317.95
409.481	346.62
409.69	340.47
409.898	332.28
410.107	385.53
410.315	385.53
410.524	393.72
410.733	438.78
410.941	473.59
411.15	475.64
411.358	465.4
411.567	504.31
411.775	559.61
411.984	522.74
412.192	502.26
412.401	594.42
412.609	512.5
412.818	690.68
413.026	647.67
413.234	678.39
413.443	707.06
413.651	600.57
413.86	795.12
414.068	805.36
414.276	829.94
414.485	719.35
414.693	852.47
414.901	834.04
415.11	838.13
415.318	760.31
415.526	958.96
415.734	924.15
415.943	1001.97
416.151	1057.26
416.359	1036.78
416.567	1036.78
416.776	1128.94
416.984	1184.24
417.192	1296.88
417.4	1227.25
417.608	1153.52
417.817	1229.29
418.025	1405.42
418.233	1550.82
418.441	1434.09
418.649	1513.96
418.857	1546.73
419.065	1597.93
419.273	1704.42
419.481	1718.76
419.689	1817.06
419.897	1825.25
420.105	1913.31
420.313	1948.13
420.521	2025.95
420.729	2019.81
420.937	2060.77
421.145	2232.8
421.353	2408.92
421.561	2390.49
421.769	2453.98
421.977	2554.33
422.185	2453.98
422.393	2863.57
422.601	2818.52
422.809	2828.76
423.017	2720.21
423.224	2972.11
423.432	3156.43
423.64	3150.29
423.848	3451.34
424.056	3314.13
424.263	3475.91
424.471	3598.79
424.679	3723.72
424.887	3901.89
425.094	3963.33
425.302	3971.52
425.51	4182.46
425.718	4202.94
425.925	4200.9
426.133	4401.6
426.341	4719.03
426.548	4880.82
426.756	5011.89
426.964	5042.61
427.171	5147.06
427.379	5482.92
427.586	5638.57
427.794	5568.94
428.001	5896.61
428.209	6275.49
428.417	6066.6
428.624	6488.48
428.832	6672.79
429.039	6521.24
429.247	6558.11
429.454	7035.28
429.662	7707.02
429.869	7111.06
430.076	7549.32
430.284	7590.28
430.491	7825.8
430.699	8188.29
430.906	8155.52
431.114	8178.05
431.321	8612.22
431.528	8731
431.736	9331.06
431.943	9628.01
432.15	9462.13
432.358	9515.37
432.565	10101.09
432.772	9879.91
432.979	10420.58
433.187	10920.28
433.394	10746.2
433.601	11651.41
433.808	11647.31
434.016	11462.99
434.223	11938.12
434.43	12603.71
434.637	12355.91
434.844	13445.43
435.052	13619.5
435.259	13496.63
435.466	13930.8
435.673	13388.08
435.88	14440.74
436.087	15089.95
436.294	15077.66
436.501	14606.63
436.708	15055.13
436.915	15663.38
437.122	16232.71
437.329	16257.29
437.537	16546.05
437.743	17326.33
437.95	17006.84
438.157	17633.52
438.364	18106.6
438.571	18274.54
438.778	18399.46
438.985	20353.23
439.192	19316.95
439.399	19851.47
439.606	19531.99
439.813	20836.55
440.02	21942.45
440.227	21719.22
440.433	21199.04
440.64	21354.68
440.847	22026.42
441.054	22343.85
441.261	24082.58
441.467	23500.95
441.674	24109.2
441.881	24602.76
442.088	24864.9
442.294	24897.67
442.501	25329.79
442.708	25819.25
442.914	26656.87
443.121	27824.22
443.328	27205.73
443.534	28713.03
443.741	28137.55
443.948	27779.16
444.154	29691.96
444.361	29718.59
444.568	29882.42
444.774	29900.86
444.981	30259.25
445.187	30924.84
445.394	32135.19
445.6	32213.01
445.807	34781.17
446.013	33409.03
446.22	34547.7
446.426	35262.44
446.633	35923.93
446.839	36995.02
447.046	35540.96
447.252	37470.15
447.459	37754.82
447.665	37234.63
447.871	38965.17
448.078	40834.96
448.284	38940.59
448.491	39684
448.697	41148.3
448.903	42028.93
449.11	42473.34
449.316	41404.3
449.522	42420.09
449.728	43609.96
449.935	43429.74
450.141	43693.93
450.347	44900.18
450.553	43075.44
450.76	43775.84
450.966	45305.68
451.172	45014.87
451.378	45821.76
451.584	45039.44
451.791	45932.36
451.997	45969.22
452.203	46755.64
452.409	46841.65
452.615	46944.05
452.821	44709.72
453.027	44187.49
453.233	46688.06
453.44	45182.8
453.646	45702.98
453.852	45778.76
454.058	46741.3
454.264	45270.86
454.47	46061.38
454.676	45021.01
454.882	46051.14
455.088	42590.07
455.294	43014
455.5	44062.56
455.705	44476.25
455.911	42282.87
456.117	41742.21
456.323	40996.75
456.529	39450.53
456.735	40699.79
456.941	39722.91
457.147	39112.62
457.352	38301.62
457.558	37482.44
457.764	37306.31
457.97	36935.63
458.176	35993.56
458.381	36102.11
458.587	34746.35
458.793	34224.12
458.999	32487.44
459.204	35153.9
459.41	33849.34
459.616	31623.2
459.821	31692.83
460.027	31375.39
460.233	31004.71
460.438	29407.3
460.644	29816.89
460.85	28244.05
461.055	28098.64
461.261	28061.78
461.466	26022
461.672	25069.7
461.878	26818.66
462.083	25081.99
462.289	24957.06
462.494	24240.27
462.7	23126.18
462.905	23091.36
463.111	23591.06
463.316	23421.08
463.522	23218.33
463.727	23380.12
463.932	22689.96
464.138	22788.26
464.343	22950.05
464.549	22038.7
464.754	22933.67
464.959	22567.08
465.165	22911.14
465.37	21958.83
465.575	21326.01
465.781	21698.74
465.986	22382.76
466.191	21196.99
466.397	20658.37
466.602	19943.63
466.807	20598.98
467.012	20824.26
467.218	20422.86
467.423	20308.17
467.628	20375.75
