Data from USB4F104151__11__12-41-00-086.txt Node

Date: Fri Mar 14 12:41:00 EDT 2025
User: louis
Spectrometer: USB4F10415
Trigger mode: 4
Integration Time (sec): 3.000000E-2
Scans to average: 1
Electric dark correction enabled: true
Nonlinearity correction enabled: false
Boxcar width: 0
XAxis mode: Wavelengths
Number of Pixels in Spectrum: 3648
>>>>>Begin Spectral Data<<<<<
178.204	-100.01
178.424	-100.01
178.644	-100.01
178.864	-89.77
179.084	-95.91
179.304	22.87
179.524	-1.71
179.744	-40.62
179.964	82.26
180.184	-22.19
180.404	-18.09
180.624	-87.72
180.844	37.2
181.064	0.34
181.283	-16.04
181.503	18.77
181.723	24.92
181.943	0.34
182.163	10.58
182.383	84.31
182.602	78.16
182.822	45.4
183.042	39.25
183.262	-34.47
183.482	31.06
183.701	12.63
183.921	72.02
184.141	33.11
184.361	92.5
184.58	-28.33
184.8	39.25
185.02	37.2
185.239	55.64
185.459	-9.9
185.679	102.74
185.898	-13.99
186.118	47.44
186.338	80.21
186.557	88.4
186.777	-13.99
186.997	-48.81
187.216	35.16
187.436	108.88
187.655	104.79
187.875	24.92
188.095	39.25
188.314	145.75
188.534	33.11
188.753	51.54
188.973	6.49
189.192	47.44
189.412	57.68
189.631	94.55
189.851	76.12
190.07	20.82
190.29	-34.47
190.509	55.64
190.729	18.77
190.948	76.12
191.168	115.03
191.387	45.4
191.607	57.68
191.826	-16.04
192.045	78.16
192.265	-32.43
192.484	29.01
192.704	125.27
192.923	31.06
193.142	129.36
193.362	18.77
193.581	108.88
193.8	22.87
194.02	-11.95
194.239	16.73
194.458	49.49
194.678	8.53
194.897	37.2
195.116	47.44
195.335	55.64
195.555	16.73
195.774	-24.23
195.993	149.84
196.212	82.26
196.432	-22.19
196.651	18.77
196.87	47.44
197.089	47.44
197.308	78.16
197.528	63.83
197.747	2.39
197.966	43.35
198.185	96.6
198.404	67.92
198.623	47.44
198.842	51.54
199.062	104.79
199.281	72.02
199.5	67.92
199.719	29.01
199.938	24.92
200.157	115.03
200.376	145.75
200.595	16.73
200.814	-28.33
201.033	43.35
201.252	4.44
201.471	2.39
201.69	-1.71
201.909	65.88
202.128	53.59
202.347	63.83
202.566	110.93
202.785	45.4
203.004	63.83
203.223	104.79
203.442	24.92
203.661	29.01
203.879	45.4
204.098	57.68
204.317	65.88
204.536	80.21
204.755	-40.62
204.974	80.21
205.193	37.2
205.411	133.46
205.63	55.64
205.849	10.58
206.068	4.44
206.287	0.34
206.505	6.49
206.724	61.78
206.943	43.35
207.162	59.73
207.381	53.59
207.599	-28.33
207.818	67.92
208.037	110.93
208.255	51.54
208.474	47.44
208.693	55.64
208.911	-16.04
209.13	51.54
209.349	92.5
209.567	65.88
209.786	65.88
210.005	26.96
210.223	-3.75
210.442	43.35
210.661	55.64
210.879	59.73
211.098	35.16
211.316	69.97
211.535	63.83
211.753	51.54
211.972	53.59
212.191	-1.71
212.409	4.44
212.628	47.44
212.846	41.3
213.065	0.34
213.283	12.63
213.502	49.49
213.72	-11.95
213.938	76.12
214.157	8.53
214.375	127.32
214.594	47.44
214.812	67.92
215.031	108.88
215.249	10.58
215.467	2.39
215.686	-40.62
215.904	72.02
216.122	69.97
216.341	102.74
216.559	65.88
216.778	166.23
216.996	80.21
217.214	8.53
217.432	49.49
217.651	-48.81
217.869	31.06
218.087	63.83
218.306	20.82
218.524	29.01
218.742	39.25
218.96	94.55
219.179	59.73
219.397	2.39
219.615	121.17
219.833	8.53
220.051	-13.99
220.27	112.98
220.488	39.25
220.706	51.54
220.924	16.73
221.142	35.16
221.36	20.82
221.578	14.68
221.796	12.63
222.015	-11.95
222.233	94.55
222.451	106.84
222.669	2.39
222.887	26.96
223.105	24.92
223.323	47.44
223.541	43.35
223.759	112.98
223.977	-1.71
224.195	94.55
224.413	78.16
224.631	51.54
224.849	74.07
225.067	65.88
225.285	45.4
225.503	51.54
225.721	12.63
225.939	12.63
226.157	106.84
226.375	98.64
226.592	-13.99
226.81	26.96
227.028	31.06
227.246	20.82
227.464	80.21
227.682	82.26
227.9	6.49
228.117	-11.95
228.335	65.88
228.553	18.77
228.771	61.78
228.989	82.26
229.206	57.68
229.424	55.64
229.642	-3.75
229.86	47.44
230.077	55.64
230.295	37.2
230.513	43.35
230.731	67.92
230.948	45.4
231.166	106.84
231.384	80.21
231.601	53.59
231.819	84.31
232.037	-1.71
232.254	-16.04
232.472	115.03
232.689	-16.04
232.907	39.25
233.125	22.87
233.342	-5.8
233.56	67.92
233.777	59.73
233.995	84.31
234.213	98.64
234.43	80.21
234.648	61.78
234.865	80.21
235.083	-57
235.3	14.68
235.518	110.93
235.735	98.64
235.953	96.6
236.17	-32.43
236.388	43.35
236.605	22.87
236.822	4.44
237.04	69.97
237.257	67.92
237.475	10.58
237.692	33.11
237.909	53.59
238.127	-42.67
238.344	49.49
238.562	16.73
238.779	-40.62
238.996	-16.04
239.214	86.36
239.431	-11.95
239.648	41.3
239.865	18.77
240.083	96.6
240.3	55.64
240.517	35.16
240.735	41.3
240.952	98.64
241.169	88.4
241.386	43.35
241.603	33.11
241.821	6.49
242.038	43.35
242.255	104.79
242.472	24.92
242.689	59.73
242.907	127.32
243.124	39.25
243.341	51.54
243.558	-7.85
243.775	57.68
243.992	84.31
244.209	63.83
244.426	47.44
244.643	98.64
244.86	39.25
245.078	90.45
245.295	96.6
245.512	-13.99
245.729	-26.28
245.946	8.53
246.163	33.11
246.38	-18.09
246.597	49.49
246.814	37.2
247.031	88.4
247.248	49.49
247.464	94.55
247.681	86.36
247.898	39.25
248.115	45.4
248.332	14.68
248.549	67.92
248.766	141.65
248.983	72.02
249.2	47.44
249.417	39.25
249.633	90.45
249.85	78.16
250.067	-11.95
250.284	49.49
250.501	2.39
250.717	67.92
250.934	-40.62
251.151	100.69
251.368	31.06
251.585	29.01
251.801	31.06
252.018	-9.9
252.235	72.02
252.451	-32.43
252.668	24.92
252.885	74.07
253.102	82.26
253.318	100.69
253.535	-11.95
253.752	18.77
253.968	92.5
254.185	-3.75
254.401	74.07
254.618	39.25
254.835	37.2
255.051	104.79
255.268	67.92
255.484	80.21
255.701	-5.8
255.917	43.35
256.134	-13.99
256.351	-24.23
256.567	14.68
256.784	29.01
257	35.16
257.217	-18.09
257.433	61.78
257.65	141.65
257.866	110.93
258.082	47.44
258.299	45.4
258.515	67.92
258.732	112.98
258.948	61.78
259.165	51.54
259.381	115.03
259.597	47.44
259.814	115.03
260.03	35.16
260.246	22.87
260.463	67.92
260.679	43.35
260.895	-34.47
261.112	84.31
261.328	-5.8
261.544	8.53
261.761	127.32
261.977	55.64
262.193	24.92
262.409	110.93
262.626	67.92
262.842	96.6
263.058	-3.75
263.274	67.92
263.49	2.39
263.707	151.89
263.923	84.31
264.139	-7.85
264.355	65.88
264.571	35.16
264.787	90.45
265.004	51.54
265.22	53.59
265.436	110.93
265.652	-5.8
265.868	59.73
266.084	-3.75
266.3	72.02
266.516	-9.9
266.732	20.82
266.948	53.59
267.164	33.11
267.38	33.11
267.596	59.73
267.812	135.51
268.028	8.53
268.244	20.82
268.46	53.59
268.676	41.3
268.892	90.45
269.108	-32.43
269.324	72.02
269.54	31.06
269.756	151.89
269.972	8.53
270.188	12.63
270.403	-9.9
270.619	24.92
270.835	129.36
271.051	151.89
271.267	67.92
271.483	65.88
271.698	41.3
271.914	65.88
272.13	8.53
272.346	8.53
272.562	76.12
272.777	184.66
272.993	-28.33
273.209	31.06
273.425	22.87
273.64	94.55
273.856	-34.47
274.072	18.77
274.287	-38.57
274.503	94.55
274.719	57.68
274.934	-20.14
275.15	-3.75
275.366	72.02
275.581	20.82
275.797	74.07
276.012	96.6
276.228	6.49
276.444	102.74
276.659	26.96
276.875	74.07
277.09	-3.75
277.306	22.87
277.521	33.11
277.737	39.25
277.952	59.73
278.168	20.82
278.383	121.17
278.599	14.68
278.814	0.34
279.03	6.49
279.245	74.07
279.461	47.44
279.676	108.88
279.892	4.44
280.107	41.3
280.322	29.01
280.538	65.88
280.753	14.68
280.969	43.35
281.184	37.2
281.399	22.87
281.615	-5.8
281.83	63.83
282.045	24.92
282.26	20.82
282.476	100.69
282.691	47.44
282.906	78.16
283.122	31.06
283.337	-54.95
283.552	84.31
283.767	-13.99
283.983	53.59
284.198	80.21
284.413	53.59
284.628	33.11
284.843	35.16
285.058	12.63
285.274	33.11
285.489	61.78
285.704	98.64
285.919	69.97
286.134	-1.71
286.349	59.73
286.564	76.12
286.779	47.44
286.995	39.25
287.21	24.92
287.425	35.16
287.64	82.26
287.855	72.02
288.07	31.06
288.285	-1.71
288.5	92.5
288.715	94.55
288.93	33.11
289.145	-9.9
289.36	139.6
289.575	78.16
289.79	78.16
290.004	49.49
290.219	108.88
290.434	12.63
290.649	74.07
290.864	63.83
291.079	80.21
291.294	88.4
291.509	74.07
291.724	51.54
291.938	26.96
292.153	31.06
292.368	16.73
292.583	57.68
292.798	41.3
293.012	29.01
293.227	65.88
293.442	88.4
293.657	82.26
293.871	106.84
294.086	8.53
294.301	129.36
294.516	29.01
294.73	10.58
294.945	82.26
295.16	78.16
295.374	133.46
295.589	39.25
295.804	-32.43
296.018	20.82
296.233	86.36
296.447	55.64
296.662	26.96
296.877	61.78
297.091	115.03
297.306	31.06
297.52	31.06
297.735	12.63
297.949	-7.85
298.164	139.6
298.378	41.3
298.593	43.35
298.807	0.34
299.022	14.68
299.236	55.64
299.451	57.68
299.665	55.64
299.88	49.49
300.094	31.06
300.309	16.73
300.523	57.68
300.737	57.68
300.952	37.2
301.166	14.68
301.381	8.53
301.595	-18.09
301.809	6.49
302.024	49.49
302.238	12.63
302.452	102.74
302.667	92.5
302.881	8.53
303.095	-5.8
303.309	51.54
303.524	20.82
303.738	2.39
303.952	65.88
304.166	102.74
304.381	-13.99
304.595	72.02
304.809	69.97
305.023	112.98
305.237	100.69
305.452	14.68
305.666	39.25
305.88	88.4
306.094	-1.71
306.308	31.06
306.522	57.68
306.736	63.83
306.95	86.36
307.164	96.6
307.379	29.01
307.593	131.41
307.807	57.68
308.021	18.77
308.235	37.2
308.449	24.92
308.663	88.4
308.877	123.22
309.091	47.44
309.305	90.45
309.519	8.53
309.733	49.49
309.947	51.54
310.161	0.34
310.374	37.2
310.588	55.64
310.802	-89.77
311.016	76.12
311.23	43.35
311.444	-20.14
311.658	31.06
311.872	76.12
312.085	155.99
312.299	65.88
312.513	43.35
312.727	72.02
312.941	61.78
313.154	35.16
313.368	-30.38
313.582	61.78
313.796	92.5
314.009	65.88
314.223	86.36
314.437	74.07
314.651	20.82
314.864	16.73
315.078	20.82
315.292	-13.99
315.505	37.2
315.719	-18.09
315.933	33.11
316.146	51.54
316.36	88.4
316.573	147.8
316.787	41.3
317.001	98.64
317.214	69.97
317.428	57.68
317.641	-48.81
317.855	76.12
318.068	59.73
318.282	110.93
318.495	104.79
318.709	63.83
318.922	6.49
319.136	82.26
319.349	-9.9
319.563	18.77
319.776	63.83
319.99	51.54
320.203	74.07
320.417	2.39
320.63	86.36
320.843	69.97
321.057	82.26
321.27	31.06
321.483	8.53
321.697	63.83
321.91	55.64
322.124	82.26
322.337	84.31
322.55	12.63
322.763	61.78
322.977	-9.9
323.19	29.01
323.403	-5.8
323.617	37.2
323.83	119.12
324.043	72.02
324.256	43.35
324.469	53.59
324.683	-5.8
324.896	74.07
325.109	24.92
325.322	18.77
325.535	59.73
325.748	16.73
325.962	129.36
326.175	43.35
326.388	29.01
326.601	102.74
326.814	33.11
327.027	49.49
327.24	2.39
327.453	-20.14
327.666	135.51
327.879	96.6
328.092	51.54
328.305	61.78
328.518	2.39
328.731	47.44
328.944	104.79
329.157	72.02
329.37	35.16
329.583	65.88
329.796	104.79
330.009	-30.38
330.222	59.73
330.435	47.44
330.648	96.6
330.861	72.02
331.073	43.35
331.286	10.58
331.499	72.02
331.712	2.39
331.925	16.73
332.138	37.2
332.35	80.21
332.563	33.11
332.776	26.96
332.989	104.79
333.202	47.44
333.414	18.77
333.627	74.07
333.84	72.02
334.053	26.96
334.265	37.2
334.478	45.4
334.691	65.88
334.903	102.74
335.116	-32.43
335.329	6.49
335.541	45.4
335.754	186.71
335.966	94.55
336.179	104.79
336.392	86.36
336.604	51.54
336.817	65.88
337.029	67.92
337.242	20.82
337.454	123.22
337.667	29.01
337.88	102.74
338.092	127.32
338.305	110.93
338.517	37.2
338.729	55.64
338.942	49.49
339.154	8.53
339.367	33.11
339.579	57.68
339.792	24.92
340.004	65.88
340.217	8.53
340.429	47.44
340.641	45.4
340.854	43.35
341.066	-30.38
341.278	67.92
341.491	98.64
341.703	57.68
341.915	22.87
342.128	2.39
342.34	82.26
342.552	33.11
342.764	127.32
342.977	18.77
343.189	14.68
343.401	61.78
343.613	-16.04
343.826	69.97
344.038	69.97
344.25	47.44
344.462	-5.8
344.674	8.53
344.886	110.93
345.099	39.25
345.311	51.54
345.523	4.44
345.735	65.88
345.947	10.58
346.159	59.73
346.371	35.16
346.583	16.73
346.795	100.69
347.007	108.88
347.219	57.68
347.431	31.06
347.643	180.56
347.855	33.11
348.067	29.01
348.279	57.68
348.491	82.26
348.703	59.73
348.915	90.45
349.127	31.06
349.339	63.83
349.551	-3.75
349.763	14.68
349.975	26.96
350.187	55.64
350.399	106.84
350.61	74.07
350.822	51.54
351.034	22.87
351.246	131.41
351.458	67.92
351.669	84.31
351.881	123.22
352.093	47.44
352.305	39.25
352.517	-5.8
352.728	143.7
352.94	10.58
353.152	-5.8
353.363	-32.43
353.575	78.16
353.787	84.31
353.999	51.54
354.21	188.75
354.422	12.63
354.633	-32.43
354.845	115.03
355.057	53.59
355.268	94.55
355.48	61.78
355.692	61.78
355.903	49.49
356.115	39.25
356.326	-28.33
356.538	72.02
356.749	51.54
356.961	45.4
357.172	43.35
357.384	4.44
357.595	53.59
357.807	80.21
358.018	37.2
358.23	76.12
358.441	117.08
358.653	43.35
358.864	72.02
359.075	-42.67
359.287	98.64
359.498	96.6
359.709	96.6
359.921	106.84
360.132	57.68
360.344	65.88
360.555	29.01
360.766	100.69
360.977	2.39
361.189	184.66
361.4	31.06
361.611	78.16
361.823	104.79
362.034	57.68
362.245	69.97
362.456	84.31
362.667	16.73
362.879	33.11
363.09	84.31
363.301	43.35
363.512	86.36
363.723	29.01
363.935	45.4
364.146	80.21
364.357	2.39
364.568	43.35
364.779	74.07
364.99	90.45
365.201	78.16
365.412	37.2
365.623	20.82
365.834	24.92
366.045	26.96
366.256	45.4
366.467	119.12
366.678	39.25
366.889	49.49
367.1	43.35
367.311	82.26
367.522	4.44
367.733	143.7
367.944	94.55
368.155	0.34
368.366	80.21
368.577	57.68
368.788	86.36
368.999	31.06
369.209	94.55
369.42	49.49
369.631	117.08
369.842	61.78
370.053	8.53
370.264	131.41
370.474	-1.71
370.685	51.54
370.896	127.32
371.107	82.26
371.317	82.26
371.528	26.96
371.739	108.88
371.95	74.07
372.16	82.26
372.371	14.68
372.582	84.31
372.792	102.74
373.003	72.02
373.214	106.84
373.424	102.74
373.635	78.16
373.846	112.98
374.056	57.68
374.267	63.83
374.477	129.36
374.688	-18.09
374.898	8.53
375.109	90.45
375.319	90.45
375.53	119.12
375.74	53.59
375.951	65.88
376.161	26.96
376.372	92.5
376.582	-1.71
376.793	78.16
377.003	72.02
377.214	-28.33
377.424	86.36
377.635	53.59
377.845	149.84
378.055	162.13
378.266	0.34
378.476	65.88
378.686	65.88
378.897	104.79
379.107	92.5
379.317	135.51
379.528	12.63
379.738	143.7
379.948	20.82
380.158	80.21
380.369	41.3
380.579	102.74
380.789	39.25
380.999	133.46
381.21	123.22
381.42	98.64
381.63	12.63
381.84	100.69
382.05	76.12
382.261	84.31
382.471	129.36
382.681	80.21
382.891	117.08
383.101	41.3
383.311	-3.75
383.521	14.68
383.731	123.22
383.941	127.32
384.151	135.51
384.361	76.12
384.571	-11.95
384.781	92.5
384.991	106.84
385.201	37.2
385.411	49.49
385.621	53.59
385.831	74.07
386.041	47.44
386.251	78.16
386.461	98.64
386.671	41.3
386.881	145.75
387.091	63.83
387.301	10.58
387.511	127.32
387.72	110.93
387.93	41.3
388.14	26.96
388.35	37.2
388.56	127.32
388.769	49.49
388.979	168.27
389.189	49.49
389.399	67.92
389.609	92.5
389.818	39.25
390.028	72.02
390.238	172.37
390.447	92.5
390.657	78.16
390.867	82.26
391.076	49.49
391.286	145.75
391.496	72.02
391.705	104.79
391.915	145.75
392.125	-1.71
392.334	20.82
392.544	164.18
392.753	76.12
392.963	104.79
393.172	123.22
393.382	104.79
393.591	112.98
393.801	94.55
394.01	117.08
394.22	63.83
394.429	98.64
394.639	194.9
394.848	123.22
395.058	117.08
395.267	145.75
395.477	110.93
395.686	143.7
395.895	117.08
396.105	168.27
396.314	198.99
396.524	108.88
396.733	63.83
396.942	221.52
397.152	84.31
397.361	115.03
397.57	57.68
397.78	166.23
397.989	180.56
398.198	115.03
398.407	84.31
398.617	92.5
398.826	145.75
399.035	117.08
399.244	59.73
399.453	139.6
399.663	141.65
399.872	115.03
400.081	65.88
400.29	78.16
400.499	137.56
400.708	192.85
400.917	72.02
401.127	123.22
401.336	82.26
401.545	176.47
401.754	133.46
401.963	192.85
402.172	147.8
402.381	182.61
402.59	125.27
402.799	160.08
403.008	246.1
403.217	90.45
403.426	96.6
403.635	92.5
403.844	188.75
404.053	139.6
404.262	94.55
404.471	190.8
404.68	155.99
404.888	229.71
405.097	168.27
405.306	203.09
405.515	276.82
405.724	215.38
405.933	182.61
406.142	260.43
406.35	223.57
406.559	227.67
406.768	168.27
406.977	270.67
407.185	252.24
407.394	223.57
407.603	209.23
407.812	260.43
408.02	319.82
408.229	289.1
408.438	301.39
408.646	321.87
408.855	399.7
409.064	321.87
409.272	332.11
409.481	356.69
409.69	383.31
409.898	289.1
410.107	360.78
410.315	395.6
410.524	385.36
410.733	452.94
410.941	422.22
411.15	465.23
411.358	430.41
411.567	467.28
411.775	467.28
411.984	495.95
412.192	569.68
412.401	577.87
412.609	563.53
412.818	633.16
413.026	680.27
413.234	653.64
413.443	639.31
413.651	710.99
413.86	700.75
414.068	778.57
414.276	770.38
414.485	733.51
414.693	833.86
414.901	913.74
415.11	876.87
415.318	913.74
415.526	917.83
415.734	946.5
415.943	966.98
416.151	1036.61
416.359	993.61
416.567	1163.59
416.776	1120.58
416.984	1093.96
417.192	1196.36
417.4	1304.9
417.608	1239.36
417.817	1368.38
418.025	1292.61
418.233	1466.69
418.441	1452.35
418.649	1435.97
418.857	1468.73
419.065	1620.28
419.273	1669.44
419.481	1648.96
419.689	1804.6
419.897	1765.69
420.105	1823.03
420.313	1960.25
420.521	2142.52
420.729	2033.97
420.937	2054.45
421.145	2318.64
421.353	2361.65
421.561	2402.61
421.769	2382.13
421.977	2570.54
422.185	2390.32
422.393	2703.66
422.601	2818.35
422.809	2892.07
423.017	2859.31
423.224	2943.27
423.432	3090.73
423.64	3162.41
423.848	3479.84
424.056	3338.53
424.263	3498.27
424.471	3567.9
424.679	3662.11
424.887	3893.53
425.094	3961.11
425.302	3969.3
425.51	4243.73
425.718	4333.84
425.925	4346.13
426.133	4436.24
426.341	4718.86
426.548	4860.17
426.756	4925.71
426.964	4942.09
427.171	5271.81
427.379	5486.85
427.586	5626.11
427.794	5685.5
428.001	5927.16
428.209	6142.2
428.417	6342.9
428.624	6576.37
428.832	6480.11
429.039	6490.35
429.247	6506.74
429.454	7098.6
429.662	7481.57
429.869	7299.3
430.076	7500
430.284	7358.69
430.491	7889.12
430.699	8364.25
430.906	8288.47
431.114	8257.75
431.321	8562.9
431.528	8939.72
431.736	9113.8
431.943	9625.79
432.15	9552.07
432.358	9476.29
432.565	10313.91
432.772	10141.88
432.979	10655.92
433.187	10614.96
433.394	10797.23
433.601	11577.51
433.808	11528.36
434.016	11466.92
434.223	11933.86
434.43	12705.94
434.637	12562.58
434.844	13144.2
435.052	13437.06
435.259	13265.03
435.466	13566.09
435.673	13396.1
435.88	14211.2
436.087	15208.56
436.294	15044.72
436.501	14860.4
436.708	15042.67
436.915	15669.35
437.122	16504.92
437.329	16242.78
437.537	16705.62
437.743	17000.53
437.95	16744.53
438.157	17895.49
438.364	18169.92
438.571	18354.24
438.778	18497.6
438.985	20082.72
439.192	19226.67
439.399	19951.65
439.606	19732.52
439.813	20564
440.02	21858.31
440.227	21311.5
440.433	21336.08
440.64	22091.78
440.847	21790.73
441.054	22358.02
441.261	23941.1
441.467	23625.71
441.674	23953.38
441.881	24539.1
442.088	25102.29
442.294	24643.55
442.501	25290.71
442.708	25640.91
442.914	26802.11
443.121	27983.79
443.328	27062.2
443.534	28561.31
443.741	27932.59
443.948	27817.9
444.154	30177.16
444.361	29994.89
444.568	30017.42
444.774	30097.29
444.981	30304.13
445.187	31313.78
445.394	32315.24
445.6	32108.4
445.807	35180.35
446.013	33863.5
446.22	34008.91
446.426	35831.6
446.633	35903.28
446.839	37203.74
447.046	35587.89
447.252	37435.16
447.459	37369.63
447.665	37564.18
447.871	39005.95
448.078	40836.84
448.284	39112.45
448.491	39886.58
448.697	41608.92
448.903	41606.87
449.11	41995.99
449.316	41549.53
449.522	42577.61
449.728	43753.15
449.935	43673.27
450.141	43964.09
450.347	44463.79
450.553	43521.73
450.76	44031.67
450.966	45215.4
451.172	44584.62
451.378	45829.79
451.584	44770.99
451.791	45811.35
451.997	45893.27
452.203	47019.66
452.409	46847.63
452.615	46333.59
452.821	44652.2
453.027	44271.28
453.233	46440.08
453.44	44754.6
453.646	45368.99
453.852	45291.17
454.058	46253.72
454.264	44887.72
454.47	46012.06
454.676	44648.11
454.882	46296.72
455.088	42309.33
455.294	42708.68
455.5	43777.72
455.705	44336.82
455.911	42096.34
456.117	40890.09
456.323	41076.45
456.529	38561.54
456.735	40537.83
456.941	39517.95
457.147	38432.52
457.352	37418.78
457.558	36986.66
457.764	37371.68
457.97	36374.31
458.176	35813.17
458.381	35809.07
458.587	33822.55
458.793	34080.59
458.999	32169.83
459.204	34619.21
459.41	33761.11
459.616	31446.9
459.821	31530.87
460.027	31702.9
460.233	30889.85
460.438	29333.4
460.644	29536.15
460.85	28350.37
461.055	27989.93
461.261	27959.21
461.466	25905.1
461.672	24840.15
461.878	26687.42
462.083	24797.15
462.289	24238.05
462.494	24514.53
462.7	23087.09
462.905	22614.01
463.111	23412.72
463.316	23486.45
463.522	23017.46
463.727	23105.52
463.932	22562.81
464.138	22712.31
464.343	22603.77
464.549	22372.35
464.754	22888.44
464.959	22505.47
465.165	22562.81
465.37	21264.4
465.575	20930.58
465.781	21866.5
465.986	22052.87
466.191	21098.52
466.397	20772.89
466.602	20000.8
466.807	20240.42
467.012	20453.41
467.218	20539.42
