Data from USB4F104151__29__12-41-13-345.txt Node

Date: Fri Mar 14 12:41:13 EDT 2025
User: louis
Spectrometer: USB4F10415
Trigger mode: 4
Integration Time (sec): 3.000000E-2
Scans to average: 1
Electric dark correction enabled: true
Nonlinearity correction enabled: false
Boxcar width: 0
XAxis mode: Wavelengths
Number of Pixels in Spectrum: 3648
>>>>>Begin Spectral Data<<<<<
178.204	-199.51
178.424	-199.51
178.644	-199.51
178.864	-179.03
179.084	-138.07
179.304	-37.72
179.524	-88.92
179.744	-17.24
179.964	76.97
180.184	-60.24
180.404	52.39
180.624	23.72
180.844	5.29
181.064	-41.81
181.283	74.92
181.503	-41.81
181.723	54.44
181.943	15.53
182.163	107.69
182.383	15.53
182.602	54.44
182.822	-17.24
183.042	68.78
183.262	-4.95
183.482	3.24
183.701	-37.72
183.921	52.39
184.141	-52.05
184.361	5.29
184.58	-29.52
184.8	85.16
185.02	9.39
185.239	25.77
185.459	-7
185.679	66.73
185.898	-52.05
186.118	33.96
186.338	52.39
186.557	31.91
186.777	-86.87
186.997	11.43
187.216	-43.86
187.436	44.2
187.655	-4.95
187.875	42.15
188.095	5.29
188.314	44.2
188.534	31.91
188.753	-66.39
188.973	-9.05
189.192	70.83
189.412	-2.9
189.631	62.63
189.851	19.63
190.07	40.11
190.29	3.24
190.509	25.77
190.729	-25.43
190.948	-13.14
191.168	154.79
191.387	46.25
191.607	-23.38
191.826	-33.62
192.045	-64.34
192.265	58.54
192.484	17.58
192.704	15.53
192.923	-54.1
193.142	56.49
193.362	15.53
193.581	36.01
193.8	38.06
194.02	13.48
194.239	74.92
194.458	5.29
194.678	3.24
194.897	9.39
195.116	15.53
195.335	36.01
195.555	23.72
195.774	3.24
195.993	-9.05
196.212	27.82
196.432	11.43
196.651	33.96
196.87	-72.53
197.089	68.78
197.308	105.64
197.528	5.29
197.747	31.91
197.966	60.59
198.185	83.11
198.404	-19.29
198.623	68.78
198.842	-25.43
199.062	-33.62
199.281	-13.14
199.5	-95.06
199.719	44.2
199.938	44.2
200.157	-23.38
200.376	-35.67
200.595	9.39
200.814	-7
201.033	-35.67
201.252	50.35
201.471	42.15
201.69	62.63
201.909	36.01
202.128	-56.15
202.347	44.2
202.566	-9.05
202.785	-41.81
203.004	-54.1
203.223	119.98
203.442	66.73
203.661	-19.29
203.879	-15.19
204.098	13.48
204.317	-0.85
204.536	126.12
204.755	-19.29
204.974	29.87
205.193	5.29
205.411	66.73
205.63	44.2
205.849	23.72
206.068	74.92
206.287	44.2
206.505	124.07
206.724	-45.91
206.943	48.3
207.162	1.19
207.381	-37.72
207.599	-43.86
207.818	-4.95
208.037	-4.95
208.255	-37.72
208.474	1.19
208.693	-35.67
208.911	50.35
209.13	9.39
209.349	15.53
209.567	83.11
209.786	23.72
210.005	48.3
210.223	25.77
210.442	36.01
210.661	-0.85
210.879	-9.05
211.098	36.01
211.316	13.48
211.535	40.11
211.753	-37.72
211.972	48.3
212.191	64.68
212.409	-25.43
212.628	25.77
212.846	1.19
213.065	-21.33
213.283	-0.85
213.502	7.34
213.72	23.72
213.938	11.43
214.157	-56.15
214.375	-0.85
214.594	33.96
214.812	62.63
215.031	-0.85
215.249	-17.24
215.467	-13.14
215.686	-7
215.904	97.45
216.122	-35.67
216.341	29.87
216.559	54.44
216.778	29.87
216.996	66.73
217.214	-41.81
217.432	11.43
217.651	17.58
217.869	-50
218.087	83.11
218.306	-7
218.524	42.15
218.742	21.67
218.96	87.21
219.179	-23.38
219.397	9.39
219.615	122.02
219.833	33.96
220.051	87.21
220.27	13.48
220.488	40.11
220.706	-0.85
220.924	27.82
221.142	48.3
221.36	19.63
221.578	56.49
221.796	31.91
222.015	11.43
222.233	-11.09
222.451	103.59
222.669	-33.62
222.887	15.53
223.105	-17.24
223.323	-13.14
223.541	-29.52
223.759	-11.09
223.977	-19.29
224.195	76.97
224.413	74.92
224.631	-29.52
224.849	54.44
225.067	11.43
225.285	3.24
225.503	25.77
225.721	-19.29
225.939	81.07
226.157	-2.9
226.375	99.5
226.592	-17.24
226.81	113.83
227.028	17.58
227.246	79.02
227.464	85.16
227.682	44.2
227.9	42.15
228.117	9.39
228.335	54.44
228.553	-15.19
228.771	-9.05
228.989	-9.05
229.206	-13.14
229.424	-33.62
229.642	1.19
229.86	-11.09
230.077	91.31
230.295	31.91
230.513	91.31
230.731	-13.14
230.948	15.53
231.166	-17.24
231.384	17.58
231.601	42.15
231.819	5.29
232.037	27.82
232.254	76.97
232.472	-21.33
232.689	-2.9
232.907	81.07
233.125	-25.43
233.342	-21.33
233.56	5.29
233.777	-33.62
233.995	50.35
234.213	76.97
234.43	42.15
234.648	21.67
234.865	-80.72
235.083	11.43
235.3	48.3
235.518	19.63
235.735	70.83
235.953	27.82
236.17	-27.48
236.388	52.39
236.605	21.67
236.822	76.97
237.04	48.3
237.257	-11.09
237.475	-23.38
237.692	-21.33
237.909	11.43
238.127	-68.44
238.344	64.68
238.562	25.77
238.779	-58.2
238.996	-9.05
239.214	-11.09
239.431	29.87
239.648	91.31
239.865	72.87
240.083	48.3
240.3	-19.29
240.517	-31.57
240.735	70.83
240.952	29.87
241.169	60.59
241.386	70.83
241.603	3.24
241.821	-90.96
242.038	72.87
242.255	19.63
242.472	-9.05
242.689	17.58
242.907	62.63
243.124	52.39
243.341	-64.34
243.558	-11.09
243.775	-33.62
243.992	-15.19
244.209	1.19
244.426	74.92
244.643	-9.05
244.86	19.63
245.078	38.06
245.295	7.34
245.512	42.15
245.729	23.72
245.946	42.15
246.163	25.77
246.38	109.74
246.597	-17.24
246.814	97.45
247.031	-19.29
247.248	19.63
247.464	-15.19
247.681	-0.85
247.898	42.15
248.115	40.11
248.332	-54.1
248.549	74.92
248.766	93.35
248.983	9.39
249.2	44.2
249.417	97.45
249.633	40.11
249.85	42.15
250.067	25.77
250.284	40.11
250.501	52.39
250.717	54.44
250.934	-21.33
251.151	-23.38
251.368	-9.05
251.585	15.53
251.801	19.63
252.018	-31.57
252.235	89.26
252.451	42.15
252.668	25.77
252.885	72.87
253.102	68.78
253.318	11.43
253.535	33.96
253.752	25.77
253.968	27.82
254.185	-45.91
254.401	-17.24
254.618	40.11
254.835	-35.67
255.051	15.53
255.268	36.01
255.484	36.01
255.701	91.31
255.917	36.01
256.134	-15.19
256.351	27.82
256.567	5.29
256.784	46.25
257	-52.05
257.217	76.97
257.433	44.2
257.65	62.63
257.866	25.77
258.082	-9.05
258.299	-50
258.515	-17.24
258.732	1.19
258.948	5.29
259.165	29.87
259.381	27.82
259.597	11.43
259.814	-47.96
260.03	9.39
260.246	44.2
260.463	81.07
260.679	27.82
260.895	23.72
261.112	19.63
261.328	9.39
261.544	56.49
261.761	81.07
261.977	-13.14
262.193	-60.24
262.409	93.35
262.626	-37.72
262.842	42.15
263.058	-2.9
263.274	-93.01
263.49	13.48
263.707	19.63
263.923	87.21
264.139	68.78
264.355	33.96
264.571	74.92
264.787	1.19
265.004	83.11
265.22	-4.95
265.436	33.96
265.652	-76.63
265.868	38.06
266.084	17.58
266.3	62.63
266.516	-43.86
266.732	-54.1
266.948	119.98
267.164	107.69
267.38	-17.24
267.596	-17.24
267.812	52.39
268.028	33.96
268.244	9.39
268.46	56.49
268.676	5.29
268.892	74.92
269.108	-47.96
269.324	60.59
269.54	68.78
269.756	79.02
269.972	29.87
270.188	79.02
270.403	-33.62
270.619	81.07
270.835	19.63
271.051	56.49
271.267	95.4
271.483	66.73
271.698	-13.14
271.914	31.91
272.13	-68.44
272.346	-2.9
272.562	7.34
272.777	85.16
272.993	-9.05
273.209	25.77
273.425	81.07
273.64	15.53
273.856	38.06
274.072	46.25
274.287	48.3
274.503	52.39
274.719	46.25
274.934	11.43
275.15	-13.14
275.366	38.06
275.581	-27.48
275.797	25.77
276.012	58.54
276.228	56.49
276.444	1.19
276.659	11.43
276.875	27.82
277.09	36.01
277.306	11.43
277.521	9.39
277.737	31.91
277.952	42.15
278.168	40.11
278.383	40.11
278.599	-0.85
278.814	40.11
279.03	23.72
279.245	42.15
279.461	7.34
279.676	-52.05
279.892	-17.24
280.107	-37.72
280.322	25.77
280.538	130.22
280.753	29.87
280.969	13.48
281.184	36.01
281.399	91.31
281.615	19.63
281.83	60.59
282.045	-50
282.26	27.82
282.476	52.39
282.691	81.07
282.906	56.49
283.122	-21.33
283.337	7.34
283.552	91.31
283.767	56.49
283.983	76.97
284.198	-11.09
284.413	56.49
284.628	-45.91
284.843	50.35
285.058	60.59
285.274	-37.72
285.489	11.43
285.704	-21.33
285.919	-19.29
286.134	-21.33
286.349	15.53
286.564	11.43
286.779	124.07
286.995	-13.14
287.21	-37.72
287.425	-19.29
287.64	72.87
287.855	7.34
288.07	-7
288.285	-0.85
288.5	-13.14
288.715	-27.48
288.93	-60.24
289.145	15.53
289.36	31.91
289.575	-4.95
289.79	50.35
290.004	52.39
290.219	13.48
290.434	40.11
290.649	38.06
290.864	-4.95
291.079	-29.52
291.294	-13.14
291.509	60.59
291.724	-4.95
291.938	1.19
292.153	42.15
292.368	31.91
292.583	119.98
292.798	-25.43
293.012	56.49
293.227	-17.24
293.442	48.3
293.657	17.58
293.871	60.59
294.086	42.15
294.301	101.55
294.516	66.73
294.73	21.67
294.945	29.87
295.16	40.11
295.374	11.43
295.589	-4.95
295.804	29.87
296.018	58.54
296.233	36.01
296.447	23.72
296.662	-19.29
296.877	31.91
297.091	3.24
297.306	-52.05
297.52	-4.95
297.735	70.83
297.949	60.59
298.164	9.39
298.378	29.87
298.593	-13.14
298.807	62.63
299.022	68.78
299.236	50.35
299.451	15.53
299.665	-23.38
299.88	40.11
300.094	9.39
300.309	33.96
300.523	58.54
300.737	46.25
300.952	-9.05
301.166	-66.39
301.381	1.19
301.595	70.83
301.809	74.92
302.024	-19.29
302.238	-7
302.452	-17.24
302.667	81.07
302.881	60.59
303.095	11.43
303.309	62.63
303.524	-39.76
303.738	-11.09
303.952	9.39
304.166	46.25
304.381	-17.24
304.595	115.88
304.809	-25.43
305.023	9.39
305.237	-4.95
305.452	56.49
305.666	124.07
305.88	19.63
306.094	11.43
306.308	-0.85
306.522	15.53
306.736	-50
306.95	68.78
307.164	-0.85
307.379	85.16
307.593	25.77
307.807	56.49
308.021	3.24
308.235	50.35
308.449	-54.1
308.663	-27.48
308.877	105.64
309.091	107.69
309.305	87.21
309.519	-25.43
309.733	-2.9
309.947	-15.19
310.161	13.48
310.374	40.11
310.588	62.63
310.802	91.31
311.016	5.29
311.23	50.35
311.444	-60.24
311.658	-33.62
311.872	11.43
312.085	64.68
312.299	52.39
312.513	54.44
312.727	68.78
312.941	68.78
313.154	29.87
313.368	25.77
313.582	-2.9
313.796	52.39
314.009	1.19
314.223	91.31
314.437	19.63
314.651	48.3
314.864	-0.85
315.078	15.53
315.292	19.63
315.505	13.48
315.719	33.96
315.933	11.43
316.146	15.53
316.36	33.96
316.573	97.45
316.787	93.35
317.001	42.15
317.214	3.24
317.428	38.06
317.641	-62.29
317.855	42.15
318.068	38.06
318.282	38.06
318.495	31.91
318.709	87.21
318.922	46.25
319.136	62.63
319.349	64.68
319.563	-19.29
319.776	-7
319.99	-29.52
320.203	-4.95
320.417	-27.48
320.63	83.11
320.843	97.45
321.057	23.72
321.27	46.25
321.483	122.02
321.697	74.92
321.91	-7
322.124	66.73
322.337	95.4
322.55	-25.43
322.763	-37.72
322.977	36.01
323.19	-50
323.403	54.44
323.617	68.78
323.83	9.39
324.043	-64.34
324.256	33.96
324.469	3.24
324.683	7.34
324.896	7.34
325.109	72.87
325.322	-7
325.535	25.77
325.748	62.63
325.962	-56.15
326.175	-19.29
326.388	124.07
326.601	23.72
326.814	-13.14
327.027	-21.33
327.24	74.92
327.453	-29.52
327.666	21.67
327.879	44.2
328.092	111.78
328.305	-23.38
328.518	3.24
328.731	27.82
328.944	23.72
329.157	33.96
329.37	-17.24
329.583	19.63
329.796	111.78
330.009	-23.38
330.222	60.59
330.435	58.54
330.648	9.39
330.861	93.35
331.073	31.91
331.286	44.2
331.499	27.82
331.712	9.39
331.925	56.49
332.138	87.21
332.35	42.15
332.563	-29.52
332.776	46.25
332.989	58.54
333.202	11.43
333.414	17.58
333.627	54.44
333.84	-25.43
334.053	15.53
334.265	-13.14
334.478	-27.48
334.691	56.49
334.903	3.24
335.116	-45.91
335.329	-29.52
335.541	68.78
335.754	48.3
335.966	46.25
336.179	36.01
336.392	-17.24
336.604	40.11
336.817	87.21
337.029	119.98
337.242	-21.33
337.454	72.87
337.667	5.29
337.88	156.84
338.092	23.72
338.305	66.73
338.517	31.91
338.729	19.63
338.942	70.83
339.154	-19.29
339.367	21.67
339.579	54.44
339.792	-4.95
340.004	83.11
340.217	64.68
340.429	42.15
340.641	-58.2
340.854	27.82
341.066	74.92
341.278	50.35
341.491	72.87
341.703	81.07
341.915	-9.05
342.128	46.25
342.34	21.67
342.552	70.83
342.764	87.21
342.977	93.35
343.189	25.77
343.401	68.78
343.613	7.34
343.826	13.48
344.038	-31.57
344.25	15.53
344.462	15.53
344.674	17.58
344.886	-50
345.099	58.54
345.311	17.58
345.523	36.01
345.735	31.91
345.947	17.58
346.159	44.2
346.371	60.59
346.583	1.19
346.795	134.31
347.007	85.16
347.219	9.39
347.431	-2.9
347.643	64.68
347.855	50.35
348.067	76.97
348.279	5.29
348.491	15.53
348.703	42.15
348.915	7.34
349.127	17.58
349.339	70.83
349.551	-13.14
349.763	60.59
349.975	33.96
350.187	83.11
350.399	56.49
350.61	27.82
350.822	-7
351.034	44.2
351.246	-35.67
351.458	66.73
351.669	58.54
351.881	62.63
352.093	31.91
352.305	124.07
352.517	85.16
352.728	21.67
352.94	27.82
353.152	-19.29
353.363	5.29
353.575	-15.19
353.787	25.77
353.999	91.31
354.21	93.35
354.422	13.48
354.633	-9.05
354.845	70.83
355.057	27.82
355.268	19.63
355.48	74.92
355.692	79.02
355.903	-17.24
356.115	58.54
356.326	-45.91
356.538	27.82
356.749	93.35
356.961	25.77
357.172	85.16
357.384	87.21
357.595	113.83
357.807	23.72
358.018	21.67
358.23	95.4
358.441	48.3
358.653	95.4
358.864	58.54
359.075	42.15
359.287	42.15
359.498	56.49
359.709	19.63
359.921	-13.14
360.132	44.2
360.344	42.15
360.555	19.63
360.766	25.77
360.977	5.29
361.189	101.55
361.4	85.16
361.611	27.82
361.823	70.83
362.034	119.98
362.245	29.87
362.456	76.97
362.667	64.68
362.879	25.77
363.09	62.63
363.301	50.35
363.512	50.35
363.723	128.17
363.935	31.91
364.146	23.72
364.357	50.35
364.568	70.83
364.779	23.72
364.99	117.93
365.201	31.91
365.412	56.49
365.623	42.15
365.834	29.87
366.045	-4.95
366.256	62.63
366.467	70.83
366.678	19.63
366.889	23.72
367.1	40.11
367.311	70.83
367.522	11.43
367.733	79.02
367.944	33.96
368.155	83.11
368.366	156.84
368.577	95.4
368.788	81.07
368.999	56.49
369.209	-25.43
369.42	13.48
369.631	60.59
369.842	64.68
370.053	50.35
370.264	17.58
370.474	38.06
370.685	7.34
370.896	-47.96
371.107	15.53
371.317	56.49
371.528	36.01
371.739	124.07
371.95	48.3
372.16	111.78
372.371	-7
372.582	1.19
372.792	109.74
373.003	89.26
373.214	74.92
373.424	48.3
373.635	44.2
373.846	5.29
374.056	23.72
374.267	-27.48
374.477	56.49
374.688	25.77
374.898	31.91
375.109	74.92
375.319	99.5
375.53	142.5
375.74	119.98
375.951	29.87
376.161	97.45
376.372	83.11
376.582	85.16
376.793	68.78
377.003	46.25
377.214	40.11
377.424	-9.05
377.635	58.54
377.845	-25.43
378.055	60.59
378.266	-17.24
378.476	23.72
378.686	42.15
378.897	95.4
379.107	-7
379.317	48.3
379.528	19.63
379.738	17.58
379.948	31.91
380.158	79.02
380.369	-13.14
380.579	91.31
380.789	29.87
380.999	72.87
381.21	97.45
381.42	146.6
381.63	64.68
381.84	5.29
382.05	25.77
382.261	9.39
382.471	126.12
382.681	130.22
382.891	25.77
383.101	72.87
383.311	-29.52
383.521	124.07
383.731	40.11
383.941	38.06
384.151	-45.91
384.361	89.26
384.571	-2.9
384.781	13.48
384.991	60.59
385.201	101.55
385.411	109.74
385.621	48.3
385.831	74.92
386.041	46.25
386.251	-0.85
386.461	19.63
386.671	3.24
386.881	68.78
387.091	64.68
387.301	-2.9
387.511	9.39
387.72	25.77
387.93	3.24
388.14	-13.14
388.35	101.55
388.56	150.7
388.769	46.25
388.979	87.21
389.189	-0.85
389.399	44.2
389.609	13.48
389.818	52.39
390.028	99.5
390.238	117.93
390.447	19.63
390.657	36.01
390.867	97.45
391.076	50.35
391.286	-0.85
391.496	40.11
391.705	40.11
391.915	119.98
392.125	103.59
392.334	21.67
392.544	46.25
392.753	58.54
392.963	60.59
393.172	-13.14
393.382	46.25
393.591	85.16
393.801	87.21
394.01	76.97
394.22	154.79
394.429	97.45
394.639	64.68
394.848	134.31
395.058	25.77
395.267	95.4
395.477	97.45
395.686	134.31
395.895	134.31
396.105	115.88
396.314	134.31
396.524	142.5
396.733	60.59
396.942	107.69
397.152	56.49
397.361	165.03
397.57	91.31
397.78	105.64
397.989	62.63
398.198	156.84
398.407	70.83
398.617	70.83
398.826	95.4
399.035	79.02
399.244	107.69
399.453	150.7
399.663	91.31
399.872	148.65
400.081	68.78
400.29	236.71
400.499	101.55
400.708	216.23
400.917	109.74
401.127	81.07
401.336	89.26
401.545	140.46
401.754	162.98
401.963	171.18
402.172	117.93
402.381	101.55
402.59	156.84
402.799	83.11
403.008	117.93
403.217	162.98
403.426	132.26
403.635	142.5
403.844	160.94
404.053	128.17
404.262	193.7
404.471	214.18
404.68	193.7
404.888	224.42
405.097	177.32
405.306	91.31
405.515	246.95
405.724	119.98
405.933	224.42
406.142	212.14
406.35	197.8
406.559	197.8
406.768	208.04
406.977	185.51
407.185	314.53
407.394	226.47
407.603	148.65
407.812	292.01
408.02	273.57
408.229	249
408.438	292.01
408.646	267.43
408.855	222.38
409.064	238.76
409.272	320.68
409.481	412.84
409.69	242.85
409.898	337.06
410.107	382.12
410.315	388.26
410.524	361.64
410.733	445.6
410.941	328.87
411.15	359.59
411.358	478.37
411.567	466.08
411.775	531.62
411.984	486.56
412.192	480.42
412.401	496.8
412.609	541.86
412.818	636.06
413.026	533.67
413.234	617.63
413.443	668.83
413.651	560.29
413.86	617.63
414.068	717.98
414.276	664.74
414.485	797.85
414.693	865.44
414.901	799.9
415.11	916.64
415.318	801.95
415.526	949.4
415.734	877.73
415.943	910.49
416.151	1082.52
416.359	1008.8
416.567	1000.6
416.776	1082.52
416.984	1174.68
417.192	1096.86
417.4	1156.25
417.608	1127.58
417.817	1242.26
418.025	1367.19
418.233	1477.78
418.441	1334.42
418.649	1381.53
418.857	1500.31
419.065	1559.7
419.273	1559.7
419.481	1676.43
419.689	1705.1
419.897	1875.09
420.105	1901.71
420.313	1895.57
420.521	1952.91
420.729	1985.68
420.937	2034.83
421.145	2049.16
421.353	2253.96
421.561	2251.91
421.769	2374.79
421.977	2503.81
422.185	2434.18
422.393	2575.49
422.601	2776.19
422.809	2698.37
423.017	2862.21
423.224	2935.93
423.432	3054.72
423.64	3042.43
423.848	3355.77
424.056	3249.27
424.263	3552.37
424.471	3525.75
424.679	3628.15
424.887	3712.11
425.094	3906.67
425.302	4095.08
425.51	3863.66
425.718	4168.81
425.925	4297.83
426.133	4330.6
426.341	4482.15
426.548	4901.98
426.756	4811.87
426.964	4912.22
427.171	5071.97
427.379	5438.55
427.586	5215.32
427.794	5579.86
428.001	5749.84
428.209	6075.47
428.417	5809.23
428.624	6370.38
428.832	6521.93
429.039	6345.8
429.247	6294.6
429.454	6949.95
429.662	7402.55
429.869	6833.22
430.076	7431.23
430.284	7492.66
430.491	7486.52
430.699	7916.59
430.906	7920.69
431.114	8057.9
431.321	8336.43
431.528	8668.2
431.736	9188.38
431.943	9466.91
432.15	9227.29
432.358	9280.54
432.565	9884.69
432.772	9921.56
432.979	10249.23
433.187	10581
433.394	10456.08
433.601	11213.82
433.808	11281.41
434.016	11174.91
434.223	11686.9
434.43	12258.29
434.637	12454.89
434.844	12938.21
435.052	13265.89
435.259	13083.62
435.466	13132.77
435.673	13177.83
435.88	14240.72
436.087	14640.08
436.294	14908.36
436.501	14414.8
436.708	14908.36
436.915	15338.43
437.122	15862.71
437.329	15782.84
437.537	16530.35
437.743	16473.01
437.95	16565.17
438.157	17343.39
438.364	17992.6
438.571	17841.05
438.778	17959.83
438.985	19737.47
439.192	18862.99
439.399	19598.21
439.606	19215.24
439.813	20286.33
440.02	21455.72
440.227	21033.83
440.433	20671.34
440.64	21404.52
440.847	21044.07
441.054	22104.92
441.261	23452.48
441.467	23216.97
441.674	23401.29
441.881	24441.65
442.088	24472.37
442.294	23829.31
442.501	24570.68
442.708	25230.12
442.914	26411.8
443.121	27523.85
443.328	26592.02
443.534	28594.93
443.741	27853.57
443.948	27226.89
444.154	29319.92
444.361	28947.18
444.568	29729.51
444.774	29434.6
444.981	29393.64
445.187	30175.97
445.394	31658.7
445.6	31412.94
445.807	34495.13
446.013	32957.11
446.22	33632.94
446.426	34912.92
446.633	35160.72
446.839	36184.71
447.046	34388.64
447.252	36522.62
447.459	36590.2
447.665	36375.17
447.871	38261.35
448.078	40241.73
448.284	38283.87
448.491	39238.23
448.697	40563.26
448.903	40897.08
449.11	41312.82
449.316	40577.6
449.522	41513.52
449.728	42250.79
449.935	43049.5
450.141	42752.54
450.347	43674.13
450.553	42496.55
450.76	42656.29
450.966	44288.52
451.172	43672.08
451.378	44884.48
451.584	43784.72
451.791	44894.72
451.997	44841.47
452.203	45339.13
452.409	45769.2
452.615	45111.8
452.821	43631.12
453.027	43188.76
453.233	45486.58
453.44	43665.94
453.646	44567.04
453.852	44493.32
454.058	45099.51
454.264	43696.66
454.47	44900.86
454.676	43768.33
454.882	45363.7
455.088	41499.19
455.294	41708.08
455.5	42435.11
455.705	42897.95
455.911	41144.89
456.117	40407.62
456.323	39643.73
456.529	37739.11
456.735	39608.91
456.941	38402.66
457.147	37857.9
457.352	36539.01
457.558	36338.3
457.764	36252.29
457.97	35283.6
458.176	34906.77
458.381	35213.97
458.587	33125.04
458.793	33237.68
458.999	31283.92
459.204	33952.42
459.41	32619.19
459.616	30767.83
459.821	30603.99
460.027	30728.92
460.233	29815.52
460.438	28504.82
460.644	28842.74
460.85	27372.3
461.055	27362.06
461.261	26972.94
461.466	24959.79
461.672	24257.34
461.878	26112.8
462.083	24431.41
462.289	23720.77
462.494	23610.18
462.7	22727.5
462.905	21900.12
463.111	22737.74
463.316	22684.5
463.522	22356.82
463.727	22631.25
463.932	22397.78
464.138	21863.26
464.343	22279
464.549	21406.56
464.754	22508.37
464.959	22090.59
465.165	22072.15
465.37	20947.82
465.575	20507.51
465.781	21609.31
465.986	21361.51
466.191	20753.26
466.397	20151.16
466.602	19383.17
466.807	19835.77
467.012	19876.73
