Data from USB4F104151__23__12-41-08-005.txt Node

Date: Fri Mar 14 12:41:08 EDT 2025
User: louis
Spectrometer: USB4F10415
Trigger mode: 4
Integration Time (sec): 3.000000E-2
Scans to average: 1
Electric dark correction enabled: true
Nonlinearity correction enabled: false
Boxcar width: 0
XAxis mode: Wavelengths
Number of Pixels in Spectrum: 3648
>>>>>Begin Spectral Data<<<<<
178.204	-51.54
178.424	-51.54
178.644	-51.54
178.864	-92.5
179.084	-160.08
179.304	-8.53
179.524	-53.59
179.744	57
179.964	-22.87
180.184	-8.53
180.404	44.71
180.624	-18.77
180.844	-12.63
181.064	5.8
181.283	-8.53
181.503	9.9
181.723	16.04
181.943	-80.21
182.163	38.57
182.383	3.75
182.602	11.95
182.822	30.38
183.042	48.81
183.262	44.71
183.482	30.38
183.701	7.85
183.921	18.09
184.141	36.52
184.361	-31.06
184.58	-22.87
184.8	-43.35
185.02	-33.11
185.239	61.1
185.459	5.8
185.679	48.81
185.898	-45.4
186.118	11.95
186.338	-20.82
186.557	28.33
186.777	13.99
186.997	57
187.216	57
187.436	114.34
187.655	73.39
187.875	5.8
188.095	44.71
188.314	40.62
188.534	95.91
188.753	-8.53
188.973	67.24
189.192	61.1
189.412	13.99
189.631	42.67
189.851	83.63
190.07	95.91
190.29	-12.63
190.509	-49.49
190.729	34.47
190.948	104.11
191.168	132.78
191.387	18.09
191.607	44.71
191.826	-8.53
192.045	13.99
192.265	13.99
192.484	-6.49
192.704	75.43
192.923	-49.49
193.142	61.1
193.362	36.52
193.581	89.77
193.8	89.77
194.02	100.01
194.239	7.85
194.458	-8.53
194.678	59.05
194.897	11.95
195.116	9.9
195.335	-26.96
195.555	95.91
195.774	7.85
195.993	11.95
196.212	16.04
196.432	9.9
196.651	28.33
196.87	34.47
197.089	114.34
197.308	-26.96
197.528	-6.49
197.747	-18.77
197.966	-22.87
198.185	40.62
198.404	-6.49
198.623	69.29
198.842	46.76
199.062	59.05
199.281	52.91
199.5	13.99
199.719	57
199.938	61.1
200.157	-0.34
200.376	83.63
200.595	48.81
200.814	-6.49
201.033	61.1
201.252	38.57
201.471	24.23
201.69	48.81
201.909	42.67
202.128	-14.68
202.347	40.62
202.566	57
202.785	-37.2
203.004	57
203.223	89.77
203.442	22.19
203.661	65.19
203.879	-4.44
204.098	5.8
204.317	-37.2
204.536	95.91
204.755	7.85
204.974	83.63
205.193	50.86
205.411	140.97
205.63	26.28
205.849	-53.59
206.068	7.85
206.287	20.14
206.505	112.3
206.724	-8.53
206.943	-55.64
207.162	-24.92
207.381	28.33
207.599	9.9
207.818	59.05
208.037	-8.53
208.255	89.77
208.474	28.33
208.693	20.14
208.911	-18.77
209.13	87.72
209.349	-8.53
209.567	59.05
209.786	85.67
210.005	52.91
210.223	-16.73
210.442	-24.92
210.661	-12.63
210.879	63.15
211.098	13.99
211.316	13.99
211.535	75.43
211.753	24.23
211.972	91.82
212.191	-14.68
212.409	79.53
212.628	7.85
212.846	50.86
213.065	83.63
213.283	16.04
213.502	-12.63
213.72	65.19
213.938	34.47
214.157	20.14
214.375	59.05
214.594	-8.53
214.812	81.58
215.031	67.24
215.249	67.24
215.467	7.85
215.686	77.48
215.904	93.87
216.122	77.48
216.341	13.99
216.559	116.39
216.778	89.77
216.996	87.72
217.214	42.67
217.432	48.81
217.651	22.19
217.869	-24.92
218.087	104.11
218.306	-0.34
218.524	102.06
218.742	52.91
218.96	65.19
219.179	89.77
219.397	71.34
219.615	75.43
219.833	-10.58
220.051	44.71
220.27	108.2
220.488	20.14
220.706	22.19
220.924	7.85
221.142	71.34
221.36	5.8
221.578	46.76
221.796	-29.01
222.015	67.24
222.233	-18.77
222.451	77.48
222.669	7.85
222.887	-12.63
223.105	-14.68
223.323	44.71
223.541	77.48
223.759	67.24
223.977	-6.49
224.195	91.82
224.413	24.23
224.631	61.1
224.849	9.9
225.067	42.67
225.285	26.28
225.503	11.95
225.721	36.52
225.939	44.71
226.157	46.76
226.375	52.91
226.592	-14.68
226.81	11.95
227.028	69.29
227.246	57
227.464	81.58
227.682	-14.68
227.9	34.47
228.117	42.67
228.335	9.9
228.553	59.05
228.771	1.71
228.989	134.82
229.206	24.23
229.424	-37.2
229.642	-10.58
229.86	5.8
230.077	112.3
230.295	40.62
230.513	79.53
230.731	42.67
230.948	16.04
231.166	67.24
231.384	42.67
231.601	48.81
231.819	48.81
232.037	5.8
232.254	-6.49
232.472	28.33
232.689	-10.58
232.907	83.63
233.125	-14.68
233.342	50.86
233.56	36.52
233.777	18.09
233.995	-6.49
234.213	54.95
234.43	50.86
234.648	20.14
234.865	1.71
235.083	38.57
235.3	44.71
235.518	46.76
235.735	91.82
235.953	20.14
236.17	50.86
236.388	20.14
236.605	22.19
236.822	22.19
237.04	36.52
237.257	73.39
237.475	5.8
237.692	40.62
237.909	52.91
238.127	89.77
238.344	54.95
238.562	-8.53
238.779	22.19
238.996	67.24
239.214	30.38
239.431	42.67
239.648	13.99
239.865	26.28
240.083	122.54
240.3	-10.58
240.517	34.47
240.735	9.9
240.952	108.2
241.169	50.86
241.386	95.91
241.603	-10.58
241.821	16.04
242.038	7.85
242.255	16.04
242.472	11.95
242.689	-6.49
242.907	71.34
243.124	67.24
243.341	24.23
243.558	30.38
243.775	7.85
243.992	24.23
244.209	44.71
244.426	108.2
244.643	106.15
244.86	34.47
245.078	69.29
245.295	-14.68
245.512	79.53
245.729	54.95
245.946	46.76
246.163	16.04
246.38	-22.87
246.597	22.19
246.814	22.19
247.031	20.14
247.248	40.62
247.464	40.62
247.681	48.81
247.898	77.48
248.115	30.38
248.332	42.67
248.549	112.3
248.766	85.67
248.983	38.57
249.2	11.95
249.417	40.62
249.633	28.33
249.85	18.09
250.067	20.14
250.284	18.09
250.501	5.8
250.717	24.23
250.934	48.81
251.151	83.63
251.368	13.99
251.585	61.1
251.801	34.47
252.018	-37.2
252.235	63.15
252.451	7.85
252.668	81.58
252.885	87.72
253.102	40.62
253.318	63.15
253.535	106.15
253.752	5.8
253.968	46.76
254.185	-10.58
254.401	-29.01
254.618	57
254.835	7.85
255.051	50.86
255.268	46.76
255.484	65.19
255.701	16.04
255.917	32.43
256.134	-10.58
256.351	20.14
256.567	24.23
256.784	-12.63
257	3.75
257.217	7.85
257.433	20.14
257.65	24.23
257.866	106.15
258.082	11.95
258.299	7.85
258.515	3.75
258.732	5.8
258.948	11.95
259.165	-4.44
259.381	46.76
259.597	-2.39
259.814	3.75
260.03	79.53
260.246	63.15
260.463	57
260.679	36.52
260.895	63.15
261.112	42.67
261.328	-31.06
261.544	16.04
261.761	188.07
261.977	-6.49
262.193	-37.2
262.409	-2.39
262.626	26.28
262.842	110.25
263.058	20.14
263.274	120.49
263.49	16.04
263.707	110.25
263.923	89.77
264.139	65.19
264.355	110.25
264.571	28.33
264.787	46.76
265.004	28.33
265.22	38.57
265.436	16.04
265.652	40.62
265.868	18.09
266.084	48.81
266.3	52.91
266.516	7.85
266.732	63.15
266.948	89.77
267.164	34.47
267.38	83.63
267.596	24.23
267.812	24.23
268.028	38.57
268.244	-2.39
268.46	32.43
268.676	-22.87
268.892	18.09
269.108	54.95
269.324	28.33
269.54	5.8
269.756	24.23
269.972	-0.34
270.188	48.81
270.403	-63.83
270.619	13.99
270.835	-31.06
271.051	44.71
271.267	59.05
271.483	28.33
271.698	-39.25
271.914	9.9
272.13	54.95
272.346	-6.49
272.562	52.91
272.777	57
272.993	30.38
273.209	-22.87
273.425	63.15
273.64	-51.54
273.856	97.96
274.072	-18.77
274.287	28.33
274.503	77.48
274.719	95.91
274.934	11.95
275.15	30.38
275.366	18.09
275.581	-18.77
275.797	44.71
276.012	-8.53
276.228	-49.49
276.444	9.9
276.659	-10.58
276.875	59.05
277.09	16.04
277.306	63.15
277.521	87.72
277.737	69.29
277.952	85.67
278.168	26.28
278.383	52.91
278.599	18.09
278.814	100.01
279.03	65.19
279.245	48.81
279.461	63.15
279.676	40.62
279.892	26.28
280.107	13.99
280.322	44.71
280.538	13.99
280.753	22.19
280.969	65.19
281.184	24.23
281.399	106.15
281.615	-0.34
281.83	32.43
282.045	-4.44
282.26	48.81
282.476	5.8
282.691	44.71
282.906	40.62
283.122	-6.49
283.337	44.71
283.552	69.29
283.767	73.39
283.983	-14.68
284.198	-24.92
284.413	63.15
284.628	-2.39
284.843	83.63
285.058	50.86
285.274	42.67
285.489	-63.83
285.704	61.1
285.919	-86.36
286.134	24.23
286.349	-37.2
286.564	73.39
286.779	63.15
286.995	-29.01
287.21	36.52
287.425	40.62
287.64	34.47
287.855	46.76
288.07	-31.06
288.285	110.25
288.5	24.23
288.715	73.39
288.93	13.99
289.145	-47.44
289.36	102.06
289.575	-14.68
289.79	-26.96
290.004	34.47
290.219	71.34
290.434	71.34
290.649	-24.92
290.864	-12.63
291.079	69.29
291.294	46.76
291.509	32.43
291.724	73.39
291.938	9.9
292.153	9.9
292.368	-45.4
292.583	46.76
292.798	81.58
293.012	-4.44
293.227	-41.3
293.442	69.29
293.657	18.09
293.871	20.14
294.086	-18.77
294.301	18.09
294.516	63.15
294.73	54.95
294.945	-45.4
295.16	65.19
295.374	26.28
295.589	11.95
295.804	-2.39
296.018	126.63
296.233	61.1
296.447	13.99
296.662	38.57
296.877	100.01
297.091	26.28
297.306	18.09
297.52	67.24
297.735	75.43
297.949	24.23
298.164	102.06
298.378	57
298.593	65.19
298.807	-10.58
299.022	83.63
299.236	65.19
299.451	57
299.665	38.57
299.88	32.43
300.094	63.15
300.309	50.86
300.523	108.2
300.737	22.19
300.952	-12.63
301.166	34.47
301.381	-6.49
301.595	-22.87
301.809	-53.59
302.024	20.14
302.238	48.81
302.452	112.3
302.667	30.38
302.881	46.76
303.095	61.1
303.309	22.19
303.524	20.14
303.738	81.58
303.952	32.43
304.166	-0.34
304.381	36.52
304.595	-53.59
304.809	44.71
305.023	16.04
305.237	44.71
305.452	9.9
305.666	20.14
305.88	24.23
306.094	24.23
306.308	48.81
306.522	106.15
306.736	46.76
306.95	-0.34
307.164	1.71
307.379	-26.96
307.593	52.91
307.807	-6.49
308.021	42.67
308.235	16.04
308.449	71.34
308.663	-0.34
308.877	52.91
309.091	67.24
309.305	67.24
309.519	-92.5
309.733	32.43
309.947	-55.64
310.161	65.19
310.374	85.67
310.588	79.53
310.802	-24.92
311.016	73.39
311.23	46.76
311.444	5.8
311.658	26.28
311.872	89.77
312.085	122.54
312.299	102.06
312.513	140.97
312.727	28.33
312.941	28.33
313.154	5.8
313.368	81.58
313.582	67.24
313.796	63.15
314.009	40.62
314.223	102.06
314.437	48.81
314.651	46.76
314.864	26.28
315.078	44.71
315.292	9.9
315.505	11.95
315.719	61.1
315.933	122.54
316.146	-8.53
316.36	13.99
316.573	34.47
316.787	28.33
317.001	67.24
317.214	-22.87
317.428	48.81
317.641	-45.4
317.855	-43.35
318.068	97.96
318.282	63.15
318.495	93.87
318.709	59.05
318.922	22.19
319.136	73.39
319.349	40.62
319.563	50.86
319.776	110.25
319.99	-41.3
320.203	63.15
320.417	52.91
320.63	44.71
320.843	73.39
321.057	54.95
321.27	46.76
321.483	44.71
321.697	18.09
321.91	22.19
322.124	79.53
322.337	13.99
322.55	18.09
322.763	85.67
322.977	83.63
323.19	-31.06
323.403	61.1
323.617	116.39
323.83	83.63
324.043	9.9
324.256	42.67
324.469	-12.63
324.683	24.23
324.896	57
325.109	48.81
325.322	83.63
325.535	-4.44
325.748	77.48
325.962	18.09
326.175	18.09
326.388	46.76
326.601	-6.49
326.814	83.63
327.027	40.62
327.24	91.82
327.453	24.23
327.666	-6.49
327.879	75.43
328.092	-0.34
328.305	110.25
328.518	1.71
328.731	20.14
328.944	-6.49
329.157	52.91
329.37	-20.82
329.583	59.05
329.796	132.78
330.009	-0.34
330.222	3.75
330.435	-6.49
330.648	16.04
330.861	95.91
331.073	44.71
331.286	136.87
331.499	38.57
331.712	65.19
331.925	20.14
332.138	40.62
332.35	69.29
332.563	-2.39
332.776	149.16
332.989	24.23
333.202	-18.77
333.414	-22.87
333.627	20.14
333.84	13.99
334.053	42.67
334.265	9.9
334.478	36.52
334.691	-0.34
334.903	38.57
335.116	22.19
335.329	71.34
335.541	54.95
335.754	126.63
335.966	79.53
336.179	44.71
336.392	52.91
336.604	-8.53
336.817	46.76
337.029	89.77
337.242	-6.49
337.454	20.14
337.667	63.15
337.88	52.91
338.092	50.86
338.305	18.09
338.517	89.77
338.729	106.15
338.942	91.82
339.154	13.99
339.367	20.14
339.579	18.09
339.792	3.75
340.004	81.58
340.217	40.62
340.429	-18.77
340.641	-55.64
340.854	34.47
341.066	-0.34
341.278	40.62
341.491	87.72
341.703	71.34
341.915	13.99
342.128	38.57
342.34	67.24
342.552	42.67
342.764	59.05
342.977	32.43
343.189	48.81
343.401	38.57
343.613	-92.5
343.826	46.76
344.038	40.62
344.25	22.19
344.462	-2.39
344.674	18.09
344.886	52.91
345.099	11.95
345.311	120.49
345.523	28.33
345.735	18.09
345.947	26.28
346.159	69.29
346.371	132.78
346.583	93.87
346.795	61.1
347.007	118.44
347.219	-12.63
347.431	28.33
347.643	42.67
347.855	93.87
348.067	46.76
348.279	22.19
348.491	93.87
348.703	73.39
348.915	50.86
349.127	-39.25
349.339	108.2
349.551	63.15
349.763	34.47
349.975	40.62
350.187	79.53
350.399	100.01
350.61	1.71
350.822	93.87
351.034	73.39
351.246	-22.87
351.458	65.19
351.669	59.05
351.881	87.72
352.093	173.74
352.305	75.43
352.517	69.29
352.728	91.82
352.94	114.34
353.152	48.81
353.363	85.67
353.575	87.72
353.787	104.11
353.999	106.15
354.21	48.81
354.422	-2.39
354.633	61.1
354.845	-47.44
355.057	79.53
355.268	95.91
355.48	30.38
355.692	-8.53
355.903	-4.44
356.115	36.52
356.326	-67.92
356.538	93.87
356.749	112.3
356.961	102.06
357.172	75.43
357.384	48.81
357.595	91.82
357.807	85.67
358.018	42.67
358.23	65.19
358.441	83.63
358.653	100.01
358.864	32.43
359.075	34.47
359.287	138.92
359.498	67.24
359.709	57
359.921	-26.96
360.132	71.34
360.344	87.72
360.555	97.96
360.766	65.19
360.977	18.09
361.189	59.05
361.4	24.23
361.611	83.63
361.823	83.63
362.034	65.19
362.245	36.52
362.456	73.39
362.667	79.53
362.879	-33.11
363.09	-29.01
363.301	116.39
363.512	46.76
363.723	40.62
363.935	48.81
364.146	112.3
364.357	59.05
364.568	83.63
364.779	7.85
364.99	100.01
365.201	-33.11
365.412	28.33
365.623	-39.25
365.834	26.28
366.045	22.19
366.256	54.95
366.467	32.43
366.678	48.81
366.889	24.23
367.1	-22.87
367.311	59.05
367.522	44.71
367.733	38.57
367.944	104.11
368.155	52.91
368.366	28.33
368.577	110.25
368.788	52.91
368.999	44.71
369.209	-31.06
369.42	7.85
369.631	124.58
369.842	110.25
370.053	36.52
370.264	9.9
370.474	65.19
370.685	87.72
370.896	46.76
371.107	30.38
371.317	87.72
371.528	-4.44
371.739	50.86
371.95	30.38
372.16	28.33
372.371	5.8
372.582	42.67
372.792	34.47
373.003	87.72
373.214	100.01
373.424	34.47
373.635	-6.49
373.846	89.77
374.056	22.19
374.267	77.48
374.477	38.57
374.688	40.62
374.898	34.47
375.109	44.71
375.319	13.99
375.53	57
375.74	122.54
375.951	38.57
376.161	81.58
376.372	118.44
376.582	-2.39
376.793	73.39
377.003	26.28
377.214	110.25
377.424	93.87
377.635	34.47
377.845	61.1
378.055	28.33
378.266	-20.82
378.476	93.87
378.686	102.06
378.897	100.01
379.107	97.96
379.317	61.1
379.528	-29.01
379.738	83.63
379.948	30.38
380.158	-8.53
380.369	40.62
380.579	-4.44
380.789	75.43
380.999	97.96
381.21	128.68
381.42	114.34
381.63	106.15
381.84	65.19
382.05	102.06
382.261	151.21
382.471	9.9
382.681	13.99
382.891	75.43
383.101	52.91
383.311	44.71
383.521	18.09
383.731	114.34
383.941	69.29
384.151	124.58
384.361	28.33
384.571	126.63
384.781	97.96
384.991	89.77
385.201	106.15
385.411	89.77
385.621	85.67
385.831	91.82
386.041	50.86
386.251	1.71
386.461	73.39
386.671	32.43
386.881	122.54
387.091	61.1
387.301	38.57
387.511	-12.63
387.72	85.67
387.93	147.11
388.14	16.04
388.35	97.96
388.56	120.49
388.769	104.11
388.979	59.05
389.189	85.67
389.399	61.1
389.609	77.48
389.818	34.47
390.028	97.96
390.238	61.1
390.447	65.19
390.657	54.95
390.867	36.52
391.076	34.47
391.286	69.29
391.496	54.95
391.705	59.05
391.915	116.39
392.125	112.3
392.334	63.15
392.544	143.02
392.753	95.91
392.963	122.54
393.172	112.3
393.382	-35.16
393.591	132.78
393.801	91.82
394.01	149.16
394.22	-8.53
394.429	65.19
394.639	126.63
394.848	83.63
395.058	73.39
395.267	48.81
395.477	95.91
395.686	104.11
395.895	95.91
396.105	83.63
396.314	140.97
396.524	181.93
396.733	38.57
396.942	77.48
397.152	112.3
397.361	138.92
397.57	153.26
397.78	83.63
397.989	67.24
398.198	110.25
398.407	71.34
398.617	75.43
398.826	128.68
399.035	153.26
399.244	48.81
399.453	75.43
399.663	128.68
399.872	110.25
400.081	46.76
400.29	114.34
400.499	93.87
400.708	134.82
400.917	136.87
401.127	171.69
401.336	83.63
401.545	269.99
401.754	75.43
401.963	138.92
402.172	46.76
402.381	136.87
402.59	136.87
402.799	186.02
403.008	116.39
403.217	280.23
403.426	159.4
403.635	26.28
403.844	110.25
404.053	186.02
404.262	229.03
404.471	179.88
404.68	147.11
404.888	114.34
405.097	169.64
405.306	102.06
405.515	179.88
405.724	163.5
405.933	169.64
406.142	231.08
406.35	222.89
406.559	171.69
406.768	122.54
406.977	272.04
407.185	214.7
407.394	231.08
407.603	208.55
407.812	222.89
408.02	233.13
408.229	138.92
408.438	235.18
408.646	179.88
408.855	272.04
409.064	323.24
409.272	288.42
409.481	327.33
409.69	315.05
409.898	343.72
410.107	329.38
410.315	347.81
410.524	282.28
410.733	329.38
410.941	304.81
411.15	374.44
411.358	386.72
411.567	517.79
411.775	421.54
411.984	476.84
412.192	442.02
412.401	487.08
412.609	476.84
412.818	558.75
413.026	622.24
413.234	548.51
413.443	601.76
413.651	583.33
413.86	632.48
414.068	622.24
414.276	708.26
414.485	638.62
414.693	755.36
414.901	722.59
415.11	763.55
415.318	810.65
415.526	771.74
415.734	874.14
415.943	945.82
416.151	917.15
416.359	892.57
416.567	919.2
416.776	1017.5
416.984	1058.46
417.192	1064.6
417.4	1050.27
417.608	1068.7
417.817	1068.7
418.025	1167
418.233	1353.37
418.441	1269.4
418.649	1273.5
418.857	1425.04
419.065	1439.38
419.273	1363.61
419.481	1367.7
419.689	1517.2
419.897	1580.69
420.105	1683.09
420.313	1758.86
420.521	1801.87
420.729	1687.18
420.937	1900.17
421.145	1871.5
421.353	1965.71
421.561	2170.51
421.769	2203.27
421.977	2317.96
422.185	2248.33
422.393	2268.81
422.601	2514.56
422.809	2576
423.017	2533
423.224	2576
423.432	2717.31
423.64	2727.55
423.848	3036.8
424.056	2967.17
424.263	3198.59
424.471	3128.95
424.679	3204.73
424.887	3337.85
425.094	3341.94
425.302	3475.06
425.51	3753.59
425.718	3679.86
425.925	3823.22
426.133	3849.84
426.341	4128.36
426.548	4337.26
426.756	4259.43
426.964	4456.04
427.171	4540.01
427.379	4630.12
427.586	4812.39
427.794	4804.19
428.001	5291.61
428.209	5570.13
428.417	5232.22
428.624	5733.97
428.832	5772.88
429.039	5834.32
429.247	5750.35
429.454	6207.05
429.662	6450.76
429.869	6227.53
430.076	6755.91
430.284	6456.9
430.491	6641.22
430.699	7038.53
430.906	7065.15
431.114	7220.8
431.321	7392.83
431.528	7538.23
431.736	8166.96
431.943	8523.3
432.15	8306.22
432.358	8332.84
432.565	8775.2
432.772	8885.8
432.979	9395.74
433.187	9381.4
433.394	9289.24
433.601	9963.03
433.808	10253.84
434.016	9979.41
434.223	10427.92
434.43	11023.87
434.637	10696.2
434.844	11726.33
435.052	11714.04
435.259	11877.88
435.466	11769.34
435.673	11554.3
435.88	12518.89
436.087	12948.97
436.294	13270.5
436.501	12625.39
436.708	13184.48
436.915	13606.36
437.122	14015.96
437.329	14032.34
437.537	14751.18
437.743	14970.31
437.95	14620.11
438.157	15203.78
438.364	15973.81
438.571	16207.28
438.778	16057.78
438.985	17642.91
439.192	16938.41
439.399	17218.98
439.606	16840.11
439.813	17982.87
440.02	19260.8
440.227	18619.79
440.433	18482.58
440.64	19527.04
440.847	18750.86
441.054	19582.34
441.261	20532.59
441.467	20524.4
441.674	20827.5
441.881	21878.11
442.088	21677.41
442.294	21876.06
442.501	22027.61
442.708	22400.34
442.914	23086.41
443.121	24333.62
443.328	23649.6
443.534	25294.12
443.741	24866.1
443.948	24173.88
444.154	26053.92
444.361	26160.41
444.568	25920.8
444.774	26316.06
444.981	26422.55
445.187	27094.29
445.394	28247.29
445.6	27950.34
445.807	30727.38
446.013	29283.56
446.22	29789.41
446.426	30993.62
446.633	31214.8
446.839	32599.23
447.046	30966.99
447.252	32638.14
447.459	33299.63
447.665	32566.46
447.871	33889.45
448.078	35646.6
448.284	34206.88
448.491	34776.22
448.697	36211.84
448.903	36689.02
449.11	36947.06
449.316	36412.54
449.522	37092.47
449.728	37837.93
449.935	38405.22
450.141	38136.93
450.347	38941.78
450.553	37891.18
450.76	38370.4
450.966	39595.09
451.172	39353.43
451.378	40348.74
451.584	39326.8
451.791	40244.29
451.997	40250.44
452.203	40885.31
452.409	41368.63
452.615	40690.75
452.821	39136.34
453.027	38792.28
453.233	40987.71
453.44	39273.56
453.646	39857.23
453.852	39767.12
454.058	40442.95
454.264	39109.72
454.47	40246.34
454.676	39257.17
454.882	40520.77
455.088	37104.76
455.294	37645.42
455.5	38210.66
455.705	38616.16
455.911	36967.54
456.117	36263.04
456.323	35763.34
456.529	34084
456.735	35382.41
456.941	34692.25
457.147	33766.57
457.352	33098.93
457.558	32470.2
457.764	32789.69
457.97	32101.57
458.176	31280.33
458.381	31157.46
458.587	29773.03
458.793	29963.49
458.999	28353.79
459.204	30459.1
459.41	29312.24
459.616	27147.53
459.821	27450.63
460.027	27600.13
460.233	26869.01
460.438	25802.02
460.644	25838.88
460.85	24706.35
461.055	24374.58
461.261	24255.8
461.466	22402.39
461.672	22109.53
461.878	23151.95
462.083	21831.01
462.289	21228.9
462.494	21005.67
462.7	20264.31
462.905	19864.96
463.111	20411.76
463.316	20415.86
463.522	19907.96
463.727	19801.47
463.932	20051.32
464.138	19518.85
464.343	19893.63
464.549	19056.01
464.754	19842.43
464.959	19672.45
465.165	19774.84
465.37	18812.3
465.575	18105.75
465.781	18904.46
465.986	19160.45
466.191	18478.48
466.397	18228.63
466.602	17128.87
466.807	17874.33
467.012	17831.32
467.218	17857.95
467.423	17464.74
467.628	17708.44
