Data from USB4F104151__78__12-42-22-667.txt Node

Date: Fri Mar 14 12:42:22 EDT 2025
User: louis
Spectrometer: USB4F10415
Trigger mode: 4
Integration Time (sec): 3.000000E-2
Scans to average: 1
Electric dark correction enabled: true
Nonlinearity correction enabled: false
Boxcar width: 0
XAxis mode: Wavelengths
Number of Pixels in Spectrum: 3648
>>>>>Begin Spectral Data<<<<<
178.204	-119.81
178.424	-119.81
178.644	-119.81
178.864	-117.76
179.084	-109.57
179.304	-50.18
179.524	-64.51
179.744	25.6
179.964	9.22
180.184	87.04
180.404	29.7
180.624	-19.46
180.844	21.5
181.064	3.07
181.283	-17.41
181.503	-48.13
181.723	23.55
181.943	-29.7
182.163	21.5
182.383	-5.12
182.602	29.7
182.822	50.18
183.042	91.13
183.262	-17.41
183.482	-37.89
183.701	-29.7
183.921	-33.79
184.141	-35.84
184.361	13.31
184.58	97.28
184.8	17.41
185.02	-44.03
185.239	68.61
185.459	35.84
185.679	78.85
185.898	-64.51
186.118	-17.41
186.338	25.6
186.557	78.85
186.777	3.07
186.997	39.94
187.216	3.07
187.436	119.81
187.655	5.12
187.875	91.13
188.095	23.55
188.314	50.18
188.534	64.51
188.753	-119.81
188.973	11.26
189.192	62.46
189.412	13.31
189.631	52.22
189.851	21.5
190.07	68.61
190.29	62.46
190.509	39.94
190.729	-48.13
190.948	66.56
191.168	144.38
191.387	60.42
191.607	7.17
191.826	35.84
192.045	9.22
192.265	25.6
192.484	13.31
192.704	-17.41
192.923	-44.03
193.142	52.22
193.362	74.75
193.581	48.13
193.8	19.46
194.02	19.46
194.239	29.7
194.458	29.7
194.678	7.17
194.897	25.6
195.116	19.46
195.335	1.02
195.555	111.61
195.774	37.89
195.993	-3.07
196.212	7.17
196.432	50.18
196.651	-3.07
196.87	37.89
197.089	93.18
197.308	107.52
197.528	19.46
197.747	-1.02
197.966	-39.94
198.185	62.46
198.404	76.8
198.623	5.12
198.842	84.99
199.062	44.03
199.281	31.74
199.5	17.41
199.719	-9.22
199.938	54.27
200.157	27.65
200.376	-7.17
200.595	105.47
200.814	31.74
201.033	35.84
201.252	99.33
201.471	5.12
201.69	89.09
201.909	27.65
202.128	-23.55
202.347	-1.02
202.566	-41.98
202.785	52.22
203.004	5.12
203.223	84.99
203.442	-31.74
203.661	-13.31
203.879	-21.5
204.098	-21.5
204.317	-11.26
204.536	52.22
204.755	68.61
204.974	52.22
205.193	41.98
205.411	46.08
205.63	74.75
205.849	9.22
206.068	-31.74
206.287	44.03
206.505	27.65
206.724	-46.08
206.943	41.98
207.162	23.55
207.381	-7.17
207.599	29.7
207.818	41.98
208.037	17.41
208.255	9.22
208.474	41.98
208.693	50.18
208.911	-23.55
209.13	46.08
209.349	66.56
209.567	62.46
209.786	66.56
210.005	37.89
210.223	-11.26
210.442	-1.02
210.661	-11.26
210.879	27.65
211.098	46.08
211.316	68.61
211.535	64.51
211.753	11.26
211.972	13.31
212.191	-5.12
212.409	62.46
212.628	35.84
212.846	1.02
213.065	13.31
213.283	89.09
213.502	-11.26
213.72	-1.02
213.938	-48.13
214.157	27.65
214.375	-54.27
214.594	-3.07
214.812	117.76
215.031	54.27
215.249	109.57
215.467	97.28
215.686	125.95
215.904	52.22
216.122	54.27
216.341	29.7
216.559	-19.46
216.778	128
216.996	7.17
217.214	115.71
217.432	27.65
217.651	25.6
217.869	13.31
218.087	-17.41
218.306	-13.31
218.524	70.65
218.742	27.65
218.96	44.03
219.179	-5.12
219.397	95.23
219.615	130.05
219.833	11.26
220.051	15.36
220.27	72.7
220.488	58.37
220.706	31.74
220.924	5.12
221.142	33.79
221.36	89.09
221.578	48.13
221.796	9.22
222.015	37.89
222.233	1.02
222.451	48.13
222.669	-1.02
222.887	72.7
223.105	-9.22
223.323	-29.7
223.541	52.22
223.759	56.32
223.977	3.07
224.195	123.9
224.413	46.08
224.631	15.36
224.849	19.46
225.067	50.18
225.285	9.22
225.503	5.12
225.721	-25.6
225.939	-5.12
226.157	-37.89
226.375	119.81
226.592	-5.12
226.81	13.31
227.028	128
227.246	46.08
227.464	27.65
227.682	84.99
227.9	23.55
228.117	52.22
228.335	15.36
228.553	-7.17
228.771	56.32
228.989	68.61
229.206	5.12
229.424	23.55
229.642	3.07
229.86	-7.17
230.077	9.22
230.295	1.02
230.513	89.09
230.731	87.04
230.948	9.22
231.166	87.04
231.384	35.84
231.601	89.09
231.819	23.55
232.037	9.22
232.254	-15.36
232.472	54.27
232.689	-41.98
232.907	3.07
233.125	35.84
233.342	27.65
233.56	68.61
233.777	-27.65
233.995	19.46
234.213	95.23
234.43	56.32
234.648	27.65
234.865	-80.89
235.083	25.6
235.3	50.18
235.518	66.56
235.735	48.13
235.953	70.65
236.17	35.84
236.388	27.65
236.605	50.18
236.822	7.17
237.04	60.42
237.257	46.08
237.475	41.98
237.692	-1.02
237.909	76.8
238.127	25.6
238.344	17.41
238.562	29.7
238.779	5.12
238.996	-89.09
239.214	117.76
239.431	99.33
239.648	21.5
239.865	-9.22
240.083	74.75
240.3	19.46
240.517	13.31
240.735	62.46
240.952	95.23
241.169	89.09
241.386	56.32
241.603	13.31
241.821	9.22
242.038	60.42
242.255	15.36
242.472	-13.31
242.689	80.89
242.907	-5.12
243.124	17.41
243.341	123.9
243.558	31.74
243.775	7.17
243.992	-7.17
244.209	37.89
244.426	125.95
244.643	-9.22
244.86	23.55
245.078	11.26
245.295	-9.22
245.512	-9.22
245.729	13.31
245.946	125.95
246.163	78.85
246.38	33.79
246.597	78.85
246.814	-39.94
247.031	72.7
247.248	72.7
247.464	25.6
247.681	39.94
247.898	15.36
248.115	48.13
248.332	11.26
248.549	25.6
248.766	89.09
248.983	87.04
249.2	31.74
249.417	56.32
249.633	52.22
249.85	62.46
250.067	-54.27
250.284	5.12
250.501	19.46
250.717	80.89
250.934	1.02
251.151	27.65
251.368	50.18
251.585	31.74
251.801	-5.12
252.018	-11.26
252.235	-39.94
252.451	-23.55
252.668	56.32
252.885	56.32
253.102	-54.27
253.318	-72.7
253.535	9.22
253.752	7.17
253.968	15.36
254.185	1.02
254.401	31.74
254.618	-3.07
254.835	11.26
255.051	107.52
255.268	17.41
255.484	99.33
255.701	13.31
255.917	82.94
256.134	48.13
256.351	78.85
256.567	-13.31
256.784	66.56
257	-31.74
257.217	7.17
257.433	15.36
257.65	50.18
257.866	95.23
258.082	-72.7
258.299	66.56
258.515	70.65
258.732	35.84
258.948	44.03
259.165	58.37
259.381	-33.79
259.597	93.18
259.814	35.84
260.03	-1.02
260.246	62.46
260.463	111.61
260.679	66.56
260.895	9.22
261.112	29.7
261.328	11.26
261.544	-15.36
261.761	39.94
261.977	41.98
262.193	5.12
262.409	68.61
262.626	23.55
262.842	125.95
263.058	-29.7
263.274	41.98
263.49	31.74
263.707	19.46
263.923	31.74
264.139	-84.99
264.355	-23.55
264.571	97.28
264.787	-1.02
265.004	78.85
265.22	78.85
265.436	58.37
265.652	109.57
265.868	1.02
266.084	52.22
266.3	31.74
266.516	97.28
266.732	136.19
266.948	-11.26
267.164	46.08
267.38	37.89
267.596	68.61
267.812	97.28
268.028	31.74
268.244	52.22
268.46	21.5
268.676	35.84
268.892	103.42
269.108	33.79
269.324	56.32
269.54	-13.31
269.756	87.04
269.972	68.61
270.188	37.89
270.403	-11.26
270.619	31.74
270.835	58.37
271.051	87.04
271.267	13.31
271.483	91.13
271.698	-21.5
271.914	7.17
272.13	-19.46
272.346	-11.26
272.562	-5.12
272.777	3.07
272.993	46.08
273.209	29.7
273.425	52.22
273.64	-87.04
273.856	82.94
274.072	-11.26
274.287	62.46
274.503	29.7
274.719	54.27
274.934	87.04
275.15	9.22
275.366	33.79
275.581	-29.7
275.797	74.75
276.012	5.12
276.228	52.22
276.444	15.36
276.659	66.56
276.875	72.7
277.09	62.46
277.306	-3.07
277.521	41.98
277.737	64.51
277.952	56.32
278.168	-13.31
278.383	41.98
278.599	70.65
278.814	60.42
279.03	11.26
279.245	44.03
279.461	41.98
279.676	46.08
279.892	-7.17
280.107	11.26
280.322	87.04
280.538	37.89
280.753	5.12
280.969	50.18
281.184	7.17
281.399	37.89
281.615	46.08
281.83	72.7
282.045	25.6
282.26	37.89
282.476	3.07
282.691	72.7
282.906	78.85
283.122	60.42
283.337	-35.84
283.552	-15.36
283.767	74.75
283.983	60.42
284.198	-3.07
284.413	17.41
284.628	29.7
284.843	-11.26
285.058	-3.07
285.274	97.28
285.489	11.26
285.704	-27.65
285.919	72.7
286.134	31.74
286.349	97.28
286.564	41.98
286.779	109.57
286.995	64.51
287.21	-27.65
287.425	87.04
287.64	25.6
287.855	19.46
288.07	48.13
288.285	56.32
288.5	50.18
288.715	33.79
288.93	103.42
289.145	54.27
289.36	56.32
289.575	-31.74
289.79	87.04
290.004	39.94
290.219	31.74
290.434	-7.17
290.649	103.42
290.864	-33.79
291.079	1.02
291.294	13.31
291.509	9.22
291.724	-5.12
291.938	46.08
292.153	23.55
292.368	52.22
292.583	-27.65
292.798	68.61
293.012	-35.84
293.227	5.12
293.442	50.18
293.657	52.22
293.871	125.95
294.086	56.32
294.301	58.37
294.516	105.47
294.73	84.99
294.945	52.22
295.16	29.7
295.374	48.13
295.589	142.33
295.804	-7.17
296.018	29.7
296.233	109.57
296.447	56.32
296.662	-15.36
296.877	5.12
297.091	56.32
297.306	-78.85
297.52	50.18
297.735	44.03
297.949	87.04
298.164	31.74
298.378	-17.41
298.593	58.37
298.807	91.13
299.022	72.7
299.236	23.55
299.451	35.84
299.665	41.98
299.88	-9.22
300.094	-11.26
300.309	109.57
300.523	60.42
300.737	-60.42
300.952	48.13
301.166	23.55
301.381	54.27
301.595	15.36
301.809	46.08
302.024	76.8
302.238	-39.94
302.452	115.71
302.667	-52.22
302.881	68.61
303.095	33.79
303.309	7.17
303.524	-3.07
303.738	48.13
303.952	25.6
304.166	54.27
304.381	9.22
304.595	91.13
304.809	46.08
305.023	103.42
305.237	33.79
305.452	25.6
305.666	52.22
305.88	50.18
306.094	31.74
306.308	115.71
306.522	52.22
306.736	72.7
306.95	-17.41
307.164	9.22
307.379	76.8
307.593	105.47
307.807	121.85
308.021	113.66
308.235	113.66
308.449	-5.12
308.663	41.98
308.877	103.42
309.091	56.32
309.305	-25.6
309.519	-27.65
309.733	128
309.947	23.55
310.161	66.56
310.374	76.8
310.588	7.17
310.802	56.32
311.016	-7.17
311.23	87.04
311.444	72.7
311.658	1.02
311.872	91.13
312.085	91.13
312.299	101.37
312.513	39.94
312.727	60.42
312.941	-3.07
313.154	82.94
313.368	15.36
313.582	111.61
313.796	68.61
314.009	52.22
314.223	97.28
314.437	50.18
314.651	13.31
314.864	46.08
315.078	-7.17
315.292	-1.02
315.505	-19.46
315.719	29.7
315.933	52.22
316.146	-41.98
316.36	37.89
316.573	62.46
316.787	23.55
317.001	50.18
317.214	-74.75
317.428	64.51
317.641	31.74
317.855	7.17
318.068	7.17
318.282	31.74
318.495	89.09
318.709	15.36
318.922	25.6
319.136	115.71
319.349	78.85
319.563	46.08
319.776	74.75
319.99	37.89
320.203	56.32
320.417	64.51
320.63	13.31
320.843	78.85
321.057	25.6
321.27	-7.17
321.483	58.37
321.697	-21.5
321.91	33.79
322.124	56.32
322.337	48.13
322.55	-76.8
322.763	-5.12
322.977	37.89
323.19	89.09
323.403	21.5
323.617	72.7
323.83	27.65
324.043	58.37
324.256	19.46
324.469	3.07
324.683	25.6
324.896	-23.55
325.109	54.27
325.322	27.65
325.535	97.28
325.748	56.32
325.962	-27.65
326.175	37.89
326.388	44.03
326.601	56.32
326.814	37.89
327.027	56.32
327.24	84.99
327.453	-44.03
327.666	52.22
327.879	76.8
328.092	9.22
328.305	56.32
328.518	101.37
328.731	19.46
328.944	23.55
329.157	89.09
329.37	54.27
329.583	72.7
329.796	132.09
330.009	82.94
330.222	76.8
330.435	72.7
330.648	-74.75
330.861	35.84
331.073	76.8
331.286	-5.12
331.499	31.74
331.712	9.22
331.925	13.31
332.138	37.89
332.35	74.75
332.563	19.46
332.776	37.89
332.989	44.03
333.202	7.17
333.414	21.5
333.627	107.52
333.84	76.8
334.053	27.65
334.265	1.02
334.478	80.89
334.691	1.02
334.903	91.13
335.116	-74.75
335.329	89.09
335.541	80.89
335.754	158.72
335.966	-13.31
336.179	31.74
336.392	7.17
336.604	17.41
336.817	136.19
337.029	130.05
337.242	-1.02
337.454	37.89
337.667	9.22
337.88	78.85
338.092	66.56
338.305	21.5
338.517	-21.5
338.729	80.89
338.942	89.09
339.154	78.85
339.367	13.31
339.579	13.31
339.792	70.65
340.004	41.98
340.217	134.14
340.429	-1.02
340.641	-39.94
340.854	25.6
341.066	52.22
341.278	41.98
341.491	56.32
341.703	21.5
341.915	-5.12
342.128	-13.31
342.34	3.07
342.552	-25.6
342.764	7.17
342.977	56.32
343.189	58.37
343.401	50.18
343.613	60.42
343.826	25.6
344.038	11.26
344.25	101.37
344.462	17.41
344.674	46.08
344.886	-21.5
345.099	31.74
345.311	78.85
345.523	25.6
345.735	-74.75
345.947	111.61
346.159	48.13
346.371	74.75
346.583	-21.5
346.795	146.43
347.007	39.94
347.219	13.31
347.431	11.26
347.643	60.42
347.855	-33.79
348.067	52.22
348.279	-125.95
348.491	66.56
348.703	-13.31
348.915	41.98
349.127	41.98
349.339	50.18
349.551	41.98
349.763	46.08
349.975	68.61
350.187	89.09
350.399	80.89
350.61	74.75
350.822	-1.02
351.034	13.31
351.246	103.42
351.458	48.13
351.669	52.22
351.881	37.89
352.093	130.05
352.305	72.7
352.517	33.79
352.728	130.05
352.94	89.09
353.152	29.7
353.363	19.46
353.575	87.04
353.787	68.61
353.999	54.27
354.21	105.47
354.422	25.6
354.633	48.13
354.845	54.27
355.057	19.46
355.268	99.33
355.48	39.94
355.692	-11.26
355.903	60.42
356.115	-17.41
356.326	-68.61
356.538	132.09
356.749	15.36
356.961	111.61
357.172	52.22
357.384	-1.02
357.595	64.51
357.807	-17.41
358.018	21.5
358.23	121.85
358.441	121.85
358.653	68.61
358.864	27.65
359.075	39.94
359.287	66.56
359.498	74.75
359.709	48.13
359.921	72.7
360.132	37.89
360.344	5.12
360.555	13.31
360.766	66.56
360.977	44.03
361.189	64.51
361.4	23.55
361.611	93.18
361.823	11.26
362.034	39.94
362.245	11.26
362.456	31.74
362.667	72.7
362.879	97.28
363.09	5.12
363.301	97.28
363.512	62.46
363.723	78.85
363.935	82.94
364.146	15.36
364.357	95.23
364.568	144.38
364.779	25.6
364.99	21.5
365.201	68.61
365.412	54.27
365.623	41.98
365.834	29.7
366.045	76.8
366.256	-17.41
366.467	105.47
366.678	78.85
366.889	11.26
367.1	37.89
367.311	80.89
367.522	91.13
367.733	7.17
367.944	9.22
368.155	52.22
368.366	48.13
368.577	117.76
368.788	27.65
368.999	-11.26
369.209	78.85
369.42	144.38
369.631	66.56
369.842	58.37
370.053	58.37
370.264	154.62
370.474	-52.22
370.685	99.33
370.896	58.37
371.107	109.57
371.317	68.61
371.528	25.6
371.739	99.33
371.95	60.42
372.16	52.22
372.371	15.36
372.582	89.09
372.792	109.57
373.003	130.05
373.214	62.46
373.424	105.47
373.635	29.7
373.846	31.74
374.056	44.03
374.267	29.7
374.477	29.7
374.688	29.7
374.898	105.47
375.109	64.51
375.319	70.65
375.53	25.6
375.74	93.18
375.951	82.94
376.161	-19.46
376.372	99.33
376.582	87.04
376.793	93.18
377.003	70.65
377.214	25.6
377.424	-3.07
377.635	60.42
377.845	64.51
378.055	25.6
378.266	-46.08
378.476	33.79
378.686	74.75
378.897	97.28
379.107	101.37
379.317	87.04
379.528	41.98
379.738	29.7
379.948	76.8
380.158	138.24
380.369	62.46
380.579	70.65
380.789	-13.31
380.999	68.61
381.21	-23.55
381.42	80.89
381.63	-97.28
381.84	111.61
382.05	123.9
382.261	60.42
382.471	27.65
382.681	1.02
382.891	46.08
383.101	84.99
383.311	64.51
383.521	7.17
383.731	27.65
383.941	91.13
384.151	21.5
384.361	33.79
384.571	111.61
384.781	91.13
384.991	117.76
385.201	95.23
385.411	-19.46
385.621	132.09
385.831	84.99
386.041	103.42
386.251	27.65
386.461	87.04
386.671	109.57
386.881	31.74
387.091	58.37
387.301	80.89
387.511	72.7
387.72	99.33
387.93	66.56
388.14	52.22
388.35	31.74
388.56	23.55
388.769	56.32
388.979	56.32
389.189	9.22
389.399	123.9
389.609	93.18
389.818	95.23
390.028	27.65
390.238	29.7
390.447	-7.17
390.657	171.01
390.867	72.7
391.076	60.42
391.286	60.42
391.496	46.08
391.705	58.37
391.915	78.85
392.125	140.29
392.334	93.18
392.544	179.2
392.753	15.36
392.963	62.46
393.172	31.74
393.382	56.32
393.591	111.61
393.801	48.13
394.01	183.29
394.22	95.23
394.429	111.61
394.639	64.51
394.848	93.18
395.058	-15.36
395.267	44.03
395.477	-11.26
395.686	148.48
395.895	134.14
396.105	138.24
396.314	99.33
396.524	117.76
396.733	128
396.942	142.33
397.152	105.47
397.361	115.71
397.57	138.24
397.78	62.46
397.989	140.29
398.198	166.91
398.407	152.57
398.617	87.04
398.826	84.99
399.035	166.91
399.244	152.57
399.453	138.24
399.663	138.24
399.872	191.49
400.081	50.18
400.29	154.62
400.499	111.61
400.708	125.95
400.917	95.23
401.127	109.57
401.336	68.61
401.545	164.86
401.754	173.05
401.963	199.68
402.172	152.57
402.381	93.18
402.59	142.33
402.799	134.14
403.008	142.33
403.217	242.68
403.426	160.77
403.635	160.77
403.844	214.01
404.053	93.18
404.262	95.23
404.471	273.4
404.68	211.96
404.888	146.43
405.097	111.61
405.306	191.49
405.515	193.53
405.724	203.77
405.933	218.11
406.142	250.88
406.35	236.54
406.559	242.68
406.768	238.59
406.977	173.05
407.185	257.02
407.394	220.16
407.603	277.5
407.812	285.69
408.02	269.31
408.229	277.5
408.438	257.02
408.646	300.03
408.855	250.88
409.064	328.7
409.272	355.32
409.481	381.95
409.69	336.89
409.898	379.9
410.107	404.47
410.315	365.56
410.524	476.15
410.733	533.5
410.941	484.34
411.15	388.09
411.358	498.68
411.567	525.3
411.775	463.86
411.984	500.73
412.192	539.64
412.401	541.69
412.609	613.37
412.818	619.51
413.026	607.22
413.234	578.55
413.443	642.04
413.651	709.62
413.86	586.74
414.068	752.63
414.276	775.16
414.485	814.07
414.693	760.82
414.901	807.92
415.11	855.03
415.318	885.75
415.526	883.7
415.734	1076.21
415.943	984.05
416.151	1106.93
416.359	1010.67
416.567	1061.87
416.776	1203.18
416.984	1213.42
417.192	1274.86
417.4	1227.76
417.608	1197.04
417.817	1375.21
418.025	1338.35
418.233	1453.03
418.441	1391.59
418.649	1332.2
418.857	1620.97
419.065	1643.49
419.273	1620.97
419.481	1670.12
419.689	1811.43
419.897	1864.68
420.105	1827.81
420.313	1934.31
420.521	2067.42
420.729	2048.99
420.937	2098.14
421.145	2253.79
421.353	2223.07
421.561	2354.14
421.769	2427.87
421.977	2587.61
422.185	2526.17
422.393	2808.79
422.601	2804.69
422.809	2888.66
423.017	2890.71
423.224	3019.73
423.432	3048.4
423.64	3199.95
423.848	3290.06
424.056	3414.99
424.263	3552.2
424.471	3517.39
424.679	3589.07
424.887	3787.72
425.094	4002.75
425.302	3986.37
425.51	4047.81
425.718	4320.19
425.925	4314.05
426.133	4574.14
426.341	4697.02
426.548	4801.46
426.756	4807.61
426.964	4998.07
427.171	5325.74
427.379	5571.5
427.586	5481.39
427.794	5753.77
428.001	5907.37
428.209	6216.61
428.417	6022.05
428.624	6390.69
428.832	6734.75
429.039	6413.21
429.247	6349.73
429.454	7226.26
429.662	7631.76
429.869	6951.83
430.076	7609.23
430.284	7369.62
430.491	7629.71
430.699	8207.23
430.906	8270.72
431.114	8379.26
431.321	8627.07
431.528	8960.89
431.736	9096.05
431.943	9632.62
432.15	9433.97
432.358	9655.15
432.565	9935.72
432.772	9978.73
432.979	10523.49
433.187	10629.98
433.394	10826.59
433.601	11420.5
433.808	11656.01
434.016	11445.07
434.223	11731.79
434.43	12620.61
434.637	12401.47
434.844	13316.92
435.052	13331.25
435.259	13450.03
435.466	13663.02
435.673	13304.63
435.88	14148.39
436.087	15016.73
436.294	14924.57
436.501	14662.43
436.708	15043.35
436.915	15432.47
437.122	16014.09
437.329	15860.49
437.537	16687.87
437.743	16919.29
437.95	16737.02
438.157	17619.7
438.364	18139.88
438.571	18014.96
438.778	18422.5
438.985	19935.95
439.192	19174.11
439.399	19722.96
439.606	19309.27
439.813	20662.98
440.02	21775.03
440.227	21256.89
440.433	20923.07
440.64	21738.16
440.847	21756.6
441.054	22100.65
441.261	23669.4
441.467	23583.38
441.674	23851.67
441.881	24642.18
442.088	24822.41
442.294	24283.79
442.501	25014.91
442.708	25821.81
442.914	26409.58
443.121	27519.58
443.328	26872.42
443.534	28990.02
443.741	28213.84
443.948	27710.04
444.154	29921.85
444.361	29690.43
444.568	29655.61
444.774	29858.36
444.981	30220.85
445.187	31052.33
445.394	31992.34
445.6	31554.08
445.807	35056.11
446.013	33585.66
446.22	33747.45
446.426	35727.84
446.633	36055.51
446.839	36772.3
447.046	35252.71
447.252	37087.69
447.459	37145.03
447.665	37081.55
447.871	38810.03
448.078	40499.61
448.284	38656.43
448.491	39481.77
448.697	41292.17
448.903	41832.83
449.11	41638.28
449.316	41331.08
449.522	41716.1
449.728	43112.81
449.935	43432.3
450.141	43659.62
450.347	44351.84
450.553	42979.7
450.76	43430.25
450.966	45302.09
451.172	44646.74
451.378	45621.58
451.584	44575.06
451.791	45769.03
451.997	45853
452.203	46297.41
452.409	46725.43
452.615	46289.21
452.821	44640.6
453.027	44261.72
453.233	46938.42
453.44	44888.4
453.646	45185.36
453.852	45496.65
454.058	45955.39
454.264	44831.06
454.47	45529.42
454.676	44466.52
454.882	46397.76
455.088	41927.04
455.294	42942.83
455.5	43622.76
455.705	44214.62
455.911	42299.77
456.117	41709.96
456.323	40704.4
456.529	38980.01
456.735	40884.62
456.941	39512.49
457.147	38433.21
457.352	37759.42
457.558	37325.25
457.764	36964.81
457.97	36743.63
458.176	35860.96
458.381	35822.05
458.587	33802.75
458.793	33954.3
458.999	32260.63
459.204	34828.78
459.41	33896.95
459.616	31441.44
459.821	31545.89
460.027	31293.99
460.233	30693.93
460.438	29426.24
460.644	29483.58
460.85	28170.83
461.055	27853.4
461.261	27722.33
461.466	25889.4
461.672	25043.59
461.878	26694.25
462.083	24869.51
462.289	24447.63
462.494	24375.95
462.7	23106.21
462.905	22704.81
463.111	23435.93
463.316	23284.38
463.522	22786.72
463.727	22741.67
463.932	22962.85
464.138	22676.13
464.343	22868.64
464.549	22033.07
464.754	22944.42
464.959	22305.45
465.165	22663.85
465.37	21404.35
465.575	20824.77
465.781	21746.36
465.986	22086.32
466.191	20949.7
466.397	20525.77
466.602	19561.17
466.807	20380.36
467.012	20415.18
467.218	20599.49
