Data from USB4F104151__57__12-41-55-370.txt Node

Date: Fri Mar 14 12:41:55 EDT 2025
User: louis
Spectrometer: USB4F10415
Trigger mode: 4
Integration Time (sec): 3.000000E-2
Scans to average: 1
Electric dark correction enabled: true
Nonlinearity correction enabled: false
Boxcar width: 0
XAxis mode: Wavelengths
Number of Pixels in Spectrum: 3648
>>>>>Begin Spectral Data<<<<<
178.204	-97.11
178.424	-97.11
178.644	-97.11
178.864	-111.44
179.084	-174.93
179.304	-7
179.524	-33.62
179.744	-2.9
179.964	-41.81
180.184	-17.24
180.404	17.58
180.624	-13.14
180.844	44.2
181.064	11.43
181.283	13.48
181.503	-15.19
181.723	44.2
181.943	19.63
182.163	31.91
182.383	-76.63
182.602	27.82
182.822	3.24
183.042	25.77
183.262	-37.72
183.482	44.2
183.701	25.77
183.921	1.19
184.141	-58.2
184.361	62.63
184.58	54.44
184.8	15.53
185.02	79.02
185.239	19.63
185.459	7.34
185.679	-4.95
185.898	7.34
186.118	23.72
186.338	-0.85
186.557	15.53
186.777	-2.9
186.997	54.44
187.216	-62.29
187.436	113.83
187.655	31.91
187.875	44.2
188.095	-15.19
188.314	33.96
188.534	52.39
188.753	-47.96
188.973	42.15
189.192	42.15
189.412	-11.09
189.631	-17.24
189.851	-17.24
190.07	29.87
190.29	-9.05
190.509	38.06
190.729	-62.29
190.948	36.01
191.168	150.7
191.387	-41.81
191.607	44.2
191.826	27.82
192.045	-31.57
192.265	-11.09
192.484	33.96
192.704	7.34
192.923	-113.49
193.142	-23.38
193.362	74.92
193.581	3.24
193.8	-25.43
194.02	52.39
194.239	13.48
194.458	70.83
194.678	-29.52
194.897	9.39
195.116	-60.24
195.335	25.77
195.555	40.11
195.774	27.82
195.993	60.59
196.212	-23.38
196.432	-27.48
196.651	23.72
196.87	11.43
197.089	144.55
197.308	46.25
197.528	11.43
197.747	-0.85
197.966	13.48
198.185	93.35
198.404	-25.43
198.623	58.54
198.842	-2.9
199.062	76.97
199.281	9.39
199.5	40.11
199.719	21.67
199.938	50.35
200.157	122.02
200.376	-7
200.595	15.53
200.814	36.01
201.033	38.06
201.252	25.77
201.471	62.63
201.69	64.68
201.909	85.16
202.128	60.59
202.347	52.39
202.566	40.11
202.785	-50
203.004	-54.1
203.223	109.74
203.442	7.34
203.661	60.59
203.879	-68.44
204.098	89.26
204.317	17.58
204.536	74.92
204.755	60.59
204.974	93.35
205.193	29.87
205.411	79.02
205.63	7.34
205.849	50.35
206.068	42.15
206.287	44.2
206.505	-0.85
206.724	-35.67
206.943	7.34
207.162	64.68
207.381	70.83
207.599	5.29
207.818	36.01
208.037	31.91
208.255	5.29
208.474	42.15
208.693	-17.24
208.911	40.11
209.13	9.39
209.349	3.24
209.567	-23.38
209.786	48.3
210.005	-7
210.223	-4.95
210.442	-7
210.661	-4.95
210.879	15.53
211.098	58.54
211.316	-11.09
211.535	33.96
211.753	31.91
211.972	23.72
212.191	72.87
212.409	79.02
212.628	17.58
212.846	1.19
213.065	27.82
213.283	60.59
213.502	-23.38
213.72	3.24
213.938	44.2
214.157	9.39
214.375	56.49
214.594	36.01
214.812	44.2
215.031	17.58
215.249	31.91
215.467	-2.9
215.686	19.63
215.904	64.68
216.122	19.63
216.341	64.68
216.559	9.39
216.778	27.82
216.996	36.01
217.214	-33.62
217.432	66.73
217.651	3.24
217.869	-29.52
218.087	52.39
218.306	27.82
218.524	38.06
218.742	31.91
218.96	5.29
219.179	-7
219.397	54.44
219.615	130.22
219.833	23.72
220.051	72.87
220.27	85.16
220.488	21.67
220.706	60.59
220.924	23.72
221.142	83.11
221.36	70.83
221.578	-52.05
221.796	58.54
222.015	-15.19
222.233	-13.14
222.451	44.2
222.669	1.19
222.887	42.15
223.105	25.77
223.323	50.35
223.541	-2.9
223.759	46.25
223.977	27.82
224.195	46.25
224.413	103.59
224.631	56.49
224.849	50.35
225.067	66.73
225.285	81.07
225.503	60.59
225.721	13.48
225.939	17.58
226.157	27.82
226.375	115.88
226.592	-39.76
226.81	-11.09
227.028	33.96
227.246	62.63
227.464	-7
227.682	64.68
227.9	27.82
228.117	5.29
228.335	62.63
228.553	74.92
228.771	27.82
228.989	21.67
229.206	107.69
229.424	7.34
229.642	-17.24
229.86	36.01
230.077	-35.67
230.295	70.83
230.513	64.68
230.731	66.73
230.948	107.69
231.166	66.73
231.384	13.48
231.601	-0.85
231.819	-17.24
232.037	-60.24
232.254	3.24
232.472	19.63
232.689	-2.9
232.907	81.07
233.125	38.06
233.342	46.25
233.56	-2.9
233.777	58.54
233.995	-47.96
234.213	-56.15
234.43	-29.52
234.648	-9.05
234.865	21.67
235.083	-7
235.3	91.31
235.518	-2.9
235.735	72.87
235.953	-19.29
236.17	-25.43
236.388	-9.05
236.605	-31.57
236.822	68.78
237.04	85.16
237.257	38.06
237.475	-39.76
237.692	46.25
237.909	19.63
238.127	31.91
238.344	38.06
238.562	11.43
238.779	29.87
238.996	-45.91
239.214	-37.72
239.431	48.3
239.648	-37.72
239.865	85.16
240.083	58.54
240.3	68.78
240.517	-31.57
240.735	-39.76
240.952	66.73
241.169	13.48
241.386	-7
241.603	52.39
241.821	-47.96
242.038	36.01
242.255	-11.09
242.472	-25.43
242.689	70.83
242.907	-0.85
243.124	60.59
243.341	-2.9
243.558	-47.96
243.775	-50
243.992	21.67
244.209	-47.96
244.426	56.49
244.643	44.2
244.86	-31.57
245.078	46.25
245.295	48.3
245.512	66.73
245.729	11.43
245.946	11.43
246.163	-23.38
246.38	79.02
246.597	13.48
246.814	19.63
247.031	-31.57
247.248	66.73
247.464	76.97
247.681	-7
247.898	-13.14
248.115	29.87
248.332	-0.85
248.549	105.64
248.766	105.64
248.983	-9.05
249.2	-7
249.417	54.44
249.633	56.49
249.85	48.3
250.067	-50
250.284	85.16
250.501	-70.48
250.717	58.54
250.934	3.24
251.151	93.35
251.368	50.35
251.585	-2.9
251.801	-29.52
252.018	-52.05
252.235	66.73
252.451	-4.95
252.668	21.67
252.885	17.58
253.102	87.21
253.318	19.63
253.535	7.34
253.752	-25.43
253.968	27.82
254.185	38.06
254.401	58.54
254.618	62.63
254.835	46.25
255.051	36.01
255.268	33.96
255.484	58.54
255.701	44.2
255.917	83.11
256.134	1.19
256.351	27.82
256.567	60.59
256.784	-19.29
257	-13.14
257.217	38.06
257.433	111.78
257.65	48.3
257.866	38.06
258.082	11.43
258.299	13.48
258.515	-29.52
258.732	-27.48
258.948	21.67
259.165	5.29
259.381	5.29
259.597	-29.52
259.814	13.48
260.03	-7
260.246	21.67
260.463	93.35
260.679	23.72
260.895	7.34
261.112	17.58
261.328	-41.81
261.544	5.29
261.761	124.07
261.977	46.25
262.193	-43.86
262.409	50.35
262.626	66.73
262.842	85.16
263.058	11.43
263.274	9.39
263.49	38.06
263.707	19.63
263.923	79.02
264.139	19.63
264.355	72.87
264.571	68.78
264.787	-9.05
265.004	7.34
265.22	-21.33
265.436	54.44
265.652	44.2
265.868	-2.9
266.084	-97.11
266.3	21.67
266.516	-13.14
266.732	64.68
266.948	36.01
267.164	5.29
267.38	7.34
267.596	48.3
267.812	83.11
268.028	-29.52
268.244	-33.62
268.46	17.58
268.676	-23.38
268.892	-11.09
269.108	50.35
269.324	-29.52
269.54	33.96
269.756	31.91
269.972	31.91
270.188	-39.76
270.403	-23.38
270.619	38.06
270.835	42.15
271.051	23.72
271.267	36.01
271.483	50.35
271.698	52.39
271.914	-35.67
272.13	-23.38
272.346	38.06
272.562	60.59
272.777	44.2
272.993	-50
273.209	-19.29
273.425	70.83
273.64	42.15
273.856	-7
274.072	9.39
274.287	13.48
274.503	5.29
274.719	33.96
274.934	36.01
275.15	-33.62
275.366	-21.33
275.581	11.43
275.797	68.78
276.012	60.59
276.228	-2.9
276.444	13.48
276.659	76.97
276.875	-45.91
277.09	-7
277.306	13.48
277.521	74.92
277.737	-19.29
277.952	9.39
278.168	85.16
278.383	38.06
278.599	21.67
278.814	76.97
279.03	64.68
279.245	50.35
279.461	-25.43
279.676	38.06
279.892	46.25
280.107	-68.44
280.322	-25.43
280.538	19.63
280.753	27.82
280.969	85.16
281.184	-2.9
281.399	70.83
281.615	-0.85
281.83	91.31
282.045	-31.57
282.26	-21.33
282.476	62.63
282.691	54.44
282.906	21.67
283.122	62.63
283.337	-27.48
283.552	64.68
283.767	42.15
283.983	40.11
284.198	58.54
284.413	85.16
284.628	-33.62
284.843	19.63
285.058	52.39
285.274	-27.48
285.489	-19.29
285.704	50.35
285.919	15.53
286.134	33.96
286.349	46.25
286.564	17.58
286.779	17.58
286.995	58.54
287.21	58.54
287.425	-23.38
287.64	-7
287.855	128.17
288.07	-15.19
288.285	46.25
288.5	56.49
288.715	58.54
288.93	64.68
289.145	40.11
289.36	29.87
289.575	60.59
289.79	19.63
290.004	58.54
290.219	60.59
290.434	-47.96
290.649	-86.87
290.864	46.25
291.079	27.82
291.294	23.72
291.509	91.31
291.724	5.29
291.938	42.15
292.153	44.2
292.368	-15.19
292.583	-50
292.798	3.24
293.012	76.97
293.227	42.15
293.442	60.59
293.657	79.02
293.871	-21.33
294.086	42.15
294.301	40.11
294.516	56.49
294.73	68.78
294.945	21.67
295.16	15.53
295.374	130.22
295.589	79.02
295.804	62.63
296.018	27.82
296.233	89.26
296.447	7.34
296.662	33.96
296.877	29.87
297.091	48.3
297.306	66.73
297.52	44.2
297.735	31.91
297.949	15.53
298.164	64.68
298.378	64.68
298.593	27.82
298.807	21.67
299.022	9.39
299.236	68.78
299.451	29.87
299.665	17.58
299.88	33.96
300.094	72.87
300.309	-27.48
300.523	25.77
300.737	-15.19
300.952	17.58
301.166	15.53
301.381	13.48
301.595	29.87
301.809	7.34
302.024	42.15
302.238	-4.95
302.452	33.96
302.667	1.19
302.881	70.83
303.095	31.91
303.309	58.54
303.524	29.87
303.738	-11.09
303.952	54.44
304.166	36.01
304.381	-25.43
304.595	44.2
304.809	62.63
305.023	38.06
305.237	50.35
305.452	56.49
305.666	50.35
305.88	-9.05
306.094	42.15
306.308	54.44
306.522	74.92
306.736	62.63
306.95	62.63
307.164	-4.95
307.379	89.26
307.593	29.87
307.807	76.97
308.021	3.24
308.235	36.01
308.449	21.67
308.663	58.54
308.877	68.78
309.091	-9.05
309.305	56.49
309.519	-29.52
309.733	58.54
309.947	44.2
310.161	-7
310.374	40.11
310.588	27.82
310.802	25.77
311.016	46.25
311.23	79.02
311.444	46.25
311.658	74.92
311.872	52.39
312.085	48.3
312.299	72.87
312.513	-13.14
312.727	-4.95
312.941	33.96
313.154	38.06
313.368	56.49
313.582	117.93
313.796	81.07
314.009	11.43
314.223	36.01
314.437	-7
314.651	79.02
314.864	46.25
315.078	-7
315.292	40.11
315.505	52.39
315.719	68.78
315.933	50.35
316.146	38.06
316.36	13.48
316.573	21.67
316.787	-62.29
317.001	52.39
317.214	33.96
317.428	23.72
317.641	-58.2
317.855	-45.91
318.068	11.43
318.282	19.63
318.495	38.06
318.709	36.01
318.922	33.96
319.136	36.01
319.349	64.68
319.563	-17.24
319.776	-19.29
319.99	-13.14
320.203	62.63
320.417	56.49
320.63	76.97
320.843	105.64
321.057	19.63
321.27	23.72
321.483	27.82
321.697	17.58
321.91	42.15
322.124	11.43
322.337	17.58
322.55	60.59
322.763	29.87
322.977	93.35
323.19	7.34
323.403	19.63
323.617	60.59
323.83	25.77
324.043	-2.9
324.256	25.77
324.469	-21.33
324.683	113.83
324.896	29.87
325.109	79.02
325.322	5.29
325.535	19.63
325.748	72.87
325.962	52.39
326.175	56.49
326.388	52.39
326.601	-7
326.814	89.26
327.027	81.07
327.24	160.94
327.453	3.24
327.666	95.4
327.879	64.68
328.092	31.91
328.305	23.72
328.518	91.31
328.731	-19.29
328.944	48.3
329.157	-41.81
329.37	-21.33
329.583	105.64
329.796	27.82
330.009	56.49
330.222	44.2
330.435	74.92
330.648	29.87
330.861	9.39
331.073	62.63
331.286	42.15
331.499	85.16
331.712	44.2
331.925	27.82
332.138	46.25
332.35	44.2
332.563	29.87
332.776	113.83
332.989	-27.48
333.202	52.39
333.414	27.82
333.627	17.58
333.84	97.45
334.053	23.72
334.265	50.35
334.478	91.31
334.691	23.72
334.903	29.87
335.116	15.53
335.329	19.63
335.541	-33.62
335.754	107.69
335.966	-19.29
336.179	-11.09
336.392	74.92
336.604	48.3
336.817	38.06
337.029	70.83
337.242	70.83
337.454	115.88
337.667	40.11
337.88	25.77
338.092	48.3
338.305	13.48
338.517	-43.86
338.729	103.59
338.942	95.4
339.154	-29.52
339.367	5.29
339.579	50.35
339.792	33.96
340.004	54.44
340.217	33.96
340.429	42.15
340.641	40.11
340.854	33.96
341.066	17.58
341.278	79.02
341.491	42.15
341.703	54.44
341.915	21.67
342.128	76.97
342.34	46.25
342.552	29.87
342.764	33.96
342.977	23.72
343.189	5.29
343.401	36.01
343.613	17.58
343.826	42.15
344.038	36.01
344.25	7.34
344.462	-23.38
344.674	27.82
344.886	19.63
345.099	13.48
345.311	15.53
345.523	-17.24
345.735	-2.9
345.947	68.78
346.159	1.19
346.371	50.35
346.583	81.07
346.795	40.11
347.007	83.11
347.219	25.77
347.431	62.63
347.643	79.02
347.855	54.44
348.067	-19.29
348.279	-68.44
348.491	68.78
348.703	72.87
348.915	13.48
349.127	-68.44
349.339	68.78
349.551	-23.38
349.763	74.92
349.975	128.17
350.187	29.87
350.399	62.63
350.61	23.72
350.822	40.11
351.034	38.06
351.246	23.72
351.458	48.3
351.669	126.12
351.881	54.44
352.093	115.88
352.305	76.97
352.517	36.01
352.728	50.35
352.94	52.39
353.152	52.39
353.363	42.15
353.575	25.77
353.787	38.06
353.999	42.15
354.21	103.59
354.422	79.02
354.633	52.39
354.845	42.15
355.057	40.11
355.268	40.11
355.48	91.31
355.692	25.77
355.903	13.48
356.115	36.01
356.326	-13.14
356.538	85.16
356.749	62.63
356.961	50.35
357.172	-9.05
357.384	31.91
357.595	128.17
357.807	91.31
358.018	-17.24
358.23	60.59
358.441	101.55
358.653	72.87
358.864	91.31
359.075	46.25
359.287	105.64
359.498	109.74
359.709	27.82
359.921	-17.24
360.132	40.11
360.344	-11.09
360.555	-25.43
360.766	15.53
360.977	58.54
361.189	76.97
361.4	17.58
361.611	66.73
361.823	72.87
362.034	19.63
362.245	-47.96
362.456	52.39
362.667	23.72
362.879	9.39
363.09	52.39
363.301	13.48
363.512	27.82
363.723	-25.43
363.935	42.15
364.146	31.91
364.357	5.29
364.568	54.44
364.779	25.77
364.99	113.83
365.201	48.3
365.412	115.88
365.623	-23.38
365.834	126.12
366.045	36.01
366.256	97.45
366.467	44.2
366.678	60.59
366.889	56.49
367.1	-13.14
367.311	44.2
367.522	58.54
367.733	60.59
367.944	-2.9
368.155	13.48
368.366	81.07
368.577	54.44
368.788	87.21
368.999	-13.14
369.209	87.21
369.42	126.12
369.631	21.67
369.842	7.34
370.053	44.2
370.264	95.4
370.474	48.3
370.685	27.82
370.896	58.54
371.107	25.77
371.317	60.59
371.528	13.48
371.739	54.44
371.95	27.82
372.16	56.49
372.371	19.63
372.582	21.67
372.792	56.49
373.003	68.78
373.214	68.78
373.424	7.34
373.635	9.39
373.846	42.15
374.056	33.96
374.267	48.3
374.477	97.45
374.688	72.87
374.898	-0.85
375.109	113.83
375.319	33.96
375.53	-13.14
375.74	91.31
375.951	33.96
376.161	109.74
376.372	97.45
376.582	46.25
376.793	79.02
377.003	40.11
377.214	5.29
377.424	68.78
377.635	171.18
377.845	-35.67
378.055	144.55
378.266	95.4
378.476	29.87
378.686	7.34
378.897	54.44
379.107	44.2
379.317	29.87
379.528	76.97
379.738	21.67
379.948	1.19
380.158	7.34
380.369	23.72
380.579	66.73
380.789	36.01
380.999	31.91
381.21	64.68
381.42	70.83
381.63	62.63
381.84	54.44
382.05	62.63
382.261	81.07
382.471	105.64
382.681	48.3
382.891	54.44
383.101	138.41
383.311	44.2
383.521	40.11
383.731	31.91
383.941	68.78
384.151	-13.14
384.361	46.25
384.571	140.46
384.781	36.01
384.991	62.63
385.201	103.59
385.411	44.2
385.621	85.16
385.831	54.44
386.041	40.11
386.251	62.63
386.461	74.92
386.671	27.82
386.881	113.83
387.091	64.68
387.301	68.78
387.511	60.59
387.72	97.45
387.93	68.78
388.14	-15.19
388.35	68.78
388.56	58.54
388.769	146.6
388.979	85.16
389.189	48.3
389.399	21.67
389.609	40.11
389.818	60.59
390.028	23.72
390.238	93.35
390.447	21.67
390.657	42.15
390.867	7.34
391.076	-41.81
391.286	128.17
391.496	89.26
391.705	44.2
391.915	72.87
392.125	38.06
392.334	56.49
392.544	144.55
392.753	11.43
392.963	7.34
393.172	81.07
393.382	-0.85
393.591	68.78
393.801	60.59
394.01	136.36
394.22	36.01
394.429	54.44
394.639	140.46
394.848	74.92
395.058	89.26
395.267	79.02
395.477	87.21
395.686	54.44
395.895	79.02
396.105	156.84
396.314	79.02
396.524	52.39
396.733	50.35
396.942	150.7
397.152	140.46
397.361	173.22
397.57	117.93
397.78	62.63
397.989	89.26
398.198	156.84
398.407	95.4
398.617	124.07
398.826	95.4
399.035	68.78
399.244	115.88
399.453	76.97
399.663	107.69
399.872	103.59
400.081	93.35
400.29	158.89
400.499	130.22
400.708	50.35
400.917	60.59
401.127	83.11
401.336	140.46
401.545	195.75
401.754	136.36
401.963	171.18
402.172	122.02
402.381	91.31
402.59	187.56
402.799	128.17
403.008	156.84
403.217	173.22
403.426	148.65
403.635	76.97
403.844	111.78
404.053	126.12
404.262	109.74
404.471	148.65
404.68	138.41
404.888	134.31
405.097	140.46
405.306	128.17
405.515	205.99
405.724	175.27
405.933	167.08
406.142	144.55
406.35	210.09
406.559	128.17
406.768	177.32
406.977	242.85
407.185	193.7
407.394	275.62
407.603	126.12
407.812	105.64
408.02	244.9
408.229	216.23
408.438	275.62
408.646	279.72
408.855	330.92
409.064	251.05
409.272	244.9
409.481	306.34
409.69	308.39
409.898	292.01
410.107	205.99
410.315	240.81
410.524	304.29
410.733	373.92
410.941	380.07
411.15	390.31
411.358	373.92
411.567	466.08
411.775	361.64
411.984	396.45
412.192	451.75
412.401	486.56
412.609	484.52
412.818	545.95
413.026	472.23
413.234	511.14
413.443	554.15
413.651	492.71
413.86	502.95
414.068	681.12
414.276	619.68
414.485	666.78
414.693	670.88
414.901	652.45
415.11	683.17
415.318	701.6
415.526	765.09
415.734	750.75
415.943	799.9
416.151	775.33
416.359	881.82
416.567	824.48
416.776	840.86
416.984	953.5
417.192	926.88
417.4	984.22
417.608	1086.62
417.817	1049.75
418.025	1127.58
418.233	1250.46
418.441	1096.86
418.649	1209.5
418.857	1275.03
419.065	1330.33
419.273	1242.26
419.481	1344.66
419.689	1369.24
419.897	1469.59
420.105	1578.13
420.313	1479.83
420.521	1559.7
420.729	1619.09
420.937	1694.86
421.145	1741.97
421.353	1744.02
421.561	2051.21
421.769	2038.92
421.977	1989.77
422.185	2055.31
422.393	2208.9
422.601	2231.43
422.809	2303.11
423.017	2411.65
423.224	2454.66
423.432	2583.68
423.64	2413.7
423.848	2708.61
424.056	2704.51
424.263	2825.34
424.471	2897.02
424.679	2905.21
424.887	3142.78
425.094	3067
425.302	3249.27
425.51	3257.46
425.718	3458.17
425.925	3320.95
426.133	3654.77
426.341	3812.46
426.548	3808.37
426.756	3853.42
426.964	4045.93
427.171	4134
427.379	4263.02
427.586	4492.39
427.794	4549.73
428.001	4754.53
428.209	4877.41
428.417	5020.77
428.624	5256.28
428.832	5239.9
429.039	5096.54
429.247	5446.74
429.454	5743.7
429.662	6177.87
429.869	5782.61
430.076	6179.92
430.284	6009.93
430.491	6175.82
430.699	6624.33
430.906	6548.55
431.114	6671.43
431.321	7128.13
431.528	6984.77
431.736	7550.01
431.943	7975.98
432.15	7564.34
432.358	7779.38
432.565	8186.93
432.772	8123.44
432.979	8592.42
433.187	8571.94
433.394	8770.6
433.601	9411.61
433.808	9301.02
434.016	9196.57
434.223	9606.17
434.43	10458.12
434.637	10054.67
434.844	10619.91
435.052	10798.09
435.259	10773.51
435.466	10847.24
435.673	10796.04
435.88	11445.24
436.087	12264.43
436.294	12094.45
436.501	12051.44
436.708	12121.07
436.915	12565.48
437.122	13005.8
437.329	13286.37
437.537	13575.13
437.743	13800.41
437.95	13390.81
438.157	14443.47
438.364	14914.5
438.571	14785.48
438.778	14771.15
438.985	16483.25
439.192	15510.46
439.399	16165.81
439.606	15594.43
439.813	16561.07
440.02	17709.98
440.227	17378.21
440.433	17255.33
440.64	17755.04
440.847	17664.93
441.054	18185.11
441.261	19092.36
441.467	18815.88
441.674	19495.81
441.881	20142.97
442.088	20253.56
442.294	20034.42
442.501	20450.16
442.708	20894.57
442.914	21607.26
443.121	22397.78
443.328	21943.13
443.534	23651.14
443.741	22741.84
443.948	22612.82
444.154	24023.87
444.361	24060.73
444.568	24494.9
444.774	24304.44
444.981	24535.86
445.187	25643.81
445.394	26362.65
445.6	25871.14
445.807	28033.79
446.013	27321.1
446.22	27575.05
446.426	28736.24
446.633	28826.35
446.839	29854.44
447.046	28785.4
447.252	30317.28
447.459	30280.41
447.665	30016.22
447.871	31623.88
448.078	33004.21
448.284	31322.83
448.491	31961.79
448.697	33235.63
448.903	34089.63
449.11	34335.39
449.316	33532.59
449.522	34478.75
449.728	35080.85
449.935	35216.02
450.141	35494.54
450.347	35949.19
450.553	35232.4
450.76	35756.68
450.966	36723.32
451.172	36737.66
451.378	37567.09
451.584	36362.88
451.791	37405.3
451.997	37382.77
452.203	37792.36
452.409	37941.86
452.615	37765.74
452.821	36547.2
453.027	36461.18
453.233	38036.07
453.44	36579.96
453.646	37051
453.852	37505.65
454.058	37577.33
454.264	36379.26
454.47	37481.07
454.676	36338.3
454.882	37646.96
455.088	34499.23
455.294	35095.19
455.5	35824.26
455.705	35414.67
455.911	34079.39
456.117	33649.32
456.323	33557.16
456.529	31529.67
456.735	33082.03
456.941	31969.99
457.147	31619.78
457.352	30812.88
457.558	30374.62
457.764	30640.86
457.97	30063.33
458.176	29315.82
458.381	29342.44
458.587	28005.12
458.793	27693.83
458.999	26557.21
459.204	28359.42
459.41	27425.54
459.616	25527.08
459.821	25461.54
460.027	25221.93
460.233	24916.78
460.438	23976.76
460.644	24191.8
460.85	23061.32
461.055	22598.48
461.261	22616.91
461.466	20872.04
461.672	20304.76
461.878	21689.18
462.083	20095.86
462.289	19760
462.494	19594.11
462.7	18873.23
462.905	18445.2
463.111	18969.48
463.316	19090.31
463.522	18654.09
463.727	18619.28
463.932	18668.43
464.138	18428.82
464.343	18719.63
464.549	17839
464.754	18299.8
464.959	18490.26
465.165	18232.21
465.37	17750.94
465.575	17159.08
465.781	17873.82
465.986	17808.28
466.191	17191.84
466.397	17019.81
466.602	16042.93
466.807	16462.77
467.012	16772.01
467.218	16554.93
467.423	16262.07
467.628	16384.94
467.833	17064.87
