Data from USB4F104151__93__12-42-50-324.txt Node

Date: Fri Mar 14 12:42:50 EDT 2025
User: louis
Spectrometer: USB4F10415
Trigger mode: 4
Integration Time (sec): 3.000000E-2
Scans to average: 1
Electric dark correction enabled: true
Nonlinearity correction enabled: false
Boxcar width: 0
XAxis mode: Wavelengths
Number of Pixels in Spectrum: 3648
>>>>>Begin Spectral Data<<<<<
178.204	-149.16
178.424	-149.16
178.644	-149.16
178.864	-136.87
179.084	-143.02
179.304	6.49
179.524	0.34
179.744	-38.57
179.964	22.87
180.184	-50.86
180.404	43.35
180.624	-30.38
180.844	14.68
181.064	-38.57
181.283	26.96
181.503	8.53
181.723	35.16
181.943	-20.14
182.163	88.4
182.383	74.07
182.602	-9.9
182.822	63.83
183.042	26.96
183.262	-3.75
183.482	22.87
183.701	24.92
183.921	-40.62
184.141	-3.75
184.361	57.68
184.58	6.49
184.8	12.63
185.02	4.44
185.239	90.45
185.459	53.59
185.679	16.73
185.898	-20.14
186.118	-1.71
186.338	49.49
186.557	33.11
186.777	-34.47
186.997	31.06
187.216	37.2
187.436	125.27
187.655	35.16
187.875	53.59
188.095	-3.75
188.314	115.03
188.534	76.12
188.753	-24.23
188.973	18.77
189.192	47.44
189.412	24.92
189.631	12.63
189.851	16.73
190.07	37.2
190.29	-38.57
190.509	29.01
190.729	18.77
190.948	108.88
191.168	170.32
191.387	49.49
191.607	-44.71
191.826	-5.8
192.045	4.44
192.265	51.54
192.484	-44.71
192.704	24.92
192.923	-32.43
193.142	98.64
193.362	45.4
193.581	63.83
193.8	74.07
194.02	10.58
194.239	2.39
194.458	39.25
194.678	29.01
194.897	-50.86
195.116	-1.71
195.335	98.64
195.555	35.16
195.774	-24.23
195.993	20.82
196.212	90.45
196.432	-7.85
196.651	-1.71
196.87	8.53
197.089	82.26
197.308	49.49
197.528	59.73
197.747	-9.9
197.966	22.87
198.185	55.64
198.404	-83.63
198.623	37.2
198.842	92.5
199.062	14.68
199.281	47.44
199.5	-16.04
199.719	26.96
199.938	65.88
200.157	47.44
200.376	67.92
200.595	33.11
200.814	-22.19
201.033	-28.33
201.252	86.36
201.471	0.34
201.69	-48.81
201.909	-32.43
202.128	10.58
202.347	-30.38
202.566	55.64
202.785	18.77
203.004	22.87
203.223	106.84
203.442	47.44
203.661	-34.47
203.879	29.01
204.098	-7.85
204.317	6.49
204.536	49.49
204.755	4.44
204.974	-9.9
205.193	-40.62
205.411	53.59
205.63	45.4
205.849	-38.57
206.068	-26.28
206.287	61.78
206.505	47.44
206.724	-71.34
206.943	35.16
207.162	16.73
207.381	22.87
207.599	-24.23
207.818	-65.19
208.037	-5.8
208.255	22.87
208.474	39.25
208.693	-22.19
208.911	35.16
209.13	26.96
209.349	20.82
209.567	-18.09
209.786	12.63
210.005	22.87
210.223	51.54
210.442	18.77
210.661	35.16
210.879	59.73
211.098	37.2
211.316	-65.19
211.535	31.06
211.753	-52.91
211.972	98.64
212.191	-36.52
212.409	-11.95
212.628	18.77
212.846	41.3
213.065	37.2
213.283	6.49
213.502	10.58
213.72	69.97
213.938	12.63
214.157	39.25
214.375	31.06
214.594	-24.23
214.812	80.21
215.031	-11.95
215.249	65.88
215.467	33.11
215.686	33.11
215.904	82.26
216.122	-26.28
216.341	92.5
216.559	20.82
216.778	14.68
216.996	88.4
217.214	57.68
217.432	35.16
217.651	-18.09
217.869	51.54
218.087	33.11
218.306	29.01
218.524	24.92
218.742	-1.71
218.96	80.21
219.179	61.78
219.397	16.73
219.615	106.84
219.833	76.12
220.051	51.54
220.27	-9.9
220.488	131.41
220.706	98.64
220.924	-42.67
221.142	12.63
221.36	94.55
221.578	41.3
221.796	35.16
222.015	86.36
222.233	22.87
222.451	110.93
222.669	-26.28
222.887	39.25
223.105	22.87
223.323	-22.19
223.541	45.4
223.759	6.49
223.977	-44.71
224.195	8.53
224.413	49.49
224.631	84.31
224.849	-7.85
225.067	121.17
225.285	72.02
225.503	35.16
225.721	-48.81
225.939	10.58
226.157	-3.75
226.375	139.6
226.592	-24.23
226.81	37.2
227.028	59.73
227.246	84.31
227.464	43.35
227.682	41.3
227.9	-1.71
228.117	-3.75
228.335	2.39
228.553	-1.71
228.771	53.59
228.989	98.64
229.206	41.3
229.424	59.73
229.642	12.63
229.86	33.11
230.077	98.64
230.295	51.54
230.513	92.5
230.731	-42.67
230.948	61.78
231.166	22.87
231.384	-16.04
231.601	24.92
231.819	90.45
232.037	43.35
232.254	39.25
232.472	72.02
232.689	12.63
232.907	24.92
233.125	-28.33
233.342	-11.95
233.56	-18.09
233.777	10.58
233.995	24.92
234.213	69.97
234.43	10.58
234.648	69.97
234.865	10.58
235.083	-26.28
235.3	41.3
235.518	61.78
235.735	127.32
235.953	80.21
236.17	-5.8
236.388	-28.33
236.605	78.16
236.822	24.92
237.04	39.25
237.257	33.11
237.475	29.01
237.692	47.44
237.909	26.96
238.127	6.49
238.344	-3.75
238.562	-9.9
238.779	-63.15
238.996	2.39
239.214	61.78
239.431	31.06
239.648	-42.67
239.865	-7.85
240.083	29.01
240.3	-75.43
240.517	-24.23
240.735	18.77
240.952	65.88
241.169	43.35
241.386	39.25
241.603	18.77
241.821	26.96
242.038	10.58
242.255	59.73
242.472	26.96
242.689	0.34
242.907	88.4
243.124	29.01
243.341	-30.38
243.558	37.2
243.775	-18.09
243.992	-67.24
244.209	-20.14
244.426	123.22
244.643	22.87
244.86	16.73
245.078	92.5
245.295	117.08
245.512	59.73
245.729	37.2
245.946	47.44
246.163	57.68
246.38	72.02
246.597	-40.62
246.814	53.59
247.031	67.92
247.248	-20.14
247.464	55.64
247.681	110.93
247.898	12.63
248.115	86.36
248.332	-7.85
248.549	2.39
248.766	47.44
248.983	26.96
249.2	69.97
249.417	82.26
249.633	10.58
249.85	24.92
250.067	45.4
250.284	-11.95
250.501	69.97
250.717	8.53
250.934	-1.71
251.151	41.3
251.368	2.39
251.585	41.3
251.801	39.25
252.018	-16.04
252.235	78.16
252.451	37.2
252.668	31.06
252.885	41.3
253.102	2.39
253.318	33.11
253.535	29.01
253.752	16.73
253.968	26.96
254.185	37.2
254.401	57.68
254.618	24.92
254.835	-52.91
255.051	43.35
255.268	35.16
255.484	22.87
255.701	115.03
255.917	61.78
256.134	-34.47
256.351	63.83
256.567	45.4
256.784	86.36
257	-57
257.217	31.06
257.433	57.68
257.65	102.74
257.866	26.96
258.082	14.68
258.299	12.63
258.515	61.78
258.732	-16.04
258.948	6.49
259.165	-36.52
259.381	-5.8
259.597	39.25
259.814	33.11
260.03	31.06
260.246	16.73
260.463	14.68
260.679	33.11
260.895	-1.71
261.112	33.11
261.328	2.39
261.544	-42.67
261.761	51.54
261.977	39.25
262.193	-28.33
262.409	26.96
262.626	18.77
262.842	88.4
263.058	-34.47
263.274	65.88
263.49	-32.43
263.707	31.06
263.923	-20.14
264.139	-16.04
264.355	37.2
264.571	84.31
264.787	0.34
265.004	55.64
265.22	4.44
265.436	41.3
265.652	-22.19
265.868	39.25
266.084	-85.67
266.3	16.73
266.516	2.39
266.732	18.77
266.948	88.4
267.164	29.01
267.38	69.97
267.596	53.59
267.812	18.77
268.028	14.68
268.244	12.63
268.46	63.83
268.676	47.44
268.892	-7.85
269.108	41.3
269.324	-3.75
269.54	-40.62
269.756	78.16
269.972	-18.09
270.188	22.87
270.403	-44.71
270.619	-28.33
270.835	55.64
271.051	24.92
271.267	-7.85
271.483	10.58
271.698	119.12
271.914	76.12
272.13	26.96
272.346	39.25
272.562	-3.75
272.777	-34.47
272.993	-54.95
273.209	16.73
273.425	86.36
273.64	31.06
273.856	33.11
274.072	63.83
274.287	74.07
274.503	61.78
274.719	14.68
274.934	-13.99
275.15	-40.62
275.366	59.73
275.581	-9.9
275.797	-30.38
276.012	82.26
276.228	69.97
276.444	12.63
276.659	43.35
276.875	8.53
277.09	61.78
277.306	4.44
277.521	49.49
277.737	0.34
277.952	6.49
278.168	16.73
278.383	4.44
278.599	-34.47
278.814	82.26
279.03	-63.15
279.245	92.5
279.461	47.44
279.676	63.83
279.892	16.73
280.107	22.87
280.322	22.87
280.538	0.34
280.753	-18.09
280.969	69.97
281.184	-16.04
281.399	158.03
281.615	-1.71
281.83	80.21
282.045	31.06
282.26	26.96
282.476	59.73
282.691	35.16
282.906	29.01
283.122	0.34
283.337	-44.71
283.552	55.64
283.767	6.49
283.983	4.44
284.198	26.96
284.413	16.73
284.628	-11.95
284.843	33.11
285.058	6.49
285.274	16.73
285.489	31.06
285.704	47.44
285.919	29.01
286.134	26.96
286.349	45.4
286.564	-28.33
286.779	115.03
286.995	-22.19
287.21	26.96
287.425	33.11
287.64	-13.99
287.855	-11.95
288.07	47.44
288.285	96.6
288.5	74.07
288.715	26.96
288.93	-36.52
289.145	78.16
289.36	76.12
289.575	76.12
289.79	4.44
290.004	39.25
290.219	57.68
290.434	10.58
290.649	18.77
290.864	-22.19
291.079	6.49
291.294	18.77
291.509	2.39
291.724	82.26
291.938	90.45
292.153	-20.14
292.368	-20.14
292.583	8.53
292.798	88.4
293.012	47.44
293.227	72.02
293.442	-7.85
293.657	-32.43
293.871	153.94
294.086	41.3
294.301	-28.33
294.516	37.2
294.73	-1.71
294.945	35.16
295.16	-22.19
295.374	94.55
295.589	53.59
295.804	18.77
296.018	29.01
296.233	59.73
296.447	135.51
296.662	-11.95
296.877	49.49
297.091	86.36
297.306	24.92
297.52	63.83
297.735	41.3
297.949	-9.9
298.164	-46.76
298.378	22.87
298.593	31.06
298.807	49.49
299.022	49.49
299.236	65.88
299.451	84.31
299.665	41.3
299.88	-44.71
300.094	-26.28
300.309	51.54
300.523	26.96
300.737	8.53
300.952	-18.09
301.166	-20.14
301.381	20.82
301.595	37.2
301.809	-18.09
302.024	67.92
302.238	22.87
302.452	63.83
302.667	-18.09
302.881	63.83
303.095	31.06
303.309	-36.52
303.524	43.35
303.738	49.49
303.952	-71.34
304.166	49.49
304.381	-11.95
304.595	86.36
304.809	24.92
305.023	6.49
305.237	41.3
305.452	8.53
305.666	149.84
305.88	22.87
306.094	-24.23
306.308	16.73
306.522	65.88
306.736	-3.75
306.95	-26.28
307.164	-5.8
307.379	24.92
307.593	106.84
307.807	14.68
308.021	16.73
308.235	2.39
308.449	24.92
308.663	14.68
308.877	131.41
309.091	47.44
309.305	-5.8
309.519	6.49
309.733	55.64
309.947	-13.99
310.161	67.92
310.374	33.11
310.588	8.53
310.802	37.2
311.016	-9.9
311.23	31.06
311.444	76.12
311.658	14.68
311.872	80.21
312.085	88.4
312.299	61.78
312.513	129.36
312.727	92.5
312.941	37.2
313.154	31.06
313.368	20.82
313.582	35.16
313.796	8.53
314.009	20.82
314.223	69.97
314.437	12.63
314.651	12.63
314.864	-30.38
315.078	41.3
315.292	37.2
315.505	39.25
315.719	41.3
315.933	0.34
316.146	0.34
316.36	106.84
316.573	90.45
316.787	78.16
317.001	88.4
317.214	24.92
317.428	41.3
317.641	-22.19
317.855	80.21
318.068	22.87
318.282	18.77
318.495	115.03
318.709	22.87
318.922	47.44
319.136	168.27
319.349	-26.28
319.563	0.34
319.776	29.01
319.99	2.39
320.203	119.12
320.417	121.17
320.63	35.16
320.843	127.32
321.057	98.64
321.27	2.39
321.483	100.69
321.697	63.83
321.91	16.73
322.124	67.92
322.337	45.4
322.55	22.87
322.763	29.01
322.977	47.44
323.19	59.73
323.403	20.82
323.617	108.88
323.83	47.44
324.043	-22.19
324.256	88.4
324.469	10.58
324.683	162.13
324.896	98.64
325.109	18.77
325.322	-44.71
325.535	18.77
325.748	96.6
325.962	-32.43
326.175	8.53
326.388	6.49
326.601	-24.23
326.814	51.54
327.027	33.11
327.24	86.36
327.453	-34.47
327.666	61.78
327.879	84.31
328.092	65.88
328.305	-32.43
328.518	26.96
328.731	51.54
328.944	29.01
329.157	55.64
329.37	33.11
329.583	49.49
329.796	72.02
330.009	-9.9
330.222	-1.71
330.435	39.25
330.648	117.08
330.861	2.39
331.073	35.16
331.286	24.92
331.499	67.92
331.712	53.59
331.925	51.54
332.138	49.49
332.35	22.87
332.563	10.58
332.776	57.68
332.989	-11.95
333.202	53.59
333.414	53.59
333.627	78.16
333.84	69.97
334.053	10.58
334.265	31.06
334.478	72.02
334.691	16.73
334.903	86.36
335.116	24.92
335.329	72.02
335.541	18.77
335.754	72.02
335.966	12.63
336.179	39.25
336.392	10.58
336.604	-18.09
336.817	12.63
337.029	26.96
337.242	12.63
337.454	10.58
337.667	106.84
337.88	98.64
338.092	37.2
338.305	47.44
338.517	0.34
338.729	51.54
338.942	94.55
339.154	86.36
339.367	-36.52
339.579	98.64
339.792	41.3
340.004	137.56
340.217	53.59
340.429	-3.75
340.641	-30.38
340.854	55.64
341.066	100.69
341.278	80.21
341.491	63.83
341.703	35.16
341.915	8.53
342.128	59.73
342.34	4.44
342.552	14.68
342.764	39.25
342.977	2.39
343.189	14.68
343.401	47.44
343.613	55.64
343.826	55.64
344.038	53.59
344.25	106.84
344.462	67.92
344.674	20.82
344.886	26.96
345.099	49.49
345.311	14.68
345.523	-5.8
345.735	-3.75
345.947	78.16
346.159	39.25
346.371	57.68
346.583	22.87
346.795	108.88
347.007	96.6
347.219	16.73
347.431	63.83
347.643	96.6
347.855	51.54
348.067	51.54
348.279	31.06
348.491	24.92
348.703	59.73
348.915	-18.09
349.127	-7.85
349.339	90.45
349.551	-7.85
349.763	69.97
349.975	57.68
350.187	121.17
350.399	61.78
350.61	61.78
350.822	26.96
351.034	92.5
351.246	61.78
351.458	90.45
351.669	-1.71
351.881	94.55
352.093	55.64
352.305	88.4
352.517	55.64
352.728	16.73
352.94	20.82
353.152	90.45
353.363	61.78
353.575	96.6
353.787	24.92
353.999	115.03
354.21	63.83
354.422	55.64
354.633	-20.14
354.845	104.79
355.057	0.34
355.268	112.98
355.48	53.59
355.692	47.44
355.903	102.74
356.115	-5.8
356.326	-36.52
356.538	24.92
356.749	59.73
356.961	69.97
357.172	37.2
357.384	43.35
357.595	141.65
357.807	-18.09
358.018	69.97
358.23	-5.8
358.441	125.27
358.653	90.45
358.864	80.21
359.075	24.92
359.287	61.78
359.498	129.36
359.709	125.27
359.921	57.68
360.132	39.25
360.344	41.3
360.555	59.73
360.766	63.83
360.977	12.63
361.189	100.69
361.4	96.6
361.611	16.73
361.823	119.12
362.034	57.68
362.245	-1.71
362.456	47.44
362.667	4.44
362.879	74.07
363.09	92.5
363.301	92.5
363.512	80.21
363.723	-9.9
363.935	33.11
364.146	51.54
364.357	88.4
364.568	88.4
364.779	-75.43
364.99	106.84
365.201	20.82
365.412	139.6
365.623	16.73
365.834	45.4
366.045	98.64
366.256	22.87
366.467	78.16
366.678	78.16
366.889	22.87
367.1	80.21
367.311	76.12
367.522	59.73
367.733	86.36
367.944	72.02
368.155	88.4
368.366	39.25
368.577	49.49
368.788	125.27
368.999	-52.91
369.209	16.73
369.42	104.79
369.631	160.08
369.842	26.96
370.053	110.93
370.264	-1.71
370.474	22.87
370.685	14.68
370.896	-30.38
371.107	67.92
371.317	117.08
371.528	45.4
371.739	102.74
371.95	94.55
372.16	63.83
372.371	-28.33
372.582	-24.23
372.792	51.54
373.003	53.59
373.214	37.2
373.424	80.21
373.635	45.4
373.846	98.64
374.056	6.49
374.267	-11.95
374.477	78.16
374.688	-1.71
374.898	96.6
375.109	69.97
375.319	24.92
375.53	65.88
375.74	-3.75
375.951	-50.86
376.161	10.58
376.372	90.45
376.582	94.55
376.793	20.82
377.003	-26.28
377.214	22.87
377.424	88.4
377.635	72.02
377.845	57.68
378.055	88.4
378.266	133.46
378.476	127.32
378.686	63.83
378.897	108.88
379.107	76.12
379.317	65.88
379.528	100.69
379.738	88.4
379.948	26.96
380.158	84.31
380.369	76.12
380.579	100.69
380.789	94.55
380.999	55.64
381.21	131.41
381.42	98.64
381.63	37.2
381.84	18.77
382.05	72.02
382.261	90.45
382.471	51.54
382.681	39.25
382.891	117.08
383.101	112.98
383.311	117.08
383.521	106.84
383.731	96.6
383.941	125.27
384.151	63.83
384.361	61.78
384.571	110.93
384.781	65.88
384.991	63.83
385.201	143.7
385.411	108.88
385.621	115.03
385.831	90.45
386.041	29.01
386.251	119.12
386.461	151.89
386.671	78.16
386.881	84.31
387.091	24.92
387.301	82.26
387.511	49.49
387.72	104.79
387.93	119.12
388.14	72.02
388.35	72.02
388.56	121.17
388.769	166.23
388.979	102.74
389.189	57.68
389.399	37.2
389.609	74.07
389.818	82.26
390.028	108.88
390.238	135.51
390.447	104.79
390.657	88.4
390.867	33.11
391.076	65.88
391.286	168.27
391.496	119.12
391.705	74.07
391.915	104.79
392.125	61.78
392.334	59.73
392.544	172.37
392.753	55.64
392.963	119.12
393.172	72.02
393.382	55.64
393.591	117.08
393.801	104.79
394.01	123.22
394.22	110.93
394.429	84.31
394.639	108.88
394.848	145.75
395.058	147.8
395.267	90.45
395.477	141.65
395.686	90.45
395.895	170.32
396.105	168.27
396.314	121.17
396.524	145.75
396.733	184.66
396.942	176.47
397.152	139.6
397.361	108.88
397.57	133.46
397.78	129.36
397.989	112.98
398.198	174.42
398.407	153.94
398.617	86.36
398.826	164.18
399.035	92.5
399.244	76.12
399.453	147.8
399.663	133.46
399.872	149.84
400.081	119.12
400.29	194.9
400.499	72.02
400.708	178.51
400.917	115.03
401.127	123.22
401.336	100.69
401.545	252.24
401.754	158.03
401.963	182.61
402.172	106.84
402.381	158.03
402.59	205.14
402.799	127.32
403.008	205.14
403.217	186.71
403.426	168.27
403.635	145.75
403.844	178.51
404.053	287.06
404.262	184.66
404.471	285.01
404.68	229.71
404.888	233.81
405.097	242
405.306	201.04
405.515	305.49
405.724	227.67
405.933	196.95
406.142	307.54
406.35	180.56
406.559	272.72
406.768	244.05
406.977	356.69
407.185	291.15
407.394	256.34
407.603	289.1
407.812	348.5
408.02	407.89
408.229	348.5
408.438	397.65
408.646	305.49
408.855	399.7
409.064	444.75
409.272	338.26
409.481	397.65
409.69	485.71
409.898	475.47
410.107	479.57
410.315	565.58
410.524	524.62
410.733	508.24
410.941	584.01
411.15	510.29
411.358	551.24
411.567	639.31
411.775	602.44
411.984	657.74
412.192	667.98
412.401	690.51
412.609	747.85
412.818	801.1
413.026	786.76
413.234	778.57
413.443	821.58
413.651	801.1
413.86	901.45
414.068	942.41
414.276	987.46
414.485	997.7
414.693	1026.37
414.901	1124.68
415.11	1065.29
415.318	1196.36
415.526	1108.29
415.734	1241.41
415.943	1270.08
416.151	1163.59
416.359	1358.14
416.567	1329.47
416.776	1352
416.984	1540.41
417.192	1618.24
417.4	1550.65
417.608	1648.96
417.817	1759.55
418.025	1741.11
418.233	1886.52
418.441	1724.73
418.649	1888.57
418.857	2064.69
419.065	2216.24
419.273	2111.8
419.481	2224.44
419.689	2175.28
419.897	2476.34
420.105	2509.1
420.313	2423.09
420.521	2623.79
420.729	2697.52
420.937	2767.15
421.145	2857.26
421.353	3088.68
421.561	3057.96
421.769	3213.6
421.977	3369.25
422.185	3359.01
422.393	3602.72
422.601	3594.53
422.809	3680.54
423.017	3748.12
423.224	3903.77
423.432	3995.93
423.64	4276.5
423.848	4436.24
424.056	4299.03
424.263	4698.38
424.471	4657.42
424.679	4739.34
424.887	5075.21
425.094	5118.22
425.302	5183.75
425.51	5548.29
425.718	5507.33
425.925	5671.17
426.133	5847.29
426.341	6144.25
426.548	6582.51
426.756	6342.9
426.964	6635.76
427.171	6846.7
427.379	7049.45
427.586	7213.29
427.794	7481.57
428.001	7878.88
428.209	8161.5
428.417	8059.1
428.624	8487.12
428.832	8716.5
429.039	8677.58
429.247	8480.98
429.454	9437.38
429.662	10186.94
429.869	9410.76
430.076	10072.25
430.284	9740.48
430.491	10059.96
430.699	10524.85
430.906	10545.33
431.114	10762.42
431.321	11180.2
431.528	11514.02
431.736	12202.14
431.943	12857.49
432.15	12472.47
432.358	12427.42
432.565	13164.68
432.772	13082.77
432.979	13949.06
433.187	14071.93
433.394	14493.82
433.601	15030.38
433.808	15087.73
434.016	15071.34
434.223	15771.75
434.43	16719.96
434.637	16412.76
434.844	17449.04
435.052	17690.7
435.259	17664.07
435.466	17705.03
435.673	17535.05
435.88	19021.88
436.087	19763.24
436.294	19755.05
436.501	19202.1
436.708	19816.49
436.915	20488.22
437.122	21121.04
437.329	21026.84
437.537	21911.56
437.743	22372.35
437.95	22126.6
438.157	23367.66
438.364	24178.66
438.571	23791.59
438.778	24279.01
438.985	26275.78
439.192	25343.95
439.399	26113.99
439.606	25655.25
439.813	27260.85
440.02	28692.38
440.227	28272.55
440.433	27733.93
440.64	28669.86
440.847	28622.75
441.054	29396.88
441.261	31209.34
441.467	30412.68
441.674	31661.94
441.881	32763.75
442.088	32812.9
442.294	32382.82
442.501	33027.93
442.708	33816.4
442.914	35112.77
443.121	36233
443.328	35473.21
443.534	38303.5
443.741	37023.52
443.948	36636.45
444.154	38897.41
444.361	39081.73
444.568	39214.85
444.774	38958.85
444.981	39653.11
445.187	40849.13
445.394	42141.39
445.6	41934.55
445.807	46175.89
446.013	43665.08
446.22	44656.3
446.426	46472.85
446.633	46864.01
446.839	48510.58
447.046	46392.98
447.252	49000.04
447.459	48821.87
447.665	48596.59
447.871	51062.35
448.078	53048.88
448.284	50501.2
448.491	51674.69
448.697	53405.22
448.903	54916.62
449.11	54892.05
449.316	54033.95
449.522	54670.87
449.728	56208.89
449.935	56669.68
450.141	56722.93
450.347	57943.52
450.553	56116.73
450.76	56710.64
450.966	58303.96
451.172	57802.21
451.378	59143.63
451.584	58207.71
451.791	59610.57
451.997	59053.52
452.203	60235.2
452.409	60609.98
452.615	60188.09
452.821	58054.11
453.027	57912.8
453.233	60069.31
453.44	58381.79
453.646	58846.68
453.852	58916.31
454.058	60050.88
454.264	58269.15
454.47	59227.6
454.676	57701.86
454.882	60065.22
455.088	55227.91
455.294	55752.19
455.5	56342.01
455.705	57042.41
455.911	55014.93
456.117	53904.93
456.323	53341.74
456.529	50380.37
456.735	52430.39
456.941	51734.08
457.147	50390.61
457.352	49354.34
457.558	48950.89
457.764	48635.5
457.97	47611.52
458.176	47052.42
458.381	46466.7
458.587	44635.82
458.793	44609.2
458.999	42407.63
459.204	45354.66
459.41	43996.85
459.616	41174.75
459.821	41514.72
460.027	41242.34
460.233	40394.48
460.438	38672.14
460.644	38823.68
460.85	37277.47
461.055	36497.19
461.261	36419.37
461.466	33808.21
461.672	32655.2
461.878	34602.82
462.083	32733.03
462.289	31967.09
462.494	31874.93
462.7	30275.46
462.905	29640.59
463.111	30709.63
463.316	30740.35
463.522	30107.53
463.727	30050.19
463.932	29941.64
464.138	29798.29
464.343	29855.63
464.549	28979.1
464.754	29843.34
464.959	29487
465.165	29517.71
465.37	28182.44
465.575	27563.95
465.781	28860.32
465.986	28739.49
466.191	27805.61
466.397	27490.23
466.602	25933.77
