Data from USB4F104151__42__12-41-29-813.txt Node

Date: Fri Mar 14 12:41:29 EDT 2025
User: louis
Spectrometer: USB4F10415
Trigger mode: 4
Integration Time (sec): 3.000000E-2
Scans to average: 1
Electric dark correction enabled: true
Nonlinearity correction enabled: false
Boxcar width: 0
XAxis mode: Wavelengths
Number of Pixels in Spectrum: 3648
>>>>>Begin Spectral Data<<<<<
178.204	-140.12
178.424	-140.12
178.644	-140.12
178.864	-179.03
179.084	-150.36
179.304	-9.05
179.524	-93.01
179.744	-13.14
179.964	33.96
180.184	-41.81
180.404	68.78
180.624	46.25
180.844	46.25
181.064	-64.34
181.283	-15.19
181.503	23.72
181.723	17.58
181.943	31.91
182.163	87.21
182.383	31.91
182.602	-0.85
182.822	42.15
183.042	-2.9
183.262	11.43
183.482	-33.62
183.701	79.02
183.921	46.25
184.141	-27.48
184.361	5.29
184.58	36.01
184.8	1.19
185.02	-88.92
185.239	-2.9
185.459	64.68
185.679	23.72
185.898	31.91
186.118	97.45
186.338	19.63
186.557	48.3
186.777	1.19
186.997	3.24
187.216	15.53
187.436	19.63
187.655	68.78
187.875	36.01
188.095	-37.72
188.314	38.06
188.534	-0.85
188.753	-19.29
188.973	38.06
189.192	25.77
189.412	29.87
189.631	-13.14
189.851	-9.05
190.07	29.87
190.29	-23.38
190.509	1.19
190.729	23.72
190.948	-9.05
191.168	109.74
191.387	38.06
191.607	33.96
191.826	9.39
192.045	-15.19
192.265	25.77
192.484	83.11
192.704	5.29
192.923	-43.86
193.142	70.83
193.362	60.59
193.581	81.07
193.8	13.48
194.02	33.96
194.239	19.63
194.458	-9.05
194.678	48.3
194.897	38.06
195.116	36.01
195.335	46.25
195.555	40.11
195.774	19.63
195.993	-21.33
196.212	-56.15
196.432	-19.29
196.651	-7
196.87	3.24
197.089	66.73
197.308	46.25
197.528	64.68
197.747	-37.72
197.966	66.73
198.185	60.59
198.404	7.34
198.623	58.54
198.842	-23.38
199.062	50.35
199.281	72.87
199.5	31.91
199.719	19.63
199.938	68.78
200.157	33.96
200.376	9.39
200.595	7.34
200.814	56.49
201.033	-15.19
201.252	25.77
201.471	13.48
201.69	23.72
201.909	-17.24
202.128	19.63
202.347	-2.9
202.566	23.72
202.785	-62.29
203.004	44.2
203.223	58.54
203.442	-31.57
203.661	33.96
203.879	64.68
204.098	79.02
204.317	3.24
204.536	5.29
204.755	-41.81
204.974	-4.95
205.193	42.15
205.411	87.21
205.63	7.34
205.849	-13.14
206.068	64.68
206.287	44.2
206.505	44.2
206.724	-19.29
206.943	15.53
207.162	29.87
207.381	25.77
207.599	-21.33
207.818	7.34
208.037	33.96
208.255	7.34
208.474	-4.95
208.693	17.58
208.911	-4.95
209.13	13.48
209.349	-9.05
209.567	-4.95
209.786	-62.29
210.005	87.21
210.223	-17.24
210.442	-86.87
210.661	21.67
210.879	-2.9
211.098	-11.09
211.316	56.49
211.535	19.63
211.753	-23.38
211.972	17.58
212.191	81.07
212.409	68.78
212.628	-41.81
212.846	-19.29
213.065	13.48
213.283	19.63
213.502	-21.33
213.72	31.91
213.938	-11.09
214.157	9.39
214.375	5.29
214.594	31.91
214.812	54.44
215.031	56.49
215.249	5.29
215.467	-62.29
215.686	38.06
215.904	21.67
216.122	29.87
216.341	62.63
216.559	48.3
216.778	9.39
216.996	89.26
217.214	-27.48
217.432	-13.14
217.651	-88.92
217.869	-35.67
218.087	19.63
218.306	7.34
218.524	-2.9
218.742	-86.87
218.96	5.29
219.179	21.67
219.397	15.53
219.615	7.34
219.833	7.34
220.051	-19.29
220.27	68.78
220.488	-60.24
220.706	58.54
220.924	29.87
221.142	-19.29
221.36	-39.76
221.578	103.59
221.796	13.48
222.015	17.58
222.233	-4.95
222.451	52.39
222.669	-43.86
222.887	58.54
223.105	-0.85
223.323	7.34
223.541	-11.09
223.759	50.35
223.977	31.91
224.195	48.3
224.413	42.15
224.631	-33.62
224.849	15.53
225.067	36.01
225.285	-39.76
225.503	-17.24
225.721	9.39
225.939	-43.86
226.157	-11.09
226.375	19.63
226.592	42.15
226.81	15.53
227.028	-13.14
227.246	5.29
227.464	117.93
227.682	3.24
227.9	9.39
228.117	17.58
228.335	54.44
228.553	36.01
228.771	29.87
228.989	-27.48
229.206	64.68
229.424	1.19
229.642	-25.43
229.86	5.29
230.077	15.53
230.295	-7
230.513	76.97
230.731	33.96
230.948	-0.85
231.166	42.15
231.384	15.53
231.601	-17.24
231.819	62.63
232.037	5.29
232.254	31.91
232.472	33.96
232.689	-7
232.907	3.24
233.125	-13.14
233.342	62.63
233.56	-17.24
233.777	25.77
233.995	-41.81
234.213	17.58
234.43	-2.9
234.648	-76.63
234.865	-13.14
235.083	21.67
235.3	-7
235.518	-9.05
235.735	44.2
235.953	33.96
236.17	36.01
236.388	7.34
236.605	23.72
236.822	111.78
237.04	48.3
237.257	-39.76
237.475	64.68
237.692	40.11
237.909	29.87
238.127	-78.68
238.344	56.49
238.562	-25.43
238.779	70.83
238.996	52.39
239.214	-60.24
239.431	-0.85
239.648	3.24
239.865	9.39
240.083	60.59
240.3	40.11
240.517	27.82
240.735	33.96
240.952	60.59
241.169	85.16
241.386	27.82
241.603	72.87
241.821	3.24
242.038	23.72
242.255	7.34
242.472	42.15
242.689	87.21
242.907	44.2
243.124	3.24
243.341	7.34
243.558	33.96
243.775	-37.72
243.992	-60.24
244.209	27.82
244.426	15.53
244.643	1.19
244.86	-41.81
245.078	83.11
245.295	3.24
245.512	-15.19
245.729	-93.01
245.946	5.29
246.163	9.39
246.38	89.26
246.597	33.96
246.814	91.31
247.031	-31.57
247.248	38.06
247.464	70.83
247.681	-11.09
247.898	48.3
248.115	-31.57
248.332	21.67
248.549	15.53
248.766	68.78
248.983	17.58
249.2	111.78
249.417	21.67
249.633	17.58
249.85	3.24
250.067	62.63
250.284	13.48
250.501	68.78
250.717	15.53
250.934	-27.48
251.151	15.53
251.368	76.97
251.585	15.53
251.801	25.77
252.018	-17.24
252.235	38.06
252.451	-33.62
252.668	25.77
252.885	48.3
253.102	38.06
253.318	42.15
253.535	-19.29
253.752	99.5
253.968	-50
254.185	-15.19
254.401	-0.85
254.618	29.87
254.835	9.39
255.051	54.44
255.268	-50
255.484	50.35
255.701	1.19
255.917	58.54
256.134	11.43
256.351	17.58
256.567	36.01
256.784	72.87
257	-43.86
257.217	-52.05
257.433	-15.19
257.65	23.72
257.866	50.35
258.082	-60.24
258.299	70.83
258.515	1.19
258.732	-21.33
258.948	79.02
259.165	40.11
259.381	-23.38
259.597	44.2
259.814	46.25
260.03	-54.1
260.246	-15.19
260.463	70.83
260.679	38.06
260.895	29.87
261.112	56.49
261.328	48.3
261.544	-41.81
261.761	126.12
261.977	9.39
262.193	29.87
262.409	17.58
262.626	36.01
262.842	62.63
263.058	-50
263.274	1.19
263.49	-13.14
263.707	40.11
263.923	54.44
264.139	-21.33
264.355	122.02
264.571	-2.9
264.787	-4.95
265.004	50.35
265.22	31.91
265.436	-43.86
265.652	-21.33
265.868	-41.81
266.084	-23.38
266.3	-23.38
266.516	-39.76
266.732	52.39
266.948	13.48
267.164	-9.05
267.38	119.98
267.596	15.53
267.812	52.39
268.028	27.82
268.244	31.91
268.46	93.35
268.676	27.82
268.892	48.3
269.108	-29.52
269.324	15.53
269.54	9.39
269.756	23.72
269.972	13.48
270.188	40.11
270.403	7.34
270.619	-70.48
270.835	79.02
271.051	-7
271.267	-37.72
271.483	3.24
271.698	-15.19
271.914	19.63
272.13	-9.05
272.346	-64.34
272.562	-37.72
272.777	1.19
272.993	1.19
273.209	-11.09
273.425	15.53
273.64	-58.2
273.856	74.92
274.072	113.83
274.287	-21.33
274.503	46.25
274.719	72.87
274.934	-41.81
275.15	-29.52
275.366	-17.24
275.581	-95.06
275.797	-0.85
276.012	19.63
276.228	38.06
276.444	-68.44
276.659	-29.52
276.875	-107.35
277.09	-9.05
277.306	-21.33
277.521	21.67
277.737	72.87
277.952	44.2
278.168	19.63
278.383	-2.9
278.599	-0.85
278.814	91.31
279.03	50.35
279.245	79.02
279.461	-13.14
279.676	11.43
279.892	-45.91
280.107	-50
280.322	-15.19
280.538	-9.05
280.753	-17.24
280.969	44.2
281.184	3.24
281.399	60.59
281.615	25.77
281.83	31.91
282.045	23.72
282.26	-15.19
282.476	7.34
282.691	44.2
282.906	54.44
283.122	-13.14
283.337	3.24
283.552	46.25
283.767	-19.29
283.983	-37.72
284.198	38.06
284.413	50.35
284.628	-54.1
284.843	23.72
285.058	-52.05
285.274	-33.62
285.489	58.54
285.704	91.31
285.919	-29.52
286.134	-15.19
286.349	52.39
286.564	60.59
286.779	-35.67
286.995	7.34
287.21	-39.76
287.425	83.11
287.64	-54.1
287.855	36.01
288.07	-31.57
288.285	54.44
288.5	56.49
288.715	5.29
288.93	48.3
289.145	-52.05
289.36	-0.85
289.575	-43.86
289.79	33.96
290.004	-21.33
290.219	83.11
290.434	13.48
290.649	-2.9
290.864	36.01
291.079	-19.29
291.294	-62.29
291.509	-70.48
291.724	-66.39
291.938	11.43
292.153	-2.9
292.368	25.77
292.583	50.35
292.798	54.44
293.012	33.96
293.227	-13.14
293.442	21.67
293.657	21.67
293.871	-11.09
294.086	91.31
294.301	74.92
294.516	15.53
294.73	93.35
294.945	13.48
295.16	33.96
295.374	15.53
295.589	46.25
295.804	44.2
296.018	-2.9
296.233	36.01
296.447	36.01
296.662	50.35
296.877	66.73
297.091	-25.43
297.306	-13.14
297.52	15.53
297.735	21.67
297.949	7.34
298.164	11.43
298.378	-35.67
298.593	40.11
298.807	-23.38
299.022	40.11
299.236	52.39
299.451	23.72
299.665	-39.76
299.88	52.39
300.094	-4.95
300.309	27.82
300.523	9.39
300.737	-41.81
300.952	48.3
301.166	-15.19
301.381	-47.96
301.595	-35.67
301.809	1.19
302.024	-23.38
302.238	-11.09
302.452	76.97
302.667	5.29
302.881	17.58
303.095	31.91
303.309	15.53
303.524	9.39
303.738	72.87
303.952	3.24
304.166	19.63
304.381	-25.43
304.595	107.69
304.809	-7
305.023	-15.19
305.237	23.72
305.452	-37.72
305.666	21.67
305.88	111.78
306.094	-37.72
306.308	3.24
306.522	50.35
306.736	-23.38
306.95	17.58
307.164	-2.9
307.379	7.34
307.593	15.53
307.807	1.19
308.021	19.63
308.235	31.91
308.449	-19.29
308.663	-33.62
308.877	105.64
309.091	54.44
309.305	-7
309.519	-31.57
309.733	46.25
309.947	-13.14
310.161	64.68
310.374	52.39
310.588	-29.52
310.802	-25.43
311.016	68.78
311.23	-0.85
311.444	-23.38
311.658	54.44
311.872	48.3
312.085	1.19
312.299	113.83
312.513	54.44
312.727	23.72
312.941	31.91
313.154	-52.05
313.368	74.92
313.582	21.67
313.796	103.59
314.009	9.39
314.223	58.54
314.437	52.39
314.651	56.49
314.864	-93.01
315.078	21.67
315.292	11.43
315.505	17.58
315.719	25.77
315.933	3.24
316.146	11.43
316.36	-54.1
316.573	-13.14
316.787	89.26
317.001	83.11
317.214	-15.19
317.428	7.34
317.641	11.43
317.855	9.39
318.068	58.54
318.282	19.63
318.495	74.92
318.709	64.68
318.922	-13.14
319.136	109.74
319.349	1.19
319.563	89.26
319.776	17.58
319.99	13.48
320.203	-17.24
320.417	-0.85
320.63	25.77
320.843	70.83
321.057	52.39
321.27	3.24
321.483	64.68
321.697	15.53
321.91	66.73
322.124	56.49
322.337	83.11
322.55	29.87
322.763	21.67
322.977	62.63
323.19	-9.05
323.403	21.67
323.617	-23.38
323.83	36.01
324.043	9.39
324.256	62.63
324.469	-101.2
324.683	17.58
324.896	-70.48
325.109	21.67
325.322	-11.09
325.535	60.59
325.748	50.35
325.962	56.49
326.175	52.39
326.388	70.83
326.601	62.63
326.814	-17.24
327.027	107.69
327.24	40.11
327.453	-39.76
327.666	42.15
327.879	54.44
328.092	27.82
328.305	9.39
328.518	44.2
328.731	-2.9
328.944	40.11
329.157	7.34
329.37	7.34
329.583	9.39
329.796	160.94
330.009	-7
330.222	62.63
330.435	25.77
330.648	9.39
330.861	-25.43
331.073	83.11
331.286	25.77
331.499	70.83
331.712	-17.24
331.925	81.07
332.138	-9.05
332.35	-35.67
332.563	-33.62
332.776	52.39
332.989	17.58
333.202	62.63
333.414	31.91
333.627	11.43
333.84	-15.19
334.053	62.63
334.265	15.53
334.478	68.78
334.691	-7
334.903	60.59
335.116	-25.43
335.329	44.2
335.541	27.82
335.754	56.49
335.966	3.24
336.179	9.39
336.392	-11.09
336.604	50.35
336.817	48.3
337.029	70.83
337.242	31.91
337.454	29.87
337.667	70.83
337.88	25.77
338.092	-29.52
338.305	-50
338.517	40.11
338.729	40.11
338.942	99.5
339.154	-2.9
339.367	38.06
339.579	29.87
339.792	48.3
340.004	23.72
340.217	-17.24
340.429	7.34
340.641	3.24
340.854	54.44
341.066	42.15
341.278	74.92
341.491	60.59
341.703	33.96
341.915	21.67
342.128	-50
342.34	54.44
342.552	-27.48
342.764	66.73
342.977	-56.15
343.189	7.34
343.401	-45.91
343.613	-4.95
343.826	72.87
344.038	-41.81
344.25	-29.52
344.462	25.77
344.674	19.63
344.886	-29.52
345.099	1.19
345.311	9.39
345.523	3.24
345.735	-23.38
345.947	85.16
346.159	11.43
346.371	-39.76
346.583	44.2
346.795	62.63
347.007	1.19
347.219	60.59
347.431	33.96
347.643	54.44
347.855	17.58
348.067	15.53
348.279	21.67
348.491	40.11
348.703	134.31
348.915	50.35
349.127	72.87
349.339	29.87
349.551	31.91
349.763	46.25
349.975	76.97
350.187	17.58
350.399	7.34
350.61	-7
350.822	-11.09
351.034	9.39
351.246	15.53
351.458	76.97
351.669	13.48
351.881	36.01
352.093	42.15
352.305	42.15
352.517	19.63
352.728	105.64
352.94	27.82
353.152	7.34
353.363	-17.24
353.575	13.48
353.787	46.25
353.999	38.06
354.21	44.2
354.422	31.91
354.633	17.58
354.845	50.35
355.057	-15.19
355.268	1.19
355.48	21.67
355.692	7.34
355.903	68.78
356.115	23.72
356.326	-27.48
356.538	107.69
356.749	27.82
356.961	97.45
357.172	79.02
357.384	62.63
357.595	173.22
357.807	-4.95
358.018	36.01
358.23	38.06
358.441	83.11
358.653	81.07
358.864	27.82
359.075	54.44
359.287	1.19
359.498	15.53
359.709	29.87
359.921	7.34
360.132	19.63
360.344	19.63
360.555	25.77
360.766	-0.85
360.977	1.19
361.189	5.29
361.4	-25.43
361.611	83.11
361.823	44.2
362.034	-58.2
362.245	-7
362.456	11.43
362.667	1.19
362.879	29.87
363.09	99.5
363.301	54.44
363.512	40.11
363.723	-11.09
363.935	95.4
364.146	17.58
364.357	48.3
364.568	66.73
364.779	15.53
364.99	81.07
365.201	-43.86
365.412	1.19
365.623	-37.72
365.834	42.15
366.045	-31.57
366.256	109.74
366.467	11.43
366.678	-21.33
366.889	29.87
367.1	83.11
367.311	70.83
367.522	44.2
367.733	105.64
367.944	50.35
368.155	15.53
368.366	33.96
368.577	48.3
368.788	119.98
368.999	-56.15
369.209	89.26
369.42	76.97
369.631	91.31
369.842	81.07
370.053	7.34
370.264	5.29
370.474	-9.05
370.685	-7
370.896	132.26
371.107	85.16
371.317	93.35
371.528	23.72
371.739	13.48
371.95	132.26
372.16	68.78
372.371	33.96
372.582	60.59
372.792	46.25
373.003	81.07
373.214	44.2
373.424	101.55
373.635	27.82
373.846	81.07
374.056	38.06
374.267	7.34
374.477	48.3
374.688	72.87
374.898	29.87
375.109	101.55
375.319	7.34
375.53	97.45
375.74	66.73
375.951	64.68
376.161	38.06
376.372	40.11
376.582	52.39
376.793	107.69
377.003	13.48
377.214	-9.05
377.424	-19.29
377.635	29.87
377.845	52.39
378.055	72.87
378.266	11.43
378.476	21.67
378.686	1.19
378.897	29.87
379.107	-19.29
379.317	-15.19
379.528	33.96
379.738	76.97
379.948	23.72
380.158	74.92
380.369	87.21
380.579	29.87
380.789	9.39
380.999	-50
381.21	-76.63
381.42	103.59
381.63	23.72
381.84	-4.95
382.05	66.73
382.261	99.5
382.471	7.34
382.681	17.58
382.891	101.55
383.101	44.2
383.311	-37.72
383.521	23.72
383.731	72.87
383.941	46.25
384.151	23.72
384.361	-13.14
384.571	79.02
384.781	50.35
384.991	122.02
385.201	60.59
385.411	-13.14
385.621	33.96
385.831	31.91
386.041	-4.95
386.251	130.22
386.461	93.35
386.671	46.25
386.881	-23.38
387.091	93.35
387.301	93.35
387.511	66.73
387.72	46.25
387.93	42.15
388.14	56.49
388.35	52.39
388.56	76.97
388.769	48.3
388.979	48.3
389.189	7.34
389.399	21.67
389.609	46.25
389.818	101.55
390.028	52.39
390.238	58.54
390.447	13.48
390.657	87.21
390.867	17.58
391.076	89.26
391.286	36.01
391.496	19.63
391.705	56.49
391.915	64.68
392.125	89.26
392.334	31.91
392.544	76.97
392.753	85.16
392.963	33.96
393.172	-13.14
393.382	-27.48
393.591	44.2
393.801	64.68
394.01	140.46
394.22	128.17
394.429	25.77
394.639	15.53
394.848	81.07
395.058	48.3
395.267	66.73
395.477	103.59
395.686	72.87
395.895	158.89
396.105	97.45
396.314	81.07
396.524	46.25
396.733	9.39
396.942	76.97
397.152	62.63
397.361	171.18
397.57	70.83
397.78	113.83
397.989	44.2
398.198	109.74
398.407	7.34
398.617	68.78
398.826	70.83
399.035	40.11
399.244	103.59
399.453	146.6
399.663	99.5
399.872	81.07
400.081	81.07
400.29	83.11
400.499	111.78
400.708	173.22
400.917	124.07
401.127	111.78
401.336	9.39
401.545	236.71
401.754	117.93
401.963	142.5
402.172	79.02
402.381	44.2
402.59	5.29
402.799	52.39
403.008	101.55
403.217	60.59
403.426	76.97
403.635	72.87
403.844	132.26
404.053	169.13
404.262	87.21
404.471	138.41
404.68	148.65
404.888	122.02
405.097	111.78
405.306	144.55
405.515	113.83
405.724	162.98
405.933	107.69
406.142	64.68
406.35	148.65
406.559	130.22
406.768	165.03
406.977	210.09
407.185	132.26
407.394	185.51
407.603	119.98
407.812	169.13
408.02	183.46
408.229	205.99
408.438	150.7
408.646	197.8
408.855	242.85
409.064	199.85
409.272	205.99
409.481	267.43
409.69	199.85
409.898	185.51
410.107	263.33
410.315	347.3
410.524	285.86
410.733	271.53
410.941	236.71
411.15	324.77
411.358	304.29
411.567	445.6
411.775	408.74
411.984	355.49
412.192	429.22
412.401	375.97
412.609	429.22
412.818	494.76
413.026	435.36
413.234	445.6
413.443	392.36
413.651	476.32
413.86	472.23
414.068	584.87
414.276	548
414.485	492.71
414.693	527.52
414.901	679.07
415.11	556.19
415.318	693.41
415.526	666.78
415.734	703.65
415.943	717.98
416.151	740.51
416.359	656.54
416.567	769.18
416.776	797.85
416.984	777.37
417.192	955.55
417.4	816.29
417.608	826.53
417.817	924.83
418.025	1031.32
418.233	1055.9
418.441	1053.85
418.649	1121.43
418.857	1125.53
419.065	1227.93
419.273	1168.54
419.481	1266.84
419.689	1223.83
419.897	1334.42
420.105	1369.24
420.313	1428.63
420.521	1471.64
420.729	1533.08
420.937	1490.07
421.145	1639.57
421.353	1680.53
421.561	1815.69
421.769	1754.26
421.977	1946.76
422.185	1905.81
422.393	1922.19
422.601	2053.26
422.809	2038.92
423.017	2114.7
423.224	2241.67
423.432	2266.25
423.64	2299.02
423.848	2462.85
424.056	2333.83
424.263	2530.44
424.471	2630.79
424.679	2587.78
424.887	2745.47
425.094	2911.36
425.302	2862.21
425.51	2972.8
425.718	2980.99
425.925	3081.34
426.133	3206.27
426.341	3472.5
426.548	3515.51
426.756	3540.08
426.964	3595.38
427.171	3742.83
427.379	3894.38
427.586	4029.55
427.794	4107.37
428.001	4273.26
428.209	4592.74
428.417	4297.83
428.624	4830.3
428.832	4795.49
429.039	4805.73
429.247	4617.32
429.454	5149.79
429.662	5512.28
429.869	5282.91
430.076	5471.32
430.284	5377.11
430.491	5643.35
430.699	5940.3
430.906	6018.13
431.114	6167.63
431.321	6151.24
431.528	6333.51
431.736	6575.17
431.943	7078.97
432.15	6751.3
432.358	6947.9
432.565	7441.47
432.772	7351.35
432.979	7832.63
433.187	7808.05
433.394	7695.41
433.601	8432.68
433.808	8512.55
434.016	8416.3
434.223	8752.17
434.43	9155.61
434.637	9049.12
434.844	9643.03
435.052	9784.34
435.259	9751.57
435.466	9819.16
435.673	9772.05
435.88	10382.35
436.087	10857.48
436.294	11144.19
436.501	10849.29
436.708	10910.72
436.915	11205.63
437.122	11932.66
437.329	11639.8
437.537	12123.12
437.743	12172.27
437.95	12202.99
438.157	12991.46
438.364	13272.03
438.571	13208.55
438.778	13503.45
438.985	14474.19
439.192	13943.77
439.399	14402.51
439.606	14062.55
439.813	14898.12
440.02	15791.03
440.227	15367.1
440.433	15567.81
440.64	15836.09
440.847	15756.22
441.054	16018.36
441.261	17093.54
441.467	16931.75
441.674	17353.63
441.881	17765.28
442.088	18000.79
442.294	17873.82
442.501	18527.12
442.708	18785.16
442.914	19350.4
443.121	20292.47
443.328	19700.61
443.534	21134.18
443.741	20419.44
443.948	20235.13
444.154	21554.02
444.361	22016.86
444.568	22031.19
444.774	21674.85
444.981	21977.95
445.187	22899.53
445.394	23704.38
445.6	23333.7
445.807	25649.96
446.013	24353.59
446.22	24929.07
446.426	25547.56
446.633	25670.43
446.839	26878.74
447.046	25926.43
447.252	27214.6
447.459	27413.26
447.665	27028.24
447.871	28369.66
448.078	29647.59
448.284	27978.5
448.491	29203.18
448.697	30327.52
448.903	30442.2
449.11	30868.18
449.316	30145.25
449.522	31040.21
449.728	31734.47
449.935	31789.77
450.141	31609.54
450.347	32590.52
450.553	31722.18
450.76	32420.54
450.966	32993.97
451.172	32750.26
451.378	33839.78
451.584	32791.22
451.791	33546.92
451.997	33381.04
452.203	34110.11
452.409	34343.58
452.615	34189.98
452.821	32740.02
453.027	32174.78
453.233	34206.37
453.44	32649.91
453.646	33237.68
453.852	33303.21
454.058	34028.2
454.264	32404.16
454.47	33462.96
454.676	32600.76
454.882	33704.62
455.088	30554.84
455.294	31457.99
455.5	31718.09
455.705	32260.8
455.911	30687.96
456.117	30345.95
456.323	29885.15
456.529	27992.83
456.735	29405.93
456.941	28498.68
457.147	27904.77
457.352	27208.46
457.558	26729.23
457.764	27407.11
457.97	26546.97
458.176	25926.43
458.381	26049.31
458.587	25064.24
458.793	24922.93
458.999	23350.09
459.204	25045.8
459.41	24535.86
459.616	23057.23
459.821	23126.86
460.027	22704.98
460.233	22582.1
460.438	21203.82
460.644	21369.7
460.85	20120.44
461.055	20036.47
461.261	20253.56
461.466	18652.05
461.672	17941.4
461.878	19217.29
462.083	18035.61
462.289	17603.49
462.494	17492.9
462.7	16710.57
462.905	16524.21
463.111	16745.39
463.316	16882.6
463.522	16612.27
463.727	16659.37
463.932	16642.99
464.138	16530.35
464.343	16597.93
464.549	16135.09
464.754	16458.67
464.959	16475.06
465.165	16126.9
465.37	15320
465.575	14975.94
465.781	15733.69
465.986	15729.59
466.191	15266.75
466.397	14887.88
466.602	14414.8
466.807	14762.95
467.012	14709.71
467.218	14607.31
467.423	14613.45
467.628	14621.64
467.833	15150.02
