Data from USB4F104151__100__12-43-04-092.txt Node

Date: Fri Mar 14 12:43:04 EDT 2025
User: louis
Spectrometer: USB4F10415
Trigger mode: 4
Integration Time (sec): 3.000000E-2
Scans to average: 1
Electric dark correction enabled: true
Nonlinearity correction enabled: false
Boxcar width: 0
XAxis mode: Wavelengths
Number of Pixels in Spectrum: 3648
>>>>>Begin Spectral Data<<<<<
178.204	-136.53
178.424	-136.53
178.644	-136.53
178.864	-134.48
179.084	-91.48
179.304	-3.41
179.524	-15.7
179.744	2.73
179.964	74.41
180.184	31.4
180.404	-3.41
180.624	39.59
180.844	53.93
181.064	-58.71
181.283	-30.04
181.503	-30.04
181.723	-60.76
181.943	31.4
182.163	23.21
182.383	-11.61
182.602	123.56
182.822	115.37
183.042	-27.99
183.262	4.78
183.482	6.83
183.701	-5.46
183.921	0.68
184.141	-9.56
184.361	2.73
184.58	43.69
184.8	-9.56
185.02	60.07
185.239	-25.94
185.459	-5.46
185.679	47.79
185.898	94.89
186.118	27.31
186.338	12.97
186.557	-9.56
186.777	-52.56
186.997	15.02
187.216	92.84
187.436	-3.41
187.655	55.98
187.875	8.87
188.095	4.78
188.314	68.27
188.534	25.26
188.753	-42.32
188.973	23.21
189.192	12.97
189.412	0.68
189.631	37.55
189.851	-23.89
190.07	45.74
190.29	29.35
190.509	-36.18
190.729	8.87
190.948	51.88
191.168	88.75
191.387	82.6
191.607	0.68
191.826	-40.28
192.045	78.51
192.265	15.02
192.484	74.41
192.704	-27.99
192.923	27.31
193.142	119.46
193.362	-30.04
193.581	72.36
193.8	31.4
194.02	109.22
194.239	33.45
194.458	76.46
194.678	66.22
194.897	37.55
195.116	8.87
195.335	29.35
195.555	8.87
195.774	60.07
195.993	-3.41
196.212	23.21
196.432	6.83
196.651	0.68
196.87	-66.9
197.089	60.07
197.308	115.37
197.528	39.59
197.747	10.92
197.966	78.51
198.185	55.98
198.404	41.64
198.623	-9.56
198.842	0.68
199.062	80.55
199.281	29.35
199.5	12.97
199.719	19.11
199.938	49.83
200.157	55.98
200.376	-7.51
200.595	37.55
200.814	41.64
201.033	94.89
201.252	21.16
201.471	6.83
201.69	39.59
201.909	41.64
202.128	0.68
202.347	39.59
202.566	43.69
202.785	-44.37
203.004	27.31
203.223	-3.41
203.442	10.92
203.661	-48.47
203.879	47.79
204.098	62.12
204.317	-64.85
204.536	-3.41
204.755	6.83
204.974	101.03
205.193	-36.18
205.411	-13.65
205.63	-1.37
205.849	19.11
206.068	8.87
206.287	2.73
206.505	10.92
206.724	47.79
206.943	-19.8
207.162	-56.66
207.381	33.45
207.599	21.16
207.818	92.84
208.037	35.5
208.255	33.45
208.474	-34.13
208.693	74.41
208.911	12.97
209.13	-1.37
209.349	55.98
209.567	39.59
209.786	37.55
210.005	2.73
210.223	-13.65
210.442	19.11
210.661	72.36
210.879	41.64
211.098	41.64
211.316	-27.99
211.535	80.55
211.753	21.16
211.972	47.79
212.191	15.02
212.409	84.65
212.628	4.78
212.846	-85.33
213.065	23.21
213.283	76.46
213.502	-19.8
213.72	35.5
213.938	-87.38
214.157	117.42
214.375	-3.41
214.594	43.69
214.812	37.55
215.031	74.41
215.249	37.55
215.467	45.74
215.686	49.83
215.904	21.16
216.122	53.93
216.341	47.79
216.559	-23.89
216.778	68.27
216.996	-11.61
217.214	51.88
217.432	66.22
217.651	47.79
217.869	27.31
218.087	-7.51
218.306	53.93
218.524	4.78
218.742	23.21
218.96	60.07
219.179	49.83
219.397	45.74
219.615	29.35
219.833	43.69
220.051	-7.51
220.27	78.51
220.488	76.46
220.706	37.55
220.924	-46.42
221.142	29.35
221.36	66.22
221.578	105.13
221.796	8.87
222.015	-9.56
222.233	-50.52
222.451	101.03
222.669	27.31
222.887	-11.61
223.105	-56.66
223.323	-9.56
223.541	-23.89
223.759	72.36
223.977	17.07
224.195	-9.56
224.413	41.64
224.631	29.35
224.849	8.87
225.067	39.59
225.285	2.73
225.503	45.74
225.721	-9.56
225.939	-17.75
226.157	88.75
226.375	76.46
226.592	10.92
226.81	0.68
227.028	70.31
227.246	135.85
227.464	35.5
227.682	62.12
227.9	49.83
228.117	-1.37
228.335	-17.75
228.553	70.31
228.771	55.98
228.989	-19.8
229.206	-32.08
229.424	-7.51
229.642	-13.65
229.86	-44.37
230.077	39.59
230.295	23.21
230.513	76.46
230.731	78.51
230.948	35.5
231.166	68.27
231.384	29.35
231.601	-19.8
231.819	72.36
232.037	15.02
232.254	-85.33
232.472	131.75
232.689	-19.8
232.907	19.11
233.125	-19.8
233.342	8.87
233.56	53.93
233.777	43.69
233.995	-3.41
234.213	137.9
234.43	64.17
234.648	-17.75
234.865	25.26
235.083	21.16
235.3	-13.65
235.518	-15.7
235.735	125.61
235.953	43.69
236.17	31.4
236.388	-13.65
236.605	23.21
236.822	47.79
237.04	19.11
237.257	39.59
237.475	29.35
237.692	-15.7
237.909	15.02
238.127	-36.18
238.344	4.78
238.562	19.11
238.779	-36.18
238.996	-42.32
239.214	-3.41
239.431	33.45
239.648	8.87
239.865	29.35
240.083	31.4
240.3	-11.61
240.517	33.45
240.735	84.65
240.952	74.41
241.169	35.5
241.386	12.97
241.603	49.83
241.821	70.31
242.038	70.31
242.255	47.79
242.472	-36.18
242.689	96.94
242.907	-23.89
243.124	-1.37
243.341	47.79
243.558	12.97
243.775	-30.04
243.992	-48.47
244.209	4.78
244.426	62.12
244.643	6.83
244.86	37.55
245.078	64.17
245.295	-46.42
245.512	68.27
245.729	-25.94
245.946	4.78
246.163	58.03
246.38	25.26
246.597	6.83
246.814	45.74
247.031	37.55
247.248	62.12
247.464	19.11
247.681	-19.8
247.898	66.22
248.115	58.03
248.332	21.16
248.549	131.75
248.766	107.18
248.983	76.46
249.2	62.12
249.417	62.12
249.633	98.99
249.85	19.11
250.067	8.87
250.284	58.03
250.501	-11.61
250.717	51.88
250.934	41.64
251.151	0.68
251.368	37.55
251.585	68.27
251.801	-17.75
252.018	6.83
252.235	35.5
252.451	-1.37
252.668	17.07
252.885	15.02
253.102	49.83
253.318	-15.7
253.535	6.83
253.752	-23.89
253.968	6.83
254.185	49.83
254.401	41.64
254.618	-11.61
254.835	33.45
255.051	107.18
255.268	35.5
255.484	45.74
255.701	10.92
255.917	-3.41
256.134	-13.65
256.351	35.5
256.567	-48.47
256.784	-42.32
257	-32.08
257.217	80.55
257.433	15.02
257.65	29.35
257.866	-15.7
258.082	4.78
258.299	-42.32
258.515	94.89
258.732	43.69
258.948	2.73
259.165	-38.23
259.381	-13.65
259.597	31.4
259.814	41.64
260.03	33.45
260.246	-9.56
260.463	68.27
260.679	29.35
260.895	0.68
261.112	25.26
261.328	6.83
261.544	12.97
261.761	62.12
261.977	92.84
262.193	62.12
262.409	-15.7
262.626	39.59
262.842	43.69
263.058	-97.62
263.274	37.55
263.49	72.36
263.707	-15.7
263.923	-5.46
264.139	-7.51
264.355	51.88
264.571	107.18
264.787	15.02
265.004	51.88
265.22	111.27
265.436	-42.32
265.652	45.74
265.868	-9.56
266.084	-19.8
266.3	-17.75
266.516	-32.08
266.732	27.31
266.948	8.87
267.164	-38.23
267.38	37.55
267.596	49.83
267.812	51.88
268.028	58.03
268.244	62.12
268.46	96.94
268.676	70.31
268.892	-13.65
269.108	-17.75
269.324	10.92
269.54	-13.65
269.756	86.7
269.972	45.74
270.188	17.07
270.403	41.64
270.619	68.27
270.835	27.31
271.051	47.79
271.267	-27.99
271.483	-32.08
271.698	58.03
271.914	45.74
272.13	45.74
272.346	35.5
272.562	-5.46
272.777	78.51
272.993	6.83
273.209	66.22
273.425	31.4
273.64	-13.65
273.856	2.73
274.072	-30.04
274.287	6.83
274.503	-7.51
274.719	-54.61
274.934	47.79
275.15	-3.41
275.366	53.93
275.581	-17.75
275.797	72.36
276.012	29.35
276.228	35.5
276.444	39.59
276.659	45.74
276.875	58.03
277.09	29.35
277.306	31.4
277.521	62.12
277.737	41.64
277.952	-25.94
278.168	-3.41
278.383	92.84
278.599	105.13
278.814	27.31
279.03	12.97
279.245	82.6
279.461	-27.99
279.676	127.66
279.892	62.12
280.107	6.83
280.322	-3.41
280.538	4.78
280.753	-21.85
280.969	41.64
281.184	29.35
281.399	68.27
281.615	101.03
281.83	-3.41
282.045	29.35
282.26	-15.7
282.476	-9.56
282.691	70.31
282.906	-60.76
283.122	45.74
283.337	10.92
283.552	84.65
283.767	72.36
283.983	64.17
284.198	94.89
284.413	35.5
284.628	25.26
284.843	47.79
285.058	25.26
285.274	-52.56
285.489	-73.04
285.704	70.31
285.919	84.65
286.134	68.27
286.349	-21.85
286.564	45.74
286.779	68.27
286.995	19.11
287.21	-27.99
287.425	55.98
287.64	62.12
287.855	12.97
288.07	49.83
288.285	92.84
288.5	21.16
288.715	72.36
288.93	43.69
289.145	-21.85
289.36	-13.65
289.575	60.07
289.79	70.31
290.004	-25.94
290.219	53.93
290.434	-36.18
290.649	47.79
290.864	-3.41
291.079	66.22
291.294	76.46
291.509	60.07
291.724	29.35
291.938	37.55
292.153	6.83
292.368	-19.8
292.583	70.31
292.798	37.55
293.012	27.31
293.227	-13.65
293.442	-42.32
293.657	98.99
293.871	90.79
294.086	35.5
294.301	96.94
294.516	23.21
294.73	27.31
294.945	-17.75
295.16	68.27
295.374	51.88
295.589	60.07
295.804	12.97
296.018	74.41
296.233	78.51
296.447	15.02
296.662	-9.56
296.877	-5.46
297.091	23.21
297.306	27.31
297.52	47.79
297.735	60.07
297.949	66.22
298.164	23.21
298.378	55.98
298.593	23.21
298.807	45.74
299.022	-58.71
299.236	53.93
299.451	25.26
299.665	29.35
299.88	-13.65
300.094	62.12
300.309	60.07
300.523	33.45
300.737	76.46
300.952	8.87
301.166	23.21
301.381	-32.08
301.595	2.73
301.809	58.03
302.024	-48.47
302.238	49.83
302.452	12.97
302.667	39.59
302.881	47.79
303.095	51.88
303.309	37.55
303.524	25.26
303.738	-36.18
303.952	92.84
304.166	37.55
304.381	68.27
304.595	37.55
304.809	-3.41
305.023	17.07
305.237	-11.61
305.452	27.31
305.666	109.22
305.88	92.84
306.094	64.17
306.308	37.55
306.522	88.75
306.736	68.27
306.95	58.03
307.164	-3.41
307.379	37.55
307.593	94.89
307.807	62.12
308.021	47.79
308.235	88.75
308.449	25.26
308.663	19.11
308.877	68.27
309.091	43.69
309.305	64.17
309.519	-23.89
309.733	10.92
309.947	-21.85
310.161	4.78
310.374	25.26
310.588	125.61
310.802	43.69
311.016	-58.71
311.23	131.75
311.444	-48.47
311.658	80.55
311.872	25.26
312.085	35.5
312.299	37.55
312.513	-1.37
312.727	51.88
312.941	-9.56
313.154	49.83
313.368	76.46
313.582	27.31
313.796	51.88
314.009	35.5
314.223	29.35
314.437	-7.51
314.651	-1.37
314.864	0.68
315.078	66.22
315.292	8.87
315.505	2.73
315.719	135.85
315.933	64.17
316.146	10.92
316.36	-25.94
316.573	19.11
316.787	10.92
317.001	31.4
317.214	-17.75
317.428	37.55
317.641	15.02
317.855	41.64
318.068	-17.75
318.282	62.12
318.495	19.11
318.709	109.22
318.922	51.88
319.136	29.35
319.349	53.93
319.563	47.79
319.776	84.65
319.99	-44.37
320.203	62.12
320.417	-36.18
320.63	39.59
320.843	82.6
321.057	66.22
321.27	2.73
321.483	49.83
321.697	129.7
321.91	37.55
322.124	62.12
322.337	82.6
322.55	10.92
322.763	4.78
322.977	66.22
323.19	-1.37
323.403	-3.41
323.617	62.12
323.83	119.46
324.043	4.78
324.256	53.93
324.469	-19.8
324.683	103.08
324.896	68.27
325.109	131.75
325.322	-60.76
325.535	12.97
325.748	-27.99
325.962	37.55
326.175	58.03
326.388	43.69
326.601	33.45
326.814	-3.41
327.027	-36.18
327.24	35.5
327.453	29.35
327.666	55.98
327.879	70.31
328.092	-15.7
328.305	80.55
328.518	25.26
328.731	31.4
328.944	19.11
329.157	47.79
329.37	0.68
329.583	117.42
329.796	170.66
330.009	31.4
330.222	92.84
330.435	-48.47
330.648	-13.65
330.861	119.46
331.073	68.27
331.286	80.55
331.499	43.69
331.712	72.36
331.925	33.45
332.138	-17.75
332.35	82.6
332.563	29.35
332.776	84.65
332.989	-5.46
333.202	10.92
333.414	47.79
333.627	29.35
333.84	-13.65
334.053	39.59
334.265	-48.47
334.478	17.07
334.691	2.73
334.903	-38.23
335.116	10.92
335.329	78.51
335.541	76.46
335.754	33.45
335.966	-19.8
336.179	55.98
336.392	12.97
336.604	4.78
336.817	-44.37
337.029	133.8
337.242	86.7
337.454	80.55
337.667	19.11
337.88	15.02
338.092	76.46
338.305	49.83
338.517	49.83
338.729	47.79
338.942	12.97
339.154	4.78
339.367	-56.66
339.579	33.45
339.792	-9.56
340.004	31.4
340.217	23.21
340.429	41.64
340.641	92.84
340.854	-3.41
341.066	-34.13
341.278	191.14
341.491	146.09
341.703	103.08
341.915	35.5
342.128	45.74
342.34	-13.65
342.552	10.92
342.764	6.83
342.977	-3.41
343.189	-3.41
343.401	98.99
343.613	10.92
343.826	-21.85
344.038	-34.13
344.25	88.75
344.462	8.87
344.674	39.59
344.886	-19.8
345.099	43.69
345.311	111.27
345.523	105.13
345.735	-27.99
345.947	62.12
346.159	37.55
346.371	8.87
346.583	33.45
346.795	90.79
347.007	70.31
347.219	74.41
347.431	-1.37
347.643	23.21
347.855	-23.89
348.067	113.32
348.279	-60.76
348.491	49.83
348.703	58.03
348.915	6.83
349.127	10.92
349.339	68.27
349.551	70.31
349.763	49.83
349.975	10.92
350.187	96.94
350.399	29.35
350.61	58.03
350.822	-11.61
351.034	23.21
351.246	33.45
351.458	31.4
351.669	-15.7
351.881	86.7
352.093	80.55
352.305	10.92
352.517	39.59
352.728	15.02
352.94	72.36
353.152	29.35
353.363	51.88
353.575	37.55
353.787	64.17
353.999	21.16
354.21	37.55
354.422	47.79
354.633	-1.37
354.845	-3.41
355.057	43.69
355.268	-19.8
355.48	53.93
355.692	35.5
355.903	-27.99
356.115	35.5
356.326	12.97
356.538	72.36
356.749	55.98
356.961	123.56
357.172	15.02
357.384	51.88
357.595	58.03
357.807	19.11
358.018	45.74
358.23	51.88
358.441	103.08
358.653	51.88
358.864	-7.51
359.075	-3.41
359.287	12.97
359.498	96.94
359.709	25.26
359.921	90.79
360.132	84.65
360.344	33.45
360.555	82.6
360.766	35.5
360.977	43.69
361.189	2.73
361.4	-13.65
361.611	45.74
361.823	45.74
362.034	137.9
362.245	37.55
362.456	45.74
362.667	21.16
362.879	51.88
363.09	49.83
363.301	45.74
363.512	37.55
363.723	-15.7
363.935	27.31
364.146	109.22
364.357	45.74
364.568	55.98
364.779	29.35
364.99	80.55
365.201	41.64
365.412	45.74
365.623	29.35
365.834	94.89
366.045	90.79
366.256	70.31
366.467	39.59
366.678	43.69
366.889	-23.89
367.1	10.92
367.311	33.45
367.522	88.75
367.733	74.41
367.944	64.17
368.155	29.35
368.366	58.03
368.577	27.31
368.788	103.08
368.999	45.74
369.209	58.03
369.42	58.03
369.631	80.55
369.842	66.22
370.053	74.41
370.264	10.92
370.474	15.02
370.685	-73.04
370.896	90.79
371.107	37.55
371.317	37.55
371.528	41.64
371.739	49.83
371.95	33.45
372.16	111.27
372.371	-38.23
372.582	-15.7
372.792	62.12
373.003	-19.8
373.214	47.79
373.424	105.13
373.635	39.59
373.846	62.12
374.056	51.88
374.267	88.75
374.477	8.87
374.688	43.69
374.898	2.73
375.109	133.8
375.319	45.74
375.53	35.5
375.74	78.51
375.951	2.73
376.161	43.69
376.372	37.55
376.582	-3.41
376.793	-32.08
377.003	64.17
377.214	45.74
377.424	45.74
377.635	29.35
377.845	-11.61
378.055	37.55
378.266	94.89
378.476	82.6
378.686	23.21
378.897	0.68
379.107	94.89
379.317	15.02
379.528	15.02
379.738	129.7
379.948	39.59
380.158	80.55
380.369	35.5
380.579	47.79
380.789	21.16
380.999	-5.46
381.21	49.83
381.42	76.46
381.63	-77.14
381.84	68.27
382.05	66.22
382.261	62.12
382.471	37.55
382.681	27.31
382.891	86.7
383.101	-9.56
383.311	-21.85
383.521	47.79
383.731	148.14
383.941	74.41
384.151	39.59
384.361	31.4
384.571	62.12
384.781	29.35
384.991	88.75
385.201	168.62
385.411	74.41
385.621	62.12
385.831	35.5
386.041	35.5
386.251	74.41
386.461	12.97
386.671	62.12
386.881	72.36
387.091	45.74
387.301	84.65
387.511	-1.37
387.72	64.17
387.93	80.55
388.14	25.26
388.35	47.79
388.56	37.55
388.769	90.79
388.979	74.41
389.189	17.07
389.399	-9.56
389.609	58.03
389.818	62.12
390.028	78.51
390.238	72.36
390.447	74.41
390.657	45.74
390.867	-1.37
391.076	49.83
391.286	29.35
391.496	39.59
391.705	19.11
391.915	125.61
392.125	113.32
392.334	105.13
392.544	66.22
392.753	127.66
392.963	86.7
393.172	146.09
393.382	80.55
393.591	88.75
393.801	17.07
394.01	123.56
394.22	84.65
394.429	15.02
394.639	6.83
394.848	101.03
395.058	117.42
395.267	156.33
395.477	123.56
395.686	88.75
395.895	158.38
396.105	129.7
396.314	94.89
396.524	88.75
396.733	53.93
396.942	76.46
397.152	64.17
397.361	-5.46
397.57	84.65
397.78	35.5
397.989	76.46
398.198	141.99
398.407	164.52
398.617	43.69
398.826	88.75
399.035	49.83
399.244	115.37
399.453	160.42
399.663	47.79
399.872	121.51
400.081	15.02
400.29	123.56
400.499	90.79
400.708	107.18
400.917	105.13
401.127	105.13
401.336	60.07
401.545	92.84
401.754	205.48
401.963	144.04
402.172	47.79
402.381	109.22
402.59	127.66
402.799	150.18
403.008	139.94
403.217	144.04
403.426	156.33
403.635	82.6
403.844	191.14
404.053	148.14
404.262	156.33
404.471	230.06
404.68	150.18
404.888	123.56
405.097	111.27
405.306	137.9
405.515	133.8
405.724	111.27
405.933	178.86
406.142	168.62
406.35	228.01
406.559	217.77
406.768	121.51
406.977	205.48
407.185	236.2
407.394	176.81
407.603	141.99
407.812	193.19
408.02	244.39
408.229	240.29
408.438	199.34
408.646	199.34
408.855	211.62
409.064	252.58
409.272	279.21
409.481	252.58
409.69	295.59
409.898	250.53
410.107	275.11
410.315	291.49
410.524	289.45
410.733	379.56
410.941	324.26
411.15	334.5
411.358	391.84
411.567	404.13
411.775	443.04
411.984	477.86
412.192	404.13
412.401	416.42
412.609	453.28
412.818	608.93
413.026	541.35
413.234	524.96
413.443	463.52
413.651	477.86
413.86	545.44
414.068	639.65
414.276	580.26
414.485	576.16
414.693	639.65
414.901	680.61
415.11	670.37
415.318	660.13
415.526	703.14
415.734	725.66
415.943	735.9
416.151	780.96
416.359	758.43
416.567	879.26
416.776	864.93
416.984	952.99
417.192	899.74
417.4	989.85
417.608	918.17
417.817	1002.14
418.025	1067.67
418.233	1260.18
418.441	1051.29
418.649	1147.55
418.857	1163.93
419.065	1208.98
419.273	1133.21
419.481	1389.21
419.689	1338.01
419.897	1387.16
420.105	1413.78
420.313	1456.79
420.521	1643.15
420.729	1616.53
420.937	1684.11
421.145	1698.45
421.353	1782.42
421.561	1753.74
421.769	1895.05
421.977	2003.6
422.185	1972.88
422.393	2216.58
422.601	2228.87
422.809	2232.97
423.017	2241.16
423.224	2288.26
423.432	2507.4
423.64	2521.73
423.848	2724.48
424.056	2654.85
424.263	2845.31
424.471	2828.93
424.679	2749.06
424.887	3011.2
425.094	2968.19
425.302	3123.83
425.51	3156.6
425.718	3285.62
425.925	3392.12
426.133	3545.72
426.341	3768.95
426.548	3836.53
426.756	3861.1
426.964	3920.49
427.171	4162.16
427.379	4225.64
427.586	4303.46
427.794	4311.66
428.001	4674.15
428.209	4782.69
428.417	4766.31
428.624	5114.46
428.832	5149.28
429.039	4991.58
429.247	5110.36
429.454	5524.05
429.662	5806.67
429.869	5468.76
430.076	5972.56
430.284	5868.11
430.491	6107.73
430.699	6394.44
430.906	6287.95
431.114	6511.18
431.321	6896.19
431.528	6789.7
431.736	7342.65
431.943	7678.52
432.15	7238.2
432.358	7455.29
432.565	7973.42
432.772	7879.22
432.979	8333.87
433.187	8307.24
433.394	8442.41
433.601	8849.96
433.808	9069.09
434.016	8897.06
434.223	9349.66
434.43	9923.09
434.637	9679.38
434.844	10324.49
435.052	10404.36
435.259	10453.52
435.466	10660.36
435.673	10697.22
435.88	11330.05
436.087	11551.23
436.294	11876.85
436.501	11409.92
436.708	11692.54
436.915	12231.15
437.122	12751.34
437.329	12587.5
437.537	13079.01
437.743	13195.75
437.95	13091.3
438.157	13679.07
438.364	14219.73
438.571	14268.88
438.778	14242.26
438.985	15665.6
439.192	15260.1
439.399	15524.29
439.606	15315.39
439.813	16198.07
440.02	17086.89
440.227	16753.07
440.433	16515.5
440.64	16927.14
440.847	17029.54
441.054	17564.06
441.261	18596.24
441.467	18416.02
441.674	18710.93
441.881	19575.17
442.088	19175.81
442.294	19153.29
442.501	19380.61
442.708	20042.1
442.914	21004.65
443.121	21361
443.328	21350.76
443.534	22694.22
443.741	21870.94
443.948	21662.05
444.154	23400.77
444.361	23251.27
444.568	23519.56
444.774	23136.59
444.981	23439.68
445.187	24047.93
445.394	25100.59
445.6	24953.13
445.807	27310.35
446.013	26157.34
446.22	26812.69
446.426	27943.17
446.633	28109.05
446.839	28492.02
447.046	27787.52
447.252	29184.24
447.459	29245.68
447.665	29194.48
447.871	30685.4
448.078	31774.92
448.284	30480.6
448.491	30816.47
448.697	32370.88
448.903	33061.04
449.11	32860.34
449.316	32393.4
449.522	32800.95
449.728	33906.85
449.935	34080.93
450.141	33960.1
450.347	35289.23
450.553	33331.37
450.76	34394.27
450.966	35401.87
451.172	34703.51
451.378	35774.6
451.584	35215.51
451.791	35979.4
451.997	35758.22
452.203	36421.76
452.409	36837.5
452.615	36657.28
452.821	35100.82
453.027	34508.96
453.233	36464.77
453.44	35190.93
453.646	35313.81
453.852	35645.58
454.058	36456.57
454.264	35100.82
454.47	35686.54
454.676	35025.04
454.882	36028.55
455.088	33116.34
455.294	33661.1
455.5	33976.48
455.705	34351.26
455.911	33388.72
456.117	32102.59
456.323	32434.36
456.529	30294.24
456.735	31873.22
456.941	30902.48
457.147	30265.56
457.352	29737.19
457.558	29239.53
457.764	29133.04
457.97	28250.36
458.176	28047.61
458.381	28002.56
458.587	26657.04
458.793	26421.53
458.999	25260.33
459.204	26761.49
459.41	26169.63
459.616	24527.16
459.821	24428.85
460.027	24383.8
460.233	23949.63
460.438	22737.23
460.644	22880.59
460.85	22059.35
461.055	21381.48
461.261	21649.76
461.466	20072.82
461.672	19292.55
461.878	21059.95
462.083	19149.19
462.289	18923.91
462.494	18680.21
462.7	18207.12
462.905	17762.72
463.111	18055.58
463.316	18160.02
463.522	17736.09
463.727	17897.88
463.932	17623.45
464.138	17572.25
464.343	17598.88
464.549	17359.27
464.754	17596.83
464.959	17469.86
465.165	17420.7
465.37	16609.71
465.575	16275.89
465.781	16843.18
465.986	17226.15
466.191	16388.53
466.397	15925.69
466.602	15323.58
466.807	16056.76
467.012	16142.77
