Data from USB4F104151__32__12-41-18-024.txt Node

Date: Fri Mar 14 12:41:18 EDT 2025
User: louis
Spectrometer: USB4F10415
Trigger mode: 4
Integration Time (sec): 3.000000E-2
Scans to average: 1
Electric dark correction enabled: true
Nonlinearity correction enabled: false
Boxcar width: 0
XAxis mode: Wavelengths
Number of Pixels in Spectrum: 3648
>>>>>Begin Spectral Data<<<<<
178.204	-87.89
178.424	-87.89
178.644	-87.89
178.864	-159.57
179.084	-73.56
179.304	10.41
179.524	18.6
179.744	-61.27
179.964	37.03
180.184	18.6
180.404	20.65
180.624	14.51
180.844	-44.88
181.064	-69.46
181.283	45.23
181.503	-48.98
181.723	59.56
181.943	-46.93
182.163	104.62
182.383	24.75
182.602	-5.97
182.822	34.99
183.042	-24.4
183.262	-5.97
183.482	-36.69
183.701	73.9
183.921	-14.17
184.141	-46.93
184.361	-5.97
184.58	-3.93
184.8	65.71
185.02	-36.69
185.239	14.51
185.459	-34.64
185.679	4.27
185.898	14.51
186.118	37.03
186.338	51.37
186.557	123.05
186.777	-22.36
186.997	30.89
187.216	8.36
187.436	34.99
187.655	12.46
187.875	69.8
188.095	-18.26
188.314	-34.64
188.534	4.27
188.753	-22.36
188.973	4.27
189.192	112.81
189.412	49.32
189.631	100.52
189.851	22.7
190.07	-3.93
190.29	4.27
190.509	-28.5
190.729	26.79
190.948	20.65
191.168	82.09
191.387	39.08
191.607	45.23
191.826	0.17
192.045	24.75
192.265	12.46
192.484	51.37
192.704	57.51
192.923	30.89
193.142	34.99
193.362	28.84
193.581	123.05
193.8	0.17
194.02	55.47
194.239	-12.12
194.458	-26.45
194.678	61.61
194.897	73.9
195.116	61.61
195.335	82.09
195.555	92.33
195.774	82.09
195.993	110.76
196.212	41.13
196.432	-42.84
196.651	47.27
196.87	-1.88
197.089	24.75
197.308	32.94
197.528	-30.55
197.747	-75.6
197.966	-85.84
198.185	77.99
198.404	73.9
198.623	16.55
198.842	22.7
199.062	26.79
199.281	45.23
199.5	10.41
199.719	98.47
199.938	16.55
200.157	0.17
200.376	51.37
200.595	90.28
200.814	63.66
201.033	-26.45
201.252	30.89
201.471	4.27
201.69	77.99
201.909	88.23
202.128	39.08
202.347	-14.17
202.566	-10.07
202.785	-46.93
203.004	-5.97
203.223	82.09
203.442	8.36
203.661	92.33
203.879	-14.17
204.098	73.9
204.317	-42.84
204.536	63.66
204.755	-24.4
204.974	22.7
205.193	30.89
205.411	116.9
205.63	-24.4
205.849	28.84
206.068	-61.27
206.287	63.66
206.505	69.8
206.724	-12.12
206.943	20.65
207.162	14.51
207.381	47.27
207.599	20.65
207.818	32.94
208.037	-55.12
208.255	47.27
208.474	75.95
208.693	14.51
208.911	43.18
209.13	75.95
209.349	20.65
209.567	32.94
209.786	59.56
210.005	6.31
210.223	37.03
210.442	-1.88
210.661	4.27
210.879	43.18
211.098	2.22
211.316	-8.02
211.535	-24.4
211.753	20.65
211.972	59.56
212.191	12.46
212.409	-16.21
212.628	8.36
212.846	18.6
213.065	55.47
213.283	57.51
213.502	61.61
213.72	-5.97
213.938	43.18
214.157	-44.88
214.375	71.85
214.594	-8.02
214.812	30.89
215.031	45.23
215.249	-85.84
215.467	51.37
215.686	-14.17
215.904	59.56
216.122	-14.17
216.341	86.19
216.559	-26.45
216.778	34.99
216.996	-5.97
217.214	41.13
217.432	41.13
217.651	8.36
217.869	106.67
218.087	53.42
218.306	-1.88
218.524	73.9
218.742	65.71
218.96	80.04
219.179	2.22
219.397	34.99
219.615	75.95
219.833	59.56
220.051	30.89
220.27	41.13
220.488	69.8
220.706	32.94
220.924	47.27
221.142	-18.26
221.36	82.09
221.578	-5.97
221.796	16.55
222.015	61.61
222.233	14.51
222.451	53.42
222.669	73.9
222.887	32.94
223.105	37.03
223.323	71.85
223.541	-51.03
223.759	43.18
223.977	-3.93
224.195	90.28
224.413	69.8
224.631	28.84
224.849	-12.12
225.067	84.14
225.285	-3.93
225.503	-26.45
225.721	-22.36
225.939	12.46
226.157	-12.12
226.375	90.28
226.592	10.41
226.81	32.94
227.028	4.27
227.246	86.19
227.464	45.23
227.682	8.36
227.9	14.51
228.117	34.99
228.335	-40.79
228.553	-1.88
228.771	10.41
228.989	28.84
229.206	16.55
229.424	67.75
229.642	43.18
229.86	-22.36
230.077	-5.97
230.295	-8.02
230.513	39.08
230.731	102.57
230.948	57.51
231.166	16.55
231.384	-34.64
231.601	37.03
231.819	-55.12
232.037	45.23
232.254	63.66
232.472	28.84
232.689	-36.69
232.907	102.57
233.125	10.41
233.342	8.36
233.56	-12.12
233.777	20.65
233.995	-73.56
234.213	16.55
234.43	-34.64
234.648	-5.97
234.865	108.71
235.083	43.18
235.3	16.55
235.518	61.61
235.735	57.51
235.953	51.37
236.17	-57.17
236.388	86.19
236.605	41.13
236.822	75.95
237.04	92.33
237.257	24.75
237.475	10.41
237.692	16.55
237.909	104.62
238.127	4.27
238.344	-12.12
238.562	49.32
238.779	-34.64
238.996	22.7
239.214	71.85
239.431	65.71
239.648	-22.36
239.865	-34.64
240.083	-22.36
240.3	67.75
240.517	0.17
240.735	41.13
240.952	73.9
241.169	75.95
241.386	43.18
241.603	-51.03
241.821	16.55
242.038	16.55
242.255	24.75
242.472	-44.88
242.689	30.89
242.907	67.75
243.124	37.03
243.341	-1.88
243.558	-16.21
243.775	-14.17
243.992	6.31
244.209	57.51
244.426	69.8
244.643	16.55
244.86	73.9
245.078	71.85
245.295	0.17
245.512	24.75
245.729	-32.6
245.946	94.38
246.163	8.36
246.38	2.22
246.597	-14.17
246.814	84.14
247.031	-32.6
247.248	-40.79
247.464	22.7
247.681	71.85
247.898	-8.02
248.115	8.36
248.332	-36.69
248.549	86.19
248.766	123.05
248.983	114.86
249.2	41.13
249.417	80.04
249.633	43.18
249.85	55.47
250.067	43.18
250.284	-14.17
250.501	20.65
250.717	59.56
250.934	26.79
251.151	82.09
251.368	-40.79
251.585	22.7
251.801	-32.6
252.018	8.36
252.235	20.65
252.451	16.55
252.668	-30.55
252.885	32.94
253.102	55.47
253.318	28.84
253.535	-30.55
253.752	37.03
253.968	41.13
254.185	16.55
254.401	14.51
254.618	14.51
254.835	-65.36
255.051	86.19
255.268	-3.93
255.484	59.56
255.701	24.75
255.917	69.8
256.134	37.03
256.351	0.17
256.567	-128.85
256.784	37.03
257	-5.97
257.217	47.27
257.433	59.56
257.65	51.37
257.866	45.23
258.082	-53.08
258.299	-14.17
258.515	71.85
258.732	-36.69
258.948	-10.07
259.165	73.9
259.381	34.99
259.597	8.36
259.814	43.18
260.03	-34.64
260.246	-22.36
260.463	39.08
260.679	94.38
260.895	-8.02
261.112	26.79
261.328	-8.02
261.544	14.51
261.761	41.13
261.977	82.09
262.193	-44.88
262.409	98.47
262.626	-14.17
262.842	55.47
263.058	-10.07
263.274	108.71
263.49	100.52
263.707	71.85
263.923	47.27
264.139	-34.64
264.355	-22.36
264.571	80.04
264.787	-26.45
265.004	61.61
265.22	75.95
265.436	-61.27
265.652	98.47
265.868	-22.36
266.084	4.27
266.3	61.61
266.516	-3.93
266.732	116.9
266.948	45.23
267.164	73.9
267.38	-3.93
267.596	22.7
267.812	28.84
268.028	45.23
268.244	-65.36
268.46	47.27
268.676	-18.26
268.892	75.95
269.108	22.7
269.324	-38.74
269.54	71.85
269.756	39.08
269.972	-8.02
270.188	-14.17
270.403	-22.36
270.619	34.99
270.835	55.47
271.051	-1.88
271.267	-67.41
271.483	26.79
271.698	53.42
271.914	59.56
272.13	49.32
272.346	-38.74
272.562	-22.36
272.777	69.8
272.993	37.03
273.209	90.28
273.425	-18.26
273.64	6.31
273.856	96.43
274.072	-30.55
274.287	14.51
274.503	20.65
274.719	80.04
274.934	-53.08
275.15	-28.5
275.366	8.36
275.581	-5.97
275.797	28.84
276.012	-18.26
276.228	26.79
276.444	22.7
276.659	8.36
276.875	22.7
277.09	-55.12
277.306	22.7
277.521	57.51
277.737	-22.36
277.952	77.99
278.168	47.27
278.383	77.99
278.599	37.03
278.814	47.27
279.03	-14.17
279.245	6.31
279.461	0.17
279.676	20.65
279.892	-51.03
280.107	28.84
280.322	0.17
280.538	6.31
280.753	16.55
280.969	49.32
281.184	-16.21
281.399	16.55
281.615	-40.79
281.83	-10.07
282.045	-26.45
282.26	-51.03
282.476	47.27
282.691	12.46
282.906	2.22
283.122	32.94
283.337	12.46
283.552	59.56
283.767	-26.45
283.983	-1.88
284.198	32.94
284.413	65.71
284.628	-34.64
284.843	37.03
285.058	69.8
285.274	-48.98
285.489	0.17
285.704	37.03
285.919	-14.17
286.134	24.75
286.349	-1.88
286.564	77.99
286.779	47.27
286.995	49.32
287.21	-108.37
287.425	57.51
287.64	24.75
287.855	18.6
288.07	-63.32
288.285	26.79
288.5	69.8
288.715	22.7
288.93	22.7
289.145	43.18
289.36	73.9
289.575	-30.55
289.79	43.18
290.004	47.27
290.219	43.18
290.434	-24.4
290.649	28.84
290.864	-16.21
291.079	94.38
291.294	2.22
291.509	-18.26
291.724	65.71
291.938	-5.97
292.153	49.32
292.368	45.23
292.583	118.95
292.798	39.08
293.012	75.95
293.227	20.65
293.442	94.38
293.657	123.05
293.871	84.14
294.086	20.65
294.301	65.71
294.516	96.43
294.73	43.18
294.945	-89.94
295.16	110.76
295.374	-24.4
295.589	-5.97
295.804	20.65
296.018	55.47
296.233	67.75
296.447	20.65
296.662	-48.98
296.877	84.14
297.091	20.65
297.306	90.28
297.52	-3.93
297.735	90.28
297.949	-8.02
298.164	30.89
298.378	-3.93
298.593	10.41
298.807	-40.79
299.022	28.84
299.236	34.99
299.451	0.17
299.665	37.03
299.88	47.27
300.094	-28.5
300.309	-1.88
300.523	84.14
300.737	-36.69
300.952	57.51
301.166	82.09
301.381	-65.36
301.595	6.31
301.809	32.94
302.024	-46.93
302.238	-32.6
302.452	26.79
302.667	10.41
302.881	104.62
303.095	67.75
303.309	26.79
303.524	67.75
303.738	43.18
303.952	32.94
304.166	22.7
304.381	26.79
304.595	55.47
304.809	49.32
305.023	0.17
305.237	43.18
305.452	67.75
305.666	22.7
305.88	82.09
306.094	45.23
306.308	90.28
306.522	32.94
306.736	-1.88
306.95	28.84
307.164	10.41
307.379	-12.12
307.593	12.46
307.807	41.13
308.021	26.79
308.235	84.14
308.449	-34.64
308.663	8.36
308.877	67.75
309.091	-5.97
309.305	28.84
309.519	-16.21
309.733	49.32
309.947	-8.02
310.161	61.61
310.374	12.46
310.588	-5.97
310.802	-51.03
311.016	10.41
311.23	57.51
311.444	-3.93
311.658	-89.94
311.872	10.41
312.085	59.56
312.299	67.75
312.513	16.55
312.727	-57.17
312.941	55.47
313.154	26.79
313.368	-24.4
313.582	47.27
313.796	-30.55
314.009	59.56
314.223	-1.88
314.437	96.43
314.651	18.6
314.864	-55.12
315.078	20.65
315.292	49.32
315.505	59.56
315.719	20.65
315.933	86.19
316.146	37.03
316.36	-3.93
316.573	88.23
316.787	8.36
317.001	20.65
317.214	6.31
317.428	-1.88
317.641	6.31
317.855	47.27
318.068	26.79
318.282	2.22
318.495	63.66
318.709	53.42
318.922	-44.88
319.136	131.24
319.349	30.89
319.563	4.27
319.776	24.75
319.99	26.79
320.203	131.24
320.417	30.89
320.63	86.19
320.843	170.15
321.057	45.23
321.27	34.99
321.483	43.18
321.697	92.33
321.91	0.17
322.124	61.61
322.337	12.46
322.55	14.51
322.763	-20.31
322.977	98.47
323.19	-18.26
323.403	51.37
323.617	8.36
323.83	26.79
324.043	-36.69
324.256	20.65
324.469	-8.02
324.683	71.85
324.896	49.32
325.109	43.18
325.322	24.75
325.535	8.36
325.748	39.08
325.962	73.9
326.175	43.18
326.388	125.1
326.601	47.27
326.814	-16.21
327.027	73.9
327.24	151.72
327.453	65.71
327.666	49.32
327.879	82.09
328.092	6.31
328.305	14.51
328.518	26.79
328.731	49.32
328.944	65.71
329.157	67.75
329.37	14.51
329.583	28.84
329.796	80.04
330.009	-44.88
330.222	-38.74
330.435	67.75
330.648	14.51
330.861	61.61
331.073	-38.74
331.286	37.03
331.499	41.13
331.712	2.22
331.925	-5.97
332.138	84.14
332.35	49.32
332.563	-12.12
332.776	59.56
332.989	39.08
333.202	30.89
333.414	-32.6
333.627	90.28
333.84	-40.79
334.053	55.47
334.265	96.43
334.478	28.84
334.691	16.55
334.903	-8.02
335.116	2.22
335.329	84.14
335.541	30.89
335.754	106.67
335.966	10.41
336.179	37.03
336.392	16.55
336.604	43.18
336.817	34.99
337.029	61.61
337.242	53.42
337.454	-10.07
337.667	71.85
337.88	106.67
338.092	75.95
338.305	8.36
338.517	63.66
338.729	110.76
338.942	2.22
339.154	20.65
339.367	39.08
339.579	90.28
339.792	-55.12
340.004	61.61
340.217	98.47
340.429	90.28
340.641	-18.26
340.854	30.89
341.066	2.22
341.278	88.23
341.491	65.71
341.703	34.99
341.915	-28.5
342.128	47.27
342.34	90.28
342.552	-53.08
342.764	71.85
342.977	98.47
343.189	84.14
343.401	-3.93
343.613	26.79
343.826	51.37
344.038	-18.26
344.25	90.28
344.462	16.55
344.674	-48.98
344.886	4.27
345.099	-1.88
345.311	14.51
345.523	22.7
345.735	-26.45
345.947	45.23
346.159	45.23
346.371	2.22
346.583	45.23
346.795	104.62
347.007	22.7
347.219	30.89
347.431	32.94
347.643	32.94
347.855	-36.69
348.067	61.61
348.279	-44.88
348.491	-16.21
348.703	16.55
348.915	-36.69
349.127	2.22
349.339	24.75
349.551	12.46
349.763	67.75
349.975	71.85
350.187	67.75
350.399	14.51
350.61	24.75
350.822	8.36
351.034	20.65
351.246	37.03
351.458	86.19
351.669	88.23
351.881	-3.93
352.093	10.41
352.305	37.03
352.517	47.27
352.728	82.09
352.94	30.89
353.152	39.08
353.363	77.99
353.575	110.76
353.787	63.66
353.999	77.99
354.21	77.99
354.422	53.42
354.633	2.22
354.845	102.57
355.057	30.89
355.268	67.75
355.48	67.75
355.692	0.17
355.903	73.9
356.115	45.23
356.326	41.13
356.538	92.33
356.749	92.33
356.961	59.56
357.172	30.89
357.384	73.9
357.595	53.42
357.807	16.55
358.018	-14.17
358.23	4.27
358.441	84.14
358.653	90.28
358.864	61.61
359.075	16.55
359.287	47.27
359.498	100.52
359.709	20.65
359.921	32.94
360.132	59.56
360.344	96.43
360.555	61.61
360.766	-3.93
360.977	-8.02
361.189	73.9
361.4	-38.74
361.611	12.46
361.823	37.03
362.034	8.36
362.245	-51.03
362.456	-40.79
362.667	45.23
362.879	20.65
363.09	-48.98
363.301	104.62
363.512	20.65
363.723	32.94
363.935	69.8
364.146	43.18
364.357	88.23
364.568	53.42
364.779	51.37
364.99	86.19
365.201	-20.31
365.412	106.67
365.623	18.6
365.834	4.27
366.045	12.46
366.256	67.75
366.467	4.27
366.678	61.61
366.889	37.03
367.1	49.32
367.311	80.04
367.522	-14.17
367.733	137.38
367.944	92.33
368.155	32.94
368.366	20.65
368.577	51.37
368.788	65.71
368.999	-12.12
369.209	73.9
369.42	131.24
369.631	141.48
369.842	61.61
370.053	57.51
370.264	0.17
370.474	16.55
370.685	41.13
370.896	59.56
371.107	69.8
371.317	32.94
371.528	26.79
371.739	30.89
371.95	112.81
372.16	65.71
372.371	86.19
372.582	-16.21
372.792	51.37
373.003	22.7
373.214	-40.79
373.424	92.33
373.635	14.51
373.846	127.14
374.056	96.43
374.267	82.09
374.477	127.14
374.688	26.79
374.898	49.32
375.109	-5.97
375.319	69.8
375.53	57.51
375.74	75.95
375.951	-1.88
376.161	26.79
376.372	34.99
376.582	41.13
376.793	34.99
377.003	51.37
377.214	34.99
377.424	90.28
377.635	41.13
377.845	37.03
378.055	45.23
378.266	45.23
378.476	-8.02
378.686	86.19
378.897	39.08
379.107	123.05
379.317	30.89
379.528	49.32
379.738	149.67
379.948	4.27
380.158	61.61
380.369	2.22
380.579	55.47
380.789	28.84
380.999	26.79
381.21	39.08
381.42	116.9
381.63	65.71
381.84	73.9
382.05	92.33
382.261	127.14
382.471	96.43
382.681	-14.17
382.891	6.31
383.101	32.94
383.311	37.03
383.521	-5.97
383.731	61.61
383.941	82.09
384.151	45.23
384.361	69.8
384.571	-8.02
384.781	45.23
384.991	69.8
385.201	104.62
385.411	104.62
385.621	32.94
385.831	49.32
386.041	59.56
386.251	45.23
386.461	106.67
386.671	86.19
386.881	6.31
387.091	59.56
387.301	43.18
387.511	80.04
387.72	51.37
387.93	108.71
388.14	-24.4
388.35	43.18
388.56	118.95
388.769	67.75
388.979	32.94
389.189	-63.32
389.399	73.9
389.609	114.86
389.818	32.94
390.028	73.9
390.238	71.85
390.447	45.23
390.657	18.6
390.867	28.84
391.076	34.99
391.286	92.33
391.496	67.75
391.705	12.46
391.915	30.89
392.125	133.29
392.334	45.23
392.544	94.38
392.753	82.09
392.963	24.75
393.172	69.8
393.382	100.52
393.591	153.77
393.801	53.42
394.01	67.75
394.22	53.42
394.429	75.95
394.639	53.42
394.848	110.76
395.058	16.55
395.267	51.37
395.477	112.81
395.686	149.67
395.895	88.23
396.105	153.77
396.314	194.73
396.524	102.57
396.733	133.29
396.942	92.33
397.152	100.52
397.361	84.14
397.57	82.09
397.78	98.47
397.989	133.29
398.198	129.19
398.407	73.9
398.617	59.56
398.826	110.76
399.035	55.47
399.244	147.62
399.453	49.32
399.663	121
399.872	155.82
400.081	147.62
400.29	125.1
400.499	43.18
400.708	69.8
400.917	102.57
401.127	168.1
401.336	80.04
401.545	184.49
401.754	114.86
401.963	147.62
402.172	98.47
402.381	112.81
402.59	100.52
402.799	102.57
403.008	227.5
403.217	108.71
403.426	116.9
403.635	161.96
403.844	131.24
404.053	116.9
404.262	151.72
404.471	147.62
404.68	172.2
404.888	155.82
405.097	94.38
405.306	166.06
405.515	211.11
405.724	155.82
405.933	266.41
406.142	190.63
406.35	215.21
406.559	170.15
406.768	225.45
406.977	231.59
407.185	200.87
407.394	213.16
407.603	125.1
407.812	256.17
408.02	225.45
408.229	88.23
408.438	207.02
408.646	188.58
408.855	231.59
409.064	299.17
409.272	192.68
409.481	319.65
409.69	266.41
409.898	268.45
410.107	303.27
410.315	295.08
410.524	264.36
410.733	354.47
410.941	383.14
411.15	434.34
411.358	329.89
411.567	420
411.775	393.38
411.984	385.19
412.192	417.96
412.401	444.58
412.609	446.63
412.818	450.72
413.026	460.96
413.234	534.69
413.443	499.88
413.651	542.88
413.86	522.4
414.068	686.24
414.276	630.95
414.485	592.03
414.693	682.14
414.901	749.73
415.11	762.02
415.318	743.58
415.526	796.83
415.734	796.83
415.943	827.55
416.151	919.71
416.359	805.02
416.567	923.8
416.776	946.33
416.984	983.2
417.192	1022.11
417.4	993.44
417.608	1020.06
417.817	1093.79
418.025	1120.41
418.233	1114.27
418.441	1161.37
418.649	1167.51
418.857	1314.97
419.065	1255.58
419.273	1314.97
419.481	1357.97
419.689	1497.24
419.897	1491.09
420.105	1532.05
420.313	1671.31
420.521	1708.18
420.729	1685.65
420.937	1728.66
421.145	1888.4
421.353	1886.35
421.561	2105.48
421.769	2099.34
421.977	2209.93
422.185	2037.9
422.393	2187.4
422.601	2351.24
422.809	2334.86
423.017	2363.53
423.224	2594.95
423.432	2564.23
423.64	2637.95
423.848	2910.33
424.056	2783.36
424.263	2998.4
424.471	2926.72
424.679	3010.68
424.887	3176.57
425.094	3315.83
425.302	3303.54
425.51	3543.16
425.718	3565.68
425.925	3651.7
426.133	3762.29
426.341	3864.69
426.548	4061.29
426.756	4087.92
426.964	4143.21
427.171	4329.58
427.379	4497.51
427.586	4569.19
427.794	4722.79
428.001	4843.62
428.209	5075.04
428.417	5126.24
428.624	5285.98
428.832	5326.94
429.039	5415
429.247	5556.31
429.454	5869.65
429.662	6213.71
429.869	5718.1
430.076	6305.87
430.284	5963.86
430.491	6533.19
430.699	6725.7
430.906	6752.32
431.114	6809.67
431.321	7063.61
431.528	7247.93
431.736	7784.5
431.943	8024.11
432.15	7694.39
432.358	7913.52
432.565	8482.86
432.772	8366.12
432.979	8593.45
433.187	9066.53
433.394	8896.55
433.601	9672.73
433.808	9506.84
434.016	9521.18
434.223	9908.24
434.43	10252.3
434.637	10252.3
434.844	10840.07
435.052	10997.76
435.259	11034.63
435.466	11186.18
435.673	11077.63
435.88	11706.36
436.087	12369.9
436.294	12244.98
436.501	12054.51
436.708	12482.54
436.915	12740.58
437.122	13404.13
437.329	13352.93
437.537	13983.7
437.743	14022.61
437.95	13889.49
438.157	14663.63
438.364	14970.82
438.571	14956.49
438.778	15110.08
438.985	16770.99
439.192	15914.94
439.399	16349.11
439.606	16025.53
439.813	16867.24
440.02	18012.06
440.227	17418.14
440.433	17360.8
440.64	17981.34
440.847	17936.28
441.054	18038.68
441.261	19830.65
441.467	19251.08
441.674	19767.17
441.881	20408.18
442.088	20346.74
442.294	20164.47
442.501	20590.45
442.708	21393.25
442.914	21915.48
443.121	22949.71
443.328	22607.7
443.534	23906.11
443.741	23103.31
443.948	22886.22
444.154	24635.19
444.361	24512.31
444.568	24751.92
444.774	24670
444.981	25028.4
445.187	25999.13
445.394	26855.18
445.6	26429.21
445.807	28727.03
446.013	27850.5
446.22	27836.16
446.426	29349.61
446.633	29693.67
446.839	30295.77
447.046	29744.87
447.252	30910.16
447.459	30844.63
447.665	30709.46
447.871	32186.05
448.078	33726.12
448.284	31626.95
448.491	32806.58
448.697	33894.05
448.903	34703
449.11	34496.16
449.316	34070.18
449.522	34940.57
449.728	35673.74
449.935	35815.05
450.141	35927.69
450.347	36757.11
450.553	35708.55
450.76	36322.94
450.966	37133.94
451.172	36994.68
451.378	37736.04
451.584	36986.49
451.791	37981.8
451.997	37760.62
452.203	38588
452.409	38215.27
452.615	38461.02
452.821	37049.97
453.027	36433.53
453.233	38166.12
453.44	36892.28
453.646	37455.47
453.852	37387.89
454.058	38030.95
454.264	36828.79
454.47	37953.13
454.676	36650.62
454.882	38133.35
455.088	34905.75
455.294	35188.37
455.5	35987.08
455.705	36169.35
455.911	34754.2
456.117	34211.49
456.323	33955.49
456.529	32069.31
456.735	33320.62
456.941	32538.3
457.147	31747.78
457.352	31028.95
457.558	30523.1
457.764	30953.17
457.97	30359.26
458.176	29290.22
458.381	29540.07
458.587	28151.55
458.793	27729.67
458.999	26431.26
459.204	28276.48
459.41	27563.78
459.616	25833.25
459.821	26058.53
460.027	26085.15
460.233	25040.68
460.438	24041.28
460.644	24325.94
460.85	23142.22
461.055	22857.55
461.261	22554.45
461.466	21149.54
461.672	20440.95
461.878	22101.85
462.083	20471.67
462.289	19953.53
462.494	19879.8
462.7	18876.3
462.905	18526.1
463.111	19173.25
463.316	19287.94
463.522	18921.35
463.727	18737.04
463.932	18667.41
464.138	18519.95
464.343	18632.59
464.549	18001.82
464.754	18384.79
464.959	18829.2
465.165	18476.94
465.37	17956.76
465.575	17090.47
465.781	17768.35
465.986	17940.38
466.191	17346.47
466.397	17090.47
466.602	16129.97
466.807	16832.43
467.012	16721.84
