Data from USB4F104151__61__12-42-01-639.txt Node

Date: Fri Mar 14 12:42:01 EDT 2025
User: louis
Spectrometer: USB4F10415
Trigger mode: 4
Integration Time (sec): 3.000000E-2
Scans to average: 1
Electric dark correction enabled: true
Nonlinearity correction enabled: false
Boxcar width: 0
XAxis mode: Wavelengths
Number of Pixels in Spectrum: 3648
>>>>>Begin Spectral Data<<<<<
178.204	-162.47
178.424	-162.47
178.644	-162.47
178.864	-197.29
179.084	-133.8
179.304	44.37
179.524	-62.12
179.744	-4.78
179.964	54.61
180.184	44.37
180.404	21.85
180.624	-25.26
180.844	-17.07
181.064	-53.93
181.283	-62.12
181.503	17.75
181.723	42.32
181.943	-0.68
182.163	109.91
182.383	7.51
182.602	25.94
182.822	34.13
183.042	3.41
183.262	19.8
183.482	71
183.701	1.37
183.921	-49.83
184.141	48.47
184.361	21.85
184.58	-8.87
184.8	21.85
185.02	36.18
185.239	68.95
185.459	11.61
185.679	32.08
185.898	-101.03
186.118	54.61
186.338	-58.03
186.557	50.52
186.777	54.61
186.997	27.99
187.216	38.23
187.436	56.66
187.655	-6.83
187.875	-33.45
188.095	-55.98
188.314	62.8
188.534	54.61
188.753	25.94
188.973	46.42
189.192	27.99
189.412	-60.07
189.631	50.52
189.851	-47.79
190.07	-4.78
190.29	-15.02
190.509	27.99
190.729	-23.21
190.948	44.37
191.168	132.44
191.387	25.94
191.607	60.76
191.826	27.99
192.045	-0.68
192.265	30.04
192.484	1.37
192.704	-21.16
192.923	-8.87
193.142	109.91
193.362	71
193.581	50.52
193.8	62.8
194.02	91.48
194.239	66.9
194.458	25.94
194.678	-21.16
194.897	30.04
195.116	60.76
195.335	32.08
195.555	3.41
195.774	17.75
195.993	32.08
196.212	-35.5
196.432	58.71
196.651	-15.02
196.87	-10.92
197.089	64.85
197.308	30.04
197.528	30.04
197.747	-103.08
197.966	-6.83
198.185	42.32
198.404	56.66
198.623	56.66
198.842	68.95
199.062	48.47
199.281	97.62
199.5	-15.02
199.719	52.56
199.938	7.51
200.157	44.37
200.376	23.89
200.595	-6.83
200.814	79.19
201.033	85.33
201.252	52.56
201.471	54.61
201.69	62.8
201.909	-39.59
202.128	75.09
202.347	30.04
202.566	79.19
202.785	30.04
203.004	13.65
203.223	75.09
203.442	25.94
203.661	-0.68
203.879	32.08
204.098	32.08
204.317	15.7
204.536	44.37
204.755	5.46
204.974	54.61
205.193	79.19
205.411	91.48
205.63	-31.4
205.849	15.7
206.068	5.46
206.287	73.04
206.505	-15.02
206.724	25.94
206.943	42.32
207.162	38.23
207.381	23.89
207.599	-15.02
207.818	30.04
208.037	7.51
208.255	11.61
208.474	32.08
208.693	38.23
208.911	71
209.13	42.32
209.349	93.52
209.567	54.61
209.786	17.75
210.005	56.66
210.223	46.42
210.442	19.8
210.661	48.47
210.879	27.99
211.098	5.46
211.316	79.19
211.535	68.95
211.753	-29.35
211.972	40.28
212.191	62.8
212.409	21.85
212.628	-70.31
212.846	36.18
213.065	38.23
213.283	107.86
213.502	-21.16
213.72	-15.02
213.938	11.61
214.157	-10.92
214.375	13.65
214.594	52.56
214.812	-6.83
215.031	52.56
215.249	1.37
215.467	17.75
215.686	25.94
215.904	40.28
216.122	-21.16
216.341	122.2
216.559	50.52
216.778	64.85
216.996	7.51
217.214	15.7
217.432	19.8
217.651	-27.31
217.869	-76.46
218.087	50.52
218.306	-31.4
218.524	83.28
218.742	-70.31
218.96	-2.73
219.179	44.37
219.397	3.41
219.615	32.08
219.833	91.48
220.051	3.41
220.27	50.52
220.488	-109.22
220.706	48.47
220.924	-4.78
221.142	15.7
221.36	-19.11
221.578	34.13
221.796	30.04
222.015	-45.74
222.233	34.13
222.451	101.72
222.669	32.08
222.887	21.85
223.105	-15.02
223.323	36.18
223.541	5.46
223.759	56.66
223.977	1.37
224.195	64.85
224.413	54.61
224.631	23.89
224.849	56.66
225.067	103.76
225.285	7.51
225.503	27.99
225.721	56.66
225.939	-47.79
226.157	42.32
226.375	40.28
226.592	3.41
226.81	-70.31
227.028	58.71
227.246	208.21
227.464	46.42
227.682	-25.26
227.9	40.28
228.117	-35.5
228.335	-15.02
228.553	21.85
228.771	-6.83
228.989	-41.64
229.206	13.65
229.424	52.56
229.642	-109.22
229.86	25.94
230.077	-37.55
230.295	5.46
230.513	56.66
230.731	36.18
230.948	83.28
231.166	91.48
231.384	23.89
231.601	-2.73
231.819	5.46
232.037	-58.03
232.254	27.99
232.472	46.42
232.689	-0.68
232.907	-4.78
233.125	-15.02
233.342	13.65
233.56	23.89
233.777	32.08
233.995	1.37
234.213	36.18
234.43	-4.78
234.648	77.14
234.865	60.76
235.083	68.95
235.3	46.42
235.518	-8.87
235.735	118.1
235.953	46.42
236.17	54.61
236.388	93.52
236.605	7.51
236.822	81.24
237.04	60.76
237.257	19.8
237.475	19.8
237.692	36.18
237.909	52.56
238.127	34.13
238.344	-25.26
238.562	66.9
238.779	-27.31
238.996	-64.17
239.214	-6.83
239.431	-0.68
239.648	109.91
239.865	5.46
240.083	5.46
240.3	17.75
240.517	15.7
240.735	46.42
240.952	46.42
241.169	77.14
241.386	25.94
241.603	5.46
241.821	3.41
242.038	30.04
242.255	-25.26
242.472	-41.64
242.689	17.75
242.907	-15.02
243.124	5.46
243.341	-55.98
243.558	-76.46
243.775	-29.35
243.992	17.75
244.209	42.32
244.426	34.13
244.643	-21.16
244.86	-35.5
245.078	34.13
245.295	7.51
245.512	38.23
245.729	-45.74
245.946	-17.07
246.163	13.65
246.38	54.61
246.597	34.13
246.814	-47.79
247.031	-39.59
247.248	-6.83
247.464	66.9
247.681	-41.64
247.898	7.51
248.115	58.71
248.332	11.61
248.549	34.13
248.766	111.96
248.983	11.61
249.2	71
249.417	13.65
249.633	15.7
249.85	52.56
250.067	-21.16
250.284	-15.02
250.501	-27.31
250.717	54.61
250.934	-17.07
251.151	17.75
251.368	21.85
251.585	19.8
251.801	-21.16
252.018	-82.6
252.235	52.56
252.451	9.56
252.668	-21.16
252.885	30.04
253.102	-49.83
253.318	3.41
253.535	21.85
253.752	27.99
253.968	-58.03
254.185	-60.07
254.401	-60.07
254.618	85.33
254.835	-70.31
255.051	19.8
255.268	-0.68
255.484	60.76
255.701	13.65
255.917	66.9
256.134	-0.68
256.351	-17.07
256.567	5.46
256.784	15.7
257	-19.11
257.217	48.47
257.433	21.85
257.65	71
257.866	27.99
258.082	-23.21
258.299	-45.74
258.515	11.61
258.732	-29.35
258.948	-35.5
259.165	-19.11
259.381	-12.97
259.597	13.65
259.814	-2.73
260.03	-53.93
260.246	95.57
260.463	34.13
260.679	48.47
260.895	-10.92
261.112	-27.31
261.328	-0.68
261.544	-19.11
261.761	-66.22
261.977	50.52
262.193	-45.74
262.409	3.41
262.626	21.85
262.842	75.09
263.058	-19.11
263.274	-6.83
263.49	-0.68
263.707	-45.74
263.923	-15.02
264.139	62.8
264.355	79.19
264.571	105.81
264.787	-27.31
265.004	-33.45
265.22	-0.68
265.436	19.8
265.652	-6.83
265.868	79.19
266.084	25.94
266.3	17.75
266.516	21.85
266.732	13.65
266.948	-21.16
267.164	66.9
267.38	40.28
267.596	83.28
267.812	3.41
268.028	17.75
268.244	3.41
268.46	-4.78
268.676	25.94
268.892	58.71
269.108	25.94
269.324	-27.31
269.54	34.13
269.756	68.95
269.972	-17.07
270.188	27.99
270.403	-62.12
270.619	36.18
270.835	32.08
271.051	38.23
271.267	-0.68
271.483	11.61
271.698	25.94
271.914	54.61
272.13	34.13
272.346	91.48
272.562	-19.11
272.777	32.08
272.993	-31.4
273.209	30.04
273.425	52.56
273.64	15.7
273.856	27.99
274.072	13.65
274.287	25.94
274.503	124.24
274.719	54.61
274.934	30.04
275.15	-76.46
275.366	60.76
275.581	-33.45
275.797	34.13
276.012	13.65
276.228	11.61
276.444	3.41
276.659	44.37
276.875	44.37
277.09	56.66
277.306	44.37
277.521	23.89
277.737	77.14
277.952	44.37
278.168	25.94
278.383	9.56
278.599	68.95
278.814	60.76
279.03	11.61
279.245	58.71
279.461	-70.31
279.676	15.7
279.892	-0.68
280.107	21.85
280.322	1.37
280.538	7.51
280.753	34.13
280.969	99.67
281.184	-29.35
281.399	79.19
281.615	-39.59
281.83	1.37
282.045	-2.73
282.26	32.08
282.476	36.18
282.691	75.09
282.906	50.52
283.122	-47.79
283.337	-23.21
283.552	-0.68
283.767	-17.07
283.983	40.28
284.198	42.32
284.413	19.8
284.628	-27.31
284.843	-53.93
285.058	83.28
285.274	36.18
285.489	44.37
285.704	46.42
285.919	-25.26
286.134	-68.27
286.349	1.37
286.564	13.65
286.779	44.37
286.995	-2.73
287.21	-74.41
287.425	-17.07
287.64	3.41
287.855	73.04
288.07	-8.87
288.285	77.14
288.5	3.41
288.715	62.8
288.93	1.37
289.145	-66.22
289.36	83.28
289.575	-10.92
289.79	34.13
290.004	-27.31
290.219	40.28
290.434	-10.92
290.649	48.47
290.864	21.85
291.079	58.71
291.294	-17.07
291.509	62.8
291.724	-4.78
291.938	15.7
292.153	66.9
292.368	1.37
292.583	-25.26
292.798	64.85
293.012	56.66
293.227	11.61
293.442	5.46
293.657	46.42
293.871	34.13
294.086	27.99
294.301	89.43
294.516	42.32
294.73	44.37
294.945	36.18
295.16	7.51
295.374	-12.97
295.589	66.9
295.804	46.42
296.018	134.48
296.233	-12.97
296.447	-2.73
296.662	-96.94
296.877	124.24
297.091	27.99
297.306	7.51
297.52	68.95
297.735	34.13
297.949	62.8
298.164	52.56
298.378	75.09
298.593	-62.12
298.807	23.89
299.022	19.8
299.236	142.68
299.451	5.46
299.665	27.99
299.88	19.8
300.094	3.41
300.309	19.8
300.523	-17.07
300.737	23.89
300.952	13.65
301.166	9.56
301.381	23.89
301.595	-31.4
301.809	42.32
302.024	-58.03
302.238	23.89
302.452	42.32
302.667	9.56
302.881	27.99
303.095	17.75
303.309	50.52
303.524	13.65
303.738	23.89
303.952	-27.31
304.166	-33.45
304.381	-10.92
304.595	48.47
304.809	13.65
305.023	52.56
305.237	62.8
305.452	38.23
305.666	40.28
305.88	-37.55
306.094	17.75
306.308	40.28
306.522	97.62
306.736	71
306.95	46.42
307.164	3.41
307.379	44.37
307.593	50.52
307.807	89.43
308.021	-17.07
308.235	71
308.449	7.51
308.663	-4.78
308.877	50.52
309.091	19.8
309.305	25.94
309.519	23.89
309.733	66.9
309.947	1.37
310.161	15.7
310.374	-15.02
310.588	95.57
310.802	-31.4
311.016	-10.92
311.23	7.51
311.444	77.14
311.658	56.66
311.872	85.33
312.085	48.47
312.299	64.85
312.513	79.19
312.727	7.51
312.941	-49.83
313.154	-2.73
313.368	30.04
313.582	13.65
313.796	91.48
314.009	62.8
314.223	25.94
314.437	1.37
314.651	-19.11
314.864	-25.26
315.078	38.23
315.292	-45.74
315.505	-0.68
315.719	23.89
315.933	27.99
316.146	83.28
316.36	25.94
316.573	71
316.787	64.85
317.001	83.28
317.214	-4.78
317.428	15.7
317.641	-70.31
317.855	7.51
318.068	-58.03
318.282	54.61
318.495	-25.26
318.709	132.44
318.922	-19.11
319.136	42.32
319.349	-4.78
319.563	-19.11
319.776	64.85
319.99	-4.78
320.203	27.99
320.417	-4.78
320.63	-15.02
320.843	64.85
321.057	21.85
321.27	36.18
321.483	3.41
321.697	132.44
321.91	5.46
322.124	46.42
322.337	58.71
322.55	-0.68
322.763	7.51
322.977	91.48
323.19	25.94
323.403	11.61
323.617	23.89
323.83	32.08
324.043	7.51
324.256	17.75
324.469	42.32
324.683	97.62
324.896	-31.4
325.109	-19.11
325.322	-51.88
325.535	-17.07
325.748	77.14
325.962	-10.92
326.175	-4.78
326.388	19.8
326.601	-33.45
326.814	-2.73
327.027	32.08
327.24	85.33
327.453	-47.79
327.666	114
327.879	81.24
328.092	38.23
328.305	77.14
328.518	9.56
328.731	-31.4
328.944	17.75
329.157	91.48
329.37	30.04
329.583	54.61
329.796	83.28
330.009	64.85
330.222	25.94
330.435	50.52
330.648	-29.35
330.861	21.85
331.073	-19.11
331.286	23.89
331.499	71
331.712	-15.02
331.925	9.56
332.138	-6.83
332.35	32.08
332.563	-12.97
332.776	101.72
332.989	50.52
333.202	-37.55
333.414	17.75
333.627	93.52
333.84	7.51
334.053	15.7
334.265	19.8
334.478	-23.21
334.691	-21.16
334.903	58.71
335.116	1.37
335.329	25.94
335.541	54.61
335.754	77.14
335.966	27.99
336.179	-43.69
336.392	17.75
336.604	40.28
336.817	46.42
337.029	3.41
337.242	38.23
337.454	116.05
337.667	21.85
337.88	93.52
338.092	27.99
338.305	38.23
338.517	83.28
338.729	-15.02
338.942	58.71
339.154	-19.11
339.367	27.99
339.579	58.71
339.792	-35.5
340.004	38.23
340.217	-10.92
340.429	-37.55
340.641	-51.88
340.854	-19.11
341.066	11.61
341.278	83.28
341.491	-12.97
341.703	-0.68
341.915	85.33
342.128	38.23
342.34	-27.31
342.552	71
342.764	13.65
342.977	38.23
343.189	23.89
343.401	25.94
343.613	-29.35
343.826	-45.74
344.038	-15.02
344.25	-15.02
344.462	19.8
344.674	40.28
344.886	54.61
345.099	89.43
345.311	85.33
345.523	52.56
345.735	-66.22
345.947	11.61
346.159	68.95
346.371	32.08
346.583	21.85
346.795	109.91
347.007	-6.83
347.219	44.37
347.431	-8.87
347.643	68.95
347.855	38.23
348.067	124.24
348.279	-60.07
348.491	52.56
348.703	68.95
348.915	-31.4
349.127	-15.02
349.339	91.48
349.551	32.08
349.763	60.76
349.975	-10.92
350.187	48.47
350.399	25.94
350.61	34.13
350.822	38.23
351.034	87.38
351.246	-25.26
351.458	40.28
351.669	107.86
351.881	60.76
352.093	52.56
352.305	87.38
352.517	-10.92
352.728	116.05
352.94	54.61
353.152	68.95
353.363	-33.45
353.575	48.47
353.787	87.38
353.999	56.66
354.21	73.04
354.422	-35.5
354.633	46.42
354.845	40.28
355.057	13.65
355.268	-10.92
355.48	154.96
355.692	52.56
355.903	-4.78
356.115	32.08
356.326	-53.93
356.538	30.04
356.749	1.37
356.961	75.09
357.172	58.71
357.384	-4.78
357.595	165.2
357.807	-0.68
358.018	34.13
358.23	50.52
358.441	89.43
358.653	11.61
358.864	64.85
359.075	21.85
359.287	32.08
359.498	101.72
359.709	48.47
359.921	-39.59
360.132	62.8
360.344	50.52
360.555	5.46
360.766	83.28
360.977	-35.5
361.189	58.71
361.4	11.61
361.611	103.76
361.823	54.61
362.034	44.37
362.245	7.51
362.456	60.76
362.667	73.04
362.879	54.61
363.09	79.19
363.301	62.8
363.512	-2.73
363.723	-37.55
363.935	48.47
364.146	89.43
364.357	-2.73
364.568	87.38
364.779	23.89
364.99	23.89
365.201	56.66
365.412	64.85
365.623	-17.07
365.834	79.19
366.045	101.72
366.256	34.13
366.467	79.19
366.678	77.14
366.889	9.56
367.1	44.37
367.311	30.04
367.522	-33.45
367.733	77.14
367.944	-10.92
368.155	66.9
368.366	-15.02
368.577	38.23
368.788	52.56
368.999	34.13
369.209	-2.73
369.42	157.01
369.631	101.72
369.842	75.09
370.053	101.72
370.264	7.51
370.474	52.56
370.685	9.56
370.896	40.28
371.107	60.76
371.317	105.81
371.528	-37.55
371.739	85.33
371.95	118.1
372.16	99.67
372.371	-2.73
372.582	19.8
372.792	36.18
373.003	54.61
373.214	7.51
373.424	-8.87
373.635	25.94
373.846	118.1
374.056	19.8
374.267	134.48
374.477	5.46
374.688	83.28
374.898	23.89
375.109	21.85
375.319	15.7
375.53	42.32
375.74	64.85
375.951	62.8
376.161	36.18
376.372	54.61
376.582	13.65
376.793	-2.73
377.003	-12.97
377.214	1.37
377.424	124.24
377.635	46.42
377.845	42.32
378.055	154.96
378.266	11.61
378.476	-41.64
378.686	-21.16
378.897	27.99
379.107	52.56
379.317	89.43
379.528	13.65
379.738	128.34
379.948	19.8
380.158	91.48
380.369	99.67
380.579	-12.97
380.789	50.52
380.999	27.99
381.21	-51.88
381.42	68.95
381.63	25.94
381.84	34.13
382.05	46.42
382.261	93.52
382.471	87.38
382.681	9.56
382.891	111.96
383.101	27.99
383.311	40.28
383.521	91.48
383.731	66.9
383.941	34.13
384.151	25.94
384.361	60.76
384.571	11.61
384.781	83.28
384.991	138.58
385.201	50.52
385.411	44.37
385.621	19.8
385.831	77.14
386.041	68.95
386.251	50.52
386.461	21.85
386.671	38.23
386.881	114
387.091	52.56
387.301	91.48
387.511	42.32
387.72	111.96
387.93	99.67
388.14	15.7
388.35	130.39
388.56	71
388.769	56.66
388.979	50.52
389.189	3.41
389.399	30.04
389.609	-4.78
389.818	38.23
390.028	-6.83
390.238	19.8
390.447	77.14
390.657	62.8
390.867	38.23
391.076	5.46
391.286	30.04
391.496	48.47
391.705	-8.87
391.915	85.33
392.125	85.33
392.334	140.63
392.544	27.99
392.753	95.57
392.963	-66.22
393.172	66.9
393.382	17.75
393.591	17.75
393.801	81.24
394.01	159.06
394.22	-15.02
394.429	62.8
394.639	83.28
394.848	75.09
395.058	15.7
395.267	103.76
395.477	79.19
395.686	105.81
395.895	101.72
396.105	97.62
396.314	109.91
396.524	120.15
396.733	91.48
396.942	79.19
397.152	116.05
397.361	122.2
397.57	105.81
397.78	60.76
397.989	81.24
398.198	150.87
398.407	19.8
398.617	66.9
398.826	111.96
399.035	81.24
399.244	91.48
399.453	46.42
399.663	87.38
399.872	159.06
400.081	44.37
400.29	107.86
400.499	148.82
400.708	124.24
400.917	95.57
401.127	136.53
401.336	25.94
401.545	89.43
401.754	161.11
401.963	126.29
402.172	27.99
402.381	52.56
402.59	19.8
402.799	105.81
403.008	134.48
403.217	128.34
403.426	83.28
403.635	101.72
403.844	124.24
404.053	114
404.262	79.19
404.471	163.15
404.68	173.39
404.888	173.39
405.097	111.96
405.306	175.44
405.515	173.39
405.724	232.79
405.933	228.69
406.142	187.73
406.35	224.59
406.559	122.2
406.768	132.44
406.977	220.5
407.185	167.25
407.394	265.55
407.603	159.06
407.812	224.59
408.02	335.18
408.229	202.07
408.438	193.87
408.646	187.73
408.855	230.74
409.064	314.7
409.272	202.07
409.481	251.22
409.69	255.31
409.898	220.5
410.107	324.94
410.315	339.28
410.524	329.04
410.733	431.44
410.941	394.58
411.15	271.7
411.358	435.53
411.567	413.01
411.775	402.77
411.984	419.15
412.192	435.53
412.401	410.96
412.609	474.45
412.818	472.4
413.026	566.6
413.234	460.11
413.443	460.11
413.651	554.32
413.86	531.79
414.068	611.66
414.276	650.57
414.485	609.61
414.693	603.47
414.901	660.81
415.11	621.9
415.318	699.72
415.526	775.5
415.734	783.69
415.943	748.87
416.151	888.14
416.359	769.35
416.567	826.7
416.776	927.05
416.984	886.09
417.192	1031.49
417.4	1021.25
417.608	972.1
417.817	1082.69
418.025	980.29
418.233	1248.58
418.441	1074.5
418.649	1207.62
418.857	1260.87
419.065	1242.43
419.273	1172.8
419.481	1336.64
419.689	1391.94
419.897	1535.29
420.105	1482.05
420.313	1572.16
420.521	1586.49
420.729	1672.51
420.937	1721.66
421.145	1779
421.353	1858.87
421.561	1922.36
421.769	1965.37
421.977	2043.19
422.185	2032.95
422.393	2118.97
422.601	2194.74
422.809	2135.35
423.017	2192.69
423.224	2444.59
423.432	2450.74
423.64	2544.94
423.848	2759.98
424.056	2581.81
424.263	2854.19
424.471	2809.13
424.679	2946.34
424.887	3022.12
425.094	3132.71
425.302	3181.86
425.51	3280.16
425.718	3403.04
425.925	3310.88
426.133	3554.59
426.341	3755.29
426.548	3966.23
426.756	3947.8
426.964	3947.8
427.171	4009.24
427.379	4318.48
427.586	4386.07
427.794	4570.38
428.001	4846.86
428.209	4941.07
428.417	4746.51
428.624	5233.93
428.832	5170.44
429.039	5225.73
429.247	5244.17
429.454	5672.19
429.662	6151.42
429.869	5608.7
430.076	6143.22
430.284	5963
430.491	6130.94
430.699	6546.67
430.906	6442.23
431.114	6550.77
431.321	6833.39
431.528	6962.41
431.736	7519.46
431.943	7849.18
432.15	7441.64
432.358	7584.99
432.565	8043.74
432.772	8148.18
432.979	8422.61
433.187	8664.27
433.394	8592.59
433.601	9217.22
433.808	9155.79
434.016	9233.61
434.223	9647.3
434.43	10042.56
434.637	9899.2
434.844	10546.36
435.052	10685.62
435.259	10777.78
435.466	11005.1
435.673	10695.86
435.88	11252.91
436.087	12002.46
436.294	12006.56
436.501	11556
436.708	12039.33
436.915	12231.83
437.122	12799.12
437.329	12702.87
437.537	13323.4
437.743	13548.68
437.95	13536.39
438.157	14058.62
438.364	14642.29
438.571	14414.97
438.778	14625.91
438.985	15952.99
439.192	15307.88
439.399	15998.05
439.606	15627.37
439.813	16348.25
440.02	17527.88
440.227	17173.58
440.433	17001.55
440.64	17278.03
440.847	17284.17
441.054	17781.83
441.261	18861.11
441.467	18672.7
441.674	19000.37
441.881	19823.65
442.088	19987.49
442.294	19694.63
442.501	20048.93
442.708	20507.68
442.914	21457.93
443.121	22307.84
443.328	21853.19
443.534	22928.38
443.741	22588.41
443.948	22174.72
444.154	23729.13
444.361	23641.07
444.568	23866.35
444.774	23950.31
444.981	24273.89
445.187	24714.2
445.394	26063.82
445.6	25650.13
445.807	28085.16
446.013	26768.32
446.22	27282.36
446.426	28265.38
446.633	28550.05
446.839	29709.2
447.046	28615.58
447.252	30081.93
447.459	29954.96
447.665	30045.07
447.871	31130.49
448.078	32564.07
448.284	31159.16
448.491	31921.01
448.697	32918.37
448.903	33885.01
449.11	33715.03
449.316	33215.32
449.522	33739.6
449.728	34968.38
449.935	35126.08
450.141	35054.4
450.347	35892.02
450.553	34523.97
450.76	35363.64
450.966	36383.53
451.172	35865.39
451.378	36989.73
451.584	36391.72
451.791	37004.06
451.997	36999.97
452.203	37686.04
452.409	37622.55
452.615	37417.75
452.821	36137.77
453.027	35412.79
453.233	37200.67
453.44	35969.84
453.646	36666.15
453.852	36623.14
454.058	37034.78
454.264	35957.55
454.47	36977.44
454.676	35709.75
454.882	37167.9
455.088	33925.97
455.294	34575.17
455.5	35107.65
455.705	35433.27
455.911	34007.89
456.117	33293.15
456.323	33000.29
456.529	31437.69
456.735	32703.33
456.941	31632.24
457.147	30837.63
457.352	30552.96
457.558	30038.92
457.764	29989.77
457.97	29369.24
458.176	28672.93
458.381	28883.87
458.587	27302.84
458.793	27433.91
458.999	25959.37
459.204	27798.45
459.41	27077.56
459.616	25551.82
459.821	25238.48
460.027	25342.93
460.233	24632.29
460.438	23628.78
460.644	23849.96
460.85	22817.79
461.055	22475.77
461.261	22291.46
461.466	20577.31
461.672	20171.81
461.878	21607.44
462.083	20026.4
462.289	19715.11
462.494	19389.49
462.7	18588.73
462.905	18091.07
463.111	18766.9
463.316	18678.84
463.522	18334.78
463.727	18439.23
463.932	18289.73
464.138	18172.99
464.343	18246.72
464.549	17900.61
464.754	18299.97
464.959	18101.31
465.165	17841.22
465.37	17368.14
465.575	16809.04
465.781	17599.56
465.986	17359.95
466.191	16899.16
466.397	16895.06
466.602	15864.93
466.807	16272.48
467.012	16450.65
467.218	16180.32
467.423	16219.23
