Data from USB4F104151__53__12-41-44-751.txt Node

Date: Fri Mar 14 12:41:44 EDT 2025
User: louis
Spectrometer: USB4F10415
Trigger mode: 4
Integration Time (sec): 3.000000E-2
Scans to average: 1
Electric dark correction enabled: true
Nonlinearity correction enabled: false
Boxcar width: 0
XAxis mode: Wavelengths
Number of Pixels in Spectrum: 3648
>>>>>Begin Spectral Data<<<<<
178.204	-67.07
178.424	-67.07
178.644	-67.07
178.864	-159.23
179.084	-120.32
179.304	0.51
179.524	33.28
179.744	-71.17
179.964	25.09
180.184	-22.02
180.404	29.18
180.624	14.85
180.844	33.28
181.064	-44.54
181.283	39.42
181.503	18.94
181.723	-56.83
181.943	-48.64
182.163	64
182.383	-22.02
182.602	76.29
182.822	39.42
183.042	8.7
183.262	-32.26
183.482	-5.63
183.701	66.05
183.921	-11.78
184.141	-48.64
184.361	8.7
184.58	27.14
184.8	55.81
185.02	20.99
185.239	25.09
185.459	88.57
185.679	88.57
185.898	-30.21
186.118	45.57
186.338	70.14
186.557	-13.82
186.777	-22.02
186.997	-22.02
187.216	53.76
187.436	88.57
187.655	10.75
187.875	49.66
188.095	-15.87
188.314	-7.68
188.534	64
188.753	29.18
188.973	4.61
189.192	80.38
189.412	109.05
189.631	8.7
189.851	27.14
190.07	47.62
190.29	-3.58
190.509	39.42
190.729	18.94
190.948	47.62
191.168	113.15
191.387	18.94
191.607	-9.73
191.826	72.19
192.045	45.57
192.265	80.38
192.484	-46.59
192.704	31.23
192.923	-17.92
193.142	23.04
193.362	53.76
193.581	117.25
193.8	61.95
194.02	-13.82
194.239	-81.41
194.458	6.66
194.678	-32.26
194.897	6.66
195.116	-42.5
195.335	64
195.555	61.95
195.774	10.75
195.993	109.05
196.212	-11.78
196.432	41.47
196.651	14.85
196.87	16.9
197.089	82.43
197.308	78.33
197.528	45.57
197.747	-48.64
197.966	98.81
198.185	53.76
198.404	14.85
198.623	14.85
198.842	86.53
199.062	90.62
199.281	70.14
199.5	135.68
199.719	8.7
199.938	41.47
200.157	53.76
200.376	102.91
200.595	53.76
200.814	117.25
201.033	-79.36
201.252	107.01
201.471	14.85
201.69	109.05
201.909	88.57
202.128	-36.35
202.347	-36.35
202.566	37.38
202.785	-13.82
203.004	-7.68
203.223	78.33
203.442	41.47
203.661	-7.68
203.879	-1.54
204.098	84.48
204.317	-13.82
204.536	70.14
204.755	47.62
204.974	43.52
205.193	-32.26
205.411	98.81
205.63	35.33
205.849	2.56
206.068	4.61
206.287	29.18
206.505	80.38
206.724	-7.68
206.943	-11.78
207.162	66.05
207.381	18.94
207.599	35.33
207.818	-58.88
208.037	4.61
208.255	0.51
208.474	39.42
208.693	43.52
208.911	-30.21
209.13	-48.64
209.349	12.8
209.567	29.18
209.786	82.43
210.005	47.62
210.223	57.86
210.442	-36.35
210.661	55.81
210.879	35.33
211.098	-9.73
211.316	-19.97
211.535	-1.54
211.753	37.38
211.972	-26.11
212.191	-60.93
212.409	0.51
212.628	57.86
212.846	68.09
213.065	14.85
213.283	90.62
213.502	88.57
213.72	-9.73
213.938	53.76
214.157	0.51
214.375	16.9
214.594	41.47
214.812	80.38
215.031	100.86
215.249	25.09
215.467	98.81
215.686	-5.63
215.904	2.56
216.122	-28.16
216.341	-11.78
216.559	23.04
216.778	125.44
216.996	-9.73
217.214	-79.36
217.432	-13.82
217.651	47.62
217.869	-7.68
218.087	109.05
218.306	-5.63
218.524	47.62
218.742	-71.17
218.96	41.47
219.179	59.9
219.397	80.38
219.615	31.23
219.833	18.94
220.051	33.28
220.27	27.14
220.488	-38.4
220.706	27.14
220.924	4.61
221.142	0.51
221.36	57.86
221.578	78.33
221.796	35.33
222.015	43.52
222.233	61.95
222.451	23.04
222.669	-11.78
222.887	29.18
223.105	-13.82
223.323	-62.98
223.541	-1.54
223.759	2.56
223.977	37.38
224.195	45.57
224.413	27.14
224.631	33.28
224.849	-13.82
225.067	119.29
225.285	14.85
225.503	27.14
225.721	-17.92
225.939	-19.97
226.157	-34.3
226.375	113.15
226.592	-85.5
226.81	39.42
227.028	92.67
227.246	154.11
227.464	27.14
227.682	18.94
227.9	-7.68
228.117	35.33
228.335	49.66
228.553	-58.88
228.771	111.1
228.989	76.29
229.206	31.23
229.424	-19.97
229.642	29.18
229.86	-73.21
230.077	66.05
230.295	-22.02
230.513	55.81
230.731	14.85
230.948	76.29
231.166	2.56
231.384	37.38
231.601	23.04
231.819	-7.68
232.037	8.7
232.254	33.28
232.472	25.09
232.689	84.48
232.907	39.42
233.125	84.48
233.342	-17.92
233.56	35.33
233.777	10.75
233.995	94.72
234.213	88.57
234.43	51.71
234.648	-28.16
234.865	18.94
235.083	96.77
235.3	82.43
235.518	10.75
235.735	182.78
235.953	55.81
236.17	31.23
236.388	-15.87
236.605	-17.92
236.822	51.71
237.04	61.95
237.257	-28.16
237.475	39.42
237.692	29.18
237.909	70.14
238.127	66.05
238.344	47.62
238.562	25.09
238.779	27.14
238.996	82.43
239.214	23.04
239.431	102.91
239.648	20.99
239.865	35.33
240.083	25.09
240.3	94.72
240.517	47.62
240.735	20.99
240.952	80.38
241.169	18.94
241.386	72.19
241.603	25.09
241.821	6.66
242.038	86.53
242.255	113.15
242.472	25.09
242.689	68.09
242.907	82.43
243.124	59.9
243.341	39.42
243.558	8.7
243.775	43.52
243.992	-3.58
244.209	-7.68
244.426	86.53
244.643	59.9
244.86	14.85
245.078	43.52
245.295	68.09
245.512	49.66
245.729	-7.68
245.946	16.9
246.163	23.04
246.38	14.85
246.597	96.77
246.814	57.86
247.031	31.23
247.248	-11.78
247.464	66.05
247.681	43.52
247.898	43.52
248.115	25.09
248.332	-91.65
248.549	59.9
248.766	94.72
248.983	72.19
249.2	10.75
249.417	23.04
249.633	-73.21
249.85	-9.73
250.067	14.85
250.284	68.09
250.501	37.38
250.717	33.28
250.934	18.94
251.151	8.7
251.368	16.9
251.585	2.56
251.801	72.19
252.018	23.04
252.235	43.52
252.451	31.23
252.668	-24.06
252.885	86.53
253.102	41.47
253.318	43.52
253.535	43.52
253.752	8.7
253.968	66.05
254.185	8.7
254.401	39.42
254.618	66.05
254.835	-30.21
255.051	61.95
255.268	18.94
255.484	66.05
255.701	27.14
255.917	-1.54
256.134	66.05
256.351	23.04
256.567	64
256.784	10.75
257	-3.58
257.217	94.72
257.433	-38.4
257.65	92.67
257.866	51.71
258.082	-17.92
258.299	-22.02
258.515	-9.73
258.732	16.9
258.948	35.33
259.165	-24.06
259.381	59.9
259.597	-5.63
259.814	70.14
260.03	4.61
260.246	-62.98
260.463	59.9
260.679	80.38
260.895	66.05
261.112	27.14
261.328	-44.54
261.544	59.9
261.761	129.53
261.977	-1.54
262.193	-91.65
262.409	-5.63
262.626	66.05
262.842	64
263.058	8.7
263.274	37.38
263.49	123.39
263.707	59.9
263.923	25.09
264.139	47.62
264.355	94.72
264.571	94.72
264.787	61.95
265.004	94.72
265.22	-7.68
265.436	31.23
265.652	-36.35
265.868	74.24
266.084	14.85
266.3	29.18
266.516	0.51
266.732	53.76
266.948	16.9
267.164	37.38
267.38	78.33
267.596	43.52
267.812	57.86
268.028	23.04
268.244	18.94
268.46	-19.97
268.676	-9.73
268.892	29.18
269.108	-38.4
269.324	-36.35
269.54	27.14
269.756	51.71
269.972	-19.97
270.188	43.52
270.403	0.51
270.619	-24.06
270.835	37.38
271.051	4.61
271.267	18.94
271.483	-28.16
271.698	-52.74
271.914	49.66
272.13	14.85
272.346	64
272.562	137.73
272.777	0.51
272.993	41.47
273.209	-26.11
273.425	39.42
273.64	23.04
273.856	53.76
274.072	-24.06
274.287	-26.11
274.503	31.23
274.719	23.04
274.934	33.28
275.15	-3.58
275.366	31.23
275.581	43.52
275.797	10.75
276.012	33.28
276.228	45.57
276.444	45.57
276.659	41.47
276.875	-40.45
277.09	-50.69
277.306	41.47
277.521	35.33
277.737	-9.73
277.952	135.68
278.168	72.19
278.383	35.33
278.599	-30.21
278.814	16.9
279.03	12.8
279.245	131.58
279.461	53.76
279.676	-17.92
279.892	-30.21
280.107	-15.87
280.322	-22.02
280.538	18.94
280.753	51.71
280.969	-32.26
281.184	-11.78
281.399	35.33
281.615	23.04
281.83	78.33
282.045	10.75
282.26	-22.02
282.476	82.43
282.691	-22.02
282.906	39.42
283.122	82.43
283.337	25.09
283.552	59.9
283.767	57.86
283.983	59.9
284.198	16.9
284.413	49.66
284.628	-32.26
284.843	20.99
285.058	104.96
285.274	-26.11
285.489	-62.98
285.704	61.95
285.919	6.66
286.134	61.95
286.349	57.86
286.564	2.56
286.779	55.81
286.995	78.33
287.21	-52.74
287.425	33.28
287.64	35.33
287.855	14.85
288.07	0.51
288.285	143.87
288.5	39.42
288.715	31.23
288.93	25.09
289.145	88.57
289.36	16.9
289.575	-24.06
289.79	47.62
290.004	12.8
290.219	84.48
290.434	12.8
290.649	-44.54
290.864	49.66
291.079	-28.16
291.294	-32.26
291.509	51.71
291.724	41.47
291.938	-44.54
292.153	39.42
292.368	14.85
292.583	20.99
292.798	31.23
293.012	55.81
293.227	-11.78
293.442	14.85
293.657	23.04
293.871	45.57
294.086	-17.92
294.301	78.33
294.516	10.75
294.73	55.81
294.945	35.33
295.16	45.57
295.374	80.38
295.589	-5.63
295.804	-42.5
296.018	127.49
296.233	-22.02
296.447	117.25
296.662	8.7
296.877	107.01
297.091	10.75
297.306	-22.02
297.52	-13.82
297.735	86.53
297.949	-9.73
298.164	59.9
298.378	59.9
298.593	-9.73
298.807	37.38
299.022	16.9
299.236	45.57
299.451	109.05
299.665	55.81
299.88	121.34
300.094	41.47
300.309	10.75
300.523	33.28
300.737	25.09
300.952	74.24
301.166	74.24
301.381	43.52
301.595	-17.92
301.809	76.29
302.024	25.09
302.238	-1.54
302.452	66.05
302.667	47.62
302.881	100.86
303.095	104.96
303.309	98.81
303.524	39.42
303.738	23.04
303.952	14.85
304.166	64
304.381	-15.87
304.595	57.86
304.809	20.99
305.023	121.34
305.237	14.85
305.452	14.85
305.666	133.63
305.88	55.81
306.094	27.14
306.308	39.42
306.522	82.43
306.736	102.91
306.95	12.8
307.164	-58.88
307.379	-15.87
307.593	20.99
307.807	6.66
308.021	12.8
308.235	59.9
308.449	74.24
308.663	35.33
308.877	51.71
309.091	0.51
309.305	-34.3
309.519	-5.63
309.733	53.76
309.947	33.28
310.161	39.42
310.374	45.57
310.588	78.33
310.802	-67.07
311.016	39.42
311.23	80.38
311.444	8.7
311.658	68.09
311.872	107.01
312.085	-9.73
312.299	82.43
312.513	39.42
312.727	45.57
312.941	25.09
313.154	51.71
313.368	27.14
313.582	-1.54
313.796	102.91
314.009	61.95
314.223	74.24
314.437	14.85
314.651	18.94
314.864	-22.02
315.078	35.33
315.292	-9.73
315.505	-19.97
315.719	45.57
315.933	49.66
316.146	115.2
316.36	47.62
316.573	45.57
316.787	39.42
317.001	72.19
317.214	-58.88
317.428	-22.02
317.641	53.76
317.855	-22.02
318.068	0.51
318.282	41.47
318.495	74.24
318.709	66.05
318.922	14.85
319.136	47.62
319.349	147.97
319.563	-38.4
319.776	45.57
319.99	-13.82
320.203	43.52
320.417	43.52
320.63	27.14
320.843	57.86
321.057	55.81
321.27	33.28
321.483	150.01
321.697	47.62
321.91	88.57
322.124	72.19
322.337	86.53
322.55	14.85
322.763	6.66
322.977	23.04
323.19	-22.02
323.403	70.14
323.617	66.05
323.83	-58.88
324.043	35.33
324.256	0.51
324.469	29.18
324.683	111.1
324.896	41.47
325.109	47.62
325.322	16.9
325.535	41.47
325.748	74.24
325.962	-5.63
326.175	64
326.388	14.85
326.601	64
326.814	4.61
327.027	84.48
327.24	111.1
327.453	-22.02
327.666	88.57
327.879	49.66
328.092	20.99
328.305	2.56
328.518	-34.3
328.731	2.56
328.944	23.04
329.157	49.66
329.37	-48.64
329.583	147.97
329.796	20.99
330.009	12.8
330.222	27.14
330.435	82.43
330.648	43.52
330.861	109.05
331.073	49.66
331.286	70.14
331.499	137.73
331.712	45.57
331.925	53.76
332.138	23.04
332.35	76.29
332.563	-5.63
332.776	53.76
332.989	49.66
333.202	59.9
333.414	45.57
333.627	66.05
333.84	-7.68
334.053	55.81
334.265	6.66
334.478	2.56
334.691	59.9
334.903	-1.54
335.116	64
335.329	6.66
335.541	31.23
335.754	113.15
335.966	27.14
336.179	-32.26
336.392	2.56
336.604	92.67
336.817	70.14
337.029	12.8
337.242	37.38
337.454	12.8
337.667	27.14
337.88	53.76
338.092	74.24
338.305	59.9
338.517	59.9
338.729	-30.21
338.942	51.71
339.154	27.14
339.367	4.61
339.579	64
339.792	-19.97
340.004	66.05
340.217	27.14
340.429	33.28
340.641	10.75
340.854	41.47
341.066	0.51
341.278	39.42
341.491	82.43
341.703	51.71
341.915	53.76
342.128	51.71
342.34	-42.5
342.552	6.66
342.764	70.14
342.977	31.23
343.189	-7.68
343.401	94.72
343.613	-54.78
343.826	33.28
344.038	35.33
344.25	31.23
344.462	0.51
344.674	-36.35
344.886	31.23
345.099	123.39
345.311	29.18
345.523	59.9
345.735	-13.82
345.947	0.51
346.159	96.77
346.371	104.96
346.583	20.99
346.795	92.67
347.007	88.57
347.219	82.43
347.431	92.67
347.643	111.1
347.855	16.9
348.067	43.52
348.279	43.52
348.491	0.51
348.703	47.62
348.915	25.09
349.127	-30.21
349.339	55.81
349.551	8.7
349.763	27.14
349.975	98.81
350.187	45.57
350.399	84.48
350.61	6.66
350.822	-3.58
351.034	57.86
351.246	16.9
351.458	0.51
351.669	43.52
351.881	33.28
352.093	51.71
352.305	33.28
352.517	49.66
352.728	104.96
352.94	76.29
353.152	-19.97
353.363	16.9
353.575	35.33
353.787	76.29
353.999	-30.21
354.21	72.19
354.422	14.85
354.633	55.81
354.845	20.99
355.057	23.04
355.268	66.05
355.48	49.66
355.692	90.62
355.903	47.62
356.115	33.28
356.326	16.9
356.538	80.38
356.749	16.9
356.961	55.81
357.172	14.85
357.384	39.42
357.595	90.62
357.807	47.62
358.018	64
358.23	80.38
358.441	143.87
358.653	6.66
358.864	53.76
359.075	-83.45
359.287	-9.73
359.498	84.48
359.709	-32.26
359.921	-1.54
360.132	47.62
360.344	14.85
360.555	86.53
360.766	-1.54
360.977	86.53
361.189	78.33
361.4	39.42
361.611	104.96
361.823	107.01
362.034	41.47
362.245	33.28
362.456	16.9
362.667	41.47
362.879	84.48
363.09	31.23
363.301	86.53
363.512	96.77
363.723	29.18
363.935	23.04
364.146	35.33
364.357	-38.4
364.568	104.96
364.779	37.38
364.99	53.76
365.201	2.56
365.412	0.51
365.623	-65.02
365.834	18.94
366.045	80.38
366.256	90.62
366.467	55.81
366.678	35.33
366.889	10.75
367.1	90.62
367.311	-1.54
367.522	64
367.733	-17.92
367.944	109.05
368.155	78.33
368.366	49.66
368.577	123.39
368.788	68.09
368.999	47.62
369.209	59.9
369.42	68.09
369.631	123.39
369.842	49.66
370.053	33.28
370.264	125.44
370.474	-9.73
370.685	43.52
370.896	78.33
371.107	64
371.317	104.96
371.528	82.43
371.739	66.05
371.95	55.81
372.16	-11.78
372.371	33.28
372.582	61.95
372.792	-56.83
373.003	115.2
373.214	76.29
373.424	-13.82
373.635	31.23
373.846	49.66
374.056	94.72
374.267	78.33
374.477	39.42
374.688	92.67
374.898	59.9
375.109	78.33
375.319	82.43
375.53	23.04
375.74	66.05
375.951	16.9
376.161	66.05
376.372	68.09
376.582	12.8
376.793	35.33
377.003	14.85
377.214	-24.06
377.424	39.42
377.635	43.52
377.845	-54.78
378.055	78.33
378.266	27.14
378.476	49.66
378.686	90.62
378.897	80.38
379.107	33.28
379.317	109.05
379.528	78.33
379.738	41.47
379.948	-22.02
380.158	74.24
380.369	80.38
380.579	12.8
380.789	-22.02
380.999	64
381.21	100.86
381.42	107.01
381.63	-1.54
381.84	53.76
382.05	70.14
382.261	86.53
382.471	90.62
382.681	82.43
382.891	66.05
383.101	109.05
383.311	-36.35
383.521	55.81
383.731	88.57
383.941	88.57
384.151	25.09
384.361	27.14
384.571	37.38
384.781	125.44
384.991	92.67
385.201	117.25
385.411	102.91
385.621	57.86
385.831	70.14
386.041	78.33
386.251	55.81
386.461	43.52
386.671	100.86
386.881	82.43
387.091	61.95
387.301	72.19
387.511	96.77
387.72	107.01
387.93	76.29
388.14	35.33
388.35	29.18
388.56	35.33
388.769	104.96
388.979	47.62
389.189	70.14
389.399	102.91
389.609	6.66
389.818	109.05
390.028	51.71
390.238	131.58
390.447	98.81
390.657	68.09
390.867	47.62
391.076	86.53
391.286	70.14
391.496	121.34
391.705	98.81
391.915	94.72
392.125	43.52
392.334	66.05
392.544	129.53
392.753	14.85
392.963	100.86
393.172	176.64
393.382	92.67
393.591	125.44
393.801	98.81
394.01	127.49
394.22	129.53
394.429	47.62
394.639	70.14
394.848	96.77
395.058	18.94
395.267	143.87
395.477	33.28
395.686	145.92
395.895	172.54
396.105	127.49
396.314	115.2
396.524	72.19
396.733	127.49
396.942	109.05
397.152	164.35
397.361	145.92
397.57	88.57
397.78	47.62
397.989	82.43
398.198	90.62
398.407	37.38
398.617	88.57
398.826	90.62
399.035	113.15
399.244	166.4
399.453	147.97
399.663	170.49
399.872	147.97
400.081	117.25
400.29	125.44
400.499	68.09
400.708	27.14
400.917	55.81
401.127	133.63
401.336	178.69
401.545	160.25
401.754	174.59
401.963	158.21
402.172	94.72
402.381	82.43
402.59	66.05
402.799	129.53
403.008	109.05
403.217	129.53
403.426	61.95
403.635	131.58
403.844	150.01
404.053	176.64
404.262	76.29
404.471	180.73
404.68	205.31
404.888	143.87
405.097	94.72
405.306	186.88
405.515	143.87
405.724	178.69
405.933	143.87
406.142	225.79
406.35	270.84
406.559	242.17
406.768	203.26
406.977	272.89
407.185	180.73
407.394	180.73
407.603	133.63
407.812	213.5
408.02	248.32
408.229	176.64
408.438	213.5
408.646	221.69
408.855	180.73
409.064	236.03
409.272	326.14
409.481	291.32
409.69	262.65
409.898	244.22
410.107	352.76
410.315	287.23
410.524	326.14
410.733	358.91
410.941	305.66
411.15	326.14
411.358	301.56
411.567	442.87
411.775	416.25
411.984	432.63
412.192	430.59
412.401	416.25
412.609	524.79
412.818	465.4
413.026	483.83
413.234	539.13
413.443	502.26
413.651	547.32
413.86	524.79
414.068	627.19
414.276	653.81
414.485	686.58
414.693	694.77
414.901	643.57
415.11	733.68
415.318	700.92
415.526	729.59
415.734	831.99
415.943	823.8
416.151	858.61
416.359	858.61
416.567	928.24
416.776	872.95
416.984	1010.16
417.192	932.34
417.4	1053.17
417.608	948.72
417.817	1024.5
418.025	1102.32
418.233	1192.43
418.441	1188.33
418.649	1221.1
418.857	1327.6
419.065	1354.22
419.273	1337.84
419.481	1419.75
419.689	1556.97
419.897	1563.11
420.105	1632.74
420.313	1501.67
420.521	1616.36
420.729	1665.51
420.937	1663.46
421.145	1767.91
421.353	1890.79
421.561	1999.33
421.769	2011.62
421.977	2058.72
422.185	2132.45
422.393	2206.17
422.601	2331.1
422.809	2486.75
423.017	2327
423.224	2431.45
423.432	2664.92
423.64	2623.96
423.848	2732.5
424.056	2720.21
424.263	2804.18
424.471	2785.75
424.679	3004.88
424.887	3107.28
425.094	3158.48
425.302	3199.44
425.51	3371.47
425.718	3480.01
425.925	3389.9
426.133	3592.65
426.341	3819.97
426.548	4049.35
426.756	4131.26
426.964	4108.74
427.171	4190.66
427.379	4510.14
427.586	4497.85
427.794	4653.5
428.001	4934.07
428.209	5058.99
428.417	4934.07
428.624	5351.85
428.832	5210.54
429.039	5253.55
429.247	5351.85
429.454	5740.97
429.662	6066.6
429.869	5714.34
430.076	6168.99
430.284	5990.82
430.491	6257.06
430.699	6644.12
430.906	6728.09
431.114	6658.46
431.321	7014.8
431.528	7190.93
431.736	7487.89
431.943	8063.36
432.15	7846.28
432.358	7881.1
432.565	8249.73
432.772	8014.21
432.979	8690.04
433.187	8761.72
433.394	8726.91
433.601	9396.59
433.808	9341.3
434.016	9335.15
434.223	9951.59
434.43	10326.37
434.637	10295.65
434.844	10735.96
435.052	10996.06
435.259	11131.22
435.466	11163.99
435.673	10932.57
435.88	11639.12
436.087	12222.79
436.294	12114.25
436.501	12091.72
436.708	12101.96
436.915	12644.67
437.122	12998.97
437.329	13046.07
437.537	13541.68
437.743	13924.65
437.95	13682.99
438.157	14633.25
438.364	14786.85
438.571	14782.75
438.778	14983.45
438.985	16140.55
439.192	15704.34
439.399	16150.79
439.606	16009.48
439.813	16691.46
440.02	17823.98
440.227	17563.89
440.433	17225.98
440.64	17959.15
440.847	17926.38
441.054	18120.94
441.261	19419.35
441.467	19126.49
441.674	19605.72
441.881	20394.18
442.088	20066.51
442.294	20043.98
442.501	20357.32
442.708	20822.21
442.914	21858.48
443.121	22782.12
443.328	22034.61
443.534	23689.37
443.741	22986.91
443.948	22603.94
444.154	24508.55
444.361	24438.92
444.568	24189.07
444.774	24197.26
444.981	24793.22
445.187	25274.49
445.394	26431.6
445.6	26284.14
445.807	28801.1
446.013	27727.96
446.22	28065.88
446.426	29124.68
446.633	29378.62
446.839	30517.29
447.046	28938.31
447.252	30453.81
447.459	30730.28
447.665	30388.27
447.871	32081.94
448.078	33687.55
448.284	31701.02
448.491	32442.38
448.697	33839.1
448.903	34258.93
449.11	34402.29
449.316	33888.25
449.522	34772.97
449.728	35418.08
449.935	35612.64
450.141	35839.97
450.347	36536.27
450.553	35452.9
450.76	35854.3
450.966	36966.35
451.172	36372.44
451.378	37621.7
451.584	36575.19
451.791	37873.6
451.997	37492.68
452.203	38137.79
452.409	37937.09
452.615	38287.29
452.821	36964.3
453.027	36114.39
453.233	38047.68
453.44	36960.2
453.646	36992.97
453.852	37429.19
454.058	37857.21
454.264	36347.86
454.47	37113.8
454.676	36566.99
454.882	37937.09
455.088	34486.26
455.294	34883.56
455.5	35524.58
455.705	35825.63
455.911	34580.46
456.117	33460.23
456.323	33568.77
456.529	31746.08
456.735	33110.02
456.941	32245.78
457.147	31703.07
457.352	30930.98
457.558	30206
457.764	30357.55
457.97	30095.41
458.176	29356.1
458.381	29120.58
458.587	27918.42
458.793	27895.89
458.999	26304.62
459.204	28213.33
459.41	27418.72
459.616	25675.9
459.821	25759.86
460.027	25679.99
460.233	24856.71
460.438	23715.99
460.644	24172.69
460.85	23132.32
461.055	22767.78
461.261	22841.51
461.466	21184.7
461.672	20441.29
461.878	21555.38
462.083	20185.29
462.289	19738.83
462.494	19634.39
462.7	18950.37
462.905	18499.81
463.111	19132.64
463.316	19237.08
463.522	18352.36
463.727	18499.81
463.932	18731.23
464.138	18344.17
464.343	18741.47
464.549	17983.73
464.754	18315.5
464.959	18231.53
465.165	18217.19
465.37	17604.85
465.575	16945.41
465.781	17910
465.986	17549.56
466.191	17027.32
466.397	16539.91
466.602	15999.24
466.807	16754.94
467.012	16605.44
467.218	16726.27
467.423	16408.84
