Data from USB4F104151__55__12-41-54-410.txt Node

Date: Fri Mar 14 12:41:54 EDT 2025
User: louis
Spectrometer: USB4F10415
Trigger mode: 4
Integration Time (sec): 3.000000E-2
Scans to average: 1
Electric dark correction enabled: true
Nonlinearity correction enabled: false
Boxcar width: 0
XAxis mode: Wavelengths
Number of Pixels in Spectrum: 3648
>>>>>Begin Spectral Data<<<<<
178.204	-56.83
178.424	-56.83
178.644	-56.83
178.864	-144.89
179.084	-157.18
179.304	12.8
179.524	14.85
179.744	-44.54
179.964	10.75
180.184	-13.82
180.404	51.71
180.624	-3.58
180.844	-46.59
181.064	-9.73
181.283	-11.78
181.503	12.8
181.723	27.14
181.943	-58.88
182.163	111.1
182.383	53.76
182.602	98.81
182.822	74.24
183.042	70.14
183.262	53.76
183.482	-44.54
183.701	10.75
183.921	-26.11
184.141	-28.16
184.361	100.86
184.58	57.86
184.8	0.51
185.02	47.62
185.239	43.52
185.459	43.52
185.679	39.42
185.898	4.61
186.118	20.99
186.338	55.81
186.557	98.81
186.777	33.28
186.997	61.95
187.216	41.47
187.436	113.15
187.655	68.09
187.875	57.86
188.095	20.99
188.314	72.19
188.534	47.62
188.753	59.9
188.973	64
189.192	80.38
189.412	12.8
189.631	-52.74
189.851	4.61
190.07	18.94
190.29	88.57
190.509	-11.78
190.729	-1.54
190.948	39.42
191.168	174.59
191.387	39.42
191.607	-85.5
191.826	8.7
192.045	39.42
192.265	6.66
192.484	-5.63
192.704	25.09
192.923	20.99
193.142	94.72
193.362	25.09
193.581	39.42
193.8	45.57
194.02	23.04
194.239	-77.31
194.458	55.81
194.678	57.86
194.897	55.81
195.116	33.28
195.335	82.43
195.555	90.62
195.774	-38.4
195.993	47.62
196.212	35.33
196.432	8.7
196.651	-9.73
196.87	4.61
197.089	92.67
197.308	74.24
197.528	-3.58
197.747	59.9
197.966	-7.68
198.185	68.09
198.404	-9.73
198.623	6.66
198.842	117.25
199.062	55.81
199.281	18.94
199.5	-40.45
199.719	-5.63
199.938	53.76
200.157	35.33
200.376	49.66
200.595	57.86
200.814	76.29
201.033	64
201.252	115.2
201.471	-36.35
201.69	45.57
201.909	117.25
202.128	-1.54
202.347	16.9
202.566	14.85
202.785	12.8
203.004	23.04
203.223	61.95
203.442	-67.07
203.661	2.56
203.879	76.29
204.098	82.43
204.317	-32.26
204.536	119.29
204.755	57.86
204.974	127.49
205.193	-11.78
205.411	115.2
205.63	64
205.849	18.94
206.068	68.09
206.287	53.76
206.505	70.14
206.724	47.62
206.943	-3.58
207.162	2.56
207.381	51.71
207.599	27.14
207.818	57.86
208.037	18.94
208.255	4.61
208.474	27.14
208.693	10.75
208.911	53.76
209.13	25.09
209.349	61.95
209.567	98.81
209.786	37.38
210.005	70.14
210.223	20.99
210.442	-40.45
210.661	47.62
210.879	72.19
211.098	20.99
211.316	25.09
211.535	88.57
211.753	29.18
211.972	76.29
212.191	4.61
212.409	10.75
212.628	47.62
212.846	184.83
213.065	55.81
213.283	70.14
213.502	16.9
213.72	29.18
213.938	100.86
214.157	66.05
214.375	68.09
214.594	49.66
214.812	115.2
215.031	-11.78
215.249	47.62
215.467	80.38
215.686	86.53
215.904	57.86
216.122	12.8
216.341	47.62
216.559	-26.11
216.778	127.49
216.996	37.38
217.214	-46.59
217.432	72.19
217.651	31.23
217.869	66.05
218.087	74.24
218.306	25.09
218.524	33.28
218.742	-52.74
218.96	-32.26
219.179	27.14
219.397	-13.82
219.615	64
219.833	20.99
220.051	2.56
220.27	76.29
220.488	-15.87
220.706	78.33
220.924	4.61
221.142	27.14
221.36	-32.26
221.578	4.61
221.796	4.61
222.015	43.52
222.233	53.76
222.451	-24.06
222.669	10.75
222.887	-17.92
223.105	25.09
223.323	-3.58
223.541	-60.93
223.759	61.95
223.977	-3.58
224.195	141.82
224.413	74.24
224.631	82.43
224.849	25.09
225.067	109.05
225.285	-5.63
225.503	-9.73
225.721	37.38
225.939	80.38
226.157	18.94
226.375	84.48
226.592	-26.11
226.81	-11.78
227.028	64
227.246	66.05
227.464	35.33
227.682	115.2
227.9	43.52
228.117	-22.02
228.335	53.76
228.553	-5.63
228.771	92.67
228.989	90.62
229.206	68.09
229.424	-28.16
229.642	14.85
229.86	14.85
230.077	-11.78
230.295	33.28
230.513	27.14
230.731	18.94
230.948	84.48
231.166	86.53
231.384	10.75
231.601	16.9
231.819	49.66
232.037	76.29
232.254	23.04
232.472	41.47
232.689	86.53
232.907	55.81
233.125	86.53
233.342	-13.82
233.56	10.75
233.777	47.62
233.995	72.19
234.213	78.33
234.43	96.77
234.648	12.8
234.865	92.67
235.083	31.23
235.3	43.52
235.518	109.05
235.735	16.9
235.953	27.14
236.17	57.86
236.388	33.28
236.605	12.8
236.822	6.66
237.04	47.62
237.257	18.94
237.475	43.52
237.692	-11.78
237.909	72.19
238.127	49.66
238.344	61.95
238.562	57.86
238.779	25.09
238.996	-36.35
239.214	-7.68
239.431	10.75
239.648	33.28
239.865	125.44
240.083	10.75
240.3	55.81
240.517	2.56
240.735	-19.97
240.952	78.33
241.169	-28.16
241.386	-11.78
241.603	31.23
241.821	-7.68
242.038	111.1
242.255	45.57
242.472	37.38
242.689	117.25
242.907	64
243.124	96.77
243.341	70.14
243.558	68.09
243.775	23.04
243.992	-24.06
244.209	86.53
244.426	135.68
244.643	-1.54
244.86	-1.54
245.078	49.66
245.295	-3.58
245.512	29.18
245.729	80.38
245.946	-15.87
246.163	12.8
246.38	10.75
246.597	29.18
246.814	14.85
247.031	64
247.248	18.94
247.464	39.42
247.681	49.66
247.898	23.04
248.115	94.72
248.332	49.66
248.549	82.43
248.766	86.53
248.983	59.9
249.2	109.05
249.417	-1.54
249.633	25.09
249.85	51.71
250.067	14.85
250.284	88.57
250.501	55.81
250.717	53.76
250.934	18.94
251.151	61.95
251.368	43.52
251.585	78.33
251.801	12.8
252.018	70.14
252.235	-11.78
252.451	100.86
252.668	2.56
252.885	82.43
253.102	68.09
253.318	-9.73
253.535	59.9
253.752	-3.58
253.968	18.94
254.185	14.85
254.401	37.38
254.618	53.76
254.835	-5.63
255.051	76.29
255.268	25.09
255.484	4.61
255.701	-26.11
255.917	92.67
256.134	4.61
256.351	88.57
256.567	78.33
256.784	64
257	-44.54
257.217	160.25
257.433	-42.5
257.65	59.9
257.866	57.86
258.082	20.99
258.299	57.86
258.515	27.14
258.732	72.19
258.948	107.01
259.165	80.38
259.381	41.47
259.597	61.95
259.814	-1.54
260.03	-9.73
260.246	31.23
260.463	88.57
260.679	102.91
260.895	39.42
261.112	123.39
261.328	29.18
261.544	59.9
261.761	41.47
261.977	-85.5
262.193	25.09
262.409	119.29
262.626	72.19
262.842	41.47
263.058	29.18
263.274	47.62
263.49	4.61
263.707	6.66
263.923	-3.58
264.139	-32.26
264.355	72.19
264.571	88.57
264.787	49.66
265.004	64
265.22	10.75
265.436	61.95
265.652	14.85
265.868	98.81
266.084	-1.54
266.3	90.62
266.516	-1.54
266.732	6.66
266.948	78.33
267.164	49.66
267.38	70.14
267.596	109.05
267.812	172.54
268.028	-26.11
268.244	59.9
268.46	16.9
268.676	18.94
268.892	78.33
269.108	2.56
269.324	-22.02
269.54	-36.35
269.756	76.29
269.972	31.23
270.188	53.76
270.403	-13.82
270.619	55.81
270.835	37.38
271.051	37.38
271.267	25.09
271.483	16.9
271.698	31.23
271.914	31.23
272.13	25.09
272.346	16.9
272.562	-11.78
272.777	74.24
272.993	68.09
273.209	2.56
273.425	-28.16
273.64	10.75
273.856	61.95
274.072	29.18
274.287	10.75
274.503	-9.73
274.719	4.61
274.934	-5.63
275.15	-1.54
275.366	109.05
275.581	53.76
275.797	14.85
276.012	107.01
276.228	70.14
276.444	2.56
276.659	78.33
276.875	68.09
277.09	23.04
277.306	33.28
277.521	49.66
277.737	6.66
277.952	51.71
278.168	16.9
278.383	121.34
278.599	45.57
278.814	47.62
279.03	-15.87
279.245	90.62
279.461	29.18
279.676	84.48
279.892	61.95
280.107	55.81
280.322	53.76
280.538	55.81
280.753	-48.64
280.969	25.09
281.184	43.52
281.399	145.92
281.615	49.66
281.83	109.05
282.045	-60.93
282.26	82.43
282.476	16.9
282.691	33.28
282.906	43.52
283.122	6.66
283.337	14.85
283.552	84.48
283.767	33.28
283.983	14.85
284.198	-3.58
284.413	55.81
284.628	23.04
284.843	-9.73
285.058	29.18
285.274	121.34
285.489	37.38
285.704	8.7
285.919	10.75
286.134	29.18
286.349	-44.54
286.564	10.75
286.779	68.09
286.995	20.99
287.21	18.94
287.425	27.14
287.64	74.24
287.855	16.9
288.07	12.8
288.285	37.38
288.5	53.76
288.715	23.04
288.93	64
289.145	78.33
289.36	72.19
289.575	49.66
289.79	23.04
290.004	47.62
290.219	109.05
290.434	33.28
290.649	-44.54
290.864	53.76
291.079	23.04
291.294	0.51
291.509	59.9
291.724	78.33
291.938	-36.35
292.153	80.38
292.368	72.19
292.583	53.76
292.798	80.38
293.012	18.94
293.227	61.95
293.442	-32.26
293.657	82.43
293.871	27.14
294.086	23.04
294.301	47.62
294.516	35.33
294.73	6.66
294.945	-28.16
295.16	4.61
295.374	39.42
295.589	45.57
295.804	72.19
296.018	84.48
296.233	113.15
296.447	68.09
296.662	-28.16
296.877	37.38
297.091	41.47
297.306	76.29
297.52	39.42
297.735	-42.5
297.949	53.76
298.164	96.77
298.378	20.99
298.593	43.52
298.807	39.42
299.022	45.57
299.236	94.72
299.451	88.57
299.665	-5.63
299.88	37.38
300.094	16.9
300.309	31.23
300.523	41.47
300.737	8.7
300.952	61.95
301.166	47.62
301.381	16.9
301.595	10.75
301.809	55.81
302.024	31.23
302.238	23.04
302.452	49.66
302.667	-7.68
302.881	47.62
303.095	23.04
303.309	72.19
303.524	47.62
303.738	115.2
303.952	-19.97
304.166	41.47
304.381	-9.73
304.595	14.85
304.809	25.09
305.023	-36.35
305.237	27.14
305.452	33.28
305.666	66.05
305.88	61.95
306.094	-15.87
306.308	-36.35
306.522	66.05
306.736	86.53
306.95	31.23
307.164	4.61
307.379	49.66
307.593	104.96
307.807	59.9
308.021	49.66
308.235	35.33
308.449	10.75
308.663	74.24
308.877	27.14
309.091	125.44
309.305	68.09
309.519	23.04
309.733	121.34
309.947	-7.68
310.161	90.62
310.374	90.62
310.588	94.72
310.802	16.9
311.016	6.66
311.23	64
311.444	45.57
311.658	37.38
311.872	84.48
312.085	25.09
312.299	6.66
312.513	29.18
312.727	84.48
312.941	66.05
313.154	10.75
313.368	53.76
313.582	92.67
313.796	16.9
314.009	12.8
314.223	14.85
314.437	135.68
314.651	98.81
314.864	-5.63
315.078	55.81
315.292	-85.5
315.505	39.42
315.719	64
315.933	113.15
316.146	4.61
316.36	16.9
316.573	96.77
316.787	72.19
317.001	64
317.214	23.04
317.428	47.62
317.641	-11.78
317.855	-1.54
318.068	39.42
318.282	152.06
318.495	47.62
318.709	160.25
318.922	31.23
319.136	86.53
319.349	123.39
319.563	70.14
319.776	31.23
319.99	12.8
320.203	8.7
320.417	90.62
320.63	25.09
320.843	82.43
321.057	0.51
321.27	6.66
321.483	70.14
321.697	25.09
321.91	47.62
322.124	59.9
322.337	23.04
322.55	37.38
322.763	78.33
322.977	14.85
323.19	2.56
323.403	39.42
323.617	49.66
323.83	68.09
324.043	82.43
324.256	55.81
324.469	8.7
324.683	64
324.896	70.14
325.109	31.23
325.322	78.33
325.535	29.18
325.748	-56.83
325.962	53.76
326.175	25.09
326.388	86.53
326.601	37.38
326.814	49.66
327.027	57.86
327.24	115.2
327.453	-67.07
327.666	86.53
327.879	104.96
328.092	86.53
328.305	66.05
328.518	74.24
328.731	109.05
328.944	25.09
329.157	82.43
329.37	51.71
329.583	45.57
329.796	104.96
330.009	16.9
330.222	18.94
330.435	76.29
330.648	61.95
330.861	12.8
331.073	8.7
331.286	37.38
331.499	39.42
331.712	20.99
331.925	29.18
332.138	70.14
332.35	102.91
332.563	-58.88
332.776	49.66
332.989	2.56
333.202	115.2
333.414	90.62
333.627	107.01
333.84	14.85
334.053	14.85
334.265	43.52
334.478	-24.06
334.691	0.51
334.903	64
335.116	20.99
335.329	31.23
335.541	74.24
335.754	33.28
335.966	94.72
336.179	16.9
336.392	23.04
336.604	37.38
336.817	-30.21
337.029	96.77
337.242	86.53
337.454	68.09
337.667	12.8
337.88	166.4
338.092	88.57
338.305	10.75
338.517	12.8
338.729	55.81
338.942	57.86
339.154	59.9
339.367	41.47
339.579	102.91
339.792	-9.73
340.004	6.66
340.217	66.05
340.429	102.91
340.641	25.09
340.854	-15.87
341.066	96.77
341.278	51.71
341.491	59.9
341.703	107.01
341.915	-19.97
342.128	-9.73
342.34	39.42
342.552	14.85
342.764	82.43
342.977	51.71
343.189	-1.54
343.401	23.04
343.613	-7.68
343.826	94.72
344.038	31.23
344.25	12.8
344.462	121.34
344.674	55.81
344.886	59.9
345.099	88.57
345.311	49.66
345.523	-54.78
345.735	14.85
345.947	72.19
346.159	8.7
346.371	57.86
346.583	80.38
346.795	125.44
347.007	6.66
347.219	102.91
347.431	61.95
347.643	72.19
347.855	35.33
348.067	70.14
348.279	8.7
348.491	35.33
348.703	129.53
348.915	-26.11
349.127	23.04
349.339	12.8
349.551	115.2
349.763	55.81
349.975	96.77
350.187	45.57
350.399	82.43
350.61	61.95
350.822	49.66
351.034	41.47
351.246	-15.87
351.458	51.71
351.669	45.57
351.881	70.14
352.093	-44.54
352.305	61.95
352.517	92.67
352.728	86.53
352.94	41.47
353.152	49.66
353.363	25.09
353.575	33.28
353.787	33.28
353.999	23.04
354.21	94.72
354.422	-3.58
354.633	23.04
354.845	64
355.057	6.66
355.268	45.57
355.48	80.38
355.692	14.85
355.903	70.14
356.115	-36.35
356.326	8.7
356.538	94.72
356.749	82.43
356.961	109.05
357.172	61.95
357.384	-28.16
357.595	57.86
357.807	10.75
358.018	61.95
358.23	-32.26
358.441	25.09
358.653	90.62
358.864	33.28
359.075	-34.3
359.287	49.66
359.498	88.57
359.709	25.09
359.921	-26.11
360.132	76.29
360.344	31.23
360.555	-7.68
360.766	37.38
360.977	12.8
361.189	53.76
361.4	25.09
361.611	41.47
361.823	92.67
362.034	133.63
362.245	-69.12
362.456	104.96
362.667	74.24
362.879	14.85
363.09	31.23
363.301	88.57
363.512	53.76
363.723	-46.59
363.935	51.71
364.146	111.1
364.357	113.15
364.568	72.19
364.779	6.66
364.99	115.2
365.201	25.09
365.412	51.71
365.623	29.18
365.834	49.66
366.045	59.9
366.256	53.76
366.467	59.9
366.678	35.33
366.889	66.05
367.1	2.56
367.311	23.04
367.522	49.66
367.733	59.9
367.944	117.25
368.155	23.04
368.366	137.73
368.577	98.81
368.788	94.72
368.999	20.99
369.209	47.62
369.42	78.33
369.631	129.53
369.842	82.43
370.053	82.43
370.264	35.33
370.474	74.24
370.685	113.15
370.896	29.18
371.107	72.19
371.317	39.42
371.528	12.8
371.739	57.86
371.95	25.09
372.16	113.15
372.371	29.18
372.582	72.19
372.792	90.62
373.003	37.38
373.214	39.42
373.424	12.8
373.635	-7.68
373.846	96.77
374.056	55.81
374.267	104.96
374.477	4.61
374.688	-24.06
374.898	68.09
375.109	45.57
375.319	107.01
375.53	125.44
375.74	31.23
375.951	43.52
376.161	31.23
376.372	113.15
376.582	39.42
376.793	39.42
377.003	66.05
377.214	33.28
377.424	53.76
377.635	84.48
377.845	-7.68
378.055	43.52
378.266	31.23
378.476	16.9
378.686	80.38
378.897	41.47
379.107	88.57
379.317	96.77
379.528	45.57
379.738	102.91
379.948	-48.64
380.158	76.29
380.369	72.19
380.579	8.7
380.789	41.47
380.999	66.05
381.21	111.1
381.42	137.73
381.63	6.66
381.84	23.04
382.05	90.62
382.261	53.76
382.471	61.95
382.681	104.96
382.891	72.19
383.101	92.67
383.311	-17.92
383.521	61.95
383.731	51.71
383.941	45.57
384.151	33.28
384.361	131.58
384.571	94.72
384.781	113.15
384.991	74.24
385.201	197.12
385.411	64
385.621	109.05
385.831	18.94
386.041	82.43
386.251	70.14
386.461	96.77
386.671	14.85
386.881	18.94
387.091	25.09
387.301	90.62
387.511	43.52
387.72	51.71
387.93	123.39
388.14	55.81
388.35	70.14
388.56	72.19
388.769	92.67
388.979	113.15
389.189	51.71
389.399	29.18
389.609	115.2
389.818	57.86
390.028	96.77
390.238	55.81
390.447	41.47
390.657	150.01
390.867	104.96
391.076	57.86
391.286	125.44
391.496	61.95
391.705	55.81
391.915	117.25
392.125	64
392.334	-34.3
392.544	154.11
392.753	66.05
392.963	66.05
393.172	104.96
393.382	41.47
393.591	145.92
393.801	59.9
394.01	41.47
394.22	100.86
394.429	51.71
394.639	158.21
394.848	102.91
395.058	84.48
395.267	133.63
395.477	184.83
395.686	88.57
395.895	135.68
396.105	111.1
396.314	80.38
396.524	123.39
396.733	141.82
396.942	88.57
397.152	84.48
397.361	96.77
397.57	68.09
397.78	82.43
397.989	92.67
398.198	203.26
398.407	133.63
398.617	59.9
398.826	88.57
399.035	104.96
399.244	111.1
399.453	123.39
399.663	111.1
399.872	207.36
400.081	57.86
400.29	197.12
400.499	39.42
400.708	141.82
400.917	88.57
401.127	139.77
401.336	78.33
401.545	168.45
401.754	125.44
401.963	158.21
402.172	92.67
402.381	123.39
402.59	178.69
402.799	113.15
403.008	150.01
403.217	197.12
403.426	117.25
403.635	109.05
403.844	123.39
404.053	168.45
404.262	170.49
404.471	229.88
404.68	119.29
404.888	109.05
405.097	115.2
405.306	158.21
405.515	182.78
405.724	231.93
405.933	178.69
406.142	162.3
406.35	113.15
406.559	139.77
406.768	176.64
406.977	207.36
407.185	203.26
407.394	281.08
407.603	156.16
407.812	176.64
408.02	289.28
408.229	182.78
408.438	207.36
408.646	270.84
408.855	348.67
409.064	217.6
409.272	215.55
409.481	270.84
409.69	236.03
409.898	225.79
410.107	279.04
410.315	344.57
410.524	270.84
410.733	326.14
410.941	307.71
411.15	324.09
411.358	363
411.567	395.77
411.775	365.05
411.984	496.12
412.192	461.3
412.401	420.35
412.609	530.94
412.818	457.21
413.026	518.65
413.234	510.46
413.443	553.46
413.651	592.37
413.86	664.05
414.068	659.96
414.276	598.52
414.485	659.96
414.693	635.38
414.901	684.53
415.11	676.34
415.318	715.25
415.526	754.16
415.734	821.75
415.943	788.98
416.151	739.83
416.359	850.42
416.567	850.42
416.776	897.52
416.984	903.67
417.192	1030.64
417.4	977.39
417.608	1008.11
417.817	1092.08
418.025	1077.74
418.233	1233.39
418.441	1204.72
418.649	1219.05
418.857	1313.26
419.065	1253.87
419.273	1247.72
419.481	1386.99
419.689	1421.8
419.897	1518.06
420.105	1577.45
420.313	1573.35
420.521	1708.52
420.729	1698.28
420.937	1698.28
421.145	1839.59
421.353	2015.71
421.561	1896.93
421.769	2015.71
421.977	2030.05
422.185	1964.51
422.393	2202.08
422.601	2288.09
422.809	2284
423.017	2443.74
423.224	2486.75
423.432	2437.59
423.64	2476.51
423.848	2785.75
424.056	2583
424.263	2830.8
424.471	2933.2
424.679	2974.16
424.887	3260.88
425.094	3314.13
425.302	3398.09
425.51	3334.61
425.718	3414.48
425.925	3570.12
426.133	3541.45
426.341	3832.26
426.548	4010.43
426.756	3807.69
426.964	4065.73
427.171	4204.99
427.379	4452.8
427.586	4422.08
427.794	4602.3
428.001	4770.23
428.209	5071.28
428.417	4876.73
428.624	5257.65
428.832	5192.11
429.039	5314.99
429.247	5282.22
429.454	5679.53
429.662	5999.01
429.869	5794.22
430.076	6173.09
430.284	5972.39
430.491	6384.03
430.699	6410.65
430.906	6570.4
431.114	6613.4
431.321	6896.02
431.528	7156.11
431.736	7362.96
431.943	7801.22
432.15	7610.76
432.358	7621
432.565	8212.87
432.772	8130.95
432.979	8429.95
433.187	8669.56
433.394	8608.12
433.601	9443.7
433.808	9445.74
434.016	9382.26
434.223	9838.95
434.43	10269.03
434.637	10172.77
434.844	10711.39
435.052	10912.09
435.259	10776.92
435.466	10836.31
435.673	10705.24
435.88	11673.93
436.087	11952.46
436.294	11942.22
436.501	11790.67
436.708	12022.09
436.915	12724.54
437.122	13019.45
437.329	12845.37
437.537	13465.91
437.743	13781.29
437.95	13605.17
438.157	14162.22
438.364	14772.51
438.571	14663.97
438.778	14838.05
438.985	16199.94
439.192	15524.12
439.399	15786.26
439.606	15755.54
439.813	16685.31
440.02	17656.05
440.227	17379.57
440.433	17090.81
440.64	17510.64
440.847	17563.89
441.054	17955.05
441.261	19153.12
441.467	19173.6
441.674	19345.62
441.881	20164.81
442.088	19990.73
442.294	20025.55
442.501	20230.35
442.708	21067.97
442.914	21764.28
443.121	22311.08
443.328	21866.67
443.534	23490.71
443.741	22595.75
443.948	22724.77
444.154	24080.53
444.361	23926.93
444.568	24144.02
444.774	24023.19
444.981	24352.91
445.187	24946.82
445.394	26077.3
445.6	26001.52
445.807	28225.62
446.013	27240.54
446.22	27670.62
446.426	28745.8
446.633	29200.45
446.839	29880.38
447.046	28960.84
447.252	30425.14
447.459	30275.63
447.665	30222.39
447.871	31305.76
448.078	32649.23
448.284	31402.02
448.491	32000.02
448.697	33595.39
448.903	34068.47
449.11	34279.41
449.316	33705.98
449.522	34199.54
449.728	34977.77
449.935	35633.12
450.141	35205.09
450.347	36345.81
450.553	34918.38
450.76	35684.32
450.966	36753.36
451.172	36638.67
451.378	37429.19
451.584	36734.93
451.791	37351.37
451.997	37441.48
452.203	38016.96
452.409	38344.63
452.615	37937.09
452.821	36304.85
453.027	36138.97
453.233	37947.32
453.44	36382.68
453.646	36835.28
453.852	37097.42
454.058	37658.56
454.264	36179.93
454.47	37590.98
454.676	36440.02
454.882	37531.59
455.088	34293.75
455.294	34842.6
455.5	35721.18
455.705	35997.66
455.911	34496.5
456.117	33533.95
456.323	33198.09
456.529	31412.26
456.735	32864.27
456.941	32303.12
457.147	31672.35
457.352	30621.74
457.558	30564.4
457.764	30720.04
457.97	30031.93
458.176	29188.16
458.381	29640.76
458.587	27697.24
458.793	27760.73
458.999	26450.03
459.204	28422.22
459.41	27525.21
459.616	25735.29
459.821	25346.17
460.027	25819.25
460.233	25221.25
460.438	23787.67
460.644	24062.1
460.85	22818.98
461.055	22665.38
461.261	22839.46
461.466	20725.96
461.672	20078.8
461.878	21915.83
462.083	20144.33
462.289	20046.03
462.494	19556.57
462.7	18907.36
462.905	18354.41
463.111	18747.62
463.316	18999.52
463.522	18542.82
463.727	18624.74
463.932	18489.57
464.138	18428.13
464.343	18569.44
464.549	17807.6
464.754	18493.67
464.959	18186.47
465.165	18092.27
465.37	17400.05
465.575	16871.68
465.781	17852.66
465.986	17979.63
466.191	17287.42
466.397	16759.04
466.602	16099.59
466.807	16353.54
467.012	16523.52
467.218	16544
467.423	16251.14
467.628	16345.35
467.833	17338.62
