Data from USB4F104151__1__11-44-21-616.txt Node

Date: Fri Mar 14 11:44:21 EDT 2025
User: louis
Spectrometer: USB4F10415
Trigger mode: 4
Integration Time (sec): 2.000000E-2
Scans to average: 1
Electric dark correction enabled: true
Nonlinearity correction enabled: false
Boxcar width: 0
XAxis mode: Wavelengths
Number of Pixels in Spectrum: 3648
>>>>>Begin Spectral Data<<<<<
178.204	-53.42
178.424	-53.42
178.644	-53.42
178.864	-69.8
179.084	-51.37
179.304	46.93
179.524	-4.27
179.744	-30.89
179.964	75.6
180.184	-86.19
180.404	12.12
180.624	14.17
180.844	1.88
181.064	-98.47
181.283	42.84
181.503	40.79
181.723	-14.51
181.943	-18.6
182.163	22.36
182.383	-125.1
182.602	42.84
182.822	48.98
183.042	48.98
183.262	38.74
183.482	12.12
183.701	-26.79
183.921	40.79
184.141	48.98
184.361	14.17
184.58	26.45
184.8	24.4
185.02	5.97
185.239	36.69
185.459	-0.17
185.679	85.84
185.898	-41.13
186.118	67.41
186.338	-12.46
186.557	48.98
186.777	-16.55
186.997	26.45
187.216	-6.31
187.436	147.28
187.655	3.93
187.875	126.8
188.095	3.93
188.314	-10.41
188.534	77.65
188.753	-8.36
188.973	-26.79
189.192	32.6
189.412	3.93
189.631	-14.51
189.851	16.21
190.07	14.17
190.29	-41.13
190.509	-28.84
190.729	-16.55
190.948	16.21
191.168	110.42
191.387	98.13
191.607	30.55
191.826	48.98
192.045	38.74
192.265	55.12
192.484	-4.27
192.704	98.13
192.923	10.07
193.142	108.37
193.362	-30.89
193.581	67.41
193.8	106.32
194.02	63.32
194.239	55.12
194.458	46.93
194.678	20.31
194.897	-28.84
195.116	38.74
195.335	46.93
195.555	-55.47
195.774	8.02
195.993	5.97
196.212	36.69
196.432	38.74
196.651	-8.36
196.87	-0.17
197.089	122.71
197.308	-10.41
197.528	69.46
197.747	18.26
197.966	79.7
198.185	46.93
198.404	81.75
198.623	30.55
198.842	102.23
199.062	30.55
199.281	63.32
199.5	-39.08
199.719	-22.7
199.938	59.22
200.157	73.56
200.376	55.12
200.595	67.41
200.814	65.36
201.033	48.98
201.252	5.97
201.471	30.55
201.69	112.47
201.909	1.88
202.128	83.8
202.347	-0.17
202.566	132.95
202.785	44.88
203.004	26.45
203.223	26.45
203.442	42.84
203.661	51.03
203.879	40.79
204.098	26.45
204.317	42.84
204.536	26.45
204.755	22.36
204.974	-0.17
205.193	-41.13
205.411	36.69
205.63	104.28
205.849	-34.99
206.068	-43.18
206.287	42.84
206.505	-6.31
206.724	-41.13
206.943	-20.65
207.162	-0.17
207.381	-28.84
207.599	51.03
207.818	94.04
208.037	16.21
208.255	36.69
208.474	65.36
208.693	14.17
208.911	65.36
209.13	38.74
209.349	24.4
209.567	32.6
209.786	73.56
210.005	61.27
210.223	112.47
210.442	12.12
210.661	10.07
210.879	24.4
211.098	53.08
211.316	67.41
211.535	81.75
211.753	91.99
211.972	98.13
212.191	-0.17
212.409	18.26
212.628	22.36
212.846	53.08
213.065	44.88
213.283	59.22
213.502	59.22
213.72	-14.51
213.938	30.55
214.157	-8.36
214.375	73.56
214.594	20.31
214.812	36.69
215.031	73.56
215.249	40.79
215.467	32.6
215.686	-26.79
215.904	61.27
216.122	18.26
216.341	42.84
216.559	57.17
216.778	5.97
216.996	71.51
217.214	14.17
217.432	12.12
217.651	65.36
217.869	24.4
218.087	26.45
218.306	14.17
218.524	75.6
218.742	79.7
218.96	10.07
219.179	57.17
219.397	-65.71
219.615	91.99
219.833	85.84
220.051	-0.17
220.27	46.93
220.488	65.36
220.706	-37.03
220.924	126.8
221.142	-10.41
221.36	20.31
221.578	-4.27
221.796	112.47
222.015	71.51
222.233	102.23
222.451	32.6
222.669	-32.94
222.887	91.99
223.105	-22.7
223.323	48.98
223.541	-65.71
223.759	65.36
223.977	67.41
224.195	20.31
224.413	85.84
224.631	65.36
224.849	24.4
225.067	69.46
225.285	26.45
225.503	28.5
225.721	46.93
225.939	-22.7
226.157	12.12
226.375	116.56
226.592	28.5
226.81	46.93
227.028	85.84
227.246	71.51
227.464	14.17
227.682	57.17
227.9	98.13
228.117	-0.17
228.335	34.64
228.553	40.79
228.771	28.5
228.989	94.04
229.206	71.51
229.424	53.08
229.642	73.56
229.86	55.12
230.077	-4.27
230.295	3.93
230.513	57.17
230.731	57.17
230.948	83.8
231.166	96.08
231.384	10.07
231.601	79.7
231.819	77.65
232.037	77.65
232.254	-18.6
232.472	94.04
232.689	5.97
232.907	16.21
233.125	32.6
233.342	59.22
233.56	12.12
233.777	44.88
233.995	30.55
234.213	22.36
234.43	57.17
234.648	87.89
234.865	22.36
235.083	55.12
235.3	26.45
235.518	110.42
235.735	69.46
235.953	51.03
236.17	46.93
236.388	63.32
236.605	16.21
236.822	139.09
237.04	18.26
237.257	57.17
237.475	22.36
237.692	67.41
237.909	-6.31
238.127	14.17
238.344	98.13
238.562	-4.27
238.779	-39.08
238.996	42.84
239.214	34.64
239.431	100.18
239.648	-24.75
239.865	14.17
240.083	73.56
240.3	79.7
240.517	71.51
240.735	48.98
240.952	32.6
241.169	28.5
241.386	32.6
241.603	-16.55
241.821	40.79
242.038	55.12
242.255	16.21
242.472	48.98
242.689	57.17
242.907	96.08
243.124	57.17
243.341	-10.41
243.558	51.03
243.775	16.21
243.992	-20.65
244.209	44.88
244.426	79.7
244.643	53.08
244.86	40.79
245.078	24.4
245.295	20.31
245.512	132.95
245.729	14.17
245.946	94.04
246.163	65.36
246.38	40.79
246.597	14.17
246.814	24.4
247.031	75.6
247.248	42.84
247.464	48.98
247.681	14.17
247.898	20.31
248.115	44.88
248.332	12.12
248.549	14.17
248.766	77.65
248.983	83.8
249.2	59.22
249.417	81.75
249.633	28.5
249.85	-55.47
250.067	73.56
250.284	79.7
250.501	12.12
250.717	-22.7
250.934	-16.55
251.151	-10.41
251.368	-51.37
251.585	73.56
251.801	63.32
252.018	61.27
252.235	108.37
252.451	38.74
252.668	16.21
252.885	59.22
253.102	96.08
253.318	30.55
253.535	63.32
253.752	77.65
253.968	26.45
254.185	46.93
254.401	-28.84
254.618	71.51
254.835	48.98
255.051	114.52
255.268	34.64
255.484	-32.94
255.701	12.12
255.917	22.36
256.134	42.84
256.351	102.23
256.567	83.8
256.784	22.36
257	5.97
257.217	26.45
257.433	1.88
257.65	61.27
257.866	42.84
258.082	1.88
258.299	26.45
258.515	14.17
258.732	20.31
258.948	77.65
259.165	42.84
259.381	-0.17
259.597	44.88
259.814	94.04
260.03	12.12
260.246	32.6
260.463	-4.27
260.679	32.6
260.895	-51.37
261.112	151.38
261.328	-37.03
261.544	36.69
261.761	22.36
261.977	75.6
262.193	55.12
262.409	102.23
262.626	40.79
262.842	51.03
263.058	65.36
263.274	63.32
263.49	69.46
263.707	85.84
263.923	89.94
264.139	32.6
264.355	14.17
264.571	147.28
264.787	44.88
265.004	53.08
265.22	34.64
265.436	79.7
265.652	55.12
265.868	61.27
266.084	22.36
266.3	40.79
266.516	30.55
266.732	8.02
266.948	71.51
267.164	38.74
267.38	79.7
267.596	77.65
267.812	44.88
268.028	40.79
268.244	63.32
268.46	24.4
268.676	30.55
268.892	53.08
269.108	8.02
269.324	14.17
269.54	34.64
269.756	44.88
269.972	42.84
270.188	100.18
270.403	20.31
270.619	18.26
270.835	118.61
271.051	-2.22
271.267	28.5
271.483	42.84
271.698	-8.36
271.914	44.88
272.13	28.5
272.346	51.03
272.562	57.17
272.777	51.03
272.993	14.17
273.209	5.97
273.425	18.26
273.64	18.26
273.856	106.32
274.072	46.93
274.287	71.51
274.503	30.55
274.719	73.56
274.934	94.04
275.15	-28.84
275.366	40.79
275.581	28.5
275.797	71.51
276.012	-34.99
276.228	24.4
276.444	106.32
276.659	73.56
276.875	40.79
277.09	65.36
277.306	61.27
277.521	-18.6
277.737	83.8
277.952	57.17
278.168	94.04
278.383	77.65
278.599	53.08
278.814	79.7
279.03	-0.17
279.245	61.27
279.461	26.45
279.676	5.97
279.892	-0.17
280.107	-0.17
280.322	89.94
280.538	36.69
280.753	1.88
280.969	14.17
281.184	8.02
281.399	5.97
281.615	-12.46
281.83	46.93
282.045	26.45
282.26	69.46
282.476	48.98
282.691	26.45
282.906	18.26
283.122	5.97
283.337	65.36
283.552	63.32
283.767	46.93
283.983	30.55
284.198	16.21
284.413	73.56
284.628	5.97
284.843	69.46
285.058	73.56
285.274	73.56
285.489	38.74
285.704	59.22
285.919	67.41
286.134	53.08
286.349	-0.17
286.564	44.88
286.779	65.36
286.995	53.08
287.21	-59.56
287.425	32.6
287.64	36.69
287.855	112.47
288.07	65.36
288.285	106.32
288.5	48.98
288.715	32.6
288.93	53.08
289.145	77.65
289.36	46.93
289.575	61.27
289.79	40.79
290.004	48.98
290.219	122.71
290.434	40.79
290.649	8.02
290.864	73.56
291.079	18.26
291.294	38.74
291.509	42.84
291.724	57.17
291.938	-26.79
292.153	32.6
292.368	114.52
292.583	3.93
292.798	83.8
293.012	65.36
293.227	73.56
293.442	71.51
293.657	42.84
293.871	32.6
294.086	42.84
294.301	73.56
294.516	135
294.73	-12.46
294.945	18.26
295.16	-39.08
295.374	20.31
295.589	100.18
295.804	16.21
296.018	59.22
296.233	38.74
296.447	116.56
296.662	48.98
296.877	53.08
297.091	69.46
297.306	32.6
297.52	16.21
297.735	65.36
297.949	-24.75
298.164	46.93
298.378	18.26
298.593	-2.22
298.807	114.52
299.022	51.03
299.236	3.93
299.451	14.17
299.665	-28.84
299.88	26.45
300.094	-0.17
300.309	-14.51
300.523	10.07
300.737	57.17
300.952	36.69
301.166	89.94
301.381	-4.27
301.595	112.47
301.809	83.8
302.024	96.08
302.238	10.07
302.452	14.17
302.667	28.5
302.881	98.13
303.095	12.12
303.309	42.84
303.524	57.17
303.738	77.65
303.952	-2.22
304.166	28.5
304.381	36.69
304.595	135
304.809	55.12
305.023	40.79
305.237	120.66
305.452	77.65
305.666	63.32
305.88	118.61
306.094	85.84
306.308	149.33
306.522	24.4
306.736	30.55
306.95	73.56
307.164	28.5
307.379	32.6
307.593	87.89
307.807	-0.17
308.021	100.18
308.235	85.84
308.449	26.45
308.663	53.08
308.877	96.08
309.091	48.98
309.305	77.65
309.519	71.51
309.733	75.6
309.947	8.02
310.161	36.69
310.374	81.75
310.588	91.99
310.802	44.88
311.016	3.93
311.23	22.36
311.444	32.6
311.658	12.12
311.872	85.84
312.085	40.79
312.299	61.27
312.513	46.93
312.727	36.69
312.941	14.17
313.154	77.65
313.368	16.21
313.582	89.94
313.796	61.27
314.009	48.98
314.223	83.8
314.437	83.8
314.651	69.46
314.864	67.41
315.078	12.12
315.292	83.8
315.505	48.98
315.719	12.12
315.933	40.79
316.146	81.75
316.36	51.03
316.573	98.13
316.787	32.6
317.001	61.27
317.214	18.26
317.428	-6.31
317.641	16.21
317.855	28.5
318.068	28.5
318.282	65.36
318.495	81.75
318.709	40.79
318.922	57.17
319.136	85.84
319.349	32.6
319.563	34.64
319.776	32.6
319.99	-39.08
320.203	100.18
320.417	38.74
320.63	-16.55
320.843	81.75
321.057	-6.31
321.27	26.45
321.483	71.51
321.697	32.6
321.91	42.84
322.124	110.42
322.337	61.27
322.55	40.79
322.763	26.45
322.977	118.61
323.19	-12.46
323.403	26.45
323.617	-10.41
323.83	69.46
324.043	61.27
324.256	16.21
324.469	57.17
324.683	85.84
324.896	73.56
325.109	36.69
325.322	42.84
325.535	59.22
325.748	87.89
325.962	57.17
326.175	65.36
326.388	30.55
326.601	106.32
326.814	51.03
327.027	59.22
327.24	73.56
327.453	59.22
327.666	75.6
327.879	40.79
328.092	67.41
328.305	46.93
328.518	48.98
328.731	61.27
328.944	118.61
329.157	5.97
329.37	26.45
329.583	65.36
329.796	73.56
330.009	28.5
330.222	36.69
330.435	8.02
330.648	51.03
330.861	3.93
331.073	106.32
331.286	130.9
331.499	53.08
331.712	114.52
331.925	81.75
332.138	38.74
332.35	48.98
332.563	34.64
332.776	77.65
332.989	-18.6
333.202	75.6
333.414	-28.84
333.627	30.55
333.84	12.12
334.053	48.98
334.265	-28.84
334.478	3.93
334.691	63.32
334.903	26.45
335.116	75.6
335.329	28.5
335.541	116.56
335.754	22.36
335.966	63.32
336.179	28.5
336.392	61.27
336.604	14.17
336.817	28.5
337.029	42.84
337.242	24.4
337.454	59.22
337.667	65.36
337.88	77.65
338.092	48.98
338.305	130.9
338.517	-8.36
338.729	67.41
338.942	53.08
339.154	-8.36
339.367	-0.17
339.579	10.07
339.792	16.21
340.004	38.74
340.217	3.93
340.429	-12.46
340.641	57.17
340.854	98.13
341.066	135
341.278	85.84
341.491	55.12
341.703	130.9
341.915	102.23
342.128	112.47
342.34	83.8
342.552	-0.17
342.764	139.09
342.977	98.13
343.189	91.99
343.401	12.12
343.613	67.41
343.826	46.93
344.038	8.02
344.25	20.31
344.462	36.69
344.674	67.41
344.886	81.75
345.099	83.8
345.311	73.56
345.523	-8.36
345.735	44.88
345.947	73.56
346.159	40.79
346.371	89.94
346.583	98.13
346.795	108.37
347.007	71.51
347.219	40.79
347.431	-12.46
347.643	26.45
347.855	48.98
348.067	34.64
348.279	-18.6
348.491	40.79
348.703	48.98
348.915	46.93
349.127	87.89
349.339	81.75
349.551	112.47
349.763	71.51
349.975	153.43
350.187	108.37
350.399	65.36
350.61	30.55
350.822	-4.27
351.034	106.32
351.246	10.07
351.458	126.8
351.669	85.84
351.881	128.85
352.093	38.74
352.305	112.47
352.517	85.84
352.728	24.4
352.94	149.33
353.152	24.4
353.363	20.31
353.575	67.41
353.787	40.79
353.999	59.22
354.21	106.32
354.422	22.36
354.633	-2.22
354.845	46.93
355.057	32.6
355.268	28.5
355.48	57.17
355.692	26.45
355.903	38.74
356.115	3.93
356.326	32.6
356.538	108.37
356.749	14.17
356.961	98.13
357.172	-12.46
357.384	57.17
357.595	32.6
357.807	57.17
358.018	51.03
358.23	65.36
358.441	34.64
358.653	61.27
358.864	53.08
359.075	85.84
359.287	8.02
359.498	53.08
359.709	91.99
359.921	102.23
360.132	30.55
360.344	75.6
360.555	75.6
360.766	55.12
360.977	100.18
361.189	48.98
361.4	30.55
361.611	87.89
361.823	67.41
362.034	42.84
362.245	-88.23
362.456	32.6
362.667	71.51
362.879	128.85
363.09	8.02
363.301	48.98
363.512	102.23
363.723	32.6
363.935	22.36
364.146	83.8
364.357	46.93
364.568	48.98
364.779	18.26
364.99	73.56
365.201	42.84
365.412	79.7
365.623	28.5
365.834	65.36
366.045	5.97
366.256	114.52
366.467	81.75
366.678	-34.99
366.889	71.51
367.1	94.04
367.311	40.79
367.522	-4.27
367.733	98.13
367.944	55.12
368.155	-26.79
368.366	149.33
368.577	32.6
368.788	98.13
368.999	65.36
369.209	102.23
369.42	63.32
369.631	169.81
369.842	94.04
370.053	57.17
370.264	108.37
370.474	40.79
370.685	5.97
370.896	-14.51
371.107	44.88
371.317	112.47
371.528	36.69
371.739	102.23
371.95	48.98
372.16	106.32
372.371	53.08
372.582	-4.27
372.792	98.13
373.003	53.08
373.214	-37.03
373.424	63.32
373.635	40.79
373.846	200.53
374.056	79.7
374.267	110.42
374.477	53.08
374.688	-20.65
374.898	163.67
375.109	-6.31
375.319	71.51
375.53	65.36
375.74	83.8
375.951	18.26
376.161	106.32
376.372	100.18
376.582	59.22
376.793	77.65
377.003	53.08
377.214	14.17
377.424	94.04
377.635	44.88
377.845	44.88
378.055	81.75
378.266	28.5
378.476	16.21
378.686	63.32
378.897	81.75
379.107	96.08
379.317	53.08
379.528	81.75
379.738	73.56
379.948	104.28
380.158	57.17
380.369	87.89
380.579	36.69
380.789	89.94
380.999	16.21
381.21	73.56
381.42	87.89
381.63	24.4
381.84	143.19
382.05	40.79
382.261	81.75
382.471	24.4
382.681	69.46
382.891	94.04
383.101	46.93
383.311	53.08
383.521	67.41
383.731	65.36
383.941	85.84
384.151	18.26
384.361	3.93
384.571	73.56
384.781	87.89
384.991	116.56
385.201	69.46
385.411	102.23
385.621	40.79
385.831	128.85
386.041	30.55
386.251	63.32
386.461	87.89
386.671	30.55
386.881	61.27
387.091	118.61
387.301	8.02
387.511	5.97
387.72	180.05
387.93	130.9
388.14	-16.55
388.35	79.7
388.56	57.17
388.769	124.76
388.979	71.51
389.189	59.22
389.399	61.27
389.609	85.84
389.818	20.31
390.028	91.99
390.238	69.46
390.447	46.93
390.657	53.08
390.867	73.56
391.076	24.4
391.286	110.42
391.496	128.85
391.705	65.36
391.915	91.99
392.125	151.38
392.334	71.51
392.544	112.47
392.753	12.12
392.963	10.07
393.172	18.26
393.382	67.41
393.591	153.43
393.801	36.69
394.01	96.08
394.22	165.71
394.429	143.19
394.639	102.23
394.848	96.08
395.058	51.03
395.267	20.31
395.477	135
395.686	83.8
395.895	128.85
396.105	63.32
396.314	96.08
396.524	24.4
396.733	110.42
396.942	163.67
397.152	71.51
397.361	124.76
397.57	98.13
397.78	10.07
397.989	83.8
398.198	91.99
398.407	151.38
398.617	71.51
398.826	112.47
399.035	114.52
399.244	98.13
399.453	73.56
399.663	147.28
399.872	94.04
400.081	120.66
400.29	147.28
400.499	128.85
400.708	106.32
400.917	128.85
401.127	114.52
401.336	143.19
401.545	126.8
401.754	114.52
401.963	100.18
402.172	173.91
402.381	165.71
402.59	155.47
402.799	141.14
403.008	124.76
403.217	98.13
403.426	163.67
403.635	145.24
403.844	98.13
404.053	184.15
404.262	91.99
404.471	204.63
404.68	137.04
404.888	184.15
405.097	77.65
405.306	98.13
405.515	161.62
405.724	135
405.933	171.86
406.142	169.81
406.35	206.67
406.559	194.39
406.768	184.15
406.977	229.2
407.185	196.43
407.394	200.53
407.603	200.53
407.812	221.01
408.02	245.59
408.229	278.35
408.438	284.5
408.646	173.91
408.855	237.39
409.064	270.16
409.272	257.87
409.481	257.87
409.69	253.78
409.898	212.82
410.107	300.88
410.315	388.94
410.524	276.31
410.733	307.02
410.941	307.02
411.15	327.5
411.358	425.81
411.567	401.23
411.775	386.9
411.984	413.52
412.192	429.9
412.401	409.42
412.609	423.76
412.818	421.71
413.026	444.24
413.234	571.21
413.443	540.49
413.651	599.88
413.86	565.07
414.068	577.36
414.276	526.16
414.485	616.27
414.693	591.69
414.901	685.9
415.11	718.67
415.318	649.04
415.526	698.19
415.734	786.25
415.943	753.48
416.151	714.57
416.359	847.69
416.567	839.5
416.776	892.74
416.984	941.89
417.192	956.23
417.4	927.56
417.608	907.08
417.817	968.52
418.025	1179.46
418.233	1138.5
418.441	972.61
418.649	1054.53
418.857	1206.08
419.065	1259.33
419.273	1247.04
419.481	1404.74
419.689	1333.06
419.897	1402.69
420.105	1457.98
420.313	1523.52
420.521	1603.39
420.729	1564.48
420.937	1591.1
421.145	1687.36
421.353	1789.75
421.561	1816.38
421.769	1972.02
421.977	1922.87
422.185	1916.73
422.393	2051.89
422.601	2232.12
422.809	2232.12
423.017	2101.05
423.224	2248.5
423.432	2381.62
423.64	2447.15
423.848	2578.22
424.056	2549.55
424.263	2690.86
424.471	2797.35
424.679	2768.68
424.887	2901.8
425.094	3030.82
425.302	2983.72
425.51	3198.76
425.718	3192.61
425.925	3325.73
426.133	3436.32
426.341	3663.65
426.548	3741.47
426.756	3661.6
426.964	3823.39
427.171	4079.38
427.379	4110.1
427.586	4230.93
427.794	4300.56
428.001	4407.06
428.209	4747.02
428.417	4828.94
428.624	4873.99
428.832	5037.83
429.039	4843.28
429.247	4826.89
429.454	5400.32
429.662	5832.44
429.869	5349.12
430.076	5723.9
430.284	5539.58
430.491	5867.26
430.699	6162.17
430.906	6012.67
431.114	6274.81
431.321	6733.55
431.528	6643.44
431.736	7085.8
431.943	7384.8
432.15	7159.53
432.358	7169.77
432.565	7724.77
432.772	7614.18
432.979	8093.4
433.187	7943.9
433.394	8216.28
433.601	8912.59
433.808	8775.38
434.016	8730.32
434.223	9223.88
434.43	9653.95
434.637	9533.12
434.844	10059.45
435.052	10184.38
435.259	10294.97
435.466	10268.34
435.673	10256.06
435.88	10909.36
436.087	11456.17
436.294	11497.13
436.501	11284.14
436.708	11441.83
436.915	11882.14
437.122	12297.88
437.329	12435.1
437.537	12840.59
437.743	12934.8
437.95	12879.5
438.157	13371.02
438.364	13880.96
438.571	13934.21
438.778	13762.18
438.985	15115.89
439.192	14413.43
439.399	15156.85
439.606	14751.35
439.813	15560.3
440.02	16623.19
440.227	16195.17
440.433	15973.99
440.64	16690.77
440.847	16422.49
441.054	17061.46
441.261	18245.18
441.467	17462.86
441.674	18316.86
441.881	18828.85
442.088	18968.12
442.294	18742.84
442.501	19162.67
442.708	19623.47
442.914	20385.31
443.121	21302.8
443.328	20469.28
443.534	22162.95
443.741	21485.07
443.948	20872.73
444.154	22748.67
444.361	22498.81
444.568	22912.5
444.774	22705.66
444.981	22961.65
445.187	23487.98
445.394	24735.2
445.6	24384.99
445.807	26731.97
446.013	25435.6
446.22	25963.98
446.426	27092.41
446.633	27116.98
446.839	28097.96
447.046	27168.18
447.252	28370.34
447.459	28665.25
447.665	28456.36
447.871	29773.2
448.078	31118.71
448.284	29347.22
448.491	30285.19
448.697	31483.25
448.903	31880.56
449.11	31821.17
449.316	31337.85
449.522	32499.05
449.728	33037.66
449.935	33398.1
450.141	33260.89
450.347	33684.82
450.553	32982.37
450.76	33303.9
450.966	34307.4
451.172	33873.23
451.378	34895.17
451.584	33834.32
451.791	35069.25
451.997	34800.96
452.203	35538.23
452.409	35534.14
452.615	35249.47
452.821	33758.55
453.027	33822.03
453.233	35587.38
453.44	34096.46
453.646	34346.31
453.852	34624.84
454.058	35335.48
454.264	34356.55
454.47	34760
454.676	33813.84
454.882	34954.56
455.088	32081.26
455.294	32644.45
455.5	33107.29
455.705	33394.01
455.911	31681.91
456.117	31415.67
456.323	30879.1
456.529	29242.78
456.735	30465.41
456.941	29836.69
457.147	29529.49
457.352	28358.05
457.558	28161.45
457.764	28001.71
457.97	27807.15
458.176	27209.14
458.381	26738.11
458.587	25884.11
458.793	25662.93
458.999	24311.27
459.204	26078.66
459.41	25503.18
459.616	23717.36
459.821	24188.39
460.027	23881.19
460.233	23285.23
460.438	21880.33
460.644	22580.73
460.85	21417.49
461.055	21003.8
461.261	20962.84
461.466	19232.3
461.672	18708.02
461.878	19871.27
462.083	18695.74
462.289	18626.11
462.494	18224.7
462.7	17385.04
462.905	17088.08
463.111	17692.23
463.316	17419.85
463.522	17403.47
463.727	17323.6
463.932	16924.24
464.138	17118.8
464.343	17204.81
464.549	16547.42
464.754	17133.14
464.959	16967.25
465.165	16916.05
465.37	15992.42
465.575	15683.17
465.781	16359
465.986	16664.15
466.191	15754.85
466.397	15525.48
466.602	14823.03
466.807	15441.51
467.012	15347.31
467.218	15269.48
467.423	14919.28
467.628	15464.04
467.833	15902.31
468.038	15242.86
