Data from USB4F104151__94__11-45-45-326.txt Node

Date: Fri Mar 14 11:45:45 EDT 2025
User: louis
Spectrometer: USB4F10415
Trigger mode: 4
Integration Time (sec): 2.000000E-2
Scans to average: 1
Electric dark correction enabled: true
Nonlinearity correction enabled: false
Boxcar width: 0
XAxis mode: Wavelengths
Number of Pixels in Spectrum: 3648
>>>>>Begin Spectral Data<<<<<
178.204	-93.01
178.424	-93.01
178.644	-93.01
178.864	-66.39
179.084	-86.87
179.304	-43.86
179.524	-58.2
179.744	-7
179.964	-0.85
180.184	-7
180.404	-27.48
180.624	7.34
180.844	68.78
181.064	50.35
181.283	-0.85
181.503	13.48
181.723	5.29
181.943	-27.48
182.163	101.55
182.383	-27.48
182.602	7.34
182.822	38.06
183.042	101.55
183.262	-95.06
183.482	54.44
183.701	-31.57
183.921	50.35
184.141	-7
184.361	146.6
184.58	-7
184.8	36.01
185.02	23.72
185.239	58.54
185.459	44.2
185.679	85.16
185.898	-9.05
186.118	85.16
186.338	-39.76
186.557	40.11
186.777	-2.9
186.997	44.2
187.216	23.72
187.436	29.87
187.655	-35.67
187.875	3.24
188.095	-11.09
188.314	-17.24
188.534	74.92
188.753	3.24
188.973	3.24
189.192	107.69
189.412	62.63
189.631	-21.33
189.851	17.58
190.07	44.2
190.29	-13.14
190.509	-11.09
190.729	5.29
190.948	-31.57
191.168	99.5
191.387	-21.33
191.607	-4.95
191.826	-62.29
192.045	1.19
192.265	38.06
192.484	33.96
192.704	7.34
192.923	11.43
193.142	31.91
193.362	76.97
193.581	83.11
193.8	81.07
194.02	99.5
194.239	-2.9
194.458	9.39
194.678	-17.24
194.897	44.2
195.116	-9.05
195.335	38.06
195.555	21.67
195.774	-9.05
195.993	74.92
196.212	-31.57
196.432	-0.85
196.651	99.5
196.87	5.29
197.089	50.35
197.308	-11.09
197.528	-0.85
197.747	13.48
197.966	44.2
198.185	5.29
198.404	60.59
198.623	-50
198.842	52.39
199.062	52.39
199.281	3.24
199.5	48.3
199.719	46.25
199.938	64.68
200.157	13.48
200.376	-25.43
200.595	99.5
200.814	17.58
201.033	38.06
201.252	44.2
201.471	3.24
201.69	-13.14
201.909	25.77
202.128	68.78
202.347	60.59
202.566	40.11
202.785	15.53
203.004	13.48
203.223	87.21
203.442	-47.96
203.661	-23.38
203.879	27.82
204.098	17.58
204.317	83.11
204.536	58.54
204.755	-33.62
204.974	40.11
205.193	17.58
205.411	60.59
205.63	33.96
205.849	9.39
206.068	13.48
206.287	33.96
206.505	72.87
206.724	-19.29
206.943	1.19
207.162	44.2
207.381	-50
207.599	38.06
207.818	-37.72
208.037	-27.48
208.255	-37.72
208.474	11.43
208.693	60.59
208.911	17.58
209.13	13.48
209.349	-31.57
209.567	21.67
209.786	-4.95
210.005	19.63
210.223	-0.85
210.442	38.06
210.661	40.11
210.879	1.19
211.098	-23.38
211.316	-86.87
211.535	-19.29
211.753	-11.09
211.972	27.82
212.191	42.15
212.409	-7
212.628	33.96
212.846	33.96
213.065	13.48
213.283	105.64
213.502	-15.19
213.72	-66.39
213.938	-58.2
214.157	15.53
214.375	5.29
214.594	-0.85
214.812	81.07
215.031	-23.38
215.249	27.82
215.467	33.96
215.686	44.2
215.904	101.55
216.122	5.29
216.341	64.68
216.559	-58.2
216.778	31.91
216.996	-0.85
217.214	72.87
217.432	50.35
217.651	-41.81
217.869	15.53
218.087	17.58
218.306	9.39
218.524	33.96
218.742	-15.19
218.96	29.87
219.179	11.43
219.397	44.2
219.615	81.07
219.833	15.53
220.051	-21.33
220.27	72.87
220.488	5.29
220.706	42.15
220.924	27.82
221.142	3.24
221.36	33.96
221.578	1.19
221.796	-68.44
222.015	-0.85
222.233	-39.76
222.451	79.02
222.669	13.48
222.887	25.77
223.105	-58.2
223.323	52.39
223.541	31.91
223.759	7.34
223.977	44.2
224.195	56.49
224.413	-37.72
224.631	66.73
224.849	25.77
225.067	44.2
225.285	36.01
225.503	-15.19
225.721	-41.81
225.939	52.39
226.157	-29.52
226.375	62.63
226.592	-45.91
226.81	5.29
227.028	38.06
227.246	105.64
227.464	-13.14
227.682	1.19
227.9	-4.95
228.117	25.77
228.335	-4.95
228.553	5.29
228.771	3.24
228.989	-9.05
229.206	17.58
229.424	33.96
229.642	-25.43
229.86	-0.85
230.077	54.44
230.295	-29.52
230.513	76.97
230.731	40.11
230.948	40.11
231.166	48.3
231.384	-19.29
231.601	-9.05
231.819	38.06
232.037	48.3
232.254	-31.57
232.472	66.73
232.689	-9.05
232.907	60.59
233.125	42.15
233.342	23.72
233.56	87.21
233.777	46.25
233.995	74.92
234.213	101.55
234.43	79.02
234.648	19.63
234.865	15.53
235.083	58.54
235.3	-9.05
235.518	-39.76
235.735	-31.57
235.953	13.48
236.17	58.54
236.388	-50
236.605	13.48
236.822	21.67
237.04	1.19
237.257	25.77
237.475	13.48
237.692	42.15
237.909	109.74
238.127	11.43
238.344	3.24
238.562	58.54
238.779	13.48
238.996	-7
239.214	-27.48
239.431	-41.81
239.648	-2.9
239.865	79.02
240.083	27.82
240.3	-37.72
240.517	-9.05
240.735	-21.33
240.952	27.82
241.169	74.92
241.386	27.82
241.603	46.25
241.821	-39.76
242.038	7.34
242.255	83.11
242.472	-76.63
242.689	-31.57
242.907	46.25
243.124	-13.14
243.341	52.39
243.558	-45.91
243.775	5.29
243.992	-25.43
244.209	40.11
244.426	25.77
244.643	56.49
244.86	-4.95
245.078	42.15
245.295	25.77
245.512	9.39
245.729	54.44
245.946	58.54
246.163	85.16
246.38	9.39
246.597	19.63
246.814	25.77
247.031	68.78
247.248	13.48
247.464	-31.57
247.681	38.06
247.898	40.11
248.115	31.91
248.332	21.67
248.549	36.01
248.766	3.24
248.983	68.78
249.2	-72.53
249.417	38.06
249.633	-50
249.85	27.82
250.067	-64.34
250.284	64.68
250.501	27.82
250.717	-35.67
250.934	-2.9
251.151	23.72
251.368	64.68
251.585	44.2
251.801	-11.09
252.018	-52.05
252.235	3.24
252.451	-2.9
252.668	85.16
252.885	-4.95
253.102	-0.85
253.318	29.87
253.535	15.53
253.752	3.24
253.968	31.91
254.185	29.87
254.401	-58.2
254.618	-13.14
254.835	-39.76
255.051	42.15
255.268	17.58
255.484	-13.14
255.701	33.96
255.917	25.77
256.134	-21.33
256.351	19.63
256.567	-2.9
256.784	54.44
257	-43.86
257.217	23.72
257.433	5.29
257.65	23.72
257.866	56.49
258.082	36.01
258.299	9.39
258.515	13.48
258.732	42.15
258.948	17.58
259.165	-31.57
259.381	44.2
259.597	89.26
259.814	11.43
260.03	1.19
260.246	-54.1
260.463	79.02
260.679	-23.38
260.895	-7
261.112	23.72
261.328	13.48
261.544	29.87
261.761	23.72
261.977	-2.9
262.193	44.2
262.409	-58.2
262.626	40.11
262.842	23.72
263.058	9.39
263.274	7.34
263.49	25.77
263.707	64.68
263.923	5.29
264.139	-45.91
264.355	25.77
264.571	19.63
264.787	13.48
265.004	46.25
265.22	-86.87
265.436	23.72
265.652	15.53
265.868	50.35
266.084	-2.9
266.3	-17.24
266.516	-27.48
266.732	-19.29
266.948	-74.58
267.164	58.54
267.38	3.24
267.596	25.77
267.812	42.15
268.028	3.24
268.244	64.68
268.46	-35.67
268.676	29.87
268.892	-2.9
269.108	-74.58
269.324	-37.72
269.54	-39.76
269.756	101.55
269.972	-58.2
270.188	66.73
270.403	17.58
270.619	-13.14
270.835	-27.48
271.051	21.67
271.267	11.43
271.483	19.63
271.698	31.91
271.914	52.39
272.13	111.78
272.346	23.72
272.562	-2.9
272.777	-54.1
272.993	60.59
273.209	-39.76
273.425	-4.95
273.64	-2.9
273.856	40.11
274.072	19.63
274.287	-47.96
274.503	76.97
274.719	11.43
274.934	25.77
275.15	33.96
275.366	42.15
275.581	31.91
275.797	50.35
276.012	-21.33
276.228	-27.48
276.444	-33.62
276.659	60.59
276.875	1.19
277.09	-62.29
277.306	23.72
277.521	85.16
277.737	-11.09
277.952	27.82
278.168	33.96
278.383	38.06
278.599	36.01
278.814	109.74
279.03	19.63
279.245	56.49
279.461	-9.05
279.676	85.16
279.892	-19.29
280.107	19.63
280.322	-23.38
280.538	-23.38
280.753	48.3
280.969	27.82
281.184	-9.05
281.399	-31.57
281.615	-50
281.83	5.29
282.045	3.24
282.26	9.39
282.476	58.54
282.691	33.96
282.906	54.44
283.122	56.49
283.337	-15.19
283.552	122.02
283.767	-41.81
283.983	15.53
284.198	17.58
284.413	56.49
284.628	-35.67
284.843	-23.38
285.058	58.54
285.274	23.72
285.489	83.11
285.704	72.87
285.919	-2.9
286.134	-60.24
286.349	25.77
286.564	9.39
286.779	87.21
286.995	-27.48
287.21	-9.05
287.425	58.54
287.64	-19.29
287.855	7.34
288.07	-7
288.285	36.01
288.5	54.44
288.715	33.96
288.93	13.48
289.145	-17.24
289.36	-0.85
289.575	-15.19
289.79	46.25
290.004	-37.72
290.219	-7
290.434	44.2
290.649	48.3
290.864	15.53
291.079	27.82
291.294	-13.14
291.509	-7
291.724	29.87
291.938	-66.39
292.153	29.87
292.368	25.77
292.583	-7
292.798	-56.15
293.012	-7
293.227	-25.43
293.442	46.25
293.657	81.07
293.871	48.3
294.086	36.01
294.301	132.26
294.516	-29.52
294.73	-9.05
294.945	44.2
295.16	-35.67
295.374	111.78
295.589	15.53
295.804	40.11
296.018	58.54
296.233	17.58
296.447	-31.57
296.662	-31.57
296.877	21.67
297.091	-35.67
297.306	27.82
297.52	119.98
297.735	25.77
297.949	29.87
298.164	21.67
298.378	3.24
298.593	-15.19
298.807	29.87
299.022	60.59
299.236	-19.29
299.451	-19.29
299.665	19.63
299.88	58.54
300.094	17.58
300.309	29.87
300.523	9.39
300.737	-7
300.952	23.72
301.166	-2.9
301.381	13.48
301.595	-17.24
301.809	36.01
302.024	29.87
302.238	-27.48
302.452	23.72
302.667	25.77
302.881	19.63
303.095	-2.9
303.309	79.02
303.524	9.39
303.738	27.82
303.952	21.67
304.166	-4.95
304.381	58.54
304.595	95.4
304.809	-105.3
305.023	36.01
305.237	9.39
305.452	13.48
305.666	60.59
305.88	29.87
306.094	-50
306.308	46.25
306.522	36.01
306.736	-74.58
306.95	11.43
307.164	-39.76
307.379	-13.14
307.593	3.24
307.807	56.49
308.021	74.92
308.235	13.48
308.449	-4.95
308.663	-21.33
308.877	68.78
309.091	29.87
309.305	1.19
309.519	29.87
309.733	21.67
309.947	-19.29
310.161	-19.29
310.374	15.53
310.588	27.82
310.802	19.63
311.016	48.3
311.23	70.83
311.444	29.87
311.658	21.67
311.872	58.54
312.085	-0.85
312.299	36.01
312.513	70.83
312.727	91.31
312.941	1.19
313.154	42.15
313.368	3.24
313.582	1.19
313.796	52.39
314.009	87.21
314.223	56.49
314.437	-74.58
314.651	5.29
314.864	89.26
315.078	25.77
315.292	58.54
315.505	21.67
315.719	36.01
315.933	62.63
316.146	64.68
316.36	-33.62
316.573	107.69
316.787	50.35
317.001	46.25
317.214	11.43
317.428	68.78
317.641	-19.29
317.855	66.73
318.068	31.91
318.282	17.58
318.495	25.77
318.709	97.45
318.922	-33.62
319.136	13.48
319.349	64.68
319.563	-0.85
319.776	42.15
319.99	-11.09
320.203	19.63
320.417	-4.95
320.63	68.78
320.843	89.26
321.057	21.67
321.27	23.72
321.483	-4.95
321.697	29.87
321.91	81.07
322.124	-11.09
322.337	62.63
322.55	15.53
322.763	-21.33
322.977	7.34
323.19	-50
323.403	-15.19
323.617	17.58
323.83	83.11
324.043	-33.62
324.256	-15.19
324.469	-33.62
324.683	-39.76
324.896	5.29
325.109	38.06
325.322	-33.62
325.535	52.39
325.748	-41.81
325.962	7.34
326.175	13.48
326.388	15.53
326.601	17.58
326.814	-39.76
327.027	-7
327.24	62.63
327.453	79.02
327.666	21.67
327.879	85.16
328.092	48.3
328.305	-7
328.518	23.72
328.731	17.58
328.944	5.29
329.157	54.44
329.37	-7
329.583	25.77
329.796	21.67
330.009	52.39
330.222	33.96
330.435	-17.24
330.648	62.63
330.861	-80.72
331.073	-0.85
331.286	19.63
331.499	74.92
331.712	-9.05
331.925	91.31
332.138	42.15
332.35	15.53
332.563	-11.09
332.776	40.11
332.989	13.48
333.202	42.15
333.414	-7
333.627	87.21
333.84	44.2
334.053	-23.38
334.265	42.15
334.478	-43.86
334.691	-11.09
334.903	-21.33
335.116	66.73
335.329	-2.9
335.541	70.83
335.754	48.3
335.966	-11.09
336.179	-4.95
336.392	-0.85
336.604	23.72
336.817	54.44
337.029	52.39
337.242	-39.76
337.454	54.44
337.667	-33.62
337.88	21.67
338.092	42.15
338.305	70.83
338.517	5.29
338.729	56.49
338.942	23.72
339.154	15.53
339.367	-64.34
339.579	-11.09
339.792	-56.15
340.004	9.39
340.217	11.43
340.429	50.35
340.641	27.82
340.854	-21.33
341.066	64.68
341.278	27.82
341.491	42.15
341.703	25.77
341.915	-0.85
342.128	66.73
342.34	46.25
342.552	25.77
342.764	33.96
342.977	5.29
343.189	60.59
343.401	36.01
343.613	13.48
343.826	-19.29
344.038	33.96
344.25	76.97
344.462	81.07
344.674	56.49
344.886	-82.77
345.099	21.67
345.311	68.78
345.523	-47.96
345.735	74.92
345.947	87.21
346.159	46.25
346.371	25.77
346.583	11.43
346.795	58.54
347.007	-29.52
347.219	60.59
347.431	11.43
347.643	62.63
347.855	7.34
348.067	31.91
348.279	31.91
348.491	-35.67
348.703	17.58
348.915	64.68
349.127	5.29
349.339	33.96
349.551	-52.05
349.763	48.3
349.975	5.29
350.187	72.87
350.399	9.39
350.61	13.48
350.822	9.39
351.034	33.96
351.246	31.91
351.458	58.54
351.669	46.25
351.881	54.44
352.093	5.29
352.305	58.54
352.517	27.82
352.728	48.3
352.94	33.96
353.152	5.29
353.363	11.43
353.575	33.96
353.787	79.02
353.999	33.96
354.21	1.19
354.422	109.74
354.633	62.63
354.845	42.15
355.057	27.82
355.268	52.39
355.48	29.87
355.692	25.77
355.903	74.92
356.115	66.73
356.326	42.15
356.538	58.54
356.749	105.64
356.961	42.15
357.172	60.59
357.384	-11.09
357.595	3.24
357.807	54.44
358.018	70.83
358.23	-4.95
358.441	27.82
358.653	-17.24
358.864	76.97
359.075	66.73
359.287	17.58
359.498	-29.52
359.709	7.34
359.921	89.26
360.132	62.63
360.344	40.11
360.555	-17.24
360.766	46.25
360.977	-31.57
361.189	93.35
361.4	23.72
361.611	11.43
361.823	40.11
362.034	-43.86
362.245	1.19
362.456	-17.24
362.667	46.25
362.879	1.19
363.09	7.34
363.301	-0.85
363.512	19.63
363.723	17.58
363.935	40.11
364.146	60.59
364.357	-43.86
364.568	23.72
364.779	31.91
364.99	44.2
365.201	3.24
365.412	31.91
365.623	60.59
365.834	36.01
366.045	17.58
366.256	62.63
366.467	46.25
366.678	23.72
366.889	15.53
367.1	68.78
367.311	9.39
367.522	-4.95
367.733	-2.9
367.944	79.02
368.155	15.53
368.366	9.39
368.577	58.54
368.788	-17.24
368.999	31.91
369.209	-9.05
369.42	87.21
369.631	99.5
369.842	-35.67
370.053	-21.33
370.264	36.01
370.474	5.29
370.685	76.97
370.896	17.58
371.107	38.06
371.317	25.77
371.528	3.24
371.739	119.98
371.95	33.96
372.16	48.3
372.371	-23.38
372.582	-29.52
372.792	27.82
373.003	-11.09
373.214	-11.09
373.424	60.59
373.635	33.96
373.846	15.53
374.056	42.15
374.267	68.78
374.477	58.54
374.688	13.48
374.898	-13.14
375.109	-13.14
375.319	44.2
375.53	29.87
375.74	25.77
375.951	42.15
376.161	-2.9
376.372	58.54
376.582	-9.05
376.793	-2.9
377.003	-11.09
377.214	9.39
377.424	52.39
377.635	7.34
377.845	15.53
378.055	-23.38
378.266	50.35
378.476	54.44
378.686	-0.85
378.897	25.77
379.107	13.48
379.317	52.39
379.528	79.02
379.738	50.35
379.948	-9.05
380.158	93.35
380.369	52.39
380.579	-21.33
380.789	-72.53
380.999	111.78
381.21	7.34
381.42	46.25
381.63	-4.95
381.84	5.29
382.05	-9.05
382.261	68.78
382.471	83.11
382.681	40.11
382.891	62.63
383.101	107.69
383.311	-0.85
383.521	15.53
383.731	38.06
383.941	58.54
384.151	1.19
384.361	27.82
384.571	42.15
384.781	13.48
384.991	27.82
385.201	66.73
385.411	79.02
385.621	70.83
385.831	31.91
386.041	7.34
386.251	-15.19
386.461	11.43
386.671	33.96
386.881	27.82
387.091	-2.9
387.301	42.15
387.511	17.58
387.72	64.68
387.93	38.06
388.14	19.63
388.35	46.25
388.56	62.63
388.769	74.92
388.979	33.96
389.189	-31.57
389.399	52.39
389.609	66.73
389.818	54.44
390.028	72.87
390.238	54.44
390.447	99.5
390.657	52.39
390.867	33.96
391.076	-23.38
391.286	11.43
391.496	13.48
391.705	36.01
391.915	91.31
392.125	95.4
392.334	58.54
392.544	58.54
392.753	109.74
392.963	-11.09
393.172	-2.9
393.382	40.11
393.591	81.07
393.801	7.34
394.01	33.96
394.22	36.01
394.429	95.4
394.639	17.58
394.848	89.26
395.058	33.96
395.267	115.88
395.477	74.92
395.686	64.68
395.895	33.96
396.105	40.11
396.314	109.74
396.524	101.55
396.733	17.58
396.942	103.59
397.152	-21.33
397.361	33.96
397.57	62.63
397.78	62.63
397.989	74.92
398.198	122.02
398.407	29.87
398.617	93.35
398.826	9.39
399.035	62.63
399.244	46.25
399.453	83.11
399.663	15.53
399.872	91.31
400.081	29.87
400.29	58.54
400.499	93.35
400.708	132.26
400.917	42.15
401.127	38.06
401.336	142.5
401.545	124.07
401.754	83.11
401.963	56.49
402.172	25.77
402.381	25.77
402.59	46.25
402.799	97.45
403.008	31.91
403.217	122.02
403.426	54.44
403.635	124.07
403.844	87.21
404.053	11.43
404.262	79.02
404.471	95.4
404.68	-4.95
404.888	52.39
405.097	64.68
405.306	113.83
405.515	117.93
405.724	50.35
405.933	107.69
406.142	113.83
406.35	148.65
406.559	142.5
406.768	70.83
406.977	197.8
407.185	134.31
407.394	93.35
407.603	122.02
407.812	160.94
408.02	97.45
408.229	130.22
408.438	175.27
408.646	144.55
408.855	132.26
409.064	169.13
409.272	134.31
409.481	203.94
409.69	154.79
409.898	177.32
410.107	191.66
410.315	201.9
410.524	234.66
410.733	218.28
410.941	224.42
411.15	187.56
411.358	287.91
411.567	341.16
411.775	273.57
411.984	253.09
412.192	253.09
412.401	337.06
412.609	222.38
412.818	304.29
413.026	316.58
413.234	330.92
413.443	144.55
413.651	318.63
413.86	328.87
414.068	375.97
414.276	394.4
414.485	412.84
414.693	437.41
414.901	402.6
415.11	449.7
415.318	382.12
415.526	449.7
415.734	435.36
415.943	492.71
416.151	552.1
416.359	541.86
416.567	574.63
416.776	566.43
416.984	597.15
417.192	556.19
417.4	644.26
417.608	650.4
417.817	631.97
418.025	654.5
418.233	734.37
418.441	752.8
418.649	773.28
418.857	799.9
419.065	849.05
419.273	754.85
419.481	779.42
419.689	951.45
419.897	912.54
420.105	965.79
420.313	978.08
420.521	965.79
420.729	1045.66
420.937	1111.19
421.145	1047.71
421.353	1098.91
421.561	1221.78
421.769	1262.74
421.977	1205.4
422.185	1213.59
422.393	1346.71
422.601	1506.45
422.809	1494.16
423.017	1477.78
423.224	1457.3
423.432	1412.25
423.64	1612.95
423.848	1668.24
424.056	1676.43
424.263	1838.22
424.471	1698.96
424.679	1772.69
424.887	1895.57
425.094	1991.82
425.302	2043.02
425.51	2061.45
425.718	2069.64
425.925	2122.89
426.133	2184.33
426.341	2278.54
426.548	2509.96
426.756	2397.32
426.964	2475.14
427.171	2622.59
427.379	2659.46
427.586	2813.06
427.794	2956.41
428.001	2892.93
428.209	3249.27
428.417	3036.28
428.624	3355.77
428.832	3300.47
429.039	3306.62
429.247	3304.57
429.454	3544.18
429.662	3892.34
429.869	3507.32
430.076	3691.63
430.284	3515.51
430.491	3941.49
430.699	4109.42
430.906	4131.95
431.114	4084.84
431.321	4295.79
431.528	4375.66
431.736	4625.51
431.943	4934.75
432.15	4691.04
432.358	4732
432.565	4992.09
432.772	4901.98
432.979	5205.08
433.187	5383.26
433.394	5368.92
433.601	5745.75
433.808	5680.21
434.016	5805.14
434.223	6026.32
434.43	6315.08
434.637	6122.57
434.844	6485.06
435.052	6548.55
435.259	6650.95
435.466	6718.53
435.673	6460.49
435.88	7083.07
436.087	7463.99
436.294	7484.47
436.501	7347.26
436.708	7461.94
436.915	7646.26
437.122	8205.36
437.329	7953.46
437.537	8342.57
437.743	8426.54
437.95	8309.8
438.157	8924.19
438.364	8850.47
438.571	9059.36
438.778	9184.29
438.985	9835.54
439.192	9593.88
439.399	9819.16
439.606	9675.8
439.813	10009.62
440.02	10820.61
440.227	10456.08
440.433	10460.17
440.64	10824.71
440.847	10802.18
441.054	11037.7
441.261	11566.07
441.467	11627.51
441.674	11793.4
441.881	12442.6
442.088	12284.91
442.294	12131.31
442.501	12512.24
442.708	12891.11
442.914	13272.03
443.121	13683.67
443.328	13331.42
443.534	14345.17
443.741	13911
443.948	13763.54
444.154	14650.32
444.361	14580.68
444.568	14848.97
444.774	15016.9
444.981	14834.63
445.187	15510.46
445.394	16163.76
445.6	15920.06
445.807	17333.15
446.013	16915.37
446.22	17050.53
446.426	17402.79
446.633	17621.92
446.839	18199.44
447.046	17716.12
447.252	18496.4
447.459	18602.89
447.665	18721.68
447.871	19370.88
448.078	20333.43
448.284	19291.01
448.491	19876.73
448.697	20636.53
448.903	20913
449.11	20888.43
449.316	20738.93
449.522	21044.07
449.728	21775.2
449.935	21685.09
450.141	21568.35
450.347	22233.94
450.553	21635.94
450.76	21990.24
450.966	22506.32
451.172	22313.81
451.378	22721.36
451.584	22256.47
451.791	23057.23
451.997	22694.74
452.203	23176.01
452.409	23092.04
452.615	23315.27
452.821	22004.57
453.027	22467.41
453.233	23259.98
453.44	22438.74
453.646	22704.98
453.852	22747.98
454.058	23155.53
454.264	22362.97
454.47	22846.29
454.676	22141.78
454.882	23184.2
455.088	20861.8
455.294	21365.6
455.5	21664.61
455.705	21990.24
455.911	21007.21
456.117	20573.04
456.323	20532.08
456.529	19172.23
456.735	20202.36
456.941	19768.19
457.147	19383.17
457.352	18584.46
457.558	18426.77
457.764	18576.27
457.97	18221.97
458.176	18058.14
458.381	17853.34
458.587	16993.19
458.793	17210.28
458.999	15967.16
459.204	17324.96
459.41	16733.1
459.616	15543.23
459.821	15596.48
460.027	15530.94
460.233	15268.8
460.438	14582.73
460.644	14525.39
460.85	14029.78
461.055	13767.64
461.261	13902.81
461.466	12684.27
461.672	12284.91
461.878	13501.4
462.083	12475.37
462.289	12393.45
462.494	11928.56
462.7	11623.42
462.905	11156.48
463.111	11598.84
463.316	11647.99
463.522	11308.03
463.727	11301.89
463.932	11602.94
464.138	11260.93
464.343	11379.71
464.549	10945.54
464.754	11256.83
464.959	11289.6
465.165	11092.99
465.37	10548.23
465.575	10415.12
465.781	10816.52
465.986	10654.73
466.191	10456.08
466.397	10265.61
466.602	9931.8
466.807	10198.03
467.012	9982.99
467.218	10048.53
467.423	9679.89
467.628	10081.3
467.833	10476.55
468.038	9915.41
468.244	9659.42
468.449	10144.78
468.654	9813.01
468.859	9727
