Data from USB4F104151__41__11-45-04-030.txt Node

Date: Fri Mar 14 11:45:04 EDT 2025
User: louis
Spectrometer: USB4F10415
Trigger mode: 4
Integration Time (sec): 2.000000E-2
Scans to average: 1
Electric dark correction enabled: true
Nonlinearity correction enabled: false
Boxcar width: 0
XAxis mode: Wavelengths
Number of Pixels in Spectrum: 3648
>>>>>Begin Spectral Data<<<<<
178.204	-68.61
178.424	-68.61
178.644	-68.61
178.864	-44.03
179.084	-64.51
179.304	41.98
179.524	-3.07
179.744	-64.51
179.964	-33.79
180.184	27.65
180.404	11.26
180.624	58.37
180.844	48.13
181.064	-48.13
181.283	17.41
181.503	-48.13
181.723	-7.17
181.943	-3.07
182.163	44.03
182.383	-41.98
182.602	44.03
182.822	29.7
183.042	-35.84
183.262	-33.79
183.482	-82.94
183.701	-41.98
183.921	33.79
184.141	54.27
184.361	82.94
184.58	11.26
184.8	15.36
185.02	-1.02
185.239	11.26
185.459	3.07
185.679	11.26
185.898	-1.02
186.118	-11.26
186.338	-48.13
186.557	48.13
186.777	-58.37
186.997	-46.08
187.216	-27.65
187.436	87.04
187.655	-1.02
187.875	25.6
188.095	44.03
188.314	87.04
188.534	-48.13
188.753	-21.5
188.973	17.41
189.192	41.98
189.412	-33.79
189.631	78.85
189.851	-17.41
190.07	19.46
190.29	50.18
190.509	-33.79
190.729	-3.07
190.948	56.32
191.168	76.8
191.387	27.65
191.607	-29.7
191.826	-17.41
192.045	33.79
192.265	19.46
192.484	13.31
192.704	25.6
192.923	25.6
193.142	19.46
193.362	23.55
193.581	72.7
193.8	72.7
194.02	33.79
194.239	-25.6
194.458	-27.65
194.678	9.22
194.897	7.17
195.116	-17.41
195.335	19.46
195.555	44.03
195.774	15.36
195.993	54.27
196.212	70.65
196.432	9.22
196.651	15.36
196.87	25.6
197.089	107.52
197.308	-5.12
197.528	-89.09
197.747	-33.79
197.966	-29.7
198.185	-17.41
198.404	-19.46
198.623	29.7
198.842	21.5
199.062	15.36
199.281	31.74
199.5	35.84
199.719	13.31
199.938	29.7
200.157	9.22
200.376	-17.41
200.595	54.27
200.814	33.79
201.033	7.17
201.252	60.42
201.471	11.26
201.69	-1.02
201.909	152.57
202.128	7.17
202.347	19.46
202.566	-7.17
202.785	-74.75
203.004	-23.55
203.223	52.22
203.442	37.89
203.661	-33.79
203.879	25.6
204.098	-27.65
204.317	1.02
204.536	76.8
204.755	9.22
204.974	66.56
205.193	60.42
205.411	-23.55
205.63	5.12
205.849	7.17
206.068	80.89
206.287	-21.5
206.505	13.31
206.724	113.66
206.943	-5.12
207.162	19.46
207.381	-72.7
207.599	-3.07
207.818	37.89
208.037	-46.08
208.255	15.36
208.474	-21.5
208.693	-25.6
208.911	-3.07
209.13	7.17
209.349	23.55
209.567	-15.36
209.786	48.13
210.005	-9.22
210.223	3.07
210.442	-50.18
210.661	68.61
210.879	-19.46
211.098	3.07
211.316	-80.89
211.535	-13.31
211.753	7.17
211.972	25.6
212.191	17.41
212.409	21.5
212.628	-5.12
212.846	-68.61
213.065	48.13
213.283	-50.18
213.502	-113.66
213.72	-7.17
213.938	27.65
214.157	-7.17
214.375	-48.13
214.594	-19.46
214.812	-13.31
215.031	17.41
215.249	-27.65
215.467	-35.84
215.686	-31.74
215.904	64.51
216.122	-27.65
216.341	33.79
216.559	-15.36
216.778	70.65
216.996	-56.32
217.214	29.7
217.432	-1.02
217.651	15.36
217.869	-27.65
218.087	54.27
218.306	48.13
218.524	91.13
218.742	31.74
218.96	3.07
219.179	-39.94
219.397	-7.17
219.615	9.22
219.833	-52.22
220.051	-15.36
220.27	25.6
220.488	-29.7
220.706	-35.84
220.924	-103.42
221.142	-44.03
221.36	11.26
221.578	-56.32
221.796	-1.02
222.015	7.17
222.233	9.22
222.451	39.94
222.669	-1.02
222.887	-33.79
223.105	-11.26
223.323	5.12
223.541	27.65
223.759	-17.41
223.977	-44.03
224.195	56.32
224.413	-70.65
224.631	21.5
224.849	-3.07
225.067	5.12
225.285	-29.7
225.503	1.02
225.721	-23.55
225.939	21.5
226.157	35.84
226.375	52.22
226.592	31.74
226.81	29.7
227.028	78.85
227.246	58.37
227.464	72.7
227.682	78.85
227.9	101.37
228.117	87.04
228.335	-1.02
228.553	3.07
228.771	-35.84
228.989	13.31
229.206	-9.22
229.424	3.07
229.642	-35.84
229.86	-46.08
230.077	9.22
230.295	21.5
230.513	7.17
230.731	48.13
230.948	39.94
231.166	58.37
231.384	-50.18
231.601	13.31
231.819	13.31
232.037	19.46
232.254	-25.6
232.472	5.12
232.689	3.07
232.907	64.51
233.125	23.55
233.342	-1.02
233.56	-39.94
233.777	-76.8
233.995	-27.65
234.213	23.55
234.43	60.42
234.648	27.65
234.865	15.36
235.083	-9.22
235.3	-11.26
235.518	-50.18
235.735	52.22
235.953	5.12
236.17	5.12
236.388	-11.26
236.605	-13.31
236.822	19.46
237.04	64.51
237.257	-3.07
237.475	9.22
237.692	13.31
237.909	1.02
238.127	-11.26
238.344	27.65
238.562	-52.22
238.779	-70.65
238.996	-21.5
239.214	7.17
239.431	99.33
239.648	-37.89
239.865	-5.12
240.083	9.22
240.3	13.31
240.517	21.5
240.735	41.98
240.952	58.37
241.169	25.6
241.386	54.27
241.603	-11.26
241.821	-50.18
242.038	-15.36
242.255	7.17
242.472	-25.6
242.689	-11.26
242.907	-5.12
243.124	17.41
243.341	3.07
243.558	-89.09
243.775	13.31
243.992	3.07
244.209	-25.6
244.426	39.94
244.643	-5.12
244.86	3.07
245.078	-23.55
245.295	23.55
245.512	52.22
245.729	93.18
245.946	19.46
246.163	21.5
246.38	-89.09
246.597	23.55
246.814	-31.74
247.031	-44.03
247.248	15.36
247.464	27.65
247.681	17.41
247.898	1.02
248.115	58.37
248.332	-7.17
248.549	52.22
248.766	39.94
248.983	37.89
249.2	68.61
249.417	27.65
249.633	37.89
249.85	-13.31
250.067	-44.03
250.284	56.32
250.501	33.79
250.717	19.46
250.934	84.99
251.151	33.79
251.368	62.46
251.585	72.7
251.801	-17.41
252.018	7.17
252.235	23.55
252.451	-7.17
252.668	5.12
252.885	44.03
253.102	-107.52
253.318	11.26
253.535	-17.41
253.752	13.31
253.968	-9.22
254.185	-54.27
254.401	-37.89
254.618	23.55
254.835	9.22
255.051	76.8
255.268	35.84
255.484	27.65
255.701	-9.22
255.917	39.94
256.134	27.65
256.351	37.89
256.567	-93.18
256.784	33.79
257	-3.07
257.217	37.89
257.433	19.46
257.65	111.61
257.866	-58.37
258.082	-35.84
258.299	-15.36
258.515	-33.79
258.732	62.46
258.948	19.46
259.165	-13.31
259.381	33.79
259.597	33.79
259.814	19.46
260.03	11.26
260.246	19.46
260.463	62.46
260.679	11.26
260.895	-13.31
261.112	-17.41
261.328	-29.7
261.544	5.12
261.761	35.84
261.977	25.6
262.193	7.17
262.409	54.27
262.626	-31.74
262.842	-17.41
263.058	-21.5
263.274	-9.22
263.49	37.89
263.707	-19.46
263.923	-29.7
264.139	-41.98
264.355	-37.89
264.571	44.03
264.787	7.17
265.004	39.94
265.22	1.02
265.436	-25.6
265.652	-39.94
265.868	5.12
266.084	41.98
266.3	9.22
266.516	-44.03
266.732	33.79
266.948	35.84
267.164	-23.55
267.38	-7.17
267.596	23.55
267.812	56.32
268.028	29.7
268.244	46.08
268.46	-44.03
268.676	25.6
268.892	-23.55
269.108	-27.65
269.324	35.84
269.54	60.42
269.756	17.41
269.972	-21.5
270.188	23.55
270.403	-72.7
270.619	9.22
270.835	-9.22
271.051	11.26
271.267	-23.55
271.483	-33.79
271.698	13.31
271.914	-5.12
272.13	58.37
272.346	31.74
272.562	-19.46
272.777	25.6
272.993	-50.18
273.209	58.37
273.425	1.02
273.64	-9.22
273.856	46.08
274.072	-15.36
274.287	27.65
274.503	15.36
274.719	89.09
274.934	54.27
275.15	9.22
275.366	60.42
275.581	-48.13
275.797	-31.74
276.012	74.75
276.228	62.46
276.444	35.84
276.659	-11.26
276.875	-35.84
277.09	-1.02
277.306	19.46
277.521	-1.02
277.737	23.55
277.952	7.17
278.168	-19.46
278.383	9.22
278.599	25.6
278.814	31.74
279.03	7.17
279.245	1.02
279.461	-3.07
279.676	15.36
279.892	-50.18
280.107	37.89
280.322	-13.31
280.538	23.55
280.753	31.74
280.969	37.89
281.184	52.22
281.399	15.36
281.615	-31.74
281.83	-3.07
282.045	-27.65
282.26	-9.22
282.476	21.5
282.691	64.51
282.906	-29.7
283.122	68.61
283.337	27.65
283.552	27.65
283.767	21.5
283.983	7.17
284.198	-37.89
284.413	35.84
284.628	-7.17
284.843	13.31
285.058	48.13
285.274	33.79
285.489	21.5
285.704	-1.02
285.919	11.26
286.134	50.18
286.349	-33.79
286.564	33.79
286.779	9.22
286.995	48.13
287.21	-7.17
287.425	-15.36
287.64	3.07
287.855	35.84
288.07	-21.5
288.285	15.36
288.5	60.42
288.715	72.7
288.93	48.13
289.145	44.03
289.36	-29.7
289.575	82.94
289.79	33.79
290.004	-13.31
290.219	44.03
290.434	-46.08
290.649	21.5
290.864	-80.89
291.079	3.07
291.294	25.6
291.509	52.22
291.724	-23.55
291.938	-3.07
292.153	-17.41
292.368	41.98
292.583	44.03
292.798	105.47
293.012	-9.22
293.227	-5.12
293.442	-17.41
293.657	48.13
293.871	15.36
294.086	17.41
294.301	50.18
294.516	17.41
294.73	76.8
294.945	39.94
295.16	-68.61
295.374	27.65
295.589	7.17
295.804	33.79
296.018	-21.5
296.233	95.23
296.447	-15.36
296.662	62.46
296.877	48.13
297.091	7.17
297.306	13.31
297.52	-76.8
297.735	19.46
297.949	29.7
298.164	35.84
298.378	1.02
298.593	-39.94
298.807	-48.13
299.022	-7.17
299.236	-19.46
299.451	-7.17
299.665	-5.12
299.88	33.79
300.094	27.65
300.309	-37.89
300.523	31.74
300.737	21.5
300.952	-54.27
301.166	-7.17
301.381	39.94
301.595	5.12
301.809	41.98
302.024	7.17
302.238	25.6
302.452	11.26
302.667	15.36
302.881	117.76
303.095	27.65
303.309	9.22
303.524	19.46
303.738	-19.46
303.952	37.89
304.166	58.37
304.381	-29.7
304.595	23.55
304.809	-15.36
305.023	-23.55
305.237	56.32
305.452	44.03
305.666	13.31
305.88	11.26
306.094	27.65
306.308	31.74
306.522	35.84
306.736	1.02
306.95	52.22
307.164	-13.31
307.379	-44.03
307.593	27.65
307.807	80.89
308.021	46.08
308.235	7.17
308.449	-15.36
308.663	-3.07
308.877	35.84
309.091	46.08
309.305	37.89
309.519	25.6
309.733	44.03
309.947	33.79
310.161	17.41
310.374	99.33
310.588	15.36
310.802	11.26
311.016	21.5
311.23	72.7
311.444	21.5
311.658	-1.02
311.872	-70.65
312.085	19.46
312.299	97.28
312.513	52.22
312.727	31.74
312.941	-37.89
313.154	48.13
313.368	39.94
313.582	-29.7
313.796	39.94
314.009	-35.84
314.223	48.13
314.437	54.27
314.651	-52.22
314.864	17.41
315.078	-25.6
315.292	25.6
315.505	21.5
315.719	-1.02
315.933	29.7
316.146	-48.13
316.36	56.32
316.573	25.6
316.787	60.42
317.001	93.18
317.214	35.84
317.428	39.94
317.641	11.26
317.855	41.98
318.068	46.08
318.282	25.6
318.495	91.13
318.709	-15.36
318.922	-37.89
319.136	113.66
319.349	33.79
319.563	15.36
319.776	19.46
319.99	-5.12
320.203	29.7
320.417	27.65
320.63	68.61
320.843	68.61
321.057	-46.08
321.27	76.8
321.483	-1.02
321.697	113.66
321.91	5.12
322.124	-1.02
322.337	58.37
322.55	-5.12
322.763	3.07
322.977	64.51
323.19	-62.46
323.403	-41.98
323.617	-11.26
323.83	37.89
324.043	33.79
324.256	-9.22
324.469	27.65
324.683	113.66
324.896	46.08
325.109	-13.31
325.322	13.31
325.535	7.17
325.748	-11.26
325.962	70.65
326.175	-74.75
326.388	27.65
326.601	76.8
326.814	-23.55
327.027	5.12
327.24	123.9
327.453	-13.31
327.666	52.22
327.879	35.84
328.092	21.5
328.305	33.79
328.518	-3.07
328.731	35.84
328.944	25.6
329.157	-5.12
329.37	-31.74
329.583	29.7
329.796	-1.02
330.009	-9.22
330.222	7.17
330.435	29.7
330.648	25.6
330.861	3.07
331.073	46.08
331.286	48.13
331.499	7.17
331.712	35.84
331.925	-50.18
332.138	-23.55
332.35	23.55
332.563	33.79
332.776	3.07
332.989	5.12
333.202	3.07
333.414	52.22
333.627	78.85
333.84	-3.07
334.053	13.31
334.265	-19.46
334.478	-23.55
334.691	11.26
334.903	-17.41
335.116	-7.17
335.329	23.55
335.541	-1.02
335.754	15.36
335.966	17.41
336.179	46.08
336.392	60.42
336.604	27.65
336.817	29.7
337.029	41.98
337.242	58.37
337.454	107.52
337.667	15.36
337.88	-41.98
338.092	-3.07
338.305	15.36
338.517	11.26
338.729	-1.02
338.942	91.13
339.154	11.26
339.367	-23.55
339.579	25.6
339.792	5.12
340.004	44.03
340.217	-21.5
340.429	25.6
340.641	3.07
340.854	-27.65
341.066	-1.02
341.278	39.94
341.491	93.18
341.703	68.61
341.915	39.94
342.128	52.22
342.34	-19.46
342.552	23.55
342.764	31.74
342.977	52.22
343.189	31.74
343.401	82.94
343.613	25.6
343.826	70.65
344.038	-7.17
344.25	-17.41
344.462	44.03
344.674	68.61
344.886	-13.31
345.099	50.18
345.311	7.17
345.523	39.94
345.735	-37.89
345.947	103.42
346.159	41.98
346.371	17.41
346.583	-46.08
346.795	58.37
347.007	13.31
347.219	-3.07
347.431	19.46
347.643	3.07
347.855	-44.03
348.067	21.5
348.279	-23.55
348.491	31.74
348.703	3.07
348.915	-13.31
349.127	-27.65
349.339	41.98
349.551	9.22
349.763	-13.31
349.975	25.6
350.187	41.98
350.399	48.13
350.61	5.12
350.822	31.74
351.034	-33.79
351.246	-37.89
351.458	-27.65
351.669	-15.36
351.881	9.22
352.093	35.84
352.305	101.37
352.517	60.42
352.728	23.55
352.94	-37.89
353.152	7.17
353.363	-25.6
353.575	-5.12
353.787	-31.74
353.999	58.37
354.21	132.09
354.422	-44.03
354.633	1.02
354.845	-17.41
355.057	44.03
355.268	48.13
355.48	-27.65
355.692	84.99
355.903	68.61
356.115	-25.6
356.326	-46.08
356.538	37.89
356.749	37.89
356.961	7.17
357.172	-3.07
357.384	-27.65
357.595	101.37
357.807	-13.31
358.018	5.12
358.23	-46.08
358.441	82.94
358.653	11.26
358.864	33.79
359.075	70.65
359.287	11.26
359.498	91.13
359.709	31.74
359.921	48.13
360.132	68.61
360.344	27.65
360.555	-13.31
360.766	46.08
360.977	-1.02
361.189	-3.07
361.4	-1.02
361.611	3.07
361.823	-17.41
362.034	76.8
362.245	17.41
362.456	3.07
362.667	101.37
362.879	70.65
363.09	19.46
363.301	37.89
363.512	-9.22
363.723	19.46
363.935	25.6
364.146	37.89
364.357	87.04
364.568	76.8
364.779	31.74
364.99	39.94
365.201	-105.47
365.412	46.08
365.623	1.02
365.834	46.08
366.045	-13.31
366.256	19.46
366.467	56.32
366.678	5.12
366.889	5.12
367.1	3.07
367.311	44.03
367.522	9.22
367.733	25.6
367.944	21.5
368.155	54.27
368.366	95.23
368.577	93.18
368.788	54.27
368.999	-44.03
369.209	25.6
369.42	37.89
369.631	156.67
369.842	35.84
370.053	-23.55
370.264	27.65
370.474	52.22
370.685	50.18
370.896	13.31
371.107	64.51
371.317	-11.26
371.528	54.27
371.739	60.42
371.95	97.28
372.16	54.27
372.371	37.89
372.582	44.03
372.792	-25.6
373.003	46.08
373.214	52.22
373.424	82.94
373.635	15.36
373.846	-23.55
374.056	27.65
374.267	13.31
374.477	76.8
374.688	-33.79
374.898	-31.74
375.109	52.22
375.319	70.65
375.53	78.85
375.74	84.99
375.951	21.5
376.161	-64.51
376.372	41.98
376.582	15.36
376.793	-5.12
377.003	39.94
377.214	66.56
377.424	95.23
377.635	64.51
377.845	19.46
378.055	84.99
378.266	60.42
378.476	5.12
378.686	5.12
378.897	-27.65
379.107	15.36
379.317	68.61
379.528	-23.55
379.738	-1.02
379.948	29.7
380.158	68.61
380.369	95.23
380.579	7.17
380.789	31.74
380.999	70.65
381.21	-82.94
381.42	37.89
381.63	21.5
381.84	-11.26
382.05	39.94
382.261	62.46
382.471	48.13
382.681	54.27
382.891	68.61
383.101	-25.6
383.311	-41.98
383.521	15.36
383.731	31.74
383.941	-3.07
384.151	132.09
384.361	44.03
384.571	25.6
384.781	37.89
384.991	31.74
385.201	111.61
385.411	-80.89
385.621	54.27
385.831	56.32
386.041	-35.84
386.251	72.7
386.461	109.57
386.671	-50.18
386.881	48.13
387.091	-1.02
387.301	13.31
387.511	37.89
387.72	35.84
387.93	-3.07
388.14	5.12
388.35	54.27
388.56	78.85
388.769	82.94
388.979	39.94
389.189	78.85
389.399	87.04
389.609	52.22
389.818	70.65
390.028	80.89
390.238	27.65
390.447	103.42
390.657	25.6
390.867	-21.5
391.076	46.08
391.286	19.46
391.496	-7.17
391.705	68.61
391.915	97.28
392.125	166.91
392.334	70.65
392.544	68.61
392.753	113.66
392.963	82.94
393.172	25.6
393.382	72.7
393.591	62.46
393.801	91.13
394.01	93.18
394.22	89.09
394.429	3.07
394.639	76.8
394.848	84.99
395.058	101.37
395.267	21.5
395.477	80.89
395.686	72.7
395.895	31.74
396.105	152.57
396.314	89.09
396.524	125.95
396.733	87.04
396.942	113.66
397.152	-15.36
397.361	95.23
397.57	52.22
397.78	105.47
397.989	70.65
398.198	117.76
398.407	78.85
398.617	68.61
398.826	58.37
399.035	128
399.244	60.42
399.453	152.57
399.663	74.75
399.872	144.38
400.081	66.56
400.29	123.9
400.499	91.13
400.708	74.75
400.917	113.66
401.127	80.89
401.336	29.7
401.545	111.61
401.754	105.47
401.963	111.61
402.172	168.96
402.381	87.04
402.59	105.47
402.799	134.14
403.008	103.42
403.217	46.08
403.426	117.76
403.635	99.33
403.844	113.66
404.053	68.61
404.262	171.01
404.471	181.25
404.68	70.65
404.888	171.01
405.097	76.8
405.306	160.77
405.515	203.77
405.724	82.94
405.933	142.33
406.142	123.9
406.35	197.63
406.559	193.53
406.768	183.29
406.977	201.72
407.185	232.44
407.394	234.49
407.603	183.29
407.812	177.15
408.02	234.49
408.229	156.67
408.438	302.08
408.646	269.31
408.855	281.6
409.064	244.73
409.272	322.56
409.481	277.5
409.69	232.44
409.898	193.53
410.107	361.47
410.315	355.32
410.524	349.18
410.733	383.99
410.941	336.89
411.15	418.81
411.358	383.99
411.567	459.77
411.775	340.99
411.984	513.02
412.192	474.1
412.401	490.49
412.609	578.55
412.818	431.1
413.026	564.22
413.234	496.63
413.443	537.59
413.651	615.41
413.86	590.84
414.068	650.23
414.276	633.85
414.485	637.94
414.693	762.87
414.901	728.05
415.11	760.82
415.318	711.67
415.526	695.29
415.734	756.72
415.943	807.92
416.151	1000.43
416.359	945.14
416.567	883.7
416.776	941.04
416.984	975.86
417.192	1016.82
417.4	1053.68
417.608	988.14
417.817	1184.75
418.025	1180.65
418.233	1264.62
418.441	1266.67
418.649	1334.25
418.857	1346.54
419.065	1383.4
419.273	1444.84
419.481	1498.09
419.689	1498.09
419.897	1545.19
420.105	1688.55
420.313	1666.02
420.521	1838.05
420.729	1782.76
420.937	1907.68
421.145	1938.4
421.353	1969.12
421.561	1985.51
421.769	2108.38
421.977	2186.21
422.185	2255.84
422.393	2245.6
422.601	2487.26
422.809	2456.54
423.017	2493.4
423.224	2726.87
423.432	2716.63
423.64	2771.93
423.848	2968.53
424.056	2868.18
424.263	3144.66
424.471	3083.22
424.679	3277.77
424.887	3367.88
425.094	3482.57
425.302	3417.04
425.51	3552.2
425.718	3609.54
425.925	3734.47
426.133	3998.66
426.341	4113.35
426.548	4334.53
426.756	4139.97
426.964	4398.01
427.171	4518.84
427.379	4836.28
427.586	4817.85
427.794	5061.55
428.001	5299.12
428.209	5393.33
428.417	5327.79
428.624	5669.8
428.832	5731.24
429.039	5704.62
429.247	5634.99
429.454	6132.64
429.662	6652.83
429.869	6405.02
430.076	6710.17
430.284	6390.69
430.491	6742.94
430.699	7056.28
430.906	7011.22
431.114	7072.66
431.321	7541.64
431.528	7705.48
431.736	8018.82
431.943	8457.09
432.15	8491.9
432.358	8342.4
432.565	8881.02
432.772	8747.9
432.979	9218.93
433.187	9331.57
433.394	9352.05
433.601	10177.38
433.808	10142.57
434.016	10093.41
434.223	10505.06
434.43	11082.58
434.637	10982.23
434.844	11735.88
435.052	11856.72
435.259	11658.06
435.466	12006.22
435.673	11703.12
435.88	12409.67
436.087	13095.74
436.294	13241.14
436.501	12774.21
436.708	12995.39
436.915	13728.56
437.122	13947.69
437.329	14295.85
437.537	14451.49
437.743	14656.29
437.95	14715.68
438.157	15526.68
438.364	15907.6
438.571	15844.11
438.778	15983.37
438.985	17638.13
439.192	16804.61
439.399	17392.37
439.606	17007.36
439.813	17842.93
440.02	19079.9
440.227	18766.56
440.433	18422.5
440.64	19161.82
440.847	18911.97
441.054	19684.05
441.261	20882.11
441.467	20542.15
441.674	21211.84
441.881	21822.13
442.088	21322.43
442.294	21476.02
442.501	21918.39
442.708	22768.29
442.914	23311
443.121	24367.76
443.328	23655.06
443.534	25156.22
443.741	24607.37
443.948	24224.4
444.154	26542.7
444.361	26030.71
444.568	26342
444.774	26030.71
444.981	26325.61
445.187	26978.92
445.394	28430.93
445.6	28152.4
445.807	30741.03
446.013	29203.01
446.22	29792.83
446.426	30986.79
446.633	31521.31
446.839	32551.44
447.046	31117.86
447.252	33022.47
447.459	32940.55
447.665	32723.47
447.871	34105.85
448.078	35684.83
448.284	33731.07
448.491	34824.68
448.697	36217.3
448.903	37204.42
449.11	37011.92
449.316	36209.11
449.522	36843.98
449.728	38056.38
449.935	38570.42
450.141	38400.44
450.347	39131.56
450.553	37953.98
450.76	38506.93
450.966	39522.72
451.172	39258.54
451.378	40270.23
451.584	39127.47
451.791	40098.2
451.997	40376.73
452.203	40636.82
452.409	40903.06
452.615	40774.03
452.821	38803.89
453.027	38588.85
453.233	40778.13
453.44	39467.43
453.646	39608.74
453.852	39942.56
454.058	40329.62
454.264	39119.28
454.47	40116.64
454.676	39000.49
454.882	40362.39
455.088	37149.13
455.294	37700.03
455.5	38017.47
455.705	38228.41
455.911	37034.44
456.117	36016.6
456.323	35903.96
456.529	33913.34
456.735	35408.36
456.941	34267.64
457.147	33753.6
457.352	32840.2
457.558	32952.84
457.764	32412.18
457.97	32057.88
458.176	31623.71
458.381	31175.2
458.587	29631.04
458.793	29682.24
458.999	27978.33
459.204	30093.88
459.41	29424.19
459.616	27589.21
459.821	27490.91
460.027	27214.43
460.233	26722.92
460.438	25617.02
460.644	25993.84
460.85	24742.53
461.055	24343.18
461.261	24044.18
461.466	22407.85
461.672	21902
461.878	23458.46
462.083	21764.79
462.289	21521.08
462.494	21324.47
462.7	20259.53
462.905	19727.06
463.111	20462.28
463.316	20320.97
463.522	20009.68
463.727	19829.46
463.932	20118.22
464.138	19579.61
464.343	20021.97
464.549	19299.03
464.754	19868.37
464.959	19561.17
465.165	19473.11
465.37	18645.73
465.575	18164.46
465.781	18713.31
465.986	19014.37
466.191	18289.38
466.397	18098.92
466.602	17234.68
466.807	17830.64
467.012	17767.15
467.218	17820.4
