Data from USB4F104151__88__11-45-41-647.txt Node

Date: Fri Mar 14 11:45:41 EDT 2025
User: louis
Spectrometer: USB4F10415
Trigger mode: 4
Integration Time (sec): 2.000000E-2
Scans to average: 1
Electric dark correction enabled: true
Nonlinearity correction enabled: false
Boxcar width: 0
XAxis mode: Wavelengths
Number of Pixels in Spectrum: 3648
>>>>>Begin Spectral Data<<<<<
178.204	-90.79
178.424	-90.79
178.644	-90.79
178.864	-101.03
179.084	-68.27
179.304	44.37
179.524	-0.68
179.744	-35.5
179.964	-0.68
180.184	-31.4
180.404	-0.68
180.624	-6.83
180.844	27.99
181.064	42.32
181.283	3.41
181.503	-8.87
181.723	-33.45
181.943	5.46
182.163	42.32
182.383	-41.64
182.602	1.37
182.822	-47.79
183.042	-21.16
183.262	-6.83
183.482	9.56
183.701	-0.68
183.921	13.65
184.141	-35.5
184.361	7.51
184.58	9.56
184.8	71
185.02	25.94
185.239	21.85
185.459	-39.59
185.679	54.61
185.898	17.75
186.118	-8.87
186.338	-17.07
186.557	1.37
186.777	-29.35
186.997	1.37
187.216	42.32
187.436	38.23
187.655	17.75
187.875	68.95
188.095	48.47
188.314	17.75
188.534	101.72
188.753	-58.03
188.973	-33.45
189.192	21.85
189.412	-6.83
189.631	-39.59
189.851	17.75
190.07	-4.78
190.29	-53.93
190.509	-17.07
190.729	17.75
190.948	46.42
191.168	91.48
191.387	-2.73
191.607	-19.11
191.826	54.61
192.045	-23.21
192.265	60.76
192.484	-2.73
192.704	-6.83
192.923	9.56
193.142	52.56
193.362	-15.02
193.581	-25.26
193.8	15.7
194.02	9.56
194.239	-25.26
194.458	-49.83
194.678	-2.73
194.897	25.94
195.116	-23.21
195.335	11.61
195.555	3.41
195.774	34.13
195.993	54.61
196.212	17.75
196.432	-23.21
196.651	21.85
196.87	-2.73
197.089	83.28
197.308	54.61
197.528	38.23
197.747	-17.07
197.966	46.42
198.185	-35.5
198.404	46.42
198.623	-17.07
198.842	-2.73
199.062	-31.4
199.281	71
199.5	34.13
199.719	46.42
199.938	56.66
200.157	42.32
200.376	-25.26
200.595	-51.88
200.814	36.18
201.033	30.04
201.252	27.99
201.471	-17.07
201.69	11.61
201.909	-45.74
202.128	68.95
202.347	-23.21
202.566	13.65
202.785	42.32
203.004	-27.31
203.223	62.8
203.442	-53.93
203.661	-37.55
203.879	11.61
204.098	36.18
204.317	-29.35
204.536	44.37
204.755	-51.88
204.974	-35.5
205.193	5.46
205.411	32.08
205.63	-41.64
205.849	27.99
206.068	3.41
206.287	7.51
206.505	-8.87
206.724	-12.97
206.943	34.13
207.162	-2.73
207.381	58.71
207.599	-43.69
207.818	-31.4
208.037	-92.84
208.255	-58.03
208.474	-0.68
208.693	9.56
208.911	23.89
209.13	34.13
209.349	36.18
209.567	-27.31
209.786	17.75
210.005	107.86
210.223	-2.73
210.442	-17.07
210.661	30.04
210.879	15.7
211.098	44.37
211.316	-2.73
211.535	23.89
211.753	25.94
211.972	46.42
212.191	27.99
212.409	-4.78
212.628	-21.16
212.846	-8.87
213.065	7.51
213.283	50.52
213.502	-19.11
213.72	56.66
213.938	15.7
214.157	-21.16
214.375	32.08
214.594	30.04
214.812	-88.75
215.031	5.46
215.249	15.7
215.467	42.32
215.686	34.13
215.904	54.61
216.122	-12.97
216.341	50.52
216.559	-4.78
216.778	30.04
216.996	19.8
217.214	-0.68
217.432	52.56
217.651	-39.59
217.869	-25.26
218.087	17.75
218.306	-17.07
218.524	46.42
218.742	-12.97
218.96	27.99
219.179	7.51
219.397	-0.68
219.615	9.56
219.833	13.65
220.051	21.85
220.27	32.08
220.488	44.37
220.706	15.7
220.924	-6.83
221.142	-12.97
221.36	-37.55
221.578	-31.4
221.796	-10.92
222.015	-4.78
222.233	27.99
222.451	27.99
222.669	15.7
222.887	3.41
223.105	-41.64
223.323	-60.07
223.541	-6.83
223.759	5.46
223.977	7.51
224.195	15.7
224.413	9.56
224.631	38.23
224.849	44.37
225.067	-4.78
225.285	-21.16
225.503	46.42
225.721	-60.07
225.939	-17.07
226.157	-43.69
226.375	-17.07
226.592	46.42
226.81	50.52
227.028	-6.83
227.246	13.65
227.464	3.41
227.682	48.47
227.9	-29.35
228.117	32.08
228.335	-8.87
228.553	44.37
228.771	89.43
228.989	25.94
229.206	1.37
229.424	-10.92
229.642	34.13
229.86	64.85
230.077	-39.59
230.295	66.9
230.513	58.71
230.731	75.09
230.948	52.56
231.166	3.41
231.384	-43.69
231.601	32.08
231.819	50.52
232.037	36.18
232.254	-2.73
232.472	73.04
232.689	-6.83
232.907	-55.98
233.125	-0.68
233.342	-35.5
233.56	34.13
233.777	83.28
233.995	34.13
234.213	23.89
234.43	1.37
234.648	54.61
234.865	-41.64
235.083	42.32
235.3	-0.68
235.518	21.85
235.735	-6.83
235.953	38.23
236.17	91.48
236.388	48.47
236.605	-25.26
236.822	56.66
237.04	11.61
237.257	48.47
237.475	58.71
237.692	1.37
237.909	-33.45
238.127	1.37
238.344	52.56
238.562	-17.07
238.779	9.56
238.996	23.89
239.214	-19.11
239.431	19.8
239.648	17.75
239.865	23.89
240.083	54.61
240.3	77.14
240.517	-35.5
240.735	-33.45
240.952	38.23
241.169	40.28
241.386	-19.11
241.603	-53.93
241.821	17.75
242.038	-2.73
242.255	-17.07
242.472	34.13
242.689	21.85
242.907	36.18
243.124	7.51
243.341	15.7
243.558	17.75
243.775	-29.35
243.992	-6.83
244.209	44.37
244.426	-33.45
244.643	15.7
244.86	-72.36
245.078	1.37
245.295	34.13
245.512	68.95
245.729	-51.88
245.946	5.46
246.163	-10.92
246.38	36.18
246.597	44.37
246.814	-2.73
247.031	56.66
247.248	58.71
247.464	-8.87
247.681	7.51
247.898	-64.17
248.115	85.33
248.332	-2.73
248.549	30.04
248.766	-15.02
248.983	15.7
249.2	42.32
249.417	68.95
249.633	19.8
249.85	23.89
250.067	15.7
250.284	21.85
250.501	9.56
250.717	-4.78
250.934	23.89
251.151	15.7
251.368	56.66
251.585	38.23
251.801	-31.4
252.018	-80.55
252.235	11.61
252.451	91.48
252.668	-127.66
252.885	52.56
253.102	-25.26
253.318	36.18
253.535	-23.21
253.752	21.85
253.968	32.08
254.185	34.13
254.401	-27.31
254.618	-2.73
254.835	-64.17
255.051	77.14
255.268	38.23
255.484	-37.55
255.701	19.8
255.917	-31.4
256.134	-47.79
256.351	81.24
256.567	54.61
256.784	9.56
257	-62.12
257.217	23.89
257.433	-4.78
257.65	1.37
257.866	58.71
258.082	7.51
258.299	-0.68
258.515	68.95
258.732	-6.83
258.948	-33.45
259.165	25.94
259.381	-19.11
259.597	17.75
259.814	11.61
260.03	27.99
260.246	9.56
260.463	32.08
260.679	-37.55
260.895	17.75
261.112	-17.07
261.328	-31.4
261.544	13.65
261.761	105.81
261.977	-37.55
262.193	-17.07
262.409	5.46
262.626	-10.92
262.842	62.8
263.058	-17.07
263.274	77.14
263.49	38.23
263.707	-29.35
263.923	40.28
264.139	34.13
264.355	-27.31
264.571	79.19
264.787	17.75
265.004	5.46
265.22	17.75
265.436	40.28
265.652	-47.79
265.868	23.89
266.084	50.52
266.3	27.99
266.516	-27.31
266.732	9.56
266.948	44.37
267.164	-15.02
267.38	68.95
267.596	-19.11
267.812	30.04
268.028	48.47
268.244	40.28
268.46	58.71
268.676	64.85
268.892	64.85
269.108	-31.4
269.324	-10.92
269.54	34.13
269.756	99.67
269.972	-62.12
270.188	-2.73
270.403	66.9
270.619	15.7
270.835	-68.27
271.051	-21.16
271.267	-23.21
271.483	-31.4
271.698	-0.68
271.914	9.56
272.13	-90.79
272.346	5.46
272.562	54.61
272.777	-47.79
272.993	-80.55
273.209	5.46
273.425	15.7
273.64	-64.17
273.856	-4.78
274.072	-0.68
274.287	-17.07
274.503	-27.31
274.719	-39.59
274.934	13.65
275.15	-49.83
275.366	-8.87
275.581	-6.83
275.797	3.41
276.012	-6.83
276.228	3.41
276.444	32.08
276.659	36.18
276.875	23.89
277.09	32.08
277.306	81.24
277.521	-15.02
277.737	17.75
277.952	48.47
278.168	-2.73
278.383	27.99
278.599	15.7
278.814	-6.83
279.03	-8.87
279.245	5.46
279.461	-27.31
279.676	71
279.892	-15.02
280.107	30.04
280.322	-0.68
280.538	64.85
280.753	-58.03
280.969	73.04
281.184	-12.97
281.399	81.24
281.615	-17.07
281.83	64.85
282.045	-49.83
282.26	-47.79
282.476	-29.35
282.691	-0.68
282.906	-17.07
283.122	-35.5
283.337	23.89
283.552	13.65
283.767	1.37
283.983	30.04
284.198	75.09
284.413	50.52
284.628	13.65
284.843	-35.5
285.058	-78.51
285.274	40.28
285.489	-53.93
285.704	42.32
285.919	-72.36
286.134	36.18
286.349	-55.98
286.564	-0.68
286.779	95.57
286.995	-35.5
287.21	-39.59
287.425	13.65
287.64	9.56
287.855	-35.5
288.07	30.04
288.285	-31.4
288.5	50.52
288.715	46.42
288.93	5.46
289.145	-35.5
289.36	3.41
289.575	-2.73
289.79	15.7
290.004	-23.21
290.219	3.41
290.434	95.57
290.649	-29.35
290.864	1.37
291.079	-29.35
291.294	-21.16
291.509	56.66
291.724	5.46
291.938	-0.68
292.153	-39.59
292.368	-12.97
292.583	46.42
292.798	5.46
293.012	25.94
293.227	87.38
293.442	3.41
293.657	-15.02
293.871	27.99
294.086	-64.17
294.301	-21.16
294.516	-35.5
294.73	19.8
294.945	-27.31
295.16	83.28
295.374	-35.5
295.589	-19.11
295.804	-35.5
296.018	-49.83
296.233	32.08
296.447	-12.97
296.662	-39.59
296.877	25.94
297.091	-64.17
297.306	3.41
297.52	-96.94
297.735	56.66
297.949	52.56
298.164	15.7
298.378	5.46
298.593	-4.78
298.807	-53.93
299.022	42.32
299.236	42.32
299.451	54.61
299.665	48.47
299.88	-23.21
300.094	17.75
300.309	23.89
300.523	-8.87
300.737	50.52
300.952	-12.97
301.166	32.08
301.381	1.37
301.595	-10.92
301.809	42.32
302.024	-47.79
302.238	-105.13
302.452	21.85
302.667	42.32
302.881	-21.16
303.095	27.99
303.309	-6.83
303.524	21.85
303.738	-10.92
303.952	-45.74
304.166	32.08
304.381	-80.55
304.595	-17.07
304.809	3.41
305.023	38.23
305.237	46.42
305.452	60.76
305.666	38.23
305.88	-6.83
306.094	54.61
306.308	54.61
306.522	62.8
306.736	5.46
306.95	44.37
307.164	-4.78
307.379	1.37
307.593	34.13
307.807	-49.83
308.021	23.89
308.235	30.04
308.449	-37.55
308.663	5.46
308.877	83.28
309.091	66.9
309.305	-6.83
309.519	-60.07
309.733	40.28
309.947	-53.93
310.161	36.18
310.374	-43.69
310.588	40.28
310.802	23.89
311.016	3.41
311.23	-49.83
311.444	9.56
311.658	27.99
311.872	13.65
312.085	15.7
312.299	66.9
312.513	15.7
312.727	54.61
312.941	-15.02
313.154	-10.92
313.368	-25.26
313.582	7.51
313.796	5.46
314.009	15.7
314.223	-19.11
314.437	-35.5
314.651	-10.92
314.864	-43.69
315.078	-39.59
315.292	36.18
315.505	-60.07
315.719	64.85
315.933	-10.92
316.146	46.42
316.36	19.8
316.573	-10.92
316.787	15.7
317.001	48.47
317.214	-60.07
317.428	48.47
317.641	-19.11
317.855	-21.16
318.068	42.32
318.282	19.8
318.495	60.76
318.709	48.47
318.922	-19.11
319.136	-15.02
319.349	23.89
319.563	-35.5
319.776	30.04
319.99	-21.16
320.203	32.08
320.417	-45.74
320.63	-43.69
320.843	-39.59
321.057	3.41
321.27	-19.11
321.483	1.37
321.697	40.28
321.91	13.65
322.124	25.94
322.337	25.94
322.55	42.32
322.763	-19.11
322.977	-8.87
323.19	-29.35
323.403	38.23
323.617	-21.16
323.83	23.89
324.043	-29.35
324.256	23.89
324.469	-66.22
324.683	27.99
324.896	-27.31
325.109	-12.97
325.322	-23.21
325.535	-19.11
325.748	21.85
325.962	-49.83
326.175	-21.16
326.388	93.52
326.601	40.28
326.814	34.13
327.027	46.42
327.24	68.95
327.453	11.61
327.666	38.23
327.879	13.65
328.092	46.42
328.305	42.32
328.518	-17.07
328.731	-47.79
328.944	32.08
329.157	48.47
329.37	-60.07
329.583	38.23
329.796	58.71
330.009	-64.17
330.222	58.71
330.435	89.43
330.648	42.32
330.861	32.08
331.073	40.28
331.286	27.99
331.499	3.41
331.712	13.65
331.925	5.46
332.138	-4.78
332.35	36.18
332.563	-15.02
332.776	27.99
332.989	-0.68
333.202	3.41
333.414	56.66
333.627	-0.68
333.84	3.41
334.053	34.13
334.265	-17.07
334.478	-64.17
334.691	15.7
334.903	21.85
335.116	-29.35
335.329	40.28
335.541	-10.92
335.754	64.85
335.966	-27.31
336.179	5.46
336.392	66.9
336.604	-6.83
336.817	-2.73
337.029	-2.73
337.242	5.46
337.454	-4.78
337.667	42.32
337.88	81.24
338.092	50.52
338.305	48.47
338.517	-25.26
338.729	25.94
338.942	-19.11
339.154	-10.92
339.367	-33.45
339.579	3.41
339.792	-8.87
340.004	-19.11
340.217	-25.26
340.429	9.56
340.641	38.23
340.854	-8.87
341.066	38.23
341.278	13.65
341.491	-0.68
341.703	25.94
341.915	5.46
342.128	40.28
342.34	7.51
342.552	-43.69
342.764	34.13
342.977	15.7
343.189	7.51
343.401	17.75
343.613	-17.07
343.826	64.85
344.038	-17.07
344.25	62.8
344.462	71
344.674	124.24
344.886	-6.83
345.099	66.9
345.311	50.52
345.523	-64.17
345.735	-37.55
345.947	13.65
346.159	-55.98
346.371	48.47
346.583	5.46
346.795	-12.97
347.007	23.89
347.219	-12.97
347.431	30.04
347.643	58.71
347.855	-35.5
348.067	27.99
348.279	1.37
348.491	23.89
348.703	15.7
348.915	36.18
349.127	30.04
349.339	42.32
349.551	-37.55
349.763	-17.07
349.975	-0.68
350.187	56.66
350.399	54.61
350.61	-8.87
350.822	99.67
351.034	66.9
351.246	21.85
351.458	-4.78
351.669	5.46
351.881	-8.87
352.093	79.19
352.305	85.33
352.517	-23.21
352.728	44.37
352.94	36.18
353.152	17.75
353.363	-10.92
353.575	38.23
353.787	62.8
353.999	48.47
354.21	-41.64
354.422	42.32
354.633	17.75
354.845	-0.68
355.057	30.04
355.268	11.61
355.48	32.08
355.692	48.47
355.903	-8.87
356.115	-2.73
356.326	-88.75
356.538	-10.92
356.749	40.28
356.961	85.33
357.172	120.15
357.384	-23.21
357.595	56.66
357.807	-33.45
358.018	-23.21
358.23	-8.87
358.441	132.44
358.653	11.61
358.864	52.56
359.075	-51.88
359.287	-12.97
359.498	-0.68
359.709	46.42
359.921	-6.83
360.132	1.37
360.344	-19.11
360.555	-12.97
360.766	134.48
360.977	-8.87
361.189	40.28
361.4	-64.17
361.611	-12.97
361.823	-19.11
362.034	56.66
362.245	-19.11
362.456	11.61
362.667	17.75
362.879	-37.55
363.09	11.61
363.301	-29.35
363.512	99.67
363.723	40.28
363.935	-60.07
364.146	-31.4
364.357	-43.69
364.568	21.85
364.779	1.37
364.99	-31.4
365.201	32.08
365.412	58.71
365.623	-12.97
365.834	73.04
366.045	-23.21
366.256	17.75
366.467	34.13
366.678	111.96
366.889	62.8
367.1	-33.45
367.311	34.13
367.522	34.13
367.733	73.04
367.944	11.61
368.155	9.56
368.366	77.14
368.577	68.95
368.788	46.42
368.999	-37.55
369.209	1.37
369.42	17.75
369.631	62.8
369.842	-19.11
370.053	81.24
370.264	13.65
370.474	-33.45
370.685	34.13
370.896	50.52
371.107	64.85
371.317	23.89
371.528	64.85
371.739	5.46
371.95	13.65
372.16	5.46
372.371	-25.26
372.582	3.41
372.792	21.85
373.003	-33.45
373.214	-37.55
373.424	-39.59
373.635	32.08
373.846	44.37
374.056	-39.59
374.267	77.14
374.477	-43.69
374.688	5.46
374.898	42.32
375.109	11.61
375.319	-2.73
375.53	54.61
375.74	75.09
375.951	-12.97
376.161	42.32
376.372	-4.78
376.582	-31.4
376.793	46.42
377.003	89.43
377.214	-15.02
377.424	50.52
377.635	50.52
377.845	-0.68
378.055	-12.97
378.266	3.41
378.476	5.46
378.686	-6.83
378.897	32.08
379.107	-27.31
379.317	75.09
379.528	-43.69
379.738	-8.87
379.948	-21.16
380.158	42.32
380.369	13.65
380.579	85.33
380.789	1.37
380.999	46.42
381.21	-15.02
381.42	-4.78
381.63	17.75
381.84	-43.69
382.05	7.51
382.261	32.08
382.471	5.46
382.681	-8.87
382.891	34.13
383.101	34.13
383.311	19.8
383.521	34.13
383.731	38.23
383.941	46.42
384.151	-51.88
384.361	-10.92
384.571	-4.78
384.781	68.95
384.991	54.61
385.201	62.8
385.411	-25.26
385.621	5.46
385.831	-31.4
386.041	-60.07
386.251	25.94
386.461	97.62
386.671	75.09
386.881	62.8
387.091	11.61
387.301	23.89
387.511	19.8
387.72	38.23
387.93	79.19
388.14	-8.87
388.35	-41.64
388.56	34.13
388.769	23.89
388.979	81.24
389.189	34.13
389.399	9.56
389.609	-2.73
389.818	34.13
390.028	62.8
390.238	25.94
390.447	21.85
390.657	36.18
390.867	-31.4
391.076	52.56
391.286	15.7
391.496	7.51
391.705	17.75
391.915	42.32
392.125	40.28
392.334	-0.68
392.544	42.32
392.753	-4.78
392.963	-6.83
393.172	71
393.382	-8.87
393.591	50.52
393.801	-10.92
394.01	54.61
394.22	46.42
394.429	7.51
394.639	71
394.848	34.13
395.058	23.89
395.267	44.37
395.477	89.43
395.686	64.85
395.895	142.68
396.105	64.85
396.314	25.94
396.524	-2.73
396.733	25.94
396.942	68.95
397.152	34.13
397.361	11.61
397.57	15.7
397.78	52.56
397.989	58.71
398.198	95.57
398.407	58.71
398.617	27.99
398.826	36.18
399.035	48.47
399.244	23.89
399.453	-4.78
399.663	9.56
399.872	85.33
400.081	27.99
400.29	64.85
400.499	-49.83
400.708	-27.31
400.917	1.37
401.127	120.15
401.336	111.96
401.545	81.24
401.754	25.94
401.963	-21.16
402.172	-8.87
402.381	50.52
402.59	50.52
402.799	1.37
403.008	32.08
403.217	-10.92
403.426	1.37
403.635	48.47
403.844	68.95
404.053	62.8
404.262	79.19
404.471	30.04
404.68	81.24
404.888	140.63
405.097	66.9
405.306	17.75
405.515	83.28
405.724	71
405.933	68.95
406.142	87.38
406.35	60.76
406.559	83.28
406.768	150.87
406.977	54.61
407.185	32.08
407.394	52.56
407.603	95.57
407.812	62.8
408.02	116.05
408.229	144.72
408.438	118.1
408.646	66.9
408.855	144.72
409.064	157.01
409.272	99.67
409.481	81.24
409.69	138.58
409.898	95.57
410.107	144.72
410.315	183.63
410.524	83.28
410.733	142.68
410.941	193.87
411.15	169.3
411.358	183.63
411.567	189.78
411.775	167.25
411.984	202.07
412.192	204.11
412.401	171.35
412.609	251.22
412.818	167.25
413.026	236.88
413.234	181.59
413.443	257.36
413.651	197.97
413.86	288.08
414.068	320.85
414.276	337.23
414.485	247.12
414.693	333.14
414.901	302.42
415.11	314.7
415.318	310.61
415.526	351.57
415.734	324.94
415.943	443.73
416.151	372.05
416.359	372.05
416.567	404.82
416.776	417.1
416.984	394.58
417.192	453.97
417.4	390.48
417.608	462.16
417.817	468.3
418.025	568.65
418.233	585.04
418.441	542.03
418.649	570.7
418.857	576.84
419.065	613.71
419.273	576.84
419.481	669
419.689	644.43
419.897	734.54
420.105	765.26
420.313	722.25
420.521	765.26
420.729	748.87
420.937	722.25
421.145	908.62
421.353	771.4
421.561	1043.78
421.769	957.77
421.977	912.71
422.185	965.96
422.393	1043.78
422.601	1082.69
422.809	1041.73
423.017	1103.17
423.224	1148.23
423.432	1170.76
423.64	1158.47
423.848	1217.86
424.056	1197.38
424.263	1336.64
424.471	1359.17
424.679	1316.16
424.887	1332.55
425.094	1453.38
425.302	1414.46
425.51	1561.92
425.718	1580.35
425.925	1568.06
426.133	1586.49
426.341	1740.09
426.548	1744.19
426.756	1867.06
426.964	1828.15
427.171	1936.7
427.379	1924.41
427.586	2094.39
427.794	2008.37
428.001	2194.74
428.209	2270.51
428.417	2276.66
428.624	2450.74
428.832	2428.21
429.039	2411.82
429.247	2450.74
429.454	2559.28
429.662	2741.55
429.869	2676.01
430.076	2798.89
430.284	2620.72
430.491	2802.99
430.699	2966.82
430.906	2987.3
431.114	2999.59
431.321	3128.61
431.528	3296.55
431.736	3448.1
431.943	3394.85
432.15	3292.45
432.358	3511.58
432.565	3640.61
432.772	3679.52
432.979	3796.25
433.187	3972.38
433.394	3912.99
433.601	4195.61
433.808	4220.18
434.016	4162.84
434.223	4334.87
434.43	4584.72
434.637	4629.77
434.844	4687.12
435.052	4971.79
435.259	4928.78
435.466	4979.98
435.673	4949.26
435.88	5135.62
436.087	5387.52
436.294	5469.44
436.501	5252.36
436.708	5459.2
436.915	5577.98
437.122	6075.64
437.329	5846.27
437.537	5985.53
437.743	6163.7
437.95	6139.13
438.157	6362.36
438.364	6620.4
438.571	6614.26
438.778	6642.93
438.985	7361.77
439.192	6900.97
439.399	7218.41
439.606	7073
439.813	7466.21
440.02	7933.15
440.227	7953.63
440.433	7724.26
440.64	8187.1
440.847	7752.93
441.054	8256.73
441.261	8889.55
441.467	8482
441.674	8576.21
441.881	9000.14
442.088	9055.44
442.294	9071.82
442.501	9141.45
442.708	9358.53
442.914	9688.26
443.121	10048.7
443.328	9811.14
443.534	10185.91
443.741	10319.03
443.948	10106.04
444.154	10876.08
444.361	10831.02
444.568	10847.41
444.774	10781.87
444.981	11093.16
445.187	11494.57
445.394	11920.54
445.6	11662.5
445.807	12835.99
446.013	12205.21
446.22	12317.85
446.426	12952.72
446.633	12885.14
446.839	13614.21
447.046	13145.23
447.252	13550.73
447.459	13663.36
447.665	13587.59
447.871	14191.74
448.078	14886
448.284	14060.67
448.491	14505.08
448.697	15185.01
448.903	15342.7
449.11	15613.03
449.316	15215.73
449.522	15529.06
449.728	15905.89
449.935	15877.22
450.141	15602.79
450.347	16172.13
450.553	15922.27
450.76	15983.71
450.966	16534.62
451.172	16407.64
451.378	16821.33
451.584	16309.34
451.791	16878.68
451.997	16841.81
452.203	17245.26
452.409	16890.96
452.615	17120.34
452.821	16395.36
453.027	15948.9
453.233	17022.03
453.44	16323.68
453.646	16706.65
453.852	16794.71
454.058	16893.01
454.264	16346.2
454.47	16680.02
454.676	16249.95
454.882	17126.48
455.088	15445.1
455.294	15885.41
455.5	15918.18
455.705	15930.47
455.911	15332.46
456.117	15189.1
456.323	14965.87
456.529	14066.81
456.735	14695.54
456.941	14273.66
457.147	13952.13
457.352	13837.44
457.558	13612.17
457.764	13507.72
457.97	13290.63
458.176	13210.76
458.381	12926.1
458.587	12508.31
458.793	12520.6
458.999	11969.69
459.204	12530.84
459.41	12405.91
459.616	11457.7
459.821	11564.2
460.027	11474.09
460.233	11252.91
460.438	10734.77
460.644	10693.81
460.85	10114.24
461.055	10050.75
461.261	9956.54
461.466	9262.28
461.672	9147.59
461.878	9731.26
462.083	8971.47
462.289	8819.92
462.494	8854.73
462.7	8525.01
462.905	8207.58
463.111	8543.44
463.316	8451.28
463.522	8352.98
463.727	8142.04
463.932	8355.03
464.138	8131.8
464.343	8246.49
464.549	7959.77
464.754	8367.32
464.959	8060.12
465.165	8135.9
465.37	7812.32
465.575	7537.89
465.781	7820.51
465.986	8006.88
466.191	7529.7
466.397	7519.46
466.602	7083.24
466.807	7382.24
467.012	7220.46
467.218	7453.92
467.423	7138.54
467.628	7374.05
467.833	7767.26
468.038	7206.12
468.244	7177.45
468.449	7245.03
