Data from USB4F104151__80__11-45-33-827.txt Node

Date: Fri Mar 14 11:45:33 EDT 2025
User: louis
Spectrometer: USB4F10415
Trigger mode: 4
Integration Time (sec): 2.000000E-2
Scans to average: 1
Electric dark correction enabled: true
Nonlinearity correction enabled: false
Boxcar width: 0
XAxis mode: Wavelengths
Number of Pixels in Spectrum: 3648
>>>>>Begin Spectral Data<<<<<
178.204	-93.35
178.424	-93.35
178.644	-93.35
178.864	-36.01
179.084	-58.54
179.304	-40.11
179.524	25.43
179.744	-50.35
179.964	-1.19
180.184	-7.34
180.404	13.14
180.624	-29.87
180.844	-23.72
181.064	0.85
181.283	29.52
181.503	39.76
181.723	43.86
181.943	43.86
182.163	64.34
182.383	41.81
182.602	127.83
182.822	115.54
183.042	21.33
183.262	7
183.482	33.62
183.701	-5.29
183.921	31.57
184.141	39.76
184.361	-38.06
184.58	43.86
184.8	35.67
185.02	35.67
185.239	80.72
185.459	11.09
185.679	66.39
185.898	-25.77
186.118	50
186.338	21.33
186.557	33.62
186.777	31.57
186.997	35.67
187.216	29.52
187.436	31.57
187.655	19.29
187.875	62.29
188.095	39.76
188.314	113.49
188.534	80.72
188.753	43.86
188.973	27.48
189.192	27.48
189.412	-3.24
189.631	80.72
189.851	52.05
190.07	-9.39
190.29	-11.43
190.509	35.67
190.729	72.53
190.948	68.44
191.168	113.49
191.387	113.49
191.607	15.19
191.826	25.43
192.045	60.24
192.265	7
192.484	29.52
192.704	-21.67
192.923	41.81
193.142	23.38
193.362	66.39
193.581	121.68
193.8	74.58
194.02	33.62
194.239	64.34
194.458	33.62
194.678	37.72
194.897	41.81
195.116	101.2
195.335	103.25
195.555	111.44
195.774	11.09
195.993	66.39
196.212	13.14
196.432	62.29
196.651	37.72
196.87	50
197.089	76.63
197.308	121.68
197.528	123.73
197.747	31.57
197.966	68.44
198.185	45.91
198.404	93.01
198.623	-27.82
198.842	86.87
199.062	39.76
199.281	60.24
199.5	56.15
199.719	95.06
199.938	72.53
200.157	50
200.376	-17.58
200.595	23.38
200.814	52.05
201.033	45.91
201.252	72.53
201.471	15.19
201.69	93.01
201.909	107.35
202.128	105.3
202.347	84.82
202.566	47.96
202.785	-3.24
203.004	68.44
203.223	133.97
203.442	9.05
203.661	17.24
203.879	41.81
204.098	60.24
204.317	19.29
204.536	45.91
204.755	-36.01
204.974	68.44
205.193	27.48
205.411	-3.24
205.63	37.72
205.849	9.05
206.068	111.44
206.287	99.16
206.505	95.06
206.724	31.57
206.943	52.05
207.162	2.9
207.381	66.39
207.599	47.96
207.818	-5.29
208.037	86.87
208.255	33.62
208.474	97.11
208.693	119.64
208.911	74.58
209.13	76.63
209.349	115.54
209.567	25.43
209.786	99.16
210.005	45.91
210.223	31.57
210.442	-29.87
210.661	23.38
210.879	111.44
211.098	107.35
211.316	2.9
211.535	88.92
211.753	78.68
211.972	152.4
212.191	31.57
212.409	-36.01
212.628	66.39
212.846	105.3
213.065	70.48
213.283	0.85
213.502	97.11
213.72	45.91
213.938	62.29
214.157	54.1
214.375	90.96
214.594	66.39
214.812	90.96
215.031	41.81
215.249	88.92
215.467	56.15
215.686	80.72
215.904	50
216.122	82.77
216.341	56.15
216.559	27.48
216.778	74.58
216.996	60.24
217.214	29.52
217.432	27.48
217.651	25.43
217.869	56.15
218.087	41.81
218.306	-3.24
218.524	33.62
218.742	-9.39
218.96	33.62
219.179	33.62
219.397	29.52
219.615	76.63
219.833	52.05
220.051	33.62
220.27	60.24
220.488	72.53
220.706	78.68
220.924	11.09
221.142	54.1
221.36	0.85
221.578	31.57
221.796	86.87
222.015	105.3
222.233	39.76
222.451	103.25
222.669	66.39
222.887	82.77
223.105	27.48
223.323	113.49
223.541	23.38
223.759	133.97
223.977	72.53
224.195	111.44
224.413	47.96
224.631	58.2
224.849	62.29
225.067	150.36
225.285	11.09
225.503	68.44
225.721	-33.96
225.939	78.68
226.157	-1.19
226.375	125.78
226.592	0.85
226.81	-19.63
227.028	23.38
227.246	131.92
227.464	107.35
227.682	70.48
227.9	93.01
228.117	68.44
228.335	129.88
228.553	56.15
228.771	45.91
228.989	90.96
229.206	39.76
229.424	37.72
229.642	47.96
229.86	13.14
230.077	56.15
230.295	56.15
230.513	35.67
230.731	45.91
230.948	74.58
231.166	15.19
231.384	93.01
231.601	54.1
231.819	70.48
232.037	9.05
232.254	7
232.472	17.24
232.689	43.86
232.907	56.15
233.125	64.34
233.342	45.91
233.56	84.82
233.777	19.29
233.995	86.87
234.213	-5.29
234.43	60.24
234.648	43.86
234.865	-5.29
235.083	160.59
235.3	21.33
235.518	21.33
235.735	74.58
235.953	39.76
236.17	2.9
236.388	68.44
236.605	121.68
236.822	142.16
237.04	27.48
237.257	43.86
237.475	23.38
237.692	17.24
237.909	119.64
238.127	52.05
238.344	47.96
238.562	68.44
238.779	86.87
238.996	29.52
239.214	68.44
239.431	27.48
239.648	-3.24
239.865	25.43
240.083	90.96
240.3	-3.24
240.517	25.43
240.735	60.24
240.952	127.83
241.169	95.06
241.386	41.81
241.603	90.96
241.821	7
242.038	-46.25
242.255	15.19
242.472	60.24
242.689	47.96
242.907	27.48
243.124	45.91
243.341	50
243.558	82.77
243.775	-15.53
243.992	64.34
244.209	54.1
244.426	123.73
244.643	90.96
244.86	58.2
245.078	119.64
245.295	-29.87
245.512	50
245.729	35.67
245.946	52.05
246.163	13.14
246.38	58.2
246.597	93.01
246.814	19.29
247.031	31.57
247.248	56.15
247.464	60.24
247.681	43.86
247.898	54.1
248.115	90.96
248.332	43.86
248.549	107.35
248.766	23.38
248.983	17.24
249.2	19.29
249.417	64.34
249.633	72.53
249.85	39.76
250.067	72.53
250.284	-62.63
250.501	123.73
250.717	62.29
250.934	72.53
251.151	33.62
251.368	60.24
251.585	29.52
251.801	84.82
252.018	52.05
252.235	84.82
252.451	78.68
252.668	64.34
252.885	107.35
253.102	45.91
253.318	54.1
253.535	54.1
253.752	31.57
253.968	109.4
254.185	74.58
254.401	74.58
254.618	23.38
254.835	54.1
255.051	152.4
255.268	19.29
255.484	62.29
255.701	113.49
255.917	29.52
256.134	11.09
256.351	35.67
256.567	31.57
256.784	-19.63
257	33.62
257.217	99.16
257.433	52.05
257.65	56.15
257.866	35.67
258.082	21.33
258.299	47.96
258.515	66.39
258.732	70.48
258.948	45.91
259.165	29.52
259.381	29.52
259.597	60.24
259.814	45.91
260.03	74.58
260.246	88.92
260.463	82.77
260.679	31.57
260.895	13.14
261.112	52.05
261.328	107.35
261.544	4.95
261.761	90.96
261.977	33.62
262.193	19.29
262.409	47.96
262.626	56.15
262.842	66.39
263.058	56.15
263.274	-21.67
263.49	11.09
263.707	93.01
263.923	66.39
264.139	9.05
264.355	93.01
264.571	88.92
264.787	72.53
265.004	58.2
265.22	82.77
265.436	41.81
265.652	9.05
265.868	27.48
266.084	43.86
266.3	17.24
266.516	23.38
266.732	39.76
266.948	15.19
267.164	70.48
267.38	78.68
267.596	29.52
267.812	105.3
268.028	54.1
268.244	62.29
268.46	68.44
268.676	31.57
268.892	31.57
269.108	-5.29
269.324	50
269.54	-21.67
269.756	101.2
269.972	76.63
270.188	97.11
270.403	4.95
270.619	-1.19
270.835	56.15
271.051	-15.53
271.267	-1.19
271.483	88.92
271.698	43.86
271.914	119.64
272.13	47.96
272.346	76.63
272.562	4.95
272.777	103.25
272.993	27.48
273.209	39.76
273.425	97.11
273.64	19.29
273.856	99.16
274.072	72.53
274.287	9.05
274.503	29.52
274.719	111.44
274.934	50
275.15	-11.43
275.366	-1.19
275.581	68.44
275.797	64.34
276.012	84.82
276.228	86.87
276.444	17.24
276.659	64.34
276.875	68.44
277.09	86.87
277.306	56.15
277.521	70.48
277.737	90.96
277.952	90.96
278.168	80.72
278.383	74.58
278.599	41.81
278.814	54.1
279.03	41.81
279.245	-3.24
279.461	45.91
279.676	140.12
279.892	68.44
280.107	19.29
280.322	15.19
280.538	35.67
280.753	109.4
280.969	88.92
281.184	17.24
281.399	60.24
281.615	127.83
281.83	47.96
282.045	50
282.26	45.91
282.476	84.82
282.691	138.07
282.906	27.48
283.122	72.53
283.337	90.96
283.552	60.24
283.767	25.43
283.983	80.72
284.198	9.05
284.413	121.68
284.628	74.58
284.843	90.96
285.058	56.15
285.274	95.06
285.489	25.43
285.704	13.14
285.919	25.43
286.134	80.72
286.349	64.34
286.564	23.38
286.779	68.44
286.995	62.29
287.21	105.3
287.425	27.48
287.64	-3.24
287.855	80.72
288.07	17.24
288.285	50
288.5	41.81
288.715	60.24
288.93	109.4
289.145	66.39
289.36	54.1
289.575	80.72
289.79	66.39
290.004	39.76
290.219	80.72
290.434	29.52
290.649	70.48
290.864	19.29
291.079	133.97
291.294	150.36
291.509	19.29
291.724	109.4
291.938	66.39
292.153	39.76
292.368	58.2
292.583	80.72
292.798	31.57
293.012	95.06
293.227	72.53
293.442	82.77
293.657	4.95
293.871	76.63
294.086	11.09
294.301	88.92
294.516	90.96
294.73	125.78
294.945	27.48
295.16	39.76
295.374	111.44
295.589	115.54
295.804	54.1
296.018	19.29
296.233	56.15
296.447	72.53
296.662	21.33
296.877	101.2
297.091	66.39
297.306	60.24
297.52	-54.44
297.735	21.33
297.949	76.63
298.164	27.48
298.378	109.4
298.593	41.81
298.807	60.24
299.022	47.96
299.236	107.35
299.451	13.14
299.665	103.25
299.88	33.62
300.094	27.48
300.309	-9.39
300.523	47.96
300.737	101.2
300.952	2.9
301.166	62.29
301.381	82.77
301.595	78.68
301.809	58.2
302.024	13.14
302.238	54.1
302.452	97.11
302.667	31.57
302.881	39.76
303.095	105.3
303.309	117.59
303.524	9.05
303.738	107.35
303.952	54.1
304.166	97.11
304.381	4.95
304.595	115.54
304.809	17.24
305.023	27.48
305.237	74.58
305.452	76.63
305.666	37.72
305.88	47.96
306.094	60.24
306.308	99.16
306.522	95.06
306.736	66.39
306.95	33.62
307.164	52.05
307.379	95.06
307.593	146.26
307.807	27.48
308.021	19.29
308.235	17.24
308.449	41.81
308.663	121.68
308.877	150.36
309.091	60.24
309.305	90.96
309.519	23.38
309.733	23.38
309.947	17.24
310.161	56.15
310.374	72.53
310.588	45.91
310.802	66.39
311.016	95.06
311.23	56.15
311.444	111.44
311.658	37.72
311.872	86.87
312.085	31.57
312.299	80.72
312.513	93.01
312.727	-13.48
312.941	-25.77
313.154	72.53
313.368	23.38
313.582	117.59
313.796	68.44
314.009	56.15
314.223	88.92
314.437	109.4
314.651	76.63
314.864	52.05
315.078	78.68
315.292	23.38
315.505	23.38
315.719	99.16
315.933	76.63
316.146	45.91
316.36	41.81
316.573	66.39
316.787	90.96
317.001	70.48
317.214	39.76
317.428	19.29
317.641	19.29
317.855	76.63
318.068	13.14
318.282	76.63
318.495	168.79
318.709	41.81
318.922	58.2
319.136	123.73
319.349	64.34
319.563	101.2
319.776	119.64
319.99	37.72
320.203	60.24
320.417	43.86
320.63	138.07
320.843	52.05
321.057	52.05
321.27	88.92
321.483	60.24
321.697	117.59
321.91	35.67
322.124	74.58
322.337	13.14
322.55	54.1
322.763	97.11
322.977	78.68
323.19	76.63
323.403	133.97
323.617	47.96
323.83	156.5
324.043	66.39
324.256	82.77
324.469	7
324.683	127.83
324.896	47.96
325.109	125.78
325.322	25.43
325.535	15.19
325.748	33.62
325.962	9.05
326.175	113.49
326.388	19.29
326.601	21.33
326.814	45.91
327.027	35.67
327.24	117.59
327.453	97.11
327.666	47.96
327.879	19.29
328.092	82.77
328.305	78.68
328.518	150.36
328.731	125.78
328.944	80.72
329.157	136.02
329.37	43.86
329.583	144.21
329.796	78.68
330.009	-11.43
330.222	138.07
330.435	47.96
330.648	47.96
330.861	60.24
331.073	27.48
331.286	86.87
331.499	160.59
331.712	60.24
331.925	52.05
332.138	54.1
332.35	82.77
332.563	43.86
332.776	148.31
332.989	52.05
333.202	13.14
333.414	103.25
333.627	0.85
333.84	54.1
334.053	78.68
334.265	76.63
334.478	45.91
334.691	29.52
334.903	127.83
335.116	47.96
335.329	41.81
335.541	31.57
335.754	56.15
335.966	64.34
336.179	2.9
336.392	127.83
336.604	25.43
336.817	90.96
337.029	66.39
337.242	56.15
337.454	76.63
337.667	31.57
337.88	9.05
338.092	62.29
338.305	9.05
338.517	93.01
338.729	109.4
338.942	86.87
339.154	64.34
339.367	17.24
339.579	84.82
339.792	52.05
340.004	58.2
340.217	27.48
340.429	88.92
340.641	76.63
340.854	95.06
341.066	74.58
341.278	64.34
341.491	78.68
341.703	68.44
341.915	9.05
342.128	97.11
342.34	15.19
342.552	78.68
342.764	72.53
342.977	144.21
343.189	39.76
343.401	103.25
343.613	-11.43
343.826	66.39
344.038	17.24
344.25	84.82
344.462	76.63
344.674	50
344.886	90.96
345.099	78.68
345.311	23.38
345.523	84.82
345.735	-13.48
345.947	109.4
346.159	76.63
346.371	56.15
346.583	-7.34
346.795	90.96
347.007	62.29
347.219	29.52
347.431	52.05
347.643	68.44
347.855	80.72
348.067	58.2
348.279	74.58
348.491	64.34
348.703	56.15
348.915	125.78
349.127	43.86
349.339	101.2
349.551	-25.77
349.763	31.57
349.975	97.11
350.187	78.68
350.399	19.29
350.61	76.63
350.822	35.67
351.034	115.54
351.246	72.53
351.458	-9.39
351.669	125.78
351.881	86.87
352.093	80.72
352.305	54.1
352.517	70.48
352.728	31.57
352.94	70.48
353.152	95.06
353.363	105.3
353.575	72.53
353.787	97.11
353.999	43.86
354.21	133.97
354.422	29.52
354.633	95.06
354.845	15.19
355.057	68.44
355.268	84.82
355.48	123.73
355.692	86.87
355.903	105.3
356.115	21.33
356.326	72.53
356.538	99.16
356.749	93.01
356.961	113.49
357.172	56.15
357.384	111.44
357.595	93.01
357.807	84.82
358.018	54.1
358.23	56.15
358.441	115.54
358.653	68.44
358.864	86.87
359.075	115.54
359.287	35.67
359.498	101.2
359.709	70.48
359.921	86.87
360.132	111.44
360.344	144.21
360.555	113.49
360.766	88.92
360.977	52.05
361.189	72.53
361.4	78.68
361.611	97.11
361.823	72.53
362.034	54.1
362.245	35.67
362.456	33.62
362.667	29.52
362.879	25.43
363.09	101.2
363.301	95.06
363.512	35.67
363.723	88.92
363.935	76.63
364.146	78.68
364.357	11.09
364.568	97.11
364.779	82.77
364.99	72.53
365.201	7
365.412	109.4
365.623	11.09
365.834	113.49
366.045	31.57
366.256	99.16
366.467	74.58
366.678	80.72
366.889	52.05
367.1	35.67
367.311	52.05
367.522	97.11
367.733	99.16
367.944	138.07
368.155	97.11
368.366	15.19
368.577	111.44
368.788	45.91
368.999	105.3
369.209	78.68
369.42	144.21
369.631	144.21
369.842	76.63
370.053	78.68
370.264	140.12
370.474	68.44
370.685	58.2
370.896	95.06
371.107	74.58
371.317	58.2
371.528	62.29
371.739	54.1
371.95	121.68
372.16	15.19
372.371	50
372.582	56.15
372.792	56.15
373.003	105.3
373.214	58.2
373.424	107.35
373.635	19.29
373.846	109.4
374.056	45.91
374.267	56.15
374.477	90.96
374.688	37.72
374.898	78.68
375.109	43.86
375.319	33.62
375.53	111.44
375.74	68.44
375.951	25.43
376.161	84.82
376.372	88.92
376.582	64.34
376.793	105.3
377.003	109.4
377.214	138.07
377.424	93.01
377.635	78.68
377.845	4.95
378.055	109.4
378.266	84.82
378.476	150.36
378.686	129.88
378.897	47.96
379.107	99.16
379.317	62.29
379.528	47.96
379.738	121.68
379.948	37.72
380.158	80.72
380.369	19.29
380.579	60.24
380.789	117.59
380.999	66.39
381.21	45.91
381.42	84.82
381.63	64.34
381.84	111.44
382.05	88.92
382.261	125.78
382.471	144.21
382.681	80.72
382.891	19.29
383.101	72.53
383.311	58.2
383.521	119.64
383.731	88.92
383.941	86.87
384.151	76.63
384.361	35.67
384.571	60.24
384.781	129.88
384.991	105.3
385.201	185.17
385.411	101.2
385.621	54.1
385.831	58.2
386.041	107.35
386.251	60.24
386.461	56.15
386.671	127.83
386.881	90.96
387.091	72.53
387.301	105.3
387.511	95.06
387.72	68.44
387.93	33.62
388.14	27.48
388.35	164.69
388.56	127.83
388.769	84.82
388.979	56.15
389.189	154.45
389.399	121.68
389.609	60.24
389.818	117.59
390.028	-15.53
390.238	101.2
390.447	140.12
390.657	185.17
390.867	66.39
391.076	33.62
391.286	80.72
391.496	103.25
391.705	99.16
391.915	142.16
392.125	68.44
392.334	74.58
392.544	101.2
392.753	140.12
392.963	93.01
393.172	117.59
393.382	68.44
393.591	56.15
393.801	23.38
394.01	84.82
394.22	152.4
394.429	95.06
394.639	111.44
394.848	133.97
395.058	-7.34
395.267	131.92
395.477	146.26
395.686	78.68
395.895	140.12
396.105	121.68
396.314	95.06
396.524	125.78
396.733	138.07
396.942	111.44
397.152	138.07
397.361	142.16
397.57	154.45
397.78	168.79
397.989	88.92
398.198	88.92
398.407	138.07
398.617	80.72
398.826	111.44
399.035	23.38
399.244	162.64
399.453	95.06
399.663	129.88
399.872	133.97
400.081	72.53
400.29	144.21
400.499	140.12
400.708	68.44
400.917	140.12
401.127	148.31
401.336	93.01
401.545	222.03
401.754	168.79
401.963	107.35
402.172	179.03
402.381	80.72
402.59	209.75
402.799	150.36
403.008	156.5
403.217	179.03
403.426	144.21
403.635	140.12
403.844	158.55
404.053	154.45
404.262	99.16
404.471	209.75
404.68	183.12
404.888	119.64
405.097	195.41
405.306	183.12
405.515	140.12
405.724	232.27
405.933	219.99
406.142	197.46
406.35	226.13
406.559	183.12
406.768	187.22
406.977	328.53
407.185	258.9
407.394	187.22
407.603	265.04
407.812	242.51
408.02	248.66
408.229	252.75
408.438	240.47
408.646	219.99
408.855	269.14
409.064	328.53
409.272	369.49
409.481	344.91
409.69	359.25
409.898	279.38
410.107	369.49
410.315	416.59
410.524	367.44
410.733	365.39
410.941	371.54
411.15	359.25
411.358	457.55
411.567	480.08
411.775	392.02
411.984	498.51
412.192	559.95
412.401	510.8
412.609	486.22
412.818	607.05
413.026	562
413.234	582.48
413.443	596.81
413.651	621.39
413.86	584.52
414.068	662.35
414.276	731.98
414.485	664.4
414.693	725.83
414.901	783.18
415.11	793.42
415.318	697.16
415.526	828.23
415.734	799.56
415.943	840.52
416.151	924.49
416.359	852.81
416.567	942.92
416.776	934.73
416.984	1012.55
417.192	1055.56
417.4	1024.84
417.608	1131.33
417.817	1225.54
418.025	1190.72
418.233	1293.12
418.441	1264.45
418.649	1379.14
418.857	1366.85
419.065	1432.38
419.273	1442.62
419.481	1491.77
419.689	1502.01
419.897	1612.6
420.105	1628.99
420.313	1684.28
420.521	1813.31
420.729	1712.96
420.937	1895.22
421.145	1897.27
421.353	2032.44
421.561	2044.73
421.769	2097.97
421.977	2339.63
422.185	2243.38
422.393	2306.87
422.601	2511.66
422.809	2511.66
423.017	2427.7
423.224	2667.31
423.432	2816.81
423.64	2593.58
423.848	2974.5
424.056	2880.3
424.263	2949.93
424.471	3042.09
424.679	3138.34
424.887	3304.23
425.094	3484.45
425.302	3482.4
425.51	3433.25
425.718	3691.29
425.925	3629.85
426.133	3922.71
426.341	4129.56
426.548	4162.33
426.756	4299.54
426.964	4281.11
427.171	4596.5
427.379	4772.62
427.586	4756.24
427.794	4746
428.001	5257.99
428.209	5315.33
428.417	5440.26
428.624	5677.82
428.832	5683.97
429.039	5696.25
429.247	5622.53
429.454	6042.36
429.662	6490.87
429.869	6030.07
430.076	6611.7
430.284	6384.37
430.491	6613.74
430.699	7060.2
430.906	7029.48
431.114	7103.21
431.321	7627.49
431.528	7594.72
431.736	7932.64
431.943	8395.48
432.15	8133.34
432.358	8436.44
432.565	8690.38
432.772	8567.51
432.979	9116.36
433.187	9233.1
433.394	9134.79
433.601	9818.82
433.808	9683.65
434.016	9974.46
434.223	10150.59
434.43	11045.55
434.637	10939.05
434.844	11391.66
435.052	11496.1
435.259	11520.68
435.466	11748
435.673	11352.74
435.88	12350.1
436.087	13032.08
436.294	13066.89
436.501	12825.23
436.708	13052.56
436.915	13337.23
437.122	13683.33
437.329	14025.34
437.537	14418.55
437.743	14633.59
437.95	14586.49
438.157	15342.19
438.364	15610.47
438.571	15598.18
438.778	15864.42
438.985	17150.54
439.192	16597.59
439.399	17019.47
439.606	16675.41
439.813	17912.39
440.02	18641.46
440.227	18258.49
440.433	18446.91
440.64	18661.94
440.847	18764.34
441.054	19178.03
441.261	20351.52
441.467	19874.34
441.674	20879.89
441.881	21246.48
442.088	21305.87
442.294	21258.77
442.501	21727.75
442.708	22055.43
442.914	23159.28
443.121	23984.62
443.328	23460.34
443.534	24908.25
443.741	24334.82
443.948	23863.79
444.154	25772.49
444.361	25792.97
444.568	25803.21
444.774	25575.89
444.981	26155.46
445.187	26866.11
445.394	27701.68
445.6	27607.47
445.807	30060.94
446.013	28705.18
446.22	29315.48
446.426	30411.14
446.633	31029.63
446.839	31973.74
447.046	30396.81
447.252	32702.82
447.459	32330.09
447.665	32194.92
447.871	33161.56
448.078	34924.86
448.284	33239.39
448.491	34369.86
448.697	35746.1
448.903	36192.56
449.11	36303.15
449.316	35602.74
449.522	36317.48
449.728	37298.46
449.935	37849.36
450.141	37445.91
450.347	38310.16
450.553	37151.01
450.76	37466.39
450.966	39049.47
451.172	38318.35
451.378	39583.99
451.584	38844.68
451.791	39839.99
451.997	39428.35
452.203	40018.16
452.409	40274.16
452.615	40067.31
452.821	38689.03
453.027	37806.36
453.233	40085.75
453.44	38615.3
453.646	39100.67
453.852	39323.9
454.058	39923.96
454.264	38627.59
454.47	39596.28
454.676	38770.95
454.882	39586.04
455.088	36417.83
455.294	36800.8
455.5	37450.01
455.705	37669.14
455.911	36383.02
456.117	35701.04
456.323	34904.38
456.529	33354.07
456.735	34939.2
456.941	33640.79
457.147	33247.58
457.352	32371.05
457.558	32086.38
457.764	32278.89
457.97	31498.61
458.176	30839.17
458.381	30810.5
458.587	29112.73
458.793	29507.99
458.999	28273.06
459.204	29823.37
459.41	28879.26
459.616	26923.45
459.821	27201.97
460.027	27019.71
460.233	26130.89
460.438	25448.91
460.644	25500.11
460.85	24150.5
461.055	23837.16
461.261	23902.7
461.466	22239.75
461.672	21246.48
461.878	22936.06
462.083	21441.04
462.289	21051.92
462.494	20646.43
462.7	19862.05
462.905	19561
463.111	19853.86
463.316	20181.54
463.522	19393.07
463.727	19489.32
463.932	19743.27
464.138	19163.7
464.343	19644.97
464.549	18864.69
464.754	19468.84
464.959	19345.97
465.165	19016.24
465.37	18254.4
465.575	17828.42
465.781	18430.52
465.986	18584.12
466.191	18082.37
466.397	17627.72
466.602	16943.7
466.807	17744.45
467.012	17412.68
467.218	17371.72
467.423	17441.36
