Data from USB4F104151__70__11-45-27-388.txt Node

Date: Fri Mar 14 11:45:27 EDT 2025
User: louis
Spectrometer: USB4F10415
Trigger mode: 4
Integration Time (sec): 2.000000E-2
Scans to average: 1
Electric dark correction enabled: true
Nonlinearity correction enabled: false
Boxcar width: 0
XAxis mode: Wavelengths
Number of Pixels in Spectrum: 3648
>>>>>Begin Spectral Data<<<<<
178.204	-79.19
178.424	-79.19
178.644	-79.19
178.864	-79.19
179.084	-103.76
179.304	29.35
179.524	-5.46
179.744	-17.75
179.964	15.02
180.184	8.87
180.404	49.83
180.624	-19.8
180.844	-36.18
181.064	21.16
181.283	-46.42
181.503	-34.13
181.723	35.5
181.943	23.21
182.163	84.65
182.383	8.87
182.602	4.78
182.822	29.35
183.042	-17.75
183.262	23.21
183.482	2.73
183.701	-7.51
183.921	39.59
184.141	-27.99
184.361	31.4
184.58	21.16
184.8	-38.23
185.02	2.73
185.239	27.31
185.459	70.31
185.679	6.83
185.898	-23.89
186.118	86.7
186.338	60.07
186.557	-30.04
186.777	-19.8
186.997	15.02
187.216	-15.7
187.436	-44.37
187.655	-5.46
187.875	66.22
188.095	-11.61
188.314	-11.61
188.534	51.88
188.753	76.46
188.973	43.69
189.192	92.84
189.412	-38.23
189.631	-56.66
189.851	10.92
190.07	80.55
190.29	4.78
190.509	-23.89
190.729	23.21
190.948	53.93
191.168	86.7
191.387	-23.89
191.607	0.68
191.826	-36.18
192.045	88.75
192.265	-15.7
192.484	6.83
192.704	12.97
192.923	17.07
193.142	41.64
193.362	12.97
193.581	12.97
193.8	31.4
194.02	92.84
194.239	-9.56
194.458	51.88
194.678	72.36
194.897	37.55
195.116	-17.75
195.335	8.87
195.555	-11.61
195.774	35.5
195.993	47.79
196.212	-27.99
196.432	-15.7
196.651	6.83
196.87	8.87
197.089	2.73
197.308	-11.61
197.528	29.35
197.747	39.59
197.966	25.26
198.185	53.93
198.404	-23.89
198.623	17.07
198.842	0.68
199.062	53.93
199.281	109.22
199.5	-48.47
199.719	17.07
199.938	-60.76
200.157	31.4
200.376	53.93
200.595	-58.71
200.814	-25.94
201.033	-5.46
201.252	76.46
201.471	35.5
201.69	15.02
201.909	76.46
202.128	55.98
202.347	92.84
202.566	-3.41
202.785	33.45
203.004	35.5
203.223	98.99
203.442	-7.51
203.661	19.11
203.879	23.21
204.098	27.31
204.317	6.83
204.536	10.92
204.755	-7.51
204.974	82.6
205.193	-19.8
205.411	45.74
205.63	37.55
205.849	0.68
206.068	8.87
206.287	51.88
206.505	25.26
206.724	64.17
206.943	0.68
207.162	-9.56
207.381	49.83
207.599	-21.85
207.818	21.16
208.037	12.97
208.255	-21.85
208.474	-58.71
208.693	31.4
208.911	4.78
209.13	-5.46
209.349	-5.46
209.567	51.88
209.786	39.59
210.005	82.6
210.223	43.69
210.442	-79.19
210.661	68.27
210.879	-46.42
211.098	37.55
211.316	37.55
211.535	43.69
211.753	37.55
211.972	-1.37
212.191	43.69
212.409	-19.8
212.628	35.5
212.846	-19.8
213.065	45.74
213.283	31.4
213.502	-1.37
213.72	-58.71
213.938	15.02
214.157	27.31
214.375	12.97
214.594	6.83
214.812	27.31
215.031	8.87
215.249	4.78
215.467	0.68
215.686	-56.66
215.904	-44.37
216.122	60.07
216.341	8.87
216.559	25.26
216.778	37.55
216.996	-64.85
217.214	62.12
217.432	0.68
217.651	-13.65
217.869	41.64
218.087	17.07
218.306	58.03
218.524	12.97
218.742	-5.46
218.96	10.92
219.179	60.07
219.397	31.4
219.615	51.88
219.833	68.27
220.051	15.02
220.27	21.16
220.488	6.83
220.706	49.83
220.924	12.97
221.142	-7.51
221.36	37.55
221.578	15.02
221.796	0.68
222.015	2.73
222.233	51.88
222.451	23.21
222.669	-50.52
222.887	4.78
223.105	27.31
223.323	2.73
223.541	-32.08
223.759	31.4
223.977	84.65
224.195	12.97
224.413	29.35
224.631	-11.61
224.849	47.79
225.067	-15.7
225.285	53.93
225.503	19.11
225.721	4.78
225.939	-19.8
226.157	-15.7
226.375	45.74
226.592	51.88
226.81	12.97
227.028	51.88
227.246	39.59
227.464	21.16
227.682	53.93
227.9	-27.99
228.117	66.22
228.335	8.87
228.553	39.59
228.771	-25.94
228.989	21.16
229.206	47.79
229.424	37.55
229.642	62.12
229.86	-25.94
230.077	68.27
230.295	-42.32
230.513	53.93
230.731	94.89
230.948	64.17
231.166	47.79
231.384	12.97
231.601	27.31
231.819	78.51
232.037	-17.75
232.254	-11.61
232.472	29.35
232.689	-36.18
232.907	39.59
233.125	55.98
233.342	21.16
233.56	-15.7
233.777	33.45
233.995	-5.46
234.213	53.93
234.43	27.31
234.648	53.93
234.865	-34.13
235.083	6.83
235.3	-5.46
235.518	25.26
235.735	74.41
235.953	19.11
236.17	33.45
236.388	-13.65
236.605	62.12
236.822	12.97
237.04	72.36
237.257	96.94
237.475	103.08
237.692	64.17
237.909	-9.56
238.127	10.92
238.344	27.31
238.562	74.41
238.779	-58.71
238.996	-85.33
239.214	74.41
239.431	31.4
239.648	-21.85
239.865	121.51
240.083	29.35
240.3	4.78
240.517	55.98
240.735	45.74
240.952	51.88
241.169	35.5
241.386	64.17
241.603	-15.7
241.821	17.07
242.038	45.74
242.255	-118.1
242.472	35.5
242.689	15.02
242.907	15.02
243.124	31.4
243.341	105.13
243.558	55.98
243.775	31.4
243.992	-52.56
244.209	82.6
244.426	117.42
244.643	12.97
244.86	29.35
245.078	39.59
245.295	-1.37
245.512	15.02
245.729	-1.37
245.946	47.79
246.163	43.69
246.38	2.73
246.597	29.35
246.814	-25.94
247.031	64.17
247.248	-3.41
247.464	58.03
247.681	45.74
247.898	12.97
248.115	62.12
248.332	-7.51
248.549	-5.46
248.766	29.35
248.983	23.21
249.2	49.83
249.417	-13.65
249.633	27.31
249.85	29.35
250.067	49.83
250.284	-66.9
250.501	107.18
250.717	-17.75
250.934	51.88
251.151	-9.56
251.368	55.98
251.585	35.5
251.801	6.83
252.018	19.11
252.235	21.16
252.451	21.16
252.668	31.4
252.885	39.59
253.102	-50.52
253.318	64.17
253.535	15.02
253.752	19.11
253.968	4.78
254.185	27.31
254.401	12.97
254.618	8.87
254.835	-75.09
255.051	29.35
255.268	-30.04
255.484	17.07
255.701	-21.85
255.917	-46.42
256.134	55.98
256.351	0.68
256.567	25.26
256.784	21.16
257	33.45
257.217	19.11
257.433	-7.51
257.65	49.83
257.866	23.21
258.082	31.4
258.299	-19.8
258.515	0.68
258.732	35.5
258.948	19.11
259.165	-7.51
259.381	62.12
259.597	55.98
259.814	12.97
260.03	84.65
260.246	-42.32
260.463	41.64
260.679	94.89
260.895	47.79
261.112	41.64
261.328	33.45
261.544	21.16
261.761	96.94
261.977	-23.89
262.193	-30.04
262.409	29.35
262.626	-48.47
262.842	53.93
263.058	19.11
263.274	-21.85
263.49	45.74
263.707	27.31
263.923	49.83
264.139	47.79
264.355	21.16
264.571	29.35
264.787	-7.51
265.004	113.32
265.22	94.89
265.436	96.94
265.652	-11.61
265.868	72.36
266.084	55.98
266.3	74.41
266.516	47.79
266.732	-30.04
266.948	49.83
267.164	17.07
267.38	41.64
267.596	-5.46
267.812	96.94
268.028	12.97
268.244	60.07
268.46	23.21
268.676	4.78
268.892	113.32
269.108	-30.04
269.324	21.16
269.54	33.45
269.756	74.41
269.972	-27.99
270.188	-13.65
270.403	21.16
270.619	29.35
270.835	-1.37
271.051	-32.08
271.267	-7.51
271.483	-23.89
271.698	125.61
271.914	41.64
272.13	35.5
272.346	4.78
272.562	41.64
272.777	96.94
272.993	33.45
273.209	-15.7
273.425	49.83
273.64	2.73
273.856	66.22
274.072	-64.85
274.287	64.17
274.503	37.55
274.719	-68.95
274.934	29.35
275.15	0.68
275.366	-15.7
275.581	80.55
275.797	-11.61
276.012	58.03
276.228	76.46
276.444	41.64
276.659	92.84
276.875	-13.65
277.09	2.73
277.306	47.79
277.521	25.26
277.737	76.46
277.952	70.31
278.168	45.74
278.383	-25.94
278.599	-9.56
278.814	25.26
279.03	15.02
279.245	74.41
279.461	-15.7
279.676	35.5
279.892	33.45
280.107	35.5
280.322	37.55
280.538	25.26
280.753	25.26
280.969	64.17
281.184	-58.71
281.399	76.46
281.615	-7.51
281.83	68.27
282.045	43.69
282.26	60.07
282.476	-44.37
282.691	70.31
282.906	-17.75
283.122	58.03
283.337	43.69
283.552	53.93
283.767	-7.51
283.983	15.02
284.198	4.78
284.413	33.45
284.628	-40.28
284.843	25.26
285.058	58.03
285.274	-3.41
285.489	-36.18
285.704	92.84
285.919	-13.65
286.134	4.78
286.349	-1.37
286.564	-36.18
286.779	55.98
286.995	-23.89
287.21	-13.65
287.425	6.83
287.64	19.11
287.855	78.51
288.07	-30.04
288.285	49.83
288.5	70.31
288.715	12.97
288.93	35.5
289.145	41.64
289.36	8.87
289.575	47.79
289.79	-19.8
290.004	90.79
290.219	12.97
290.434	-5.46
290.649	21.16
290.864	37.55
291.079	12.97
291.294	12.97
291.509	12.97
291.724	27.31
291.938	76.46
292.153	66.22
292.368	101.03
292.583	8.87
292.798	137.9
293.012	39.59
293.227	17.07
293.442	55.98
293.657	-30.04
293.871	82.6
294.086	33.45
294.301	-40.28
294.516	86.7
294.73	98.99
294.945	27.31
295.16	-7.51
295.374	43.69
295.589	74.41
295.804	-21.85
296.018	-15.7
296.233	105.13
296.447	8.87
296.662	39.59
296.877	-9.56
297.091	-32.08
297.306	12.97
297.52	10.92
297.735	-42.32
297.949	90.79
298.164	45.74
298.378	39.59
298.593	-66.9
298.807	-32.08
299.022	-42.32
299.236	80.55
299.451	70.31
299.665	58.03
299.88	60.07
300.094	-34.13
300.309	-25.94
300.523	-3.41
300.737	21.16
300.952	19.11
301.166	45.74
301.381	58.03
301.595	123.56
301.809	82.6
302.024	53.93
302.238	-66.9
302.452	-1.37
302.667	55.98
302.881	6.83
303.095	21.16
303.309	41.64
303.524	88.75
303.738	-9.56
303.952	-23.89
304.166	80.55
304.381	-27.99
304.595	115.37
304.809	4.78
305.023	19.11
305.237	31.4
305.452	21.16
305.666	49.83
305.88	43.69
306.094	74.41
306.308	86.7
306.522	37.55
306.736	23.21
306.95	8.87
307.164	35.5
307.379	41.64
307.593	4.78
307.807	-7.51
308.021	12.97
308.235	86.7
308.449	88.75
308.663	35.5
308.877	-9.56
309.091	29.35
309.305	-19.8
309.519	-52.56
309.733	101.03
309.947	45.74
310.161	86.7
310.374	-27.99
310.588	47.79
310.802	66.22
311.016	12.97
311.23	58.03
311.444	10.92
311.658	62.12
311.872	70.31
312.085	21.16
312.299	2.73
312.513	66.22
312.727	-25.94
312.941	-36.18
313.154	41.64
313.368	-5.46
313.582	96.94
313.796	-7.51
314.009	33.45
314.223	35.5
314.437	51.88
314.651	35.5
314.864	74.41
315.078	17.07
315.292	-64.85
315.505	15.02
315.719	45.74
315.933	-11.61
316.146	49.83
316.36	12.97
316.573	51.88
316.787	47.79
317.001	-1.37
317.214	6.83
317.428	6.83
317.641	6.83
317.855	49.83
318.068	15.02
318.282	60.07
318.495	78.51
318.709	35.5
318.922	-19.8
319.136	10.92
319.349	-9.56
319.563	17.07
319.776	-64.85
319.99	58.03
320.203	123.56
320.417	-7.51
320.63	0.68
320.843	41.64
321.057	76.46
321.27	23.21
321.483	-40.28
321.697	68.27
321.91	23.21
322.124	12.97
322.337	23.21
322.55	103.08
322.763	17.07
322.977	33.45
323.19	43.69
323.403	53.93
323.617	31.4
323.83	6.83
324.043	10.92
324.256	113.32
324.469	62.12
324.683	55.98
324.896	35.5
325.109	51.88
325.322	-9.56
325.535	25.26
325.748	47.79
325.962	-42.32
326.175	47.79
326.388	10.92
326.601	119.46
326.814	58.03
327.027	-23.89
327.24	60.07
327.453	-9.56
327.666	78.51
327.879	84.65
328.092	12.97
328.305	74.41
328.518	-3.41
328.731	25.26
328.944	2.73
329.157	-7.51
329.37	-11.61
329.583	17.07
329.796	4.78
330.009	8.87
330.222	-1.37
330.435	70.31
330.648	49.83
330.861	29.35
331.073	60.07
331.286	90.79
331.499	-11.61
331.712	6.83
331.925	90.79
332.138	131.75
332.35	49.83
332.563	49.83
332.776	37.55
332.989	-27.99
333.202	0.68
333.414	-19.8
333.627	19.11
333.84	37.55
334.053	49.83
334.265	33.45
334.478	37.55
334.691	68.27
334.903	27.31
335.116	49.83
335.329	33.45
335.541	31.4
335.754	6.83
335.966	49.83
336.179	29.35
336.392	2.73
336.604	53.93
336.817	58.03
337.029	-7.51
337.242	66.22
337.454	-46.42
337.667	-5.46
337.88	45.74
338.092	64.17
338.305	121.51
338.517	-32.08
338.729	60.07
338.942	94.89
339.154	-3.41
339.367	109.22
339.579	53.93
339.792	-5.46
340.004	82.6
340.217	-27.99
340.429	53.93
340.641	0.68
340.854	58.03
341.066	10.92
341.278	41.64
341.491	101.03
341.703	43.69
341.915	-15.7
342.128	-5.46
342.34	25.26
342.552	94.89
342.764	19.11
342.977	-30.04
343.189	-19.8
343.401	10.92
343.613	23.21
343.826	55.98
344.038	-56.66
344.25	17.07
344.462	43.69
344.674	-13.65
344.886	0.68
345.099	41.64
345.311	68.27
345.523	19.11
345.735	68.27
345.947	47.79
346.159	19.11
346.371	17.07
346.583	70.31
346.795	90.79
347.007	58.03
347.219	64.17
347.431	53.93
347.643	21.16
347.855	74.41
348.067	96.94
348.279	19.11
348.491	6.83
348.703	55.98
348.915	58.03
349.127	41.64
349.339	62.12
349.551	49.83
349.763	27.31
349.975	6.83
350.187	10.92
350.399	6.83
350.61	62.12
350.822	66.22
351.034	68.27
351.246	33.45
351.458	113.32
351.669	-13.65
351.881	-13.65
352.093	10.92
352.305	103.08
352.517	8.87
352.728	76.46
352.94	70.31
353.152	-5.46
353.363	33.45
353.575	51.88
353.787	29.35
353.999	6.83
354.21	-7.51
354.422	53.93
354.633	70.31
354.845	29.35
355.057	86.7
355.268	12.97
355.48	82.6
355.692	-1.37
355.903	-17.75
356.115	19.11
356.326	25.26
356.538	62.12
356.749	80.55
356.961	107.18
357.172	51.88
357.384	82.6
357.595	66.22
357.807	-42.32
358.018	31.4
358.23	76.46
358.441	111.27
358.653	41.64
358.864	43.69
359.075	35.5
359.287	92.84
359.498	72.36
359.709	37.55
359.921	70.31
360.132	25.26
360.344	68.27
360.555	8.87
360.766	62.12
360.977	-13.65
361.189	37.55
361.4	51.88
361.611	74.41
361.823	55.98
362.034	70.31
362.245	15.02
362.456	103.08
362.667	70.31
362.879	23.21
363.09	88.75
363.301	-38.23
363.512	74.41
363.723	66.22
363.935	51.88
364.146	41.64
364.357	80.55
364.568	53.93
364.779	-3.41
364.99	31.4
365.201	2.73
365.412	62.12
365.623	25.26
365.834	-1.37
366.045	111.27
366.256	41.64
366.467	72.36
366.678	0.68
366.889	-13.65
367.1	31.4
367.311	64.17
367.522	31.4
367.733	-15.7
367.944	68.27
368.155	45.74
368.366	55.98
368.577	107.18
368.788	80.55
368.999	39.59
369.209	53.93
369.42	92.84
369.631	58.03
369.842	64.17
370.053	-17.75
370.264	55.98
370.474	-11.61
370.685	107.18
370.896	10.92
371.107	62.12
371.317	64.17
371.528	119.46
371.739	119.46
371.95	51.88
372.16	53.93
372.371	41.64
372.582	103.08
372.792	98.99
373.003	25.26
373.214	29.35
373.424	-17.75
373.635	31.4
373.846	76.46
374.056	19.11
374.267	47.79
374.477	23.21
374.688	58.03
374.898	-11.61
375.109	51.88
375.319	51.88
375.53	53.93
375.74	60.07
375.951	37.55
376.161	15.02
376.372	129.7
376.582	35.5
376.793	-38.23
377.003	31.4
377.214	17.07
377.424	88.75
377.635	-25.94
377.845	53.93
378.055	101.03
378.266	62.12
378.476	-58.71
378.686	17.07
378.897	72.36
379.107	82.6
379.317	-15.7
379.528	33.45
379.738	78.51
379.948	41.64
380.158	10.92
380.369	19.11
380.579	90.79
380.789	45.74
380.999	47.79
381.21	45.74
381.42	162.47
381.63	-5.46
381.84	58.03
382.05	64.17
382.261	41.64
382.471	86.7
382.681	41.64
382.891	78.51
383.101	58.03
383.311	4.78
383.521	53.93
383.731	72.36
383.941	51.88
384.151	49.83
384.361	105.13
384.571	103.08
384.781	111.27
384.991	74.41
385.201	66.22
385.411	-25.94
385.621	105.13
385.831	41.64
386.041	8.87
386.251	58.03
386.461	90.79
386.671	4.78
386.881	49.83
387.091	21.16
387.301	76.46
387.511	2.73
387.72	135.85
387.93	60.07
388.14	115.37
388.35	27.31
388.56	45.74
388.769	39.59
388.979	60.07
389.189	78.51
389.399	117.42
389.609	88.75
389.818	39.59
390.028	-19.8
390.238	45.74
390.447	27.31
390.657	193.19
390.867	53.93
391.076	55.98
391.286	76.46
391.496	2.73
391.705	23.21
391.915	109.22
392.125	115.37
392.334	49.83
392.544	105.13
392.753	53.93
392.963	49.83
393.172	96.94
393.382	80.55
393.591	76.46
393.801	8.87
394.01	92.84
394.22	195.24
394.429	72.36
394.639	33.45
394.848	84.65
395.058	78.51
395.267	55.98
395.477	119.46
395.686	115.37
395.895	80.55
396.105	86.7
396.314	62.12
396.524	72.36
396.733	82.6
396.942	103.08
397.152	94.89
397.361	166.57
397.57	60.07
397.78	90.79
397.989	96.94
398.198	121.51
398.407	107.18
398.617	41.64
398.826	96.94
399.035	148.14
399.244	58.03
399.453	135.85
399.663	76.46
399.872	84.65
400.081	-23.89
400.29	113.32
400.499	148.14
400.708	135.85
400.917	25.26
401.127	21.16
401.336	70.31
401.545	94.89
401.754	107.18
401.963	35.5
402.172	152.23
402.381	86.7
402.59	72.36
402.799	90.79
403.008	66.22
403.217	113.32
403.426	72.36
403.635	103.08
403.844	86.7
404.053	123.56
404.262	84.65
404.471	197.29
404.68	127.66
404.888	121.51
405.097	94.89
405.306	146.09
405.515	111.27
405.724	172.71
405.933	148.14
406.142	137.9
406.35	213.67
406.559	209.58
406.768	148.14
406.977	244.39
407.185	133.8
407.394	295.59
407.603	158.38
407.812	168.62
408.02	291.49
408.229	207.53
408.438	223.91
408.646	168.62
408.855	228.01
409.064	260.77
409.272	230.06
409.481	248.49
409.69	225.96
409.898	260.77
410.107	295.59
410.315	244.39
410.524	295.59
410.733	225.96
410.941	283.3
411.15	359.08
411.358	406.18
411.567	314.02
411.775	352.93
411.984	490.15
412.192	400.04
412.401	471.72
412.609	488.1
412.818	457.38
413.026	488.1
413.234	484
413.443	471.72
413.651	496.29
413.86	545.44
414.068	518.82
414.276	582.31
414.485	524.96
414.693	629.41
414.901	627.36
415.11	600.74
415.318	664.22
415.526	635.55
415.734	631.46
415.943	735.9
416.151	750.24
416.359	815.77
416.567	828.06
416.776	793.25
416.984	869.02
417.192	934.56
417.4	928.41
417.608	934.56
417.817	1012.38
418.025	1004.19
418.233	1108.63
418.441	1053.34
418.649	1174.17
418.857	1286.81
419.065	1307.29
419.273	1184.41
419.481	1208.98
419.689	1376.92
419.897	1356.44
420.105	1372.82
420.313	1444.5
420.521	1600.15
420.729	1458.84
420.937	1585.81
421.145	1606.29
421.353	1727.12
421.561	1839.76
421.769	1794.7
421.977	1847.95
422.185	1909.39
422.393	1991.31
422.601	2237.06
422.809	2163.34
423.017	2134.67
423.224	2222.73
423.432	2333.32
423.64	2333.32
423.848	2585.22
424.056	2331.27
424.263	2620.03
424.471	2718.34
424.679	2693.76
424.887	2804.35
425.094	2857.6
425.302	2865.79
425.51	3136.12
425.718	3109.5
425.925	3183.23
426.133	3265.14
426.341	3607.16
426.548	3687.03
426.756	3666.55
426.964	3689.07
427.171	3869.3
427.379	4000.37
427.586	4000.37
427.794	4221.55
428.001	4387.43
428.209	4620.9
428.417	4452.97
428.624	4913.76
428.832	4979.29
429.039	4749.92
429.247	4801.12
429.454	5300.83
429.662	5517.91
429.869	5278.3
430.076	5550.68
430.284	5552.73
430.491	5659.22
430.699	5956.18
430.906	5900.88
431.114	6201.93
431.321	6316.62
431.528	6601.29
431.736	6971.97
431.943	7205.44
432.15	7100.99
432.358	7121.47
432.565	7406.14
432.772	7408.19
432.979	7922.23
433.187	7998
433.394	7944.75
433.601	8352.3
433.808	8550.95
434.016	8567.34
434.223	8874.53
434.43	9220.64
434.637	9198.11
434.844	9808.41
435.052	9943.57
435.259	9929.24
435.466	10039.83
435.673	10170.9
435.88	10787.33
436.087	11022.85
436.294	11153.92
436.501	10844.68
436.708	11248.13
436.915	11448.83
437.122	11801.08
437.329	12007.92
437.537	12290.54
437.743	12448.24
437.95	12431.85
438.157	13087.2
438.364	13568.48
438.571	13355.49
438.778	13656.54
438.985	15034.82
439.192	14248.4
439.399	14715.34
439.606	14125.52
439.813	15313.35
440.02	16259.51
440.227	15765.95
440.433	15780.28
440.64	16288.18
440.847	16210.36
441.054	16320.95
441.261	17510.82
441.467	17228.2
441.674	17848.73
441.881	18276.76
442.088	18592.14
442.294	18323.86
442.501	18794.89
442.708	18911.63
442.914	19718.53
443.121	20425.08
443.328	20148.6
443.534	21389.67
443.741	21039.47
443.948	20752.75
444.154	22296.92
444.361	21686.62
444.568	22200.66
444.774	22167.9
444.981	22264.15
445.187	23112.01
445.394	23955.77
445.6	23513.41
445.807	26085.66
446.013	24824.11
446.22	25270.57
446.426	26200.35
446.633	26730.77
446.839	27410.7
447.046	26153.24
447.252	27715.84
447.459	27631.88
447.665	27848.96
447.871	28991.73
448.078	30286.04
448.284	28729.59
448.491	29591.78
448.697	30847.19
448.903	31158.48
449.11	31006.93
449.316	30630.1
449.522	31338.7
449.728	32098.5
449.935	32354.49
450.141	32221.37
450.347	33235.12
450.553	32037.06
450.76	32735.42
450.966	33718.44
451.172	33239.22
451.378	34066.59
451.584	33347.76
451.791	34236.58
451.997	34250.91
452.203	35137.68
452.409	34427.04
452.615	34547.87
452.821	33435.82
453.027	32706.74
453.233	34670.75
453.44	32962.74
453.646	33734.82
453.852	33872.04
454.058	34384.03
454.264	32929.97
454.47	33718.44
454.676	33130.67
454.882	34359.45
455.088	31262.93
455.294	31992
455.5	32469.18
455.705	32383.16
455.911	31281.36
456.117	30845.14
456.323	30290.14
456.529	28940.53
456.735	30140.64
456.941	29317.36
457.147	28713.2
457.352	28035.33
457.558	27832.58
457.764	27410.7
457.97	26966.29
458.176	26761.49
458.381	26304.79
458.587	25129.26
458.793	25102.64
458.999	23773.5
459.204	25516.33
459.41	24793.39
459.616	23140.68
459.821	23118.15
460.027	23183.69
460.233	22403.41
460.438	21543.27
460.644	21799.26
460.85	20748.65
461.055	20517.23
461.261	20314.48
461.466	18813.32
461.672	18516.37
461.878	19589.5
462.083	17973.66
462.289	17906.07
462.494	17605.02
462.7	17168.8
462.905	16587.18
463.111	17082.79
463.316	17346.98
463.522	16757.16
463.727	16802.22
463.932	16888.23
464.138	16685.48
464.343	16587.18
464.549	16130.48
464.754	16828.84
464.959	16785.83
465.165	16550.32
465.37	16073.14
465.575	15382.98
465.781	15970.74
465.986	16308.66
466.191	15483.33
466.397	15165.89
466.602	14428.62
466.807	14989.77
467.012	15073.73
467.218	15036.87
467.423	14813.64
467.628	14899.66
