Data from USB4F104151__4__11-44-23-283.txt Node

Date: Fri Mar 14 11:44:23 EDT 2025
User: louis
Spectrometer: USB4F10415
Trigger mode: 4
Integration Time (sec): 2.000000E-2
Scans to average: 1
Electric dark correction enabled: true
Nonlinearity correction enabled: false
Boxcar width: 0
XAxis mode: Wavelengths
Number of Pixels in Spectrum: 3648
>>>>>Begin Spectral Data<<<<<
178.204	-93.18
178.424	-93.18
178.644	-93.18
178.864	-109.57
179.084	-58.37
179.304	-70.65
179.524	19.46
179.744	-56.32
179.964	-1.02
180.184	7.17
180.404	46.08
180.624	7.17
180.844	-21.5
181.064	9.22
181.283	19.46
181.503	5.12
181.723	35.84
181.943	-31.74
182.163	50.18
182.383	35.84
182.602	27.65
182.822	54.27
183.042	50.18
183.262	3.07
183.482	74.75
183.701	13.31
183.921	46.08
184.141	-37.89
184.361	46.08
184.58	84.99
184.8	3.07
185.02	-21.5
185.239	-54.27
185.459	-27.65
185.679	33.79
185.898	15.36
186.118	15.36
186.338	-21.5
186.557	64.51
186.777	54.27
186.997	-44.03
187.216	-15.36
187.436	48.13
187.655	74.75
187.875	-17.41
188.095	-33.79
188.314	35.84
188.534	27.65
188.753	-5.12
188.973	3.07
189.192	68.61
189.412	-21.5
189.631	-15.36
189.851	-1.02
190.07	91.13
190.29	-3.07
190.509	-27.65
190.729	48.13
190.948	52.22
191.168	84.99
191.387	39.94
191.607	-7.17
191.826	5.12
192.045	17.41
192.265	31.74
192.484	46.08
192.704	25.6
192.923	9.22
193.142	58.37
193.362	5.12
193.581	25.6
193.8	-41.98
194.02	-44.03
194.239	-15.36
194.458	17.41
194.678	-7.17
194.897	17.41
195.116	-60.42
195.335	19.46
195.555	56.32
195.774	37.89
195.993	9.22
196.212	17.41
196.432	-7.17
196.651	37.89
196.87	15.36
197.089	66.56
197.308	37.89
197.528	82.94
197.747	1.02
197.966	46.08
198.185	25.6
198.404	25.6
198.623	62.46
198.842	27.65
199.062	44.03
199.281	80.89
199.5	60.42
199.719	60.42
199.938	3.07
200.157	72.7
200.376	33.79
200.595	70.65
200.814	13.31
201.033	-11.26
201.252	7.17
201.471	54.27
201.69	95.23
201.909	101.37
202.128	25.6
202.347	13.31
202.566	76.8
202.785	25.6
203.004	-31.74
203.223	37.89
203.442	1.02
203.661	-21.5
203.879	9.22
204.098	29.7
204.317	-23.55
204.536	54.27
204.755	-17.41
204.974	99.33
205.193	-1.02
205.411	62.46
205.63	19.46
205.849	109.57
206.068	41.98
206.287	-21.5
206.505	25.6
206.724	-1.02
206.943	9.22
207.162	3.07
207.381	-9.22
207.599	44.03
207.818	41.98
208.037	3.07
208.255	-25.6
208.474	-21.5
208.693	80.89
208.911	25.6
209.13	46.08
209.349	60.42
209.567	9.22
209.786	21.5
210.005	-23.55
210.223	-5.12
210.442	-23.55
210.661	3.07
210.879	-9.22
211.098	-13.31
211.316	-19.46
211.535	62.46
211.753	25.6
211.972	29.7
212.191	15.36
212.409	21.5
212.628	-19.46
212.846	-13.31
213.065	13.31
213.283	58.37
213.502	64.51
213.72	-9.22
213.938	74.75
214.157	70.65
214.375	39.94
214.594	33.79
214.812	76.8
215.031	-27.65
215.249	50.18
215.467	58.37
215.686	-54.27
215.904	-13.31
216.122	3.07
216.341	68.61
216.559	41.98
216.778	48.13
216.996	-19.46
217.214	54.27
217.432	-31.74
217.651	15.36
217.869	15.36
218.087	117.76
218.306	-35.84
218.524	3.07
218.742	-21.5
218.96	-5.12
219.179	-44.03
219.397	27.65
219.615	66.56
219.833	27.65
220.051	-1.02
220.27	23.55
220.488	-25.6
220.706	-1.02
220.924	17.41
221.142	35.84
221.36	-23.55
221.578	-23.55
221.796	15.36
222.015	74.75
222.233	-70.65
222.451	-1.02
222.669	33.79
222.887	91.13
223.105	93.18
223.323	-7.17
223.541	29.7
223.759	-3.07
223.977	25.6
224.195	1.02
224.413	1.02
224.631	21.5
224.849	70.65
225.067	17.41
225.285	7.17
225.503	25.6
225.721	-74.75
225.939	17.41
226.157	27.65
226.375	72.7
226.592	33.79
226.81	11.26
227.028	9.22
227.246	84.99
227.464	66.56
227.682	23.55
227.9	5.12
228.117	-13.31
228.335	15.36
228.553	41.98
228.771	-27.65
228.989	54.27
229.206	-31.74
229.424	-50.18
229.642	89.09
229.86	54.27
230.077	19.46
230.295	25.6
230.513	11.26
230.731	119.81
230.948	7.17
231.166	37.89
231.384	7.17
231.601	13.31
231.819	48.13
232.037	54.27
232.254	-25.6
232.472	-5.12
232.689	13.31
232.907	87.04
233.125	-29.7
233.342	64.51
233.56	-58.37
233.777	60.42
233.995	109.57
234.213	62.46
234.43	58.37
234.648	15.36
234.865	1.02
235.083	87.04
235.3	89.09
235.518	46.08
235.735	95.23
235.953	82.94
236.17	-3.07
236.388	-54.27
236.605	64.51
236.822	17.41
237.04	82.94
237.257	41.98
237.475	-29.7
237.692	66.56
237.909	-19.46
238.127	27.65
238.344	66.56
238.562	-15.36
238.779	-25.6
238.996	25.6
239.214	7.17
239.431	-76.8
239.648	31.74
239.865	11.26
240.083	-25.6
240.3	23.55
240.517	23.55
240.735	9.22
240.952	15.36
241.169	58.37
241.386	89.09
241.603	25.6
241.821	-3.07
242.038	13.31
242.255	70.65
242.472	21.5
242.689	-7.17
242.907	29.7
243.124	-15.36
243.341	7.17
243.558	48.13
243.775	35.84
243.992	33.79
244.209	68.61
244.426	54.27
244.643	125.95
244.86	19.46
245.078	52.22
245.295	33.79
245.512	70.65
245.729	44.03
245.946	29.7
246.163	44.03
246.38	13.31
246.597	17.41
246.814	44.03
247.031	41.98
247.248	19.46
247.464	64.51
247.681	29.7
247.898	11.26
248.115	11.26
248.332	-9.22
248.549	87.04
248.766	21.5
248.983	64.51
249.2	-13.31
249.417	87.04
249.633	-44.03
249.85	19.46
250.067	-13.31
250.284	41.98
250.501	-19.46
250.717	-31.74
250.934	37.89
251.151	31.74
251.368	5.12
251.585	1.02
251.801	-15.36
252.018	72.7
252.235	41.98
252.451	-48.13
252.668	15.36
252.885	37.89
253.102	64.51
253.318	70.65
253.535	23.55
253.752	60.42
253.968	60.42
254.185	-13.31
254.401	-11.26
254.618	41.98
254.835	105.47
255.051	68.61
255.268	46.08
255.484	17.41
255.701	-1.02
255.917	31.74
256.134	-11.26
256.351	101.37
256.567	-25.6
256.784	56.32
257	23.55
257.217	46.08
257.433	1.02
257.65	64.51
257.866	48.13
258.082	9.22
258.299	33.79
258.515	66.56
258.732	50.18
258.948	23.55
259.165	5.12
259.381	72.7
259.597	-52.22
259.814	17.41
260.03	-17.41
260.246	15.36
260.463	54.27
260.679	46.08
260.895	70.65
261.112	91.13
261.328	37.89
261.544	62.46
261.761	87.04
261.977	-25.6
262.193	39.94
262.409	21.5
262.626	-54.27
262.842	25.6
263.058	-52.22
263.274	54.27
263.49	54.27
263.707	76.8
263.923	-15.36
264.139	9.22
264.355	-13.31
264.571	82.94
264.787	39.94
265.004	-23.55
265.22	64.51
265.436	-46.08
265.652	21.5
265.868	70.65
266.084	56.32
266.3	70.65
266.516	17.41
266.732	95.23
266.948	-19.46
267.164	-5.12
267.38	-1.02
267.596	13.31
267.812	46.08
268.028	-3.07
268.244	3.07
268.46	7.17
268.676	64.51
268.892	5.12
269.108	27.65
269.324	52.22
269.54	9.22
269.756	70.65
269.972	29.7
270.188	-21.5
270.403	-25.6
270.619	54.27
270.835	23.55
271.051	13.31
271.267	23.55
271.483	-1.02
271.698	-11.26
271.914	19.46
272.13	11.26
272.346	146.43
272.562	66.56
272.777	41.98
272.993	11.26
273.209	13.31
273.425	48.13
273.64	-7.17
273.856	50.18
274.072	60.42
274.287	3.07
274.503	46.08
274.719	17.41
274.934	-17.41
275.15	15.36
275.366	-17.41
275.581	-11.26
275.797	5.12
276.012	9.22
276.228	35.84
276.444	3.07
276.659	91.13
276.875	64.51
277.09	82.94
277.306	-7.17
277.521	48.13
277.737	-7.17
277.952	17.41
278.168	15.36
278.383	95.23
278.599	-21.5
278.814	-19.46
279.03	66.56
279.245	-52.22
279.461	78.85
279.676	25.6
279.892	35.84
280.107	-25.6
280.322	1.02
280.538	-44.03
280.753	-17.41
280.969	25.6
281.184	3.07
281.399	89.09
281.615	58.37
281.83	103.42
282.045	5.12
282.26	35.84
282.476	58.37
282.691	27.65
282.906	5.12
283.122	101.37
283.337	9.22
283.552	25.6
283.767	-7.17
283.983	-15.36
284.198	80.89
284.413	52.22
284.628	11.26
284.843	52.22
285.058	33.79
285.274	11.26
285.489	48.13
285.704	19.46
285.919	5.12
286.134	-3.07
286.349	1.02
286.564	-13.31
286.779	3.07
286.995	-52.22
287.21	33.79
287.425	50.18
287.64	19.46
287.855	-25.6
288.07	-33.79
288.285	-33.79
288.5	-13.31
288.715	7.17
288.93	-54.27
289.145	13.31
289.36	66.56
289.575	66.56
289.79	31.74
290.004	-39.94
290.219	52.22
290.434	5.12
290.649	70.65
290.864	111.61
291.079	58.37
291.294	23.55
291.509	29.7
291.724	-11.26
291.938	-39.94
292.153	87.04
292.368	76.8
292.583	35.84
292.798	17.41
293.012	50.18
293.227	-7.17
293.442	74.75
293.657	91.13
293.871	72.7
294.086	48.13
294.301	48.13
294.516	60.42
294.73	66.56
294.945	-5.12
295.16	-17.41
295.374	52.22
295.589	25.6
295.804	70.65
296.018	84.99
296.233	11.26
296.447	-1.02
296.662	44.03
296.877	125.95
297.091	33.79
297.306	68.61
297.52	5.12
297.735	-11.26
297.949	-17.41
298.164	84.99
298.378	-1.02
298.593	76.8
298.807	95.23
299.022	64.51
299.236	91.13
299.451	41.98
299.665	-1.02
299.88	-19.46
300.094	-15.36
300.309	21.5
300.523	41.98
300.737	66.56
300.952	78.85
301.166	115.71
301.381	41.98
301.595	74.75
301.809	5.12
302.024	80.89
302.238	46.08
302.452	74.75
302.667	27.65
302.881	52.22
303.095	27.65
303.309	64.51
303.524	64.51
303.738	-52.22
303.952	-68.61
304.166	35.84
304.381	60.42
304.595	-9.22
304.809	66.56
305.023	74.75
305.237	39.94
305.452	15.36
305.666	66.56
305.88	17.41
306.094	62.46
306.308	64.51
306.522	56.32
306.736	37.89
306.95	-17.41
307.164	58.37
307.379	48.13
307.593	9.22
307.807	7.17
308.021	93.18
308.235	64.51
308.449	-31.74
308.663	-7.17
308.877	46.08
309.091	89.09
309.305	109.57
309.519	-19.46
309.733	78.85
309.947	-66.56
310.161	41.98
310.374	-11.26
310.588	13.31
310.802	-17.41
311.016	-31.74
311.23	50.18
311.444	60.42
311.658	60.42
311.872	33.79
312.085	9.22
312.299	-15.36
312.513	72.7
312.727	66.56
312.941	-21.5
313.154	-17.41
313.368	15.36
313.582	-7.17
313.796	-13.31
314.009	-25.6
314.223	60.42
314.437	58.37
314.651	-15.36
314.864	56.32
315.078	23.55
315.292	11.26
315.505	-11.26
315.719	31.74
315.933	70.65
316.146	15.36
316.36	37.89
316.573	62.46
316.787	11.26
317.001	72.7
317.214	54.27
317.428	84.99
317.641	-3.07
317.855	23.55
318.068	64.51
318.282	68.61
318.495	44.03
318.709	13.31
318.922	-5.12
319.136	70.65
319.349	68.61
319.563	56.32
319.776	41.98
319.99	5.12
320.203	-27.65
320.417	15.36
320.63	74.75
320.843	1.02
321.057	-17.41
321.27	50.18
321.483	44.03
321.697	52.22
321.91	-25.6
322.124	74.75
322.337	62.46
322.55	21.5
322.763	-37.89
322.977	52.22
323.19	-37.89
323.403	-1.02
323.617	115.71
323.83	74.75
324.043	-11.26
324.256	82.94
324.469	3.07
324.683	37.89
324.896	62.46
325.109	-37.89
325.322	-33.79
325.535	97.28
325.748	19.46
325.962	1.02
326.175	148.48
326.388	78.85
326.601	37.89
326.814	21.5
327.027	58.37
327.24	109.57
327.453	23.55
327.666	44.03
327.879	54.27
328.092	31.74
328.305	41.98
328.518	-9.22
328.731	19.46
328.944	89.09
329.157	62.46
329.37	48.13
329.583	-1.02
329.796	39.94
330.009	25.6
330.222	76.8
330.435	103.42
330.648	-17.41
330.861	52.22
331.073	72.7
331.286	99.33
331.499	25.6
331.712	-35.84
331.925	1.02
332.138	41.98
332.35	7.17
332.563	23.55
332.776	25.6
332.989	17.41
333.202	-9.22
333.414	-3.07
333.627	82.94
333.84	111.61
334.053	-11.26
334.265	-25.6
334.478	15.36
334.691	39.94
334.903	-23.55
335.116	21.5
335.329	-11.26
335.541	62.46
335.754	107.52
335.966	-7.17
336.179	123.9
336.392	74.75
336.604	-15.36
336.817	50.18
337.029	66.56
337.242	-37.89
337.454	48.13
337.667	54.27
337.88	31.74
338.092	25.6
338.305	-9.22
338.517	17.41
338.729	37.89
338.942	46.08
339.154	84.99
339.367	29.7
339.579	21.5
339.792	27.65
340.004	3.07
340.217	46.08
340.429	68.61
340.641	7.17
340.854	39.94
341.066	1.02
341.278	66.56
341.491	140.29
341.703	27.65
341.915	58.37
342.128	25.6
342.34	74.75
342.552	1.02
342.764	1.02
342.977	-7.17
343.189	62.46
343.401	46.08
343.613	33.79
343.826	-29.7
344.038	-46.08
344.25	25.6
344.462	13.31
344.674	58.37
344.886	17.41
345.099	50.18
345.311	111.61
345.523	64.51
345.735	-5.12
345.947	15.36
346.159	-11.26
346.371	9.22
346.583	84.99
346.795	62.46
347.007	23.55
347.219	19.46
347.431	41.98
347.643	-13.31
347.855	84.99
348.067	76.8
348.279	-3.07
348.491	39.94
348.703	-91.13
348.915	54.27
349.127	27.65
349.339	70.65
349.551	-13.31
349.763	113.66
349.975	82.94
350.187	48.13
350.399	27.65
350.61	41.98
350.822	44.03
351.034	54.27
351.246	87.04
351.458	72.7
351.669	25.6
351.881	31.74
352.093	3.07
352.305	66.56
352.517	17.41
352.728	60.42
352.94	60.42
353.152	54.27
353.363	27.65
353.575	74.75
353.787	89.09
353.999	117.76
354.21	72.7
354.422	72.7
354.633	23.55
354.845	72.7
355.057	-33.79
355.268	72.7
355.48	91.13
355.692	3.07
355.903	-35.84
356.115	103.42
356.326	-72.7
356.538	74.75
356.749	74.75
356.961	66.56
357.172	-9.22
357.384	52.22
357.595	80.89
357.807	25.6
358.018	9.22
358.23	152.57
358.441	58.37
358.653	99.33
358.864	-11.26
359.075	50.18
359.287	66.56
359.498	134.14
359.709	25.6
359.921	15.36
360.132	103.42
360.344	11.26
360.555	-11.26
360.766	78.85
360.977	-29.7
361.189	17.41
361.4	9.22
361.611	54.27
361.823	31.74
362.034	3.07
362.245	68.61
362.456	17.41
362.667	46.08
362.879	-15.36
363.09	50.18
363.301	23.55
363.512	31.74
363.723	62.46
363.935	62.46
364.146	58.37
364.357	17.41
364.568	58.37
364.779	-33.79
364.99	58.37
365.201	-5.12
365.412	37.89
365.623	-27.65
365.834	13.31
366.045	19.46
366.256	48.13
366.467	136.19
366.678	-23.55
366.889	1.02
367.1	54.27
367.311	62.46
367.522	56.32
367.733	60.42
367.944	80.89
368.155	-7.17
368.366	64.51
368.577	46.08
368.788	68.61
368.999	7.17
369.209	101.37
369.42	107.52
369.631	11.26
369.842	-50.18
370.053	115.71
370.264	70.65
370.474	7.17
370.685	80.89
370.896	68.61
371.107	39.94
371.317	58.37
371.528	44.03
371.739	74.75
371.95	103.42
372.16	29.7
372.371	-33.79
372.582	72.7
372.792	80.89
373.003	68.61
373.214	35.84
373.424	64.51
373.635	41.98
373.846	64.51
374.056	121.85
374.267	29.7
374.477	17.41
374.688	78.85
374.898	109.57
375.109	44.03
375.319	91.13
375.53	60.42
375.74	-13.31
375.951	82.94
376.161	5.12
376.372	58.37
376.582	-25.6
376.793	37.89
377.003	50.18
377.214	76.8
377.424	52.22
377.635	39.94
377.845	15.36
378.055	50.18
378.266	54.27
378.476	62.46
378.686	9.22
378.897	87.04
379.107	48.13
379.317	107.52
379.528	27.65
379.738	60.42
379.948	9.22
380.158	44.03
380.369	107.52
380.579	50.18
380.789	-44.03
380.999	27.65
381.21	41.98
381.42	54.27
381.63	-39.94
381.84	93.18
382.05	-15.36
382.261	82.94
382.471	74.75
382.681	89.09
382.891	33.79
383.101	89.09
383.311	-27.65
383.521	11.26
383.731	84.99
383.941	31.74
384.151	44.03
384.361	48.13
384.571	54.27
384.781	101.37
384.991	50.18
385.201	56.32
385.411	29.7
385.621	66.56
385.831	1.02
386.041	-17.41
386.251	54.27
386.461	3.07
386.671	-50.18
386.881	60.42
387.091	13.31
387.301	37.89
387.511	29.7
387.72	136.19
387.93	56.32
388.14	11.26
388.35	87.04
388.56	140.29
388.769	31.74
388.979	99.33
389.189	15.36
389.399	111.61
389.609	130.05
389.818	99.33
390.028	82.94
390.238	-39.94
390.447	33.79
390.657	107.52
390.867	31.74
391.076	-15.36
391.286	113.66
391.496	48.13
391.705	113.66
391.915	101.37
392.125	37.89
392.334	134.14
392.544	41.98
392.753	56.32
392.963	44.03
393.172	70.65
393.382	25.6
393.591	140.29
393.801	46.08
394.01	64.51
394.22	46.08
394.429	33.79
394.639	56.32
394.848	84.99
395.058	60.42
395.267	95.23
395.477	37.89
395.686	97.28
395.895	123.9
396.105	154.62
396.314	113.66
396.524	15.36
396.733	132.09
396.942	123.9
397.152	97.28
397.361	91.13
397.57	62.46
397.78	33.79
397.989	121.85
398.198	140.29
398.407	62.46
398.617	115.71
398.826	82.94
399.035	95.23
399.244	93.18
399.453	89.09
399.663	56.32
399.872	89.09
400.081	119.81
400.29	70.65
400.499	64.51
400.708	142.33
400.917	109.57
401.127	91.13
401.336	125.95
401.545	115.71
401.754	91.13
401.963	181.25
402.172	93.18
402.381	99.33
402.59	109.57
402.799	70.65
403.008	95.23
403.217	140.29
403.426	138.24
403.635	171.01
403.844	46.08
404.053	93.18
404.262	97.28
404.471	205.82
404.68	74.75
404.888	203.77
405.097	68.61
405.306	240.64
405.515	138.24
405.724	238.59
405.933	181.25
406.142	250.88
406.35	150.53
406.559	209.92
406.768	162.81
406.977	211.96
407.185	162.81
407.394	183.29
407.603	160.77
407.812	209.92
408.02	211.96
408.229	287.74
408.438	171.01
408.646	148.48
408.855	261.12
409.064	177.15
409.272	250.88
409.481	252.92
409.69	197.63
409.898	230.4
410.107	214.01
410.315	310.27
410.524	369.66
410.733	367.61
410.941	281.6
411.15	355.32
411.358	328.7
411.567	369.66
411.775	361.47
411.984	371.71
412.192	435.19
412.401	404.47
412.609	447.48
412.818	486.39
413.026	474.1
413.234	500.73
413.443	433.15
413.651	476.15
413.86	527.35
414.068	607.22
414.276	613.37
414.485	533.5
414.693	603.13
414.901	676.85
415.11	719.86
415.318	732.15
415.526	703.48
415.734	758.77
415.943	828.4
416.151	777.2
416.359	773.11
416.567	785.4
416.776	861.17
416.984	908.27
417.192	902.13
417.4	943.09
417.608	902.13
417.817	1088.5
418.025	1055.73
418.233	1166.32
418.441	1098.74
418.649	1061.87
418.857	1188.85
419.065	1309.68
419.273	1186.8
419.481	1266.67
419.689	1336.3
419.897	1418.22
420.105	1342.44
420.313	1481.71
420.521	1491.95
420.729	1580.01
420.937	1663.97
421.145	1655.78
421.353	1684.45
421.561	1844.2
421.769	1934.31
421.977	1995.75
422.185	1967.07
422.393	2036.7
422.601	2227.17
422.809	2145.25
423.017	2141.15
423.224	2341.85
423.432	2427.87
423.64	2395.1
423.848	2606.04
424.056	2528.22
424.263	2757.59
424.471	2733.01
424.679	2839.51
424.887	2954.19
425.094	3001.3
425.302	3056.59
425.51	3245.01
425.718	3183.57
425.925	3210.19
426.133	3376.08
426.341	3597.26
426.548	3630.02
426.756	3765.19
426.964	3781.57
427.171	3974.08
427.379	4195.26
427.586	4146.11
427.794	4277.18
428.001	4418.49
428.209	4631.48
428.417	4578.23
428.624	4754.36
428.832	4932.53
429.039	4920.24
429.247	4871.09
429.454	5352.37
429.662	5653.42
429.869	5374.89
430.076	5807.02
430.284	5479.34
430.491	5888.93
430.699	6083.49
430.906	6226.85
431.114	6534.04
431.321	6390.69
431.528	6622.11
431.736	7035.8
431.943	7490.45
432.15	7175.06
432.358	7328.66
432.565	7768.97
432.772	7623.56
432.979	7904.14
433.187	8096.64
433.394	8293.25
433.601	8655.74
433.808	8651.64
434.016	8471.42
434.223	8864.63
434.43	9667.44
434.637	9411.44
434.844	9915.24
435.052	10359.65
435.259	10138.47
435.466	10279.78
435.673	10107.75
435.88	11010.9
436.087	11309.91
436.294	11154.26
436.501	11058.01
436.708	11420.5
436.915	12000.07
437.122	12274.5
437.329	12217.16
437.537	12741.44
437.743	12829.5
437.95	12714.81
438.157	13398.84
438.364	13693.74
438.571	13925.16
438.778	13804.33
438.985	15002.4
439.192	14730.02
439.399	15203.1
439.606	14766.88
439.813	15758.1
440.02	16544.52
440.227	16403.21
440.433	16046.86
440.64	16605.95
440.847	16534.28
441.054	17023.74
441.261	18258.67
441.467	18043.63
441.674	18264.81
441.881	18668.26
442.088	18694.88
442.294	18633.44
442.501	19253.98
442.708	19438.3
442.914	20280.01
443.121	21013.18
443.328	20380.36
443.534	22131.37
443.741	21523.13
443.948	20998.85
444.154	22579.88
444.361	22422.19
444.568	22669.99
444.774	22694.57
444.981	23128.74
445.187	23446.17
445.394	24611.46
445.6	24265.36
445.807	26704.49
446.013	25651.83
446.22	25846.39
446.426	26989.16
446.633	27314.78
446.839	28007
447.046	26845.8
447.252	28269.14
447.459	28480.08
447.665	28166.74
447.871	29631.04
448.078	30894.63
448.284	29389.38
448.491	30294.58
448.697	31797.79
448.903	31904.28
449.11	31908.38
449.316	31568.41
449.522	32008.73
449.728	33311.24
449.935	33176.07
450.141	33188.36
450.347	34079.22
450.553	32805.39
450.76	33585.66
450.966	34605.55
451.172	33927.67
451.378	34542.06
451.584	34314.74
451.791	35123.69
451.997	34734.57
452.203	35490.27
452.409	35604.96
452.615	35361.25
452.821	33817.08
453.027	33575.42
453.233	35252.71
453.44	33923.58
453.646	34558.45
453.852	34648.56
454.058	35203.56
454.264	33919.48
454.47	34748.91
454.676	33976.83
454.882	35125.74
455.088	31869.47
455.294	32559.63
455.5	33176.07
455.705	33376.77
455.911	32250.39
456.117	31355.43
456.323	31091.24
456.529	29246.02
456.735	30337.59
456.941	29620.8
457.147	29289.03
457.352	28367.44
457.558	28430.93
457.764	28340.82
457.97	27761.24
458.176	27159.14
458.381	27173.47
458.587	25807.48
458.793	25225.86
458.999	24324.75
459.204	25848.44
459.41	25467.52
459.616	23614.1
459.821	23736.98
460.027	23536.28
460.233	23216.8
460.438	21879.47
460.644	22223.53
460.85	21299.9
461.055	21027.52
461.261	20540.1
461.466	19477.21
461.672	18631.4
461.878	19972.82
462.083	18858.72
462.289	18533.09
462.494	18107.12
462.7	17349.37
462.905	16927.49
463.111	17652.47
463.316	17769.2
463.522	17224.44
463.727	17337.08
463.932	16993.02
464.138	17046.27
464.343	17060.6
464.549	16550.66
464.754	17132.28
464.959	17089.28
465.165	16673.54
465.37	16128.78
465.575	15819.53
465.781	16460.55
465.986	16532.23
466.191	15764.24
466.397	15444.76
466.602	14951.2
466.807	15311.64
467.012	15391.51
467.218	15080.22
467.423	15008.54
467.628	15110.94
467.833	15997.71
