Data from USB4F104151__39__11-44-58-491.txt Node

Date: Fri Mar 14 11:44:58 EDT 2025
User: louis
Spectrometer: USB4F10415
Trigger mode: 4
Integration Time (sec): 2.000000E-2
Scans to average: 1
Electric dark correction enabled: true
Nonlinearity correction enabled: false
Boxcar width: 0
XAxis mode: Wavelengths
Number of Pixels in Spectrum: 3648
>>>>>Begin Spectral Data<<<<<
178.204	-103.76
178.424	-103.76
178.644	-103.76
178.864	-71
179.084	-68.95
179.304	12.97
179.524	12.97
179.744	-13.65
179.964	37.55
180.184	-56.66
180.404	58.03
180.624	6.83
180.844	41.64
181.064	-1.37
181.283	-38.23
181.503	-36.18
181.723	-23.89
181.943	-60.76
182.163	35.5
182.383	45.74
182.602	43.69
182.822	21.16
183.042	-1.37
183.262	-30.04
183.482	-17.75
183.701	-56.66
183.921	74.41
184.141	-9.56
184.361	29.35
184.58	66.22
184.8	12.97
185.02	31.4
185.239	-27.99
185.459	21.16
185.679	6.83
185.898	-38.23
186.118	-23.89
186.338	4.78
186.557	-9.56
186.777	-54.61
186.997	-58.71
187.216	8.87
187.436	39.59
187.655	47.79
187.875	92.84
188.095	-25.94
188.314	29.35
188.534	60.07
188.753	-36.18
188.973	12.97
189.192	90.79
189.412	29.35
189.631	62.12
189.851	33.45
190.07	105.13
190.29	-52.56
190.509	41.64
190.729	12.97
190.948	60.07
191.168	92.84
191.387	74.41
191.607	-42.32
191.826	-38.23
192.045	-77.14
192.265	0.68
192.484	-81.24
192.704	-1.37
192.923	-60.76
193.142	-1.37
193.362	47.79
193.581	31.4
193.8	-50.52
194.02	74.41
194.239	33.45
194.458	0.68
194.678	-13.65
194.897	-17.75
195.116	-7.51
195.335	-17.75
195.555	0.68
195.774	-97.62
195.993	41.64
196.212	45.74
196.432	21.16
196.651	-17.75
196.87	49.83
197.089	17.07
197.308	6.83
197.528	21.16
197.747	-50.52
197.966	23.21
198.185	31.4
198.404	-3.41
198.623	51.88
198.842	58.03
199.062	33.45
199.281	-19.8
199.5	-19.8
199.719	-5.46
199.938	39.59
200.157	15.02
200.376	21.16
200.595	74.41
200.814	29.35
201.033	49.83
201.252	-44.37
201.471	-23.89
201.69	23.21
201.909	37.55
202.128	25.26
202.347	31.4
202.566	72.36
202.785	-5.46
203.004	-23.89
203.223	15.02
203.442	-7.51
203.661	2.73
203.879	33.45
204.098	-46.42
204.317	-17.75
204.536	60.07
204.755	39.59
204.974	2.73
205.193	68.27
205.411	4.78
205.63	90.79
205.849	33.45
206.068	8.87
206.287	15.02
206.505	-32.08
206.724	-34.13
206.943	-30.04
207.162	31.4
207.381	49.83
207.599	58.03
207.818	35.5
208.037	19.11
208.255	-42.32
208.474	60.07
208.693	15.02
208.911	-23.89
209.13	10.92
209.349	-40.28
209.567	66.22
209.786	17.07
210.005	-17.75
210.223	8.87
210.442	-50.52
210.661	17.07
210.879	-19.8
211.098	27.31
211.316	-32.08
211.535	29.35
211.753	27.31
211.972	-27.99
212.191	51.88
212.409	2.73
212.628	17.07
212.846	19.11
213.065	82.6
213.283	35.5
213.502	51.88
213.72	66.22
213.938	-3.41
214.157	27.31
214.375	-17.75
214.594	72.36
214.812	43.69
215.031	-27.99
215.249	-3.41
215.467	-3.41
215.686	12.97
215.904	96.94
216.122	4.78
216.341	43.69
216.559	41.64
216.778	23.21
216.996	66.22
217.214	37.55
217.432	8.87
217.651	39.59
217.869	-9.56
218.087	58.03
218.306	8.87
218.524	33.45
218.742	29.35
218.96	51.88
219.179	123.56
219.397	-19.8
219.615	45.74
219.833	27.31
220.051	17.07
220.27	35.5
220.488	62.12
220.706	2.73
220.924	-9.56
221.142	55.98
221.36	-7.51
221.578	-38.23
221.796	41.64
222.015	74.41
222.233	45.74
222.451	49.83
222.669	-25.94
222.887	-3.41
223.105	33.45
223.323	6.83
223.541	4.78
223.759	-7.51
223.977	-1.37
224.195	-11.61
224.413	62.12
224.631	-13.65
224.849	-38.23
225.067	66.22
225.285	23.21
225.503	39.59
225.721	-40.28
225.939	82.6
226.157	-13.65
226.375	35.5
226.592	-3.41
226.81	-15.7
227.028	4.78
227.246	17.07
227.464	-23.89
227.682	-13.65
227.9	62.12
228.117	47.79
228.335	-3.41
228.553	-38.23
228.771	-21.84
228.989	8.87
229.206	27.31
229.424	53.93
229.642	43.69
229.86	115.37
230.077	-9.56
230.295	-7.51
230.513	-54.61
230.731	-5.46
230.948	-15.7
231.166	47.79
231.384	12.97
231.601	-44.37
231.819	39.59
232.037	-32.08
232.254	31.4
232.472	12.97
232.689	86.7
232.907	-3.41
233.125	119.46
233.342	17.07
233.56	-7.51
233.777	58.03
233.995	-5.46
234.213	-19.8
234.43	2.73
234.648	39.59
234.865	-58.71
235.083	6.83
235.3	39.59
235.518	70.31
235.735	41.64
235.953	49.83
236.17	15.02
236.388	6.83
236.605	-7.51
236.822	-13.65
237.04	-50.52
237.257	-23.89
237.475	90.79
237.692	35.5
237.909	31.4
238.127	-89.43
238.344	55.98
238.562	10.92
238.779	8.87
238.996	4.78
239.214	35.5
239.431	45.74
239.648	17.07
239.865	8.87
240.083	6.83
240.3	-7.51
240.517	-38.23
240.735	-3.41
240.952	58.03
241.169	21.16
241.386	6.83
241.603	92.84
241.821	-34.13
242.038	60.07
242.255	-7.51
242.472	0.68
242.689	88.75
242.907	12.97
243.124	-32.08
243.341	76.46
243.558	-11.61
243.775	17.07
243.992	-17.75
244.209	119.46
244.426	70.31
244.643	33.45
244.86	-23.89
245.078	70.31
245.295	29.35
245.512	41.64
245.729	6.83
245.946	15.02
246.163	55.98
246.38	0.68
246.597	51.88
246.814	58.03
247.031	92.84
247.248	-5.46
247.464	19.11
247.681	-3.41
247.898	23.21
248.115	-11.61
248.332	19.11
248.549	47.79
248.766	123.56
248.983	88.75
249.2	35.5
249.417	49.83
249.633	27.31
249.85	-38.23
250.067	-46.42
250.284	43.69
250.501	76.46
250.717	90.79
250.934	-62.8
251.151	60.07
251.368	15.02
251.585	78.51
251.801	-32.08
252.018	-36.18
252.235	-11.61
252.451	6.83
252.668	-134.48
252.885	41.64
253.102	17.07
253.318	37.55
253.535	27.31
253.752	51.88
253.968	-5.46
254.185	51.88
254.401	19.11
254.618	31.4
254.835	27.31
255.051	72.36
255.268	-25.94
255.484	-5.46
255.701	92.84
255.917	-34.13
256.134	-5.46
256.351	2.73
256.567	6.83
256.784	10.92
257	-48.47
257.217	33.45
257.433	96.94
257.65	25.26
257.866	82.6
258.082	-34.13
258.299	37.55
258.515	25.26
258.732	-15.7
258.948	53.93
259.165	4.78
259.381	-17.75
259.597	-15.7
259.814	15.02
260.03	29.35
260.246	25.26
260.463	-114
260.679	12.97
260.895	17.07
261.112	45.74
261.328	33.45
261.544	-21.84
261.761	29.35
261.977	25.26
262.193	-5.46
262.409	-32.08
262.626	-21.84
262.842	66.22
263.058	-9.56
263.274	17.07
263.49	23.21
263.707	19.11
263.923	-11.61
264.139	-60.76
264.355	31.4
264.571	8.87
264.787	51.88
265.004	31.4
265.22	-3.41
265.436	0.68
265.652	4.78
265.868	51.88
266.084	-1.37
266.3	25.26
266.516	8.87
266.732	25.26
266.948	-15.7
267.164	53.93
267.38	12.97
267.596	35.5
267.812	64.17
268.028	2.73
268.244	-3.41
268.46	-19.8
268.676	-42.32
268.892	-32.08
269.108	-34.13
269.324	29.35
269.54	25.26
269.756	6.83
269.972	-25.94
270.188	-23.89
270.403	23.21
270.619	-27.99
270.835	47.79
271.051	84.65
271.267	-11.61
271.483	-34.13
271.698	19.11
271.914	55.98
272.13	-1.37
272.346	53.93
272.562	-23.89
272.777	31.4
272.993	39.59
273.209	-1.37
273.425	78.51
273.64	33.45
273.856	33.45
274.072	-30.04
274.287	-48.47
274.503	60.07
274.719	-40.28
274.934	41.64
275.15	-48.47
275.366	35.5
275.581	-32.08
275.797	121.51
276.012	47.79
276.228	-19.8
276.444	33.45
276.659	-5.46
276.875	29.35
277.09	60.07
277.306	113.32
277.521	6.83
277.737	60.07
277.952	60.07
278.168	-5.46
278.383	125.61
278.599	29.35
278.814	62.12
279.03	39.59
279.245	105.13
279.461	53.93
279.676	78.51
279.892	-54.61
280.107	-40.28
280.322	60.07
280.538	-3.41
280.753	96.94
280.969	6.83
281.184	55.98
281.399	37.55
281.615	25.26
281.83	53.93
282.045	-9.56
282.26	-11.61
282.476	17.07
282.691	-7.51
282.906	-48.47
283.122	25.26
283.337	66.22
283.552	25.26
283.767	-34.13
283.983	43.69
284.198	21.16
284.413	35.5
284.628	-19.8
284.843	-44.37
285.058	41.64
285.274	76.46
285.489	15.02
285.704	-9.56
285.919	25.26
286.134	-7.51
286.349	-13.65
286.564	33.45
286.779	-40.28
286.995	39.59
287.21	41.64
287.425	51.88
287.64	37.55
287.855	-15.7
288.07	4.78
288.285	37.55
288.5	15.02
288.715	17.07
288.93	21.16
289.145	66.22
289.36	68.27
289.575	33.45
289.79	58.03
290.004	-1.37
290.219	21.16
290.434	-9.56
290.649	51.88
290.864	-21.84
291.079	45.74
291.294	47.79
291.509	4.78
291.724	15.02
291.938	0.68
292.153	33.45
292.368	68.27
292.583	66.22
292.798	109.23
293.012	-9.56
293.227	6.83
293.442	-17.75
293.657	23.21
293.871	-27.99
294.086	41.64
294.301	53.93
294.516	10.92
294.73	-21.84
294.945	-7.51
295.16	33.45
295.374	33.45
295.589	70.31
295.804	-25.94
296.018	33.45
296.233	62.12
296.447	19.11
296.662	-38.23
296.877	82.6
297.091	0.68
297.306	88.75
297.52	70.31
297.735	8.87
297.949	-15.7
298.164	-13.65
298.378	58.03
298.593	-3.41
298.807	58.03
299.022	33.45
299.236	0.68
299.451	-9.56
299.665	25.26
299.88	103.08
300.094	49.83
300.309	31.4
300.523	-38.23
300.737	39.59
300.952	43.69
301.166	92.84
301.381	8.87
301.595	35.5
301.809	51.88
302.024	8.87
302.238	58.03
302.452	35.5
302.667	-23.89
302.881	92.84
303.095	31.4
303.309	19.11
303.524	-27.99
303.738	12.97
303.952	47.79
304.166	47.79
304.381	-32.08
304.595	-42.32
304.809	-3.41
305.023	-5.46
305.237	25.26
305.452	25.26
305.666	-27.99
305.88	-48.47
306.094	19.11
306.308	96.94
306.522	94.89
306.736	27.31
306.95	55.98
307.164	17.07
307.379	53.93
307.593	60.07
307.807	29.35
308.021	53.93
308.235	80.55
308.449	37.55
308.663	-3.41
308.877	-9.56
309.091	51.88
309.305	133.8
309.519	39.59
309.733	27.31
309.947	-23.89
310.161	4.78
310.374	27.31
310.588	55.98
310.802	45.74
311.016	17.07
311.23	27.31
311.444	29.35
311.658	-15.7
311.872	66.22
312.085	82.6
312.299	103.08
312.513	31.4
312.727	33.45
312.941	-21.84
313.154	19.11
313.368	41.64
313.582	51.88
313.796	-17.75
314.009	-5.46
314.223	76.46
314.437	35.5
314.651	-17.75
314.864	-17.75
315.078	-64.85
315.292	-21.84
315.505	29.35
315.719	4.78
315.933	62.12
316.146	62.12
316.36	90.79
316.573	115.37
316.787	21.16
317.001	47.79
317.214	-36.18
317.428	6.83
317.641	39.59
317.855	-7.51
318.068	-1.37
318.282	17.07
318.495	-5.46
318.709	29.35
318.922	78.51
319.136	10.92
319.349	115.37
319.563	-30.04
319.776	-7.51
319.99	27.31
320.203	41.64
320.417	39.59
320.63	29.35
320.843	2.73
321.057	12.97
321.27	-5.46
321.483	-3.41
321.697	121.51
321.91	72.36
322.124	15.02
322.337	55.98
322.55	49.83
322.763	45.74
322.977	6.83
323.19	-56.66
323.403	35.5
323.617	109.23
323.83	90.79
324.043	15.02
324.256	39.59
324.469	31.4
324.683	55.98
324.896	90.79
325.109	80.55
325.322	-11.61
325.535	62.12
325.748	-32.08
325.962	-34.13
326.175	-1.37
326.388	96.94
326.601	31.4
326.814	47.79
327.027	-7.51
327.24	23.21
327.453	-52.56
327.666	84.65
327.879	6.83
328.092	21.16
328.305	4.78
328.518	21.16
328.731	31.4
328.944	-34.13
329.157	31.4
329.37	43.69
329.583	23.21
329.796	25.26
330.009	43.69
330.222	29.35
330.435	8.87
330.648	49.83
330.861	35.5
331.073	49.83
331.286	-11.61
331.499	-9.56
331.712	58.03
331.925	43.69
332.138	-40.28
332.35	4.78
332.563	66.22
332.776	49.83
332.989	-13.65
333.202	39.59
333.414	-36.18
333.627	-1.37
333.84	12.97
334.053	29.35
334.265	76.46
334.478	68.27
334.691	31.4
334.903	62.12
335.116	0.68
335.329	-60.76
335.541	33.45
335.754	15.02
335.966	53.93
336.179	88.75
336.392	-30.04
336.604	51.88
336.817	39.59
337.029	0.68
337.242	-19.8
337.454	35.5
337.667	4.78
337.88	23.21
338.092	60.07
338.305	27.31
338.517	-42.32
338.729	58.03
338.942	33.45
339.154	-9.56
339.367	-9.56
339.579	51.88
339.792	4.78
340.004	8.87
340.217	-23.89
340.429	31.4
340.641	72.36
340.854	-27.99
341.066	25.26
341.278	62.12
341.491	-7.51
341.703	37.55
341.915	19.11
342.128	17.07
342.34	-7.51
342.552	-21.84
342.764	-3.41
342.977	-13.65
343.189	8.87
343.401	25.26
343.613	45.74
343.826	19.11
344.038	-27.99
344.25	-21.84
344.462	68.27
344.674	74.41
344.886	-68.95
345.099	43.69
345.311	8.87
345.523	39.59
345.735	62.12
345.947	25.26
346.159	64.17
346.371	-3.41
346.583	25.26
346.795	-3.41
347.007	8.87
347.219	49.83
347.431	-9.56
347.643	74.41
347.855	37.55
348.067	37.55
348.279	-27.99
348.491	66.22
348.703	0.68
348.915	19.11
349.127	23.21
349.339	80.55
349.551	15.02
349.763	49.83
349.975	82.6
350.187	27.31
350.399	23.21
350.61	72.36
350.822	-9.56
351.034	33.45
351.246	55.98
351.458	49.83
351.669	58.03
351.881	-11.61
352.093	70.31
352.305	68.27
352.517	17.07
352.728	29.35
352.94	-3.41
353.152	23.21
353.363	2.73
353.575	33.45
353.787	2.73
353.999	58.03
354.21	-7.51
354.422	64.17
354.633	17.07
354.845	58.03
355.057	25.26
355.268	-30.04
355.48	41.64
355.692	17.07
355.903	-9.56
356.115	12.97
356.326	4.78
356.538	-7.51
356.749	33.45
356.961	58.03
357.172	39.59
357.384	-25.94
357.595	86.7
357.807	4.78
358.018	-17.75
358.23	15.02
358.441	107.18
358.653	-7.51
358.864	6.83
359.075	51.88
359.287	53.93
359.498	80.55
359.709	23.21
359.921	8.87
360.132	-1.37
360.344	12.97
360.555	58.03
360.766	86.7
360.977	0.68
361.189	23.21
361.4	31.4
361.611	74.41
361.823	8.87
362.034	51.88
362.245	68.27
362.456	25.26
362.667	47.79
362.879	19.11
363.09	101.03
363.301	66.22
363.512	41.64
363.723	78.51
363.935	-50.52
364.146	2.73
364.357	101.03
364.568	76.46
364.779	-36.18
364.99	68.27
365.201	25.26
365.412	47.79
365.623	-21.84
365.834	35.5
366.045	33.45
366.256	-25.94
366.467	27.31
366.678	47.79
366.889	90.79
367.1	33.45
367.311	41.64
367.522	15.02
367.733	53.93
367.944	105.13
368.155	-11.61
368.366	105.13
368.577	103.08
368.788	133.8
368.999	-3.41
369.209	17.07
369.42	96.94
369.631	107.18
369.842	53.93
370.053	70.31
370.264	17.07
370.474	-50.52
370.685	41.64
370.896	84.65
371.107	31.4
371.317	19.11
371.528	70.31
371.739	31.4
371.95	12.97
372.16	66.22
372.371	10.92
372.582	2.73
372.792	101.03
373.003	43.69
373.214	37.55
373.424	41.64
373.635	33.45
373.846	82.6
374.056	-3.41
374.267	62.12
374.477	88.75
374.688	53.93
374.898	23.21
375.109	41.64
375.319	-32.08
375.53	29.35
375.74	129.7
375.951	37.55
376.161	15.02
376.372	58.03
376.582	25.26
376.793	15.02
377.003	17.07
377.214	19.11
377.424	-9.56
377.635	8.87
377.845	70.31
378.055	82.6
378.266	-32.08
378.476	19.11
378.686	41.64
378.897	-17.75
379.107	74.41
379.317	160.42
379.528	15.02
379.738	10.92
379.948	49.83
380.158	62.12
380.369	47.79
380.579	-1.37
380.789	15.02
380.999	47.79
381.21	-7.51
381.42	21.16
381.63	31.4
381.84	62.12
382.05	-25.94
382.261	47.79
382.471	62.12
382.681	23.21
382.891	12.97
383.101	-5.46
383.311	53.93
383.521	72.36
383.731	39.59
383.941	41.64
384.151	-36.18
384.361	-23.89
384.571	-30.04
384.781	23.21
384.991	60.07
385.201	98.99
385.411	45.74
385.621	43.69
385.831	-7.51
386.041	62.12
386.251	64.17
386.461	51.88
386.671	-11.61
386.881	-9.56
387.091	10.92
387.301	10.92
387.511	66.22
387.72	88.75
387.93	29.35
388.14	2.73
388.35	19.11
388.56	41.64
388.769	103.08
388.979	31.4
389.189	8.87
389.399	27.31
389.609	31.4
389.818	45.74
390.028	94.89
390.238	88.75
390.447	27.31
390.657	60.07
390.867	-19.8
391.076	58.03
391.286	23.21
391.496	72.36
391.705	49.83
391.915	37.55
392.125	49.83
392.334	27.31
392.544	84.65
392.753	55.98
392.963	33.45
393.172	86.7
393.382	-48.47
393.591	86.7
393.801	17.07
394.01	144.04
394.22	86.7
394.429	31.4
394.639	123.56
394.848	29.35
395.058	53.93
395.267	53.93
395.477	39.59
395.686	64.17
395.895	60.07
396.105	103.08
396.314	37.55
396.524	90.79
396.733	41.64
396.942	62.12
397.152	60.07
397.361	146.09
397.57	55.98
397.78	76.46
397.989	152.23
398.198	133.8
398.407	35.5
398.617	2.73
398.826	92.84
399.035	2.73
399.244	94.89
399.453	103.08
399.663	88.75
399.872	107.18
400.081	101.03
400.29	101.03
400.499	43.69
400.708	154.28
400.917	58.03
401.127	74.41
401.336	4.78
401.545	64.17
401.754	135.85
401.963	103.08
402.172	127.66
402.381	162.47
402.59	72.36
402.799	47.79
403.008	84.65
403.217	103.08
403.426	176.81
403.635	47.79
403.844	109.23
404.053	152.23
404.262	115.37
404.471	135.85
404.68	66.22
404.888	94.89
405.097	101.03
405.306	45.74
405.515	117.42
405.724	150.18
405.933	98.99
406.142	158.38
406.35	162.47
406.559	164.52
406.768	103.08
406.977	221.86
407.185	170.66
407.394	221.86
407.603	115.37
407.812	185
408.02	211.62
408.229	195.24
408.438	230.06
408.646	176.81
408.855	228.01
409.064	209.58
409.272	248.49
409.481	258.73
409.69	197.29
409.898	262.82
410.107	299.69
410.315	268.97
410.524	242.34
410.733	307.88
410.941	238.25
411.15	275.11
411.358	291.49
411.567	369.32
411.775	238.25
411.984	324.26
412.192	369.32
412.401	447.14
412.609	361.13
412.818	402.08
413.026	377.51
413.234	414.37
413.443	451.24
413.651	479.91
413.86	486.05
414.068	574.11
414.276	461.48
414.485	594.59
414.693	561.83
414.901	602.79
415.11	641.7
415.318	662.18
415.526	574.11
415.734	656.03
415.943	703.14
416.151	711.33
416.359	688.8
416.567	715.42
416.776	729.76
416.984	772.77
417.192	832.16
417.4	914.08
417.608	871.07
417.817	836.25
418.025	959.13
418.233	971.42
418.441	891.55
418.649	1012.38
418.857	1129.11
419.065	1168.02
419.273	1061.53
419.481	1122.97
419.689	1241.75
419.897	1247.9
420.105	1186.46
420.313	1335.96
420.521	1434.26
420.729	1385.11
420.937	1446.55
421.145	1507.99
421.353	1526.42
421.561	1614.48
421.769	1665.68
421.977	1768.08
422.185	1770.13
422.393	1825.42
422.601	1942.16
422.809	1997.45
423.017	1903.25
423.224	2056.84
423.432	2048.65
423.64	2085.51
423.848	2361.99
424.056	2347.65
424.263	2435.72
424.471	2435.72
424.679	2536.07
424.887	2570.88
425.094	2671.23
425.302	2660.99
425.51	2888.32
425.718	2890.37
425.925	2828.93
426.133	3033.72
426.341	3265.14
426.548	3353.21
426.756	3400.31
426.964	3406.45
427.171	3555.96
427.379	3723.89
427.586	3740.27
427.794	3971.69
428.001	4014.7
428.209	4160.11
428.417	4176.49
428.624	4561.51
428.832	4383.34
429.039	4436.58
429.247	4483.69
429.454	4944.48
429.662	5149.28
429.869	4887.14
430.076	5165.66
430.284	5143.13
430.491	5159.52
430.699	5630.55
430.906	5565.01
431.114	5696.08
431.321	5859.92
431.528	5939.79
431.736	6408.78
431.943	6736.45
432.15	6392.39
432.358	6349.39
432.565	7074.37
432.772	6836.8
432.979	7223.87
433.187	7268.92
433.394	7371.32
433.601	7909.94
433.808	7930.42
434.016	8008.24
434.223	8170.03
434.43	8815.14
434.637	8557.1
434.844	8946.21
435.052	9257.5
435.259	9171.49
435.466	9200.16
435.673	9232.93
435.88	9808.41
436.087	10402.32
436.294	10170.9
436.501	9837.08
436.708	10148.37
436.915	10648.07
437.122	11133.44
437.329	11016.71
437.537	11409.92
437.743	11702.78
437.95	11377.15
438.157	12022.26
438.364	12478.96
438.571	12300.78
438.778	12702.18
438.985	13693.4
439.192	13234.66
439.399	13480.41
439.606	13263.33
439.813	13994.45
440.02	14660.04
440.227	14475.73
440.433	14500.3
440.64	14875.08
440.847	14817.74
441.054	15102.4
441.261	15956.41
441.467	16058.81
441.674	16089.53
441.881	16970.15
442.088	16875.95
442.294	16638.38
442.501	17113.51
442.708	17760.67
442.914	18037.14
443.121	19134.85
443.328	18508.18
443.534	19870.08
443.741	19229.06
443.948	19173.77
444.154	20412.79
444.361	20007.29
444.568	20418.93
444.774	20488.56
444.981	20504.95
445.187	21176.68
445.394	22118.75
445.6	21594.47
445.807	23810.37
446.013	22997.32
446.22	23288.14
446.426	24062.27
446.633	24408.37
446.839	25205.03
447.046	24226.1
447.252	25454.89
447.459	25671.97
447.665	25606.44
447.871	26702.1
448.078	27283.72
448.284	26347.8
448.491	27242.76
448.697	28020.99
448.903	28508.41
449.11	28772.6
449.316	28248.32
449.522	28670.2
449.728	29343.98
449.935	29905.12
450.141	30007.52
450.347	30515.42
450.553	29360.36
450.76	29671.65
450.966	30951.63
451.172	30908.63
451.378	31058.13
451.584	30660.82
451.791	31486.15
451.997	31123.66
452.203	32053.44
452.409	32114.88
452.615	31639.75
452.821	30535.9
453.027	29989.09
453.233	31785.16
453.44	30613.72
453.646	30761.17
453.852	30974.16
454.058	31588.55
454.264	30660.82
454.47	31289.55
454.676	30134.49
454.882	31420.62
455.088	28670.2
455.294	29016.3
455.5	29389.03
455.705	30044.38
455.911	28463.35
456.117	28168.44
456.323	27797.76
456.529	26556.69
456.735	27599.11
456.941	26790.16
457.147	26351.9
457.352	25512.23
457.558	25055.53
457.764	25073.96
457.97	25010.48
458.176	24176.95
458.381	24062.27
458.587	22753.62
458.793	22929.74
458.999	21832.03
459.204	23554.37
459.41	22710.61
459.616	21031.27
459.821	21277.03
460.027	21150.06
460.233	20746.61
460.438	19413.38
460.644	20040.06
460.85	18971.02
461.055	18721.17
461.261	18770.32
461.466	17172.9
461.672	16542.13
461.878	17738.14
462.083	16804.27
462.289	16306.61
462.494	16404.91
462.7	15788.47
462.905	15311.3
463.111	15456.7
463.316	15751.61
463.522	15333.82
463.727	15448.51
463.932	15260.1
464.138	15108.55
464.343	15327.68
464.549	14846.41
464.754	15272.39
464.959	15290.82
465.165	15063.49
465.37	14244.31
465.575	14207.44
465.781	14772.68
465.986	14801.35
466.191	14197.2
466.397	13867.48
466.602	13228.51
466.807	13701.59
467.012	13756.89
467.218	13482.46
467.423	13531.61
