Data from USB4F104151__22__11-44-40-173.txt Node

Date: Fri Mar 14 11:44:40 EDT 2025
User: louis
Spectrometer: USB4F10415
Trigger mode: 4
Integration Time (sec): 2.000000E-2
Scans to average: 1
Electric dark correction enabled: true
Nonlinearity correction enabled: false
Boxcar width: 0
XAxis mode: Wavelengths
Number of Pixels in Spectrum: 3648
>>>>>Begin Spectral Data<<<<<
178.204	-117.42
178.424	-117.42
178.644	-117.42
178.864	-60.07
179.084	-35.5
179.304	30.04
179.524	-66.22
179.744	-27.31
179.964	25.94
180.184	27.99
180.404	44.37
180.624	-27.31
180.844	-19.11
181.064	-60.07
181.283	5.46
181.503	73.04
181.723	-6.83
181.943	-23.21
182.163	71
182.383	-0.68
182.602	11.61
182.822	30.04
183.042	44.37
183.262	52.56
183.482	17.75
183.701	-10.92
183.921	21.84
184.141	-41.64
184.361	107.86
184.58	56.66
184.8	-0.68
185.02	56.66
185.239	54.61
185.459	-10.92
185.679	-33.45
185.898	-10.92
186.118	17.75
186.338	-2.73
186.557	13.65
186.777	3.41
186.997	40.28
187.216	44.37
187.436	42.32
187.655	40.28
187.875	23.89
188.095	21.84
188.314	7.51
188.534	13.65
188.753	7.51
188.973	52.56
189.192	44.37
189.412	46.42
189.631	23.89
189.851	27.99
190.07	-39.59
190.29	-29.35
190.509	17.75
190.729	3.41
190.948	42.32
191.168	107.86
191.387	79.19
191.607	3.41
191.826	54.61
192.045	36.18
192.265	-6.83
192.484	1.37
192.704	50.52
192.923	46.42
193.142	17.75
193.362	-39.59
193.581	-31.4
193.8	89.43
194.02	5.46
194.239	13.65
194.458	73.04
194.678	79.19
194.897	-15.02
195.116	23.89
195.335	68.95
195.555	46.42
195.774	15.7
195.993	68.95
196.212	11.61
196.432	-78.51
196.651	81.24
196.87	60.76
197.089	111.96
197.308	109.91
197.528	79.19
197.747	-41.64
197.966	77.14
198.185	40.28
198.404	73.04
198.623	42.32
198.842	66.9
199.062	21.84
199.281	-6.83
199.5	52.56
199.719	5.46
199.938	17.75
200.157	64.85
200.376	105.81
200.595	17.75
200.814	-10.92
201.033	36.18
201.252	32.08
201.471	13.65
201.69	36.18
201.909	15.7
202.128	58.71
202.347	23.89
202.566	13.65
202.785	40.28
203.004	-17.07
203.223	44.37
203.442	9.56
203.661	5.46
203.879	36.18
204.098	34.13
204.317	7.51
204.536	62.8
204.755	5.46
204.974	-4.78
205.193	11.61
205.411	79.19
205.63	21.84
205.849	50.52
206.068	7.51
206.287	-39.59
206.505	54.61
206.724	-47.79
206.943	-10.92
207.162	-33.45
207.381	-0.68
207.599	5.46
207.818	52.56
208.037	56.66
208.255	75.09
208.474	21.84
208.693	-19.11
208.911	-31.4
209.13	71
209.349	50.52
209.567	17.75
209.786	79.19
210.005	85.33
210.223	64.85
210.442	-10.92
210.661	54.61
210.879	58.71
211.098	62.8
211.316	38.23
211.535	23.89
211.753	32.08
211.972	58.71
212.191	40.28
212.409	-35.5
212.628	1.37
212.846	1.37
213.065	97.62
213.283	25.94
213.502	44.37
213.72	75.09
213.938	71
214.157	44.37
214.375	-23.21
214.594	30.04
214.812	36.18
215.031	-8.87
215.249	34.13
215.467	56.66
215.686	23.89
215.904	79.19
216.122	-8.87
216.341	75.09
216.559	21.84
216.778	48.47
216.996	36.18
217.214	56.66
217.432	15.7
217.651	-39.59
217.869	40.28
218.087	15.7
218.306	-47.79
218.524	5.46
218.742	21.84
218.96	42.32
219.179	-4.78
219.397	56.66
219.615	60.76
219.833	91.48
220.051	64.85
220.27	27.99
220.488	-23.21
220.706	-47.79
220.924	48.47
221.142	-15.02
221.36	87.38
221.578	1.37
221.796	103.76
222.015	62.8
222.233	58.71
222.451	15.7
222.669	19.8
222.887	-27.31
223.105	-39.59
223.323	-0.68
223.541	-2.73
223.759	19.8
223.977	-23.21
224.195	58.71
224.413	44.37
224.631	93.52
224.849	5.46
225.067	87.38
225.285	-58.03
225.503	42.32
225.721	-82.6
225.939	-29.35
226.157	71
226.375	54.61
226.592	30.04
226.81	32.08
227.028	44.37
227.246	46.42
227.464	32.08
227.682	13.65
227.9	46.42
228.117	25.94
228.335	25.94
228.553	58.71
228.771	64.85
228.989	-27.31
229.206	5.46
229.424	89.43
229.642	114
229.86	46.42
230.077	46.42
230.295	34.13
230.513	42.32
230.731	40.28
230.948	52.56
231.166	91.48
231.384	38.23
231.601	27.99
231.819	87.38
232.037	44.37
232.254	-19.11
232.472	25.94
232.689	50.52
232.907	27.99
233.125	34.13
233.342	48.47
233.56	5.46
233.777	17.75
233.995	11.61
234.213	19.8
234.43	32.08
234.648	3.41
234.865	17.75
235.083	109.91
235.3	-45.74
235.518	7.51
235.735	111.96
235.953	15.7
236.17	34.13
236.388	-10.92
236.605	9.56
236.822	54.61
237.04	30.04
237.257	-15.02
237.475	-15.02
237.692	107.86
237.909	-10.92
238.127	91.48
238.344	3.41
238.562	116.05
238.779	-53.93
238.996	-15.02
239.214	58.71
239.431	-31.4
239.648	48.47
239.865	58.71
240.083	54.61
240.3	15.7
240.517	-21.16
240.735	3.41
240.952	-41.64
241.169	13.65
241.386	54.61
241.603	23.89
241.821	-2.73
242.038	23.89
242.255	5.46
242.472	34.13
242.689	111.96
242.907	38.23
243.124	5.46
243.341	-21.16
243.558	-27.31
243.775	-31.4
243.992	-0.68
244.209	19.8
244.426	-51.88
244.643	75.09
244.86	13.65
245.078	50.52
245.295	27.99
245.512	79.19
245.729	-12.97
245.946	89.43
246.163	17.75
246.38	62.8
246.597	73.04
246.814	19.8
247.031	5.46
247.248	-6.83
247.464	66.9
247.681	23.89
247.898	87.38
248.115	44.37
248.332	71
248.549	93.52
248.766	-0.68
248.983	48.47
249.2	-19.11
249.417	75.09
249.633	-8.87
249.85	-17.07
250.067	58.71
250.284	56.66
250.501	79.19
250.717	30.04
250.934	13.65
251.151	32.08
251.368	36.18
251.585	42.32
251.801	-2.73
252.018	-29.35
252.235	60.76
252.451	54.61
252.668	19.8
252.885	52.56
253.102	62.8
253.318	30.04
253.535	-6.83
253.752	66.9
253.968	13.65
254.185	-10.92
254.401	54.61
254.618	-43.69
254.835	-0.68
255.051	107.86
255.268	40.28
255.484	66.9
255.701	50.52
255.917	64.85
256.134	15.7
256.351	64.85
256.567	-45.74
256.784	30.04
257	15.7
257.217	48.47
257.433	71
257.65	66.9
257.866	-19.11
258.082	15.7
258.299	-17.07
258.515	68.95
258.732	15.7
258.948	38.23
259.165	32.08
259.381	23.89
259.597	3.41
259.814	81.24
260.03	-39.59
260.246	89.43
260.463	-0.68
260.679	81.24
260.895	32.08
261.112	-74.41
261.328	-27.31
261.544	54.61
261.761	34.13
261.977	85.33
262.193	-17.07
262.409	42.32
262.626	95.57
262.842	105.81
263.058	17.75
263.274	30.04
263.49	87.38
263.707	66.9
263.923	68.95
264.139	27.99
264.355	105.81
264.571	52.56
264.787	-12.97
265.004	-17.07
265.22	34.13
265.436	36.18
265.652	42.32
265.868	56.66
266.084	-19.11
266.3	-10.92
266.516	60.76
266.732	-15.02
266.948	25.94
267.164	7.51
267.38	64.85
267.596	9.56
267.812	66.9
268.028	34.13
268.244	27.99
268.46	50.52
268.676	9.56
268.892	-23.21
269.108	62.8
269.324	17.75
269.54	95.57
269.756	17.75
269.972	21.84
270.188	91.48
270.403	27.99
270.619	103.76
270.835	38.23
271.051	52.56
271.267	1.37
271.483	60.76
271.698	1.37
271.914	5.46
272.13	116.05
272.346	17.75
272.562	71
272.777	91.48
272.993	25.94
273.209	56.66
273.425	-21.16
273.64	-31.4
273.856	-0.68
274.072	25.94
274.287	-4.78
274.503	58.71
274.719	7.51
274.934	52.56
275.15	64.85
275.366	46.42
275.581	32.08
275.797	58.71
276.012	50.52
276.228	36.18
276.444	17.75
276.659	19.8
276.875	42.32
277.09	44.37
277.306	-2.73
277.521	54.61
277.737	7.51
277.952	60.76
278.168	62.8
278.383	-2.73
278.599	17.75
278.814	79.19
279.03	46.42
279.245	60.76
279.461	-17.07
279.676	-27.31
279.892	30.04
280.107	91.48
280.322	34.13
280.538	66.9
280.753	73.04
280.969	-35.5
281.184	62.8
281.399	62.8
281.615	19.8
281.83	23.89
282.045	36.18
282.26	-4.78
282.476	5.46
282.691	40.28
282.906	46.42
283.122	40.28
283.337	32.08
283.552	40.28
283.767	23.89
283.983	19.8
284.198	11.61
284.413	44.37
284.628	40.28
284.843	122.2
285.058	32.08
285.274	62.8
285.489	-35.5
285.704	44.37
285.919	17.75
286.134	66.9
286.349	5.46
286.564	93.52
286.779	44.37
286.995	15.7
287.21	66.9
287.425	-6.83
287.64	-17.07
287.855	50.52
288.07	23.89
288.285	23.89
288.5	-43.69
288.715	79.19
288.93	13.65
289.145	23.89
289.36	13.65
289.575	30.04
289.79	32.08
290.004	48.47
290.219	91.48
290.434	-35.5
290.649	25.94
290.864	-10.92
291.079	93.52
291.294	85.33
291.509	1.37
291.724	52.56
291.938	-15.02
292.153	38.23
292.368	-0.68
292.583	44.37
292.798	46.42
293.012	17.75
293.227	54.61
293.442	34.13
293.657	54.61
293.871	25.94
294.086	73.04
294.301	81.24
294.516	-0.68
294.73	21.84
294.945	34.13
295.16	62.8
295.374	62.8
295.589	-21.16
295.804	11.61
296.018	42.32
296.233	30.04
296.447	68.95
296.662	27.99
296.877	64.85
297.091	46.42
297.306	44.37
297.52	30.04
297.735	77.14
297.949	52.56
298.164	83.28
298.378	64.85
298.593	60.76
298.807	25.94
299.022	60.76
299.236	-4.78
299.451	30.04
299.665	15.7
299.88	-17.07
300.094	42.32
300.309	40.28
300.523	64.85
300.737	25.94
300.952	30.04
301.166	116.05
301.381	21.84
301.595	30.04
301.809	81.24
302.024	40.28
302.238	87.38
302.452	17.75
302.667	-21.16
302.881	7.51
303.095	111.96
303.309	109.91
303.524	58.71
303.738	13.65
303.952	50.52
304.166	9.56
304.381	13.65
304.595	118.1
304.809	-6.83
305.023	32.08
305.237	-8.87
305.452	64.85
305.666	32.08
305.88	-19.11
306.094	11.61
306.308	36.18
306.522	81.24
306.736	23.89
306.95	97.62
307.164	120.15
307.379	-4.78
307.593	25.94
307.807	79.19
308.021	21.84
308.235	5.46
308.449	-45.74
308.663	50.52
308.877	58.71
309.091	25.94
309.305	-4.78
309.519	126.29
309.733	19.8
309.947	11.61
310.161	79.19
310.374	81.24
310.588	30.04
310.802	38.23
311.016	81.24
311.23	17.75
311.444	54.61
311.658	11.61
311.872	56.66
312.085	118.1
312.299	32.08
312.513	46.42
312.727	50.52
312.941	3.41
313.154	-15.02
313.368	1.37
313.582	44.37
313.796	122.2
314.009	13.65
314.223	34.13
314.437	17.75
314.651	52.56
314.864	32.08
315.078	62.8
315.292	32.08
315.505	54.61
315.719	71
315.933	64.85
316.146	103.76
316.36	44.37
316.573	60.76
316.787	27.99
317.001	75.09
317.214	-10.92
317.428	52.56
317.641	-12.97
317.855	3.41
318.068	-15.02
318.282	38.23
318.495	52.56
318.709	52.56
318.922	60.76
319.136	124.24
319.349	116.05
319.563	44.37
319.776	38.23
319.99	89.43
320.203	23.89
320.417	40.28
320.63	71
320.843	83.28
321.057	30.04
321.27	23.89
321.483	30.04
321.697	1.37
321.91	73.04
322.124	128.34
322.337	95.57
322.55	-23.21
322.763	93.52
322.977	58.71
323.19	93.52
323.403	50.52
323.617	83.28
323.83	87.38
324.043	-17.07
324.256	77.14
324.469	9.56
324.683	46.42
324.896	46.42
325.109	-2.73
325.322	-15.02
325.535	54.61
325.748	-4.78
325.962	23.89
326.175	3.41
326.388	42.32
326.601	9.56
326.814	34.13
327.027	60.76
327.24	93.52
327.453	-19.11
327.666	48.47
327.879	83.28
328.092	1.37
328.305	-0.68
328.518	-47.79
328.731	15.7
328.944	19.8
329.157	48.47
329.37	71
329.583	120.15
329.796	56.66
330.009	-2.73
330.222	83.28
330.435	85.33
330.648	23.89
330.861	21.84
331.073	25.94
331.286	73.04
331.499	21.84
331.712	-23.21
331.925	17.75
332.138	21.84
332.35	17.75
332.563	23.89
332.776	132.44
332.989	-51.88
333.202	118.1
333.414	3.41
333.627	13.65
333.84	44.37
334.053	19.8
334.265	1.37
334.478	107.86
334.691	-2.73
334.903	107.86
335.116	77.14
335.329	9.56
335.541	79.19
335.754	87.38
335.966	32.08
336.179	73.04
336.392	32.08
336.604	87.38
336.817	50.52
337.029	81.24
337.242	-19.11
337.454	66.9
337.667	-35.5
337.88	95.57
338.092	116.05
338.305	3.41
338.517	-25.26
338.729	27.99
338.942	120.15
339.154	-6.83
339.367	44.37
339.579	23.89
339.792	-19.11
340.004	56.66
340.217	-6.83
340.429	77.14
340.641	-6.83
340.854	30.04
341.066	48.47
341.278	34.13
341.491	85.33
341.703	19.8
341.915	99.67
342.128	-12.97
342.34	36.18
342.552	-19.11
342.764	30.04
342.977	-2.73
343.189	30.04
343.401	42.32
343.613	1.37
343.826	-2.73
344.038	64.85
344.25	142.68
344.462	38.23
344.674	68.95
344.886	15.7
345.099	64.85
345.311	1.37
345.523	-37.55
345.735	60.76
345.947	50.52
346.159	87.38
346.371	42.32
346.583	111.96
346.795	87.38
347.007	101.72
347.219	99.67
347.431	-55.98
347.643	-4.78
347.855	17.75
348.067	140.63
348.279	-23.21
348.491	66.9
348.703	62.8
348.915	21.84
349.127	52.56
349.339	34.13
349.551	116.05
349.763	27.99
349.975	17.75
350.187	60.76
350.399	60.76
350.61	111.96
350.822	11.61
351.034	54.61
351.246	52.56
351.458	73.04
351.669	77.14
351.881	87.38
352.093	54.61
352.305	109.91
352.517	71
352.728	21.84
352.94	34.13
353.152	62.8
353.363	50.52
353.575	79.19
353.787	56.66
353.999	13.65
354.21	54.61
354.422	23.89
354.633	50.52
354.845	62.8
355.057	103.76
355.268	87.38
355.48	116.05
355.692	66.9
355.903	83.28
356.115	62.8
356.326	13.65
356.538	97.62
356.749	50.52
356.961	116.05
357.172	81.24
357.384	91.48
357.595	44.37
357.807	85.33
358.018	81.24
358.23	111.96
358.441	21.84
358.653	91.48
358.864	-10.92
359.075	89.43
359.287	93.52
359.498	46.42
359.709	7.51
359.921	42.32
360.132	81.24
360.344	15.7
360.555	21.84
360.766	27.99
360.977	-4.78
361.189	75.09
361.4	5.46
361.611	105.81
361.823	114
362.034	42.32
362.245	-41.64
362.456	17.75
362.667	71
362.879	54.61
363.09	71
363.301	54.61
363.512	-43.69
363.723	11.61
363.935	38.23
364.146	114
364.357	17.75
364.568	7.51
364.779	-23.21
364.99	23.89
365.201	142.68
365.412	87.38
365.623	32.08
365.834	122.2
366.045	118.1
366.256	68.95
366.467	-25.26
366.678	34.13
366.889	3.41
367.1	-2.73
367.311	68.95
367.522	105.81
367.733	89.43
367.944	75.09
368.155	66.9
368.366	17.75
368.577	144.72
368.788	38.23
368.999	77.14
369.209	81.24
369.42	120.15
369.631	40.28
369.842	101.72
370.053	21.84
370.264	81.24
370.474	75.09
370.685	19.8
370.896	9.56
371.107	87.38
371.317	48.47
371.528	64.85
371.739	103.76
371.95	56.66
372.16	58.71
372.371	68.95
372.582	21.84
372.792	38.23
373.003	75.09
373.214	17.75
373.424	64.85
373.635	54.61
373.846	30.04
374.056	111.96
374.267	34.13
374.477	116.05
374.688	54.61
374.898	103.76
375.109	50.52
375.319	34.13
375.53	165.2
375.74	114
375.951	62.8
376.161	146.77
376.372	175.44
376.582	66.9
376.793	64.85
377.003	48.47
377.214	93.52
377.424	97.62
377.635	101.72
377.845	64.85
378.055	66.9
378.266	19.8
378.476	44.37
378.686	21.84
378.897	87.38
379.107	52.56
379.317	66.9
379.528	46.42
379.738	75.09
379.948	25.94
380.158	79.19
380.369	97.62
380.579	68.95
380.789	97.62
380.999	81.24
381.21	73.04
381.42	120.15
381.63	107.86
381.84	34.13
382.05	107.86
382.261	75.09
382.471	48.47
382.681	68.95
382.891	60.76
383.101	91.48
383.311	64.85
383.521	9.56
383.731	128.34
383.941	75.09
384.151	159.06
384.361	87.38
384.571	64.85
384.781	107.86
384.991	91.48
385.201	118.1
385.411	48.47
385.621	73.04
385.831	152.91
386.041	99.67
386.251	48.47
386.461	140.63
386.671	32.08
386.881	25.94
387.091	68.95
387.301	85.33
387.511	130.39
387.72	44.37
387.93	60.76
388.14	-12.97
388.35	62.8
388.56	75.09
388.769	99.67
388.979	118.1
389.189	73.04
389.399	21.84
389.609	44.37
389.818	89.43
390.028	83.28
390.238	25.94
390.447	114
390.657	118.1
390.867	128.34
391.076	52.56
391.286	79.19
391.496	60.76
391.705	105.81
391.915	122.2
392.125	77.14
392.334	64.85
392.544	54.61
392.753	116.05
392.963	83.28
393.172	44.37
393.382	46.42
393.591	105.81
393.801	68.95
394.01	124.24
394.22	54.61
394.429	91.48
394.639	71
394.848	124.24
395.058	126.29
395.267	138.58
395.477	79.19
395.686	161.11
395.895	130.39
396.105	114
396.314	136.53
396.524	105.81
396.733	152.91
396.942	97.62
397.152	34.13
397.361	126.29
397.57	163.15
397.78	116.05
397.989	154.96
398.198	165.2
398.407	177.49
398.617	122.2
398.826	116.05
399.035	191.83
399.244	71
399.453	136.53
399.663	114
399.872	120.15
400.081	177.49
400.29	122.2
400.499	101.72
400.708	167.25
400.917	97.62
401.127	128.34
401.336	107.86
401.545	238.93
401.754	218.45
401.963	103.76
402.172	144.72
402.381	159.06
402.59	111.96
402.799	195.92
403.008	181.59
403.217	171.35
403.426	175.44
403.635	150.87
403.844	195.92
404.053	195.92
404.262	234.83
404.471	261.46
404.68	167.25
404.888	234.83
405.097	197.97
405.306	150.87
405.515	202.07
405.724	247.12
405.933	300.37
406.142	243.03
406.35	255.31
406.559	273.75
406.768	247.12
406.977	220.5
407.185	253.27
407.394	300.37
407.603	275.79
407.812	218.45
408.02	333.14
408.229	367.95
408.438	249.17
408.646	367.95
408.855	324.94
409.064	273.75
409.272	304.46
409.481	339.28
409.69	265.55
409.898	361.81
410.107	464.21
410.315	503.12
410.524	367.95
410.733	492.88
410.941	423.25
411.15	554.32
411.358	525.65
411.567	599.37
411.775	531.79
411.984	619.85
412.192	656.72
412.401	605.52
412.609	558.41
412.818	693.58
413.026	587.08
413.234	658.76
413.443	748.87
413.651	679.24
413.86	795.98
414.068	775.5
414.276	879.94
414.485	812.36
414.693	881.99
414.901	978.25
415.11	898.38
415.318	961.86
415.526	1041.73
415.734	992.58
415.943	1082.69
416.151	1189.19
416.359	1109.32
416.567	1166.66
416.776	1250.63
416.984	1291.59
417.192	1373.5
417.4	1375.55
417.608	1391.94
417.817	1518.91
418.025	1543.49
418.233	1664.32
418.441	1627.45
418.649	1551.68
418.857	1779
419.065	1838.39
419.273	1785.15
419.481	1897.78
419.689	2039.09
419.897	2016.57
420.105	2047.29
420.313	2202.93
420.521	2153.78
420.729	2254.13
420.937	2360.63
421.145	2329.91
421.353	2637.1
421.561	2573.61
421.769	2747.69
421.977	2891.05
422.185	2848.04
422.393	2999.59
422.601	3196.2
422.809	3126.57
423.017	3185.96
423.224	3323.17
423.432	3290.4
423.64	3474.72
423.848	3710.24
424.056	3786.01
424.263	3970.33
424.471	3935.51
424.679	4113.69
424.887	4255
425.094	4367.63
425.302	4289.81
425.51	4664.59
425.718	4785.42
425.925	4730.13
426.133	5025.03
426.341	5285.12
426.548	5522.69
426.756	5504.26
426.964	5369.09
427.171	5776.64
427.379	6030.59
427.586	6055.16
427.794	6182.13
428.001	6632.69
428.209	6907.12
428.417	6745.33
428.624	7199.98
428.832	7183.59
429.039	7212.26
429.247	7181.54
429.454	8058.07
429.662	8363.22
429.869	7718.11
430.076	8533.2
430.284	8119.51
430.491	8672.47
430.699	9051.34
430.906	8889.55
431.114	9186.51
431.321	9589.95
431.528	9768.13
431.736	10163.39
431.943	10775.73
432.15	10593.46
432.358	10681.52
432.565	11158.7
432.772	11203.75
432.979	11617.44
433.187	11932.83
433.394	12037.28
433.601	12807.31
433.808	12999.82
434.016	12985.49
434.223	13290.63
434.43	14109.82
434.637	13753.48
434.844	14664.82
435.052	15064.18
435.259	14834.8
435.466	14871.67
435.673	14890.1
435.88	15778.92
436.087	16727.13
436.294	16643.16
436.501	16299.1
436.708	16886.87
436.915	17243.21
437.122	18072.64
437.329	18127.94
437.537	18543.67
437.743	18656.31
437.95	18578.49
438.157	19436.59
438.364	20390.94
438.571	20141.09
438.778	20132.9
438.985	21916.68
439.192	21523.47
439.399	22133.76
439.606	21617.68
439.813	22905.85
440.02	24275.94
440.227	23636.97
440.433	23485.42
440.64	24450.02
440.847	24200.16
441.054	24697.82
441.261	26205.13
441.467	26061.77
441.674	26842.04
441.881	27444.15
442.088	27558.83
442.294	27130.81
442.501	28005.29
442.708	28644.26
442.914	29709.2
443.121	30823.29
443.328	30065.55
443.534	32392.04
443.741	31216.5
443.948	30751.62
444.154	33209.18
444.361	32777.06
444.568	33252.19
444.774	33330.01
444.981	33348.44
445.187	34603.85
445.394	35855.15
445.6	35550.01
445.807	38886.15
446.013	37384.99
446.22	37776.15
446.426	38824.71
446.633	39607.03
446.839	41269.98
447.046	39117.57
447.252	41728.73
447.459	41491.16
447.665	41095.91
447.871	43064
448.078	44862.12
448.284	42965.7
448.491	44163.76
448.697	45812.38
448.903	46113.43
449.11	46394
449.316	45451.94
449.522	46527.12
449.728	47460.99
449.935	47831.68
450.141	47745.66
450.347	49171.05
450.553	47669.89
450.76	48083.58
450.966	49795.68
451.172	49252.97
451.378	50580.05
451.584	49441.38
451.791	50485.84
451.997	50340.44
452.203	51337.8
452.409	51436.1
452.615	51180.1
452.821	49435.23
453.027	48851.56
453.233	51450.44
453.44	49719.9
453.646	49621.6
453.852	50000.47
454.058	50674.26
454.264	49025.64
454.47	50518.61
454.676	49109.61
454.882	50592.34
455.088	46432.91
455.294	47446.66
455.5	48106.1
455.705	48175.73
455.911	46355.09
456.117	45380.26
456.323	44683.95
456.529	42842.82
456.735	44307.12
456.941	43532.99
457.147	42828.49
457.352	41358.05
457.558	40950.5
457.764	41208.54
457.97	40289.01
458.176	39590.65
458.381	39475.96
458.587	37458.71
458.793	37389.08
458.999	35474.23
459.204	38279.95
459.41	37339.93
459.616	34624.32
459.821	34845.51
460.027	34558.79
460.233	33966.93
460.438	32312.17
460.644	32777.06
460.85	30868.35
461.055	30806.91
461.261	30497.67
461.466	28289.96
461.672	27378.61
461.878	29623.19
462.083	27620.27
462.289	27012.03
462.494	26651.58
462.7	25547.73
462.905	24806.36
463.111	25678.8
463.316	25922.51
463.522	25347.03
463.727	25347.03
463.932	25326.55
464.138	24984.54
464.343	24978.39
464.549	24046.57
464.754	25197.52
464.959	24792.03
465.165	24593.37
465.37	23712.75
465.575	22998.01
465.781	24175.59
465.986	24001.51
466.191	23335.92
466.397	22901.75
466.602	21740.55
466.807	22479.87
467.012	22404.1
467.218	22354.94
467.423	22242.31
467.628	22154.24
