Data from USB4F104151__13__11-44-30-054.txt Node

Date: Fri Mar 14 11:44:30 EDT 2025
User: louis
Spectrometer: USB4F10415
Trigger mode: 4
Integration Time (sec): 2.000000E-2
Scans to average: 1
Electric dark correction enabled: true
Nonlinearity correction enabled: false
Boxcar width: 0
XAxis mode: Wavelengths
Number of Pixels in Spectrum: 3648
>>>>>Begin Spectral Data<<<<<
178.204	-31.23
178.424	-31.23
178.644	-31.23
178.864	-107.01
179.084	-61.95
179.304	11.78
179.524	-10.75
179.744	-16.9
179.964	44.54
180.184	-6.66
180.404	1.54
180.624	-18.94
180.844	-31.23
181.064	-10.75
181.283	13.82
181.503	-6.66
181.723	30.21
181.943	-61.95
182.163	42.5
182.383	42.5
182.602	-10.75
182.822	50.69
183.042	108.03
183.262	-29.18
183.482	75.26
183.701	9.73
183.921	19.97
184.141	38.4
184.361	38.4
184.58	60.93
184.8	44.54
185.02	19.97
185.239	112.13
185.459	13.82
185.679	34.3
185.898	22.02
186.118	71.17
186.338	58.88
186.557	50.69
186.777	-6.66
186.997	-6.66
187.216	1.54
187.436	112.13
187.655	26.11
187.875	71.17
188.095	1.54
188.314	-18.94
188.534	114.17
188.753	3.58
188.973	22.02
189.192	38.4
189.412	-18.94
189.631	-39.42
189.851	163.33
190.07	42.5
190.29	-6.66
190.509	73.21
190.729	-35.33
190.948	79.36
191.168	163.33
191.387	73.21
191.607	-0.51
191.826	54.78
192.045	24.06
192.265	24.06
192.484	36.35
192.704	122.37
192.923	38.4
193.142	126.46
193.362	50.69
193.581	-10.75
193.8	132.61
194.02	73.21
194.239	140.8
194.458	89.6
194.678	1.54
194.897	54.78
195.116	38.4
195.335	-8.7
195.555	67.07
195.774	24.06
195.993	58.88
196.212	52.74
196.432	42.5
196.651	-0.51
196.87	42.5
197.089	79.36
197.308	50.69
197.528	17.92
197.747	36.35
197.966	54.78
198.185	81.41
198.404	52.74
198.623	73.21
198.842	99.84
199.062	5.63
199.281	91.65
199.5	83.45
199.719	77.31
199.938	140.8
200.157	142.85
200.376	11.78
200.595	15.87
200.814	54.78
201.033	5.63
201.252	44.54
201.471	103.93
201.69	58.88
201.909	17.92
202.128	7.68
202.347	58.88
202.566	36.35
202.785	34.3
203.004	93.69
203.223	-6.66
203.442	30.21
203.661	-18.94
203.879	93.69
204.098	24.06
204.317	48.64
204.536	93.69
204.755	34.3
204.974	28.16
205.193	81.41
205.411	153.09
205.63	32.26
205.849	58.88
206.068	36.35
206.287	101.89
206.505	56.83
206.724	69.12
206.943	60.93
207.162	9.73
207.381	44.54
207.599	15.87
207.818	40.45
208.037	17.92
208.255	79.36
208.474	42.5
208.693	65.02
208.911	95.74
209.13	42.5
209.349	165.37
209.567	56.83
209.786	89.6
210.005	103.93
210.223	73.21
210.442	13.82
210.661	110.08
210.879	56.83
211.098	38.4
211.316	11.78
211.535	110.08
211.753	9.73
211.972	71.17
212.191	15.87
212.409	-29.18
212.628	-14.85
212.846	28.16
213.065	93.69
213.283	22.02
213.502	50.69
213.72	89.6
213.938	38.4
214.157	79.36
214.375	132.61
214.594	-43.52
214.812	58.88
215.031	-6.66
215.249	48.64
215.467	40.45
215.686	19.97
215.904	114.17
216.122	15.87
216.341	83.45
216.559	136.7
216.778	44.54
216.996	32.26
217.214	79.36
217.432	73.21
217.651	69.12
217.869	5.63
218.087	69.12
218.306	60.93
218.524	99.84
218.742	40.45
218.96	50.69
219.179	56.83
219.397	95.74
219.615	42.5
219.833	60.93
220.051	11.78
220.27	140.8
220.488	58.88
220.706	71.17
220.924	142.85
221.142	67.07
221.36	13.82
221.578	24.06
221.796	103.93
222.015	75.26
222.233	15.87
222.451	58.88
222.669	-35.33
222.887	75.26
223.105	58.88
223.323	95.74
223.541	75.26
223.759	62.98
223.977	52.74
224.195	75.26
224.413	56.83
224.631	40.45
224.849	24.06
225.067	50.69
225.285	32.26
225.503	77.31
225.721	40.45
225.939	116.22
226.157	38.4
226.375	101.89
226.592	46.59
226.81	3.58
227.028	-8.7
227.246	108.03
227.464	28.16
227.682	83.45
227.9	62.98
228.117	99.84
228.335	118.27
228.553	116.22
228.771	124.41
228.989	71.17
229.206	42.5
229.424	69.12
229.642	38.4
229.86	62.98
230.077	54.78
230.295	-8.7
230.513	32.26
230.731	71.17
230.948	1.54
231.166	144.89
231.384	-8.7
231.601	32.26
231.819	46.59
232.037	-10.75
232.254	67.07
232.472	130.56
232.689	17.92
232.907	71.17
233.125	67.07
233.342	11.78
233.56	142.85
233.777	95.74
233.995	56.83
234.213	24.06
234.43	15.87
234.648	42.5
234.865	58.88
235.083	1.54
235.3	69.12
235.518	32.26
235.735	91.65
235.953	50.69
236.17	65.02
236.388	-16.9
236.605	67.07
236.822	38.4
237.04	28.16
237.257	95.74
237.475	62.98
237.692	40.45
237.909	-27.14
238.127	62.98
238.344	44.54
238.562	73.21
238.779	62.98
238.996	42.5
239.214	5.63
239.431	85.5
239.648	69.12
239.865	48.64
240.083	46.59
240.3	99.84
240.517	-8.7
240.735	9.73
240.952	56.83
241.169	69.12
241.386	30.21
241.603	36.35
241.821	28.16
242.038	136.7
242.255	81.41
242.472	46.59
242.689	118.27
242.907	85.5
243.124	48.64
243.341	67.07
243.558	32.26
243.775	-0.51
243.992	40.45
244.209	15.87
244.426	75.26
244.643	83.45
244.86	42.5
245.078	56.83
245.295	73.21
245.512	99.84
245.729	95.74
245.946	69.12
246.163	19.97
246.38	19.97
246.597	36.35
246.814	36.35
247.031	73.21
247.248	-2.56
247.464	91.65
247.681	120.32
247.898	40.45
248.115	24.06
248.332	77.31
248.549	30.21
248.766	69.12
248.983	132.61
249.2	91.65
249.417	-0.51
249.633	151.04
249.85	60.93
250.067	42.5
250.284	67.07
250.501	58.88
250.717	73.21
250.934	75.26
251.151	75.26
251.368	17.92
251.585	97.79
251.801	99.84
252.018	60.93
252.235	54.78
252.451	75.26
252.668	54.78
252.885	99.84
253.102	97.79
253.318	73.21
253.535	120.32
253.752	15.87
253.968	3.58
254.185	44.54
254.401	28.16
254.618	128.51
254.835	69.12
255.051	112.13
255.268	-43.52
255.484	87.55
255.701	5.63
255.917	93.69
256.134	81.41
256.351	73.21
256.567	24.06
256.784	97.79
257	91.65
257.217	54.78
257.433	65.02
257.65	85.5
257.866	52.74
258.082	56.83
258.299	26.11
258.515	52.74
258.732	58.88
258.948	5.63
259.165	65.02
259.381	114.17
259.597	-20.99
259.814	50.69
260.03	75.26
260.246	40.45
260.463	48.64
260.679	69.12
260.895	83.45
261.112	181.76
261.328	-25.09
261.544	54.78
261.761	52.74
261.977	42.5
262.193	71.17
262.409	34.3
262.626	101.89
262.842	58.88
263.058	36.35
263.274	62.98
263.49	15.87
263.707	83.45
263.923	58.88
264.139	52.74
264.355	30.21
264.571	71.17
264.787	114.17
265.004	-16.9
265.22	126.46
265.436	22.02
265.652	-47.62
265.868	85.5
266.084	52.74
266.3	73.21
266.516	28.16
266.732	81.41
266.948	69.12
267.164	34.3
267.38	65.02
267.596	40.45
267.812	62.98
268.028	42.5
268.244	34.3
268.46	-16.9
268.676	34.3
268.892	22.02
269.108	54.78
269.324	34.3
269.54	30.21
269.756	50.69
269.972	-0.51
270.188	52.74
270.403	60.93
270.619	122.37
270.835	58.88
271.051	97.79
271.267	50.69
271.483	52.74
271.698	89.6
271.914	56.83
272.13	48.64
272.346	77.31
272.562	58.88
272.777	116.22
272.993	34.3
273.209	62.98
273.425	17.92
273.64	24.06
273.856	171.52
274.072	48.64
274.287	-2.56
274.503	79.36
274.719	3.58
274.934	48.64
275.15	91.65
275.366	95.74
275.581	56.83
275.797	28.16
276.012	65.02
276.228	62.98
276.444	52.74
276.659	79.36
276.875	9.73
277.09	89.6
277.306	97.79
277.521	79.36
277.737	73.21
277.952	40.45
278.168	120.32
278.383	62.98
278.599	-16.9
278.814	105.98
279.03	62.98
279.245	116.22
279.461	50.69
279.676	89.6
279.892	83.45
280.107	73.21
280.322	79.36
280.538	77.31
280.753	93.69
280.969	65.02
281.184	44.54
281.399	105.98
281.615	22.02
281.83	42.5
282.045	26.11
282.26	62.98
282.476	40.45
282.691	67.07
282.906	17.92
283.122	34.3
283.337	-16.9
283.552	24.06
283.767	9.73
283.983	3.58
284.198	136.7
284.413	95.74
284.628	38.4
284.843	56.83
285.058	87.55
285.274	58.88
285.489	58.88
285.704	105.98
285.919	112.13
286.134	46.59
286.349	52.74
286.564	-51.71
286.779	101.89
286.995	30.21
287.21	11.78
287.425	56.83
287.64	134.65
287.855	79.36
288.07	132.61
288.285	159.23
288.5	56.83
288.715	99.84
288.93	120.32
289.145	91.65
289.36	-66.05
289.575	112.13
289.79	75.26
290.004	99.84
290.219	136.7
290.434	56.83
290.649	1.54
290.864	132.61
291.079	42.5
291.294	91.65
291.509	77.31
291.724	101.89
291.938	-2.56
292.153	60.93
292.368	73.21
292.583	56.83
292.798	85.5
293.012	112.13
293.227	114.17
293.442	50.69
293.657	9.73
293.871	128.51
294.086	95.74
294.301	85.5
294.516	69.12
294.73	116.22
294.945	34.3
295.16	30.21
295.374	77.31
295.589	56.83
295.804	26.11
296.018	38.4
296.233	93.69
296.447	62.98
296.662	-4.61
296.877	118.27
297.091	67.07
297.306	134.65
297.52	103.93
297.735	114.17
297.949	44.54
298.164	108.03
298.378	58.88
298.593	81.41
298.807	52.74
299.022	87.55
299.236	40.45
299.451	38.4
299.665	75.26
299.88	103.93
300.094	87.55
300.309	73.21
300.523	22.02
300.737	62.98
300.952	73.21
301.166	32.26
301.381	71.17
301.595	40.45
301.809	22.02
302.024	71.17
302.238	58.88
302.452	89.6
302.667	42.5
302.881	110.08
303.095	-6.66
303.309	79.36
303.524	52.74
303.738	99.84
303.952	179.71
304.166	13.82
304.381	56.83
304.595	138.75
304.809	114.17
305.023	81.41
305.237	56.83
305.452	54.78
305.666	30.21
305.88	38.4
306.094	54.78
306.308	118.27
306.522	7.68
306.736	7.68
306.95	97.79
307.164	-29.18
307.379	81.41
307.593	155.13
307.807	-2.56
308.021	126.46
308.235	46.59
308.449	122.37
308.663	1.54
308.877	128.51
309.091	105.98
309.305	79.36
309.519	5.63
309.733	60.93
309.947	-33.28
310.161	69.12
310.374	79.36
310.588	132.61
310.802	9.73
311.016	144.89
311.23	75.26
311.444	56.83
311.658	112.13
311.872	163.33
312.085	46.59
312.299	50.69
312.513	56.83
312.727	85.5
312.941	99.84
313.154	93.69
313.368	48.64
313.582	75.26
313.796	95.74
314.009	44.54
314.223	75.26
314.437	52.74
314.651	62.98
314.864	-20.99
315.078	79.36
315.292	65.02
315.505	95.74
315.719	81.41
315.933	67.07
316.146	58.88
316.36	-0.51
316.573	103.93
316.787	105.98
317.001	11.78
317.214	81.41
317.428	67.07
317.641	52.74
317.855	40.45
318.068	17.92
318.282	73.21
318.495	124.41
318.709	69.12
318.922	54.78
319.136	69.12
319.349	93.69
319.563	77.31
319.776	124.41
319.99	-4.61
320.203	144.89
320.417	77.31
320.63	50.69
320.843	71.17
321.057	32.26
321.27	87.55
321.483	44.54
321.697	140.8
321.91	93.69
322.124	97.79
322.337	97.79
322.55	122.37
322.763	54.78
322.977	103.93
323.19	15.87
323.403	73.21
323.617	83.45
323.83	105.98
324.043	71.17
324.256	79.36
324.469	1.54
324.683	103.93
324.896	81.41
325.109	87.55
325.322	75.26
325.535	108.03
325.748	99.84
325.962	87.55
326.175	54.78
326.388	75.26
326.601	5.63
326.814	50.69
327.027	140.8
327.24	114.17
327.453	44.54
327.666	130.56
327.879	3.58
328.092	69.12
328.305	26.11
328.518	69.12
328.731	60.93
328.944	95.74
329.157	44.54
329.37	30.21
329.583	153.09
329.796	36.35
330.009	91.65
330.222	114.17
330.435	118.27
330.648	87.55
330.861	120.32
331.073	112.13
331.286	126.46
331.499	89.6
331.712	71.17
331.925	122.37
332.138	83.45
332.35	75.26
332.563	95.74
332.776	163.33
332.989	85.5
333.202	77.31
333.414	60.93
333.627	46.59
333.84	146.94
334.053	83.45
334.265	40.45
334.478	56.83
334.691	114.17
334.903	97.79
335.116	99.84
335.329	105.98
335.541	81.41
335.754	116.22
335.966	-10.75
336.179	175.61
336.392	36.35
336.604	69.12
336.817	81.41
337.029	130.56
337.242	13.82
337.454	93.69
337.667	24.06
337.88	136.7
338.092	65.02
338.305	130.56
338.517	40.45
338.729	126.46
338.942	112.13
339.154	116.22
339.367	30.21
339.579	87.55
339.792	108.03
340.004	120.32
340.217	3.58
340.429	-8.7
340.641	42.5
340.854	126.46
341.066	101.89
341.278	99.84
341.491	93.69
341.703	103.93
341.915	62.98
342.128	146.94
342.34	79.36
342.552	77.31
342.764	99.84
342.977	17.92
343.189	79.36
343.401	81.41
343.613	126.46
343.826	71.17
344.038	120.32
344.25	157.18
344.462	95.74
344.674	73.21
344.886	73.21
345.099	30.21
345.311	83.45
345.523	77.31
345.735	13.82
345.947	77.31
346.159	130.56
346.371	38.4
346.583	177.66
346.795	146.94
347.007	85.5
347.219	62.98
347.431	42.5
347.643	130.56
347.855	95.74
348.067	132.61
348.279	140.8
348.491	79.36
348.703	58.88
348.915	116.22
349.127	7.68
349.339	112.13
349.551	206.33
349.763	110.08
349.975	99.84
350.187	97.79
350.399	99.84
350.61	89.6
350.822	69.12
351.034	126.46
351.246	108.03
351.458	73.21
351.669	65.02
351.881	128.51
352.093	69.12
352.305	108.03
352.517	153.09
352.728	146.94
352.94	54.78
353.152	128.51
353.363	91.65
353.575	151.04
353.787	161.28
353.999	108.03
354.21	105.98
354.422	32.26
354.633	130.56
354.845	79.36
355.057	77.31
355.268	62.98
355.48	148.99
355.692	56.83
355.903	91.65
356.115	48.64
356.326	118.27
356.538	169.47
356.749	89.6
356.961	48.64
357.172	38.4
357.384	17.92
357.595	136.7
357.807	85.5
358.018	38.4
358.23	128.51
358.441	159.23
358.653	52.74
358.864	159.23
359.075	36.35
359.287	110.08
359.498	132.61
359.709	93.69
359.921	58.88
360.132	101.89
360.344	85.5
360.555	54.78
360.766	69.12
360.977	112.13
361.189	108.03
361.4	52.74
361.611	89.6
361.823	134.65
362.034	169.47
362.245	62.98
362.456	114.17
362.667	120.32
362.879	28.16
363.09	58.88
363.301	163.33
363.512	83.45
363.723	73.21
363.935	114.17
364.146	101.89
364.357	69.12
364.568	89.6
364.779	54.78
364.99	103.93
365.201	81.41
365.412	110.08
365.623	89.6
365.834	42.5
366.045	116.22
366.256	120.32
366.467	171.52
366.678	67.07
366.889	116.22
367.1	93.69
367.311	30.21
367.522	136.7
367.733	99.84
367.944	97.79
368.155	71.17
368.366	93.69
368.577	91.65
368.788	79.36
368.999	99.84
369.209	87.55
369.42	83.45
369.631	173.57
369.842	173.57
370.053	36.35
370.264	122.37
370.474	46.59
370.685	54.78
370.896	110.08
371.107	105.98
371.317	114.17
371.528	75.26
371.739	103.93
371.95	148.99
372.16	134.65
372.371	50.69
372.582	67.07
372.792	93.69
373.003	136.7
373.214	103.93
373.424	132.61
373.635	75.26
373.846	120.32
374.056	130.56
374.267	101.89
374.477	65.02
374.688	118.27
374.898	77.31
375.109	105.98
375.319	79.36
375.53	122.37
375.74	132.61
375.951	151.04
376.161	99.84
376.372	128.51
376.582	38.4
376.793	91.65
377.003	52.74
377.214	183.81
377.424	75.26
377.635	108.03
377.845	118.27
378.055	128.51
378.266	50.69
378.476	30.21
378.686	89.6
378.897	85.5
379.107	22.02
379.317	124.41
379.528	105.98
379.738	81.41
379.948	151.04
380.158	138.75
380.369	105.98
380.579	126.46
380.789	85.5
380.999	187.9
381.21	83.45
381.42	108.03
381.63	157.18
381.84	73.21
382.05	167.42
382.261	179.71
382.471	65.02
382.681	122.37
382.891	181.76
383.101	79.36
383.311	110.08
383.521	62.98
383.731	171.52
383.941	181.76
384.151	128.51
384.361	175.61
384.571	122.37
384.781	71.17
384.991	116.22
385.201	185.85
385.411	148.99
385.621	136.7
385.831	140.8
386.041	130.56
386.251	157.18
386.461	208.38
386.671	212.48
386.881	122.37
387.091	132.61
387.301	130.56
387.511	95.74
387.72	194.05
387.93	87.55
388.14	157.18
388.35	118.27
388.56	77.31
388.769	71.17
388.979	151.04
389.189	192
389.399	151.04
389.609	95.74
389.818	58.88
390.028	140.8
390.238	126.46
390.447	87.55
390.657	105.98
390.867	40.45
391.076	126.46
391.286	116.22
391.496	128.51
391.705	126.46
391.915	224.76
392.125	167.42
392.334	132.61
392.544	220.67
392.753	177.66
392.963	177.66
393.172	185.85
393.382	134.65
393.591	194.05
393.801	177.66
394.01	151.04
394.22	87.55
394.429	206.33
394.639	79.36
394.848	148.99
395.058	124.41
395.267	183.81
395.477	216.57
395.686	169.47
395.895	192
396.105	228.86
396.314	189.95
396.524	194.05
396.733	228.86
396.942	218.62
397.152	249.34
397.361	247.29
397.57	200.19
397.78	249.34
397.989	196.09
398.198	292.35
398.407	110.08
398.617	214.52
398.826	245.24
399.035	177.66
399.244	296.44
399.453	210.43
399.663	243.2
399.872	235
400.081	194.05
400.29	224.76
400.499	226.81
400.708	226.81
400.917	255.48
401.127	208.38
401.336	290.3
401.545	282.11
401.754	292.35
401.963	282.11
402.172	273.92
402.381	255.48
402.59	243.2
402.799	249.34
403.008	247.29
403.217	239.1
403.426	294.4
403.635	349.69
403.844	278.01
404.053	290.3
404.262	232.96
404.471	314.88
404.68	261.63
404.888	333.31
405.097	294.4
405.306	245.24
405.515	368.12
405.724	314.88
405.933	425.47
406.142	384.51
406.35	409.08
406.559	417.27
406.768	441.85
406.977	439.8
407.185	466.42
407.394	411.13
407.603	441.85
407.812	429.56
408.02	540.15
408.229	501.24
408.438	560.63
408.646	511.48
408.855	538.1
409.064	583.16
409.272	566.78
409.481	587.26
409.69	632.31
409.898	660.98
410.107	683.51
410.315	663.03
410.524	744.95
410.733	790
410.941	775.67
411.15	755.19
411.358	900.59
411.567	902.64
411.775	900.59
411.984	935.41
412.192	957.94
412.401	1076.72
412.609	1068.53
412.818	1148.4
413.026	1121.77
413.234	1152.49
413.443	1140.21
413.651	1201.65
413.86	1277.42
414.068	1349.1
414.276	1349.1
414.485	1437.16
414.693	1422.83
414.901	1433.07
415.11	1611.24
415.318	1607.14
415.526	1680.87
415.734	1639.91
415.943	1742.31
416.151	1912.29
416.359	1848.8
416.567	1875.43
416.776	2029.03
416.984	1996.26
417.192	2170.33
417.4	2266.59
417.608	2156
417.817	2381.28
418.025	2541.02
418.233	2696.66
418.441	2584.02
418.649	2713.05
418.857	2926.04
419.065	2899.41
419.273	2903.51
419.481	3075.54
419.689	3253.71
419.897	3446.22
420.105	3450.32
420.313	3450.32
420.521	3683.78
420.729	3718.6
420.937	3933.64
421.145	4050.37
421.353	4113.86
421.561	4365.76
421.769	4482.49
421.977	4691.38
422.185	4437.44
422.393	5039.54
422.601	5127.6
422.809	5049.78
423.017	5191.09
423.224	5631.4
423.432	5621.16
423.64	5852.58
423.848	6184.35
424.056	5854.63
424.263	6444.45
424.471	6567.32
424.679	6694.3
424.887	7064.98
425.094	7040.4
425.302	7257.49
425.51	7402.9
425.718	7775.63
425.925	7898.5
426.133	8035.72
426.341	8699.26
426.548	9051.51
426.756	8750.46
426.964	8981.88
427.171	9586.03
427.379	9835.88
427.586	9930.09
427.794	10349.92
428.001	10757.47
428.209	11242.84
428.417	11205.97
428.624	11879.75
428.832	12010.82
429.039	11672.91
429.247	11863.37
429.454	12930.36
429.662	13765.93
429.869	12877.12
430.076	13868.33
430.284	13260.09
430.491	13917.48
430.699	14621.98
430.906	14712.1
431.114	15160.6
431.321	15584.53
431.528	16049.42
431.736	16966.91
431.943	17640.69
432.15	17194.23
432.358	17321.21
432.565	18119.92
432.772	18314.47
432.979	19266.78
433.187	19502.29
433.394	19412.18
433.601	20731.08
433.808	20958.4
434.016	20745.41
434.223	21679.29
434.43	22934.69
434.637	22604.97
434.844	24097.94
435.052	24300.69
435.259	24210.57
435.466	24597.64
435.673	24202.38
435.88	25967.73
436.087	27563.1
436.294	27372.64
436.501	26549.35
436.708	27266.14
436.915	28200.02
437.122	29271.11
437.329	29330.5
437.537	29912.12
437.743	30557.23
437.95	30475.31
438.157	31988.76
438.364	33098.76
438.571	33098.76
438.778	33147.91
438.985	36023.26
439.192	34552.82
439.399	35578.85
439.606	34982.89
439.813	37415.88
440.02	39494.57
440.227	38579.12
440.433	38185.91
440.64	39553.96
440.847	39381.93
441.054	39877.54
441.261	42730.36
441.467	42001.28
441.674	43019.12
441.881	44497.75
442.088	44553.05
442.294	43893.6
442.501	45261.65
442.708	46416.7
442.914	47794.98
443.121	49752.84
443.328	48519.96
443.534	51413.74
443.741	50080.52
443.948	49691.4
444.154	53365.46
444.361	53140.18
444.568	52853.47
444.774	52970.2
444.981	53947.08
445.187	55255.73
445.394	57227.93
445.6	56828.57
445.807	61448.79
446.013	59470.45
446.22	59878
446.426	61854.29
446.633	62732.87
446.839	64092.72
447.046	62138.96
447.252	64092.72
447.459	64092.72
447.665	64092.72
447.871	64092.72
448.078	64092.72
448.284	64092.72
448.491	64092.72
448.697	64092.72
448.903	64092.72
449.11	64092.72
449.316	64092.72
449.522	64092.72
449.728	64092.72
449.935	64092.72
450.141	64092.72
450.347	64092.72
450.553	64092.72
450.76	64092.72
450.966	64092.72
451.172	64092.72
451.378	64092.72
451.584	64092.72
451.791	64092.72
451.997	64092.72
452.203	64092.72
452.409	64092.72
452.615	64092.72
452.821	64092.72
453.027	64092.72
453.233	64092.72
453.44	64092.72
453.646	64092.72
453.852	64092.72
454.058	64092.72
454.264	64092.72
454.47	64092.72
454.676	64092.72
454.882	64092.72
455.088	64092.72
455.294	64092.72
455.5	64092.72
455.705	64092.72
455.911	64092.72
456.117	64092.72
456.323	64092.72
456.529	64092.72
456.735	64092.72
456.941	64092.72
457.147	64092.72
457.352	64092.72
457.558	64092.72
457.764	64092.72
457.97	64092.72
458.176	64092.72
458.381	62122.57
458.587	59626.1
458.793	59320.95
458.999	56531.62
459.204	60422.76
459.41	58469
459.616	55036.6
459.821	55059.13
460.027	55048.89
460.233	53897.93
460.438	51561.2
460.644	51796.71
460.85	49589
461.055	48763.67
461.261	48968.47
461.466	45437.77
461.672	44032.86
461.878	46750.52
462.083	43989.86
462.289	43228.01
462.494	42814.32
462.7	40846.22
462.905	40098.72
463.111	41210.76
463.316	41298.83
463.522	40272.79
463.727	40543.13
463.932	40367
464.138	40008.61
464.343	40371.1
464.549	39105.45
464.754	40027.04
464.959	39531.43
465.165	39183.27
465.37	38087.61
