Data from USB4F104151__51__11-45-11-598.txt Node

Date: Fri Mar 14 11:45:11 EDT 2025
User: louis
Spectrometer: USB4F10415
Trigger mode: 4
Integration Time (sec): 2.000000E-2
Scans to average: 1
Electric dark correction enabled: true
Nonlinearity correction enabled: false
Boxcar width: 0
XAxis mode: Wavelengths
Number of Pixels in Spectrum: 3648
>>>>>Begin Spectral Data<<<<<
178.204	-122.2
178.424	-122.2
178.644	-122.2
178.864	-111.96
179.084	-116.05
179.304	-21.85
179.524	53.93
179.744	-42.32
179.964	4.78
180.184	39.59
180.404	4.78
180.624	-11.61
180.844	-79.19
181.064	70.31
181.283	4.78
181.503	-19.8
181.723	-3.41
181.943	-89.43
182.163	74.41
182.383	-15.7
182.602	49.83
182.822	21.16
183.042	23.21
183.262	17.07
183.482	23.21
183.701	55.98
183.921	0.68
184.141	-42.32
184.361	31.4
184.58	2.73
184.8	41.64
185.02	-40.28
185.239	25.26
185.459	66.22
185.679	-19.8
185.898	19.11
186.118	23.21
186.338	37.55
186.557	17.07
186.777	49.83
186.997	45.74
187.216	-19.8
187.436	41.64
187.655	19.11
187.875	62.12
188.095	-21.85
188.314	12.97
188.534	-36.18
188.753	-13.65
188.973	88.75
189.192	64.17
189.412	17.07
189.631	19.11
189.851	10.92
190.07	55.98
190.29	17.07
190.509	10.92
190.729	45.74
190.948	10.92
191.168	111.27
191.387	72.36
191.607	10.92
191.826	47.79
192.045	103.08
192.265	-23.89
192.484	27.31
192.704	2.73
192.923	-7.51
193.142	49.83
193.362	25.26
193.581	82.6
193.8	-11.61
194.02	88.75
194.239	31.4
194.458	-25.94
194.678	-1.37
194.897	37.55
195.116	84.65
195.335	51.88
195.555	64.17
195.774	-7.51
195.993	2.73
196.212	0.68
196.432	27.31
196.651	21.16
196.87	2.73
197.089	25.26
197.308	27.31
197.528	21.16
197.747	27.31
197.966	27.31
198.185	37.55
198.404	-17.75
198.623	45.74
198.842	-38.23
199.062	12.97
199.281	39.59
199.5	19.11
199.719	25.26
199.938	8.87
200.157	58.03
200.376	8.87
200.595	-25.94
200.814	49.83
201.033	41.64
201.252	-34.13
201.471	2.73
201.69	62.12
201.909	43.69
202.128	21.16
202.347	49.83
202.566	25.26
202.785	-15.7
203.004	12.97
203.223	19.11
203.442	6.83
203.661	-7.51
203.879	-44.37
204.098	25.26
204.317	-36.18
204.536	111.27
204.755	-34.13
204.974	49.83
205.193	-13.65
205.411	49.83
205.63	66.22
205.849	-3.41
206.068	-17.75
206.287	19.11
206.505	80.55
206.724	55.98
206.943	2.73
207.162	6.83
207.381	68.27
207.599	-40.28
207.818	58.03
208.037	62.12
208.255	47.79
208.474	-38.23
208.693	10.92
208.911	19.11
209.13	-44.37
209.349	45.74
209.567	2.73
209.786	31.4
210.005	6.83
210.223	4.78
210.442	19.11
210.661	0.68
210.879	31.4
211.098	-9.56
211.316	53.93
211.535	66.22
211.753	39.59
211.972	55.98
212.191	-1.37
212.409	15.02
212.628	-27.99
212.846	86.7
213.065	-3.41
213.283	6.83
213.502	94.89
213.72	10.92
213.938	39.59
214.157	115.37
214.375	23.21
214.594	-7.51
214.812	55.98
215.031	6.83
215.249	39.59
215.467	-11.61
215.686	-5.46
215.904	58.03
216.122	-13.65
216.341	17.07
216.559	39.59
216.778	80.55
216.996	33.45
217.214	29.35
217.432	6.83
217.651	-9.56
217.869	23.21
218.087	23.21
218.306	31.4
218.524	21.16
218.742	-30.04
218.96	23.21
219.179	17.07
219.397	35.5
219.615	72.36
219.833	29.35
220.051	12.97
220.27	96.94
220.488	68.27
220.706	68.27
220.924	8.87
221.142	35.5
221.36	29.35
221.578	17.07
221.796	2.73
222.015	55.98
222.233	6.83
222.451	80.55
222.669	119.46
222.887	70.31
223.105	-25.94
223.323	31.4
223.541	-23.89
223.759	-19.8
223.977	51.88
224.195	154.28
224.413	-21.85
224.631	47.79
224.849	-13.65
225.067	62.12
225.285	-32.08
225.503	94.89
225.721	51.88
225.939	12.97
226.157	-1.37
226.375	109.22
226.592	-25.94
226.81	49.83
227.028	21.16
227.246	84.65
227.464	12.97
227.682	45.74
227.9	60.07
228.117	43.69
228.335	47.79
228.553	121.51
228.771	51.88
228.989	92.84
229.206	-1.37
229.424	-19.8
229.642	35.5
229.86	15.02
230.077	107.18
230.295	27.31
230.513	23.21
230.731	80.55
230.948	2.73
231.166	23.21
231.384	12.97
231.601	51.88
231.819	80.55
232.037	-38.23
232.254	88.75
232.472	12.97
232.689	15.02
232.907	76.46
233.125	-25.94
233.342	47.79
233.56	21.16
233.777	-3.41
233.995	47.79
234.213	53.93
234.43	66.22
234.648	31.4
234.865	2.73
235.083	-5.46
235.3	-27.99
235.518	10.92
235.735	64.17
235.953	55.98
236.17	86.7
236.388	2.73
236.605	6.83
236.822	58.03
237.04	58.03
237.257	68.27
237.475	37.55
237.692	19.11
237.909	29.35
238.127	31.4
238.344	39.59
238.562	10.92
238.779	-34.13
238.996	94.89
239.214	64.17
239.431	0.68
239.648	-25.94
239.865	47.79
240.083	25.26
240.3	45.74
240.517	0.68
240.735	80.55
240.952	6.83
241.169	117.42
241.386	8.87
241.603	-40.28
241.821	21.16
242.038	58.03
242.255	43.69
242.472	-13.65
242.689	23.21
242.907	49.83
243.124	15.02
243.341	33.45
243.558	51.88
243.775	-34.13
243.992	-11.61
244.209	-9.56
244.426	33.45
244.643	-1.37
244.86	-13.65
245.078	94.89
245.295	4.78
245.512	-34.13
245.729	96.94
245.946	31.4
246.163	37.55
246.38	49.83
246.597	55.98
246.814	53.93
247.031	45.74
247.248	62.12
247.464	-1.37
247.681	-21.85
247.898	47.79
248.115	178.86
248.332	-44.37
248.549	94.89
248.766	49.83
248.983	-54.61
249.2	-66.9
249.417	58.03
249.633	37.55
249.85	58.03
250.067	43.69
250.284	68.27
250.501	31.4
250.717	62.12
250.934	-21.85
251.151	23.21
251.368	23.21
251.585	70.31
251.801	47.79
252.018	-42.32
252.235	88.75
252.451	-9.56
252.668	-19.8
252.885	70.31
253.102	47.79
253.318	39.59
253.535	94.89
253.752	-19.8
253.968	4.78
254.185	17.07
254.401	17.07
254.618	31.4
254.835	29.35
255.051	47.79
255.268	41.64
255.484	6.83
255.701	25.26
255.917	2.73
256.134	-42.32
256.351	15.02
256.567	-27.99
256.784	53.93
257	55.98
257.217	25.26
257.433	82.6
257.65	55.98
257.866	58.03
258.082	68.27
258.299	23.21
258.515	4.78
258.732	31.4
258.948	41.64
259.165	27.31
259.381	60.07
259.597	53.93
259.814	62.12
260.03	25.26
260.246	78.51
260.463	17.07
260.679	51.88
260.895	39.59
261.112	92.84
261.328	-17.75
261.544	-3.41
261.761	119.46
261.977	-40.28
262.193	53.93
262.409	43.69
262.626	25.26
262.842	19.11
263.058	17.07
263.274	25.26
263.49	17.07
263.707	-32.08
263.923	64.17
264.139	47.79
264.355	35.5
264.571	92.84
264.787	31.4
265.004	4.78
265.22	-32.08
265.436	31.4
265.652	23.21
265.868	49.83
266.084	49.83
266.3	35.5
266.516	-30.04
266.732	117.42
266.948	86.7
267.164	49.83
267.38	33.45
267.596	0.68
267.812	62.12
268.028	58.03
268.244	-5.46
268.46	25.26
268.676	-54.61
268.892	64.17
269.108	39.59
269.324	53.93
269.54	29.35
269.756	58.03
269.972	0.68
270.188	35.5
270.403	-19.8
270.619	90.79
270.835	64.17
271.051	31.4
271.267	-17.75
271.483	45.74
271.698	47.79
271.914	17.07
272.13	8.87
272.346	43.69
272.562	74.41
272.777	64.17
272.993	37.55
273.209	19.11
273.425	60.07
273.64	53.93
273.856	88.75
274.072	53.93
274.287	92.84
274.503	119.46
274.719	15.02
274.934	53.93
275.15	47.79
275.366	-3.41
275.581	45.74
275.797	-1.37
276.012	80.55
276.228	10.92
276.444	15.02
276.659	2.73
276.875	4.78
277.09	68.27
277.306	43.69
277.521	76.46
277.737	27.31
277.952	23.21
278.168	2.73
278.383	17.07
278.599	-5.46
278.814	19.11
279.03	55.98
279.245	43.69
279.461	-9.56
279.676	19.11
279.892	-52.56
280.107	68.27
280.322	37.55
280.538	60.07
280.753	6.83
280.969	62.12
281.184	-32.08
281.399	27.31
281.615	35.5
281.83	39.59
282.045	10.92
282.26	70.31
282.476	53.93
282.691	29.35
282.906	43.69
283.122	4.78
283.337	19.11
283.552	15.02
283.767	-58.71
283.983	33.45
284.198	-3.41
284.413	105.13
284.628	-5.46
284.843	19.11
285.058	45.74
285.274	-15.7
285.489	-27.99
285.704	17.07
285.919	23.21
286.134	43.69
286.349	-15.7
286.564	10.92
286.779	78.51
286.995	45.74
287.21	-23.89
287.425	45.74
287.64	17.07
287.855	29.35
288.07	-3.41
288.285	55.98
288.5	64.17
288.715	0.68
288.93	4.78
289.145	-46.42
289.36	53.93
289.575	-13.65
289.79	-34.13
290.004	-9.56
290.219	-3.41
290.434	33.45
290.649	31.4
290.864	78.51
291.079	84.65
291.294	129.7
291.509	-3.41
291.724	76.46
291.938	37.55
292.153	113.32
292.368	-32.08
292.583	90.79
292.798	19.11
293.012	62.12
293.227	6.83
293.442	-13.65
293.657	41.64
293.871	43.69
294.086	45.74
294.301	23.21
294.516	41.64
294.73	88.75
294.945	70.31
295.16	-27.99
295.374	2.73
295.589	47.79
295.804	23.21
296.018	29.35
296.233	39.59
296.447	64.17
296.662	49.83
296.877	70.31
297.091	60.07
297.306	111.27
297.52	31.4
297.735	19.11
297.949	-38.23
298.164	-15.7
298.378	31.4
298.593	-25.94
298.807	-34.13
299.022	-44.37
299.236	35.5
299.451	49.83
299.665	49.83
299.88	58.03
300.094	72.36
300.309	-32.08
300.523	23.21
300.737	33.45
300.952	68.27
301.166	66.22
301.381	23.21
301.595	80.55
301.809	68.27
302.024	6.83
302.238	17.07
302.452	10.92
302.667	80.55
302.881	68.27
303.095	72.36
303.309	-42.32
303.524	33.45
303.738	92.84
303.952	15.02
304.166	29.35
304.381	-21.85
304.595	96.94
304.809	2.73
305.023	66.22
305.237	-34.13
305.452	33.45
305.666	43.69
305.88	27.31
306.094	0.68
306.308	8.87
306.522	74.41
306.736	23.21
306.95	31.4
307.164	51.88
307.379	12.97
307.593	17.07
307.807	55.98
308.021	86.7
308.235	66.22
308.449	41.64
308.663	94.89
308.877	111.27
309.091	27.31
309.305	68.27
309.519	25.26
309.733	45.74
309.947	-7.51
310.161	8.87
310.374	127.66
310.588	64.17
310.802	-3.41
311.016	64.17
311.23	12.97
311.444	-17.75
311.658	-17.75
311.872	72.36
312.085	33.45
312.299	41.64
312.513	39.59
312.727	35.5
312.941	47.79
313.154	17.07
313.368	2.73
313.582	25.26
313.796	-19.8
314.009	55.98
314.223	23.21
314.437	19.11
314.651	15.02
314.864	17.07
315.078	21.16
315.292	72.36
315.505	78.51
315.719	60.07
315.933	6.83
316.146	21.16
316.36	-9.56
316.573	88.75
316.787	-1.37
317.001	-9.56
317.214	-15.7
317.428	90.79
317.641	76.46
317.855	31.4
318.068	12.97
318.282	27.31
318.495	84.65
318.709	43.69
318.922	-5.46
319.136	96.94
319.349	53.93
319.563	41.64
319.776	12.97
319.99	53.93
320.203	41.64
320.417	-7.51
320.63	53.93
320.843	15.02
321.057	-1.37
321.27	35.5
321.483	15.02
321.697	51.88
321.91	-13.65
322.124	-5.46
322.337	25.26
322.55	-11.61
322.763	10.92
322.977	19.11
323.19	-11.61
323.403	35.5
323.617	4.78
323.83	25.26
324.043	19.11
324.256	19.11
324.469	10.92
324.683	25.26
324.896	37.55
325.109	68.27
325.322	-30.04
325.535	27.31
325.748	-17.75
325.962	35.5
326.175	35.5
326.388	39.59
326.601	80.55
326.814	74.41
327.027	33.45
327.24	76.46
327.453	10.92
327.666	39.59
327.879	41.64
328.092	125.61
328.305	-7.51
328.518	121.51
328.731	39.59
328.944	-66.9
329.157	29.35
329.37	21.16
329.583	176.81
329.796	66.22
330.009	-7.51
330.222	70.31
330.435	23.21
330.648	76.46
330.861	31.4
331.073	109.22
331.286	68.27
331.499	58.03
331.712	96.94
331.925	23.21
332.138	55.98
332.35	27.31
332.563	41.64
332.776	33.45
332.989	-71
333.202	23.21
333.414	49.83
333.627	70.31
333.84	39.59
334.053	51.88
334.265	53.93
334.478	41.64
334.691	21.16
334.903	64.17
335.116	19.11
335.329	31.4
335.541	-54.61
335.754	78.51
335.966	17.07
336.179	98.99
336.392	76.46
336.604	29.35
336.817	55.98
337.029	51.88
337.242	-21.85
337.454	76.46
337.667	37.55
337.88	31.4
338.092	21.16
338.305	8.87
338.517	25.26
338.729	51.88
338.942	76.46
339.154	21.16
339.367	-3.41
339.579	72.36
339.792	53.93
340.004	76.46
340.217	-5.46
340.429	72.36
340.641	68.27
340.854	-9.56
341.066	76.46
341.278	49.83
341.491	-19.8
341.703	-21.85
341.915	17.07
342.128	25.26
342.34	37.55
342.552	133.8
342.764	62.12
342.977	41.64
343.189	66.22
343.401	41.64
343.613	-9.56
343.826	94.89
344.038	-34.13
344.25	33.45
344.462	31.4
344.674	80.55
344.886	41.64
345.099	82.6
345.311	92.84
345.523	8.87
345.735	-46.42
345.947	-3.41
346.159	35.5
346.371	55.98
346.583	-7.51
346.795	39.59
347.007	103.08
347.219	41.64
347.431	29.35
347.643	90.79
347.855	72.36
348.067	98.99
348.279	29.35
348.491	2.73
348.703	-27.99
348.915	72.36
349.127	29.35
349.339	47.79
349.551	76.46
349.763	17.07
349.975	4.78
350.187	53.93
350.399	-17.75
350.61	74.41
350.822	21.16
351.034	6.83
351.246	-5.46
351.458	23.21
351.669	55.98
351.881	29.35
352.093	121.51
352.305	43.69
352.517	76.46
352.728	23.21
352.94	39.59
353.152	39.59
353.363	2.73
353.575	39.59
353.787	129.7
353.999	66.22
354.21	88.75
354.422	12.97
354.633	35.5
354.845	-52.56
355.057	66.22
355.268	37.55
355.48	88.75
355.692	43.69
355.903	76.46
356.115	66.22
356.326	80.55
356.538	68.27
356.749	90.79
356.961	21.16
357.172	31.4
357.384	86.7
357.595	72.36
357.807	66.22
358.018	-3.41
358.23	-7.51
358.441	78.51
358.653	-21.85
358.864	4.78
359.075	-1.37
359.287	117.42
359.498	2.73
359.709	-3.41
359.921	62.12
360.132	64.17
360.344	58.03
360.555	27.31
360.766	55.98
360.977	35.5
361.189	86.7
361.4	68.27
361.611	86.7
361.823	47.79
362.034	17.07
362.245	62.12
362.456	10.92
362.667	23.21
362.879	0.68
363.09	47.79
363.301	84.65
363.512	6.83
363.723	60.07
363.935	37.55
364.146	39.59
364.357	45.74
364.568	23.21
364.779	33.45
364.99	23.21
365.201	31.4
365.412	51.88
365.623	51.88
365.834	103.08
366.045	27.31
366.256	133.8
366.467	23.21
366.678	-13.65
366.889	47.79
367.1	0.68
367.311	58.03
367.522	43.69
367.733	90.79
367.944	90.79
368.155	92.84
368.366	-19.8
368.577	119.46
368.788	31.4
368.999	6.83
369.209	51.88
369.42	55.98
369.631	72.36
369.842	-3.41
370.053	-58.71
370.264	37.55
370.474	-56.66
370.685	41.64
370.896	58.03
371.107	29.35
371.317	39.59
371.528	64.17
371.739	60.07
371.95	35.5
372.16	39.59
372.371	19.11
372.582	-19.8
372.792	31.4
373.003	12.97
373.214	51.88
373.424	88.75
373.635	45.74
373.846	154.28
374.056	25.26
374.267	88.75
374.477	39.59
374.688	-9.56
374.898	98.99
375.109	45.74
375.319	41.64
375.53	68.27
375.74	58.03
375.951	53.93
376.161	72.36
376.372	76.46
376.582	4.78
376.793	12.97
377.003	27.31
377.214	27.31
377.424	31.4
377.635	68.27
377.845	47.79
378.055	70.31
378.266	41.64
378.476	72.36
378.686	84.65
378.897	86.7
379.107	66.22
379.317	39.59
379.528	41.64
379.738	62.12
379.948	6.83
380.158	39.59
380.369	23.21
380.579	15.02
380.789	23.21
380.999	117.42
381.21	84.65
381.42	123.56
381.63	27.31
381.84	70.31
382.05	2.73
382.261	94.89
382.471	82.6
382.681	88.75
382.891	47.79
383.101	31.4
383.311	31.4
383.521	66.22
383.731	25.26
383.941	10.92
384.151	-5.46
384.361	47.79
384.571	146.09
384.781	35.5
384.991	84.65
385.201	111.27
385.411	43.69
385.621	41.64
385.831	60.07
386.041	123.56
386.251	39.59
386.461	62.12
386.671	-13.65
386.881	66.22
387.091	47.79
387.301	66.22
387.511	33.45
387.72	66.22
387.93	41.64
388.14	19.11
388.35	76.46
388.56	35.5
388.769	-3.41
388.979	76.46
389.189	41.64
389.399	72.36
389.609	180.9
389.818	31.4
390.028	15.02
390.238	60.07
390.447	31.4
390.657	101.03
390.867	74.41
391.076	31.4
391.286	12.97
391.496	78.51
391.705	27.31
391.915	76.46
392.125	111.27
392.334	94.89
392.544	88.75
392.753	19.11
392.963	82.6
393.172	60.07
393.382	84.65
393.591	78.51
393.801	4.78
394.01	58.03
394.22	80.55
394.429	96.94
394.639	127.66
394.848	12.97
395.058	64.17
395.267	88.75
395.477	105.13
395.686	115.37
395.895	101.03
396.105	131.75
396.314	111.27
396.524	135.85
396.733	4.78
396.942	68.27
397.152	105.13
397.361	96.94
397.57	64.17
397.78	62.12
397.989	144.04
398.198	107.18
398.407	64.17
398.617	51.88
398.826	121.51
399.035	43.69
399.244	51.88
399.453	49.83
399.663	127.66
399.872	137.9
400.081	127.66
400.29	76.46
400.499	121.51
400.708	162.47
400.917	70.31
401.127	123.56
401.336	66.22
401.545	160.42
401.754	133.8
401.963	121.51
402.172	68.27
402.381	60.07
402.59	17.07
402.799	117.42
403.008	107.18
403.217	123.56
403.426	160.42
403.635	195.24
403.844	201.38
404.053	178.86
404.262	133.8
404.471	129.7
404.68	111.27
404.888	84.65
405.097	180.9
405.306	156.33
405.515	193.19
405.724	119.46
405.933	152.23
406.142	158.38
406.35	180.9
406.559	160.42
406.768	150.18
406.977	146.09
407.185	217.77
407.394	199.34
407.603	101.03
407.812	158.38
408.02	207.53
408.229	213.67
408.438	301.73
408.646	228.01
408.855	180.9
409.064	219.82
409.272	195.24
409.481	318.12
409.69	127.66
409.898	301.73
410.107	283.3
410.315	363.17
410.524	348.84
410.733	373.41
410.941	301.73
411.15	314.02
411.358	400.04
411.567	363.17
411.775	443.04
411.984	430.76
412.192	453.28
412.401	410.28
412.609	504.48
412.818	424.61
413.026	393.89
413.234	484
413.443	580.26
413.651	559.78
413.86	596.64
414.068	606.88
414.276	621.22
414.485	717.47
414.693	633.5
414.901	619.17
415.11	740
415.318	635.55
415.526	789.15
415.734	799.39
415.943	801.44
416.151	823.97
416.359	776.86
416.567	909.98
416.776	912.03
416.984	975.52
417.192	959.13
417.4	928.41
417.608	1002.14
417.817	1039
418.025	1112.73
418.233	1153.69
418.441	1157.79
418.649	1165.98
418.857	1319.57
419.065	1225.37
419.273	1239.7
419.481	1354.39
419.689	1409.69
419.897	1495.7
420.105	1577.62
420.313	1538.71
420.521	1612.43
420.729	1639.06
420.937	1708.69
421.145	1882.77
421.353	1915.53
421.561	1966.73
421.769	2011.79
421.977	2015.88
422.185	1976.97
422.393	2073.23
422.601	2286.22
422.809	2214.54
423.017	2312.84
423.224	2415.24
423.432	2519.68
423.64	2484.87
423.848	2751.1
424.056	2626.18
424.263	2697.86
424.471	2812.54
424.679	2929.28
424.887	3078.78
425.094	3134.07
425.302	3170.94
425.51	3324.54
425.718	3342.97
425.925	3373.69
426.133	3564.15
426.341	3766.9
426.548	3861.1
426.756	3775.09
426.964	3922.54
427.171	4115.05
427.379	4211.31
427.586	4229.74
427.794	4608.61
428.001	4571.75
428.209	5005.92
428.417	4858.46
428.624	5085.79
428.832	5255.77
429.039	5249.63
429.247	5053.02
429.454	5739.09
429.662	5900.88
429.869	5597.78
430.076	6034
430.284	5806.67
430.491	6085.2
430.699	6457.93
430.906	6443.59
431.114	6351.43
431.321	6863.43
431.528	7027.26
431.736	7205.44
431.943	7619.13
432.15	7418.43
432.358	7486.01
432.565	7975.47
432.772	7987.76
432.979	8495.66
433.187	8469.03
433.394	8520.23
433.601	9050.66
433.808	9050.66
434.016	8946.21
434.223	9595.42
434.43	10068.5
434.637	9955.86
434.844	10463.75
435.052	10742.28
435.259	10547.72
435.466	10801.67
435.673	10455.56
435.88	11207.17
436.087	11672.06
436.294	12001.78
436.501	11618.81
436.708	11809.27
436.915	11950.58
437.122	12816.87
437.329	12704.23
437.537	13261.28
437.743	13576.67
437.95	13361.63
438.157	14178.77
438.364	14154.19
438.571	14457.29
438.778	14537.16
438.985	16044.47
439.192	15253.95
439.399	15851.96
439.606	15442.37
439.813	16161.2
440.02	17168.8
440.227	16877.99
440.433	16751.02
440.64	17385.89
440.847	17060.26
441.054	17476
441.261	18858.38
441.467	18506.13
441.674	18936.2
441.881	19966.33
442.088	19607.94
442.294	19497.35
442.501	20099.45
442.708	20472.18
442.914	21324.13
443.121	22186.33
443.328	21492.07
443.534	22892.88
443.741	22333.78
443.948	21999.96
444.154	23492.93
444.361	23365.96
444.568	23605.57
444.774	23490.88
444.981	24095.03
445.187	24570.16
445.394	25852.19
445.6	25569.57
445.807	27568.39
446.013	26413.34
446.22	27119.88
446.426	27930.88
446.633	28180.73
446.839	29620.45
447.046	28064
447.252	29536.49
447.459	29837.54
447.665	29602.02
447.871	30722.26
448.078	32043.2
448.284	30423.26
448.491	31844.55
448.697	32805.05
448.903	33276.08
449.11	33427.63
449.316	32594.11
449.522	33380.53
449.728	34314.4
449.935	34574.49
450.141	34343.07
450.347	35440.78
450.553	34427.04
450.76	34619.55
450.966	35676.3
451.172	35387.53
451.378	36450.43
451.584	35637.39
451.791	36427.9
451.997	36237.44
452.203	36618.36
452.409	36884.6
452.615	36903.03
452.821	35395.73
453.027	35029.14
453.233	36939.9
453.44	35356.82
453.646	36001.93
453.852	36225.15
454.058	36700.28
454.264	35631.24
454.47	36257.92
454.676	35219.6
454.882	36458.62
455.088	33099.95
455.294	34052.26
455.5	34406.56
455.705	34257.06
455.911	33691.82
456.117	32538.81
456.323	31998.15
456.529	30486.75
456.735	31766.73
456.941	31004.88
457.147	30544.09
457.352	29708.52
457.558	29186.29
457.764	29128.94
457.97	28938.48
458.176	28197.12
458.381	28276.99
458.587	26847.5
458.793	26855.7
458.999	25182.51
459.204	27101.45
459.41	26587.41
459.616	24488.24
459.821	24912.17
460.027	24680.75
460.233	24273.21
460.438	22802.77
460.644	23259.46
460.85	21999.96
461.055	21649.76
461.261	21682.53
461.466	20212.09
461.672	19513.73
461.878	20867.44
462.083	19501.44
462.289	19290.5
462.494	18983.31
462.7	18104.73
462.905	17889.69
463.111	18243.99
463.316	18143.64
463.522	17766.81
463.727	17973.66
463.932	17971.61
464.138	17811.87
464.343	17750.43
464.549	17226.15
464.754	18008.47
464.959	17523.1
465.165	17545.63
465.37	16918.95
465.575	16267.7
465.781	17252.77
465.986	17056.17
466.191	16662.96
466.397	16312.75
466.602	15460.8
466.807	16011.7
467.012	15960.5
467.218	15722.94
467.423	15718.84
467.628	15690.17
467.833	16288.18
468.038	15870.39
