Data from USB4F104151__40__11-45-03-710.txt Node

Date: Fri Mar 14 11:45:03 EDT 2025
User: louis
Spectrometer: USB4F10415
Trigger mode: 4
Integration Time (sec): 2.000000E-2
Scans to average: 1
Electric dark correction enabled: true
Nonlinearity correction enabled: false
Boxcar width: 0
XAxis mode: Wavelengths
Number of Pixels in Spectrum: 3648
>>>>>Begin Spectral Data<<<<<
178.204	-78.85
178.424	-78.85
178.644	-78.85
178.864	-93.18
179.084	-50.18
179.304	9.22
179.524	27.65
179.744	-31.74
179.964	31.74
180.184	7.17
180.404	-27.65
180.624	-27.65
180.844	1.02
181.064	-11.26
181.283	-48.13
181.503	7.17
181.723	62.46
181.943	1.02
182.163	15.36
182.383	41.98
182.602	41.98
182.822	27.65
183.042	-11.26
183.262	-31.74
183.482	-9.22
183.701	35.84
183.921	60.42
184.141	97.28
184.361	60.42
184.58	44.03
184.8	-3.07
185.02	74.75
185.239	66.56
185.459	48.13
185.679	-3.07
185.898	25.6
186.118	-9.22
186.338	-23.55
186.557	15.36
186.777	-37.89
186.997	3.07
187.216	35.84
187.436	7.17
187.655	11.26
187.875	68.61
188.095	68.61
188.314	-13.31
188.534	7.17
188.753	33.79
188.973	52.22
189.192	93.18
189.412	-37.89
189.631	25.6
189.851	-17.41
190.07	82.94
190.29	-5.12
190.509	35.84
190.729	9.22
190.948	80.89
191.168	66.56
191.387	138.24
191.607	-37.89
191.826	82.94
192.045	21.5
192.265	11.26
192.484	3.07
192.704	13.31
192.923	33.79
193.142	58.37
193.362	-3.07
193.581	87.04
193.8	46.08
194.02	41.98
194.239	27.65
194.458	48.13
194.678	17.41
194.897	33.79
195.116	17.41
195.335	11.26
195.555	31.74
195.774	33.79
195.993	21.5
196.212	19.46
196.432	9.22
196.651	44.03
196.87	-27.65
197.089	50.18
197.308	21.5
197.528	82.94
197.747	-15.36
197.966	74.75
198.185	123.9
198.404	50.18
198.623	46.08
198.842	78.85
199.062	19.46
199.281	78.85
199.5	-9.22
199.719	62.46
199.938	72.7
200.157	91.13
200.376	19.46
200.595	23.55
200.814	27.65
201.033	58.37
201.252	19.46
201.471	33.79
201.69	68.61
201.909	33.79
202.128	5.12
202.347	56.32
202.566	13.31
202.785	33.79
203.004	-3.07
203.223	74.75
203.442	37.89
203.661	72.7
203.879	3.07
204.098	41.98
204.317	-3.07
204.536	70.65
204.755	35.84
204.974	91.13
205.193	41.98
205.411	21.5
205.63	21.5
205.849	-11.26
206.068	3.07
206.287	-19.46
206.505	48.13
206.724	44.03
206.943	-54.27
207.162	-21.5
207.381	52.22
207.599	33.79
207.818	44.03
208.037	-5.12
208.255	-31.74
208.474	56.32
208.693	95.23
208.911	56.32
209.13	44.03
209.349	13.31
209.567	-13.31
209.786	68.61
210.005	56.32
210.223	1.02
210.442	19.46
210.661	31.74
210.879	52.22
211.098	19.46
211.316	-5.12
211.535	-9.22
211.753	87.04
211.972	-37.89
212.191	-1.02
212.409	29.7
212.628	68.61
212.846	3.07
213.065	80.89
213.283	130.05
213.502	-29.7
213.72	74.75
213.938	19.46
214.157	-1.02
214.375	78.85
214.594	27.65
214.812	58.37
215.031	60.42
215.249	29.7
215.467	3.07
215.686	25.6
215.904	115.71
216.122	-31.74
216.341	72.7
216.559	11.26
216.778	44.03
216.996	68.61
217.214	66.56
217.432	11.26
217.651	93.18
217.869	21.5
218.087	31.74
218.306	35.84
218.524	107.52
218.742	46.08
218.96	-15.36
219.179	50.18
219.397	78.85
219.615	89.09
219.833	-44.03
220.051	19.46
220.27	125.95
220.488	-15.36
220.706	17.41
220.924	-31.74
221.142	48.13
221.36	58.37
221.578	76.8
221.796	-56.32
222.015	91.13
222.233	-17.41
222.451	35.84
222.669	17.41
222.887	91.13
223.105	-35.84
223.323	-31.74
223.541	37.89
223.759	107.52
223.977	-39.94
224.195	117.76
224.413	17.41
224.631	58.37
224.849	44.03
225.067	95.23
225.285	-87.04
225.503	-27.65
225.721	37.89
225.939	-19.46
226.157	54.27
226.375	44.03
226.592	33.79
226.81	17.41
227.028	13.31
227.246	125.95
227.464	37.89
227.682	-37.89
227.9	9.22
228.117	7.17
228.335	35.84
228.553	25.6
228.771	46.08
228.989	58.37
229.206	-11.26
229.424	-3.07
229.642	7.17
229.86	125.95
230.077	115.71
230.295	-19.46
230.513	54.27
230.731	-31.74
230.948	35.84
231.166	-3.07
231.384	7.17
231.601	87.04
231.819	60.42
232.037	44.03
232.254	-56.32
232.472	15.36
232.689	58.37
232.907	87.04
233.125	74.75
233.342	39.94
233.56	-15.36
233.777	23.55
233.995	27.65
234.213	113.66
234.43	19.46
234.648	60.42
234.865	-37.89
235.083	-33.79
235.3	74.75
235.518	64.51
235.735	25.6
235.953	117.76
236.17	70.65
236.388	21.5
236.605	87.04
236.822	66.56
237.04	21.5
237.257	3.07
237.475	-17.41
237.692	-58.37
237.909	44.03
238.127	91.13
238.344	52.22
238.562	25.6
238.779	48.13
238.996	50.18
239.214	-52.22
239.431	72.7
239.648	25.6
239.865	39.94
240.083	9.22
240.3	56.32
240.517	25.6
240.735	33.79
240.952	50.18
241.169	54.27
241.386	80.89
241.603	-13.31
241.821	5.12
242.038	119.81
242.255	-15.36
242.472	46.08
242.689	82.94
242.907	52.22
243.124	-3.07
243.341	119.81
243.558	37.89
243.775	-52.22
243.992	-19.46
244.209	3.07
244.426	29.7
244.643	31.74
244.86	-33.79
245.078	-41.98
245.295	109.57
245.512	13.31
245.729	44.03
245.946	-37.89
246.163	91.13
246.38	31.74
246.597	31.74
246.814	68.61
247.031	-48.13
247.248	39.94
247.464	-29.7
247.681	11.26
247.898	56.32
248.115	128
248.332	70.65
248.549	44.03
248.766	39.94
248.983	17.41
249.2	-19.46
249.417	58.37
249.633	-3.07
249.85	74.75
250.067	44.03
250.284	5.12
250.501	-41.98
250.717	52.22
250.934	-13.31
251.151	46.08
251.368	-66.56
251.585	29.7
251.801	54.27
252.018	60.42
252.235	72.7
252.451	-11.26
252.668	97.28
252.885	113.66
253.102	37.89
253.318	58.37
253.535	-17.41
253.752	1.02
253.968	113.66
254.185	-68.61
254.401	15.36
254.618	60.42
254.835	54.27
255.051	72.7
255.268	17.41
255.484	113.66
255.701	11.26
255.917	93.18
256.134	27.65
256.351	27.65
256.567	119.81
256.784	93.18
257	27.65
257.217	31.74
257.433	35.84
257.65	70.65
257.866	-13.31
258.082	-33.79
258.299	-7.17
258.515	25.6
258.732	44.03
258.948	-48.13
259.165	13.31
259.381	58.37
259.597	5.12
259.814	9.22
260.03	68.61
260.246	15.36
260.463	52.22
260.679	-5.12
260.895	-35.84
261.112	39.94
261.328	58.37
261.544	46.08
261.761	62.46
261.977	54.27
262.193	3.07
262.409	87.04
262.626	15.36
262.842	11.26
263.058	-17.41
263.274	11.26
263.49	84.99
263.707	5.12
263.923	29.7
264.139	-11.26
264.355	44.03
264.571	-7.17
264.787	66.56
265.004	66.56
265.22	23.55
265.436	35.84
265.652	25.6
265.868	21.5
266.084	23.55
266.3	25.6
266.516	-15.36
266.732	31.74
266.948	-64.51
267.164	111.61
267.38	27.65
267.596	27.65
267.812	138.24
268.028	17.41
268.244	-25.6
268.46	82.94
268.676	9.22
268.892	84.99
269.108	7.17
269.324	25.6
269.54	76.8
269.756	84.99
269.972	37.89
270.188	74.75
270.403	-39.94
270.619	48.13
270.835	37.89
271.051	-23.55
271.267	76.8
271.483	-13.31
271.698	-3.07
271.914	52.22
272.13	9.22
272.346	60.42
272.562	68.61
272.777	78.85
272.993	62.46
273.209	-13.31
273.425	87.04
273.64	9.22
273.856	72.7
274.072	3.07
274.287	29.7
274.503	52.22
274.719	23.55
274.934	52.22
275.15	52.22
275.366	11.26
275.581	31.74
275.797	41.98
276.012	-48.13
276.228	46.08
276.444	64.51
276.659	23.55
276.875	48.13
277.09	64.51
277.306	37.89
277.521	21.5
277.737	68.61
277.952	44.03
278.168	17.41
278.383	-11.26
278.599	39.94
278.814	109.57
279.03	13.31
279.245	101.37
279.461	101.37
279.676	121.85
279.892	41.98
280.107	13.31
280.322	7.17
280.538	64.51
280.753	35.84
280.969	64.51
281.184	58.37
281.399	29.7
281.615	68.61
281.83	60.42
282.045	27.65
282.26	-1.02
282.476	70.65
282.691	95.23
282.906	48.13
283.122	23.55
283.337	72.7
283.552	31.74
283.767	52.22
283.983	21.5
284.198	13.31
284.413	19.46
284.628	5.12
284.843	33.79
285.058	78.85
285.274	25.6
285.489	-13.31
285.704	39.94
285.919	41.98
286.134	33.79
286.349	29.7
286.564	44.03
286.779	115.71
286.995	48.13
287.21	58.37
287.425	-13.31
287.64	29.7
287.855	44.03
288.07	-27.65
288.285	46.08
288.5	66.56
288.715	9.22
288.93	11.26
289.145	107.52
289.36	21.5
289.575	70.65
289.79	25.6
290.004	56.32
290.219	29.7
290.434	-11.26
290.649	-3.07
290.864	54.27
291.079	17.41
291.294	39.94
291.509	99.33
291.724	15.36
291.938	52.22
292.153	29.7
292.368	5.12
292.583	3.07
292.798	31.74
293.012	99.33
293.227	62.46
293.442	-48.13
293.657	3.07
293.871	101.37
294.086	-25.6
294.301	89.09
294.516	37.89
294.73	60.42
294.945	29.7
295.16	50.18
295.374	58.37
295.589	-1.02
295.804	-27.65
296.018	48.13
296.233	103.42
296.447	41.98
296.662	62.46
296.877	70.65
297.091	-33.79
297.306	82.94
297.52	35.84
297.735	9.22
297.949	64.51
298.164	-3.07
298.378	11.26
298.593	7.17
298.807	78.85
299.022	66.56
299.236	113.66
299.451	29.7
299.665	60.42
299.88	31.74
300.094	82.94
300.309	29.7
300.523	48.13
300.737	60.42
300.952	76.8
301.166	82.94
301.381	41.98
301.595	60.42
301.809	25.6
302.024	-9.22
302.238	39.94
302.452	25.6
302.667	44.03
302.881	60.42
303.095	82.94
303.309	-31.74
303.524	-9.22
303.738	64.51
303.952	-54.27
304.166	70.65
304.381	70.65
304.595	41.98
304.809	39.94
305.023	23.55
305.237	-23.55
305.452	-13.31
305.666	44.03
305.88	80.89
306.094	27.65
306.308	19.46
306.522	39.94
306.736	25.6
306.95	109.57
307.164	84.99
307.379	46.08
307.593	107.52
307.807	93.18
308.021	76.8
308.235	91.13
308.449	35.84
308.663	23.55
308.877	119.81
309.091	91.13
309.305	123.9
309.519	91.13
309.733	15.36
309.947	-46.08
310.161	115.71
310.374	44.03
310.588	119.81
310.802	-13.31
311.016	60.42
311.23	99.33
311.444	52.22
311.658	29.7
311.872	64.51
312.085	-21.5
312.299	33.79
312.513	27.65
312.727	31.74
312.941	15.36
313.154	31.74
313.368	74.75
313.582	46.08
313.796	-19.46
314.009	9.22
314.223	-13.31
314.437	37.89
314.651	95.23
314.864	35.84
315.078	80.89
315.292	-7.17
315.505	56.32
315.719	95.23
315.933	60.42
316.146	68.61
316.36	19.46
316.573	72.7
316.787	50.18
317.001	58.37
317.214	72.7
317.428	33.79
317.641	132.09
317.855	29.7
318.068	103.42
318.282	74.75
318.495	17.41
318.709	11.26
318.922	21.5
319.136	80.89
319.349	119.81
319.563	-23.55
319.776	29.7
319.99	5.12
320.203	39.94
320.417	54.27
320.63	31.74
320.843	138.24
321.057	-29.7
321.27	-35.84
321.483	52.22
321.697	1.02
321.91	7.17
322.124	-17.41
322.337	27.65
322.55	-3.07
322.763	-21.5
322.977	101.37
323.19	48.13
323.403	19.46
323.617	68.61
323.83	35.84
324.043	78.85
324.256	56.32
324.469	95.23
324.683	44.03
324.896	64.51
325.109	62.46
325.322	31.74
325.535	78.85
325.748	1.02
325.962	19.46
326.175	89.09
326.388	84.99
326.601	76.8
326.814	72.7
327.027	17.41
327.24	117.76
327.453	-5.12
327.666	29.7
327.879	107.52
328.092	25.6
328.305	-5.12
328.518	54.27
328.731	-39.94
328.944	-5.12
329.157	46.08
329.37	29.7
329.583	9.22
329.796	21.5
330.009	50.18
330.222	105.47
330.435	35.84
330.648	95.23
330.861	19.46
331.073	62.46
331.286	19.46
331.499	138.24
331.712	72.7
331.925	35.84
332.138	95.23
332.35	70.65
332.563	48.13
332.776	46.08
332.989	25.6
333.202	37.89
333.414	-25.6
333.627	37.89
333.84	95.23
334.053	39.94
334.265	54.27
334.478	103.42
334.691	70.65
334.903	72.7
335.116	-17.41
335.329	91.13
335.541	56.32
335.754	46.08
335.966	68.61
336.179	56.32
336.392	46.08
336.604	76.8
336.817	21.5
337.029	74.75
337.242	-3.07
337.454	50.18
337.667	46.08
337.88	115.71
338.092	68.61
338.305	13.31
338.517	80.89
338.729	13.31
338.942	13.31
339.154	3.07
339.367	74.75
339.579	-5.12
339.792	29.7
340.004	78.85
340.217	58.37
340.429	35.84
340.641	-3.07
340.854	82.94
341.066	11.26
341.278	101.37
341.491	44.03
341.703	123.9
341.915	64.51
342.128	134.14
342.34	39.94
342.552	41.98
342.764	-19.46
342.977	107.52
343.189	48.13
343.401	78.85
343.613	-7.17
343.826	87.04
344.038	37.89
344.25	56.32
344.462	76.8
344.674	50.18
344.886	39.94
345.099	48.13
345.311	101.37
345.523	58.37
345.735	27.65
345.947	5.12
346.159	46.08
346.371	44.03
346.583	11.26
346.795	80.89
347.007	25.6
347.219	19.46
347.431	19.46
347.643	44.03
347.855	60.42
348.067	60.42
348.279	11.26
348.491	56.32
348.703	15.36
348.915	-3.07
349.127	80.89
349.339	33.79
349.551	7.17
349.763	46.08
349.975	82.94
350.187	41.98
350.399	-9.22
350.61	74.75
350.822	5.12
351.034	27.65
351.246	54.27
351.458	33.79
351.669	27.65
351.881	136.19
352.093	60.42
352.305	-3.07
352.517	103.42
352.728	56.32
352.94	64.51
353.152	111.61
353.363	60.42
353.575	5.12
353.787	107.52
353.999	35.84
354.21	29.7
354.422	168.96
354.633	3.07
354.845	21.5
355.057	25.6
355.268	72.7
355.48	27.65
355.692	7.17
355.903	3.07
356.115	50.18
356.326	19.46
356.538	64.51
356.749	-7.17
356.961	76.8
357.172	48.13
357.384	119.81
357.595	39.94
357.807	95.23
358.018	9.22
358.23	19.46
358.441	56.32
358.653	89.09
358.864	91.13
359.075	37.89
359.287	21.5
359.498	62.46
359.709	17.41
359.921	99.33
360.132	70.65
360.344	-3.07
360.555	35.84
360.766	-33.79
360.977	125.95
361.189	99.33
361.4	68.61
361.611	74.75
361.823	125.95
362.034	31.74
362.245	-15.36
362.456	113.66
362.667	15.36
362.879	11.26
363.09	70.65
363.301	95.23
363.512	37.89
363.723	62.46
363.935	25.6
364.146	91.13
364.357	29.7
364.568	48.13
364.779	33.79
364.99	31.74
365.201	31.74
365.412	134.14
365.623	105.47
365.834	74.75
366.045	64.51
366.256	27.65
366.467	41.98
366.678	33.79
366.889	35.84
367.1	60.42
367.311	70.65
367.522	97.28
367.733	123.9
367.944	52.22
368.155	37.89
368.366	84.99
368.577	70.65
368.788	39.94
368.999	41.98
369.209	142.33
369.42	78.85
369.631	115.71
369.842	21.5
370.053	-1.02
370.264	113.66
370.474	117.76
370.685	52.22
370.896	39.94
371.107	87.04
371.317	56.32
371.528	70.65
371.739	91.13
371.95	21.5
372.16	31.74
372.371	-3.07
372.582	99.33
372.792	78.85
373.003	84.99
373.214	-5.12
373.424	33.79
373.635	-27.65
373.846	56.32
374.056	44.03
374.267	123.9
374.477	107.52
374.688	44.03
374.898	39.94
375.109	48.13
375.319	201.72
375.53	58.37
375.74	15.36
375.951	58.37
376.161	44.03
376.372	70.65
376.582	39.94
376.793	72.7
377.003	58.37
377.214	95.23
377.424	113.66
377.635	41.98
377.845	-29.7
378.055	91.13
378.266	41.98
378.476	62.46
378.686	93.18
378.897	64.51
379.107	84.99
379.317	78.85
379.528	56.32
379.738	109.57
379.948	78.85
380.158	105.47
380.369	23.55
380.579	31.74
380.789	25.6
380.999	74.75
381.21	84.99
381.42	46.08
381.63	107.52
381.84	70.65
382.05	33.79
382.261	99.33
382.471	64.51
382.681	93.18
382.891	58.37
383.101	91.13
383.311	46.08
383.521	5.12
383.731	121.85
383.941	103.42
384.151	111.61
384.361	48.13
384.571	41.98
384.781	58.37
384.991	207.87
385.201	132.09
385.411	54.27
385.621	89.09
385.831	19.46
386.041	56.32
386.251	13.31
386.461	89.09
386.671	58.37
386.881	-9.22
387.091	87.04
387.301	54.27
387.511	101.37
387.72	101.37
387.93	82.94
388.14	93.18
388.35	-5.12
388.56	87.04
388.769	101.37
388.979	97.28
389.189	66.56
389.399	76.8
389.609	150.53
389.818	103.42
390.028	123.9
390.238	107.52
390.447	87.04
390.657	56.32
390.867	95.23
391.076	76.8
391.286	76.8
391.496	39.94
391.705	70.65
391.915	107.52
392.125	99.33
392.334	103.42
392.544	48.13
392.753	101.37
392.963	74.75
393.172	23.55
393.382	62.46
393.591	119.81
393.801	5.12
394.01	64.51
394.22	103.42
394.429	107.52
394.639	58.37
394.848	175.1
395.058	70.65
395.267	152.57
395.477	95.23
395.686	179.2
395.895	50.18
396.105	130.05
396.314	74.75
396.524	111.61
396.733	50.18
396.942	158.72
397.152	152.57
397.361	136.19
397.57	148.48
397.78	99.33
397.989	140.29
398.198	117.76
398.407	80.89
398.617	50.18
398.826	80.89
399.035	64.51
399.244	130.05
399.453	164.86
399.663	121.85
399.872	164.86
400.081	103.42
400.29	97.28
400.499	123.9
400.708	99.33
400.917	44.03
401.127	121.85
401.336	115.71
401.545	117.76
401.754	154.62
401.963	134.14
402.172	111.61
402.381	173.05
402.59	183.29
402.799	168.96
403.008	220.16
403.217	107.52
403.426	130.05
403.635	148.48
403.844	160.77
404.053	222.2
404.262	199.68
404.471	177.15
404.68	144.38
404.888	148.48
405.097	175.1
405.306	166.91
405.515	125.95
405.724	228.35
405.933	297.98
406.142	254.97
406.35	228.35
406.559	168.96
406.768	115.71
406.977	254.97
407.185	226.3
407.394	269.31
407.603	259.07
407.812	181.25
408.02	236.54
408.229	261.12
408.438	203.77
408.646	209.92
408.855	269.31
409.064	291.84
409.272	328.7
409.481	310.27
409.69	310.27
409.898	396.28
410.107	390.14
410.315	326.65
410.524	351.23
410.733	435.19
410.941	244.73
411.15	418.81
411.358	420.86
411.567	506.87
411.775	478.2
411.984	422.91
412.192	449.53
412.401	459.77
412.609	498.68
412.818	623.61
413.026	570.36
413.234	570.36
413.443	586.74
413.651	611.32
413.86	607.22
414.068	639.99
414.276	693.24
414.485	670.71
414.693	717.81
414.901	824.31
415.11	885.75
415.318	803.83
415.526	773.11
415.734	754.68
415.943	889.84
416.151	979.95
416.359	941.04
416.567	969.71
416.776	1070.06
416.984	1041.39
417.192	1119.21
417.4	1123.31
417.608	1133.55
417.817	1137.65
418.025	1264.62
418.233	1397.74
418.441	1268.72
418.649	1332.2
418.857	1479.66
419.065	1401.83
419.273	1428.46
419.481	1551.34
419.689	1567.72
419.897	1696.74
420.105	1760.23
420.313	1786.85
420.521	1819.62
420.729	1754.09
420.937	1885.16
421.145	2063.33
421.353	2094.05
421.561	2102.24
421.769	2139.1
421.977	2259.93
422.185	2218.97
422.393	2462.68
422.601	2538.46
422.809	2405.34
423.017	2544.6
423.224	2720.73
423.432	2835.41
423.64	2837.46
423.848	2894.8
424.056	2939.86
424.263	3175.38
424.471	3105.74
424.679	3154.9
424.887	3394.51
425.094	3486.67
425.302	3560.39
425.51	3574.73
425.718	3832.77
425.925	3935.17
426.133	3949.51
426.341	4090.82
426.548	4219.84
426.756	4193.22
426.964	4350.91
427.171	4580.28
427.379	4729.78
427.586	4813.75
427.794	5079.99
428.001	5110.71
428.209	5272.5
428.417	5241.78
428.624	5706.66
428.832	5694.38
429.039	5663.66
429.247	5751.72
429.454	6202.27
429.662	6849.43
429.869	6306.72
430.076	6706.07
430.284	6474.65
430.491	6779.8
430.699	7054.23
430.906	7195.54
431.114	7228.31
431.321	7465.87
431.528	7846.79
431.736	8127.36
431.943	8555.39
432.15	8156.04
432.358	8393.6
432.565	8850.3
432.772	8692.6
432.979	9251.7
433.187	9575.28
433.394	9403.25
433.601	10115.94
433.808	10242.92
434.016	10001.26
434.223	10605.41
434.43	11289.43
434.637	10859.35
434.844	11604.81
435.052	11649.87
435.259	11893.58
435.466	12032.84
435.673	11791.18
435.88	12661.57
436.087	13058.87
436.294	13212.47
436.501	12929.85
436.708	13083.45
436.915	13763.37
437.122	14246.69
437.329	14258.98
437.537	14717.73
437.743	14916.38
437.95	14805.79
438.157	15569.68
438.364	16130.83
438.571	15932.17
438.778	16222.98
438.985	17449.72
439.192	16919.29
439.399	17574.64
439.606	17228.54
439.813	17947.37
440.02	18858.72
440.227	18918.11
440.433	18367.21
440.64	19296.99
440.847	19094.24
441.054	19704.53
441.261	20914.88
441.467	20746.95
441.674	21328.57
441.881	21914.29
442.088	21652.15
442.294	21590.71
442.501	22209.2
442.708	22526.63
442.914	23272.09
443.121	24388.24
443.328	23585.43
443.534	25731.7
443.741	24797.83
443.948	24359.56
444.154	26184.3
444.361	25764.47
444.568	25791.09
444.774	25985.65
444.981	26454.64
445.187	27171.43
445.394	28375.63
445.6	28314.19
445.807	30622.25
446.013	29583.93
446.22	30294.58
446.426	31312.42
446.633	31488.54
446.839	32524.82
447.046	31042.09
447.252	32629.26
447.459	32848.39
447.665	32746
447.871	34298.36
448.078	35764.7
448.284	33956.35
448.491	34681.33
448.697	36198.87
448.903	36889.04
449.11	36970.96
449.316	36215.26
449.522	37028.3
449.728	38148.54
449.935	38396.34
450.141	38267.32
450.347	39098.8
450.553	38205.88
450.76	38705.59
450.966	39381.42
451.172	39475.62
451.378	40405.4
451.584	39897.5
451.791	40270.23
451.997	40219.03
452.203	40960.4
452.409	41202.06
452.615	40747.41
452.821	38992.3
453.027	38674.87
453.233	41048.46
453.44	39379.37
453.646	39547.3
453.852	39704.99
454.058	40546.71
454.264	39498.15
454.47	40290.71
454.676	39442.85
454.882	40124.83
455.088	37292.49
455.294	37654.98
455.5	38044.09
455.705	38422.97
455.911	37263.82
456.117	36237.78
456.323	35709.41
456.529	33933.82
456.735	35619.3
456.941	34609.65
457.147	34169.33
457.352	33219.08
457.558	32848.39
457.764	32825.87
457.97	32225.81
458.176	31504.93
458.381	31603.23
458.587	29923.9
458.793	30020.15
458.999	28183.12
459.204	30214.71
459.41	29557.31
459.616	27304.54
459.821	27630.17
460.027	27599.45
460.233	26868.33
460.438	25780.85
460.644	25791.09
460.85	24746.63
461.055	24451.72
461.261	24263.31
461.466	22516.39
461.672	21662.39
461.878	23411.35
462.083	21662.39
462.289	21381.82
462.494	21164.73
462.7	19929.81
462.905	19665.62
463.111	20200.14
463.316	20628.17
463.522	20097.74
463.727	19935.95
463.932	20093.65
464.138	19872.46
464.343	20081.36
464.549	19450.58
464.754	20112.08
464.959	19700.44
465.165	19460.82
465.37	18856.67
465.575	18375.4
465.781	18969.31
465.986	19327.71
466.191	18287.34
466.397	17955.57
466.602	17253.11
466.807	17984.24
467.012	17799.92
467.218	17552.12
