Data from USB4F104151__74__11-45-28-447.txt Node

Date: Fri Mar 14 11:45:28 EDT 2025
User: louis
Spectrometer: USB4F10415
Trigger mode: 4
Integration Time (sec): 2.000000E-2
Scans to average: 1
Electric dark correction enabled: true
Nonlinearity correction enabled: false
Boxcar width: 0
XAxis mode: Wavelengths
Number of Pixels in Spectrum: 3648
>>>>>Begin Spectral Data<<<<<
178.204	-91.13
178.424	-91.13
178.644	-91.13
178.864	-82.94
179.084	-93.18
179.304	23.55
179.524	64.51
179.744	-41.98
179.964	9.22
180.184	-27.65
180.404	11.26
180.624	-7.17
180.844	9.22
181.064	-33.79
181.283	41.98
181.503	-33.79
181.723	-15.36
181.943	-27.65
182.163	93.18
182.383	-19.46
182.602	50.18
182.822	70.65
183.042	115.71
183.262	35.84
183.482	41.98
183.701	1.02
183.921	-15.36
184.141	-19.46
184.361	25.6
184.58	39.94
184.8	76.8
185.02	72.7
185.239	15.36
185.459	29.7
185.679	44.03
185.898	-13.31
186.118	54.27
186.338	62.46
186.557	160.77
186.777	35.84
186.997	27.65
187.216	-54.27
187.436	62.46
187.655	72.7
187.875	62.46
188.095	-52.22
188.314	62.46
188.534	11.26
188.753	44.03
188.973	33.79
189.192	11.26
189.412	109.57
189.631	58.37
189.851	54.27
190.07	64.51
190.29	70.65
190.509	56.32
190.729	23.55
190.948	1.02
191.168	84.99
191.387	-7.17
191.607	29.7
191.826	93.18
192.045	70.65
192.265	7.17
192.484	25.6
192.704	44.03
192.923	-39.94
193.142	119.81
193.362	46.08
193.581	44.03
193.8	13.31
194.02	13.31
194.239	-46.08
194.458	82.94
194.678	21.5
194.897	25.6
195.116	-3.07
195.335	74.75
195.555	52.22
195.774	-29.7
195.993	58.37
196.212	37.89
196.432	37.89
196.651	99.33
196.87	60.42
197.089	70.65
197.308	41.98
197.528	33.79
197.747	5.12
197.966	78.85
198.185	84.99
198.404	-3.07
198.623	29.7
198.842	-7.17
199.062	78.85
199.281	62.46
199.5	56.32
199.719	27.65
199.938	50.18
200.157	105.47
200.376	87.04
200.595	44.03
200.814	7.17
201.033	80.89
201.252	35.84
201.471	31.74
201.69	15.36
201.909	52.22
202.128	84.99
202.347	37.89
202.566	50.18
202.785	23.55
203.004	33.79
203.223	103.42
203.442	87.04
203.661	39.94
203.879	50.18
204.098	64.51
204.317	56.32
204.536	101.37
204.755	31.74
204.974	-9.22
205.193	19.46
205.411	54.27
205.63	-9.22
205.849	50.18
206.068	101.37
206.287	3.07
206.505	89.09
206.724	29.7
206.943	17.41
207.162	50.18
207.381	-15.36
207.599	41.98
207.818	-1.02
208.037	44.03
208.255	48.13
208.474	5.12
208.693	21.5
208.911	50.18
209.13	44.03
209.349	37.89
209.567	76.8
209.786	70.65
210.005	93.18
210.223	9.22
210.442	-9.22
210.661	15.36
210.879	35.84
211.098	21.5
211.316	105.47
211.535	50.18
211.753	19.46
211.972	97.28
212.191	68.61
212.409	115.71
212.628	78.85
212.846	9.22
213.065	50.18
213.283	82.94
213.502	-58.37
213.72	66.56
213.938	33.79
214.157	-1.02
214.375	13.31
214.594	103.42
214.812	13.31
215.031	66.56
215.249	-1.02
215.467	-19.46
215.686	27.65
215.904	39.94
216.122	46.08
216.341	-5.12
216.559	-46.08
216.778	25.6
216.996	5.12
217.214	1.02
217.432	-13.31
217.651	3.07
217.869	35.84
218.087	21.5
218.306	-37.89
218.524	-29.7
218.742	48.13
218.96	58.37
219.179	56.32
219.397	76.8
219.615	66.56
219.833	66.56
220.051	29.7
220.27	66.56
220.488	37.89
220.706	-1.02
220.924	62.46
221.142	7.17
221.36	13.31
221.578	50.18
221.796	33.79
222.015	27.65
222.233	-11.26
222.451	117.76
222.669	68.61
222.887	62.46
223.105	-7.17
223.323	33.79
223.541	56.32
223.759	-23.55
223.977	17.41
224.195	70.65
224.413	-1.02
224.631	44.03
224.849	27.65
225.067	87.04
225.285	-21.5
225.503	27.65
225.721	54.27
225.939	82.94
226.157	-17.41
226.375	78.85
226.592	109.57
226.81	-3.07
227.028	-13.31
227.246	-3.07
227.464	33.79
227.682	11.26
227.9	25.6
228.117	41.98
228.335	33.79
228.553	5.12
228.771	60.42
228.989	80.89
229.206	44.03
229.424	60.42
229.642	58.37
229.86	29.7
230.077	119.81
230.295	-29.7
230.513	-27.65
230.731	3.07
230.948	5.12
231.166	-5.12
231.384	25.6
231.601	11.26
231.819	97.28
232.037	48.13
232.254	-44.03
232.472	17.41
232.689	3.07
232.907	72.7
233.125	56.32
233.342	123.9
233.56	44.03
233.777	46.08
233.995	11.26
234.213	60.42
234.43	11.26
234.648	29.7
234.865	50.18
235.083	93.18
235.3	29.7
235.518	50.18
235.735	119.81
235.953	62.46
236.17	70.65
236.388	66.56
236.605	37.89
236.822	-17.41
237.04	7.17
237.257	-33.79
237.475	25.6
237.692	19.46
237.909	60.42
238.127	25.6
238.344	68.61
238.562	-7.17
238.779	9.22
238.996	23.55
239.214	72.7
239.431	89.09
239.648	41.98
239.865	82.94
240.083	-7.17
240.3	56.32
240.517	5.12
240.735	37.89
240.952	23.55
241.169	115.71
241.386	33.79
241.603	37.89
241.821	5.12
242.038	109.57
242.255	115.71
242.472	76.8
242.689	39.94
242.907	56.32
243.124	66.56
243.341	41.98
243.558	39.94
243.775	1.02
243.992	-19.46
244.209	41.98
244.426	160.77
244.643	21.5
244.86	11.26
245.078	15.36
245.295	21.5
245.512	21.5
245.729	7.17
245.946	66.56
246.163	46.08
246.38	5.12
246.597	25.6
246.814	64.51
247.031	46.08
247.248	37.89
247.464	13.31
247.681	50.18
247.898	62.46
248.115	25.6
248.332	91.13
248.549	101.37
248.766	35.84
248.983	111.61
249.2	76.8
249.417	58.37
249.633	54.27
249.85	39.94
250.067	72.7
250.284	9.22
250.501	54.27
250.717	68.61
250.934	52.22
251.151	-21.5
251.368	29.7
251.585	64.51
251.801	29.7
252.018	9.22
252.235	97.28
252.451	-1.02
252.668	31.74
252.885	21.5
253.102	58.37
253.318	82.94
253.535	44.03
253.752	33.79
253.968	17.41
254.185	23.55
254.401	105.47
254.618	46.08
254.835	23.55
255.051	107.52
255.268	33.79
255.484	48.13
255.701	37.89
255.917	9.22
256.134	74.75
256.351	-27.65
256.567	-39.94
256.784	48.13
257	7.17
257.217	41.98
257.433	60.42
257.65	107.52
257.866	72.7
258.082	-1.02
258.299	123.9
258.515	46.08
258.732	-5.12
258.948	7.17
259.165	37.89
259.381	103.42
259.597	-13.31
259.814	41.98
260.03	-3.07
260.246	39.94
260.463	50.18
260.679	37.89
260.895	19.46
261.112	56.32
261.328	39.94
261.544	-46.08
261.761	70.65
261.977	50.18
262.193	44.03
262.409	134.14
262.626	44.03
262.842	64.51
263.058	72.7
263.274	103.42
263.49	56.32
263.707	11.26
263.923	27.65
264.139	39.94
264.355	58.37
264.571	97.28
264.787	27.65
265.004	-31.74
265.22	-13.31
265.436	82.94
265.652	31.74
265.868	68.61
266.084	70.65
266.3	58.37
266.516	-9.22
266.732	33.79
266.948	31.74
267.164	21.5
267.38	64.51
267.596	44.03
267.812	41.98
268.028	82.94
268.244	39.94
268.46	44.03
268.676	27.65
268.892	15.36
269.108	95.23
269.324	50.18
269.54	13.31
269.756	68.61
269.972	62.46
270.188	35.84
270.403	31.74
270.619	44.03
270.835	1.02
271.051	-5.12
271.267	15.36
271.483	-19.46
271.698	68.61
271.914	82.94
272.13	-27.65
272.346	62.46
272.562	62.46
272.777	74.75
272.993	33.79
273.209	35.84
273.425	50.18
273.64	93.18
273.856	87.04
274.072	66.56
274.287	70.65
274.503	46.08
274.719	70.65
274.934	-23.55
275.15	60.42
275.366	89.09
275.581	13.31
275.797	119.81
276.012	39.94
276.228	50.18
276.444	72.7
276.659	82.94
276.875	-11.26
277.09	62.46
277.306	50.18
277.521	41.98
277.737	11.26
277.952	72.7
278.168	37.89
278.383	66.56
278.599	25.6
278.814	33.79
279.03	13.31
279.245	68.61
279.461	125.95
279.676	87.04
279.892	33.79
280.107	11.26
280.322	-1.02
280.538	37.89
280.753	25.6
280.969	19.46
281.184	13.31
281.399	33.79
281.615	-5.12
281.83	29.7
282.045	84.99
282.26	-1.02
282.476	70.65
282.691	33.79
282.906	70.65
283.122	125.95
283.337	27.65
283.552	1.02
283.767	46.08
283.983	56.32
284.198	29.7
284.413	91.13
284.628	58.37
284.843	9.22
285.058	56.32
285.274	-33.79
285.489	-11.26
285.704	103.42
285.919	7.17
286.134	58.37
286.349	-1.02
286.564	68.61
286.779	68.61
286.995	84.99
287.21	46.08
287.425	87.04
287.64	-37.89
287.855	-19.46
288.07	74.75
288.285	54.27
288.5	115.71
288.715	50.18
288.93	-7.17
289.145	93.18
289.36	76.8
289.575	17.41
289.79	39.94
290.004	29.7
290.219	62.46
290.434	48.13
290.649	-13.31
290.864	103.42
291.079	-1.02
291.294	76.8
291.509	99.33
291.724	60.42
291.938	46.08
292.153	60.42
292.368	76.8
292.583	70.65
292.798	23.55
293.012	68.61
293.227	52.22
293.442	23.55
293.657	68.61
293.871	39.94
294.086	27.65
294.301	46.08
294.516	31.74
294.73	13.31
294.945	-41.98
295.16	87.04
295.374	-5.12
295.589	54.27
295.804	44.03
296.018	58.37
296.233	113.66
296.447	60.42
296.662	37.89
296.877	11.26
297.091	23.55
297.306	-1.02
297.52	-3.07
297.735	101.37
297.949	50.18
298.164	-5.12
298.378	48.13
298.593	56.32
298.807	29.7
299.022	48.13
299.236	91.13
299.451	74.75
299.665	123.9
299.88	33.79
300.094	82.94
300.309	52.22
300.523	64.51
300.737	3.07
300.952	62.46
301.166	115.71
301.381	-21.5
301.595	68.61
301.809	33.79
302.024	-17.41
302.238	1.02
302.452	66.56
302.667	39.94
302.881	46.08
303.095	35.84
303.309	23.55
303.524	54.27
303.738	1.02
303.952	35.84
304.166	29.7
304.381	33.79
304.595	41.98
304.809	46.08
305.023	50.18
305.237	37.89
305.452	29.7
305.666	31.74
305.88	41.98
306.094	-5.12
306.308	21.5
306.522	56.32
306.736	58.37
306.95	50.18
307.164	-7.17
307.379	50.18
307.593	52.22
307.807	62.46
308.021	60.42
308.235	84.99
308.449	-23.55
308.663	95.23
308.877	62.46
309.091	78.85
309.305	13.31
309.519	5.12
309.733	66.56
309.947	5.12
310.161	91.13
310.374	52.22
310.588	68.61
310.802	-29.7
311.016	91.13
311.23	78.85
311.444	5.12
311.658	60.42
311.872	78.85
312.085	107.52
312.299	41.98
312.513	70.65
312.727	66.56
312.941	50.18
313.154	87.04
313.368	29.7
313.582	39.94
313.796	33.79
314.009	25.6
314.223	117.76
314.437	140.29
314.651	31.74
314.864	3.07
315.078	-54.27
315.292	62.46
315.505	89.09
315.719	89.09
315.933	52.22
316.146	35.84
316.36	35.84
316.573	54.27
316.787	87.04
317.001	50.18
317.214	-54.27
317.428	13.31
317.641	54.27
317.855	41.98
318.068	41.98
318.282	9.22
318.495	109.57
318.709	41.98
318.922	9.22
319.136	13.31
319.349	9.22
319.563	31.74
319.776	1.02
319.99	1.02
320.203	54.27
320.417	125.95
320.63	87.04
320.843	46.08
321.057	119.81
321.27	62.46
321.483	50.18
321.697	72.7
321.91	39.94
322.124	72.7
322.337	50.18
322.55	33.79
322.763	62.46
322.977	44.03
323.19	95.23
323.403	60.42
323.617	54.27
323.83	37.89
324.043	44.03
324.256	33.79
324.469	-29.7
324.683	113.66
324.896	103.42
325.109	84.99
325.322	21.5
325.535	121.85
325.748	17.41
325.962	15.36
326.175	11.26
326.388	66.56
326.601	97.28
326.814	60.42
327.027	64.51
327.24	68.61
327.453	95.23
327.666	130.05
327.879	41.98
328.092	72.7
328.305	46.08
328.518	70.65
328.731	37.89
328.944	87.04
329.157	-11.26
329.37	-5.12
329.583	68.61
329.796	148.48
330.009	82.94
330.222	11.26
330.435	11.26
330.648	11.26
330.861	70.65
331.073	13.31
331.286	35.84
331.499	50.18
331.712	60.42
331.925	46.08
332.138	103.42
332.35	54.27
332.563	1.02
332.776	105.47
332.989	11.26
333.202	103.42
333.414	113.66
333.627	13.31
333.84	31.74
334.053	15.36
334.265	-13.31
334.478	46.08
334.691	31.74
334.903	115.71
335.116	5.12
335.329	11.26
335.541	46.08
335.754	125.95
335.966	78.85
336.179	35.84
336.392	123.9
336.604	74.75
336.817	107.52
337.029	99.33
337.242	74.75
337.454	80.89
337.667	11.26
337.88	93.18
338.092	56.32
338.305	99.33
338.517	62.46
338.729	117.76
338.942	58.37
339.154	-7.17
339.367	48.13
339.579	44.03
339.792	64.51
340.004	78.85
340.217	52.22
340.429	101.37
340.641	46.08
340.854	-17.41
341.066	52.22
341.278	82.94
341.491	84.99
341.703	11.26
341.915	68.61
342.128	-25.6
342.34	80.89
342.552	48.13
342.764	37.89
342.977	68.61
343.189	62.46
343.401	33.79
343.613	13.31
343.826	13.31
344.038	-48.13
344.25	93.18
344.462	35.84
344.674	-37.89
344.886	74.75
345.099	48.13
345.311	107.52
345.523	15.36
345.735	84.99
345.947	97.28
346.159	99.33
346.371	84.99
346.583	66.56
346.795	82.94
347.007	19.46
347.219	52.22
347.431	-21.5
347.643	9.22
347.855	25.6
348.067	115.71
348.279	13.31
348.491	66.56
348.703	58.37
348.915	82.94
349.127	9.22
349.339	13.31
349.551	44.03
349.763	78.85
349.975	107.52
350.187	66.56
350.399	56.32
350.61	23.55
350.822	1.02
351.034	52.22
351.246	44.03
351.458	1.02
351.669	93.18
351.881	35.84
352.093	89.09
352.305	82.94
352.517	87.04
352.728	109.57
352.94	84.99
353.152	29.7
353.363	7.17
353.575	37.89
353.787	60.42
353.999	72.7
354.21	93.18
354.422	80.89
354.633	80.89
354.845	35.84
355.057	52.22
355.268	-37.89
355.48	105.47
355.692	44.03
355.903	-27.65
356.115	13.31
356.326	39.94
356.538	138.24
356.749	91.13
356.961	109.57
357.172	70.65
357.384	111.61
357.595	101.37
357.807	1.02
358.018	56.32
358.23	23.55
358.441	101.37
358.653	60.42
358.864	89.09
359.075	46.08
359.287	25.6
359.498	93.18
359.709	113.66
359.921	97.28
360.132	3.07
360.344	46.08
360.555	70.65
360.766	99.33
360.977	48.13
361.189	74.75
361.4	31.74
361.611	58.37
361.823	9.22
362.034	97.28
362.245	21.5
362.456	70.65
362.667	80.89
362.879	7.17
363.09	37.89
363.301	76.8
363.512	48.13
363.723	56.32
363.935	-27.65
364.146	13.31
364.357	50.18
364.568	93.18
364.779	46.08
364.99	125.95
365.201	82.94
365.412	25.6
365.623	50.18
365.834	56.32
366.045	52.22
366.256	101.37
366.467	99.33
366.678	39.94
366.889	74.75
367.1	21.5
367.311	70.65
367.522	-27.65
367.733	60.42
367.944	64.51
368.155	111.61
368.366	17.41
368.577	101.37
368.788	46.08
368.999	58.37
369.209	21.5
369.42	91.13
369.631	117.76
369.842	29.7
370.053	27.65
370.264	-11.26
370.474	52.22
370.685	101.37
370.896	64.51
371.107	138.24
371.317	93.18
371.528	109.57
371.739	95.23
371.95	105.47
372.16	15.36
372.371	-7.17
372.582	9.22
372.792	199.68
373.003	97.28
373.214	119.81
373.424	93.18
373.635	68.61
373.846	54.27
374.056	62.46
374.267	107.52
374.477	9.22
374.688	19.46
374.898	25.6
375.109	-41.98
375.319	113.66
375.53	113.66
375.74	74.75
375.951	-3.07
376.161	70.65
376.372	123.9
376.582	31.74
376.793	117.76
377.003	76.8
377.214	97.28
377.424	103.42
377.635	56.32
377.845	66.56
378.055	70.65
378.266	11.26
378.476	46.08
378.686	93.18
378.897	25.6
379.107	39.94
379.317	107.52
379.528	142.33
379.738	117.76
379.948	-19.46
380.158	113.66
380.369	91.13
380.579	187.39
380.789	70.65
380.999	72.7
381.21	119.81
381.42	82.94
381.63	25.6
381.84	70.65
382.05	33.79
382.261	101.37
382.471	148.48
382.681	82.94
382.891	35.84
383.101	60.42
383.311	109.57
383.521	123.9
383.731	142.33
383.941	78.85
384.151	15.36
384.361	80.89
384.571	-21.5
384.781	125.95
384.991	111.61
385.201	76.8
385.411	15.36
385.621	9.22
385.831	35.84
386.041	50.18
386.251	25.6
386.461	82.94
386.671	107.52
386.881	78.85
387.091	76.8
387.301	56.32
387.511	17.41
387.72	50.18
387.93	80.89
388.14	1.02
388.35	58.37
388.56	33.79
388.769	58.37
388.979	58.37
389.189	37.89
389.399	9.22
389.609	87.04
389.818	148.48
390.028	21.5
390.238	78.85
390.447	31.74
390.657	70.65
390.867	11.26
391.076	72.7
391.286	68.61
391.496	128
391.705	99.33
391.915	68.61
392.125	60.42
392.334	58.37
392.544	91.13
392.753	82.94
392.963	84.99
393.172	87.04
393.382	82.94
393.591	107.52
393.801	136.19
394.01	109.57
394.22	99.33
394.429	99.33
394.639	72.7
394.848	84.99
395.058	95.23
395.267	82.94
395.477	54.27
395.686	111.61
395.895	113.66
396.105	144.38
396.314	140.29
396.524	132.09
396.733	123.9
396.942	130.05
397.152	70.65
397.361	89.09
397.57	91.13
397.78	97.28
397.989	138.24
398.198	46.08
398.407	162.81
398.617	121.85
398.826	150.53
399.035	78.85
399.244	146.43
399.453	66.56
399.663	160.77
399.872	154.62
400.081	113.66
400.29	138.24
400.499	109.57
400.708	99.33
400.917	158.72
401.127	80.89
401.336	97.28
401.545	195.58
401.754	132.09
401.963	171.01
402.172	91.13
402.381	154.62
402.59	89.09
402.799	121.85
403.008	134.14
403.217	175.1
403.426	142.33
403.635	199.68
403.844	123.9
404.053	246.78
404.262	111.61
404.471	218.11
404.68	158.72
404.888	156.67
405.097	103.42
405.306	119.81
405.515	168.96
405.724	130.05
405.933	183.29
406.142	138.24
406.35	181.25
406.559	185.34
406.768	160.77
406.977	158.72
407.185	205.82
407.394	207.87
407.603	187.39
407.812	164.86
408.02	259.07
408.229	263.16
408.438	246.78
408.646	160.77
408.855	240.64
409.064	300.03
409.272	250.88
409.481	295.93
409.69	302.08
409.898	244.73
410.107	246.78
410.315	330.75
410.524	324.6
410.733	314.36
410.941	361.47
411.15	326.65
411.358	418.81
411.567	390.14
411.775	347.13
411.984	412.67
412.192	336.89
412.401	449.53
412.609	474.1
412.818	494.58
413.026	498.68
413.234	467.96
413.443	474.1
413.651	605.17
413.86	658.42
414.068	582.65
414.276	629.75
414.485	529.4
414.693	605.17
414.901	631.8
415.11	658.42
415.318	627.7
415.526	693.24
415.734	691.19
415.943	705.53
416.151	812.02
416.359	777.2
416.567	838.64
416.776	891.89
416.984	922.61
417.192	879.6
417.4	852.98
417.608	877.55
417.817	1012.72
418.025	969.71
418.233	1102.83
418.441	1074.16
418.649	1215.47
418.857	1244.14
419.065	1313.77
419.273	1258.48
419.481	1305.58
419.689	1379.31
419.897	1453.03
420.105	1393.64
420.313	1559.53
420.521	1586.15
420.729	1471.47
420.937	1569.77
421.145	1670.12
421.353	1741.8
421.561	1768.42
421.769	1725.41
421.977	1948.64
422.185	1958.88
422.393	2057.18
422.601	2143.2
422.809	2094.05
423.017	2184.16
423.224	2180.06
423.432	2413.53
423.64	2317.28
423.848	2558.94
424.056	2522.07
424.263	2706.39
424.471	2706.39
424.679	2825.17
424.887	2773.97
425.094	2880.47
425.302	2986.96
425.51	3054.55
425.718	3128.27
425.925	3199.95
426.133	3408.84
426.341	3627.98
426.548	3683.27
426.756	3636.17
426.964	3646.41
427.171	3898.31
427.379	4021.19
427.586	4060.1
427.794	4162.5
428.001	4344.77
428.209	4690.87
428.417	4598.71
428.624	4807.61
428.832	4924.34
429.039	4889.53
429.247	4987.83
429.454	5401.52
429.662	5524.4
429.869	5268.4
430.076	5512.11
430.284	5772.2
430.491	5684.14
430.699	5970.85
430.906	6134.69
431.114	6058.92
431.321	6400.93
431.528	6544.28
431.736	6880.15
431.943	7289.74
432.15	7146.39
432.358	7078.8
432.565	7529.36
432.772	7537.55
432.979	7848.84
433.187	8037.25
433.394	7975.81
433.601	8586.11
433.808	8547.2
434.016	8547.2
434.223	8952.7
434.43	9235.32
434.637	9110.39
434.844	9984.87
435.052	10021.74
435.259	10199.91
435.466	10007.4
435.673	9925.48
435.88	10574.69
436.087	11182.93
436.294	11213.65
436.501	10933.08
436.708	11033.43
436.915	11666.25
437.122	12114.76
437.329	11901.77
437.537	12227.4
437.743	12688.19
437.95	12432.19
438.157	13173.56
438.364	13534
438.571	13443.89
438.778	13554.48
438.985	14666.53
439.192	14189.35
439.399	14480.16
439.606	14363.43
439.813	15330.07
440.02	16237.32
440.227	15858.45
440.433	15733.52
440.64	16237.32
440.847	16233.22
441.054	16575.24
441.261	17599.22
441.467	17236.73
441.674	17574.64
441.881	18399.98
442.088	18295.53
442.294	17869.55
442.501	18371.3
442.708	18885.34
442.914	19688.15
443.121	20677.32
443.328	20134.6
443.534	21510.84
443.741	20738.76
443.948	20761.28
444.154	22082.22
444.361	22026.93
444.568	22033.07
444.774	21844.66
444.981	22356.65
445.187	23214.75
445.394	24124.05
445.6	23638.68
445.807	26251.89
446.013	24681.1
446.22	25297.53
446.426	26225.26
446.633	26446.44
446.839	27753.05
447.046	26438.25
447.252	27605.59
447.459	27707.99
447.665	27804.25
447.871	29153.86
448.078	30304.82
448.284	29153.86
448.491	29350.46
448.697	30442.03
448.903	31187.49
449.11	31300.13
449.316	30747.18
449.522	31121.96
449.728	31904.28
449.935	32610.83
450.141	32340.5
450.347	32938.51
450.553	32270.87
450.76	32653.84
450.966	34015.74
451.172	33108.49
451.378	33778.17
451.584	33430.02
451.791	34222.58
451.997	34306.55
452.203	34896.36
452.409	34433.52
452.615	34339.32
452.821	33337.86
453.027	32907.79
453.233	34615.79
453.44	33380.87
453.646	33880.57
453.852	33790.46
454.058	34327.03
454.264	33245.7
454.47	34195.96
454.676	33321.48
454.882	34146.81
455.088	31265.31
455.294	31947.29
455.5	32053.78
455.705	32356.88
455.911	31124.01
456.117	30980.65
456.323	30192.18
456.529	28922.44
456.735	29727.29
456.941	29143.62
457.147	28621.39
457.352	27974.23
457.558	27380.32
457.764	27503.2
457.97	27066.98
458.176	26448.49
458.381	26729.06
458.587	25127.55
458.793	25059.97
458.999	23984.79
459.204	25688.7
459.41	24840.84
459.616	23397.02
459.821	23300.76
460.027	23083.68
460.233	22717.09
460.438	21684.92
460.644	21813.94
460.85	20933.31
461.055	20507.34
461.261	20679.36
461.466	19153.63
461.672	18459.37
461.878	19630.8
462.083	18485.99
462.289	18164.46
462.494	17812.21
462.7	17093.37
462.905	16468.74
463.111	17081.08
463.316	17378.04
463.522	16849.66
463.727	16886.53
463.932	16784.13
464.138	16456.45
464.343	16501.51
464.549	16282.38
464.754	16542.47
464.959	16818.94
465.165	16552.71
465.37	16001.8
465.575	15708.94
465.781	16102.15
465.986	16143.11
466.191	15524.63
466.397	15252.25
466.602	14211.88
466.807	14816.03
467.012	15153.94
467.218	15010.59
467.423	14869.28
467.628	14953.24
