Data from USB4F104151__11__11-44-29-235.txt Node

Date: Fri Mar 14 11:44:29 EDT 2025
User: louis
Spectrometer: USB4F10415
Trigger mode: 4
Integration Time (sec): 2.000000E-2
Scans to average: 1
Electric dark correction enabled: true
Nonlinearity correction enabled: false
Boxcar width: 0
XAxis mode: Wavelengths
Number of Pixels in Spectrum: 3648
>>>>>Begin Spectral Data<<<<<
178.204	-77.65
178.424	-77.65
178.644	-77.65
178.864	-108.37
179.084	-147.28
179.304	-20.31
179.524	-40.79
179.744	-42.84
179.964	61.61
180.184	37.03
180.404	24.75
180.624	24.75
180.844	28.84
181.064	-38.74
181.283	34.99
181.503	-44.88
181.723	-24.4
181.943	-22.36
182.163	26.79
182.383	16.55
182.602	32.94
182.822	-20.31
183.042	39.08
183.262	12.46
183.482	121
183.701	34.99
183.921	10.41
184.141	73.9
184.361	-8.02
184.58	-24.4
184.8	69.8
185.02	49.32
185.239	86.19
185.459	6.31
185.679	82.09
185.898	-12.12
186.118	51.37
186.338	92.33
186.557	106.67
186.777	18.6
186.997	-24.4
187.216	12.46
187.436	80.04
187.655	88.23
187.875	121
188.095	10.41
188.314	51.37
188.534	20.65
188.753	63.66
188.973	51.37
189.192	49.32
189.412	90.28
189.631	39.08
189.851	-22.36
190.07	47.27
190.29	-20.31
190.509	-51.03
190.729	20.65
190.948	65.71
191.168	80.04
191.387	30.89
191.607	112.81
191.826	90.28
192.045	12.46
192.265	55.47
192.484	6.31
192.704	67.75
192.923	16.55
193.142	80.04
193.362	61.61
193.581	-1.88
193.8	34.99
194.02	49.32
194.239	-3.93
194.458	73.9
194.678	20.65
194.897	24.75
195.116	63.66
195.335	37.03
195.555	75.95
195.774	73.9
195.993	69.8
196.212	88.23
196.432	45.23
196.651	28.84
196.87	22.7
197.089	57.51
197.308	49.32
197.528	-26.45
197.747	39.08
197.966	47.27
198.185	94.38
198.404	2.22
198.623	16.55
198.842	67.75
199.062	32.94
199.281	2.22
199.5	39.08
199.719	108.71
199.938	145.58
200.157	0.17
200.376	51.37
200.595	108.71
200.814	24.75
201.033	-20.31
201.252	39.08
201.471	-1.88
201.69	110.76
201.909	-1.88
202.128	94.38
202.347	26.79
202.566	41.13
202.785	30.89
203.004	-10.07
203.223	-8.02
203.442	24.75
203.661	80.04
203.879	51.37
204.098	24.75
204.317	30.89
204.536	55.47
204.755	88.23
204.974	86.19
205.193	47.27
205.411	67.75
205.63	37.03
205.849	0.17
206.068	14.51
206.287	57.51
206.505	22.7
206.724	49.32
206.943	14.51
207.162	37.03
207.381	92.33
207.599	92.33
207.818	28.84
208.037	-10.07
208.255	75.95
208.474	47.27
208.693	45.23
208.911	30.89
209.13	-42.84
209.349	71.85
209.567	65.71
209.786	59.56
210.005	59.56
210.223	47.27
210.442	18.6
210.661	4.27
210.879	71.85
211.098	63.66
211.316	61.61
211.535	114.86
211.753	24.75
211.972	53.42
212.191	45.23
212.409	-10.07
212.628	75.95
212.846	65.71
213.065	8.36
213.283	86.19
213.502	30.89
213.72	55.47
213.938	41.13
214.157	-3.93
214.375	94.38
214.594	-12.12
214.812	24.75
215.031	-18.26
215.249	-5.97
215.467	37.03
215.686	88.23
215.904	118.95
216.122	20.65
216.341	43.18
216.559	59.56
216.778	0.17
216.996	63.66
217.214	30.89
217.432	30.89
217.651	45.23
217.869	-3.93
218.087	32.94
218.306	102.57
218.524	8.36
218.742	16.55
218.96	67.75
219.179	-5.97
219.397	-24.4
219.615	104.62
219.833	-12.12
220.051	65.71
220.27	57.51
220.488	32.94
220.706	129.19
220.924	59.56
221.142	114.86
221.36	39.08
221.578	69.8
221.796	166.06
222.015	26.79
222.233	2.22
222.451	121
222.669	53.42
222.887	39.08
223.105	6.31
223.323	30.89
223.541	41.13
223.759	22.7
223.977	22.7
224.195	43.18
224.413	51.37
224.631	22.7
224.849	-32.6
225.067	49.32
225.285	49.32
225.503	14.51
225.721	-8.02
225.939	-8.02
226.157	6.31
226.375	123.05
226.592	2.22
226.81	114.86
227.028	30.89
227.246	43.18
227.464	77.99
227.682	116.9
227.9	4.27
228.117	4.27
228.335	-40.79
228.553	-5.97
228.771	39.08
228.989	39.08
229.206	94.38
229.424	12.46
229.642	71.85
229.86	39.08
230.077	153.77
230.295	84.14
230.513	67.75
230.731	125.1
230.948	100.52
231.166	-12.12
231.384	45.23
231.601	-22.36
231.819	6.31
232.037	108.71
232.254	47.27
232.472	4.27
232.689	-3.93
232.907	88.23
233.125	55.47
233.342	18.6
233.56	82.09
233.777	47.27
233.995	55.47
234.213	69.8
234.43	100.52
234.648	45.23
234.865	39.08
235.083	-36.69
235.3	102.57
235.518	-28.5
235.735	102.57
235.953	73.9
236.17	30.89
236.388	45.23
236.605	77.99
236.822	141.48
237.04	-20.31
237.257	49.32
237.475	59.56
237.692	80.04
237.909	28.84
238.127	26.79
238.344	84.14
238.562	67.75
238.779	-16.21
238.996	37.03
239.214	26.79
239.431	108.71
239.648	-14.17
239.865	84.14
240.083	96.43
240.3	65.71
240.517	-26.45
240.735	102.57
240.952	121
241.169	88.23
241.386	67.75
241.603	8.36
241.821	69.8
242.038	39.08
242.255	108.71
242.472	10.41
242.689	63.66
242.907	-1.88
243.124	143.53
243.341	51.37
243.558	57.51
243.775	-5.97
243.992	49.32
244.209	94.38
244.426	55.47
244.643	59.56
244.86	43.18
245.078	63.66
245.295	-51.03
245.512	-10.07
245.729	41.13
245.946	30.89
246.163	55.47
246.38	-26.45
246.597	12.46
246.814	63.66
247.031	59.56
247.248	90.28
247.464	20.65
247.681	63.66
247.898	51.37
248.115	67.75
248.332	110.76
248.549	55.47
248.766	153.77
248.983	112.81
249.2	18.6
249.417	90.28
249.633	84.14
249.85	63.66
250.067	28.84
250.284	49.32
250.501	32.94
250.717	80.04
250.934	37.03
251.151	63.66
251.368	26.79
251.585	94.38
251.801	-14.17
252.018	26.79
252.235	32.94
252.451	-18.26
252.668	16.55
252.885	20.65
253.102	61.61
253.318	86.19
253.535	55.47
253.752	94.38
253.968	6.31
254.185	57.51
254.401	88.23
254.618	92.33
254.835	45.23
255.051	102.57
255.268	6.31
255.484	51.37
255.701	4.27
255.917	45.23
256.134	32.94
256.351	4.27
256.567	47.27
256.784	57.51
257	32.94
257.217	34.99
257.433	94.38
257.65	34.99
257.866	10.41
258.082	41.13
258.299	94.38
258.515	26.79
258.732	37.03
258.948	-59.22
259.165	43.18
259.381	57.51
259.597	90.28
259.814	67.75
260.03	82.09
260.246	90.28
260.463	67.75
260.679	57.51
260.895	28.84
261.112	102.57
261.328	-1.88
261.544	4.27
261.761	30.89
261.977	67.75
262.193	10.41
262.409	-12.12
262.626	88.23
262.842	39.08
263.058	-28.5
263.274	55.47
263.49	22.7
263.707	88.23
263.923	106.67
264.139	-5.97
264.355	32.94
264.571	155.82
264.787	75.95
265.004	0.17
265.22	69.8
265.436	-20.31
265.652	-20.31
265.868	53.42
266.084	32.94
266.3	28.84
266.516	102.57
266.732	30.89
266.948	94.38
267.164	-12.12
267.38	94.38
267.596	34.99
267.812	53.42
268.028	47.27
268.244	41.13
268.46	57.51
268.676	32.94
268.892	73.9
269.108	82.09
269.324	73.9
269.54	8.36
269.756	53.42
269.972	125.1
270.188	84.14
270.403	10.41
270.619	30.89
270.835	63.66
271.051	75.95
271.267	-8.02
271.483	77.99
271.698	53.42
271.914	43.18
272.13	22.7
272.346	18.6
272.562	18.6
272.777	104.62
272.993	98.47
273.209	114.86
273.425	59.56
273.64	63.66
273.856	82.09
274.072	51.37
274.287	14.51
274.503	43.18
274.719	67.75
274.934	92.33
275.15	-3.93
275.366	157.86
275.581	4.27
275.797	84.14
276.012	6.31
276.228	45.23
276.444	10.41
276.659	116.9
276.875	88.23
277.09	47.27
277.306	37.03
277.521	53.42
277.737	61.61
277.952	114.86
278.168	41.13
278.383	28.84
278.599	2.22
278.814	34.99
279.03	77.99
279.245	4.27
279.461	61.61
279.676	75.95
279.892	75.95
280.107	84.14
280.322	2.22
280.538	4.27
280.753	125.1
280.969	110.76
281.184	53.42
281.399	92.33
281.615	69.8
281.83	137.38
282.045	55.47
282.26	-14.17
282.476	65.71
282.691	88.23
282.906	-30.55
283.122	47.27
283.337	8.36
283.552	51.37
283.767	55.47
283.983	75.95
284.198	73.9
284.413	77.99
284.628	59.56
284.843	26.79
285.058	12.46
285.274	18.6
285.489	-61.27
285.704	65.71
285.919	57.51
286.134	22.7
286.349	8.36
286.564	53.42
286.779	94.38
286.995	67.75
287.21	41.13
287.425	20.65
287.64	-38.74
287.855	57.51
288.07	-14.17
288.285	75.95
288.5	18.6
288.715	88.23
288.93	28.84
289.145	-3.93
289.36	96.43
289.575	77.99
289.79	20.65
290.004	88.23
290.219	129.19
290.434	28.84
290.649	16.55
290.864	63.66
291.079	20.65
291.294	71.85
291.509	37.03
291.724	67.75
291.938	30.89
292.153	141.48
292.368	6.31
292.583	121
292.798	-1.88
293.012	55.47
293.227	6.31
293.442	14.51
293.657	73.9
293.871	96.43
294.086	75.95
294.301	75.95
294.516	20.65
294.73	53.42
294.945	20.65
295.16	86.19
295.374	57.51
295.589	37.03
295.804	20.65
296.018	135.34
296.233	-10.07
296.447	106.67
296.662	8.36
296.877	71.85
297.091	104.62
297.306	32.94
297.52	49.32
297.735	86.19
297.949	53.42
298.164	32.94
298.378	96.43
298.593	34.99
298.807	77.99
299.022	69.8
299.236	96.43
299.451	55.47
299.665	125.1
299.88	77.99
300.094	59.56
300.309	77.99
300.523	112.81
300.737	28.84
300.952	53.42
301.166	82.09
301.381	14.51
301.595	34.99
301.809	80.04
302.024	43.18
302.238	51.37
302.452	73.9
302.667	6.31
302.881	141.48
303.095	112.81
303.309	98.47
303.524	-3.93
303.738	4.27
303.952	18.6
304.166	80.04
304.381	-18.26
304.595	166.06
304.809	63.66
305.023	106.67
305.237	24.75
305.452	47.27
305.666	71.85
305.88	34.99
306.094	-34.64
306.308	71.85
306.522	59.56
306.736	59.56
306.95	94.38
307.164	51.37
307.379	-24.4
307.593	37.03
307.807	96.43
308.021	57.51
308.235	67.75
308.449	-10.07
308.663	-14.17
308.877	161.96
309.091	108.71
309.305	178.34
309.519	106.67
309.733	90.28
309.947	-24.4
310.161	75.95
310.374	102.57
310.588	12.46
310.802	12.46
311.016	77.99
311.23	80.04
311.444	26.79
311.658	69.8
311.872	86.19
312.085	41.13
312.299	139.43
312.513	45.23
312.727	26.79
312.941	24.75
313.154	71.85
313.368	26.79
313.582	53.42
313.796	116.9
314.009	65.71
314.223	141.48
314.437	67.75
314.651	39.08
314.864	-5.97
315.078	2.22
315.292	59.56
315.505	125.1
315.719	88.23
315.933	104.62
316.146	104.62
316.36	49.32
316.573	86.19
316.787	61.61
317.001	102.57
317.214	49.32
317.428	96.43
317.641	71.85
317.855	73.9
318.068	94.38
318.282	110.76
318.495	164.01
318.709	77.99
318.922	45.23
319.136	129.19
319.349	47.27
319.563	30.89
319.776	90.28
319.99	102.57
320.203	129.19
320.417	-18.26
320.63	61.61
320.843	110.76
321.057	67.75
321.27	102.57
321.483	75.95
321.697	16.55
321.91	34.99
322.124	98.47
322.337	71.85
322.55	20.65
322.763	16.55
322.977	96.43
323.19	77.99
323.403	86.19
323.617	8.36
323.83	69.8
324.043	75.95
324.256	125.1
324.469	55.47
324.683	116.9
324.896	26.79
325.109	49.32
325.322	51.37
325.535	26.79
325.748	41.13
325.962	73.9
326.175	28.84
326.388	86.19
326.601	114.86
326.814	137.38
327.027	131.24
327.24	133.29
327.453	51.37
327.666	49.32
327.879	61.61
328.092	51.37
328.305	65.71
328.518	88.23
328.731	20.65
328.944	100.52
329.157	75.95
329.37	86.19
329.583	2.22
329.796	135.34
330.009	71.85
330.222	71.85
330.435	106.67
330.648	82.09
330.861	63.66
331.073	71.85
331.286	65.71
331.499	53.42
331.712	110.76
331.925	43.18
332.138	123.05
332.35	49.32
332.563	80.04
332.776	59.56
332.989	6.31
333.202	80.04
333.414	94.38
333.627	82.09
333.84	88.23
334.053	75.95
334.265	53.42
334.478	32.94
334.691	80.04
334.903	82.09
335.116	86.19
335.329	153.77
335.541	39.08
335.754	39.08
335.966	10.41
336.179	80.04
336.392	41.13
336.604	-1.88
336.817	53.42
337.029	133.29
337.242	18.6
337.454	69.8
337.667	24.75
337.88	30.89
338.092	92.33
338.305	86.19
338.517	104.62
338.729	94.38
338.942	71.85
339.154	69.8
339.367	59.56
339.579	84.14
339.792	-1.88
340.004	63.66
340.217	39.08
340.429	147.62
340.641	100.52
340.854	80.04
341.066	125.1
341.278	104.62
341.491	108.71
341.703	57.51
341.915	2.22
342.128	90.28
342.34	51.37
342.552	170.15
342.764	16.55
342.977	86.19
343.189	71.85
343.401	37.03
343.613	65.71
343.826	55.47
344.038	71.85
344.25	110.76
344.462	65.71
344.674	84.14
344.886	127.14
345.099	39.08
345.311	131.24
345.523	112.81
345.735	-36.69
345.947	121
346.159	178.34
346.371	71.85
346.583	39.08
346.795	123.05
347.007	30.89
347.219	86.19
347.431	110.76
347.643	69.8
347.855	112.81
348.067	137.38
348.279	2.22
348.491	106.67
348.703	82.09
348.915	73.9
349.127	86.19
349.339	75.95
349.551	53.42
349.763	88.23
349.975	80.04
350.187	51.37
350.399	55.47
350.61	149.67
350.822	116.9
351.034	125.1
351.246	96.43
351.458	47.27
351.669	88.23
351.881	73.9
352.093	77.99
352.305	143.53
352.517	67.75
352.728	143.53
352.94	116.9
353.152	118.95
353.363	82.09
353.575	112.81
353.787	112.81
353.999	75.95
354.21	55.47
354.422	2.22
354.633	12.46
354.845	123.05
355.057	143.53
355.268	73.9
355.48	59.56
355.692	30.89
355.903	18.6
356.115	92.33
356.326	41.13
356.538	77.99
356.749	39.08
356.961	-12.12
357.172	88.23
357.384	-5.97
357.595	133.29
357.807	75.95
358.018	73.9
358.23	82.09
358.441	61.61
358.653	61.61
358.864	121
359.075	65.71
359.287	86.19
359.498	0.17
359.709	45.23
359.921	45.23
360.132	86.19
360.344	12.46
360.555	34.99
360.766	63.66
360.977	94.38
361.189	118.95
361.4	118.95
361.611	100.52
361.823	139.43
362.034	71.85
362.245	102.57
362.456	133.29
362.667	73.9
362.879	67.75
363.09	45.23
363.301	164.01
363.512	164.01
363.723	129.19
363.935	39.08
364.146	92.33
364.357	-1.88
364.568	73.9
364.779	82.09
364.99	98.47
365.201	67.75
365.412	47.27
365.623	49.32
365.834	88.23
366.045	84.14
366.256	116.9
366.467	100.52
366.678	125.1
366.889	100.52
367.1	118.95
367.311	131.24
367.522	47.27
367.733	71.85
367.944	137.38
368.155	116.9
368.366	157.86
368.577	104.62
368.788	104.62
368.999	67.75
369.209	137.38
369.42	104.62
369.631	121
369.842	118.95
370.053	32.94
370.264	106.67
370.474	123.05
370.685	121
370.896	125.1
371.107	153.77
371.317	139.43
371.528	57.51
371.739	80.04
371.95	112.81
372.16	123.05
372.371	88.23
372.582	104.62
372.792	116.9
373.003	96.43
373.214	100.52
373.424	71.85
373.635	49.32
373.846	102.57
374.056	145.58
374.267	125.1
374.477	108.71
374.688	82.09
374.898	67.75
375.109	164.01
375.319	84.14
375.53	139.43
375.74	174.25
375.951	71.85
376.161	18.6
376.372	94.38
376.582	59.56
376.793	88.23
377.003	88.23
377.214	69.8
377.424	116.9
377.635	139.43
377.845	145.58
378.055	112.81
378.266	16.55
378.476	123.05
378.686	77.99
378.897	100.52
379.107	43.18
379.317	133.29
379.528	133.29
379.738	77.99
379.948	65.71
380.158	80.04
380.369	123.05
380.579	82.09
380.789	43.18
380.999	84.14
381.21	86.19
381.42	121
381.63	28.84
381.84	145.58
382.05	90.28
382.261	75.95
382.471	90.28
382.681	51.37
382.891	131.24
383.101	77.99
383.311	37.03
383.521	168.1
383.731	123.05
383.941	121
384.151	108.71
384.361	157.86
384.571	77.99
384.781	71.85
384.991	108.71
385.201	55.47
385.411	223.4
385.621	98.47
385.831	133.29
386.041	98.47
386.251	102.57
386.461	188.58
386.671	123.05
386.881	129.19
387.091	151.72
387.301	166.06
387.511	100.52
387.72	125.1
387.93	75.95
388.14	88.23
388.35	133.29
388.56	170.15
388.769	75.95
388.979	110.76
389.189	69.8
389.399	129.19
389.609	166.06
389.818	178.34
390.028	129.19
390.238	108.71
390.447	110.76
390.657	94.38
390.867	82.09
391.076	170.15
391.286	139.43
391.496	194.73
391.705	131.24
391.915	164.01
392.125	209.06
392.334	116.9
392.544	219.3
392.753	94.38
392.963	112.81
393.172	116.9
393.382	178.34
393.591	166.06
393.801	145.58
394.01	131.24
394.22	184.49
394.429	123.05
394.639	164.01
394.848	157.86
395.058	123.05
395.267	178.34
395.477	207.02
395.686	161.96
395.895	145.58
396.105	233.64
396.314	180.39
396.524	121
396.733	121
396.942	186.54
397.152	223.4
397.361	233.64
397.57	180.39
397.78	149.67
397.989	264.36
398.198	247.97
398.407	243.88
398.617	272.55
398.826	225.45
399.035	200.87
399.244	202.92
399.453	207.02
399.663	256.17
399.872	299.17
400.081	241.83
400.29	282.79
400.499	178.34
400.708	272.55
400.917	190.63
401.127	280.74
401.336	182.44
401.545	258.21
401.754	252.07
401.963	241.83
402.172	225.45
402.381	325.8
402.59	225.45
402.799	303.27
403.008	284.84
403.217	256.17
403.426	211.11
403.635	264.36
403.844	286.89
404.053	258.21
404.262	270.5
404.471	295.08
404.68	303.27
404.888	264.36
405.097	284.84
405.306	340.13
405.515	395.43
405.724	395.43
405.933	403.62
406.142	333.99
406.35	415.91
406.559	438.44
406.768	354.47
406.977	413.86
407.185	377
407.394	450.72
407.603	393.38
407.812	489.64
408.02	446.63
408.229	475.3
408.438	450.72
408.646	592.03
408.855	530.59
409.064	510.11
409.272	489.64
409.481	647.33
409.69	594.08
409.898	647.33
410.107	626.85
410.315	704.67
410.524	751.78
410.733	770.21
410.941	788.64
411.15	798.88
411.358	776.35
411.567	835.74
411.775	856.22
411.984	856.22
412.192	981.15
412.401	985.24
412.609	987.29
412.818	1147.03
413.026	1011.87
413.234	1142.94
413.443	1153.18
413.651	1200.28
413.86	1282.2
414.068	1353.88
414.276	1446.04
414.485	1478.8
414.693	1431.7
414.901	1437.84
415.11	1583.25
415.318	1568.91
415.526	1636.5
415.734	1718.42
415.943	1734.8
416.151	1837.2
416.359	1853.58
416.567	1880.21
416.776	1865.87
416.984	2146.44
417.192	2242.7
417.4	2291.85
417.608	2295.94
417.817	2287.75
418.025	2365.57
418.233	2613.38
418.441	2480.26
418.649	2711.68
418.857	2805.89
419.065	2930.81
419.273	2885.76
419.481	2984.06
419.689	3258.49
419.897	3252.35
420.105	3348.6
420.313	3442.81
420.521	3541.11
420.729	3590.26
420.937	3801.2
421.145	3942.51
421.353	4044.91
421.561	4333.67
421.769	4481.13
421.977	4671.59
422.185	4567.14
422.393	4864.1
422.601	5097.56
422.809	5054.56
423.017	5218.4
423.224	5531.73
423.432	5597.27
423.64	5613.65
423.848	6207.56
424.056	6076.49
424.263	6391.88
424.471	6481.99
424.679	6635.59
424.887	7071.81
425.094	7092.29
425.302	7241.79
425.51	7493.69
425.718	7635
425.925	7919.67
426.133	8200.24
426.341	8439.85
426.548	8906.79
426.756	8990.75
426.964	9066.53
427.171	9408.54
427.379	9752.6
427.586	10065.94
427.794	9955.35
428.001	10717.19
428.209	11216.9
428.417	10905.6
428.624	11649.02
428.832	11872.25
429.039	11677.69
429.247	11638.78
429.454	12974.05
429.662	13672.41
429.869	12722.15
430.076	13754.33
430.284	13373.41
430.491	13914.07
430.699	14909.38
430.906	14569.42
431.114	14882.76
431.321	15648.7
431.528	15685.56
431.736	16541.61
431.943	17211.3
432.15	16859.05
432.358	17280.93
432.565	18143.13
432.772	18233.24
432.979	19005.32
433.187	19445.63
433.394	19347.33
433.601	20862.83
433.808	20762.48
434.016	20709.23
434.223	21577.57
434.43	22814.54
434.637	22445.91
434.844	23914.3
435.052	24414.01
435.259	24371
435.466	24237.88
435.673	24004.41
435.88	25571.11
436.087	27000.59
436.294	26926.86
436.501	26535.7
436.708	26875.66
436.915	28133.12
437.122	28948.21
437.329	29003.5
437.537	29996.77
437.743	30486.23
437.95	30199.52
438.157	31809.22
438.364	32847.54
438.571	32779.96
438.778	32798.39
438.985	36052.61
439.192	34584.22
439.399	36099.72
439.606	34862.74
439.813	36791.93
440.02	38837.85
440.227	38098.53
440.433	38268.51
440.64	39239.25
440.847	39300.69
441.054	39968.33
441.261	42262.05
441.467	41891.37
441.674	43099.67
441.881	44385.8
442.088	44043.79
442.294	43572.75
442.501	44916.22
442.708	45905.39
442.914	47488.47
443.121	49358.27
443.328	48143.82
443.534	51602.84
443.741	49745.33
443.948	49112.51
444.154	52905.35
444.361	52477.32
444.568	52948.35
444.774	53001.6
444.981	53243.26
445.187	54984.04
445.394	57070.92
445.6	56608.07
445.807	60851.47
446.013	58760.49
446.22	60204.31
446.426	62098.68
446.633	62573.81
446.839	64081.11
447.046	62375.15
447.252	64081.11
447.459	64081.11
447.665	64081.11
447.871	64081.11
448.078	64081.11
448.284	64081.11
448.491	64081.11
448.697	64081.11
448.903	64081.11
449.11	64081.11
449.316	64081.11
449.522	64081.11
449.728	64081.11
449.935	64081.11
450.141	64081.11
450.347	64081.11
450.553	64081.11
450.76	64081.11
450.966	64081.11
451.172	64081.11
451.378	64081.11
451.584	64081.11
451.791	64081.11
451.997	64081.11
452.203	64081.11
452.409	64081.11
452.615	64081.11
452.821	64081.11
453.027	64081.11
453.233	64081.11
453.44	64081.11
453.646	64081.11
453.852	64081.11
454.058	64081.11
454.264	64081.11
454.47	64081.11
454.676	64081.11
454.882	64081.11
455.088	64081.11
455.294	64081.11
455.5	64081.11
455.705	64081.11
455.911	64081.11
456.117	64081.11
456.323	64081.11
456.529	64081.11
456.735	64081.11
456.941	64081.11
457.147	64081.11
457.352	64081.11
457.558	64081.11
457.764	64081.11
457.97	63847.64
458.176	62166.26
458.381	61889.79
458.587	59016.49
458.793	59483.42
458.999	56091.99
459.204	59645.21
459.41	58613.04
459.616	54895.97
459.821	54846.82
460.027	54580.59
460.233	53140.86
460.438	50800.04
460.644	51967.38
460.85	49182.14
461.055	48917.95
461.261	48383.43
461.466	45520.37
461.672	43679.25
461.878	46892.51
462.083	43806.22
462.289	42851.87
462.494	42440.23
462.7	40623.68
462.905	39591.5
463.111	40826.43
463.316	40855.1
463.522	39878.22
463.727	40398.4
463.932	40377.92
464.138	39634.51
464.343	39757.39
464.549	38600.29
464.754	39870.03
464.959	39626.32
465.165	39360.08
465.37	37846.63
465.575	36740.73
