Data from USB4F104151__64__11-45-19-477.txt Node

Date: Fri Mar 14 11:45:19 EDT 2025
User: louis
Spectrometer: USB4F10415
Trigger mode: 4
Integration Time (sec): 2.000000E-2
Scans to average: 1
Electric dark correction enabled: true
Nonlinearity correction enabled: false
Boxcar width: 0
XAxis mode: Wavelengths
Number of Pixels in Spectrum: 3648
>>>>>Begin Spectral Data<<<<<
178.204	-52.74
178.424	-52.74
178.644	-52.74
178.864	-99.84
179.084	-46.59
179.304	12.8
179.524	14.85
179.744	0.51
179.964	23.04
180.184	10.75
180.404	-15.87
180.624	-1.54
180.844	-15.87
181.064	-11.78
181.283	39.42
181.503	-91.65
181.723	35.33
181.943	-11.78
182.163	-34.3
182.383	37.38
182.602	37.38
182.822	72.19
183.042	82.43
183.262	20.99
183.482	-3.58
183.701	80.38
183.921	-19.97
184.141	37.38
184.361	55.81
184.58	-52.74
184.8	90.62
185.02	55.81
185.239	33.28
185.459	-44.54
185.679	102.91
185.898	0.51
186.118	53.76
186.338	68.09
186.557	96.77
186.777	43.52
186.997	39.42
187.216	66.05
187.436	92.67
187.655	-19.97
187.875	-32.26
188.095	41.47
188.314	8.7
188.534	-34.3
188.753	33.28
188.973	8.7
189.192	37.38
189.412	-32.26
189.631	-34.3
189.851	10.75
190.07	64
190.29	47.62
190.509	-28.16
190.729	66.05
190.948	78.33
191.168	121.34
191.387	115.2
191.607	33.28
191.826	-65.02
192.045	-17.92
192.265	104.96
192.484	-38.4
192.704	76.29
192.923	25.09
193.142	74.24
193.362	-28.16
193.581	64
193.8	8.7
194.02	47.62
194.239	-22.02
194.458	-17.92
194.678	18.94
194.897	121.34
195.116	45.57
195.335	-28.16
195.555	4.61
195.774	-9.73
195.993	45.57
196.212	25.09
196.432	-13.82
196.651	33.28
196.87	-13.82
197.089	27.14
197.308	64
197.528	-11.78
197.747	25.09
197.966	20.99
198.185	18.94
198.404	-11.78
198.623	-42.5
198.842	98.81
199.062	68.09
199.281	0.51
199.5	-36.35
199.719	39.42
199.938	47.62
200.157	20.99
200.376	10.75
200.595	72.19
200.814	4.61
201.033	8.7
201.252	70.14
201.471	43.52
201.69	68.09
201.909	-11.78
202.128	47.62
202.347	8.7
202.566	70.14
202.785	74.24
203.004	-40.45
203.223	31.23
203.442	68.09
203.661	-13.82
203.879	31.23
204.098	68.09
204.317	47.62
204.536	8.7
204.755	23.04
204.974	29.18
205.193	-13.82
205.411	64
205.63	70.14
205.849	33.28
206.068	20.99
206.287	-17.92
206.505	104.96
206.724	51.71
206.943	98.81
207.162	4.61
207.381	-7.68
207.599	45.57
207.818	33.28
208.037	8.7
208.255	57.86
208.474	37.38
208.693	37.38
208.911	-13.82
209.13	0.51
209.349	-1.54
209.567	14.85
209.786	14.85
210.005	47.62
210.223	31.23
210.442	117.25
210.661	-30.21
210.879	72.19
211.098	23.04
211.316	0.51
211.535	37.38
211.753	18.94
211.972	49.66
212.191	14.85
212.409	72.19
212.628	70.14
212.846	-28.16
213.065	66.05
213.283	0.51
213.502	39.42
213.72	33.28
213.938	39.42
214.157	-75.26
214.375	68.09
214.594	66.05
214.812	39.42
215.031	23.04
215.249	49.66
215.467	47.62
215.686	33.28
215.904	61.95
216.122	2.56
216.341	64
216.559	61.95
216.778	59.9
216.996	35.33
217.214	78.33
217.432	-13.82
217.651	41.47
217.869	33.28
218.087	-46.59
218.306	20.99
218.524	2.56
218.742	68.09
218.96	51.71
219.179	25.09
219.397	-1.54
219.615	125.44
219.833	45.57
220.051	25.09
220.27	92.67
220.488	-32.26
220.706	25.09
220.924	-40.45
221.142	37.38
221.36	6.66
221.578	4.61
221.796	92.67
222.015	66.05
222.233	20.99
222.451	66.05
222.669	31.23
222.887	27.14
223.105	25.09
223.323	12.8
223.541	70.14
223.759	74.24
223.977	0.51
224.195	-11.78
224.413	14.85
224.631	-48.64
224.849	-11.78
225.067	29.18
225.285	-44.54
225.503	-11.78
225.721	-17.92
225.939	117.25
226.157	39.42
226.375	64
226.592	57.86
226.81	31.23
227.028	100.86
227.246	18.94
227.464	16.9
227.682	-28.16
227.9	45.57
228.117	74.24
228.335	12.8
228.553	29.18
228.771	12.8
228.989	2.56
229.206	53.76
229.424	-26.11
229.642	-13.82
229.86	0.51
230.077	-17.92
230.295	88.57
230.513	6.66
230.731	0.51
230.948	27.14
231.166	35.33
231.384	41.47
231.601	57.86
231.819	66.05
232.037	4.61
232.254	18.94
232.472	-9.73
232.689	31.23
232.907	35.33
233.125	-38.4
233.342	20.99
233.56	84.48
233.777	2.56
233.995	-15.87
234.213	70.14
234.43	90.62
234.648	6.66
234.865	49.66
235.083	10.75
235.3	31.23
235.518	47.62
235.735	-11.78
235.953	-3.58
236.17	55.81
236.388	27.14
236.605	70.14
236.822	33.28
237.04	18.94
237.257	47.62
237.475	29.18
237.692	41.47
237.909	16.9
238.127	37.38
238.344	29.18
238.562	68.09
238.779	39.42
238.996	-13.82
239.214	49.66
239.431	33.28
239.648	84.48
239.865	20.99
240.083	25.09
240.3	-44.54
240.517	66.05
240.735	-1.54
240.952	41.47
241.169	64
241.386	51.71
241.603	33.28
241.821	20.99
242.038	41.47
242.255	33.28
242.472	-44.54
242.689	12.8
242.907	102.91
243.124	16.9
243.341	86.53
243.558	20.99
243.775	59.9
243.992	37.38
244.209	37.38
244.426	33.28
244.643	14.85
244.86	39.42
245.078	31.23
245.295	68.09
245.512	82.43
245.729	43.52
245.946	80.38
246.163	-28.16
246.38	-15.87
246.597	-3.58
246.814	94.72
247.031	-11.78
247.248	107.01
247.464	18.94
247.681	37.38
247.898	-46.59
248.115	25.09
248.332	12.8
248.549	61.95
248.766	98.81
248.983	10.75
249.2	-24.06
249.417	64
249.633	-52.74
249.85	47.62
250.067	86.53
250.284	-17.92
250.501	111.1
250.717	41.47
250.934	18.94
251.151	47.62
251.368	57.86
251.585	53.76
251.801	18.94
252.018	78.33
252.235	29.18
252.451	20.99
252.668	45.57
252.885	109.05
253.102	33.28
253.318	20.99
253.535	-34.3
253.752	12.8
253.968	92.67
254.185	-5.63
254.401	-13.82
254.618	68.09
254.835	14.85
255.051	82.43
255.268	23.04
255.484	31.23
255.701	92.67
255.917	78.33
256.134	45.57
256.351	82.43
256.567	45.57
256.784	59.9
257	-9.73
257.217	74.24
257.433	27.14
257.65	37.38
257.866	29.18
258.082	-15.87
258.299	51.71
258.515	51.71
258.732	61.95
258.948	4.61
259.165	14.85
259.381	-44.54
259.597	8.7
259.814	37.38
260.03	41.47
260.246	47.62
260.463	41.47
260.679	-9.73
260.895	0.51
261.112	14.85
261.328	27.14
261.544	0.51
261.761	23.04
261.977	53.76
262.193	-30.21
262.409	78.33
262.626	23.04
262.842	59.9
263.058	35.33
263.274	64
263.49	59.9
263.707	0.51
263.923	61.95
264.139	-32.26
264.355	70.14
264.571	90.62
264.787	51.71
265.004	35.33
265.22	0.51
265.436	-19.97
265.652	4.61
265.868	16.9
266.084	0.51
266.3	20.99
266.516	96.77
266.732	31.23
266.948	4.61
267.164	27.14
267.38	39.42
267.596	64
267.812	53.76
268.028	-3.58
268.244	39.42
268.46	27.14
268.676	18.94
268.892	125.44
269.108	-1.54
269.324	-17.92
269.54	94.72
269.756	45.57
269.972	-7.68
270.188	61.95
270.403	-9.73
270.619	2.56
270.835	33.28
271.051	-11.78
271.267	27.14
271.483	-83.45
271.698	98.81
271.914	-17.92
272.13	57.86
272.346	-7.68
272.562	-40.45
272.777	59.9
272.993	-3.58
273.209	61.95
273.425	37.38
273.64	10.75
273.856	76.29
274.072	-1.54
274.287	37.38
274.503	16.9
274.719	20.99
274.934	12.8
275.15	8.7
275.366	25.09
275.581	43.52
275.797	39.42
276.012	-13.82
276.228	70.14
276.444	20.99
276.659	64
276.875	20.99
277.09	12.8
277.306	-13.82
277.521	33.28
277.737	37.38
277.952	66.05
278.168	-42.5
278.383	-7.68
278.599	35.33
278.814	90.62
279.03	-28.16
279.245	55.81
279.461	31.23
279.676	61.95
279.892	86.53
280.107	82.43
280.322	12.8
280.538	123.39
280.753	-50.69
280.969	25.09
281.184	33.28
281.399	45.57
281.615	0.51
281.83	68.09
282.045	45.57
282.26	33.28
282.476	57.86
282.691	90.62
282.906	39.42
283.122	41.47
283.337	25.09
283.552	33.28
283.767	-32.26
283.983	88.57
284.198	35.33
284.413	-3.58
284.628	12.8
284.843	66.05
285.058	12.8
285.274	39.42
285.489	29.18
285.704	33.28
285.919	84.48
286.134	29.18
286.349	41.47
286.564	-19.97
286.779	6.66
286.995	72.19
287.21	-24.06
287.425	109.05
287.64	-5.63
287.855	16.9
288.07	-28.16
288.285	39.42
288.5	41.47
288.715	72.19
288.93	41.47
289.145	39.42
289.36	12.8
289.575	102.91
289.79	20.99
290.004	76.29
290.219	102.91
290.434	12.8
290.649	8.7
290.864	35.33
291.079	4.61
291.294	111.1
291.509	0.51
291.724	37.38
291.938	12.8
292.153	31.23
292.368	49.66
292.583	64
292.798	59.9
293.012	96.77
293.227	64
293.442	70.14
293.657	23.04
293.871	-17.92
294.086	16.9
294.301	61.95
294.516	31.23
294.73	14.85
294.945	41.47
295.16	29.18
295.374	80.38
295.589	119.29
295.804	31.23
296.018	23.04
296.233	104.96
296.447	82.43
296.662	-1.54
296.877	-28.16
297.091	147.97
297.306	29.18
297.52	6.66
297.735	23.04
297.949	20.99
298.164	39.42
298.378	23.04
298.593	12.8
298.807	27.14
299.022	90.62
299.236	59.9
299.451	23.04
299.665	64
299.88	18.94
300.094	117.25
300.309	-26.11
300.523	2.56
300.737	35.33
300.952	64
301.166	74.24
301.381	-22.02
301.595	-26.11
301.809	2.56
302.024	16.9
302.238	20.99
302.452	-9.73
302.667	33.28
302.881	94.72
303.095	86.53
303.309	82.43
303.524	59.9
303.738	53.76
303.952	43.52
304.166	49.66
304.381	8.7
304.595	100.86
304.809	-9.73
305.023	37.38
305.237	29.18
305.452	51.71
305.666	31.23
305.88	-11.78
306.094	74.24
306.308	31.23
306.522	64
306.736	86.53
306.95	74.24
307.164	47.62
307.379	49.66
307.593	115.2
307.807	66.05
308.021	45.57
308.235	35.33
308.449	-19.97
308.663	16.9
308.877	25.09
309.091	47.62
309.305	55.81
309.519	10.75
309.733	92.67
309.947	-44.54
310.161	51.71
310.374	29.18
310.588	94.72
310.802	18.94
311.016	66.05
311.23	27.14
311.444	18.94
311.658	80.38
311.872	98.81
312.085	57.86
312.299	86.53
312.513	55.81
312.727	55.81
312.941	18.94
313.154	84.48
313.368	10.75
313.582	37.38
313.796	57.86
314.009	47.62
314.223	53.76
314.437	74.24
314.651	55.81
314.864	33.28
315.078	16.9
315.292	4.61
315.505	55.81
315.719	29.18
315.933	25.09
316.146	59.9
316.36	-24.06
316.573	41.47
316.787	61.95
317.001	14.85
317.214	31.23
317.428	23.04
317.641	-11.78
317.855	4.61
318.068	31.23
318.282	74.24
318.495	29.18
318.709	94.72
318.922	-13.82
319.136	16.9
319.349	33.28
319.563	53.76
319.776	84.48
319.99	-9.73
320.203	25.09
320.417	35.33
320.63	16.9
320.843	59.9
321.057	29.18
321.27	16.9
321.483	-38.4
321.697	127.49
321.91	2.56
322.124	51.71
322.337	49.66
322.55	78.33
322.763	70.14
322.977	25.09
323.19	-9.73
323.403	29.18
323.617	-34.3
323.83	37.38
324.043	31.23
324.256	39.42
324.469	45.57
324.683	117.25
324.896	-50.69
325.109	31.23
325.322	6.66
325.535	37.38
325.748	94.72
325.962	47.62
326.175	29.18
326.388	4.61
326.601	33.28
326.814	14.85
327.027	53.76
327.24	27.14
327.453	-9.73
327.666	23.04
327.879	47.62
328.092	10.75
328.305	49.66
328.518	16.9
328.731	-36.35
328.944	49.66
329.157	121.34
329.37	-15.87
329.583	8.7
329.796	74.24
330.009	47.62
330.222	-15.87
330.435	-11.78
330.648	37.38
330.861	55.81
331.073	64
331.286	80.38
331.499	66.05
331.712	59.9
331.925	-9.73
332.138	51.71
332.35	53.76
332.563	2.56
332.776	115.2
332.989	-11.78
333.202	37.38
333.414	47.62
333.627	-11.78
333.84	74.24
334.053	-15.87
334.265	-34.3
334.478	53.76
334.691	-13.82
334.903	61.95
335.116	-44.54
335.329	37.38
335.541	2.56
335.754	82.43
335.966	27.14
336.179	66.05
336.392	51.71
336.604	6.66
336.817	51.71
337.029	53.76
337.242	55.81
337.454	51.71
337.667	27.14
337.88	12.8
338.092	43.52
338.305	29.18
338.517	-15.87
338.729	61.95
338.942	100.86
339.154	55.81
339.367	2.56
339.579	61.95
339.792	29.18
340.004	86.53
340.217	76.29
340.429	109.05
340.641	18.94
340.854	61.95
341.066	49.66
341.278	104.96
341.491	64
341.703	57.86
341.915	29.18
342.128	74.24
342.34	68.09
342.552	-3.58
342.764	68.09
342.977	72.19
343.189	20.99
343.401	12.8
343.613	55.81
343.826	61.95
344.038	53.76
344.25	14.85
344.462	27.14
344.674	64
344.886	33.28
345.099	-95.74
345.311	2.56
345.523	-15.87
345.735	57.86
345.947	86.53
346.159	82.43
346.371	20.99
346.583	14.85
346.795	47.62
347.007	25.09
347.219	64
347.431	49.66
347.643	47.62
347.855	16.9
348.067	127.49
348.279	55.81
348.491	92.67
348.703	18.94
348.915	109.05
349.127	70.14
349.339	74.24
349.551	39.42
349.763	147.97
349.975	16.9
350.187	66.05
350.399	51.71
350.61	39.42
350.822	20.99
351.034	51.71
351.246	-11.78
351.458	96.77
351.669	72.19
351.881	23.04
352.093	82.43
352.305	117.25
352.517	49.66
352.728	76.29
352.94	49.66
353.152	47.62
353.363	25.09
353.575	27.14
353.787	66.05
353.999	84.48
354.21	35.33
354.422	39.42
354.633	2.56
354.845	53.76
355.057	39.42
355.268	100.86
355.48	84.48
355.692	14.85
355.903	8.7
356.115	-24.06
356.326	25.09
356.538	-1.54
356.749	18.94
356.961	43.52
357.172	68.09
357.384	12.8
357.595	98.81
357.807	80.38
358.018	43.52
358.23	119.29
358.441	55.81
358.653	80.38
358.864	66.05
359.075	78.33
359.287	53.76
359.498	16.9
359.709	55.81
359.921	104.96
360.132	23.04
360.344	49.66
360.555	80.38
360.766	33.28
360.977	2.56
361.189	51.71
361.4	-34.3
361.611	129.53
361.823	2.56
362.034	82.43
362.245	8.7
362.456	45.57
362.667	-15.87
362.879	76.29
363.09	47.62
363.301	47.62
363.512	162.3
363.723	104.96
363.935	43.52
364.146	47.62
364.357	35.33
364.568	-32.26
364.779	43.52
364.99	55.81
365.201	47.62
365.412	16.9
365.623	72.19
365.834	86.53
366.045	14.85
366.256	10.75
366.467	74.24
366.678	76.29
366.889	-5.63
367.1	43.52
367.311	47.62
367.522	39.42
367.733	51.71
367.944	51.71
368.155	61.95
368.366	45.57
368.577	-48.64
368.788	86.53
368.999	55.81
369.209	0.51
369.42	123.39
369.631	133.63
369.842	70.14
370.053	68.09
370.264	37.38
370.474	109.05
370.685	49.66
370.896	111.1
371.107	55.81
371.317	0.51
371.528	82.43
371.739	41.47
371.95	61.95
372.16	39.42
372.371	43.52
372.582	39.42
372.792	70.14
373.003	47.62
373.214	66.05
373.424	86.53
373.635	16.9
373.846	68.09
374.056	16.9
374.267	78.33
374.477	27.14
374.688	37.38
374.898	35.33
375.109	35.33
375.319	6.66
375.53	94.72
375.74	12.8
375.951	80.38
376.161	121.34
376.372	86.53
376.582	76.29
376.793	51.71
377.003	29.18
377.214	18.94
377.424	119.29
377.635	86.53
377.845	18.94
378.055	111.1
378.266	59.9
378.476	35.33
378.686	23.04
378.897	64
379.107	98.81
379.317	70.14
379.528	72.19
379.738	-11.78
379.948	123.39
380.158	86.53
380.369	61.95
380.579	-19.97
380.789	31.23
380.999	100.86
381.21	0.51
381.42	125.44
381.63	-11.78
381.84	76.29
382.05	33.28
382.261	98.81
382.471	55.81
382.681	16.9
382.891	70.14
383.101	4.61
383.311	37.38
383.521	47.62
383.731	70.14
383.941	66.05
384.151	12.8
384.361	25.09
384.571	74.24
384.781	20.99
384.991	66.05
385.201	102.91
385.411	33.28
385.621	117.25
385.831	47.62
386.041	143.87
386.251	39.42
386.461	96.77
386.671	-13.82
386.881	25.09
387.091	0.51
387.301	51.71
387.511	57.86
387.72	49.66
387.93	178.69
388.14	47.62
388.35	18.94
388.56	59.9
388.769	31.23
388.979	64
389.189	39.42
389.399	55.81
389.609	76.29
389.818	39.42
390.028	55.81
390.238	6.66
390.447	57.86
390.657	59.9
390.867	115.2
391.076	84.48
391.286	33.28
391.496	35.33
391.705	127.49
391.915	41.47
392.125	107.01
392.334	119.29
392.544	94.72
392.753	107.01
392.963	61.95
393.172	82.43
393.382	55.81
393.591	98.81
393.801	41.47
394.01	78.33
394.22	102.91
394.429	14.85
394.639	72.19
394.848	76.29
395.058	137.73
395.267	115.2
395.477	109.05
395.686	57.86
395.895	121.34
396.105	154.11
396.314	88.57
396.524	76.29
396.733	51.71
396.942	100.86
397.152	147.97
397.361	82.43
397.57	102.91
397.78	100.86
397.989	74.24
398.198	111.1
398.407	139.77
398.617	92.67
398.826	78.33
399.035	133.63
399.244	64
399.453	180.73
399.663	86.53
399.872	209.4
400.081	55.81
400.29	133.63
400.499	119.29
400.708	182.78
400.917	123.39
401.127	123.39
401.336	133.63
401.545	127.49
401.754	223.74
401.963	180.73
402.172	88.57
402.381	162.3
402.59	143.87
402.799	92.67
403.008	133.63
403.217	180.73
403.426	156.16
403.635	158.21
403.844	119.29
404.053	162.3
404.262	135.68
404.471	160.25
404.68	188.93
404.888	168.45
405.097	143.87
405.306	86.53
405.515	199.16
405.724	231.93
405.933	186.88
406.142	205.31
406.35	205.31
406.559	193.02
406.768	266.75
406.977	291.32
407.185	197.12
407.394	145.92
407.603	178.69
407.812	229.88
408.02	195.07
408.229	244.22
408.438	291.32
408.646	254.46
408.855	301.56
409.064	276.99
409.272	279.04
409.481	256.51
409.69	336.38
409.898	307.71
410.107	375.29
410.315	358.91
410.524	352.76
410.733	354.81
410.941	367.1
411.15	397.82
411.358	408.06
411.567	393.72
411.775	440.83
411.984	387.58
412.192	479.74
412.401	418.3
412.609	567.8
412.818	475.64
413.026	512.5
413.234	465.4
413.443	530.94
413.651	524.79
413.86	541.18
414.068	690.68
414.276	659.96
414.485	633.33
414.693	731.64
414.901	680.44
415.11	737.78
415.318	780.79
415.526	868.85
415.734	827.89
415.943	821.75
416.151	883.19
416.359	874.99
416.567	940.53
416.776	1008.11
416.984	1034.74
417.192	1069.55
417.4	1049.07
417.608	1018.35
417.817	1171.95
418.025	1147.37
418.233	1219.05
418.441	1282.54
418.649	1253.87
418.857	1335.79
419.065	1389.03
419.273	1372.65
419.481	1380.84
419.689	1483.24
419.897	1645.03
420.105	1538.54
420.313	1561.06
420.521	1745.38
420.729	1817.06
420.937	1815.01
421.145	1882.6
421.353	1956.32
421.561	2068.96
421.769	2038.24
421.977	2210.27
422.185	2124.26
422.393	2316.76
422.601	2443.74
422.809	2363.87
423.017	2515.42
423.224	2486.75
423.432	2591.19
423.64	2611.67
423.848	2802.13
424.056	2908.63
424.263	2914.77
424.471	2920.92
424.679	3158.48
424.887	3076.56
425.094	3291.6
425.302	3463.63
425.51	3498.44
425.718	3527.11
425.925	3602.89
426.133	3756.49
426.341	3969.48
426.548	4194.75
426.756	4110.79
426.964	4190.66
427.171	4391.36
427.379	4630.97
427.586	4549.05
427.794	4858.29
428.001	5054.9
428.209	5198.26
428.417	5083.57
428.624	5319.09
428.832	5458.35
429.039	5542.32
429.247	5548.46
429.454	5976.48
429.662	6298.02
429.869	6066.6
430.076	6324.64
430.284	6273.44
430.491	6445.47
430.699	6881.69
430.906	6986.13
431.114	6853.02
431.321	7340.43
431.528	7483.79
431.736	7682.44
431.943	8276.35
432.15	7981.45
432.358	8057.22
432.565	8401.28
432.772	8356.22
432.979	8817.02
433.187	8925.56
433.394	9007.48
433.601	9625.97
433.808	9609.58
434.016	9677.16
434.223	10178.92
434.43	10666.33
434.637	10570.08
434.844	11049.3
435.052	11569.49
435.259	11272.53
435.466	11389.27
435.673	11407.7
435.88	11927.88
436.087	12853.56
436.294	12702.01
436.501	12298.56
436.708	12597.57
436.915	13082.94
437.122	13642.03
437.329	13631.79
437.537	13908.27
437.743	14264.61
437.95	14100.78
438.157	14807.33
438.364	15343.89
438.571	15290.65
438.778	15571.22
438.985	16896.25
439.192	16064.78
439.399	16720.13
439.606	16216.33
439.813	16945.41
440.02	18331.88
440.227	18073.84
440.433	17801.46
440.64	18606.31
440.847	18092.27
441.054	18804.96
441.261	19863.76
441.467	20097.23
441.674	20150.48
441.881	21129.41
442.088	20629.7
442.294	20601.03
442.501	21244.09
442.708	21655.73
442.914	22470.83
443.121	23212.19
443.328	22577.32
443.534	24254.61
443.741	23500.95
443.948	23316.64
444.154	25243.77
444.361	24768.65
444.568	24993.92
444.774	25194.62
444.981	25364.6
445.187	26099.83
445.394	27478.11
445.6	26888.29
445.807	29308.99
446.013	28196.95
446.22	28483.66
446.426	29808.7
446.633	30083.12
446.839	31010.85
447.046	30007.35
447.252	31502.37
447.459	31676.44
447.665	31342.63
447.871	32751.63
448.078	34293.75
448.284	32753.68
448.491	33486.85
448.697	34701.29
448.903	35467.23
449.11	34983.91
449.316	34926.57
449.522	35588.06
449.728	36616.15
449.935	36483.03
450.141	36833.23
450.347	37326.79
450.553	36315.09
450.76	36515.79
450.966	37930.94
451.172	37672.9
451.378	38387.64
451.584	37642.18
451.791	38571.96
451.997	38852.53
452.203	39249.83
452.409	39368.62
452.615	39126.95
452.821	37283.78
453.027	37304.26
453.233	39249.83
453.44	37728.19
453.646	37820.35
453.852	38152.12
454.058	38913.97
454.264	37427.14
454.47	38549.43
454.676	37683.14
454.882	38809.52
455.088	35598.3
455.294	36378.58
455.5	36335.57
455.705	36933.58
455.911	35620.83
456.117	34654.19
456.323	34222.07
456.529	32530.45
456.735	33783.8
456.941	32923.66
457.147	32380.95
457.352	31762.46
457.558	31516.7
457.764	31258.66
457.97	30918.7
458.176	30085.17
458.381	29927.48
458.587	28821.58
458.793	28624.97
458.999	27123.81
459.204	28870.73
459.41	28205.14
459.616	26443.88
459.821	26646.63
460.027	26361.97
460.233	25671.8
460.438	24389.77
460.644	24957.06
460.85	23505.05
461.055	23459.99
461.261	23189.66
461.466	21424.31
461.672	21070.01
461.878	22317.23
462.083	20801.73
462.289	20394.18
462.494	20402.38
462.7	19304.67
462.905	18872.54
463.111	19312.86
463.316	19699.92
463.522	19376.34
463.727	19046.62
463.932	19134.68
464.138	18815.2
464.343	19206.36
464.549	18338.02
464.754	18809.06
464.959	18995.42
465.165	18616.55
465.37	17938.67
465.575	17555.7
465.781	18327.78
465.986	18280.68
466.191	17588.47
466.397	17176.83
466.602	16464.13
466.807	17076.48
467.012	17133.82
467.218	17088.76
467.423	16666.88
467.628	16857.34
467.833	17774.83
468.038	17031.42
468.244	16320.77
