Data from USB4F104151__62__11-45-18-989.txt Node

Date: Fri Mar 14 11:45:18 EDT 2025
User: louis
Spectrometer: USB4F10415
Trigger mode: 4
Integration Time (sec): 2.000000E-2
Scans to average: 1
Electric dark correction enabled: true
Nonlinearity correction enabled: false
Boxcar width: 0
XAxis mode: Wavelengths
Number of Pixels in Spectrum: 3648
>>>>>Begin Spectral Data<<<<<
178.204	-105.47
178.424	-105.47
178.644	-105.47
178.864	-46.08
179.084	-123.9
179.304	-3.07
179.524	11.26
179.744	17.41
179.964	25.6
180.184	-54.27
180.404	-31.74
180.624	13.31
180.844	25.6
181.064	-60.42
181.283	78.85
181.503	-46.08
181.723	23.55
181.943	48.13
182.163	64.51
182.383	-33.79
182.602	41.98
182.822	-25.6
183.042	54.27
183.262	-35.84
183.482	-21.5
183.701	-31.74
183.921	-5.12
184.141	13.31
184.361	44.03
184.58	50.18
184.8	140.29
185.02	-39.94
185.239	119.81
185.459	39.94
185.679	23.55
185.898	-19.46
186.118	-56.32
186.338	-1.02
186.557	60.42
186.777	-33.79
186.997	9.22
187.216	19.46
187.436	123.9
187.655	-31.74
187.875	54.27
188.095	50.18
188.314	80.89
188.534	-13.31
188.753	19.46
188.973	56.32
189.192	-9.22
189.412	48.13
189.631	11.26
189.851	19.46
190.07	7.17
190.29	11.26
190.509	-13.31
190.729	9.22
190.948	27.65
191.168	54.27
191.387	84.99
191.607	-3.07
191.826	25.6
192.045	21.5
192.265	5.12
192.484	1.02
192.704	21.5
192.923	41.98
193.142	5.12
193.362	130.05
193.581	56.32
193.8	84.99
194.02	78.85
194.239	7.17
194.458	-7.17
194.678	27.65
194.897	66.56
195.116	15.36
195.335	101.37
195.555	62.46
195.774	7.17
195.993	-25.6
196.212	9.22
196.432	5.12
196.651	-33.79
196.87	-25.6
197.089	76.8
197.308	50.18
197.528	-3.07
197.747	56.32
197.966	13.31
198.185	48.13
198.404	78.85
198.623	33.79
198.842	21.5
199.062	68.61
199.281	-3.07
199.5	-11.26
199.719	-25.6
199.938	74.75
200.157	1.02
200.376	-19.46
200.595	44.03
200.814	-17.41
201.033	-13.31
201.252	70.65
201.471	-15.36
201.69	44.03
201.909	48.13
202.128	58.37
202.347	-7.17
202.566	58.37
202.785	-37.89
203.004	21.5
203.223	84.99
203.442	23.55
203.661	15.36
203.879	48.13
204.098	23.55
204.317	80.89
204.536	44.03
204.755	62.46
204.974	19.46
205.193	64.51
205.411	48.13
205.63	48.13
205.849	5.12
206.068	-50.18
206.287	3.07
206.505	-52.22
206.724	21.5
206.943	82.94
207.162	78.85
207.381	7.17
207.599	35.84
207.818	41.98
208.037	44.03
208.255	35.84
208.474	21.5
208.693	-54.27
208.911	15.36
209.13	-17.41
209.349	-13.31
209.567	3.07
209.786	60.42
210.005	-33.79
210.223	82.94
210.442	1.02
210.661	27.65
210.879	-23.55
211.098	68.61
211.316	-19.46
211.535	-39.94
211.753	19.46
211.972	35.84
212.191	37.89
212.409	60.42
212.628	78.85
212.846	74.75
213.065	101.37
213.283	27.65
213.502	-13.31
213.72	23.55
213.938	35.84
214.157	-1.02
214.375	25.6
214.594	-11.26
214.812	25.6
215.031	37.89
215.249	-1.02
215.467	13.31
215.686	-7.17
215.904	62.46
216.122	-13.31
216.341	21.5
216.559	74.75
216.778	87.04
216.996	11.26
217.214	-19.46
217.432	-58.37
217.651	62.46
217.869	21.5
218.087	93.18
218.306	62.46
218.524	-21.5
218.742	19.46
218.96	35.84
219.179	-9.22
219.397	37.89
219.615	17.41
219.833	99.33
220.051	1.02
220.27	44.03
220.488	-29.7
220.706	80.89
220.924	-1.02
221.142	54.27
221.36	-5.12
221.578	134.14
221.796	-29.7
222.015	70.65
222.233	15.36
222.451	13.31
222.669	-76.8
222.887	54.27
223.105	23.55
223.323	84.99
223.541	9.22
223.759	78.85
223.977	44.03
224.195	87.04
224.413	-17.41
224.631	15.36
224.849	-91.13
225.067	72.7
225.285	-82.94
225.503	50.18
225.721	-13.31
225.939	-19.46
226.157	76.8
226.375	50.18
226.592	-52.22
226.81	-7.17
227.028	1.02
227.246	72.7
227.464	29.7
227.682	35.84
227.9	44.03
228.117	58.37
228.335	7.17
228.553	44.03
228.771	-1.02
228.989	76.8
229.206	48.13
229.424	31.74
229.642	21.5
229.86	31.74
230.077	50.18
230.295	-1.02
230.513	39.94
230.731	-23.55
230.948	21.5
231.166	39.94
231.384	11.26
231.601	17.41
231.819	54.27
232.037	-48.13
232.254	-35.84
232.472	21.5
232.689	23.55
232.907	58.37
233.125	105.47
233.342	27.65
233.56	-17.41
233.777	17.41
233.995	7.17
234.213	52.22
234.43	68.61
234.648	-35.84
234.865	44.03
235.083	37.89
235.3	23.55
235.518	-13.31
235.735	66.56
235.953	60.42
236.17	-5.12
236.388	-41.98
236.605	21.5
236.822	87.04
237.04	52.22
237.257	27.65
237.475	89.09
237.692	37.89
237.909	3.07
238.127	-9.22
238.344	21.5
238.562	41.98
238.779	-9.22
238.996	9.22
239.214	3.07
239.431	93.18
239.648	5.12
239.865	35.84
240.083	19.46
240.3	60.42
240.517	15.36
240.735	19.46
240.952	25.6
241.169	-27.65
241.386	29.7
241.603	21.5
241.821	-9.22
242.038	80.89
242.255	97.28
242.472	21.5
242.689	74.75
242.907	-33.79
243.124	-33.79
243.341	35.84
243.558	-35.84
243.775	25.6
243.992	11.26
244.209	15.36
244.426	31.74
244.643	125.95
244.86	27.65
245.078	21.5
245.295	-1.02
245.512	29.7
245.729	-29.7
245.946	68.61
246.163	31.74
246.38	44.03
246.597	-35.84
246.814	11.26
247.031	70.65
247.248	-39.94
247.464	33.79
247.681	72.7
247.898	-3.07
248.115	-21.5
248.332	37.89
248.549	46.08
248.766	97.28
248.983	31.74
249.2	72.7
249.417	74.75
249.633	35.84
249.85	31.74
250.067	-9.22
250.284	-15.36
250.501	-13.31
250.717	89.09
250.934	58.37
251.151	15.36
251.368	-21.5
251.585	130.05
251.801	31.74
252.018	-56.32
252.235	19.46
252.451	48.13
252.668	41.98
252.885	66.56
253.102	46.08
253.318	27.65
253.535	9.22
253.752	7.17
253.968	23.55
254.185	70.65
254.401	52.22
254.618	48.13
254.835	3.07
255.051	82.94
255.268	48.13
255.484	-17.41
255.701	113.66
255.917	21.5
256.134	21.5
256.351	50.18
256.567	-35.84
256.784	-23.55
257	27.65
257.217	-17.41
257.433	74.75
257.65	54.27
257.866	-15.36
258.082	9.22
258.299	-1.02
258.515	25.6
258.732	-60.42
258.948	19.46
259.165	3.07
259.381	7.17
259.597	37.89
259.814	29.7
260.03	25.6
260.246	-7.17
260.463	27.65
260.679	99.33
260.895	1.02
261.112	66.56
261.328	-29.7
261.544	-5.12
261.761	84.99
261.977	13.31
262.193	5.12
262.409	-44.03
262.626	66.56
262.842	-29.7
263.058	-3.07
263.274	46.08
263.49	25.6
263.707	-9.22
263.923	21.5
264.139	23.55
264.355	48.13
264.571	48.13
264.787	93.18
265.004	72.7
265.22	50.18
265.436	7.17
265.652	-15.36
265.868	41.98
266.084	27.65
266.3	-7.17
266.516	11.26
266.732	60.42
266.948	50.18
267.164	41.98
267.38	50.18
267.596	13.31
267.812	17.41
268.028	44.03
268.244	-11.26
268.46	3.07
268.676	44.03
268.892	82.94
269.108	-37.89
269.324	46.08
269.54	62.46
269.756	35.84
269.972	23.55
270.188	-11.26
270.403	15.36
270.619	-17.41
270.835	9.22
271.051	52.22
271.267	-64.51
271.483	11.26
271.698	-7.17
271.914	52.22
272.13	58.37
272.346	41.98
272.562	-48.13
272.777	68.61
272.993	-3.07
273.209	70.65
273.425	48.13
273.64	-7.17
273.856	58.37
274.072	-7.17
274.287	-1.02
274.503	37.89
274.719	138.24
274.934	-29.7
275.15	25.6
275.366	-15.36
275.581	13.31
275.797	-15.36
276.012	21.5
276.228	54.27
276.444	-5.12
276.659	21.5
276.875	-56.32
277.09	33.79
277.306	-39.94
277.521	33.79
277.737	33.79
277.952	23.55
278.168	7.17
278.383	78.85
278.599	41.98
278.814	-5.12
279.03	93.18
279.245	115.71
279.461	35.84
279.676	-9.22
279.892	91.13
280.107	52.22
280.322	19.46
280.538	64.51
280.753	31.74
280.969	41.98
281.184	41.98
281.399	89.09
281.615	60.42
281.83	52.22
282.045	29.7
282.26	60.42
282.476	5.12
282.691	74.75
282.906	31.74
283.122	27.65
283.337	17.41
283.552	56.32
283.767	-33.79
283.983	-21.5
284.198	80.89
284.413	19.46
284.628	3.07
284.843	48.13
285.058	27.65
285.274	-5.12
285.489	62.46
285.704	56.32
285.919	7.17
286.134	60.42
286.349	58.37
286.564	-19.46
286.779	-33.79
286.995	66.56
287.21	9.22
287.425	93.18
287.64	11.26
287.855	31.74
288.07	-35.84
288.285	72.7
288.5	113.66
288.715	31.74
288.93	54.27
289.145	-25.6
289.36	17.41
289.575	39.94
289.79	27.65
290.004	21.5
290.219	37.89
290.434	31.74
290.649	-13.31
290.864	-11.26
291.079	-7.17
291.294	107.52
291.509	52.22
291.724	64.51
291.938	-15.36
292.153	113.66
292.368	-15.36
292.583	-19.46
292.798	66.56
293.012	-21.5
293.227	27.65
293.442	62.46
293.657	76.8
293.871	72.7
294.086	21.5
294.301	121.85
294.516	35.84
294.73	11.26
294.945	11.26
295.16	9.22
295.374	35.84
295.589	17.41
295.804	48.13
296.018	74.75
296.233	29.7
296.447	35.84
296.662	48.13
296.877	35.84
297.091	37.89
297.306	33.79
297.52	13.31
297.735	-29.7
297.949	44.03
298.164	-23.55
298.378	21.5
298.593	31.74
298.807	-15.36
299.022	39.94
299.236	44.03
299.451	37.89
299.665	23.55
299.88	78.85
300.094	35.84
300.309	41.98
300.523	41.98
300.737	25.6
300.952	13.31
301.166	29.7
301.381	21.5
301.595	13.31
301.809	-52.22
302.024	-15.36
302.238	1.02
302.452	50.18
302.667	17.41
302.881	13.31
303.095	89.09
303.309	-37.89
303.524	27.65
303.738	60.42
303.952	66.56
304.166	21.5
304.381	46.08
304.595	-5.12
304.809	72.7
305.023	-23.55
305.237	-58.37
305.452	39.94
305.666	58.37
305.88	41.98
306.094	-11.26
306.308	25.6
306.522	60.42
306.736	46.08
306.95	44.03
307.164	68.61
307.379	25.6
307.593	87.04
307.807	5.12
308.021	50.18
308.235	58.37
308.449	17.41
308.663	91.13
308.877	33.79
309.091	19.46
309.305	-7.17
309.519	84.99
309.733	74.75
309.947	44.03
310.161	-9.22
310.374	44.03
310.588	72.7
310.802	72.7
311.016	25.6
311.23	25.6
311.444	60.42
311.658	82.94
311.872	68.61
312.085	29.7
312.299	25.6
312.513	35.84
312.727	50.18
312.941	35.84
313.154	76.8
313.368	33.79
313.582	27.65
313.796	11.26
314.009	62.46
314.223	17.41
314.437	80.89
314.651	46.08
314.864	33.79
315.078	5.12
315.292	-17.41
315.505	-17.41
315.719	-9.22
315.933	5.12
316.146	48.13
316.36	-25.6
316.573	187.39
316.787	15.36
317.001	11.26
317.214	52.22
317.428	27.65
317.641	27.65
317.855	23.55
318.068	9.22
318.282	84.99
318.495	39.94
318.709	68.61
318.922	-11.26
319.136	-5.12
319.349	52.22
319.563	-13.31
319.776	50.18
319.99	9.22
320.203	33.79
320.417	-9.22
320.63	-3.07
320.843	35.84
321.057	58.37
321.27	95.23
321.483	3.07
321.697	97.28
321.91	-9.22
322.124	19.46
322.337	5.12
322.55	52.22
322.763	-1.02
322.977	15.36
323.19	-21.5
323.403	5.12
323.617	103.42
323.83	-19.46
324.043	72.7
324.256	66.56
324.469	-21.5
324.683	-11.26
324.896	-7.17
325.109	48.13
325.322	54.27
325.535	-13.31
325.748	72.7
325.962	21.5
326.175	33.79
326.388	60.42
326.601	-17.41
326.814	41.98
327.027	29.7
327.24	23.55
327.453	-29.7
327.666	23.55
327.879	93.18
328.092	68.61
328.305	23.55
328.518	-1.02
328.731	-5.12
328.944	68.61
329.157	132.09
329.37	48.13
329.583	19.46
329.796	125.95
330.009	54.27
330.222	-13.31
330.435	-3.07
330.648	84.99
330.861	58.37
331.073	97.28
331.286	109.57
331.499	-33.79
331.712	68.61
331.925	35.84
332.138	-7.17
332.35	50.18
332.563	-31.74
332.776	58.37
332.989	31.74
333.202	84.99
333.414	19.46
333.627	-25.6
333.84	17.41
334.053	-101.37
334.265	58.37
334.478	27.65
334.691	48.13
334.903	1.02
335.116	58.37
335.329	19.46
335.541	25.6
335.754	64.51
335.966	11.26
336.179	-3.07
336.392	-15.36
336.604	-5.12
336.817	117.76
337.029	17.41
337.242	1.02
337.454	72.7
337.667	1.02
337.88	66.56
338.092	58.37
338.305	1.02
338.517	13.31
338.729	107.52
338.942	44.03
339.154	64.51
339.367	23.55
339.579	70.65
339.792	-5.12
340.004	-1.02
340.217	44.03
340.429	31.74
340.641	39.94
340.854	56.32
341.066	5.12
341.278	-21.5
341.491	70.65
341.703	15.36
341.915	35.84
342.128	-11.26
342.34	46.08
342.552	56.32
342.764	-13.31
342.977	95.23
343.189	48.13
343.401	23.55
343.613	76.8
343.826	-5.12
344.038	-23.55
344.25	48.13
344.462	19.46
344.674	95.23
344.886	33.79
345.099	-13.31
345.311	41.98
345.523	5.12
345.735	-21.5
345.947	62.46
346.159	52.22
346.371	-1.02
346.583	97.28
346.795	93.18
347.007	25.6
347.219	52.22
347.431	41.98
347.643	-3.07
347.855	52.22
348.067	54.27
348.279	5.12
348.491	56.32
348.703	1.02
348.915	17.41
349.127	-15.36
349.339	-5.12
349.551	3.07
349.763	35.84
349.975	-27.65
350.187	17.41
350.399	-19.46
350.61	48.13
350.822	54.27
351.034	70.65
351.246	60.42
351.458	164.86
351.669	50.18
351.881	9.22
352.093	52.22
352.305	89.09
352.517	31.74
352.728	66.56
352.94	27.65
353.152	35.84
353.363	-25.6
353.575	27.65
353.787	9.22
353.999	60.42
354.21	-1.02
354.422	41.98
354.633	-7.17
354.845	58.37
355.057	33.79
355.268	23.55
355.48	70.65
355.692	31.74
355.903	74.75
356.115	35.84
356.326	-5.12
356.538	19.46
356.749	64.51
356.961	103.42
357.172	-29.7
357.384	23.55
357.595	95.23
357.807	52.22
358.018	64.51
358.23	25.6
358.441	66.56
358.653	29.7
358.864	-27.65
359.075	-1.02
359.287	-5.12
359.498	19.46
359.709	76.8
359.921	-17.41
360.132	113.66
360.344	35.84
360.555	-13.31
360.766	52.22
360.977	84.99
361.189	11.26
361.4	25.6
361.611	58.37
361.823	121.85
362.034	58.37
362.245	-11.26
362.456	21.5
362.667	31.74
362.879	35.84
363.09	41.98
363.301	1.02
363.512	44.03
363.723	-17.41
363.935	29.7
364.146	3.07
364.357	37.89
364.568	56.32
364.779	21.5
364.99	80.89
365.201	27.65
365.412	123.9
365.623	-11.26
365.834	62.46
366.045	46.08
366.256	3.07
366.467	21.5
366.678	19.46
366.889	-19.46
367.1	78.85
367.311	39.94
367.522	23.55
367.733	41.98
367.944	-17.41
368.155	52.22
368.366	68.61
368.577	29.7
368.788	109.57
368.999	-27.65
369.209	64.51
369.42	89.09
369.631	68.61
369.842	89.09
370.053	72.7
370.264	117.76
370.474	64.51
370.685	72.7
370.896	62.46
371.107	78.85
371.317	25.6
371.528	-7.17
371.739	99.33
371.95	11.26
372.16	48.13
372.371	-13.31
372.582	37.89
372.792	-31.74
373.003	-3.07
373.214	44.03
373.424	152.57
373.635	44.03
373.846	113.66
374.056	89.09
374.267	9.22
374.477	-1.02
374.688	-35.84
374.898	80.89
375.109	93.18
375.319	11.26
375.53	123.9
375.74	31.74
375.951	29.7
376.161	80.89
376.372	11.26
376.582	48.13
376.793	58.37
377.003	35.84
377.214	37.89
377.424	37.89
377.635	37.89
377.845	74.75
378.055	23.55
378.266	44.03
378.476	25.6
378.686	82.94
378.897	82.94
379.107	-3.07
379.317	84.99
379.528	111.61
379.738	68.61
379.948	68.61
380.158	35.84
380.369	58.37
380.579	84.99
380.789	5.12
380.999	7.17
381.21	70.65
381.42	50.18
381.63	29.7
381.84	15.36
382.05	68.61
382.261	89.09
382.471	27.65
382.681	21.5
382.891	74.75
383.101	130.05
383.311	33.79
383.521	35.84
383.731	39.94
383.941	78.85
384.151	48.13
384.361	15.36
384.571	80.89
384.781	132.09
384.991	97.28
385.201	54.27
385.411	115.71
385.621	33.79
385.831	35.84
386.041	70.65
386.251	33.79
386.461	29.7
386.671	13.31
386.881	93.18
387.091	74.75
387.301	91.13
387.511	27.65
387.72	31.74
387.93	99.33
388.14	13.31
388.35	41.98
388.56	160.77
388.769	87.04
388.979	68.61
389.189	50.18
389.399	78.85
389.609	35.84
389.818	121.85
390.028	68.61
390.238	41.98
390.447	25.6
390.657	97.28
390.867	41.98
391.076	31.74
391.286	74.75
391.496	54.27
391.705	134.14
391.915	109.57
392.125	41.98
392.334	64.51
392.544	11.26
392.753	46.08
392.963	91.13
393.172	41.98
393.382	44.03
393.591	93.18
393.801	25.6
394.01	113.66
394.22	123.9
394.429	136.19
394.639	74.75
394.848	33.79
395.058	123.9
395.267	41.98
395.477	105.47
395.686	54.27
395.895	72.7
396.105	113.66
396.314	99.33
396.524	93.18
396.733	60.42
396.942	97.28
397.152	101.37
397.361	23.55
397.57	80.89
397.78	111.61
397.989	50.18
398.198	103.42
398.407	115.71
398.617	89.09
398.826	72.7
399.035	109.57
399.244	62.46
399.453	39.94
399.663	115.71
399.872	128
400.081	48.13
400.29	142.33
400.499	105.47
400.708	87.04
400.917	148.48
401.127	56.32
401.336	66.56
401.545	138.24
401.754	119.81
401.963	138.24
402.172	140.29
402.381	132.09
402.59	109.57
402.799	58.37
403.008	175.1
403.217	166.91
403.426	109.57
403.635	33.79
403.844	136.19
404.053	132.09
404.262	189.44
404.471	168.96
404.68	132.09
404.888	111.61
405.097	156.67
405.306	173.05
405.515	109.57
405.724	175.1
405.933	201.72
406.142	166.91
406.35	207.87
406.559	164.86
406.768	187.39
406.977	257.02
407.185	234.49
407.394	138.24
407.603	187.39
407.812	242.68
408.02	252.92
408.229	334.84
408.438	273.4
408.646	234.49
408.855	324.6
409.064	259.07
409.272	236.54
409.481	361.47
409.69	287.74
409.898	308.22
410.107	318.46
410.315	273.4
410.524	304.12
410.733	351.23
410.941	345.08
411.15	357.37
411.358	478.2
411.567	388.09
411.775	375.8
411.984	443.39
412.192	383.99
412.401	515.06
412.609	529.4
412.818	527.35
413.026	558.07
413.234	517.11
413.443	531.45
413.651	517.11
413.86	670.71
414.068	572.41
414.276	650.23
414.485	678.9
414.693	633.85
414.901	697.33
415.11	740.34
415.318	779.25
415.526	762.87
415.734	719.86
415.943	824.31
416.151	850.93
416.359	871.41
416.567	838.64
416.776	887.79
416.984	992.24
417.192	1008.62
417.4	1037.3
417.608	1018.86
417.817	1063.92
418.025	1051.63
418.233	1283.05
418.441	1135.6
418.649	1274.86
418.857	1397.74
419.065	1324.01
419.273	1324.01
419.481	1477.61
419.689	1561.58
419.897	1641.45
420.105	1647.59
420.313	1623.02
420.521	1668.07
420.729	1704.93
420.937	1739.75
421.145	1887.2
421.353	1911.78
421.561	2098.14
421.769	2040.8
421.977	2208.73
422.185	2055.14
422.393	2300.89
422.601	2311.13
422.809	2241.5
423.017	2329.56
423.224	2567.13
423.432	2497.5
423.64	2761.69
423.848	2948.05
424.056	2704.34
424.263	2915.28
424.471	3001.3
424.679	3234.77
424.887	3302.35
425.094	3388.36
425.302	3357.64
425.51	3466.19
425.718	3501
425.925	3673.03
426.133	3742.66
426.341	4070.34
426.548	4180.93
426.756	4185.02
426.964	4330.43
427.171	4481.98
427.379	4600.76
427.586	4668.34
427.794	4897.72
428.001	4926.39
428.209	5270.45
428.417	5135.28
428.624	5524.4
428.832	5555.12
429.039	5348.27
429.247	5442.48
429.454	5845.93
429.662	6335.39
429.869	5776.3
430.076	6470.56
430.284	6316.96
430.491	6466.46
430.699	6810.52
430.906	6855.58
431.114	6990.74
431.321	7144.34
431.528	7383.95
431.736	7762.83
431.943	8100.74
432.15	7875.46
432.358	7891.85
432.565	8631.16
432.772	8332.16
432.979	8887.16
433.187	8944.5
433.394	9059.19
433.601	9784.17
433.808	9661.29
434.016	9671.53
434.223	10093.41
434.43	10615.65
434.637	10384.23
434.844	11156.31
435.052	11305.81
435.259	11260.76
435.466	11320.15
435.673	11377.49
435.88	11791.18
436.087	12546.88
436.294	12651.33
436.501	12381
436.708	12577.6
436.915	13120.31
437.122	13656.88
437.329	13579.06
437.537	14097.19
437.743	14283.56
437.95	14089
438.157	14615.33
438.364	15313.69
438.571	15176.47
438.778	15543.06
438.985	16814.85
439.192	15930.12
439.399	16753.41
439.606	16272.14
439.813	17320.7
440.02	18506.47
440.227	17822.45
440.433	17705.71
440.64	18227.95
440.847	18518.76
441.054	18612.96
441.261	20107.98
441.467	19616.47
441.674	20042.45
441.881	20984.51
442.088	20861.63
442.294	20667.08
442.501	21183.16
442.708	21555.9
442.914	22737.57
443.121	23128.74
443.328	22737.57
443.534	24228.49
443.741	23880.34
443.948	23349.92
444.154	25066.11
444.361	24836.74
444.568	25057.92
444.774	25096.83
444.981	25518.71
445.187	26102.39
445.394	27296.35
445.6	26872.42
445.807	29387.33
446.013	27888.21
446.22	28725.83
446.426	29919.8
446.633	29903.42
446.839	31091.24
447.046	29960.76
447.252	31648.29
447.459	31357.47
447.665	31490.59
447.871	32868.87
448.078	34597.36
448.284	32670.22
448.491	33196.55
448.697	35058.15
448.903	35346.92
449.11	35502.56
449.316	34654.7
449.522	35527.14
449.728	36587.99
449.935	36600.27
450.141	36803.02
450.347	37648.83
450.553	36555.22
450.76	36602.32
450.966	37941.69
451.172	37632.45
451.378	38480.31
451.584	38017.47
451.791	38812.08
451.997	38461.88
452.203	39326.12
452.409	39260.58
452.615	38920.62
452.821	37548.48
453.027	37132.75
453.233	39190.95
453.44	37771.71
453.646	37814.72
453.852	37884.35
454.058	38687.15
454.264	37333.45
454.47	38906.29
454.676	37255.62
454.882	38760.88
455.088	35150.31
455.294	35951.07
455.5	36368.85
455.705	36975.05
455.911	35336.68
456.117	34902.51
456.323	34116.09
456.529	32291.35
456.735	34054.65
456.941	33233.41
457.147	32336.4
457.352	31879.71
457.558	31001.13
457.764	31392.29
457.97	31005.22
458.176	29774.39
458.381	29932.09
458.587	28207.7
458.793	28555.85
458.999	27124.32
459.204	29049.41
459.41	28050
459.616	26286.7
459.821	26407.53
460.027	26313.33
460.233	25696.89
460.438	24498.83
460.644	24808.07
460.85	23710.36
461.055	23274.14
461.261	23423.64
461.466	21607.09
461.672	21000.9
461.878	22338.22
462.083	21109.44
462.289	20368.07
462.494	19894.99
462.7	19370.71
462.905	18672.36
463.111	19444.44
463.316	19647.19
463.522	19024.61
463.727	19129.05
463.932	19077.85
464.138	18703.07
464.343	18952.93
464.549	18416.36
464.754	18838.24
464.959	18717.41
465.165	18588.39
465.37	18324.2
465.575	17474.29
465.781	18227.95
465.986	18076.4
466.191	17822.45
466.397	17234.68
466.602	16433.93
466.807	17312.5
467.012	17201.91
467.218	16980.73
467.423	16657.15
467.628	16900.86
467.833	17609.46
