Data from USB4F104151__96__11-45-47-405.txt Node

Date: Fri Mar 14 11:45:47 EDT 2025
User: louis
Spectrometer: USB4F10415
Trigger mode: 4
Integration Time (sec): 2.000000E-2
Scans to average: 1
Electric dark correction enabled: true
Nonlinearity correction enabled: false
Boxcar width: 0
XAxis mode: Wavelengths
Number of Pixels in Spectrum: 3648
>>>>>Begin Spectral Data<<<<<
178.204	-159.4
178.424	-159.4
178.644	-159.4
178.864	-71.34
179.084	-83.63
179.304	20.82
179.524	-3.75
179.744	-34.47
179.964	14.68
180.184	14.68
180.404	2.39
180.624	10.58
180.844	-71.34
181.064	49.49
181.283	-26.28
181.503	26.96
181.723	-3.75
181.943	-9.9
182.163	39.25
182.383	41.3
182.602	55.64
182.822	51.54
183.042	41.3
183.262	-28.33
183.482	43.35
183.701	8.53
183.921	39.25
184.141	-5.8
184.361	63.83
184.58	49.49
184.8	12.63
185.02	39.25
185.239	92.5
185.459	78.16
185.679	10.58
185.898	-34.47
186.118	-30.38
186.338	63.83
186.557	53.59
186.777	100.69
186.997	-28.33
187.216	-18.09
187.436	-7.85
187.655	110.93
187.875	22.87
188.095	-24.23
188.314	-1.71
188.534	65.88
188.753	53.59
188.973	33.11
189.192	53.59
189.412	12.63
189.631	12.63
189.851	51.54
190.07	67.92
190.29	31.06
190.509	65.88
190.729	63.83
190.948	45.4
191.168	90.45
191.387	63.83
191.607	20.82
191.826	63.83
192.045	39.25
192.265	37.2
192.484	10.58
192.704	92.5
192.923	24.92
193.142	12.63
193.362	63.83
193.581	0.34
193.8	92.5
194.02	127.32
194.239	74.07
194.458	72.02
194.678	76.12
194.897	69.97
195.116	53.59
195.335	63.83
195.555	0.34
195.774	139.6
195.993	39.25
196.212	-24.23
196.432	18.77
196.651	-5.8
196.87	76.12
197.089	14.68
197.308	41.3
197.528	88.4
197.747	16.73
197.966	-34.47
198.185	67.92
198.404	29.01
198.623	4.44
198.842	14.68
199.062	63.83
199.281	72.02
199.5	6.49
199.719	76.12
199.938	39.25
200.157	72.02
200.376	-22.19
200.595	-28.33
200.814	45.4
201.033	35.16
201.252	57.68
201.471	49.49
201.69	108.88
201.909	53.59
202.128	98.64
202.347	57.68
202.566	-1.71
202.785	49.49
203.004	29.01
203.223	121.17
203.442	49.49
203.661	33.11
203.879	12.63
204.098	57.68
204.317	41.3
204.536	72.02
204.755	0.34
204.974	100.69
205.193	69.97
205.411	80.21
205.63	26.96
205.849	72.02
206.068	-11.95
206.287	94.55
206.505	20.82
206.724	72.02
206.943	4.44
207.162	-5.8
207.381	24.92
207.599	20.82
207.818	-30.38
208.037	-50.86
208.255	8.53
208.474	41.3
208.693	12.63
208.911	24.92
209.13	53.59
209.349	-28.33
209.567	121.17
209.786	35.16
210.005	45.4
210.223	-7.85
210.442	35.16
210.661	26.96
210.879	43.35
211.098	0.34
211.316	94.55
211.535	84.31
211.753	22.87
211.972	33.11
212.191	10.58
212.409	57.68
212.628	-13.99
212.846	51.54
213.065	31.06
213.283	43.35
213.502	31.06
213.72	22.87
213.938	35.16
214.157	4.44
214.375	8.53
214.594	-34.47
214.812	35.16
215.031	55.64
215.249	-32.43
215.467	10.58
215.686	18.77
215.904	16.73
216.122	18.77
216.341	8.53
216.559	16.73
216.778	35.16
216.996	2.39
217.214	35.16
217.432	-13.99
217.651	-22.19
217.869	16.73
218.087	121.17
218.306	-18.09
218.524	72.02
218.742	24.92
218.96	78.16
219.179	102.74
219.397	10.58
219.615	74.07
219.833	22.87
220.051	57.68
220.27	8.53
220.488	67.92
220.706	67.92
220.924	-1.71
221.142	-85.67
221.36	49.49
221.578	16.73
221.796	26.96
222.015	57.68
222.233	33.11
222.451	-11.95
222.669	18.77
222.887	29.01
223.105	65.88
223.323	86.36
223.541	-83.63
223.759	49.49
223.977	51.54
224.195	96.6
224.413	90.45
224.631	18.77
224.849	12.63
225.067	82.26
225.285	-1.71
225.503	47.44
225.721	-1.71
225.939	63.83
226.157	74.07
226.375	20.82
226.592	16.73
226.81	96.6
227.028	47.44
227.246	104.79
227.464	14.68
227.682	94.55
227.9	59.73
228.117	-13.99
228.335	-11.95
228.553	59.73
228.771	-44.71
228.989	72.02
229.206	10.58
229.424	49.49
229.642	45.4
229.86	80.21
230.077	51.54
230.295	90.45
230.513	39.25
230.731	108.88
230.948	53.59
231.166	74.07
231.384	-24.23
231.601	18.77
231.819	65.88
232.037	-87.72
232.254	12.63
232.472	43.35
232.689	22.87
232.907	110.93
233.125	-11.95
233.342	61.78
233.56	-13.99
233.777	55.64
233.995	12.63
234.213	92.5
234.43	51.54
234.648	67.92
234.865	-46.76
235.083	2.39
235.3	39.25
235.518	94.55
235.735	65.88
235.953	74.07
236.17	-1.71
236.388	51.54
236.605	84.31
236.822	6.49
237.04	65.88
237.257	47.44
237.475	-5.8
237.692	86.36
237.909	-1.71
238.127	22.87
238.344	-5.8
238.562	143.7
238.779	16.73
238.996	82.26
239.214	61.78
239.431	10.58
239.648	2.39
239.865	57.68
240.083	49.49
240.3	-5.8
240.517	-9.9
240.735	57.68
240.952	61.78
241.169	55.64
241.386	14.68
241.603	35.16
241.821	-11.95
242.038	65.88
242.255	88.4
242.472	84.31
242.689	-20.14
242.907	61.78
243.124	33.11
243.341	76.12
243.558	106.84
243.775	-3.75
243.992	37.2
244.209	108.88
244.426	33.11
244.643	39.25
244.86	18.77
245.078	20.82
245.295	57.68
245.512	61.78
245.729	-63.15
245.946	100.69
246.163	43.35
246.38	2.39
246.597	92.5
246.814	67.92
247.031	86.36
247.248	49.49
247.464	22.87
247.681	67.92
247.898	47.44
248.115	49.49
248.332	-7.85
248.549	20.82
248.766	49.49
248.983	4.44
249.2	51.54
249.417	74.07
249.633	-30.38
249.85	63.83
250.067	94.55
250.284	47.44
250.501	65.88
250.717	51.54
250.934	39.25
251.151	98.64
251.368	24.92
251.585	59.73
251.801	16.73
252.018	37.2
252.235	45.4
252.451	65.88
252.668	29.01
252.885	53.59
253.102	29.01
253.318	10.58
253.535	53.59
253.752	26.96
253.968	63.83
254.185	2.39
254.401	24.92
254.618	53.59
254.835	-48.81
255.051	94.55
255.268	78.16
255.484	65.88
255.701	78.16
255.917	88.4
256.134	-42.67
256.351	49.49
256.567	112.98
256.784	53.59
257	37.2
257.217	59.73
257.433	-5.8
257.65	45.4
257.866	37.2
258.082	51.54
258.299	106.84
258.515	53.59
258.732	-67.24
258.948	63.83
259.165	123.22
259.381	-22.19
259.597	31.06
259.814	57.68
260.03	43.35
260.246	67.92
260.463	43.35
260.679	51.54
260.895	76.12
261.112	10.58
261.328	35.16
261.544	39.25
261.761	98.64
261.977	49.49
262.193	-16.04
262.409	33.11
262.626	59.73
262.842	12.63
263.058	55.64
263.274	22.87
263.49	31.06
263.707	51.54
263.923	47.44
264.139	14.68
264.355	2.39
264.571	26.96
264.787	-7.85
265.004	92.5
265.22	33.11
265.436	39.25
265.652	72.02
265.868	98.64
266.084	74.07
266.3	59.73
266.516	-18.09
266.732	6.49
266.948	55.64
267.164	39.25
267.38	4.44
267.596	47.44
267.812	22.87
268.028	26.96
268.244	33.11
268.46	14.68
268.676	26.96
268.892	16.73
269.108	-65.19
269.324	33.11
269.54	-9.9
269.756	41.3
269.972	14.68
270.188	37.2
270.403	29.01
270.619	67.92
270.835	67.92
271.051	80.21
271.267	-7.85
271.483	-18.09
271.698	106.84
271.914	-18.09
272.13	47.44
272.346	0.34
272.562	0.34
272.777	92.5
272.993	24.92
273.209	14.68
273.425	72.02
273.64	-7.85
273.856	102.74
274.072	67.92
274.287	82.26
274.503	18.77
274.719	55.64
274.934	26.96
275.15	0.34
275.366	74.07
275.581	14.68
275.797	4.44
276.012	20.82
276.228	2.39
276.444	-3.75
276.659	106.84
276.875	0.34
277.09	14.68
277.306	53.59
277.521	127.32
277.737	14.68
277.952	2.39
278.168	53.59
278.383	4.44
278.599	20.82
278.814	47.44
279.03	53.59
279.245	108.88
279.461	45.4
279.676	100.69
279.892	41.3
280.107	63.83
280.322	-65.19
280.538	51.54
280.753	16.73
280.969	51.54
281.184	10.58
281.399	49.49
281.615	-5.8
281.83	76.12
282.045	37.2
282.26	-11.95
282.476	18.77
282.691	-18.09
282.906	49.49
283.122	80.21
283.337	63.83
283.552	16.73
283.767	24.92
283.983	-3.75
284.198	22.87
284.413	76.12
284.628	51.54
284.843	14.68
285.058	24.92
285.274	41.3
285.489	10.58
285.704	80.21
285.919	47.44
286.134	35.16
286.349	57.68
286.564	-34.47
286.779	65.88
286.995	51.54
287.21	8.53
287.425	53.59
287.64	78.16
287.855	88.4
288.07	29.01
288.285	112.98
288.5	96.6
288.715	88.4
288.93	12.63
289.145	35.16
289.36	80.21
289.575	55.64
289.79	80.21
290.004	-18.09
290.219	35.16
290.434	18.77
290.649	-5.8
290.864	39.25
291.079	12.63
291.294	18.77
291.509	108.88
291.724	123.22
291.938	61.78
292.153	59.73
292.368	-5.8
292.583	43.35
292.798	2.39
293.012	43.35
293.227	82.26
293.442	72.02
293.657	80.21
293.871	98.64
294.086	35.16
294.301	26.96
294.516	10.58
294.73	12.63
294.945	22.87
295.16	57.68
295.374	98.64
295.589	55.64
295.804	-5.8
296.018	47.44
296.233	151.89
296.447	39.25
296.662	61.78
296.877	53.59
297.091	29.01
297.306	45.4
297.52	18.77
297.735	35.16
297.949	-16.04
298.164	80.21
298.378	90.45
298.593	41.3
298.807	-5.8
299.022	20.82
299.236	102.74
299.451	41.3
299.665	0.34
299.88	6.49
300.094	37.2
300.309	76.12
300.523	-5.8
300.737	57.68
300.952	94.55
301.166	88.4
301.381	57.68
301.595	47.44
301.809	112.98
302.024	31.06
302.238	29.01
302.452	31.06
302.667	43.35
302.881	41.3
303.095	-1.71
303.309	20.82
303.524	24.92
303.738	18.77
303.952	16.73
304.166	55.64
304.381	26.96
304.595	55.64
304.809	-42.67
305.023	49.49
305.237	74.07
305.452	29.01
305.666	106.84
305.88	84.31
306.094	47.44
306.308	67.92
306.522	47.44
306.736	63.83
306.95	41.3
307.164	49.49
307.379	33.11
307.593	43.35
307.807	45.4
308.021	121.17
308.235	67.92
308.449	-26.28
308.663	-73.39
308.877	102.74
309.091	47.44
309.305	82.26
309.519	8.53
309.733	84.31
309.947	63.83
310.161	117.08
310.374	49.49
310.588	65.88
310.802	65.88
311.016	53.59
311.23	16.73
311.444	90.45
311.658	35.16
311.872	119.12
312.085	74.07
312.299	74.07
312.513	31.06
312.727	61.78
312.941	-7.85
313.154	84.31
313.368	35.16
313.582	45.4
313.796	-13.99
314.009	45.4
314.223	29.01
314.437	108.88
314.651	74.07
314.864	6.49
315.078	-13.99
315.292	-5.8
315.505	59.73
315.719	24.92
315.933	98.64
316.146	4.44
316.36	14.68
316.573	-3.75
316.787	20.82
317.001	16.73
317.214	-16.04
317.428	117.08
317.641	33.11
317.855	10.58
318.068	59.73
318.282	88.4
318.495	29.01
318.709	69.97
318.922	-7.85
319.136	65.88
319.349	37.2
319.563	14.68
319.776	67.92
319.99	31.06
320.203	82.26
320.417	22.87
320.63	14.68
320.843	72.02
321.057	65.88
321.27	43.35
321.483	0.34
321.697	104.79
321.91	39.25
322.124	20.82
322.337	20.82
322.55	-9.9
322.763	47.44
322.977	8.53
323.19	-22.19
323.403	43.35
323.617	55.64
323.83	69.97
324.043	55.64
324.256	43.35
324.469	59.73
324.683	59.73
324.896	78.16
325.109	18.77
325.322	24.92
325.535	74.07
325.748	55.64
325.962	10.58
326.175	33.11
326.388	76.12
326.601	37.2
326.814	92.5
327.027	53.59
327.24	149.84
327.453	47.44
327.666	119.12
327.879	24.92
328.092	76.12
328.305	20.82
328.518	94.55
328.731	29.01
328.944	86.36
329.157	12.63
329.37	-11.95
329.583	121.17
329.796	69.97
330.009	72.02
330.222	-11.95
330.435	127.32
330.648	8.53
330.861	35.16
331.073	14.68
331.286	59.73
331.499	115.03
331.712	57.68
331.925	82.26
332.138	51.54
332.35	39.25
332.563	43.35
332.776	24.92
332.989	37.2
333.202	39.25
333.414	-11.95
333.627	65.88
333.84	12.63
334.053	92.5
334.265	102.74
334.478	-13.99
334.691	-11.95
334.903	51.54
335.116	61.78
335.329	16.73
335.541	119.12
335.754	96.6
335.966	61.78
336.179	92.5
336.392	14.68
336.604	57.68
336.817	86.36
337.029	100.69
337.242	12.63
337.454	127.32
337.667	14.68
337.88	22.87
338.092	-5.8
338.305	112.98
338.517	31.06
338.729	45.4
338.942	69.97
339.154	72.02
339.367	92.5
339.579	139.6
339.792	47.44
340.004	88.4
340.217	57.68
340.429	4.44
340.641	57.68
340.854	45.4
341.066	74.07
341.278	123.22
341.491	10.58
341.703	94.55
341.915	57.68
342.128	24.92
342.34	-20.14
342.552	63.83
342.764	88.4
342.977	84.31
343.189	0.34
343.401	65.88
343.613	-32.43
343.826	-7.85
344.038	69.97
344.25	37.2
344.462	72.02
344.674	115.03
344.886	43.35
345.099	96.6
345.311	80.21
345.523	82.26
345.735	49.49
345.947	149.84
346.159	125.27
346.371	123.22
346.583	4.44
346.795	0.34
347.007	33.11
347.219	82.26
347.431	0.34
347.643	57.68
347.855	57.68
348.067	94.55
348.279	67.92
348.491	6.49
348.703	57.68
348.915	18.77
349.127	51.54
349.339	65.88
349.551	-22.19
349.763	53.59
349.975	49.49
350.187	37.2
350.399	80.21
350.61	51.54
350.822	90.45
351.034	22.87
351.246	20.82
351.458	31.06
351.669	53.59
351.881	53.59
352.093	18.77
352.305	59.73
352.517	74.07
352.728	43.35
352.94	43.35
353.152	6.49
353.363	8.53
353.575	-9.9
353.787	61.78
353.999	-1.71
354.21	74.07
354.422	31.06
354.633	51.54
354.845	14.68
355.057	115.03
355.268	29.01
355.48	98.64
355.692	61.78
355.903	127.32
356.115	59.73
356.326	31.06
356.538	102.74
356.749	51.54
356.961	96.6
357.172	129.36
357.384	41.3
357.595	-26.28
357.807	123.22
358.018	0.34
358.23	-32.43
358.441	8.53
358.653	98.64
358.864	72.02
359.075	-3.75
359.287	43.35
359.498	72.02
359.709	76.12
359.921	55.64
360.132	76.12
360.344	88.4
360.555	-57
360.766	82.26
360.977	49.49
361.189	67.92
361.4	39.25
361.611	49.49
361.823	6.49
362.034	39.25
362.245	115.03
362.456	63.83
362.667	49.49
362.879	-5.8
363.09	43.35
363.301	94.55
363.512	45.4
363.723	24.92
363.935	67.92
364.146	67.92
364.357	94.55
364.568	-1.71
364.779	18.77
364.99	90.45
365.201	63.83
365.412	72.02
365.623	49.49
365.834	53.59
366.045	14.68
366.256	147.8
366.467	-5.8
366.678	115.03
366.889	51.54
367.1	106.84
367.311	108.88
367.522	96.6
367.733	133.46
367.944	92.5
368.155	69.97
368.366	94.55
368.577	137.56
368.788	82.26
368.999	35.16
369.209	24.92
369.42	100.69
369.631	76.12
369.842	2.39
370.053	31.06
370.264	61.78
370.474	80.21
370.685	49.49
370.896	74.07
371.107	59.73
371.317	119.12
371.528	57.68
371.739	104.79
371.95	108.88
372.16	125.27
372.371	-38.57
372.582	47.44
372.792	31.06
373.003	6.49
373.214	20.82
373.424	80.21
373.635	41.3
373.846	22.87
374.056	69.97
374.267	55.64
374.477	80.21
374.688	92.5
374.898	133.46
375.109	63.83
375.319	51.54
375.53	61.78
375.74	2.39
375.951	8.53
376.161	61.78
376.372	119.12
376.582	41.3
376.793	141.65
377.003	26.96
377.214	84.31
377.424	82.26
377.635	76.12
377.845	59.73
378.055	123.22
378.266	10.58
378.476	65.88
378.686	29.01
378.897	37.2
379.107	74.07
379.317	-32.43
379.528	96.6
379.738	98.64
379.948	35.16
380.158	-3.75
380.369	67.92
380.579	37.2
380.789	104.79
380.999	29.01
381.21	16.73
381.42	90.45
381.63	8.53
381.84	90.45
382.05	10.58
382.261	98.64
382.471	12.63
382.681	41.3
382.891	47.44
383.101	4.44
383.311	96.6
383.521	35.16
383.731	137.56
383.941	106.84
384.151	47.44
384.361	92.5
384.571	26.96
384.781	90.45
384.991	121.17
385.201	82.26
385.411	121.17
385.621	82.26
385.831	119.12
386.041	18.77
386.251	82.26
386.461	-22.19
386.671	121.17
386.881	76.12
387.091	16.73
387.301	123.22
387.511	16.73
387.72	55.64
387.93	76.12
388.14	18.77
388.35	76.12
388.56	80.21
388.769	63.83
388.979	145.75
389.189	74.07
389.399	139.6
389.609	47.44
389.818	88.4
390.028	33.11
390.238	18.77
390.447	37.2
390.657	53.59
390.867	35.16
391.076	39.25
391.286	92.5
391.496	69.97
391.705	24.92
391.915	90.45
392.125	39.25
392.334	96.6
392.544	110.93
392.753	14.68
392.963	63.83
393.172	0.34
393.382	10.58
393.591	184.66
393.801	84.31
394.01	176.47
394.22	37.2
394.429	72.02
394.639	88.4
394.848	108.88
395.058	76.12
395.267	117.08
395.477	98.64
395.686	33.11
395.895	121.17
396.105	106.84
396.314	131.41
396.524	117.08
396.733	100.69
396.942	174.42
397.152	98.64
397.361	127.32
397.57	92.5
397.78	76.12
397.989	213.33
398.198	194.9
398.407	108.88
398.617	106.84
398.826	78.16
399.035	158.03
399.244	135.51
399.453	78.16
399.663	84.31
399.872	141.65
400.081	24.92
400.29	143.7
400.499	82.26
400.708	110.93
400.917	106.84
401.127	117.08
401.336	96.6
401.545	205.14
401.754	100.69
401.963	155.99
402.172	137.56
402.381	160.08
402.59	108.88
402.799	182.61
403.008	174.42
403.217	74.07
403.426	43.35
403.635	102.74
403.844	49.49
404.053	184.66
404.262	86.36
404.471	166.23
404.68	141.65
404.888	112.98
405.097	160.08
405.306	164.18
405.515	233.81
405.724	153.94
405.933	227.67
406.142	176.47
406.35	84.31
406.559	125.27
406.768	162.13
406.977	190.8
407.185	176.47
407.394	108.88
407.603	190.8
407.812	235.86
408.02	223.57
408.229	196.95
408.438	237.91
408.646	184.66
408.855	178.51
409.064	174.42
409.272	287.06
409.481	268.63
409.69	209.23
409.898	221.52
410.107	332.11
410.315	235.86
410.524	274.77
410.733	258.39
410.941	278.87
411.15	362.83
411.358	371.02
411.567	373.07
411.775	420.17
411.984	381.26
412.192	434.51
412.401	377.17
412.609	371.02
412.818	452.94
413.026	403.79
413.234	467.28
413.443	467.28
413.651	483.66
413.86	543.05
414.068	598.35
414.276	588.11
414.485	506.19
414.693	624.97
414.901	651.6
415.11	680.27
415.318	596.3
415.526	663.88
415.734	657.74
415.943	651.6
416.151	670.03
416.359	846.15
416.567	764.23
416.776	784.71
416.984	786.76
417.192	862.54
417.4	860.49
417.608	850.25
417.817	954.69
418.025	813.38
418.233	1075.52
418.441	973.13
418.649	948.55
418.857	1151.3
419.065	1098.05
419.273	975.17
419.481	1278.27
419.689	1214.79
419.897	1263.94
420.105	1349.95
420.313	1358.14
420.521	1362.24
420.729	1388.86
420.937	1517.89
421.145	1575.23
421.353	1507.65
421.561	1747.26
421.769	1655.1
421.977	1769.79
422.185	1814.84
422.393	1927.48
422.601	1947.96
422.809	1831.23
423.017	1947.96
423.224	1993.01
423.432	2175.28
423.64	2128.18
423.848	2308.4
424.056	2230.58
424.263	2437.42
424.471	2576.69
424.679	2445.62
424.887	2689.32
425.094	2779.43
425.302	2697.52
425.51	2869.55
425.718	2894.12
425.925	3004.71
426.133	3041.57
426.341	3375.39
426.548	3356.96
426.756	3397.92
426.964	3344.67
427.171	3565.85
427.379	3705.12
427.586	3623.2
427.794	4053.27
428.001	4096.28
428.209	4288.79
428.417	4180.25
428.624	4481.3
428.832	4612.37
429.039	4448.53
429.247	4432.15
429.454	4946.19
429.662	5144.84
429.869	4811.02
430.076	5083.4
430.284	4948.23
430.491	5329.16
430.699	5435.65
430.906	5556.48
431.114	5603.58
431.321	5865.72
431.528	5970.17
431.736	6170.87
431.943	6537.46
432.15	6314.23
432.358	6504.69
432.565	6861.04
432.772	6813.93
432.979	7094.51
433.187	7299.3
433.394	7225.58
433.601	7901.4
433.808	7868.64
434.016	7817.44
434.223	7991.52
434.43	8552.66
434.637	8419.54
434.844	9027.79
435.052	9140.43
435.259	8915.15
435.466	9308.36
435.673	9175.24
435.88	9797.82
436.087	10178.75
436.294	10291.38
436.501	9957.57
436.708	10131.64
436.915	10434.74
437.122	11104.43
437.329	11159.72
437.537	11530.41
437.743	11438.25
437.95	11462.82
438.157	12146.84
438.364	12417.18
438.571	12353.69
438.778	12386.46
438.985	13809.79
439.192	13238.41
439.399	13312.14
439.606	13314.19
439.813	13842.56
440.02	14659.7
440.227	14542.97
440.433	14368.89
440.64	14868.59
440.847	14878.83
441.054	15024.24
441.261	16244.83
441.467	15949.92
441.674	16386.14
441.881	16916.56
442.088	16650.33
442.294	16728.15
442.501	16937.04
442.708	17451.08
442.914	18128.96
443.121	19011.64
443.328	18419.77
443.534	19898.41
443.741	19073.07
443.948	18767.93
444.154	20181.03
444.361	20164.64
444.568	20213.79
444.774	20383.77
444.981	20609.05
445.187	21391.37
445.394	22011.91
445.6	21905.42
445.807	23691.24
446.013	23037.94
446.22	23209.97
446.426	23908.33
446.633	24211.43
446.839	25059.29
447.046	23818.22
447.252	25247.7
447.459	25546.7
447.665	25139.16
447.871	26494.91
448.078	27393.97
448.284	26273.73
448.491	26824.64
448.697	28077.99
448.903	28630.94
449.11	28663.71
449.316	28360.61
449.522	28966.81
449.728	29491.09
449.935	29738.9
450.141	29863.82
450.347	30445.44
450.553	29390.74
450.76	29810.57
450.966	30867.33
451.172	30261.13
451.378	31076.22
451.584	30592.9
451.791	31328.12
451.997	31420.28
452.203	31682.42
452.409	31813.49
452.615	31555.44
452.821	30543.75
453.027	30023.56
453.233	31969.13
453.44	30353.29
453.646	31121.27
453.852	31004.54
454.058	31657.84
454.264	30556.04
454.47	31219.58
454.676	30529.41
454.882	31436.66
455.088	28800.93
455.294	29126.55
455.5	29554.58
455.705	30140.3
455.911	28546.98
456.117	28014.51
456.323	27848.62
456.529	26240.96
456.735	27682.73
456.941	26734.53
457.147	26410.95
457.352	25102.29
457.558	25026.52
457.764	25389.01
457.97	24760.28
458.176	24350.69
458.381	24049.64
458.587	22724.6
458.793	23351.28
458.999	21981.19
459.204	23527.41
459.41	22568.96
459.616	21452.81
459.821	21673.99
460.027	21356.56
460.233	20781.08
460.438	19650.6
460.644	20162.59
460.85	19036.21
461.055	18683.96
461.261	18841.65
461.466	17487.95
461.672	16918.61
461.878	18044.99
462.083	16898.13
462.289	16504.92
462.494	16281.69
462.7	15427.69
462.905	15345.77
463.111	15886.43
463.316	15863.91
463.522	15499.37
463.727	15366.25
463.932	15374.44
464.138	15263.85
464.343	15306.86
464.549	14745.72
464.754	15255.66
464.959	15169.65
465.165	15046.77
465.37	14555.26
465.575	13992.06
465.781	14712.95
465.986	14864.5
466.191	14112.89
466.397	13924.48
466.602	13064.33
466.807	13785.22
467.012	13605
467.218	13705.35
467.423	13590.66
467.628	13627.53
467.833	14143.61
468.038	13631.62
