Data from USB4F104151__61__11-45-18-669.txt Node

Date: Fri Mar 14 11:45:18 EDT 2025
User: louis
Spectrometer: USB4F10415
Trigger mode: 4
Integration Time (sec): 2.000000E-2
Scans to average: 1
Electric dark correction enabled: true
Nonlinearity correction enabled: false
Boxcar width: 0
XAxis mode: Wavelengths
Number of Pixels in Spectrum: 3648
>>>>>Begin Spectral Data<<<<<
178.204	-102.06
178.424	-102.06
178.644	-102.06
178.864	-85.67
179.084	-79.53
179.304	-48.81
179.524	6.49
179.744	-36.52
179.964	14.68
180.184	-16.04
180.404	8.53
180.624	-5.8
180.844	35.16
181.064	-32.43
181.283	41.3
181.503	10.58
181.723	22.87
181.943	-83.63
182.163	41.3
182.383	55.64
182.602	69.97
182.822	-11.95
183.042	61.78
183.262	2.39
183.482	-1.71
183.701	29.01
183.921	8.53
184.141	-13.99
184.361	-1.71
184.58	39.25
184.8	35.16
185.02	16.73
185.239	84.31
185.459	-11.95
185.679	65.88
185.898	41.3
186.118	22.87
186.338	-40.62
186.557	67.92
186.777	-3.75
186.997	22.87
187.216	22.87
187.436	39.25
187.655	69.97
187.875	104.79
188.095	33.11
188.314	29.01
188.534	18.77
188.753	26.96
188.973	20.82
189.192	67.92
189.412	10.58
189.631	26.96
189.851	53.59
190.07	69.97
190.29	41.3
190.509	-28.33
190.729	-20.14
190.948	59.73
191.168	80.21
191.387	14.68
191.607	-7.85
191.826	61.78
192.045	-20.14
192.265	39.25
192.484	6.49
192.704	43.35
192.923	31.06
193.142	14.68
193.362	20.82
193.581	119.12
193.8	-7.85
194.02	53.59
194.239	43.35
194.458	133.46
194.678	-65.19
194.897	16.73
195.116	-24.23
195.335	74.07
195.555	24.92
195.774	8.53
195.993	57.68
196.212	0.34
196.432	67.92
196.651	49.49
196.87	74.07
197.089	82.26
197.308	26.96
197.528	57.68
197.747	12.63
197.966	-5.8
198.185	55.64
198.404	22.87
198.623	72.02
198.842	55.64
199.062	-32.43
199.281	-24.23
199.5	0.34
199.719	117.08
199.938	74.07
200.157	31.06
200.376	61.78
200.595	49.49
200.814	35.16
201.033	10.58
201.252	137.56
201.471	35.16
201.69	65.88
201.909	24.92
202.128	63.83
202.347	12.63
202.566	125.27
202.785	47.44
203.004	82.26
203.223	139.6
203.442	24.92
203.661	76.12
203.879	18.77
204.098	26.96
204.317	37.2
204.536	76.12
204.755	10.58
204.974	8.53
205.193	-1.71
205.411	65.88
205.63	39.25
205.849	2.39
206.068	33.11
206.287	10.58
206.505	53.59
206.724	-16.04
206.943	-22.19
207.162	43.35
207.381	65.88
207.599	65.88
207.818	53.59
208.037	29.01
208.255	-1.71
208.474	102.74
208.693	18.77
208.911	-5.8
209.13	74.07
209.349	18.77
209.567	43.35
209.786	63.83
210.005	96.6
210.223	43.35
210.442	47.44
210.661	-20.14
210.879	110.93
211.098	-7.85
211.316	104.79
211.535	31.06
211.753	37.2
211.972	61.78
212.191	106.84
212.409	98.64
212.628	41.3
212.846	104.79
213.065	51.54
213.283	78.16
213.502	65.88
213.72	74.07
213.938	41.3
214.157	43.35
214.375	4.44
214.594	2.39
214.812	20.82
215.031	29.01
215.249	-20.14
215.467	82.26
215.686	-42.67
215.904	92.5
216.122	33.11
216.341	20.82
216.559	112.98
216.778	88.4
216.996	33.11
217.214	16.73
217.432	65.88
217.651	53.59
217.869	53.59
218.087	18.77
218.306	-5.8
218.524	10.58
218.742	16.73
218.96	12.63
219.179	10.58
219.397	57.68
219.615	31.06
219.833	65.88
220.051	-65.19
220.27	51.54
220.488	24.92
220.706	33.11
220.924	0.34
221.142	26.96
221.36	37.2
221.578	51.54
221.796	-42.67
222.015	0.34
222.233	0.34
222.451	18.77
222.669	-13.99
222.887	49.49
223.105	72.02
223.323	-7.85
223.541	31.06
223.759	31.06
223.977	24.92
224.195	57.68
224.413	86.36
224.631	8.53
224.849	-3.75
225.067	-7.85
225.285	39.25
225.503	80.21
225.721	0.34
225.939	31.06
226.157	-5.8
226.375	139.6
226.592	-5.8
226.81	45.4
227.028	80.21
227.246	57.68
227.464	-3.75
227.682	80.21
227.9	-3.75
228.117	-5.8
228.335	61.78
228.553	65.88
228.771	10.58
228.989	67.92
229.206	59.73
229.424	-9.9
229.642	41.3
229.86	33.11
230.077	63.83
230.295	-28.33
230.513	20.82
230.731	53.59
230.948	82.26
231.166	24.92
231.384	6.49
231.601	29.01
231.819	104.79
232.037	49.49
232.254	61.78
232.472	-9.9
232.689	18.77
232.907	78.16
233.125	24.92
233.342	6.49
233.56	2.39
233.777	82.26
233.995	76.12
234.213	43.35
234.43	57.68
234.648	-7.85
234.865	-7.85
235.083	65.88
235.3	12.63
235.518	29.01
235.735	37.2
235.953	69.97
236.17	-57
236.388	39.25
236.605	33.11
236.822	61.78
237.04	35.16
237.257	22.87
237.475	16.73
237.692	31.06
237.909	82.26
238.127	74.07
238.344	-42.67
238.562	88.4
238.779	33.11
238.996	51.54
239.214	33.11
239.431	135.51
239.648	-11.95
239.865	45.4
240.083	37.2
240.3	69.97
240.517	59.73
240.735	20.82
240.952	80.21
241.169	39.25
241.386	84.31
241.603	12.63
241.821	-11.95
242.038	29.01
242.255	67.92
242.472	72.02
242.689	31.06
242.907	86.36
243.124	22.87
243.341	72.02
243.558	-28.33
243.775	49.49
243.992	-9.9
244.209	61.78
244.426	88.4
244.643	45.4
244.86	-9.9
245.078	63.83
245.295	96.6
245.512	72.02
245.729	20.82
245.946	61.78
246.163	90.45
246.38	76.12
246.597	35.16
246.814	-7.85
247.031	20.82
247.248	127.32
247.464	61.78
247.681	-16.04
247.898	49.49
248.115	123.22
248.332	2.39
248.549	43.35
248.766	100.69
248.983	92.5
249.2	29.01
249.417	76.12
249.633	-1.71
249.85	-9.9
250.067	8.53
250.284	76.12
250.501	37.2
250.717	69.97
250.934	43.35
251.151	-16.04
251.368	31.06
251.585	29.01
251.801	39.25
252.018	29.01
252.235	-26.28
252.451	-7.85
252.668	24.92
252.885	63.83
253.102	63.83
253.318	102.74
253.535	35.16
253.752	49.49
253.968	29.01
254.185	51.54
254.401	82.26
254.618	-5.8
254.835	-73.39
255.051	82.26
255.268	82.26
255.484	29.01
255.701	-16.04
255.917	39.25
256.134	57.68
256.351	-40.62
256.567	-1.71
256.784	45.4
257	-67.24
257.217	6.49
257.433	29.01
257.65	92.5
257.866	78.16
258.082	4.44
258.299	-26.28
258.515	76.12
258.732	-1.71
258.948	69.97
259.165	55.64
259.381	94.55
259.597	37.2
259.814	39.25
260.03	2.39
260.246	-16.04
260.463	61.78
260.679	-13.99
260.895	53.59
261.112	76.12
261.328	0.34
261.544	12.63
261.761	72.02
261.977	94.55
262.193	33.11
262.409	31.06
262.626	69.97
262.842	92.5
263.058	45.4
263.274	-3.75
263.49	39.25
263.707	57.68
263.923	33.11
264.139	18.77
264.355	26.96
264.571	41.3
264.787	76.12
265.004	110.93
265.22	43.35
265.436	4.44
265.652	41.3
265.868	31.06
266.084	63.83
266.3	104.79
266.516	10.58
266.732	33.11
266.948	49.49
267.164	-18.09
267.38	49.49
267.596	61.78
267.812	139.6
268.028	98.64
268.244	47.44
268.46	12.63
268.676	8.53
268.892	14.68
269.108	0.34
269.324	41.3
269.54	47.44
269.756	65.88
269.972	104.79
270.188	10.58
270.403	-7.85
270.619	59.73
270.835	43.35
271.051	18.77
271.267	55.64
271.483	51.54
271.698	33.11
271.914	69.97
272.13	112.98
272.346	59.73
272.562	26.96
272.777	102.74
272.993	18.77
273.209	-3.75
273.425	49.49
273.64	12.63
273.856	139.6
274.072	31.06
274.287	-20.14
274.503	94.55
274.719	37.2
274.934	6.49
275.15	24.92
275.366	26.96
275.581	12.63
275.797	51.54
276.012	26.96
276.228	41.3
276.444	49.49
276.659	65.88
276.875	8.53
277.09	47.44
277.306	29.01
277.521	123.22
277.737	76.12
277.952	2.39
278.168	115.03
278.383	35.16
278.599	16.73
278.814	43.35
279.03	39.25
279.245	49.49
279.461	26.96
279.676	80.21
279.892	37.2
280.107	6.49
280.322	20.82
280.538	24.92
280.753	-1.71
280.969	43.35
281.184	86.36
281.399	14.68
281.615	86.36
281.83	131.41
282.045	61.78
282.26	33.11
282.476	76.12
282.691	24.92
282.906	24.92
283.122	119.12
283.337	-18.09
283.552	16.73
283.767	-26.28
283.983	-7.85
284.198	80.21
284.413	35.16
284.628	31.06
284.843	10.58
285.058	104.79
285.274	31.06
285.489	51.54
285.704	-34.47
285.919	67.92
286.134	-30.38
286.349	57.68
286.564	63.83
286.779	96.6
286.995	92.5
287.21	10.58
287.425	41.3
287.64	10.58
287.855	6.49
288.07	33.11
288.285	76.12
288.5	102.74
288.715	106.84
288.93	57.68
289.145	76.12
289.36	96.6
289.575	-5.8
289.79	8.53
290.004	61.78
290.219	78.16
290.434	33.11
290.649	24.92
290.864	106.84
291.079	41.3
291.294	49.49
291.509	-1.71
291.724	63.83
291.938	8.53
292.153	135.51
292.368	-3.75
292.583	94.55
292.798	35.16
293.012	82.26
293.227	63.83
293.442	98.64
293.657	-1.71
293.871	63.83
294.086	37.2
294.301	100.69
294.516	39.25
294.73	6.49
294.945	43.35
295.16	6.49
295.374	74.07
295.589	61.78
295.804	-7.85
296.018	29.01
296.233	127.32
296.447	125.27
296.662	49.49
296.877	22.87
297.091	-9.9
297.306	-7.85
297.52	-46.76
297.735	43.35
297.949	67.92
298.164	43.35
298.378	43.35
298.593	61.78
298.807	65.88
299.022	117.08
299.236	86.36
299.451	14.68
299.665	-9.9
299.88	24.92
300.094	51.54
300.309	76.12
300.523	4.44
300.737	39.25
300.952	55.64
301.166	45.4
301.381	90.45
301.595	12.63
301.809	-1.71
302.024	78.16
302.238	2.39
302.452	37.2
302.667	16.73
302.881	-16.04
303.095	18.77
303.309	-26.28
303.524	-11.95
303.738	22.87
303.952	29.01
304.166	80.21
304.381	67.92
304.595	57.68
304.809	37.2
305.023	133.46
305.237	31.06
305.452	106.84
305.666	-18.09
305.88	84.31
306.094	39.25
306.308	100.69
306.522	31.06
306.736	78.16
306.95	51.54
307.164	22.87
307.379	74.07
307.593	29.01
307.807	29.01
308.021	31.06
308.235	31.06
308.449	16.73
308.663	127.32
308.877	80.21
309.091	-22.19
309.305	39.25
309.519	35.16
309.733	82.26
309.947	16.73
310.161	69.97
310.374	74.07
310.588	110.93
310.802	10.58
311.016	45.4
311.23	67.92
311.444	76.12
311.658	12.63
311.872	24.92
312.085	102.74
312.299	65.88
312.513	35.16
312.727	78.16
312.941	35.16
313.154	84.31
313.368	37.2
313.582	26.96
313.796	8.53
314.009	112.98
314.223	24.92
314.437	33.11
314.651	80.21
314.864	78.16
315.078	102.74
315.292	-40.62
315.505	18.77
315.719	-1.71
315.933	55.64
316.146	47.44
316.36	65.88
316.573	78.16
316.787	-3.75
317.001	37.2
317.214	43.35
317.428	-34.47
317.641	41.3
317.855	8.53
318.068	90.45
318.282	76.12
318.495	84.31
318.709	59.73
318.922	10.58
319.136	100.69
319.349	82.26
319.563	47.44
319.776	29.01
319.99	41.3
320.203	88.4
320.417	14.68
320.63	39.25
320.843	96.6
321.057	51.54
321.27	63.83
321.483	24.92
321.697	43.35
321.91	90.45
322.124	92.5
322.337	76.12
322.55	72.02
322.763	80.21
322.977	74.07
323.19	57.68
323.403	39.25
323.617	82.26
323.83	98.64
324.043	-13.99
324.256	33.11
324.469	55.64
324.683	84.31
324.896	149.84
325.109	61.78
325.322	20.82
325.535	86.36
325.748	35.16
325.962	65.88
326.175	22.87
326.388	82.26
326.601	10.58
326.814	69.97
327.027	-38.57
327.24	61.78
327.453	55.64
327.666	106.84
327.879	39.25
328.092	57.68
328.305	67.92
328.518	29.01
328.731	10.58
328.944	55.64
329.157	59.73
329.37	39.25
329.583	86.36
329.796	67.92
330.009	49.49
330.222	92.5
330.435	63.83
330.648	29.01
330.861	49.49
331.073	16.73
331.286	84.31
331.499	88.4
331.712	69.97
331.925	90.45
332.138	59.73
332.35	41.3
332.563	69.97
332.776	94.55
332.989	59.73
333.202	39.25
333.414	29.01
333.627	82.26
333.84	-7.85
334.053	119.12
334.265	14.68
334.478	29.01
334.691	63.83
334.903	65.88
335.116	45.4
335.329	67.92
335.541	55.64
335.754	49.49
335.966	-28.33
336.179	90.45
336.392	102.74
336.604	-1.71
336.817	72.02
337.029	47.44
337.242	31.06
337.454	172.37
337.667	22.87
337.88	106.84
338.092	61.78
338.305	35.16
338.517	45.4
338.729	43.35
338.942	117.08
339.154	-20.14
339.367	110.93
339.579	67.92
339.792	104.79
340.004	164.18
340.217	39.25
340.429	133.46
340.641	84.31
340.854	-9.9
341.066	59.73
341.278	29.01
341.491	29.01
341.703	82.26
341.915	26.96
342.128	37.2
342.34	33.11
342.552	26.96
342.764	10.58
342.977	88.4
343.189	8.53
343.401	80.21
343.613	49.49
343.826	53.59
344.038	24.92
344.25	92.5
344.462	61.78
344.674	35.16
344.886	84.31
345.099	76.12
345.311	49.49
345.523	-36.52
345.735	-46.76
345.947	31.06
346.159	20.82
346.371	74.07
346.583	-20.14
346.795	127.32
347.007	88.4
347.219	94.55
347.431	10.58
347.643	106.84
347.855	-48.81
348.067	29.01
348.279	55.64
348.491	49.49
348.703	94.55
348.915	41.3
349.127	94.55
349.339	18.77
349.551	43.35
349.763	65.88
349.975	74.07
350.187	133.46
350.399	24.92
350.61	24.92
350.822	51.54
351.034	119.12
351.246	26.96
351.458	8.53
351.669	76.12
351.881	61.78
352.093	100.69
352.305	51.54
352.517	53.59
352.728	110.93
352.94	39.25
353.152	110.93
353.363	18.77
353.575	47.44
353.787	67.92
353.999	80.21
354.21	145.75
354.422	26.96
354.633	92.5
354.845	53.59
355.057	67.92
355.268	168.27
355.48	72.02
355.692	47.44
355.903	94.55
356.115	41.3
356.326	8.53
356.538	115.03
356.749	59.73
356.961	35.16
357.172	76.12
357.384	67.92
357.595	135.51
357.807	92.5
358.018	-9.9
358.23	98.64
358.441	41.3
358.653	10.58
358.864	90.45
359.075	45.4
359.287	2.39
359.498	78.16
359.709	2.39
359.921	127.32
360.132	82.26
360.344	-26.28
360.555	127.32
360.766	29.01
360.977	108.88
361.189	0.34
361.4	2.39
361.611	10.58
361.823	65.88
362.034	31.06
362.245	92.5
362.456	37.2
362.667	67.92
362.879	43.35
363.09	51.54
363.301	139.6
363.512	65.88
363.723	20.82
363.935	20.82
364.146	76.12
364.357	90.45
364.568	98.64
364.779	65.88
364.99	67.92
365.201	100.69
365.412	106.84
365.623	82.26
365.834	119.12
366.045	26.96
366.256	69.97
366.467	139.6
366.678	55.64
366.889	24.92
367.1	-36.52
367.311	80.21
367.522	-16.04
367.733	33.11
367.944	104.79
368.155	53.59
368.366	29.01
368.577	35.16
368.788	90.45
368.999	57.68
369.209	37.2
369.42	57.68
369.631	82.26
369.842	78.16
370.053	110.93
370.264	47.44
370.474	61.78
370.685	69.97
370.896	76.12
371.107	121.17
371.317	26.96
371.528	76.12
371.739	61.78
371.95	67.92
372.16	174.42
372.371	22.87
372.582	61.78
372.792	55.64
373.003	102.74
373.214	84.31
373.424	74.07
373.635	31.06
373.846	88.4
374.056	115.03
374.267	129.36
374.477	69.97
374.688	69.97
374.898	24.92
375.109	112.98
375.319	102.74
375.53	20.82
375.74	45.4
375.951	182.61
376.161	37.2
376.372	84.31
376.582	-22.19
376.793	37.2
377.003	-1.71
377.214	92.5
377.424	-1.71
377.635	90.45
377.845	65.88
378.055	29.01
378.266	-5.8
378.476	106.84
378.686	94.55
378.897	104.79
379.107	78.16
379.317	76.12
379.528	76.12
379.738	72.02
379.948	80.21
380.158	72.02
380.369	37.2
380.579	84.31
380.789	123.22
380.999	78.16
381.21	45.4
381.42	88.4
381.63	147.8
381.84	137.56
382.05	72.02
382.261	164.18
382.471	12.63
382.681	51.54
382.891	143.7
383.101	41.3
383.311	31.06
383.521	153.94
383.731	106.84
383.941	92.5
384.151	0.34
384.361	57.68
384.571	72.02
384.781	104.79
384.991	100.69
385.201	31.06
385.411	125.27
385.621	57.68
385.831	67.92
386.041	100.69
386.251	84.31
386.461	110.93
386.671	65.88
386.881	80.21
387.091	90.45
387.301	115.03
387.511	100.69
387.72	86.36
387.93	63.83
388.14	33.11
388.35	59.73
388.56	74.07
388.769	92.5
388.979	198.99
389.189	61.78
389.399	119.12
389.609	119.12
389.818	80.21
390.028	39.25
390.238	69.97
390.447	88.4
390.657	178.51
390.867	92.5
391.076	41.3
391.286	94.55
391.496	74.07
391.705	37.2
391.915	35.16
392.125	110.93
392.334	94.55
392.544	90.45
392.753	108.88
392.963	74.07
393.172	147.8
393.382	47.44
393.591	125.27
393.801	45.4
394.01	104.79
394.22	147.8
394.429	131.41
394.639	63.83
394.848	164.18
395.058	121.17
395.267	72.02
395.477	162.13
395.686	131.41
395.895	80.21
396.105	121.17
396.314	86.36
396.524	117.08
396.733	117.08
396.942	207.19
397.152	45.4
397.361	94.55
397.57	72.02
397.78	49.49
397.989	151.89
398.198	110.93
398.407	151.89
398.617	59.73
398.826	137.56
399.035	96.6
399.244	149.84
399.453	57.68
399.663	115.03
399.872	94.55
400.081	223.57
400.29	86.36
400.499	72.02
400.708	149.84
400.917	121.17
401.127	178.51
401.336	145.75
401.545	223.57
401.754	65.88
401.963	168.27
402.172	102.74
402.381	143.7
402.59	104.79
402.799	88.4
403.008	137.56
403.217	94.55
403.426	209.23
403.635	129.36
403.844	155.99
404.053	121.17
404.262	186.71
404.471	205.14
404.68	184.66
404.888	141.65
405.097	176.47
405.306	153.94
405.515	160.08
405.724	205.14
405.933	145.75
406.142	190.8
406.35	174.42
406.559	213.33
406.768	186.71
406.977	192.85
407.185	201.04
407.394	149.84
407.603	235.86
407.812	301.39
408.02	301.39
408.229	194.9
408.438	244.05
408.646	201.04
408.855	282.96
409.064	291.15
409.272	309.58
409.481	366.93
409.69	256.34
409.898	297.3
410.107	319.82
410.315	293.2
410.524	362.83
410.733	385.36
410.941	340.3
411.15	411.98
411.358	364.88
411.567	446.8
411.775	405.84
411.984	483.66
412.192	416.08
412.401	487.76
412.609	553.29
412.818	567.63
413.026	506.19
413.234	602.44
413.443	420.17
413.651	563.53
413.86	655.69
414.068	655.69
414.276	604.49
414.485	672.08
414.693	670.03
414.901	776.52
415.11	706.89
415.318	819.53
415.526	829.77
415.734	803.15
415.943	907.59
416.151	911.69
416.359	823.62
416.567	938.31
416.776	989.51
416.984	1020.23
417.192	1087.81
417.4	1036.61
417.608	1065.29
417.817	1100.1
418.025	1184.07
418.233	1286.47
418.441	1233.22
418.649	1278.27
418.857	1345.86
419.065	1360.19
419.273	1435.97
419.481	1431.87
419.689	1521.98
419.897	1532.22
420.105	1710.4
420.313	1618.24
420.521	1622.33
420.729	1737.02
420.937	1802.55
421.145	1861.94
421.353	1997.11
421.561	2119.99
421.769	2122.04
421.977	2220.34
422.185	2158.9
422.393	2306.35
422.601	2322.74
422.809	2369.84
423.017	2429.23
423.224	2527.53
423.432	2656.56
423.64	2681.13
423.848	2971.94
424.056	2791.72
424.263	3047.72
424.471	3019.05
424.679	3092.77
424.887	3199.27
425.094	3471.65
425.302	3399.97
425.51	3467.55
425.718	3488.03
425.925	3612.96
426.133	3709.21
426.341	3971.35
426.548	4221.2
426.756	4196.63
426.964	4266.26
427.171	4612.37
427.379	4546.83
427.586	4606.22
427.794	4733.2
428.001	5015.82
428.209	5179.65
428.417	5132.55
428.624	5380.36
428.832	5525.76
429.039	5443.84
429.247	5443.84
429.454	6115.58
429.662	6332.66
429.869	6002.94
430.076	6447.35
430.284	6230.26
430.491	6570.23
430.699	6799.6
430.906	6936.81
431.114	7031.02
431.321	7211.24
431.528	7272.68
431.736	7725.28
431.943	8362.2
432.15	7874.78
432.358	7995.61
432.565	8483.03
432.772	8562.9
432.979	8972.49
433.187	9158.86
433.394	9144.52
433.601	9545.92
433.808	9605.31
434.016	9431.24
434.223	10279.1
434.43	10651.83
434.637	10549.43
434.844	11098.28
435.052	11145.39
435.259	11042.99
435.466	11389.1
435.673	11258.03
435.88	11837.6
436.087	12802.19
436.294	12691.6
436.501	12341.4
436.708	12683.41
436.915	13017.23
437.122	13541.51
437.329	13645.96
437.537	13936.77
437.743	14252.16
437.95	13977.73
438.157	14925.94
438.364	15394.92
438.571	15304.81
438.778	15265.9
438.985	16891.99
439.192	15976.55
439.399	16699.48
439.606	16519.26
439.813	17436.75
440.02	18507.83
440.227	17893.44
440.433	17877.06
440.64	18567.23
440.847	18516.03
441.054	19111.99
441.261	19763.24
441.467	19669.03
441.674	20086.82
441.881	20975.64
442.088	21008.4
442.294	20586.52
442.501	21254.16
442.708	21483.53
442.914	22579.2
443.121	23398.38
443.328	22618.11
443.534	24514.53
443.741	23951.34
443.948	23408.62
444.154	25311.19
444.361	24907.74
444.568	24934.36
444.774	25161.69
444.981	25456.59
445.187	25919.43
445.394	27213.75
445.6	26800.06
445.807	29552.53
446.013	28266.41
446.22	28630.94
446.426	29573.01
446.633	30154.63
446.839	30828.41
447.046	29720.46
447.252	31354.74
447.459	31364.98
447.665	31430.52
447.871	32624.48
448.078	34248.52
448.284	32581.48
448.491	33322.84
448.697	34903.87
448.903	35237.69
449.11	35258.17
449.316	34867.01
449.522	35620.66
449.728	36357.93
449.935	36665.13
450.141	36820.77
450.347	37402.39
450.553	36265.77
450.76	37134.11
450.966	37793.56
451.172	37875.48
451.378	38840.07
451.584	37566.23
451.791	38340.36
451.997	38440.71
452.203	39290.62
452.409	39345.92
452.615	39022.34
452.821	37709.59
453.027	37373.72
453.233	39171.84
453.44	37756.69
453.646	37840.66
453.852	38172.43
454.058	39231.23
454.264	37629.72
454.47	38276.88
454.676	37433.11
454.882	39200.51
455.088	35587.89
455.294	35962.67
455.5	36630.31
455.705	36839.2
455.911	35542.84
456.117	35016.51
456.323	34336.59
456.529	32755.55
456.735	33873.74
456.941	33251.16
457.147	32446.31
457.352	31831.92
457.558	30883.71
457.764	31561.59
457.97	30603.14
458.176	29921.16
458.381	30039.95
458.587	28356.52
458.793	28514.21
458.999	27000.76
459.204	29196.18
459.41	28002.22
459.616	25968.59
459.821	26755.01
460.027	26337.22
460.233	25749.45
460.438	24696.8
460.644	24877.02
460.85	23828.46
461.055	23150.58
461.261	23277.55
461.466	21446.67
461.672	20738.07
461.878	22169.6
462.083	21088.28
462.289	20346.91
462.494	19908.65
462.7	19195.95
462.905	18907.19
463.111	19470.38
463.316	19644.46
463.522	19130.42
463.727	19042.35
463.932	19185.71
464.138	18776.12
464.343	19124.27
464.549	18438.2
464.754	18896.95
464.959	18950.2
465.165	18864.18
465.37	17954.88
465.575	17748.04
465.781	18356.29
465.986	18206.78
466.191	17598.54
466.397	17252.43
466.602	16318.56
466.807	17231.95
467.012	17082.45
467.218	16900.18
467.423	16773.21
