Data from USB4F104151__30__11-44-52-512.txt Node

Date: Fri Mar 14 11:44:52 EDT 2025
User: louis
Spectrometer: USB4F10415
Trigger mode: 4
Integration Time (sec): 2.000000E-2
Scans to average: 1
Electric dark correction enabled: true
Nonlinearity correction enabled: false
Boxcar width: 0
XAxis mode: Wavelengths
Number of Pixels in Spectrum: 3648
>>>>>Begin Spectral Data<<<<<
178.204	-69.8
178.424	-69.8
178.644	-69.8
178.864	-102.57
179.084	-100.52
179.304	-0.17
179.524	26.45
179.744	1.88
179.964	-55.47
180.184	-6.31
180.404	-2.22
180.624	20.31
180.844	18.26
181.064	-34.99
181.283	18.26
181.503	-37.03
181.723	51.03
181.943	-20.65
182.163	57.17
182.383	10.07
182.602	14.17
182.822	-10.41
183.042	48.98
183.262	24.4
183.482	-4.27
183.701	40.79
183.921	-55.47
184.141	-34.99
184.361	-14.51
184.58	63.32
184.8	34.64
185.02	-18.6
185.239	32.6
185.459	28.5
185.679	87.89
185.898	24.4
186.118	42.84
186.338	34.64
186.557	-10.41
186.777	46.93
186.997	59.22
187.216	83.8
187.436	34.64
187.655	65.36
187.875	42.84
188.095	-14.51
188.314	-14.51
188.534	96.08
188.753	-8.36
188.973	12.12
189.192	87.89
189.412	-4.27
189.631	65.36
189.851	14.17
190.07	10.07
190.29	-8.36
190.509	32.6
190.729	36.69
190.948	96.08
191.168	104.28
191.387	116.56
191.607	3.93
191.826	55.12
192.045	20.31
192.265	-26.79
192.484	85.84
192.704	61.27
192.923	118.61
193.142	53.08
193.362	18.26
193.581	69.46
193.8	-16.55
194.02	30.55
194.239	55.12
194.458	26.45
194.678	-59.56
194.897	65.36
195.116	59.22
195.335	38.74
195.555	-24.75
195.774	-4.27
195.993	5.97
196.212	28.5
196.432	8.02
196.651	124.76
196.87	65.36
197.089	67.41
197.308	-0.17
197.528	151.38
197.747	-14.51
197.966	5.97
198.185	42.84
198.404	-6.31
198.623	16.21
198.842	61.27
199.062	53.08
199.281	55.12
199.5	51.03
199.719	61.27
199.938	40.79
200.157	91.99
200.376	28.5
200.595	8.02
200.814	-24.75
201.033	-26.79
201.252	24.4
201.471	87.89
201.69	69.46
201.909	59.22
202.128	20.31
202.347	71.51
202.566	-28.84
202.785	-18.6
203.004	-14.51
203.223	87.89
203.442	71.51
203.661	12.12
203.879	34.64
204.098	38.74
204.317	38.74
204.536	28.5
204.755	26.45
204.974	-2.22
205.193	10.07
205.411	91.99
205.63	34.64
205.849	36.69
206.068	3.93
206.287	-12.46
206.505	51.03
206.724	71.51
206.943	-8.36
207.162	71.51
207.381	44.88
207.599	-10.41
207.818	30.55
208.037	-24.75
208.255	-4.27
208.474	55.12
208.693	18.26
208.911	28.5
209.13	44.88
209.349	96.08
209.567	96.08
209.786	48.98
210.005	96.08
210.223	40.79
210.442	-51.37
210.661	42.84
210.879	18.26
211.098	12.12
211.316	55.12
211.535	38.74
211.753	67.41
211.972	-2.22
212.191	3.93
212.409	48.98
212.628	14.17
212.846	-32.94
213.065	-2.22
213.283	96.08
213.502	24.4
213.72	-26.79
213.938	-45.23
214.157	20.31
214.375	46.93
214.594	-16.55
214.812	51.03
215.031	-55.47
215.249	40.79
215.467	14.17
215.686	-26.79
215.904	55.12
216.122	42.84
216.341	104.28
216.559	91.99
216.778	-0.17
216.996	81.75
217.214	40.79
217.432	-73.9
217.651	48.98
217.869	40.79
218.087	83.8
218.306	5.97
218.524	75.6
218.742	-16.55
218.96	57.17
219.179	-32.94
219.397	22.36
219.615	143.19
219.833	-30.89
220.051	30.55
220.27	32.6
220.488	-53.42
220.706	-63.66
220.924	3.93
221.142	-16.55
221.36	32.6
221.578	20.31
221.796	20.31
222.015	-6.31
222.233	36.69
222.451	94.04
222.669	46.93
222.887	71.51
223.105	79.7
223.323	55.12
223.541	3.93
223.759	-26.79
223.977	44.88
224.195	34.64
224.413	10.07
224.631	5.97
224.849	59.22
225.067	91.99
225.285	40.79
225.503	32.6
225.721	32.6
225.939	30.55
226.157	8.02
226.375	28.5
226.592	75.6
226.81	40.79
227.028	75.6
227.246	118.61
227.464	48.98
227.682	14.17
227.9	28.5
228.117	63.32
228.335	-22.7
228.553	10.07
228.771	34.64
228.989	53.08
229.206	-2.22
229.424	24.4
229.642	-37.03
229.86	-4.27
230.077	3.93
230.295	16.21
230.513	100.18
230.731	59.22
230.948	42.84
231.166	59.22
231.384	-71.85
231.601	53.08
231.819	89.94
232.037	34.64
232.254	-20.65
232.472	32.6
232.689	24.4
232.907	34.64
233.125	-16.55
233.342	10.07
233.56	71.51
233.777	94.04
233.995	42.84
234.213	73.56
234.43	67.41
234.648	28.5
234.865	46.93
235.083	63.32
235.3	-22.7
235.518	46.93
235.735	26.45
235.953	69.46
236.17	5.97
236.388	22.36
236.605	22.36
236.822	73.56
237.04	44.88
237.257	77.65
237.475	8.02
237.692	10.07
237.909	85.84
238.127	71.51
238.344	124.76
238.562	108.37
238.779	-10.41
238.996	-26.79
239.214	1.88
239.431	-37.03
239.648	89.94
239.865	20.31
240.083	67.41
240.3	57.17
240.517	85.84
240.735	-30.89
240.952	42.84
241.169	63.32
241.386	10.07
241.603	46.93
241.821	12.12
242.038	85.84
242.255	12.12
242.472	40.79
242.689	65.36
242.907	46.93
243.124	44.88
243.341	-4.27
243.558	-6.31
243.775	81.75
243.992	36.69
244.209	30.55
244.426	42.84
244.643	65.36
244.86	-14.51
245.078	5.97
245.295	3.93
245.512	46.93
245.729	30.55
245.946	44.88
246.163	61.27
246.38	-4.27
246.597	-6.31
246.814	38.74
247.031	12.12
247.248	-6.31
247.464	12.12
247.681	-32.94
247.898	-4.27
248.115	91.99
248.332	-30.89
248.549	16.21
248.766	77.65
248.983	85.84
249.2	44.88
249.417	44.88
249.633	-26.79
249.85	73.56
250.067	-30.89
250.284	26.45
250.501	53.08
250.717	55.12
250.934	-4.27
251.151	-22.7
251.368	55.12
251.585	-6.31
251.801	-51.37
252.018	38.74
252.235	63.32
252.451	1.88
252.668	-6.31
252.885	55.12
253.102	10.07
253.318	110.42
253.535	20.31
253.752	-0.17
253.968	5.97
254.185	1.88
254.401	3.93
254.618	16.21
254.835	5.97
255.051	69.46
255.268	26.45
255.484	61.27
255.701	20.31
255.917	69.46
256.134	-32.94
256.351	40.79
256.567	46.93
256.784	96.08
257	-37.03
257.217	120.66
257.433	36.69
257.65	36.69
257.866	63.32
258.082	48.98
258.299	-2.22
258.515	20.31
258.732	22.36
258.948	5.97
259.165	38.74
259.381	36.69
259.597	59.22
259.814	59.22
260.03	10.07
260.246	71.51
260.463	14.17
260.679	102.23
260.895	61.27
261.112	32.6
261.328	42.84
261.544	8.02
261.761	106.32
261.977	96.08
262.193	96.08
262.409	91.99
262.626	5.97
262.842	14.17
263.058	42.84
263.274	104.28
263.49	10.07
263.707	18.26
263.923	59.22
264.139	22.36
264.355	28.5
264.571	100.18
264.787	-26.79
265.004	28.5
265.22	36.69
265.436	69.46
265.652	-30.89
265.868	42.84
266.084	26.45
266.3	-18.6
266.516	-0.17
266.732	-0.17
266.948	81.75
267.164	28.5
267.38	108.37
267.596	55.12
267.812	26.45
268.028	26.45
268.244	12.12
268.46	30.55
268.676	-6.31
268.892	57.17
269.108	-2.22
269.324	8.02
269.54	30.55
269.756	63.32
269.972	42.84
270.188	46.93
270.403	-32.94
270.619	-24.75
270.835	3.93
271.051	-22.7
271.267	-34.99
271.483	63.32
271.698	20.31
271.914	42.84
272.13	38.74
272.346	69.46
272.562	46.93
272.777	1.88
272.993	10.07
273.209	-8.36
273.425	71.51
273.64	155.47
273.856	12.12
274.072	14.17
274.287	34.64
274.503	14.17
274.719	3.93
274.934	-43.18
275.15	14.17
275.366	-16.55
275.581	-10.41
275.797	10.07
276.012	40.79
276.228	59.22
276.444	79.7
276.659	44.88
276.875	28.5
277.09	14.17
277.306	18.26
277.521	85.84
277.737	-10.41
277.952	85.84
278.168	100.18
278.383	87.89
278.599	-16.55
278.814	42.84
279.03	-18.6
279.245	61.27
279.461	83.8
279.676	1.88
279.892	18.26
280.107	42.84
280.322	67.41
280.538	57.17
280.753	-0.17
280.969	-20.65
281.184	14.17
281.399	73.56
281.615	-0.17
281.83	132.95
282.045	51.03
282.26	32.6
282.476	96.08
282.691	98.13
282.906	34.64
283.122	63.32
283.337	-67.75
283.552	83.8
283.767	-22.7
283.983	81.75
284.198	46.93
284.413	28.5
284.628	44.88
284.843	51.03
285.058	10.07
285.274	1.88
285.489	3.93
285.704	30.55
285.919	20.31
286.134	22.36
286.349	-43.18
286.564	65.36
286.779	18.26
286.995	18.26
287.21	32.6
287.425	10.07
287.64	26.45
287.855	40.79
288.07	51.03
288.285	77.65
288.5	-4.27
288.715	89.94
288.93	32.6
289.145	79.7
289.36	40.79
289.575	20.31
289.79	24.4
290.004	61.27
290.219	14.17
290.434	40.79
290.649	44.88
290.864	12.12
291.079	63.32
291.294	100.18
291.509	63.32
291.724	75.6
291.938	87.89
292.153	73.56
292.368	26.45
292.583	40.79
292.798	63.32
293.012	63.32
293.227	-39.08
293.442	38.74
293.657	-10.41
293.871	61.27
294.086	69.46
294.301	85.84
294.516	44.88
294.73	12.12
294.945	5.97
295.16	51.03
295.374	59.22
295.589	8.02
295.804	-43.18
296.018	-22.7
296.233	-47.27
296.447	-16.55
296.662	-4.27
296.877	130.9
297.091	69.46
297.306	-0.17
297.52	26.45
297.735	79.7
297.949	5.97
298.164	5.97
298.378	79.7
298.593	-12.46
298.807	10.07
299.022	-49.32
299.236	73.56
299.451	100.18
299.665	12.12
299.88	48.98
300.094	-34.99
300.309	73.56
300.523	-12.46
300.737	30.55
300.952	46.93
301.166	-12.46
301.381	44.88
301.595	71.51
301.809	36.69
302.024	14.17
302.238	42.84
302.452	20.31
302.667	30.55
302.881	100.18
303.095	59.22
303.309	120.66
303.524	12.12
303.738	16.21
303.952	55.12
304.166	53.08
304.381	-16.55
304.595	28.5
304.809	53.08
305.023	24.4
305.237	75.6
305.452	100.18
305.666	91.99
305.88	16.21
306.094	46.93
306.308	-47.27
306.522	20.31
306.736	-2.22
306.95	91.99
307.164	118.61
307.379	20.31
307.593	34.64
307.807	32.6
308.021	57.17
308.235	5.97
308.449	8.02
308.663	3.93
308.877	89.94
309.091	63.32
309.305	63.32
309.519	57.17
309.733	14.17
309.947	42.84
310.161	108.37
310.374	135
310.588	71.51
310.802	89.94
311.016	24.4
311.23	12.12
311.444	83.8
311.658	32.6
311.872	59.22
312.085	48.98
312.299	116.56
312.513	32.6
312.727	87.89
312.941	20.31
313.154	83.8
313.368	-41.13
313.582	63.32
313.796	55.12
314.009	91.99
314.223	57.17
314.437	59.22
314.651	71.51
314.864	20.31
315.078	-2.22
315.292	-2.22
315.505	44.88
315.719	69.46
315.933	85.84
316.146	14.17
316.36	28.5
316.573	44.88
316.787	71.51
317.001	139.09
317.214	73.56
317.428	65.36
317.641	1.88
317.855	61.27
318.068	102.23
318.282	55.12
318.495	18.26
318.709	59.22
318.922	22.36
319.136	73.56
319.349	26.45
319.563	34.64
319.776	55.12
319.99	34.64
320.203	-22.7
320.417	-41.13
320.63	61.27
320.843	77.65
321.057	36.69
321.27	40.79
321.483	85.84
321.697	114.52
321.91	63.32
322.124	61.27
322.337	83.8
322.55	-12.46
322.763	38.74
322.977	36.69
323.19	1.88
323.403	77.65
323.617	-26.79
323.83	100.18
324.043	34.64
324.256	28.5
324.469	-16.55
324.683	48.98
324.896	34.64
325.109	108.37
325.322	34.64
325.535	77.65
325.748	91.99
325.962	-10.41
326.175	22.36
326.388	65.36
326.601	38.74
326.814	75.6
327.027	44.88
327.24	-22.7
327.453	51.03
327.666	18.26
327.879	-22.7
328.092	87.89
328.305	69.46
328.518	3.93
328.731	-34.99
328.944	71.51
329.157	71.51
329.37	40.79
329.583	10.07
329.796	57.17
330.009	-32.94
330.222	-18.6
330.435	42.84
330.648	26.45
330.861	5.97
331.073	36.69
331.286	59.22
331.499	57.17
331.712	-14.51
331.925	26.45
332.138	112.47
332.35	59.22
332.563	14.17
332.776	46.93
332.989	12.12
333.202	24.4
333.414	34.64
333.627	59.22
333.84	8.02
334.053	-30.89
334.265	5.97
334.478	38.74
334.691	116.56
334.903	38.74
335.116	79.7
335.329	-8.36
335.541	100.18
335.754	42.84
335.966	-24.75
336.179	36.69
336.392	40.79
336.604	34.64
336.817	106.32
337.029	34.64
337.242	69.46
337.454	108.37
337.667	73.56
337.88	149.33
338.092	118.61
338.305	53.08
338.517	53.08
338.729	71.51
338.942	46.93
339.154	14.17
339.367	-14.51
339.579	42.84
339.792	-71.85
340.004	91.99
340.217	128.85
340.429	48.98
340.641	1.88
340.854	89.94
341.066	57.17
341.278	67.41
341.491	55.12
341.703	67.41
341.915	22.36
342.128	61.27
342.34	40.79
342.552	55.12
342.764	8.02
342.977	24.4
343.189	3.93
343.401	44.88
343.613	55.12
343.826	79.7
344.038	87.89
344.25	98.13
344.462	59.22
344.674	24.4
344.886	3.93
345.099	65.36
345.311	108.37
345.523	59.22
345.735	-32.94
345.947	85.84
346.159	-12.46
346.371	44.88
346.583	53.08
346.795	89.94
347.007	28.5
347.219	132.95
347.431	22.36
347.643	20.31
347.855	89.94
348.067	55.12
348.279	57.17
348.491	26.45
348.703	59.22
348.915	38.74
349.127	-10.41
349.339	55.12
349.551	55.12
349.763	20.31
349.975	40.79
350.187	55.12
350.399	91.99
350.61	30.55
350.822	8.02
351.034	40.79
351.246	81.75
351.458	1.88
351.669	53.08
351.881	53.08
352.093	1.88
352.305	34.64
352.517	94.04
352.728	102.23
352.94	26.45
353.152	71.51
353.363	1.88
353.575	94.04
353.787	14.17
353.999	57.17
354.21	5.97
354.422	69.46
354.633	14.17
354.845	-20.65
355.057	42.84
355.268	38.74
355.48	139.09
355.692	-2.22
355.903	46.93
356.115	48.98
356.326	46.93
356.538	110.42
356.749	42.84
356.961	79.7
357.172	51.03
357.384	3.93
357.595	30.55
357.807	3.93
358.018	36.69
358.23	118.61
358.441	73.56
358.653	55.12
358.864	-10.41
359.075	53.08
359.287	18.26
359.498	44.88
359.709	48.98
359.921	79.7
360.132	55.12
360.344	77.65
360.555	8.02
360.766	65.36
360.977	61.27
361.189	85.84
361.4	32.6
361.611	73.56
361.823	38.74
362.034	-22.7
362.245	48.98
362.456	63.32
362.667	61.27
362.879	85.84
363.09	-18.6
363.301	67.41
363.512	59.22
363.723	110.42
363.935	3.93
364.146	91.99
364.357	10.07
364.568	118.61
364.779	20.31
364.99	130.9
365.201	141.14
365.412	79.7
365.623	32.6
365.834	89.94
366.045	48.98
366.256	12.12
366.467	79.7
366.678	42.84
366.889	-6.31
367.1	65.36
367.311	22.36
367.522	-34.99
367.733	67.41
367.944	61.27
368.155	8.02
368.366	91.99
368.577	30.55
368.788	67.41
368.999	3.93
369.209	91.99
369.42	94.04
369.631	32.6
369.842	32.6
370.053	40.79
370.264	87.89
370.474	40.79
370.685	89.94
370.896	16.21
371.107	42.84
371.317	81.75
371.528	-22.7
371.739	73.56
371.95	36.69
372.16	67.41
372.371	83.8
372.582	42.84
372.792	102.23
373.003	98.13
373.214	34.64
373.424	59.22
373.635	3.93
373.846	94.04
374.056	87.89
374.267	61.27
374.477	38.74
374.688	61.27
374.898	18.26
375.109	104.28
375.319	120.66
375.53	153.43
375.74	59.22
375.951	3.93
376.161	-8.36
376.372	87.89
376.582	16.21
376.793	85.84
377.003	5.97
377.214	34.64
377.424	69.46
377.635	-6.31
377.845	36.69
378.055	46.93
378.266	104.28
378.476	55.12
378.686	83.8
378.897	18.26
379.107	77.65
379.317	149.33
379.528	42.84
379.738	122.71
379.948	8.02
380.158	77.65
380.369	79.7
380.579	61.27
380.789	46.93
380.999	59.22
381.21	51.03
381.42	89.94
381.63	34.64
381.84	-10.41
382.05	26.45
382.261	104.28
382.471	10.07
382.681	83.8
382.891	102.23
383.101	89.94
383.311	1.88
383.521	69.46
383.731	51.03
383.941	87.89
384.151	5.97
384.361	81.75
384.571	63.32
384.781	100.18
384.991	51.03
385.201	75.6
385.411	26.45
385.621	81.75
385.831	83.8
386.041	106.32
386.251	81.75
386.461	106.32
386.671	51.03
386.881	10.07
387.091	24.4
387.301	118.61
387.511	12.12
387.72	61.27
387.93	110.42
388.14	24.4
388.35	57.17
388.56	67.41
388.769	108.37
388.979	55.12
389.189	94.04
389.399	32.6
389.609	108.37
389.818	108.37
390.028	63.32
390.238	75.6
390.447	42.84
390.657	83.8
390.867	94.04
391.076	145.24
391.286	32.6
391.496	89.94
391.705	51.03
391.915	51.03
392.125	106.32
392.334	10.07
392.544	32.6
392.753	94.04
392.963	75.6
393.172	122.71
393.382	100.18
393.591	100.18
393.801	63.32
394.01	159.57
394.22	46.93
394.429	18.26
394.639	91.99
394.848	98.13
395.058	91.99
395.267	20.31
395.477	38.74
395.686	120.66
395.895	141.14
396.105	180.05
396.314	67.41
396.524	20.31
396.733	118.61
396.942	171.86
397.152	137.04
397.361	128.85
397.57	100.18
397.78	91.99
397.989	61.27
398.198	147.28
398.407	104.28
398.617	98.13
398.826	100.18
399.035	173.91
399.244	178
399.453	98.13
399.663	139.09
399.872	79.7
400.081	96.08
400.29	114.52
400.499	116.56
400.708	77.65
400.917	67.41
401.127	175.95
401.336	149.33
401.545	175.95
401.754	124.76
401.963	182.1
402.172	83.8
402.381	79.7
402.59	128.85
402.799	173.91
403.008	132.95
403.217	186.19
403.426	126.8
403.635	143.19
403.844	163.67
404.053	126.8
404.262	139.09
404.471	128.85
404.68	116.56
404.888	155.47
405.097	85.84
405.306	132.95
405.515	210.77
405.724	89.94
405.933	128.85
406.142	182.1
406.35	296.78
406.559	243.54
406.768	149.33
406.977	212.82
407.185	229.2
407.394	210.77
407.603	186.19
407.812	272.21
408.02	302.93
408.229	225.11
408.438	235.35
408.646	214.87
408.855	311.12
409.064	259.92
409.272	216.91
409.481	356.18
409.69	321.36
409.898	364.37
410.107	323.41
410.315	360.27
410.524	350.03
410.733	300.88
410.941	366.42
411.15	429.9
411.358	393.04
411.567	386.9
411.775	386.9
411.984	421.71
412.192	522.06
412.401	427.85
412.609	563.02
412.818	477.01
413.026	417.61
413.234	534.35
413.443	597.84
413.651	610.12
413.86	610.12
414.068	622.41
414.276	671.56
414.485	636.75
414.693	700.23
414.901	708.43
415.11	759.63
415.318	669.52
415.526	769.87
415.734	757.58
415.943	769.87
416.151	827.21
416.359	886.6
416.567	878.41
416.776	886.6
416.984	941.89
417.192	1001.29
417.4	1042.25
417.608	1091.4
417.817	1066.82
418.025	1146.69
418.233	1173.32
418.441	1146.69
418.649	1228.61
418.857	1324.87
419.065	1326.91
419.273	1345.34
419.481	1345.34
419.689	1478.46
419.897	1550.14
420.105	1587.01
420.313	1638.2
420.521	1611.58
420.729	1736.51
420.937	1777.47
421.145	1771.32
421.353	1996.6
421.561	1963.83
421.769	2025.27
421.977	2099
422.185	2043.7
422.393	2295.6
422.601	2223.92
422.809	2365.23
423.017	2463.54
423.224	2539.31
423.432	2451.25
423.64	2567.98
423.848	2754.35
424.056	2766.64
424.263	3036.97
424.471	2809.64
424.679	2803.5
424.887	3118.89
425.094	3305.25
425.302	3331.87
425.51	3417.89
425.718	3456.8
425.925	3487.52
426.133	3680.03
426.341	3780.38
426.548	4112.15
426.756	4101.91
426.964	4079.38
427.171	4261.65
427.379	4390.67
427.586	4482.83
427.794	4669.2
428.001	4945.67
428.209	5154.57
428.417	4982.54
428.624	5285.64
428.832	5379.84
429.039	5168.9
429.247	5259.01
429.454	5777.15
429.662	6221.56
429.869	5768.96
430.076	6176.5
430.284	5797.63
430.491	6143.74
430.699	6680.3
430.906	6545.14
431.114	6739.69
431.321	6895.34
431.528	7202.54
431.736	7595.75
431.943	7849.69
432.15	7501.54
432.358	7683.81
432.565	8201.94
432.772	8144.6
432.979	8627.92
433.187	8636.11
433.394	8883.92
433.601	9404.1
433.808	9512.64
434.016	9365.19
434.223	9764.54
434.43	10313.4
434.637	10327.74
434.844	10819.25
435.052	10901.17
435.259	10843.82
435.466	11083.44
435.673	10847.92
435.88	11587.24
436.087	12109.47
436.294	12115.61
436.501	11902.62
436.708	12351.13
436.915	12627.6
437.122	13047.44
437.329	13049.49
437.537	13575.81
437.743	13868.67
437.95	13651.59
438.157	14349.95
438.364	14784.12
438.571	14681.72
438.778	15025.78
438.985	16418.39
439.192	15763.04
439.399	16051.81
439.606	15861.35
439.813	16528.99
440.02	17516.11
440.227	17376.84
440.433	17196.62
440.64	17919.56
440.847	17552.97
441.054	18019.91
441.261	19353.13
441.467	19121.71
441.674	19461.68
441.881	20074.02
442.088	19904.04
442.294	19609.13
442.501	20493.85
442.708	20880.92
442.914	21704.2
443.121	22281.73
443.328	21974.53
443.534	23657.96
443.741	22937.08
443.948	22531.58
444.154	24413.66
444.361	23989.74
444.568	24143.33
444.774	24298.98
444.981	24274.4
445.187	25185.75
445.394	26256.84
445.6	25837
445.807	28593.57
446.013	27209.14
446.22	27592.11
446.426	28667.3
446.633	29273.49
446.839	30039.43
447.046	28648.86
447.252	29994.38
447.459	30504.32
447.665	30211.46
447.871	31645.04
448.078	32863.58
448.284	31518.07
448.491	32279.91
448.697	33701.2
448.903	33654.1
449.11	34082.13
449.316	33629.52
449.522	34073.93
449.728	35259.71
449.935	35415.35
450.141	35114.3
450.347	35970.35
450.553	35028.29
450.76	35505.46
450.966	36470.06
451.172	35700.02
451.378	37047.58
451.584	36410.67
451.791	37299.48
451.997	37055.78
452.203	37821.72
452.409	37887.25
452.615	37815.57
452.821	36066.61
453.027	36021.55
453.233	37756.18
453.44	36277.55
453.646	36637.99
453.852	36594.98
454.058	37750.04
454.264	36332.84
454.47	37229.85
454.676	36248.88
454.882	37453.08
455.088	34225.48
455.294	34383.18
455.5	35278.14
455.705	35865.91
455.911	34032.97
456.117	33510.74
456.323	32896.35
456.529	31544.69
456.735	32650.6
456.941	31860.08
457.147	31022.46
457.352	30059.91
457.558	29724.05
457.764	29883.79
457.97	29500.82
458.176	28724.64
458.381	29007.26
458.587	27706.8
458.793	27364.79
458.999	25808.33
459.204	28100.01
459.41	27067.83
459.616	25460.18
459.821	25664.97
460.027	25077.21
460.233	24632.8
460.438	23492.08
460.644	23821.8
460.85	22578.68
461.055	22085.12
461.261	22115.84
461.466	20706.84
461.672	19996.2
461.878	21321.23
462.083	19893.8
462.289	19781.16
462.494	19457.58
462.7	18617.91
462.905	17970.76
463.111	18900.53
463.316	18703.93
463.522	18300.48
463.727	18280
463.932	18130.5
464.138	18024
464.343	18019.91
464.549	17530.44
464.754	18404.92
464.959	18179.65
465.165	18007.62
465.37	17077.84
465.575	16739.93
465.781	17595.98
465.986	17487.43
466.191	16823.89
466.397	16504.41
466.602	16123.49
466.807	16361.05
467.012	16412.25
467.218	16250.46
467.423	15914.59
467.628	16148.06
467.833	16922.2
