Data from USB4F104151__42__11-45-04-391.txt Node

Date: Fri Mar 14 11:45:04 EDT 2025
User: louis
Spectrometer: USB4F10415
Trigger mode: 4
Integration Time (sec): 2.000000E-2
Scans to average: 1
Electric dark correction enabled: true
Nonlinearity correction enabled: false
Boxcar width: 0
XAxis mode: Wavelengths
Number of Pixels in Spectrum: 3648
>>>>>Begin Spectral Data<<<<<
178.204	-120.15
178.424	-120.15
178.644	-120.15
178.864	-128.34
179.084	-171.35
179.304	15.02
179.524	27.31
179.744	-21.84
179.964	23.21
180.184	58.03
180.404	-5.46
180.624	-7.51
180.844	-44.37
181.064	-52.56
181.283	-7.51
181.503	-15.7
181.723	31.4
181.943	-27.99
182.163	31.4
182.383	90.79
182.602	21.16
182.822	45.74
183.042	43.69
183.262	55.98
183.482	60.07
183.701	-32.08
183.921	-17.75
184.141	-19.8
184.361	68.27
184.58	-21.84
184.8	4.78
185.02	-21.84
185.239	55.98
185.459	-19.8
185.679	6.83
185.898	-17.75
186.118	86.7
186.338	41.64
186.557	-64.85
186.777	-36.18
186.997	-13.65
187.216	66.22
187.436	23.21
187.655	66.22
187.875	27.31
188.095	94.89
188.314	-40.28
188.534	29.35
188.753	51.88
188.973	-11.61
189.192	64.17
189.412	-15.7
189.631	12.97
189.851	25.26
190.07	121.51
190.29	-89.43
190.509	74.41
190.729	21.16
190.948	31.4
191.168	141.99
191.387	49.83
191.607	111.27
191.826	37.55
192.045	-17.75
192.265	51.88
192.484	17.07
192.704	96.94
192.923	58.03
193.142	90.79
193.362	-17.75
193.581	60.07
193.8	121.51
194.02	-40.28
194.239	31.4
194.458	74.41
194.678	19.11
194.897	-9.56
195.116	-46.42
195.335	-60.76
195.555	-23.89
195.774	-32.08
195.993	19.11
196.212	0.68
196.432	72.36
196.651	-32.08
196.87	39.59
197.089	92.84
197.308	21.16
197.528	-11.61
197.747	23.21
197.966	-5.46
198.185	6.83
198.404	6.83
198.623	-5.46
198.842	41.64
199.062	37.55
199.281	88.75
199.5	27.31
199.719	37.55
199.938	6.83
200.157	29.35
200.376	-40.28
200.595	15.02
200.814	29.35
201.033	-9.56
201.252	51.88
201.471	68.27
201.69	37.55
201.909	0.68
202.128	27.31
202.347	72.36
202.566	80.55
202.785	43.69
203.004	-30.04
203.223	111.27
203.442	43.69
203.661	-19.8
203.879	-7.51
204.098	94.89
204.317	37.55
204.536	-3.41
204.755	-46.42
204.974	82.6
205.193	37.55
205.411	78.51
205.63	37.55
205.849	-1.37
206.068	58.03
206.287	47.79
206.505	23.21
206.724	-5.46
206.943	-3.41
207.162	80.55
207.381	98.99
207.599	53.93
207.818	25.26
208.037	45.74
208.255	-73.04
208.474	62.12
208.693	88.75
208.911	76.46
209.13	-50.52
209.349	55.98
209.567	41.64
209.786	31.4
210.005	37.55
210.223	90.79
210.442	-32.08
210.661	6.83
210.879	98.99
211.098	4.78
211.316	-40.28
211.535	49.83
211.753	23.21
211.972	53.93
212.191	2.73
212.409	72.36
212.628	-52.56
212.846	121.51
213.065	21.16
213.283	0.68
213.502	62.12
213.72	101.03
213.938	47.79
214.157	35.5
214.375	0.68
214.594	37.55
214.812	47.79
215.031	29.35
215.249	-5.46
215.467	23.21
215.686	88.75
215.904	60.07
216.122	-48.47
216.341	47.79
216.559	-44.37
216.778	98.99
216.996	-7.51
217.214	-3.41
217.432	15.02
217.651	21.16
217.869	21.16
218.087	66.22
218.306	-1.37
218.524	12.97
218.742	31.4
218.96	29.35
219.179	-7.51
219.397	35.5
219.615	135.85
219.833	12.97
220.051	0.68
220.27	-34.13
220.488	33.45
220.706	-30.04
220.924	68.27
221.142	-13.65
221.36	19.11
221.578	66.22
221.796	68.27
222.015	-21.84
222.233	64.17
222.451	-15.7
222.669	-15.7
222.887	10.92
223.105	41.64
223.323	4.78
223.541	29.35
223.759	82.6
223.977	29.35
224.195	31.4
224.413	70.31
224.631	19.11
224.849	111.27
225.067	62.12
225.285	17.07
225.503	51.88
225.721	6.83
225.939	35.5
226.157	-19.8
226.375	121.51
226.592	-56.66
226.81	53.93
227.028	17.07
227.246	72.36
227.464	60.07
227.682	53.93
227.9	2.73
228.117	64.17
228.335	-21.84
228.553	66.22
228.771	29.35
228.989	41.64
229.206	-17.75
229.424	66.22
229.642	-46.42
229.86	58.03
230.077	8.87
230.295	27.31
230.513	-1.37
230.731	27.31
230.948	35.5
231.166	17.07
231.384	19.11
231.601	8.87
231.819	17.07
232.037	17.07
232.254	49.83
232.472	39.59
232.689	2.73
232.907	119.46
233.125	-34.13
233.342	15.02
233.56	31.4
233.777	66.22
233.995	2.73
234.213	53.93
234.43	58.03
234.648	51.88
234.865	37.55
235.083	53.93
235.3	2.73
235.518	43.69
235.735	19.11
235.953	62.12
236.17	8.87
236.388	-13.65
236.605	29.35
236.822	66.22
237.04	17.07
237.257	35.5
237.475	-36.18
237.692	66.22
237.909	-1.37
238.127	17.07
238.344	31.4
238.562	82.6
238.779	6.83
238.996	27.31
239.214	37.55
239.431	98.99
239.648	-9.56
239.865	82.6
240.083	62.12
240.3	-13.65
240.517	55.98
240.735	43.69
240.952	27.31
241.169	33.45
241.386	84.65
241.603	-21.84
241.821	17.07
242.038	23.21
242.255	29.35
242.472	25.26
242.689	58.03
242.907	72.36
243.124	25.26
243.341	-27.99
243.558	60.07
243.775	2.73
243.992	-19.8
244.209	29.35
244.426	58.03
244.643	25.26
244.86	17.07
245.078	68.27
245.295	15.02
245.512	60.07
245.729	49.83
245.946	92.84
246.163	47.79
246.38	58.03
246.597	-32.08
246.814	74.41
247.031	144.04
247.248	37.55
247.464	-42.32
247.681	17.07
247.898	62.12
248.115	58.03
248.332	-40.28
248.549	31.4
248.766	72.36
248.983	29.35
249.2	-30.04
249.417	31.4
249.633	-15.7
249.85	92.84
250.067	-1.37
250.284	-36.18
250.501	19.11
250.717	47.79
250.934	101.03
251.151	6.83
251.368	-89.43
251.585	12.97
251.801	37.55
252.018	0.68
252.235	-60.76
252.451	0.68
252.668	-9.56
252.885	21.16
253.102	45.74
253.318	2.73
253.535	-48.47
253.752	-7.51
253.968	25.26
254.185	12.97
254.401	-7.51
254.618	-64.85
254.835	98.99
255.051	17.07
255.268	86.7
255.484	6.83
255.701	80.55
255.917	12.97
256.134	55.98
256.351	66.22
256.567	43.69
256.784	-9.56
257	27.31
257.217	23.21
257.433	-23.89
257.65	49.83
257.866	17.07
258.082	-62.8
258.299	29.35
258.515	0.68
258.732	15.02
258.948	45.74
259.165	41.64
259.381	29.35
259.597	72.36
259.814	8.87
260.03	29.35
260.246	-19.8
260.463	23.21
260.679	37.55
260.895	17.07
261.112	21.16
261.328	-44.37
261.544	31.4
261.761	125.61
261.977	60.07
262.193	15.02
262.409	35.5
262.626	15.02
262.842	49.83
263.058	6.83
263.274	62.12
263.49	58.03
263.707	82.6
263.923	-15.7
264.139	-13.65
264.355	86.7
264.571	60.07
264.787	70.31
265.004	55.98
265.22	25.26
265.436	0.68
265.652	4.78
265.868	66.22
266.084	80.55
266.3	29.35
266.516	-48.47
266.732	39.59
266.948	90.79
267.164	49.83
267.38	23.21
267.596	55.98
267.812	78.51
268.028	45.74
268.244	-30.04
268.46	-1.37
268.676	-9.56
268.892	17.07
269.108	0.68
269.324	86.7
269.54	-34.13
269.756	64.17
269.972	45.74
270.188	-1.37
270.403	21.16
270.619	-13.65
270.835	49.83
271.051	17.07
271.267	17.07
271.483	-7.51
271.698	8.87
271.914	-56.66
272.13	62.12
272.346	37.55
272.562	-15.7
272.777	51.88
272.993	109.23
273.209	-42.32
273.425	17.07
273.64	39.59
273.856	78.51
274.072	-15.7
274.287	68.27
274.503	111.27
274.719	88.75
274.934	35.5
275.15	-21.84
275.366	12.97
275.581	2.73
275.797	92.84
276.012	19.11
276.228	33.45
276.444	41.64
276.659	23.21
276.875	41.64
277.09	74.41
277.306	39.59
277.521	-9.56
277.737	27.31
277.952	60.07
278.168	33.45
278.383	2.73
278.599	10.92
278.814	-34.13
279.03	111.27
279.245	78.51
279.461	21.16
279.676	62.12
279.892	-3.41
280.107	53.93
280.322	43.69
280.538	92.84
280.753	-11.61
280.969	60.07
281.184	4.78
281.399	60.07
281.615	41.64
281.83	58.03
282.045	-1.37
282.26	-17.75
282.476	45.74
282.691	39.59
282.906	-19.8
283.122	29.35
283.337	-25.94
283.552	-1.37
283.767	0.68
283.983	37.55
284.198	51.88
284.413	8.87
284.628	-3.41
284.843	78.51
285.058	90.79
285.274	84.65
285.489	0.68
285.704	60.07
285.919	33.45
286.134	35.5
286.349	47.79
286.564	88.75
286.779	-15.7
286.995	41.64
287.21	23.21
287.425	74.41
287.64	-21.84
287.855	-17.75
288.07	33.45
288.285	41.64
288.5	41.64
288.715	47.79
288.93	-7.51
289.145	-21.84
289.36	51.88
289.575	35.5
289.79	23.21
290.004	64.17
290.219	19.11
290.434	53.93
290.649	15.02
290.864	-1.37
291.079	0.68
291.294	45.74
291.509	-1.37
291.724	47.79
291.938	-5.46
292.153	15.02
292.368	25.26
292.583	15.02
292.798	47.79
293.012	88.75
293.227	-17.75
293.442	47.79
293.657	23.21
293.871	111.27
294.086	35.5
294.301	47.79
294.516	0.68
294.73	49.83
294.945	27.31
295.16	-1.37
295.374	10.92
295.589	43.69
295.804	-3.41
296.018	94.89
296.233	31.4
296.447	90.79
296.662	12.97
296.877	-1.37
297.091	-79.19
297.306	43.69
297.52	58.03
297.735	17.07
297.949	27.31
298.164	45.74
298.378	39.59
298.593	-11.61
298.807	-27.99
299.022	19.11
299.236	121.51
299.451	53.93
299.665	-48.47
299.88	37.55
300.094	37.55
300.309	31.4
300.523	-27.99
300.737	37.55
300.952	6.83
301.166	55.98
301.381	-17.75
301.595	62.12
301.809	39.59
302.024	74.41
302.238	-34.13
302.452	103.08
302.667	53.93
302.881	84.65
303.095	131.75
303.309	119.46
303.524	-40.28
303.738	66.22
303.952	127.66
304.166	66.22
304.381	31.4
304.595	58.03
304.809	-7.51
305.023	49.83
305.237	47.79
305.452	53.93
305.666	47.79
305.88	23.21
306.094	72.36
306.308	31.4
306.522	-5.46
306.736	58.03
306.95	-15.7
307.164	-11.61
307.379	33.45
307.593	72.36
307.807	62.12
308.021	72.36
308.235	94.89
308.449	-19.8
308.663	21.16
308.877	101.03
309.091	37.55
309.305	10.92
309.519	98.99
309.733	103.08
309.947	-13.65
310.161	113.32
310.374	49.83
310.588	31.4
310.802	8.87
311.016	12.97
311.23	31.4
311.444	43.69
311.658	-5.46
311.872	12.97
312.085	86.7
312.299	103.08
312.513	51.88
312.727	-1.37
312.941	-1.37
313.154	58.03
313.368	68.27
313.582	47.79
313.796	78.51
314.009	21.16
314.223	64.17
314.437	109.23
314.651	4.78
314.864	43.69
315.078	23.21
315.292	8.87
315.505	45.74
315.719	12.97
315.933	96.94
316.146	37.55
316.36	51.88
316.573	96.94
316.787	133.8
317.001	19.11
317.214	6.83
317.428	141.99
317.641	6.83
317.855	-9.56
318.068	-1.37
318.282	39.59
318.495	84.65
318.709	25.26
318.922	10.92
319.136	94.89
319.349	84.65
319.563	37.55
319.776	62.12
319.99	15.02
320.203	41.64
320.417	-7.51
320.63	86.7
320.843	117.42
321.057	6.83
321.27	-5.46
321.483	98.99
321.697	131.75
321.91	-3.41
322.124	49.83
322.337	33.45
322.55	41.64
322.763	45.74
322.977	17.07
323.19	0.68
323.403	29.35
323.617	2.73
323.83	-7.51
324.043	70.31
324.256	12.97
324.469	33.45
324.683	86.7
324.896	33.45
325.109	113.32
325.322	8.87
325.535	-11.61
325.748	47.79
325.962	37.55
326.175	8.87
326.388	94.89
326.601	94.89
326.814	43.69
327.027	117.42
327.24	58.03
327.453	39.59
327.666	45.74
327.879	49.83
328.092	27.31
328.305	-30.04
328.518	8.87
328.731	25.26
328.944	107.18
329.157	53.93
329.37	82.6
329.583	66.22
329.796	62.12
330.009	21.16
330.222	43.69
330.435	49.83
330.648	41.64
330.861	2.73
331.073	21.16
331.286	-3.41
331.499	70.31
331.712	39.59
331.925	86.7
332.138	8.87
332.35	53.93
332.563	6.83
332.776	111.27
332.989	27.31
333.202	60.07
333.414	27.31
333.627	78.51
333.84	4.78
334.053	51.88
334.265	-7.51
334.478	58.03
334.691	-30.04
334.903	137.9
335.116	-5.46
335.329	12.97
335.541	10.92
335.754	55.98
335.966	31.4
336.179	101.03
336.392	64.17
336.604	-21.84
336.817	49.83
337.029	15.02
337.242	2.73
337.454	74.41
337.667	8.87
337.88	58.03
338.092	144.04
338.305	139.94
338.517	101.03
338.729	-3.41
338.942	53.93
339.154	4.78
339.367	21.16
339.579	101.03
339.792	72.36
340.004	39.59
340.217	0.68
340.429	45.74
340.641	96.94
340.854	10.92
341.066	-30.04
341.278	21.16
341.491	92.84
341.703	17.07
341.915	74.41
342.128	49.83
342.34	58.03
342.552	82.6
342.764	60.07
342.977	88.75
343.189	82.6
343.401	49.83
343.613	33.45
343.826	-5.46
344.038	64.17
344.25	53.93
344.462	21.16
344.674	74.41
344.886	19.11
345.099	127.66
345.311	-5.46
345.523	39.59
345.735	0.68
345.947	98.99
346.159	64.17
346.371	25.26
346.583	78.51
346.795	51.88
347.007	35.5
347.219	131.75
347.431	90.79
347.643	115.37
347.855	92.84
348.067	80.55
348.279	43.69
348.491	55.98
348.703	29.35
348.915	125.61
349.127	21.16
349.339	27.31
349.551	29.35
349.763	125.61
349.975	29.35
350.187	88.75
350.399	49.83
350.61	53.93
350.822	15.02
351.034	41.64
351.246	31.4
351.458	64.17
351.669	29.35
351.881	84.65
352.093	45.74
352.305	82.6
352.517	55.98
352.728	64.17
352.94	70.31
353.152	-11.61
353.363	29.35
353.575	62.12
353.787	64.17
353.999	70.31
354.21	72.36
354.422	23.21
354.633	6.83
354.845	29.35
355.057	-15.7
355.268	72.36
355.48	51.88
355.692	35.5
355.903	103.08
356.115	31.4
356.326	0.68
356.538	94.89
356.749	39.59
356.961	10.92
357.172	2.73
357.384	21.16
357.595	113.32
357.807	27.31
358.018	-27.99
358.23	15.02
358.441	74.41
358.653	47.79
358.864	-38.23
359.075	76.46
359.287	135.85
359.498	19.11
359.709	33.45
359.921	51.88
360.132	10.92
360.344	88.75
360.555	15.02
360.766	39.59
360.977	111.27
361.189	51.88
361.4	-9.56
361.611	84.65
361.823	31.4
362.034	133.8
362.245	27.31
362.456	-1.37
362.667	31.4
362.879	53.93
363.09	33.45
363.301	103.08
363.512	47.79
363.723	-3.41
363.935	47.79
364.146	33.45
364.357	-25.94
364.568	80.55
364.779	39.59
364.99	101.03
365.201	43.69
365.412	55.98
365.623	23.21
365.834	111.27
366.045	64.17
366.256	29.35
366.467	39.59
366.678	25.26
366.889	131.75
367.1	37.55
367.311	103.08
367.522	117.42
367.733	66.22
367.944	27.31
368.155	19.11
368.366	53.93
368.577	15.02
368.788	101.03
368.999	60.07
369.209	23.21
369.42	94.89
369.631	174.76
369.842	47.79
370.053	107.18
370.264	53.93
370.474	72.36
370.685	94.89
370.896	60.07
371.107	182.95
371.317	60.07
371.528	27.31
371.739	29.35
371.95	66.22
372.16	64.17
372.371	-46.42
372.582	123.56
372.792	35.5
373.003	60.07
373.214	121.51
373.424	-9.56
373.635	-1.37
373.846	107.18
374.056	96.94
374.267	25.26
374.477	76.46
374.688	82.6
374.898	53.93
375.109	74.41
375.319	96.94
375.53	127.66
375.74	74.41
375.951	64.17
376.161	141.99
376.372	33.45
376.582	70.31
376.793	123.56
377.003	35.5
377.214	23.21
377.424	82.6
377.635	101.03
377.845	37.55
378.055	103.08
378.266	47.79
378.476	6.83
378.686	125.61
378.897	113.32
379.107	76.46
379.317	66.22
379.528	141.99
379.738	-15.7
379.948	66.22
380.158	60.07
380.369	10.92
380.579	78.51
380.789	2.73
380.999	70.31
381.21	39.59
381.42	127.66
381.63	82.6
381.84	31.4
382.05	39.59
382.261	64.17
382.471	109.23
382.681	86.7
382.891	31.4
383.101	76.46
383.311	66.22
383.521	49.83
383.731	76.46
383.941	51.88
384.151	121.51
384.361	51.88
384.571	45.74
384.781	25.26
384.991	80.55
385.201	4.78
385.411	74.41
385.621	64.17
385.831	23.21
386.041	-30.04
386.251	62.12
386.461	82.6
386.671	55.98
386.881	62.12
387.091	53.93
387.301	70.31
387.511	51.88
387.72	76.46
387.93	55.98
388.14	-5.46
388.35	78.51
388.56	84.65
388.769	43.69
388.979	55.98
389.189	131.75
389.399	41.64
389.609	66.22
389.818	62.12
390.028	62.12
390.238	64.17
390.447	21.16
390.657	17.07
390.867	25.26
391.076	66.22
391.286	25.26
391.496	45.74
391.705	41.64
391.915	146.09
392.125	96.94
392.334	168.62
392.544	125.61
392.753	-11.61
392.963	53.93
393.172	109.23
393.382	37.55
393.591	33.45
393.801	111.27
394.01	39.59
394.22	103.08
394.429	105.13
394.639	88.75
394.848	47.79
395.058	33.45
395.267	150.18
395.477	88.75
395.686	53.93
395.895	119.46
396.105	189.1
396.314	160.42
396.524	103.08
396.733	47.79
396.942	178.86
397.152	90.79
397.361	176.81
397.57	64.17
397.78	117.42
397.989	150.18
398.198	101.03
398.407	131.75
398.617	123.56
398.826	137.9
399.035	160.42
399.244	135.85
399.453	103.08
399.663	170.66
399.872	45.74
400.081	189.1
400.29	154.28
400.499	129.7
400.708	39.59
400.917	127.66
401.127	123.56
401.336	86.7
401.545	191.14
401.754	113.32
401.963	207.53
402.172	125.61
402.381	119.46
402.59	66.22
402.799	86.7
403.008	154.28
403.217	176.81
403.426	135.85
403.635	123.56
403.844	178.86
404.053	148.14
404.262	131.75
404.471	176.81
404.68	156.33
404.888	209.58
405.097	230.06
405.306	172.71
405.515	180.9
405.724	146.09
405.933	205.48
406.142	213.67
406.35	187.05
406.559	168.62
406.768	209.58
406.977	238.25
407.185	203.43
407.394	234.15
407.603	207.53
407.812	264.87
408.02	248.49
408.229	291.49
408.438	262.82
408.646	246.44
408.855	236.2
409.064	219.82
409.272	322.21
409.481	326.31
409.69	385.7
409.898	311.97
410.107	367.27
410.315	340.65
410.524	344.74
410.733	352.93
410.941	402.08
411.15	412.32
411.358	438.95
411.567	408.23
411.775	404.13
411.984	408.23
412.192	508.58
412.401	498.34
412.609	490.15
412.818	535.2
413.026	563.87
413.234	565.92
413.443	572.07
413.651	553.63
413.86	590.5
414.068	690.85
414.276	637.6
414.485	656.03
414.693	686.75
414.901	791.2
415.11	725.66
415.318	821.92
415.526	813.73
415.734	838.3
415.943	801.44
416.151	848.54
416.359	924.32
416.567	955.04
416.776	1088.15
416.984	1057.43
417.192	1094.3
417.4	1082.01
417.608	1127.07
417.817	1122.97
418.025	1227.42
418.233	1290.9
418.441	1198.74
418.649	1317.53
418.857	1440.4
419.065	1446.55
419.273	1376.92
419.481	1417.88
419.689	1561.23
419.897	1614.48
420.105	1643.15
420.313	1561.23
420.521	1817.23
420.729	1860.24
420.937	1907.34
421.145	1995.4
421.353	2077.32
421.561	2101.9
421.769	2099.85
421.977	2206.35
422.185	2165.39
422.393	2388.61
422.601	2613.89
422.809	2511.49
423.017	2437.77
423.224	2712.19
423.432	2796.16
423.64	2724.48
423.848	2929.28
424.056	2927.23
424.263	3109.5
424.471	3142.27
424.679	3312.25
424.887	3490.42
425.094	3635.83
425.302	3471.99
425.51	3658.35
425.718	3668.59
425.925	3840.62
426.133	3910.26
426.341	4192.87
426.548	4330.09
426.756	4295.27
426.964	4418.15
427.171	4637.28
427.379	4733.54
427.586	4731.49
427.794	5055.07
428.001	5278.3
428.209	5341.79
428.417	5270.11
428.624	5732.95
428.832	5888.59
429.039	5726.8
429.247	5782.1
429.454	6261.32
429.662	6548.04
429.869	6322.76
430.076	6642.25
430.284	6355.53
430.491	6847.04
430.699	7103.04
430.906	7062.08
431.114	7342.65
431.321	7543.35
431.528	7598.65
431.736	8163.89
431.943	8303.15
432.15	8225.33
432.358	8282.67
432.565	8763.94
432.772	8784.42
432.979	9101.86
433.187	9179.68
433.394	9507.35
433.601	10226.19
433.808	10058.26
434.016	10039.83
434.223	10568.2
434.43	11188.74
434.637	10715.66
434.844	11540.99
435.052	11827.7
435.259	11848.18
435.466	11874.81
435.673	11780.6
435.88	12452.33
436.087	13277.66
436.294	13289.95
436.501	12970.47
436.708	13146.59
436.915	13517.28
437.122	14211.54
437.329	14021.08
437.537	14510.54
437.743	14770.63
437.95	14703.05
438.157	15399.36
438.364	16099.76
438.571	15927.74
438.778	16075.19
438.985	17789.34
439.192	17027.49
439.399	17514.91
439.606	17156.52
439.813	17920.41
440.02	19157.38
440.227	18719.12
440.433	18823.56
440.64	19128.71
440.847	18991.5
441.054	19446.15
441.261	20615.54
441.467	20279.67
441.674	21170.54
441.881	22038.87
442.088	21838.17
442.294	21401.96
442.501	22196.57
442.708	22454.61
442.914	23507.27
443.121	24353.08
443.328	23855.42
443.534	25370.92
443.741	24707.38
443.948	24361.27
444.154	26325.27
444.361	26134.81
444.568	26059.04
444.774	26358.04
444.981	26589.46
445.187	27433.22
445.394	28463.35
445.6	27973.89
445.807	30922.96
446.013	29194.48
446.22	30173.41
446.426	30972.11
446.633	31432.91
446.839	32598.2
447.046	31414.48
447.252	33085.62
447.459	32532.67
447.665	32862.39
447.871	34152.61
448.078	35582.09
448.284	34070.69
448.491	34789.53
448.697	36096.13
448.903	36948.09
449.11	36552.83
449.316	36442.24
449.522	37052.53
449.728	37951.59
449.935	38355.04
450.141	38283.36
450.347	38738.01
450.553	37673.07
450.76	38367.33
450.966	39331.92
451.172	39305.3
451.378	39845.96
451.584	39399.51
451.791	40382.53
451.997	40075.34
452.203	40937.53
452.409	40478.78
452.615	40853.56
452.821	39415.89
453.027	38893.66
453.233	40792.12
453.44	39188.56
453.646	39819.34
453.852	40210.5
454.058	40519.74
454.264	39270.48
454.47	40089.67
454.676	39077.97
454.882	40646.72
455.088	36989.05
455.294	37453.94
455.5	38103.14
455.705	38828.12
455.911	37048.44
456.117	36540.54
456.323	35788.94
456.529	34140.32
456.735	35678.35
456.941	34482.33
457.147	34095.27
457.352	33093.81
457.558	32536.76
457.764	32780.47
457.97	31975.62
458.176	31303.88
458.381	31328.46
458.587	29976.8
458.793	29659.37
458.999	28322.04
459.204	30314.72
459.41	29585.64
459.616	27193.61
459.821	27414.79
460.027	27369.74
460.233	26951.95
460.438	25479.46
460.644	25891.1
460.85	24619.31
461.055	24484.15
461.261	24004.92
461.466	22612.31
461.672	22055.26
461.878	23300.42
462.083	21864.8
462.289	21418.34
462.494	21053.8
462.7	19941.75
462.905	19636.61
463.111	20373.88
463.316	20384.12
463.522	20203.89
463.727	20175.22
463.932	19939.71
464.138	19714.43
464.343	19839.36
464.549	19138.95
464.754	19935.61
464.959	19593.6
465.165	19638.65
465.37	18774.41
465.575	18344.34
465.781	19075.46
465.986	19003.78
466.191	18518.42
466.397	18250.13
466.602	17172.9
466.807	17744.28
467.012	17813.91
