Data from USB4F104151__50__11-45-11-310.txt Node

Date: Fri Mar 14 11:45:11 EDT 2025
User: louis
Spectrometer: USB4F10415
Trigger mode: 4
Integration Time (sec): 2.000000E-2
Scans to average: 1
Electric dark correction enabled: true
Nonlinearity correction enabled: false
Boxcar width: 0
XAxis mode: Wavelengths
Number of Pixels in Spectrum: 3648
>>>>>Begin Spectral Data<<<<<
178.204	-38.91
178.424	-38.91
178.644	-38.91
178.864	-26.62
179.084	16.38
179.304	-26.62
179.524	94.21
179.744	32.77
179.964	-20.48
180.184	26.62
180.404	-32.77
180.624	40.96
180.844	-8.19
181.064	-59.39
181.283	16.38
181.503	-55.3
181.723	-8.19
181.943	18.43
182.163	-45.06
182.383	30.72
182.602	116.73
182.822	34.82
183.042	8.19
183.262	-43.01
183.482	-36.86
183.701	43.01
183.921	14.34
184.141	-86.01
184.361	-40.96
184.58	-34.82
184.8	18.43
185.02	-24.58
185.239	51.2
185.459	18.43
185.679	47.1
185.898	-12.29
186.118	59.39
186.338	51.2
186.557	53.25
186.777	-26.62
186.997	92.16
187.216	-61.44
187.436	18.43
187.655	53.25
187.875	83.97
188.095	24.58
188.314	26.62
188.534	86.01
188.753	18.43
188.973	49.15
189.192	108.54
189.412	34.82
189.631	43.01
189.851	18.43
190.07	49.15
190.29	-14.34
190.509	-40.96
190.729	86.01
190.948	53.25
191.168	108.54
191.387	36.86
191.607	28.67
191.826	16.38
192.045	40.96
192.265	2.05
192.484	45.06
192.704	2.05
192.923	-55.3
193.142	20.48
193.362	40.96
193.581	81.92
193.8	-8.19
194.02	83.97
194.239	-32.77
194.458	10.24
194.678	-8.19
194.897	-57.34
195.116	34.82
195.335	69.63
195.555	73.73
195.774	-67.58
195.993	67.58
196.212	-32.77
196.432	-20.48
196.651	-6.14
196.87	-79.87
197.089	63.49
197.308	-4.1
197.528	-14.34
197.747	16.38
197.966	-51.2
198.185	75.77
198.404	-2.05
198.623	47.1
198.842	112.64
199.062	38.91
199.281	32.77
199.5	6.14
199.719	40.96
199.938	-24.58
200.157	18.43
200.376	34.82
200.595	-38.91
200.814	24.58
201.033	-16.38
201.252	90.11
201.471	8.19
201.69	77.82
201.909	45.06
202.128	12.29
202.347	-6.14
202.566	-24.58
202.785	-30.72
203.004	-49.15
203.223	55.3
203.442	53.25
203.661	16.38
203.879	38.91
204.098	63.49
204.317	49.15
204.536	-24.58
204.755	-6.14
204.974	8.19
205.193	-18.43
205.411	40.96
205.63	20.48
205.849	-2.05
206.068	83.97
206.287	0
206.505	28.67
206.724	30.72
206.943	-14.34
207.162	24.58
207.381	26.62
207.599	24.58
207.818	73.73
208.037	26.62
208.255	49.15
208.474	61.44
208.693	12.29
208.911	40.96
209.13	36.86
209.349	-57.34
209.567	-30.72
209.786	55.3
210.005	43.01
210.223	-55.3
210.442	47.1
210.661	-53.25
210.879	-18.43
211.098	10.24
211.316	43.01
211.535	10.24
211.753	26.62
211.972	34.82
212.191	79.87
212.409	-20.48
212.628	16.38
212.846	59.39
213.065	81.92
213.283	49.15
213.502	-26.62
213.72	-12.29
213.938	38.91
214.157	63.49
214.375	-28.67
214.594	22.53
214.812	34.82
215.031	57.34
215.249	-8.19
215.467	-18.43
215.686	38.91
215.904	94.21
216.122	-32.77
216.341	18.43
216.559	38.91
216.778	-14.34
216.996	-86.01
217.214	30.72
217.432	61.44
217.651	18.43
217.869	51.2
218.087	100.35
218.306	14.34
218.524	26.62
218.742	4.1
218.96	-4.1
219.179	2.05
219.397	16.38
219.615	2.05
219.833	34.82
220.051	-16.38
220.27	45.06
220.488	77.82
220.706	-14.34
220.924	10.24
221.142	49.15
221.36	59.39
221.578	-10.24
221.796	-10.24
222.015	16.38
222.233	30.72
222.451	86.01
222.669	-16.38
222.887	28.67
223.105	-45.06
223.323	-16.38
223.541	49.15
223.759	22.53
223.977	30.72
224.195	12.29
224.413	18.43
224.631	-32.77
224.849	-38.91
225.067	104.45
225.285	-18.43
225.503	24.58
225.721	18.43
225.939	-12.29
226.157	36.86
226.375	96.25
226.592	-14.34
226.81	36.86
227.028	-57.34
227.246	51.2
227.464	14.34
227.682	20.48
227.9	36.86
228.117	0
228.335	-32.77
228.553	-10.24
228.771	4.1
228.989	26.62
229.206	-28.67
229.424	53.25
229.642	73.73
229.86	6.14
230.077	86.01
230.295	-8.19
230.513	47.1
230.731	18.43
230.948	24.58
231.166	120.83
231.384	-18.43
231.601	53.25
231.819	40.96
232.037	-16.38
232.254	49.15
232.472	36.86
232.689	-63.49
232.907	55.3
233.125	30.72
233.342	79.87
233.56	38.91
233.777	-36.86
233.995	-8.19
234.213	83.97
234.43	67.58
234.648	71.68
234.865	24.58
235.083	0
235.3	20.48
235.518	-6.14
235.735	36.86
235.953	92.16
236.17	6.14
236.388	-63.49
236.605	-88.06
236.822	49.15
237.04	-28.67
237.257	88.06
237.475	75.77
237.692	-6.14
237.909	67.58
238.127	-26.62
238.344	32.77
238.562	63.49
238.779	0
238.996	55.3
239.214	-2.05
239.431	0
239.648	-57.34
239.865	22.53
240.083	47.1
240.3	32.77
240.517	49.15
240.735	-30.72
240.952	2.05
241.169	40.96
241.386	-4.1
241.603	30.72
241.821	-18.43
242.038	57.34
242.255	-47.1
242.472	43.01
242.689	24.58
242.907	12.29
243.124	26.62
243.341	6.14
243.558	47.1
243.775	16.38
243.992	12.29
244.209	22.53
244.426	90.11
244.643	38.91
244.86	16.38
245.078	51.2
245.295	12.29
245.512	34.82
245.729	6.14
245.946	34.82
246.163	14.34
246.38	20.48
246.597	-10.24
246.814	0
247.031	-26.62
247.248	6.14
247.464	65.54
247.681	-18.43
247.898	77.82
248.115	79.87
248.332	30.72
248.549	112.64
248.766	30.72
248.983	88.06
249.2	10.24
249.417	79.87
249.633	8.19
249.85	-26.62
250.067	10.24
250.284	43.01
250.501	73.73
250.717	28.67
250.934	6.14
251.151	28.67
251.368	-2.05
251.585	18.43
251.801	75.77
252.018	38.91
252.235	10.24
252.451	-45.06
252.668	18.43
252.885	86.01
253.102	14.34
253.318	63.49
253.535	-32.77
253.752	79.87
253.968	0
254.185	26.62
254.401	-10.24
254.618	0
254.835	-40.96
255.051	98.3
255.268	55.3
255.484	22.53
255.701	-6.14
255.917	43.01
256.134	18.43
256.351	-36.86
256.567	-10.24
256.784	75.77
257	-18.43
257.217	45.06
257.433	-8.19
257.65	63.49
257.866	-4.1
258.082	18.43
258.299	-4.1
258.515	36.86
258.732	30.72
258.948	-10.24
259.165	34.82
259.381	24.58
259.597	2.05
259.814	10.24
260.03	-8.19
260.246	22.53
260.463	-26.62
260.679	16.38
260.895	2.05
261.112	28.67
261.328	2.05
261.544	-45.06
261.761	18.43
261.977	24.58
262.193	38.91
262.409	-4.1
262.626	40.96
262.842	77.82
263.058	-28.67
263.274	59.39
263.49	67.58
263.707	-8.19
263.923	43.01
264.139	59.39
264.355	8.19
264.571	-8.19
264.787	32.77
265.004	69.63
265.22	-22.53
265.436	26.62
265.652	34.82
265.868	88.06
266.084	16.38
266.3	57.34
266.516	-20.48
266.732	65.54
266.948	22.53
267.164	4.1
267.38	16.38
267.596	26.62
267.812	47.1
268.028	-16.38
268.244	8.19
268.46	-22.53
268.676	65.54
268.892	32.77
269.108	-18.43
269.324	22.53
269.54	38.91
269.756	126.97
269.972	77.82
270.188	4.1
270.403	16.38
270.619	-38.91
270.835	12.29
271.051	-26.62
271.267	40.96
271.483	-43.01
271.698	45.06
271.914	75.77
272.13	40.96
272.346	22.53
272.562	-8.19
272.777	43.01
272.993	96.25
273.209	0
273.425	51.2
273.64	-32.77
273.856	159.74
274.072	24.58
274.287	-28.67
274.503	34.82
274.719	57.34
274.934	16.38
275.15	-10.24
275.366	-22.53
275.581	59.39
275.797	28.67
276.012	38.91
276.228	63.49
276.444	-22.53
276.659	59.39
276.875	-16.38
277.09	8.19
277.306	4.1
277.521	26.62
277.737	26.62
277.952	-32.77
278.168	-10.24
278.383	77.82
278.599	-47.1
278.814	22.53
279.03	-51.2
279.245	79.87
279.461	51.2
279.676	30.72
279.892	-22.53
280.107	20.48
280.322	-16.38
280.538	61.44
280.753	10.24
280.969	83.97
281.184	-8.19
281.399	28.67
281.615	34.82
281.83	8.19
282.045	-26.62
282.26	-34.82
282.476	28.67
282.691	20.48
282.906	-6.14
283.122	38.91
283.337	-6.14
283.552	110.59
283.767	-16.38
283.983	-24.58
284.198	18.43
284.413	12.29
284.628	12.29
284.843	6.14
285.058	2.05
285.274	12.29
285.489	26.62
285.704	43.01
285.919	45.06
286.134	96.25
286.349	65.54
286.564	34.82
286.779	34.82
286.995	67.58
287.21	-4.1
287.425	45.06
287.64	22.53
287.855	-10.24
288.07	-45.06
288.285	47.1
288.5	26.62
288.715	36.86
288.93	18.43
289.145	40.96
289.36	49.15
289.575	0
289.79	38.91
290.004	34.82
290.219	10.24
290.434	40.96
290.649	-26.62
290.864	-6.14
291.079	57.34
291.294	51.2
291.509	34.82
291.724	-47.1
291.938	45.06
292.153	53.25
292.368	20.48
292.583	100.35
292.798	94.21
293.012	0
293.227	73.73
293.442	20.48
293.657	34.82
293.871	-14.34
294.086	61.44
294.301	38.91
294.516	81.92
294.73	55.3
294.945	-24.58
295.16	75.77
295.374	47.1
295.589	59.39
295.804	73.73
296.018	6.14
296.233	61.44
296.447	38.91
296.662	49.15
296.877	-16.38
297.091	45.06
297.306	57.34
297.52	-8.19
297.735	49.15
297.949	45.06
298.164	0
298.378	-47.1
298.593	-28.67
298.807	26.62
299.022	49.15
299.236	8.19
299.451	-6.14
299.665	-12.29
299.88	-40.96
300.094	-22.53
300.309	32.77
300.523	65.54
300.737	69.63
300.952	51.2
301.166	24.58
301.381	8.19
301.595	-2.05
301.809	-2.05
302.024	57.34
302.238	47.1
302.452	43.01
302.667	-8.19
302.881	-14.34
303.095	47.1
303.309	69.63
303.524	75.77
303.738	-30.72
303.952	24.58
304.166	26.62
304.381	20.48
304.595	94.21
304.809	43.01
305.023	59.39
305.237	-14.34
305.452	-24.58
305.666	61.44
305.88	28.67
306.094	-4.1
306.308	90.11
306.522	14.34
306.736	36.86
306.95	49.15
307.164	38.91
307.379	12.29
307.593	14.34
307.807	-2.05
308.021	45.06
308.235	36.86
308.449	4.1
308.663	34.82
308.877	69.63
309.091	40.96
309.305	30.72
309.519	-36.86
309.733	20.48
309.947	-55.3
310.161	26.62
310.374	10.24
310.588	20.48
310.802	-12.29
311.016	47.1
311.23	24.58
311.444	26.62
311.658	32.77
311.872	59.39
312.085	32.77
312.299	88.06
312.513	12.29
312.727	57.34
312.941	53.25
313.154	16.38
313.368	-10.24
313.582	47.1
313.796	16.38
314.009	45.06
314.223	30.72
314.437	69.63
314.651	-22.53
314.864	38.91
315.078	32.77
315.292	-24.58
315.505	34.82
315.719	47.1
315.933	10.24
316.146	-22.53
316.36	-14.34
316.573	102.4
316.787	43.01
317.001	57.34
317.214	-24.58
317.428	38.91
317.641	51.2
317.855	10.24
318.068	-14.34
318.282	20.48
318.495	0
318.709	-28.67
318.922	38.91
319.136	40.96
319.349	-28.67
319.563	24.58
319.776	14.34
319.99	18.43
320.203	32.77
320.417	30.72
320.63	92.16
320.843	38.91
321.057	102.4
321.27	-16.38
321.483	67.58
321.697	18.43
321.91	49.15
322.124	45.06
322.337	26.62
322.55	-10.24
322.763	10.24
322.977	51.2
323.19	77.82
323.403	40.96
323.617	126.97
323.83	81.92
324.043	63.49
324.256	2.05
324.469	34.82
324.683	24.58
324.896	-8.19
325.109	51.2
325.322	20.48
325.535	-14.34
325.748	2.05
325.962	24.58
326.175	43.01
326.388	16.38
326.601	96.25
326.814	69.63
327.027	-8.19
327.24	116.73
327.453	24.58
327.666	-34.82
327.879	88.06
328.092	49.15
328.305	30.72
328.518	63.49
328.731	79.87
328.944	71.68
329.157	28.67
329.37	-8.19
329.583	65.54
329.796	28.67
330.009	-47.1
330.222	36.86
330.435	22.53
330.648	81.92
330.861	26.62
331.073	34.82
331.286	24.58
331.499	53.25
331.712	-22.53
331.925	26.62
332.138	40.96
332.35	69.63
332.563	6.14
332.776	67.58
332.989	-34.82
333.202	-18.43
333.414	73.73
333.627	57.34
333.84	2.05
334.053	67.58
334.265	6.14
334.478	-16.38
334.691	-4.1
334.903	20.48
335.116	-16.38
335.329	-20.48
335.541	6.14
335.754	83.97
335.966	36.86
336.179	10.24
336.392	-6.14
336.604	-38.91
336.817	4.1
337.029	20.48
337.242	57.34
337.454	100.35
337.667	22.53
337.88	75.77
338.092	-4.1
338.305	63.49
338.517	2.05
338.729	61.44
338.942	124.93
339.154	20.48
339.367	8.19
339.579	106.49
339.792	73.73
340.004	32.77
340.217	43.01
340.429	28.67
340.641	43.01
340.854	86.01
341.066	16.38
341.278	-12.29
341.491	34.82
341.703	49.15
341.915	-24.58
342.128	102.4
342.34	-6.14
342.552	-6.14
342.764	71.68
342.977	14.34
343.189	38.91
343.401	61.44
343.613	-10.24
343.826	20.48
344.038	-43.01
344.25	22.53
344.462	36.86
344.674	12.29
344.886	34.82
345.099	18.43
345.311	79.87
345.523	63.49
345.735	61.44
345.947	12.29
346.159	112.64
346.371	122.88
346.583	8.19
346.795	59.39
347.007	-20.48
347.219	18.43
347.431	24.58
347.643	55.3
347.855	24.58
348.067	147.45
348.279	40.96
348.491	94.21
348.703	45.06
348.915	12.29
349.127	0
349.339	-22.53
349.551	36.86
349.763	75.77
349.975	63.49
350.187	81.92
350.399	120.83
350.61	63.49
350.822	40.96
351.034	38.91
351.246	4.1
351.458	59.39
351.669	-8.19
351.881	55.3
352.093	24.58
352.305	36.86
352.517	81.92
352.728	45.06
352.94	79.87
353.152	26.62
353.363	-22.53
353.575	106.49
353.787	71.68
353.999	32.77
354.21	51.2
354.422	57.34
354.633	38.91
354.845	88.06
355.057	30.72
355.268	79.87
355.48	100.35
355.692	24.58
355.903	71.68
356.115	8.19
356.326	-110.59
356.538	38.91
356.749	79.87
356.961	34.82
357.172	53.25
357.384	10.24
357.595	131.07
357.807	22.53
358.018	12.29
358.23	75.77
358.441	79.87
358.653	51.2
358.864	-30.72
359.075	-65.53
359.287	51.2
359.498	45.06
359.709	26.62
359.921	38.91
360.132	102.4
360.344	32.77
360.555	36.86
360.766	-4.1
360.977	53.25
361.189	24.58
361.4	43.01
361.611	94.21
361.823	73.73
362.034	-47.1
362.245	-6.14
362.456	34.82
362.667	34.82
362.879	34.82
363.09	6.14
363.301	92.16
363.512	75.77
363.723	-14.34
363.935	65.54
364.146	129.02
364.357	28.67
364.568	129.02
364.779	-30.72
364.99	88.06
365.201	18.43
365.412	108.54
365.623	-20.48
365.834	0
366.045	-22.53
366.256	8.19
366.467	114.69
366.678	53.25
366.889	6.14
367.1	24.58
367.311	32.77
367.522	51.2
367.733	65.54
367.944	45.06
368.155	2.05
368.366	26.62
368.577	24.58
368.788	57.34
368.999	65.54
369.209	47.1
369.42	57.34
369.631	135.17
369.842	-10.24
370.053	2.05
370.264	65.54
370.474	57.34
370.685	106.49
370.896	59.39
371.107	26.62
371.317	65.54
371.528	6.14
371.739	83.97
371.95	-2.05
372.16	73.73
372.371	8.19
372.582	55.3
372.792	28.67
373.003	28.67
373.214	26.62
373.424	63.49
373.635	-4.1
373.846	63.49
374.056	4.1
374.267	126.97
374.477	98.3
374.688	47.1
374.898	26.62
375.109	135.17
375.319	49.15
375.53	8.19
375.74	-2.05
375.951	81.92
376.161	102.4
376.372	24.58
376.582	40.96
376.793	118.78
377.003	63.49
377.214	0
377.424	55.3
377.635	98.3
377.845	-16.38
378.055	79.87
378.266	22.53
378.476	26.62
378.686	-8.19
378.897	94.21
379.107	96.25
379.317	67.58
379.528	4.1
379.738	81.92
379.948	-10.24
380.158	16.38
380.369	45.06
380.579	53.25
380.789	92.16
380.999	47.1
381.21	22.53
381.42	75.77
381.63	53.25
381.84	65.54
382.05	36.86
382.261	8.19
382.471	6.14
382.681	98.3
382.891	0
383.101	40.96
383.311	2.05
383.521	81.92
383.731	2.05
383.941	45.06
384.151	77.82
384.361	-18.43
384.571	69.63
384.781	16.38
384.991	96.25
385.201	79.87
385.411	55.3
385.621	6.14
385.831	18.43
386.041	102.4
386.251	59.39
386.461	116.73
386.671	20.48
386.881	81.92
387.091	51.2
387.301	73.73
387.511	-24.58
387.72	100.35
387.93	47.1
388.14	40.96
388.35	63.49
388.56	69.63
388.769	26.62
388.979	6.14
389.189	98.3
389.399	86.01
389.609	43.01
389.818	61.44
390.028	49.15
390.238	83.97
390.447	0
390.657	96.25
390.867	10.24
391.076	65.54
391.286	22.53
391.496	59.39
391.705	16.38
391.915	100.35
392.125	57.34
392.334	55.3
392.544	32.77
392.753	34.82
392.963	57.34
393.172	139.26
393.382	86.01
393.591	116.73
393.801	92.16
394.01	104.45
394.22	81.92
394.429	53.25
394.639	90.11
394.848	92.16
395.058	51.2
395.267	96.25
395.477	61.44
395.686	71.68
395.895	4.1
396.105	63.49
396.314	169.98
396.524	63.49
396.733	51.2
396.942	100.35
397.152	-4.1
397.361	155.65
397.57	69.63
397.78	90.11
397.989	-6.14
398.198	94.21
398.407	96.25
398.617	149.5
398.826	81.92
399.035	77.82
399.244	124.93
399.453	69.63
399.663	69.63
399.872	180.22
400.081	92.16
400.29	116.73
400.499	90.11
400.708	65.54
400.917	124.93
401.127	65.54
401.336	79.87
401.545	159.74
401.754	159.74
401.963	96.25
402.172	57.34
402.381	126.97
402.59	124.93
402.799	96.25
403.008	96.25
403.217	110.59
403.426	126.97
403.635	143.36
403.844	86.01
404.053	118.78
404.262	116.73
404.471	206.84
404.68	157.69
404.888	159.74
405.097	153.6
405.306	118.78
405.515	151.55
405.724	98.3
405.933	186.37
406.142	198.65
406.35	163.84
406.559	221.18
406.768	188.41
406.977	174.08
407.185	221.18
407.394	124.93
407.603	200.7
407.812	169.98
408.02	196.61
408.229	292.86
408.438	253.95
408.646	196.61
408.855	210.94
409.064	180.22
409.272	253.95
409.481	249.85
409.69	270.33
409.898	282.62
410.107	305.15
410.315	305.15
410.524	296.96
410.733	352.25
410.941	251.9
411.15	425.98
411.358	364.54
411.567	397.31
411.775	436.22
411.984	411.64
412.192	368.63
412.401	436.22
412.609	456.7
412.818	430.07
413.026	532.47
413.234	446.46
413.443	479.22
413.651	552.95
413.86	575.48
414.068	595.96
414.276	686.07
414.485	591.86
414.693	632.82
414.901	724.98
415.11	702.45
415.318	708.6
415.526	751.6
415.734	763.89
415.943	751.6
416.151	817.14
416.359	864.24
416.567	849.91
416.776	925.68
416.984	954.35
417.192	1040.37
417.4	991.22
417.608	919.54
417.817	989.17
418.025	1126.38
418.233	1112.05
418.441	1198.06
418.649	1191.92
418.857	1265.64
419.065	1226.73
419.273	1222.64
419.481	1382.38
419.689	1363.95
419.897	1445.87
420.105	1492.97
420.313	1492.97
420.521	1529.83
420.729	1675.24
420.937	1642.47
421.145	1802.21
421.353	1894.37
421.561	2029.54
421.769	2000.87
421.977	2052.06
422.185	1902.56
422.393	2279.39
422.601	2271.2
422.809	2269.15
423.017	2222.05
423.224	2432.99
423.432	2416.6
423.64	2400.22
423.848	2756.57
424.056	2709.46
424.263	2813.91
424.471	2848.72
424.679	3004.37
424.887	3039.19
425.094	3180.5
425.302	3184.59
425.51	3254.22
425.718	3411.92
425.925	3434.44
426.133	3549.13
426.341	3694.54
426.548	3835.85
426.756	4042.69
426.964	3891.14
427.171	4128.7
427.379	4192.19
427.586	4327.36
427.794	4435.9
428.001	4638.65
428.209	4896.69
428.417	4693.94
428.624	5263.28
428.832	5248.94
429.039	5246.9
429.247	5339.05
429.454	5697.45
429.662	6213.54
429.869	5752.74
430.076	5939.11
430.284	5980.07
430.491	6029.22
430.699	6399.9
430.906	6438.81
431.114	6633.37
431.321	6610.84
431.528	6836.12
431.736	7253.91
431.943	7534.48
432.15	7323.54
432.358	7362.45
432.565	8146.82
432.772	8138.63
432.979	8439.68
433.187	8507.26
433.394	8431.49
433.601	9009.01
433.808	9144.18
434.016	9156.47
434.223	9604.97
434.43	9965.42
434.637	9750.38
434.844	10436.45
435.052	10850.14
435.259	10688.35
435.466	10714.97
435.673	10606.43
435.88	11296.6
436.087	11829.07
436.294	11898.7
436.501	11796.3
436.708	11792.2
436.915	12216.13
437.122	12764.99
437.329	12795.71
437.537	13158.2
437.743	13373.24
437.95	13211.45
438.157	13903.66
438.364	14522.15
438.571	14364.45
438.778	14630.69
438.985	16004.88
439.192	15200.02
439.399	15611.67
439.606	15345.43
439.813	16377.61
440.02	17458.93
440.227	16936.7
440.433	16822.02
440.64	17293.05
440.847	17438.45
441.054	17487.61
441.261	18851.55
441.467	18650.85
441.674	19042.01
441.881	19554.01
442.088	19683.03
442.294	19375.83
442.501	19967.7
442.708	20555.46
442.914	21352.12
443.121	22054.58
443.328	21624.5
443.534	23154.33
443.741	22343.34
443.948	21982.9
444.154	23467.67
444.361	23578.26
444.568	23629.46
444.774	23400.09
444.981	23735.96
445.187	24630.92
445.394	25742.97
445.6	25171.58
445.807	27721.3
446.013	26639.98
446.22	27248.22
446.426	28274.26
446.633	28216.91
446.839	29605.44
447.046	28145.23
447.252	29625.92
447.459	29498.94
447.665	29414.98
447.871	31067.69
448.078	31976.98
448.284	30553.65
448.491	31587.87
448.697	32937.48
448.903	33349.12
449.11	33412.61
449.316	32927.24
449.522	33406.47
449.728	34227.7
449.935	34813.42
450.141	34559.47
450.347	35325.41
450.553	34565.62
450.76	34825.71
450.966	35644.9
451.172	35124.71
451.378	36709.84
451.584	35479.01
451.791	36531.67
451.997	36466.13
452.203	37129.67
452.409	37164.49
452.615	36572.63
452.821	35712.48
453.027	35349.99
453.233	36820.43
453.44	35878.36
453.646	35661.28
453.852	36136.41
454.058	37084.62
454.264	35411.43
454.47	36474.32
454.676	35542.5
454.882	36410.84
455.088	33054.22
455.294	33975.8
455.5	34332.15
455.705	34844.14
455.911	33400.32
456.117	32931.34
456.323	32175.64
456.529	30733.87
456.735	32009.75
456.941	31321.63
457.147	30799.4
457.352	29951.54
457.558	29453.89
457.764	29871.67
457.97	28814.92
458.176	28266.06
458.381	28202.58
458.587	26764.9
458.793	26996.32
458.999	25351.81
459.204	27164.26
459.41	26375.79
459.616	24753.8
459.821	24979.07
460.027	24553.1
460.233	24424.08
460.438	22963.87
460.644	23434.91
460.85	22253.23
461.055	22030
461.261	21860.02
461.466	20233.93
461.672	19605.2
461.878	21028.54
462.083	19355.35
462.289	19160.8
462.494	18896.61
462.7	18280.17
462.905	17802.99
463.111	18181.87
463.316	18394.86
463.522	18153.19
463.727	18097.9
463.932	17929.97
464.138	17968.88
464.343	17768.18
464.549	17174.27
464.754	17860.34
464.959	17737.46
465.165	17409.78
465.37	16824.06
465.575	16447.24
465.781	17002.24
465.986	17043.2
466.191	16604.93
466.397	16099.08
466.602	15550.23
466.807	16123.66
467.012	16314.12
467.218	15652.63
467.423	15642.39
467.628	15879.95
467.833	16563.97
468.038	15834.89
468.244	15404.82
