Data from USB4F104151__76__11-45-30-567.txt Node

Date: Fri Mar 14 11:45:30 EDT 2025
User: louis
Spectrometer: USB4F10415
Trigger mode: 4
Integration Time (sec): 2.000000E-2
Scans to average: 1
Electric dark correction enabled: true
Nonlinearity correction enabled: false
Boxcar width: 0
XAxis mode: Wavelengths
Number of Pixels in Spectrum: 3648
>>>>>Begin Spectral Data<<<<<
178.204	-109.4
178.424	-109.4
178.644	-109.4
178.864	-70.48
179.084	-11.09
179.304	23.72
179.524	-45.91
179.744	36.01
179.964	27.82
180.184	13.48
180.404	56.49
180.624	-60.24
180.844	11.43
181.064	-15.19
181.283	56.49
181.503	-70.48
181.723	-33.62
181.943	25.77
182.163	64.68
182.383	-64.34
182.602	23.72
182.822	1.19
183.042	36.01
183.262	50.35
183.482	23.72
183.701	44.2
183.921	-43.86
184.141	-31.57
184.361	1.19
184.58	25.77
184.8	11.43
185.02	66.73
185.239	109.74
185.459	17.58
185.679	89.26
185.898	11.43
186.118	-7
186.338	9.39
186.557	7.34
186.777	-35.67
186.997	54.44
187.216	27.82
187.436	50.35
187.655	54.44
187.875	70.83
188.095	-31.57
188.314	5.29
188.534	38.06
188.753	40.11
188.973	58.54
189.192	13.48
189.412	23.72
189.631	25.77
189.851	36.01
190.07	-35.67
190.29	-25.43
190.509	44.2
190.729	38.06
190.948	17.58
191.168	156.84
191.387	-4.95
191.607	-9.05
191.826	-9.05
192.045	56.49
192.265	52.39
192.484	44.2
192.704	42.15
192.923	15.53
193.142	44.2
193.362	-25.43
193.581	101.55
193.8	-21.33
194.02	-21.33
194.239	72.87
194.458	29.87
194.678	62.63
194.897	56.49
195.116	93.35
195.335	36.01
195.555	33.96
195.774	7.34
195.993	74.92
196.212	66.73
196.432	31.91
196.651	36.01
196.87	-9.05
197.089	38.06
197.308	9.39
197.528	31.91
197.747	23.72
197.966	58.54
198.185	76.97
198.404	74.92
198.623	3.24
198.842	27.82
199.062	21.67
199.281	50.35
199.5	85.16
199.719	23.72
199.938	36.01
200.157	97.45
200.376	74.92
200.595	68.78
200.814	91.31
201.033	9.39
201.252	54.44
201.471	-25.43
201.69	113.83
201.909	-25.43
202.128	-9.05
202.347	74.92
202.566	91.31
202.785	46.25
203.004	19.63
203.223	42.15
203.442	136.36
203.661	11.43
203.879	-4.95
204.098	76.97
204.317	66.73
204.536	25.77
204.755	-2.9
204.974	36.01
205.193	40.11
205.411	58.54
205.63	97.45
205.849	15.53
206.068	36.01
206.287	23.72
206.505	19.63
206.724	105.64
206.943	11.43
207.162	23.72
207.381	19.63
207.599	68.78
207.818	36.01
208.037	76.97
208.255	-9.05
208.474	40.11
208.693	66.73
208.911	-0.85
209.13	56.49
209.349	60.59
209.567	60.59
209.786	109.74
210.005	52.39
210.223	-0.85
210.442	91.31
210.661	68.78
210.879	40.11
211.098	44.2
211.316	25.77
211.535	-43.86
211.753	70.83
211.972	27.82
212.191	9.39
212.409	66.73
212.628	79.02
212.846	31.91
213.065	87.21
213.283	60.59
213.502	29.87
213.72	38.06
213.938	-64.34
214.157	33.96
214.375	42.15
214.594	66.73
214.812	11.43
215.031	85.16
215.249	19.63
215.467	3.24
215.686	-0.85
215.904	19.63
216.122	-54.1
216.341	23.72
216.559	21.67
216.778	17.58
216.996	-4.95
217.214	-4.95
217.432	58.54
217.651	21.67
217.869	-15.19
218.087	44.2
218.306	31.91
218.524	79.02
218.742	66.73
218.96	17.58
219.179	-66.39
219.397	89.26
219.615	103.59
219.833	36.01
220.051	-13.14
220.27	54.44
220.488	-13.14
220.706	99.5
220.924	19.63
221.142	60.59
221.36	3.24
221.578	13.48
221.796	36.01
222.015	3.24
222.233	-13.14
222.451	42.15
222.669	66.73
222.887	142.5
223.105	19.63
223.323	5.29
223.541	64.68
223.759	132.26
223.977	91.31
224.195	89.26
224.413	54.44
224.631	46.25
224.849	40.11
225.067	107.69
225.285	-35.67
225.503	62.63
225.721	25.77
225.939	33.96
226.157	36.01
226.375	130.22
226.592	23.72
226.81	56.49
227.028	3.24
227.246	89.26
227.464	56.49
227.682	29.87
227.9	46.25
228.117	36.01
228.335	27.82
228.553	81.07
228.771	66.73
228.989	81.07
229.206	136.36
229.424	50.35
229.642	27.82
229.86	-0.85
230.077	74.92
230.295	52.39
230.513	1.19
230.731	42.15
230.948	3.24
231.166	19.63
231.384	44.2
231.601	91.31
231.819	44.2
232.037	72.87
232.254	60.59
232.472	68.78
232.689	13.48
232.907	27.82
233.125	107.69
233.342	52.39
233.56	-17.24
233.777	79.02
233.995	7.34
234.213	68.78
234.43	66.73
234.648	60.59
234.865	-17.24
235.083	103.59
235.3	11.43
235.518	13.48
235.735	56.49
235.953	36.01
236.17	-4.95
236.388	62.63
236.605	64.68
236.822	87.21
237.04	1.19
237.257	46.25
237.475	44.2
237.692	89.26
237.909	19.63
238.127	19.63
238.344	52.39
238.562	56.49
238.779	72.87
238.996	17.58
239.214	-11.09
239.431	83.11
239.648	27.82
239.865	126.12
240.083	3.24
240.3	11.43
240.517	42.15
240.735	23.72
240.952	91.31
241.169	83.11
241.386	-29.52
241.603	60.59
241.821	130.22
242.038	31.91
242.255	115.88
242.472	-2.9
242.689	25.77
242.907	52.39
243.124	66.73
243.341	23.72
243.558	54.44
243.775	95.4
243.992	31.91
244.209	17.58
244.426	109.74
244.643	3.24
244.86	-9.05
245.078	66.73
245.295	42.15
245.512	81.07
245.729	29.87
245.946	-13.14
246.163	42.15
246.38	29.87
246.597	115.88
246.814	42.15
247.031	-0.85
247.248	81.07
247.464	25.77
247.681	-15.19
247.898	44.2
248.115	15.53
248.332	52.39
248.549	58.54
248.766	48.3
248.983	3.24
249.2	-33.62
249.417	21.67
249.633	115.88
249.85	29.87
250.067	11.43
250.284	66.73
250.501	-4.95
250.717	124.07
250.934	95.4
251.151	-2.9
251.368	33.96
251.585	132.26
251.801	42.15
252.018	3.24
252.235	72.87
252.451	-27.48
252.668	31.91
252.885	126.12
253.102	-25.43
253.318	87.21
253.535	-2.9
253.752	-4.95
253.968	-54.1
254.185	25.77
254.401	15.53
254.618	52.39
254.835	-0.85
255.051	97.45
255.268	97.45
255.484	-29.52
255.701	99.5
255.917	66.73
256.134	15.53
256.351	-56.15
256.567	56.49
256.784	11.43
257	-45.91
257.217	36.01
257.433	76.97
257.65	99.5
257.866	-54.1
258.082	17.58
258.299	-29.52
258.515	9.39
258.732	1.19
258.948	-23.38
259.165	36.01
259.381	115.88
259.597	-25.43
259.814	-19.29
260.03	11.43
260.246	-39.76
260.463	52.39
260.679	74.92
260.895	42.15
261.112	44.2
261.328	68.78
261.544	3.24
261.761	56.49
261.977	7.34
262.193	25.77
262.409	5.29
262.626	40.11
262.842	-9.05
263.058	42.15
263.274	48.3
263.49	-13.14
263.707	60.59
263.923	19.63
264.139	97.45
264.355	31.91
264.571	89.26
264.787	36.01
265.004	62.63
265.22	68.78
265.436	23.72
265.652	-9.05
265.868	62.63
266.084	11.43
266.3	5.29
266.516	9.39
266.732	27.82
266.948	1.19
267.164	83.11
267.38	-0.85
267.596	29.87
267.812	36.01
268.028	33.96
268.244	-4.95
268.46	60.59
268.676	46.25
268.892	27.82
269.108	40.11
269.324	11.43
269.54	-9.05
269.756	113.83
269.972	21.67
270.188	97.45
270.403	107.69
270.619	111.78
270.835	56.49
271.051	81.07
271.267	-27.48
271.483	29.87
271.698	83.11
271.914	-19.29
272.13	58.54
272.346	42.15
272.562	72.87
272.777	29.87
272.993	25.77
273.209	-43.86
273.425	62.63
273.64	52.39
273.856	-11.09
274.072	13.48
274.287	36.01
274.503	-11.09
274.719	48.3
274.934	3.24
275.15	9.39
275.366	-13.14
275.581	3.24
275.797	5.29
276.012	-56.15
276.228	52.39
276.444	9.39
276.659	79.02
276.875	-13.14
277.09	7.34
277.306	70.83
277.521	40.11
277.737	58.54
277.952	85.16
278.168	136.36
278.383	3.24
278.599	-9.05
278.814	85.16
279.03	27.82
279.245	95.4
279.461	23.72
279.676	33.96
279.892	-19.29
280.107	15.53
280.322	52.39
280.538	38.06
280.753	58.54
280.969	44.2
281.184	27.82
281.399	27.82
281.615	70.83
281.83	1.19
282.045	40.11
282.26	44.2
282.476	-0.85
282.691	70.83
282.906	66.73
283.122	19.63
283.337	50.35
283.552	52.39
283.767	-7
283.983	85.16
284.198	50.35
284.413	72.87
284.628	-2.9
284.843	99.5
285.058	27.82
285.274	99.5
285.489	33.96
285.704	66.73
285.919	44.2
286.134	1.19
286.349	-13.14
286.564	56.49
286.779	89.26
286.995	40.11
287.21	29.87
287.425	54.44
287.64	31.91
287.855	56.49
288.07	-41.81
288.285	-2.9
288.5	64.68
288.715	50.35
288.93	19.63
289.145	44.2
289.36	50.35
289.575	-11.09
289.79	119.98
290.004	27.82
290.219	58.54
290.434	21.67
290.649	29.87
290.864	-35.67
291.079	42.15
291.294	27.82
291.509	74.92
291.724	-4.95
291.938	107.69
292.153	36.01
292.368	-4.95
292.583	52.39
292.798	13.48
293.012	56.49
293.227	44.2
293.442	29.87
293.657	9.39
293.871	17.58
294.086	3.24
294.301	31.91
294.516	36.01
294.73	36.01
294.945	52.39
295.16	40.11
295.374	13.48
295.589	42.15
295.804	-19.29
296.018	79.02
296.233	107.69
296.447	5.29
296.662	23.72
296.877	50.35
297.091	48.3
297.306	62.63
297.52	31.91
297.735	58.54
297.949	109.74
298.164	15.53
298.378	97.45
298.593	21.67
298.807	9.39
299.022	122.02
299.236	50.35
299.451	36.01
299.665	64.68
299.88	38.06
300.094	17.58
300.309	36.01
300.523	-23.38
300.737	17.58
300.952	83.11
301.166	-0.85
301.381	-15.19
301.595	70.83
301.809	-0.85
302.024	5.29
302.238	44.2
302.452	64.68
302.667	54.44
302.881	25.77
303.095	62.63
303.309	50.35
303.524	40.11
303.738	58.54
303.952	-9.05
304.166	27.82
304.381	-9.05
304.595	60.59
304.809	60.59
305.023	74.92
305.237	95.4
305.452	46.25
305.666	44.2
305.88	70.83
306.094	74.92
306.308	46.25
306.522	66.73
306.736	-13.14
306.95	38.06
307.164	-25.43
307.379	-2.9
307.593	105.64
307.807	11.43
308.021	74.92
308.235	25.77
308.449	33.96
308.663	-13.14
308.877	36.01
309.091	-25.43
309.305	1.19
309.519	-39.76
309.733	68.78
309.947	-25.43
310.161	36.01
310.374	64.68
310.588	89.26
310.802	-29.52
311.016	23.72
311.23	-15.19
311.444	3.24
311.658	7.34
311.872	11.43
312.085	79.02
312.299	56.49
312.513	40.11
312.727	7.34
312.941	7.34
313.154	46.25
313.368	-4.95
313.582	56.49
313.796	19.63
314.009	-23.38
314.223	107.69
314.437	33.96
314.651	48.3
314.864	44.2
315.078	76.97
315.292	-39.76
315.505	58.54
315.719	38.06
315.933	7.34
316.146	31.91
316.36	17.58
316.573	27.82
316.787	68.78
317.001	95.4
317.214	1.19
317.428	-9.05
317.641	68.78
317.855	11.43
318.068	5.29
318.282	64.68
318.495	70.83
318.709	68.78
318.922	17.58
319.136	87.21
319.349	33.96
319.563	62.63
319.776	25.77
319.99	42.15
320.203	3.24
320.417	62.63
320.63	7.34
320.843	56.49
321.057	38.06
321.27	-9.05
321.483	38.06
321.697	-7
321.91	40.11
322.124	119.98
322.337	70.83
322.55	93.35
322.763	-11.09
322.977	1.19
323.19	54.44
323.403	21.67
323.617	40.11
323.83	62.63
324.043	-4.95
324.256	97.45
324.469	-13.14
324.683	66.73
324.896	7.34
325.109	-15.19
325.322	58.54
325.535	124.07
325.748	27.82
325.962	31.91
326.175	74.92
326.388	64.68
326.601	54.44
326.814	66.73
327.027	48.3
327.24	29.87
327.453	79.02
327.666	56.49
327.879	66.73
328.092	72.87
328.305	23.72
328.518	76.97
328.731	81.07
328.944	42.15
329.157	101.55
329.37	64.68
329.583	36.01
329.796	50.35
330.009	52.39
330.222	64.68
330.435	79.02
330.648	29.87
330.861	13.48
331.073	-4.95
331.286	79.02
331.499	-33.62
331.712	74.92
331.925	74.92
332.138	56.49
332.35	48.3
332.563	-13.14
332.776	64.68
332.989	60.59
333.202	81.07
333.414	1.19
333.627	54.44
333.84	89.26
334.053	54.44
334.265	-25.43
334.478	76.97
334.691	48.3
334.903	81.07
335.116	76.97
335.329	46.25
335.541	3.24
335.754	40.11
335.966	13.48
336.179	54.44
336.392	70.83
336.604	31.91
336.817	27.82
337.029	97.45
337.242	27.82
337.454	93.35
337.667	56.49
337.88	93.35
338.092	99.5
338.305	31.91
338.517	17.58
338.729	7.34
338.942	105.64
339.154	83.11
339.367	-19.29
339.579	21.67
339.792	89.26
340.004	66.73
340.217	40.11
340.429	60.59
340.641	1.19
340.854	-2.9
341.066	17.58
341.278	42.15
341.491	33.96
341.703	44.2
341.915	27.82
342.128	68.78
342.34	9.39
342.552	-0.85
342.764	48.3
342.977	19.63
343.189	117.93
343.401	17.58
343.613	23.72
343.826	31.91
344.038	3.24
344.25	50.35
344.462	-13.14
344.674	42.15
344.886	64.68
345.099	11.43
345.311	38.06
345.523	27.82
345.735	9.39
345.947	40.11
346.159	81.07
346.371	29.87
346.583	29.87
346.795	23.72
347.007	54.44
347.219	76.97
347.431	70.83
347.643	122.02
347.855	72.87
348.067	74.92
348.279	21.67
348.491	27.82
348.703	64.68
348.915	81.07
349.127	38.06
349.339	36.01
349.551	50.35
349.763	89.26
349.975	-4.95
350.187	99.5
350.399	36.01
350.61	31.91
350.822	56.49
351.034	76.97
351.246	113.83
351.458	97.45
351.669	25.77
351.881	79.02
352.093	52.39
352.305	105.64
352.517	52.39
352.728	15.53
352.94	56.49
353.152	76.97
353.363	42.15
353.575	56.49
353.787	52.39
353.999	21.67
354.21	91.31
354.422	-2.9
354.633	74.92
354.845	105.64
355.057	-47.96
355.268	81.07
355.48	17.58
355.692	33.96
355.903	74.92
356.115	40.11
356.326	-19.29
356.538	91.31
356.749	46.25
356.961	23.72
357.172	3.24
357.384	70.83
357.595	103.59
357.807	107.69
358.018	19.63
358.23	58.54
358.441	11.43
358.653	-2.9
358.864	-0.85
359.075	29.87
359.287	11.43
359.498	81.07
359.709	-0.85
359.921	29.87
360.132	33.96
360.344	113.83
360.555	1.19
360.766	117.93
360.977	23.72
361.189	38.06
361.4	40.11
361.611	68.78
361.823	87.21
362.034	25.77
362.245	19.63
362.456	44.2
362.667	79.02
362.879	9.39
363.09	68.78
363.301	95.4
363.512	115.88
363.723	3.24
363.935	13.48
364.146	11.43
364.357	79.02
364.568	44.2
364.779	7.34
364.99	81.07
365.201	44.2
365.412	68.78
365.623	1.19
365.834	64.68
366.045	25.77
366.256	97.45
366.467	48.3
366.678	-29.52
366.889	-4.95
367.1	-15.19
367.311	76.97
367.522	46.25
367.733	122.02
367.944	-23.38
368.155	27.82
368.366	105.64
368.577	23.72
368.788	97.45
368.999	-11.09
369.209	48.3
369.42	105.64
369.631	144.55
369.842	50.35
370.053	74.92
370.264	33.96
370.474	79.02
370.685	44.2
370.896	68.78
371.107	85.16
371.317	83.11
371.528	68.78
371.739	38.06
371.95	93.35
372.16	74.92
372.371	21.67
372.582	87.21
372.792	60.59
373.003	38.06
373.214	36.01
373.424	87.21
373.635	56.49
373.846	87.21
374.056	11.43
374.267	27.82
374.477	36.01
374.688	31.91
374.898	-7
375.109	-0.85
375.319	93.35
375.53	66.73
375.74	23.72
375.951	40.11
376.161	-0.85
376.372	50.35
376.582	21.67
376.793	105.64
377.003	40.11
377.214	42.15
377.424	31.91
377.635	85.16
377.845	62.63
378.055	46.25
378.266	115.88
378.476	-35.67
378.686	79.02
378.897	33.96
379.107	58.54
379.317	23.72
379.528	50.35
379.738	68.78
379.948	9.39
380.158	115.88
380.369	9.39
380.579	60.59
380.789	119.98
380.999	101.55
381.21	85.16
381.42	87.21
381.63	-27.48
381.84	85.16
382.05	76.97
382.261	-4.95
382.471	134.31
382.681	91.31
382.891	52.39
383.101	103.59
383.311	-43.86
383.521	38.06
383.731	15.53
383.941	56.49
384.151	83.11
384.361	83.11
384.571	74.92
384.781	33.96
384.991	-0.85
385.201	140.46
385.411	27.82
385.621	38.06
385.831	50.35
386.041	-13.14
386.251	72.87
386.461	44.2
386.671	38.06
386.881	64.68
387.091	29.87
387.301	46.25
387.511	64.68
387.72	91.31
387.93	76.97
388.14	56.49
388.35	64.68
388.56	44.2
388.769	44.2
388.979	54.44
389.189	58.54
389.399	36.01
389.609	29.87
389.818	97.45
390.028	68.78
390.238	64.68
390.447	56.49
390.657	64.68
390.867	68.78
391.076	85.16
391.286	29.87
391.496	-25.43
391.705	64.68
391.915	85.16
392.125	54.44
392.334	58.54
392.544	97.45
392.753	44.2
392.963	54.44
393.172	68.78
393.382	81.07
393.591	117.93
393.801	50.35
394.01	154.79
394.22	187.56
394.429	74.92
394.639	91.31
394.848	58.54
395.058	101.55
395.267	1.19
395.477	58.54
395.686	146.6
395.895	58.54
396.105	134.31
396.314	33.96
396.524	60.59
396.733	27.82
396.942	101.55
397.152	99.5
397.361	58.54
397.57	101.55
397.78	72.87
397.989	142.5
398.198	171.18
398.407	50.35
398.617	89.26
398.826	60.59
399.035	89.26
399.244	93.35
399.453	46.25
399.663	132.26
399.872	83.11
400.081	128.17
400.29	99.5
400.499	91.31
400.708	81.07
400.917	115.88
401.127	148.65
401.336	136.36
401.545	138.41
401.754	210.09
401.963	152.74
402.172	50.35
402.381	68.78
402.59	72.87
402.799	60.59
403.008	97.45
403.217	19.63
403.426	109.74
403.635	111.78
403.844	119.98
404.053	187.56
404.262	95.4
404.471	140.46
404.68	128.17
404.888	31.91
405.097	171.18
405.306	160.94
405.515	165.03
405.724	140.46
405.933	99.5
406.142	142.5
406.35	199.85
406.559	162.98
406.768	183.46
406.977	189.61
407.185	205.99
407.394	173.22
407.603	146.6
407.812	251.05
408.02	195.75
408.229	87.21
408.438	228.52
408.646	257.19
408.855	193.7
409.064	244.9
409.272	267.43
409.481	267.43
409.69	197.8
409.898	292.01
410.107	296.1
410.315	289.96
410.524	320.68
410.733	277.67
410.941	339.11
411.15	310.44
411.358	418.98
411.567	392.36
411.775	363.69
411.984	384.16
412.192	386.21
412.401	433.32
412.609	418.98
412.818	400.55
413.026	392.36
413.234	492.71
413.443	509.09
413.651	437.41
413.86	539.81
414.068	521.38
414.276	533.67
414.485	566.43
414.693	566.43
414.901	652.45
415.11	599.2
415.318	640.16
415.526	701.6
415.734	808.09
415.943	773.28
416.151	783.52
416.359	724.13
416.567	750.75
416.776	754.85
416.984	836.77
417.192	885.92
417.4	883.87
417.608	912.54
417.817	949.4
418.025	1010.84
418.233	1068.19
418.441	1055.9
418.649	1002.65
418.857	1117.34
419.065	1150.11
419.273	1229.98
419.481	1277.08
419.689	1322.13
419.897	1393.81
420.105	1379.48
420.313	1422.48
420.521	1504.4
420.729	1420.44
420.937	1434.77
421.145	1569.94
421.353	1569.94
421.561	1754.26
421.769	1674.39
421.977	1787.02
422.185	1813.65
422.393	1983.63
422.601	2161.8
422.809	2065.55
423.017	2049.16
423.224	2038.92
423.432	2258.06
423.64	2350.21
423.848	2440.33
424.056	2391.17
424.263	2630.79
424.471	2626.69
424.679	2657.41
424.887	2860.16
425.094	2815.1
425.302	2942.08
425.51	2907.26
425.718	2987.13
425.925	3116.16
426.133	3259.51
426.341	3304.57
426.548	3538.04
426.756	3435.64
426.964	3583.09
427.171	3814.51
427.379	3859.57
427.586	3996.78
427.794	4052.08
428.001	4279.4
428.209	4480.1
428.417	4396.14
428.624	4723.81
428.832	4564.07
429.039	4596.84
429.247	4670.56
429.454	5114.97
429.662	5491.8
429.869	5061.73
430.076	5403.74
430.284	5274.71
430.491	5598.29
430.699	5833.81
430.906	5911.63
431.114	6071.37
431.321	6136.91
431.528	6200.4
431.736	6747.2
431.943	6986.82
432.15	6726.72
432.358	7027.78
432.565	7343.16
432.772	7326.78
432.979	7597.11
433.187	7679.03
433.394	7468.09
433.601	8186.93
433.808	8246.32
434.016	8258.6
434.223	8524.84
434.43	8997.92
434.637	8946.72
434.844	9425.95
435.052	9645.08
435.259	9483.29
435.466	9602.07
435.673	9634.84
435.88	10290.19
436.087	10687.5
436.294	10718.22
436.501	10451.98
436.708	10730.5
436.915	11156.48
437.122	11547.64
437.329	11463.68
437.537	11903.99
437.743	12010.48
437.95	11914.23
438.157	12338.16
438.364	13085.67
438.571	13067.24
438.778	13288.42
438.985	14373.84
439.192	13657.05
439.399	14300.11
439.606	14031.83
439.813	14554.06
440.02	15602.62
440.227	15193.03
440.433	15172.55
440.64	15594.43
440.847	15729.59
441.054	15979.45
441.261	17087.4
441.467	16622.51
441.674	17394.59
441.881	17955.74
442.088	17767.32
442.294	17521.57
442.501	17912.73
442.708	18379.67
442.914	18963.34
443.121	19854.2
443.328	19395.46
443.534	20675.44
443.741	20423.54
443.948	19848.06
444.154	21674.85
444.361	21255.01
444.568	21171.05
444.774	21015.4
444.981	21556.07
445.187	22145.88
445.394	23075.66
445.6	22868.81
445.807	25076.52
446.013	23872.32
446.22	24468.28
446.426	25467.69
446.633	25568.04
446.839	26137.37
447.046	25402.15
447.252	26903.31
447.459	26770.19
447.665	26858.26
447.871	27931.39
448.078	29145.84
448.284	27771.65
448.491	28459.77
448.697	29545.19
448.903	30069.47
449.11	29899.49
449.316	29702.89
449.522	30210.78
449.728	31341.26
449.935	31204.05
450.141	31046.35
450.347	32248.51
450.553	30929.62
450.76	31138.51
450.966	32461.5
451.172	32393.92
451.378	32993.97
451.584	32195.26
451.791	33194.67
451.997	32649.91
452.203	33231.54
452.409	33524.4
452.615	33157.81
452.821	32377.53
453.027	31808.2
453.233	33501.87
453.44	32029.38
453.646	32654.01
453.852	32711.35
454.058	33372.85
454.264	32527.03
454.47	32993.97
454.676	32060.1
454.882	33147.57
455.088	29893.35
455.294	31036.11
455.5	31277.77
455.705	31572.68
455.911	30079.71
456.117	29645.54
456.323	29313.77
456.529	27876.1
456.735	29209.32
456.941	28549.88
457.147	27964.16
457.352	27087.63
457.558	26843.92
457.764	26718.99
457.97	26362.65
458.176	26045.21
458.381	25353
458.587	24369.97
458.793	24662.83
458.999	23137.1
459.204	24912.69
459.41	24179.51
459.616	22520.66
459.821	22436.69
460.027	22545.23
460.233	22051.67
460.438	20898.67
460.644	20896.62
460.85	20007.8
461.055	19704.7
461.261	19764.09
461.466	18430.87
461.672	17781.66
461.878	18908.04
462.083	17845.15
462.289	17370.02
462.494	17109.93
462.7	16372.66
462.905	16073.65
463.111	16761.77
463.316	16716.72
463.522	16194.48
463.727	16335.79
463.932	16364.46
464.138	16063.41
464.343	16206.77
464.549	15580.09
464.754	16217.01
464.959	16096.18
465.165	16036.79
465.37	15244.23
465.575	14980.04
465.781	15496.13
465.986	15637.44
466.191	15055.81
466.397	14988.23
466.602	13925.33
466.807	14588.88
467.012	14578.64
467.218	14613.45
467.423	14009.3
467.628	14472.14
467.833	14898.12
468.038	14494.67
