Data from USB4F104151__66__11-45-24-828.txt Node

Date: Fri Mar 14 11:45:24 EDT 2025
User: louis
Spectrometer: USB4F10415
Trigger mode: 4
Integration Time (sec): 2.000000E-2
Scans to average: 1
Electric dark correction enabled: true
Nonlinearity correction enabled: false
Boxcar width: 0
XAxis mode: Wavelengths
Number of Pixels in Spectrum: 3648
>>>>>Begin Spectral Data<<<<<
178.204	-69.29
178.424	-69.29
178.644	-69.29
178.864	-118.44
179.084	-30.38
179.304	4.44
179.524	-9.9
179.744	-34.47
179.964	-3.75
180.184	-26.28
180.404	16.73
180.624	4.44
180.844	4.44
181.064	-18.09
181.283	-26.28
181.503	-34.47
181.723	123.22
181.943	-42.67
182.163	59.73
182.383	-30.38
182.602	-61.1
182.822	24.92
183.042	24.92
183.262	-16.04
183.482	45.4
183.701	63.83
183.921	31.06
184.141	-42.67
184.361	45.4
184.58	-11.95
184.8	-24.23
185.02	-3.75
185.239	51.54
185.459	24.92
185.679	39.25
185.898	-13.99
186.118	57.68
186.338	59.73
186.557	31.06
186.777	-40.62
186.997	65.88
187.216	76.12
187.436	82.26
187.655	35.16
187.875	108.88
188.095	-7.85
188.314	-28.33
188.534	0.34
188.753	31.06
188.973	47.44
189.192	41.3
189.412	61.78
189.631	16.73
189.851	45.4
190.07	10.58
190.29	4.44
190.509	-36.52
190.729	20.82
190.948	51.54
191.168	92.5
191.387	186.71
191.607	-26.28
191.826	16.73
192.045	2.39
192.265	67.92
192.484	51.54
192.704	33.11
192.923	-13.99
193.142	51.54
193.362	74.07
193.581	51.54
193.8	80.21
194.02	53.59
194.239	6.49
194.458	41.3
194.678	-24.23
194.897	69.97
195.116	10.58
195.335	35.16
195.555	49.49
195.774	104.79
195.993	16.73
196.212	-67.24
196.432	-3.75
196.651	53.59
196.87	-26.28
197.089	102.74
197.308	49.49
197.528	-16.04
197.747	-30.38
197.966	72.02
198.185	110.93
198.404	-3.75
198.623	88.4
198.842	29.01
199.062	133.46
199.281	88.4
199.5	22.87
199.719	65.88
199.938	100.69
200.157	63.83
200.376	86.36
200.595	41.3
200.814	29.01
201.033	63.83
201.252	96.6
201.471	-9.9
201.69	53.59
201.909	14.68
202.128	39.25
202.347	-36.52
202.566	31.06
202.785	16.73
203.004	33.11
203.223	55.64
203.442	43.35
203.661	6.49
203.879	18.77
204.098	-32.43
204.317	29.01
204.536	47.44
204.755	-13.99
204.974	39.25
205.193	45.4
205.411	51.54
205.63	18.77
205.849	41.3
206.068	31.06
206.287	-9.9
206.505	39.25
206.724	0.34
206.943	-16.04
207.162	-3.75
207.381	41.3
207.599	86.36
207.818	22.87
208.037	55.64
208.255	29.01
208.474	2.39
208.693	26.96
208.911	-20.14
209.13	53.59
209.349	88.4
209.567	104.79
209.786	43.35
210.005	29.01
210.223	57.68
210.442	47.44
210.661	57.68
210.879	61.78
211.098	57.68
211.316	45.4
211.535	51.54
211.753	-1.71
211.972	90.45
212.191	-38.57
212.409	33.11
212.628	10.58
212.846	82.26
213.065	-7.85
213.283	88.4
213.502	-34.47
213.72	16.73
213.938	-34.47
214.157	-3.75
214.375	106.84
214.594	31.06
214.812	-5.8
215.031	-13.99
215.249	16.73
215.467	-20.14
215.686	55.64
215.904	29.01
216.122	39.25
216.341	20.82
216.559	22.87
216.778	86.36
216.996	96.6
217.214	18.77
217.432	12.63
217.651	16.73
217.869	35.16
218.087	45.4
218.306	18.77
218.524	-9.9
218.742	57.68
218.96	22.87
219.179	78.16
219.397	18.77
219.615	59.73
219.833	-1.71
220.051	31.06
220.27	10.58
220.488	18.77
220.706	0.34
220.924	59.73
221.142	39.25
221.36	8.53
221.578	-36.52
221.796	63.83
222.015	69.97
222.233	-13.99
222.451	106.84
222.669	26.96
222.887	74.07
223.105	45.4
223.323	39.25
223.541	18.77
223.759	-46.76
223.977	29.01
224.195	78.16
224.413	55.64
224.631	-36.52
224.849	24.92
225.067	90.45
225.285	-1.71
225.503	24.92
225.721	104.79
225.939	33.11
226.157	12.63
226.375	67.92
226.592	10.58
226.81	45.4
227.028	-1.71
227.246	16.73
227.464	35.16
227.682	-1.71
227.9	-59.05
228.117	88.4
228.335	-30.38
228.553	-5.8
228.771	63.83
228.989	22.87
229.206	20.82
229.424	18.77
229.642	92.5
229.86	37.2
230.077	55.64
230.295	18.77
230.513	90.45
230.731	106.84
230.948	-3.75
231.166	37.2
231.384	63.83
231.601	43.35
231.819	49.49
232.037	43.35
232.254	112.98
232.472	37.2
232.689	86.36
232.907	37.2
233.125	33.11
233.342	-9.9
233.56	39.25
233.777	84.31
233.995	61.78
234.213	63.83
234.43	53.59
234.648	-30.38
234.865	18.77
235.083	-9.9
235.3	-32.43
235.518	41.3
235.735	102.74
235.953	63.83
236.17	61.78
236.388	-28.33
236.605	69.97
236.822	82.26
237.04	29.01
237.257	78.16
237.475	72.02
237.692	51.54
237.909	47.44
238.127	-28.33
238.344	10.58
238.562	8.53
238.779	0.34
238.996	-36.52
239.214	61.78
239.431	45.4
239.648	43.35
239.865	92.5
240.083	18.77
240.3	-50.86
240.517	37.2
240.735	108.88
240.952	106.84
241.169	4.44
241.386	51.54
241.603	57.68
241.821	8.53
242.038	88.4
242.255	78.16
242.472	-7.85
242.689	-22.19
242.907	61.78
243.124	39.25
243.341	-9.9
243.558	-16.04
243.775	-7.85
243.992	2.39
244.209	80.21
244.426	72.02
244.643	63.83
244.86	8.53
245.078	39.25
245.295	39.25
245.512	59.73
245.729	-3.75
245.946	47.44
246.163	26.96
246.38	20.82
246.597	-1.71
246.814	45.4
247.031	4.44
247.248	18.77
247.464	43.35
247.681	33.11
247.898	-44.71
248.115	-5.8
248.332	-24.23
248.549	-1.71
248.766	115.03
248.983	22.87
249.2	24.92
249.417	84.31
249.633	6.49
249.85	63.83
250.067	0.34
250.284	-5.8
250.501	47.44
250.717	67.92
250.934	55.64
251.151	51.54
251.368	-36.52
251.585	4.44
251.801	72.02
252.018	2.39
252.235	63.83
252.451	45.4
252.668	6.49
252.885	53.59
253.102	-26.28
253.318	14.68
253.535	0.34
253.752	49.49
253.968	45.4
254.185	16.73
254.401	43.35
254.618	92.5
254.835	18.77
255.051	63.83
255.268	47.44
255.484	-11.95
255.701	-38.57
255.917	61.78
256.134	26.96
256.351	55.64
256.567	47.44
256.784	18.77
257	59.73
257.217	37.2
257.433	12.63
257.65	135.51
257.866	100.69
258.082	39.25
258.299	65.88
258.515	67.92
258.732	-7.85
258.948	24.92
259.165	12.63
259.381	-50.86
259.597	22.87
259.814	-5.8
260.03	18.77
260.246	-9.9
260.463	37.2
260.679	125.27
260.895	-7.85
261.112	26.96
261.328	-3.75
261.544	8.53
261.761	57.68
261.977	41.3
262.193	16.73
262.409	35.16
262.626	76.12
262.842	45.4
263.058	37.2
263.274	110.93
263.49	2.39
263.707	57.68
263.923	-1.71
264.139	65.88
264.355	35.16
264.571	45.4
264.787	63.83
265.004	31.06
265.22	78.16
265.436	0.34
265.652	-32.43
265.868	14.68
266.084	-3.75
266.3	119.12
266.516	12.63
266.732	92.5
266.948	-13.99
267.164	115.03
267.38	-50.86
267.596	82.26
267.812	117.08
268.028	-7.85
268.244	0.34
268.46	33.11
268.676	-30.38
268.892	51.54
269.108	24.92
269.324	-26.28
269.54	14.68
269.756	39.25
269.972	-3.75
270.188	-71.34
270.403	-18.09
270.619	41.3
270.835	18.77
271.051	51.54
271.267	-26.28
271.483	33.11
271.698	-28.33
271.914	86.36
272.13	31.06
272.346	65.88
272.562	69.97
272.777	102.74
272.993	35.16
273.209	16.73
273.425	94.55
273.64	49.49
273.856	74.07
274.072	33.11
274.287	51.54
274.503	57.68
274.719	-3.75
274.934	59.73
275.15	-3.75
275.366	35.16
275.581	51.54
275.797	-24.23
276.012	22.87
276.228	102.74
276.444	16.73
276.659	76.12
276.875	6.49
277.09	45.4
277.306	49.49
277.521	137.56
277.737	31.06
277.952	-3.75
278.168	102.74
278.383	4.44
278.599	82.26
278.814	86.36
279.03	63.83
279.245	47.44
279.461	18.77
279.676	55.64
279.892	-20.14
280.107	39.25
280.322	-40.62
280.538	-24.23
280.753	29.01
280.969	80.21
281.184	59.73
281.399	110.93
281.615	2.39
281.83	22.87
282.045	10.58
282.26	63.83
282.476	16.73
282.691	24.92
282.906	51.54
283.122	24.92
283.337	4.44
283.552	61.78
283.767	-30.38
283.983	123.22
284.198	22.87
284.413	63.83
284.628	-13.99
284.843	14.68
285.058	18.77
285.274	14.68
285.489	-11.95
285.704	82.26
285.919	-1.71
286.134	37.2
286.349	6.49
286.564	-57
286.779	29.01
286.995	0.34
287.21	14.68
287.425	55.64
287.64	39.25
287.855	86.36
288.07	-1.71
288.285	104.79
288.5	110.93
288.715	129.36
288.93	72.02
289.145	22.87
289.36	29.01
289.575	82.26
289.79	88.4
290.004	2.39
290.219	-9.9
290.434	18.77
290.649	-3.75
290.864	35.16
291.079	31.06
291.294	102.74
291.509	43.35
291.724	143.7
291.938	61.78
292.153	0.34
292.368	22.87
292.583	65.88
292.798	26.96
293.012	-5.8
293.227	59.73
293.442	72.02
293.657	88.4
293.871	133.46
294.086	94.55
294.301	121.17
294.516	65.88
294.73	24.92
294.945	20.82
295.16	47.44
295.374	-36.52
295.589	37.2
295.804	37.2
296.018	-40.62
296.233	65.88
296.447	82.26
296.662	47.44
296.877	57.68
297.091	35.16
297.306	55.64
297.52	65.88
297.735	72.02
297.949	31.06
298.164	29.01
298.378	43.35
298.593	57.68
298.807	-46.76
299.022	24.92
299.236	16.73
299.451	63.83
299.665	65.88
299.88	61.78
300.094	8.53
300.309	63.83
300.523	16.73
300.737	4.44
300.952	69.97
301.166	57.68
301.381	106.84
301.595	51.54
301.809	76.12
302.024	129.36
302.238	82.26
302.452	-5.8
302.667	57.68
302.881	74.07
303.095	74.07
303.309	4.44
303.524	35.16
303.738	43.35
303.952	-57
304.166	2.39
304.381	14.68
304.595	14.68
304.809	24.92
305.023	-7.85
305.237	18.77
305.452	4.44
305.666	80.21
305.88	121.17
306.094	80.21
306.308	18.77
306.522	61.78
306.736	61.78
306.95	8.53
307.164	-3.75
307.379	78.16
307.593	43.35
307.807	39.25
308.021	10.58
308.235	14.68
308.449	72.02
308.663	47.44
308.877	12.63
309.091	61.78
309.305	43.35
309.519	41.3
309.733	51.54
309.947	-65.19
310.161	96.6
310.374	24.92
310.588	49.49
310.802	26.96
311.016	12.63
311.23	45.4
311.444	72.02
311.658	-1.71
311.872	29.01
312.085	96.6
312.299	-22.19
312.513	41.3
312.727	43.35
312.941	29.01
313.154	72.02
313.368	-1.71
313.582	63.83
313.796	-11.95
314.009	22.87
314.223	115.03
314.437	72.02
314.651	14.68
314.864	37.2
315.078	96.6
315.292	22.87
315.505	22.87
315.719	82.26
315.933	61.78
316.146	37.2
316.36	59.73
316.573	33.11
316.787	33.11
317.001	53.59
317.214	22.87
317.428	102.74
317.641	2.39
317.855	0.34
318.068	29.01
318.282	55.64
318.495	127.32
318.709	29.01
318.922	37.2
319.136	14.68
319.349	100.69
319.563	-1.71
319.776	90.45
319.99	18.77
320.203	14.68
320.417	96.6
320.63	35.16
320.843	33.11
321.057	16.73
321.27	74.07
321.483	104.79
321.697	22.87
321.91	6.49
322.124	59.73
322.337	65.88
322.55	129.36
322.763	-1.71
322.977	39.25
323.19	47.44
323.403	18.77
323.617	61.78
323.83	69.97
324.043	-24.23
324.256	26.96
324.469	-9.9
324.683	72.02
324.896	29.01
325.109	55.64
325.322	69.97
325.535	26.96
325.748	67.92
325.962	39.25
326.175	96.6
326.388	106.84
326.601	53.59
326.814	37.2
327.027	74.07
327.24	43.35
327.453	-20.14
327.666	55.64
327.879	84.31
328.092	67.92
328.305	43.35
328.518	39.25
328.731	-20.14
328.944	76.12
329.157	76.12
329.37	26.96
329.583	135.51
329.796	53.59
330.009	33.11
330.222	80.21
330.435	90.45
330.648	4.44
330.861	22.87
331.073	14.68
331.286	59.73
331.499	82.26
331.712	35.16
331.925	41.3
332.138	45.4
332.35	94.55
332.563	6.49
332.776	92.5
332.989	-48.81
333.202	86.36
333.414	80.21
333.627	74.07
333.84	29.01
334.053	63.83
334.265	47.44
334.478	39.25
334.691	33.11
334.903	18.77
335.116	-20.14
335.329	174.42
335.541	8.53
335.754	72.02
335.966	92.5
336.179	49.49
336.392	24.92
336.604	78.16
336.817	82.26
337.029	35.16
337.242	-1.71
337.454	51.54
337.667	-65.19
337.88	123.22
338.092	61.78
338.305	63.83
338.517	35.16
338.729	67.92
338.942	16.73
339.154	57.68
339.367	29.01
339.579	84.31
339.792	88.4
340.004	29.01
340.217	-22.19
340.429	133.46
340.641	-32.43
340.854	69.97
341.066	55.64
341.278	31.06
341.491	61.78
341.703	65.88
341.915	33.11
342.128	76.12
342.34	57.68
342.552	59.73
342.764	76.12
342.977	86.36
343.189	37.2
343.401	-54.95
343.613	45.4
343.826	22.87
344.038	31.06
344.25	59.73
344.462	6.49
344.674	67.92
344.886	12.63
345.099	41.3
345.311	49.49
345.523	53.59
345.735	22.87
345.947	123.22
346.159	53.59
346.371	131.41
346.583	43.35
346.795	78.16
347.007	63.83
347.219	18.77
347.431	100.69
347.643	57.68
347.855	14.68
348.067	100.69
348.279	49.49
348.491	123.22
348.703	-24.23
348.915	72.02
349.127	14.68
349.339	82.26
349.551	-7.85
349.763	76.12
349.975	65.88
350.187	33.11
350.399	39.25
350.61	59.73
350.822	31.06
351.034	78.16
351.246	35.16
351.458	104.79
351.669	59.73
351.881	76.12
352.093	29.01
352.305	67.92
352.517	76.12
352.728	53.59
352.94	37.2
353.152	74.07
353.363	123.22
353.575	43.35
353.787	80.21
353.999	43.35
354.21	184.66
354.422	29.01
354.633	-3.75
354.845	12.63
355.057	57.68
355.268	22.87
355.48	-3.75
355.692	-52.91
355.903	94.55
356.115	90.45
356.326	37.2
356.538	121.17
356.749	4.44
356.961	72.02
357.172	57.68
357.384	20.82
357.595	67.92
357.807	2.39
358.018	39.25
358.23	10.58
358.441	14.68
358.653	14.68
358.864	47.44
359.075	96.6
359.287	119.12
359.498	59.73
359.709	14.68
359.921	92.5
360.132	76.12
360.344	67.92
360.555	69.97
360.766	-13.99
360.977	55.64
361.189	69.97
361.4	100.69
361.611	37.2
361.823	55.64
362.034	51.54
362.245	-18.09
362.456	65.88
362.667	49.49
362.879	45.4
363.09	104.79
363.301	57.68
363.512	8.53
363.723	53.59
363.935	76.12
364.146	61.78
364.357	53.59
364.568	65.88
364.779	33.11
364.99	72.02
365.201	35.16
365.412	31.06
365.623	94.55
365.834	96.6
366.045	94.55
366.256	84.31
366.467	47.44
366.678	69.97
366.889	6.49
367.1	-9.9
367.311	51.54
367.522	49.49
367.733	78.16
367.944	53.59
368.155	8.53
368.366	63.83
368.577	47.44
368.788	55.64
368.999	-34.47
369.209	18.77
369.42	96.6
369.631	16.73
369.842	37.2
370.053	117.08
370.264	149.84
370.474	-46.76
370.685	41.3
370.896	45.4
371.107	37.2
371.317	110.93
371.528	63.83
371.739	59.73
371.95	141.65
372.16	110.93
372.371	69.97
372.582	67.92
372.792	29.01
373.003	78.16
373.214	67.92
373.424	37.2
373.635	45.4
373.846	35.16
374.056	41.3
374.267	96.6
374.477	59.73
374.688	22.87
374.898	33.11
375.109	55.64
375.319	45.4
375.53	143.7
375.74	108.88
375.951	76.12
376.161	37.2
376.372	2.39
376.582	80.21
376.793	45.4
377.003	47.44
377.214	31.06
377.424	57.68
377.635	6.49
377.845	82.26
378.055	110.93
378.266	100.69
378.476	69.97
378.686	35.16
378.897	92.5
379.107	117.08
379.317	12.63
379.528	69.97
379.738	63.83
379.948	55.64
380.158	57.68
380.369	0.34
380.579	76.12
380.789	53.59
380.999	63.83
381.21	43.35
381.42	37.2
381.63	76.12
381.84	37.2
382.05	63.83
382.261	104.79
382.471	104.79
382.681	78.16
382.891	31.06
383.101	47.44
383.311	67.92
383.521	96.6
383.731	121.17
383.941	104.79
384.151	51.54
384.361	51.54
384.571	86.36
384.781	135.51
384.991	108.88
385.201	88.4
385.411	65.88
385.621	108.88
385.831	35.16
386.041	106.84
386.251	84.31
386.461	88.4
386.671	61.78
386.881	162.13
387.091	55.64
387.301	112.98
387.511	22.87
387.72	72.02
387.93	145.75
388.14	84.31
388.35	51.54
388.56	123.22
388.769	129.36
388.979	94.55
389.189	61.78
389.399	102.74
389.609	22.87
389.818	29.01
390.028	67.92
390.238	57.68
390.447	20.82
390.657	121.17
390.867	47.44
391.076	-3.75
391.286	65.88
391.496	98.64
391.705	74.07
391.915	155.99
392.125	98.64
392.334	143.7
392.544	41.3
392.753	121.17
392.963	55.64
393.172	149.84
393.382	59.73
393.591	69.97
393.801	61.78
394.01	115.03
394.22	43.35
394.429	86.36
394.639	78.16
394.848	135.51
395.058	76.12
395.267	37.2
395.477	72.02
395.686	104.79
395.895	115.03
396.105	207.19
396.314	94.55
396.524	74.07
396.733	72.02
396.942	110.93
397.152	108.88
397.361	176.47
397.57	63.83
397.78	67.92
397.989	78.16
398.198	252.24
398.407	117.08
398.617	108.88
398.826	90.45
399.035	100.69
399.244	131.41
399.453	155.99
399.663	190.8
399.872	82.26
400.081	127.32
400.29	104.79
400.499	121.17
400.708	117.08
400.917	141.65
401.127	90.45
401.336	86.36
401.545	129.36
401.754	180.56
401.963	141.65
402.172	178.51
402.381	100.69
402.59	149.84
402.799	65.88
403.008	119.12
403.217	176.47
403.426	166.23
403.635	215.38
403.844	137.56
404.053	104.79
404.262	129.36
404.471	201.04
404.68	227.67
404.888	190.8
405.097	211.28
405.306	139.6
405.515	149.84
405.724	246.1
405.933	227.67
406.142	209.23
406.35	164.18
406.559	170.32
406.768	182.61
406.977	205.14
407.185	264.53
407.394	278.87
407.603	272.72
407.812	285.01
408.02	237.91
408.229	242
408.438	313.68
408.646	244.05
408.855	307.54
409.064	299.34
409.272	311.63
409.481	297.3
409.69	289.1
409.898	313.68
410.107	336.21
410.315	377.17
410.524	403.79
410.733	475.47
410.941	399.7
411.15	424.27
411.358	420.17
411.567	512.33
411.775	485.71
411.984	514.38
412.192	504.14
412.401	524.62
412.609	559.44
412.818	610.64
413.026	592.2
413.234	559.44
413.443	598.35
413.651	700.75
413.86	614.73
414.068	676.17
414.276	700.75
414.485	751.95
414.693	737.61
414.901	825.67
415.11	887.11
415.318	915.78
415.526	895.3
415.734	864.58
415.943	999.75
416.151	960.84
416.359	901.45
416.567	981.32
416.776	1046.85
416.984	1077.57
417.192	1118.53
417.4	1198.4
417.608	1198.4
417.817	1184.07
418.025	1329.47
418.233	1397.06
418.441	1231.17
418.649	1386.82
418.857	1493.31
419.065	1583.42
419.273	1524.03
419.481	1474.88
419.689	1630.52
419.897	1716.54
420.105	1708.35
420.313	1874.23
420.521	1866.04
420.729	1982.78
420.937	1968.44
421.145	1968.44
421.353	2165.04
421.561	2302.26
421.769	2324.79
421.977	2386.22
422.185	2320.69
422.393	2513.2
422.601	2691.37
422.809	2660.65
423.017	2750.76
423.224	2758.96
423.432	2820.39
423.64	2906.41
423.848	3189.03
424.056	3105.06
424.263	3352.87
424.471	3363.11
424.679	3516.7
424.887	3543.33
425.094	3729.69
425.302	3762.46
425.51	3830.04
425.718	3938.59
425.925	3928.35
426.133	4274.45
426.341	4249.88
426.548	4663.57
426.756	4489.49
426.964	4638.99
427.171	5067.02
427.379	4993.29
427.586	5183.75
427.794	5273.86
428.001	5550.34
428.209	5703.93
428.417	5738.75
428.624	5974.27
428.832	6148.34
429.039	6052.09
429.247	6129.91
429.454	6727.92
429.662	7112.94
429.869	6648.05
430.076	7166.18
430.284	6906.09
430.491	7297.25
430.699	7647.46
430.906	7637.22
431.114	7819.49
431.321	8018.14
431.528	8349.91
431.736	8622.29
431.943	8921.29
432.15	8816.85
432.358	8931.53
432.565	9529.54
432.772	9308.36
432.979	9973.95
433.187	10004.67
433.394	10229.95
433.601	11032.75
433.808	10686.64
434.016	10604.72
434.223	11206.83
434.43	11774.11
434.637	11479.21
434.844	12572.82
435.052	12714.13
435.259	12488.85
435.466	12605.59
435.673	12640.4
435.88	13430.92
436.087	14082.17
436.294	14020.74
436.501	13834.37
436.708	14151.81
436.915	14583.93
437.122	15190.13
437.329	15145.07
437.537	15652.97
437.743	15845.48
437.95	15532.14
438.157	16660.57
438.364	17014.87
438.571	17084.5
438.778	17174.61
438.985	18718.78
439.192	17981.51
439.399	18647.1
439.606	18315.33
439.813	19290.16
440.02	20527.13
440.227	20099.11
440.433	20121.63
440.64	20725.79
440.847	20359.2
441.054	20877.33
441.261	22222.85
441.467	22067.2
441.674	22540.29
441.881	23203.83
442.088	23187.44
442.294	22910.97
442.501	23500.78
442.708	24221.67
442.914	25182.17
443.121	25868.23
443.328	25057.24
443.534	27033.53
443.741	26632.13
443.948	26058.7
444.154	28084.14
444.361	27531.19
444.568	28098.47
444.774	28030.89
444.981	28274.6
445.187	29308.82
445.394	30588.8
445.6	30320.52
445.807	33021.79
446.013	31336.31
446.22	32114.54
446.426	33091.42
446.633	33763.15
446.839	34443.08
447.046	33288.03
447.252	35219.26
447.459	35348.28
447.665	35299.13
447.871	36738.85
448.078	38139.66
448.284	36230.96
448.491	37320.48
448.697	38756.1
448.903	38858.5
449.11	39606.01
449.316	38702.85
449.522	39732.98
449.728	40568.55
449.935	41287.39
450.141	40924.9
450.347	41887.45
450.553	40279.79
450.76	41309.92
450.966	42569.42
451.172	41672.41
451.378	43036.36
451.584	41926.36
451.791	42958.53
451.997	42854.09
452.203	43851.45
452.409	43472.57
452.615	43337.41
452.821	41529.05
453.027	41410.27
453.233	43497.15
453.44	41991.89
453.646	42159.83
453.852	42307.28
454.058	43181.76
454.264	41463.52
454.47	42991.3
454.676	41684.7
454.882	43239.11
455.088	39165.7
455.294	39941.88
455.5	40380.14
455.705	40937.19
455.911	39300.86
456.117	38866.69
456.323	38366.99
456.529	35995.44
456.735	37523.22
456.941	36790.05
457.147	36179.76
457.352	34867.01
457.558	34694.98
457.764	35129.15
457.97	34185.04
458.176	33695.57
458.381	33531.73
458.587	31958.89
458.793	31979.37
458.999	30293.9
459.204	32221.03
459.41	31471.48
459.616	29413.27
459.821	29233.05
460.027	29208.47
460.233	28594.08
460.438	27152.31
460.644	27695.02
460.85	26181.57
461.055	25788.36
461.261	25821.13
461.466	24147.94
461.672	23515.12
461.878	25077.72
462.083	23461.87
462.289	23087.09
462.494	22689.79
462.7	21520.4
462.905	21116.95
463.111	21897.22
463.316	22034.44
463.522	21311.5
463.727	21223.44
463.932	21348.37
464.138	21059.6
464.343	21418
464.549	20541.47
464.754	21385.23
464.959	20901.91
465.165	21082.13
465.37	20054.05
465.575	19402.8
465.781	20308
465.986	20314.14
466.191	19879.97
466.397	19048.5
466.602	18382.91
466.807	19212.34
467.012	19095.6
467.218	19028.02
467.423	18759.74
467.628	19241.01
