Data from USB4F104151__27__11-44-49-273.txt Node

Date: Fri Mar 14 11:44:49 EDT 2025
User: louis
Spectrometer: USB4F10415
Trigger mode: 4
Integration Time (sec): 2.000000E-2
Scans to average: 1
Electric dark correction enabled: true
Nonlinearity correction enabled: false
Boxcar width: 0
XAxis mode: Wavelengths
Number of Pixels in Spectrum: 3648
>>>>>Begin Spectral Data<<<<<
178.204	-13.48
178.424	-13.48
178.644	-13.48
178.864	-70.83
179.084	-29.87
179.304	86.87
179.524	-7.34
179.744	58.2
179.964	-5.29
180.184	-27.82
180.404	-31.91
180.624	-83.11
180.844	9.05
181.064	21.33
181.283	-33.96
181.503	-15.53
181.723	29.52
181.943	97.11
182.163	27.48
182.383	43.86
182.602	95.06
182.822	113.49
183.042	72.53
183.262	33.62
183.482	35.67
183.701	117.59
183.921	84.82
184.141	35.67
184.361	72.53
184.58	107.35
184.8	78.68
185.02	15.19
185.239	47.96
185.459	-9.39
185.679	78.68
185.898	68.44
186.118	62.29
186.338	88.92
186.557	99.16
186.777	113.49
186.997	146.26
187.216	-1.19
187.436	160.59
187.655	54.1
187.875	109.4
188.095	90.96
188.314	150.36
188.534	80.72
188.753	-42.15
188.973	72.53
189.192	140.12
189.412	84.82
189.631	-17.58
189.851	56.15
190.07	144.21
190.29	17.24
190.509	95.06
190.729	70.48
190.948	58.2
191.168	99.16
191.387	52.05
191.607	-11.43
191.826	70.48
192.045	68.44
192.265	101.2
192.484	78.68
192.704	82.77
192.923	93.01
193.142	52.05
193.362	62.29
193.581	64.34
193.8	144.21
194.02	66.39
194.239	76.63
194.458	88.92
194.678	23.38
194.897	60.24
195.116	103.25
195.335	119.64
195.555	70.48
195.774	72.53
195.993	152.4
196.212	68.44
196.432	66.39
196.651	21.33
196.87	21.33
197.089	68.44
197.308	90.96
197.528	54.1
197.747	0.85
197.966	146.26
198.185	209.75
198.404	140.12
198.623	82.77
198.842	78.68
199.062	43.86
199.281	60.24
199.5	41.81
199.719	109.4
199.938	80.72
200.157	113.49
200.376	43.86
200.595	123.73
200.814	66.39
201.033	113.49
201.252	95.06
201.471	52.05
201.69	33.62
201.909	74.58
202.128	7
202.347	52.05
202.566	68.44
202.785	80.72
203.004	37.72
203.223	86.87
203.442	86.87
203.661	121.68
203.879	68.44
204.098	74.58
204.317	29.52
204.536	95.06
204.755	121.68
204.974	115.54
205.193	86.87
205.411	115.54
205.63	70.48
205.849	56.15
206.068	97.11
206.287	56.15
206.505	97.11
206.724	33.62
206.943	76.63
207.162	72.53
207.381	88.92
207.599	74.58
207.818	76.63
208.037	33.62
208.255	60.24
208.474	43.86
208.693	101.2
208.911	90.96
209.13	50
209.349	60.24
209.567	86.87
209.786	62.29
210.005	105.3
210.223	80.72
210.442	47.96
210.661	103.25
210.879	58.2
211.098	80.72
211.316	80.72
211.535	70.48
211.753	66.39
211.972	70.48
212.191	62.29
212.409	88.92
212.628	64.34
212.846	47.96
213.065	11.09
213.283	23.38
213.502	62.29
213.72	56.15
213.938	111.44
214.157	74.58
214.375	93.01
214.594	99.16
214.812	74.58
215.031	39.76
215.249	76.63
215.467	54.1
215.686	31.57
215.904	99.16
216.122	101.2
216.341	52.05
216.559	95.06
216.778	31.57
216.996	7
217.214	121.68
217.432	-13.48
217.651	37.72
217.869	97.11
218.087	74.58
218.306	119.64
218.524	82.77
218.742	62.29
218.96	101.2
219.179	50
219.397	31.57
219.615	127.83
219.833	64.34
220.051	-25.77
220.27	62.29
220.488	13.14
220.706	93.01
220.924	-42.15
221.142	56.15
221.36	37.72
221.578	-5.29
221.796	115.54
222.015	66.39
222.233	105.3
222.451	105.3
222.669	64.34
222.887	146.26
223.105	25.43
223.323	29.52
223.541	86.87
223.759	7
223.977	82.77
224.195	70.48
224.413	56.15
224.631	45.91
224.849	15.19
225.067	88.92
225.285	37.72
225.503	82.77
225.721	15.19
225.939	31.57
226.157	88.92
226.375	101.2
226.592	23.38
226.81	103.25
227.028	82.77
227.246	80.72
227.464	43.86
227.682	54.1
227.9	119.64
228.117	93.01
228.335	37.72
228.553	56.15
228.771	-3.24
228.989	142.16
229.206	72.53
229.424	35.67
229.642	68.44
229.86	-23.72
230.077	117.59
230.295	25.43
230.513	111.44
230.731	146.26
230.948	39.76
231.166	68.44
231.384	31.57
231.601	86.87
231.819	90.96
232.037	23.38
232.254	21.33
232.472	68.44
232.689	74.58
232.907	23.38
233.125	84.82
233.342	43.86
233.56	74.58
233.777	105.3
233.995	66.39
234.213	103.25
234.43	113.49
234.648	19.29
234.865	35.67
235.083	35.67
235.3	19.29
235.518	125.78
235.735	62.29
235.953	52.05
236.17	68.44
236.388	68.44
236.605	111.44
236.822	113.49
237.04	97.11
237.257	66.39
237.475	78.68
237.692	133.97
237.909	88.92
238.127	88.92
238.344	68.44
238.562	37.72
238.779	29.52
238.996	60.24
239.214	80.72
239.431	84.82
239.648	4.95
239.865	45.91
240.083	23.38
240.3	0.85
240.517	58.2
240.735	76.63
240.952	121.68
241.169	82.77
241.386	60.24
241.603	62.29
241.821	58.2
242.038	70.48
242.255	86.87
242.472	0.85
242.689	103.25
242.907	37.72
243.124	54.1
243.341	70.48
243.558	66.39
243.775	76.63
243.992	7
244.209	58.2
244.426	107.35
244.643	-1.19
244.86	84.82
245.078	72.53
245.295	60.24
245.512	90.96
245.729	99.16
245.946	99.16
246.163	105.3
246.38	35.67
246.597	54.1
246.814	86.87
247.031	58.2
247.248	88.92
247.464	84.82
247.681	103.25
247.898	25.43
248.115	54.1
248.332	37.72
248.549	60.24
248.766	119.64
248.983	7
249.2	84.82
249.417	84.82
249.633	76.63
249.85	52.05
250.067	47.96
250.284	31.57
250.501	93.01
250.717	2.9
250.934	11.09
251.151	21.33
251.368	82.77
251.585	50
251.801	125.78
252.018	4.95
252.235	50
252.451	115.54
252.668	21.33
252.885	54.1
253.102	50
253.318	31.57
253.535	35.67
253.752	56.15
253.968	95.06
254.185	-17.58
254.401	101.2
254.618	62.29
254.835	78.68
255.051	66.39
255.268	66.39
255.484	11.09
255.701	54.1
255.917	78.68
256.134	29.52
256.351	45.91
256.567	35.67
256.784	74.58
257	76.63
257.217	101.2
257.433	58.2
257.65	58.2
257.866	47.96
258.082	39.76
258.299	23.38
258.515	54.1
258.732	31.57
258.948	60.24
259.165	56.15
259.381	45.91
259.597	27.48
259.814	39.76
260.03	113.49
260.246	84.82
260.463	78.68
260.679	88.92
260.895	54.1
261.112	43.86
261.328	70.48
261.544	-13.48
261.761	43.86
261.977	27.48
262.193	27.48
262.409	95.06
262.626	113.49
262.842	90.96
263.058	129.88
263.274	82.77
263.49	45.91
263.707	129.88
263.923	76.63
264.139	117.59
264.355	78.68
264.571	109.4
264.787	68.44
265.004	76.63
265.22	62.29
265.436	-1.19
265.652	41.81
265.868	80.72
266.084	54.1
266.3	60.24
266.516	47.96
266.732	62.29
266.948	103.25
267.164	56.15
267.38	64.34
267.596	27.48
267.812	60.24
268.028	72.53
268.244	43.86
268.46	90.96
268.676	72.53
268.892	76.63
269.108	62.29
269.324	76.63
269.54	74.58
269.756	80.72
269.972	95.06
270.188	50
270.403	56.15
270.619	74.58
270.835	99.16
271.051	31.57
271.267	29.52
271.483	131.92
271.698	136.02
271.914	127.83
272.13	31.57
272.346	164.69
272.562	76.63
272.777	181.07
272.993	43.86
273.209	41.81
273.425	43.86
273.64	152.4
273.856	43.86
274.072	41.81
274.287	119.64
274.503	105.3
274.719	84.82
274.934	58.2
275.15	95.06
275.366	86.87
275.581	11.09
275.797	121.68
276.012	52.05
276.228	45.91
276.444	101.2
276.659	88.92
276.875	74.58
277.09	43.86
277.306	35.67
277.521	70.48
277.737	78.68
277.952	58.2
278.168	37.72
278.383	37.72
278.599	113.49
278.814	35.67
279.03	43.86
279.245	117.59
279.461	43.86
279.676	129.88
279.892	84.82
280.107	150.36
280.322	60.24
280.538	62.29
280.753	93.01
280.969	17.24
281.184	50
281.399	107.35
281.615	78.68
281.83	72.53
282.045	35.67
282.26	25.43
282.476	78.68
282.691	176.98
282.906	88.92
283.122	50
283.337	11.09
283.552	133.97
283.767	2.9
283.983	76.63
284.198	84.82
284.413	88.92
284.628	15.19
284.843	97.11
285.058	-1.19
285.274	68.44
285.489	52.05
285.704	123.73
285.919	39.76
286.134	138.07
286.349	93.01
286.564	82.77
286.779	64.34
286.995	90.96
287.21	74.58
287.425	68.44
287.64	70.48
287.855	105.3
288.07	37.72
288.285	97.11
288.5	88.92
288.715	23.38
288.93	56.15
289.145	138.07
289.36	133.97
289.575	60.24
289.79	90.96
290.004	58.2
290.219	64.34
290.434	86.87
290.649	142.16
290.864	43.86
291.079	64.34
291.294	45.91
291.509	109.4
291.724	11.09
291.938	95.06
292.153	47.96
292.368	29.52
292.583	66.39
292.798	127.83
293.012	105.3
293.227	56.15
293.442	90.96
293.657	43.86
293.871	33.62
294.086	107.35
294.301	119.64
294.516	95.06
294.73	107.35
294.945	76.63
295.16	90.96
295.374	127.83
295.589	101.2
295.804	29.52
296.018	17.24
296.233	80.72
296.447	121.68
296.662	31.57
296.877	99.16
297.091	56.15
297.306	23.38
297.52	37.72
297.735	113.49
297.949	115.54
298.164	41.81
298.378	47.96
298.593	62.29
298.807	72.53
299.022	23.38
299.236	43.86
299.451	60.24
299.665	107.35
299.88	70.48
300.094	31.57
300.309	33.62
300.523	88.92
300.737	58.2
300.952	60.24
301.166	35.67
301.381	88.92
301.595	88.92
301.809	47.96
302.024	19.29
302.238	39.76
302.452	66.39
302.667	54.1
302.881	84.82
303.095	47.96
303.309	140.12
303.524	88.92
303.738	101.2
303.952	70.48
304.166	150.36
304.381	33.62
304.595	90.96
304.809	60.24
305.023	68.44
305.237	156.5
305.452	72.53
305.666	105.3
305.88	43.86
306.094	99.16
306.308	86.87
306.522	127.83
306.736	72.53
306.95	56.15
307.164	66.39
307.379	86.87
307.593	70.48
307.807	54.1
308.021	9.05
308.235	-11.43
308.449	64.34
308.663	62.29
308.877	125.78
309.091	-5.29
309.305	109.4
309.519	43.86
309.733	95.06
309.947	136.02
310.161	119.64
310.374	107.35
310.588	52.05
310.802	50
311.016	70.48
311.23	23.38
311.444	27.48
311.658	119.64
311.872	148.31
312.085	80.72
312.299	52.05
312.513	121.68
312.727	52.05
312.941	11.09
313.154	80.72
313.368	-9.39
313.582	107.35
313.796	158.55
314.009	88.92
314.223	127.83
314.437	129.88
314.651	158.55
314.864	27.48
315.078	97.11
315.292	125.78
315.505	101.2
315.719	-1.19
315.933	115.54
316.146	64.34
316.36	60.24
316.573	121.68
316.787	95.06
317.001	136.02
317.214	58.2
317.428	97.11
317.641	93.01
317.855	56.15
318.068	21.33
318.282	101.2
318.495	54.1
318.709	103.25
318.922	52.05
319.136	138.07
319.349	101.2
319.563	47.96
319.776	101.2
319.99	23.38
320.203	154.45
320.417	37.72
320.63	29.52
320.843	111.44
321.057	107.35
321.27	88.92
321.483	222.03
321.697	162.64
321.91	33.62
322.124	86.87
322.337	58.2
322.55	103.25
322.763	78.68
322.977	142.16
323.19	11.09
323.403	154.45
323.617	136.02
323.83	88.92
324.043	21.33
324.256	93.01
324.469	4.95
324.683	158.55
324.896	-31.91
325.109	19.29
325.322	105.3
325.535	140.12
325.748	86.87
325.962	47.96
326.175	76.63
326.388	82.77
326.601	99.16
326.814	45.91
327.027	76.63
327.24	103.25
327.453	74.58
327.666	109.4
327.879	107.35
328.092	76.63
328.305	113.49
328.518	37.72
328.731	31.57
328.944	52.05
329.157	39.76
329.37	72.53
329.583	60.24
329.796	78.68
330.009	15.19
330.222	97.11
330.435	33.62
330.648	90.96
330.861	64.34
331.073	76.63
331.286	142.16
331.499	-1.19
331.712	113.49
331.925	82.77
332.138	123.73
332.35	109.4
332.563	35.67
332.776	82.77
332.989	56.15
333.202	31.57
333.414	-19.63
333.627	95.06
333.84	86.87
334.053	86.87
334.265	58.2
334.478	99.16
334.691	68.44
334.903	68.44
335.116	50
335.329	13.14
335.541	103.25
335.754	140.12
335.966	88.92
336.179	156.5
336.392	43.86
336.604	7
336.817	80.72
337.029	131.92
337.242	60.24
337.454	97.11
337.667	95.06
337.88	115.54
338.092	15.19
338.305	86.87
338.517	23.38
338.729	103.25
338.942	109.4
339.154	21.33
339.367	93.01
339.579	168.79
339.792	45.91
340.004	52.05
340.217	138.07
340.429	39.76
340.641	70.48
340.854	148.31
341.066	45.91
341.278	103.25
341.491	93.01
341.703	109.4
341.915	4.95
342.128	99.16
342.34	86.87
342.552	88.92
342.764	74.58
342.977	68.44
343.189	76.63
343.401	74.58
343.613	138.07
343.826	47.96
344.038	113.49
344.25	80.72
344.462	66.39
344.674	64.34
344.886	17.24
345.099	80.72
345.311	127.83
345.523	47.96
345.735	0.85
345.947	97.11
346.159	43.86
346.371	45.91
346.583	72.53
346.795	109.4
347.007	80.72
347.219	47.96
347.431	78.68
347.643	84.82
347.855	64.34
348.067	56.15
348.279	72.53
348.491	60.24
348.703	88.92
348.915	86.87
349.127	76.63
349.339	95.06
349.551	9.05
349.763	60.24
349.975	84.82
350.187	103.25
350.399	52.05
350.61	113.49
350.822	11.09
351.034	136.02
351.246	142.16
351.458	39.76
351.669	101.2
351.881	101.2
352.093	86.87
352.305	107.35
352.517	93.01
352.728	123.73
352.94	88.92
353.152	144.21
353.363	56.15
353.575	95.06
353.787	138.07
353.999	142.16
354.21	78.68
354.422	148.31
354.633	88.92
354.845	127.83
355.057	76.63
355.268	140.12
355.48	54.1
355.692	72.53
355.903	211.79
356.115	103.25
356.326	74.58
356.538	97.11
356.749	80.72
356.961	142.16
357.172	95.06
357.384	58.2
357.595	107.35
357.807	27.48
358.018	27.48
358.23	82.77
358.441	111.44
358.653	62.29
358.864	97.11
359.075	35.67
359.287	146.26
359.498	125.78
359.709	88.92
359.921	50
360.132	80.72
360.344	119.64
360.555	138.07
360.766	97.11
360.977	80.72
361.189	99.16
361.4	74.58
361.611	66.39
361.823	129.88
362.034	86.87
362.245	88.92
362.456	62.29
362.667	138.07
362.879	86.87
363.09	76.63
363.301	66.39
363.512	86.87
363.723	27.48
363.935	84.82
364.146	84.82
364.357	152.4
364.568	54.1
364.779	111.44
364.99	84.82
365.201	127.83
365.412	86.87
365.623	64.34
365.834	115.54
366.045	50
366.256	164.69
366.467	109.4
366.678	82.77
366.889	88.92
367.1	50
367.311	90.96
367.522	150.36
367.733	146.26
367.944	99.16
368.155	76.63
368.366	101.2
368.577	72.53
368.788	62.29
368.999	82.77
369.209	154.45
369.42	103.25
369.631	111.44
369.842	86.87
370.053	111.44
370.264	105.3
370.474	58.2
370.685	131.92
370.896	95.06
371.107	123.73
371.317	56.15
371.528	52.05
371.739	62.29
371.95	117.59
372.16	111.44
372.371	76.63
372.582	144.21
372.792	121.68
373.003	179.03
373.214	64.34
373.424	123.73
373.635	54.1
373.846	115.54
374.056	62.29
374.267	78.68
374.477	107.35
374.688	133.97
374.898	125.78
375.109	156.5
375.319	86.87
375.53	136.02
375.74	13.14
375.951	54.1
376.161	90.96
376.372	45.91
376.582	99.16
376.793	64.34
377.003	95.06
377.214	119.64
377.424	138.07
377.635	136.02
377.845	45.91
378.055	226.13
378.266	119.64
378.476	111.44
378.686	136.02
378.897	142.16
379.107	166.74
379.317	129.88
379.528	115.54
379.738	105.3
379.948	45.91
380.158	144.21
380.369	127.83
380.579	62.29
380.789	136.02
380.999	72.53
381.21	70.48
381.42	142.16
381.63	115.54
381.84	82.77
382.05	45.91
382.261	86.87
382.471	103.25
382.681	50
382.891	111.44
383.101	185.17
383.311	103.25
383.521	86.87
383.731	64.34
383.941	142.16
384.151	146.26
384.361	72.53
384.571	119.64
384.781	129.88
384.991	88.92
385.201	164.69
385.411	144.21
385.621	109.4
385.831	125.78
386.041	54.1
386.251	45.91
386.461	146.26
386.671	140.12
386.881	82.77
387.091	60.24
387.301	148.31
387.511	176.98
387.72	78.68
387.93	125.78
388.14	111.44
388.35	72.53
388.56	168.79
388.769	103.25
388.979	150.36
389.189	66.39
389.399	111.44
389.609	131.92
389.818	131.92
390.028	103.25
390.238	117.59
390.447	121.68
390.657	131.92
390.867	93.01
391.076	107.35
391.286	101.2
391.496	107.35
391.705	109.4
391.915	146.26
392.125	176.98
392.334	185.17
392.544	187.22
392.753	133.97
392.963	146.26
393.172	136.02
393.382	80.72
393.591	172.88
393.801	23.38
394.01	127.83
394.22	76.63
394.429	131.92
394.639	58.2
394.848	131.92
395.058	105.3
395.267	111.44
395.477	109.4
395.686	142.16
395.895	127.83
396.105	252.75
396.314	47.96
396.524	166.74
396.733	109.4
396.942	148.31
397.152	199.51
397.361	228.18
397.57	162.64
397.78	111.44
397.989	121.68
398.198	172.88
398.407	121.68
398.617	160.59
398.826	195.41
399.035	127.83
399.244	119.64
399.453	183.12
399.663	203.6
399.872	170.83
400.081	176.98
400.29	113.49
400.499	103.25
400.708	140.12
400.917	150.36
401.127	211.79
401.336	150.36
401.545	219.99
401.754	185.17
401.963	109.4
402.172	117.59
402.381	125.78
402.59	142.16
402.799	219.99
403.008	158.55
403.217	119.64
403.426	113.49
403.635	213.84
403.844	232.27
404.053	193.36
404.262	160.59
404.471	201.55
404.68	217.94
404.888	179.03
405.097	275.28
405.306	236.37
405.515	197.46
405.724	219.99
405.933	226.13
406.142	240.47
406.35	211.79
406.559	203.6
406.768	211.79
406.977	303.95
407.185	226.13
407.394	269.14
407.603	285.52
407.812	303.95
408.02	275.28
408.229	301.9
408.438	326.48
408.646	295.76
408.855	260.95
409.064	371.54
409.272	222.03
409.481	377.68
409.69	367.44
409.898	377.68
410.107	412.5
410.315	451.41
410.524	316.24
410.733	430.93
410.941	406.35
411.15	465.74
411.358	424.78
411.567	498.51
411.775	453.45
411.984	539.47
412.192	467.79
412.401	590.67
412.609	549.71
412.818	559.95
413.026	557.9
413.234	504.65
413.443	639.82
413.651	588.62
413.86	701.26
414.068	711.5
414.276	725.83
414.485	815.94
414.693	789.32
414.901	785.23
415.11	799.56
415.318	844.62
415.526	877.38
415.734	811.85
415.943	916.3
416.151	951.11
416.359	936.78
416.567	965.45
416.776	992.07
416.984	1045.32
417.192	1047.37
417.4	1170.24
417.608	1110.85
417.817	1168.2
418.025	1264.45
418.233	1350.46
418.441	1389.38
418.649	1356.61
418.857	1475.39
419.065	1499.97
419.273	1579.84
419.481	1518.4
419.689	1661.76
419.897	1796.92
420.105	1700.67
420.313	1710.91
420.521	1854.27
420.729	1864.5
420.937	2020.15
421.145	2020.15
421.353	1983.29
421.561	2005.81
421.769	2288.43
421.977	2356.02
422.185	2317.11
422.393	2462.51
422.601	2599.73
422.809	2521.9
423.017	2595.63
423.224	2710.32
423.432	2863.91
423.64	2839.34
423.848	3044.13
424.056	3058.47
424.263	3255.08
424.471	3234.6
424.679	3277.6
424.887	3461.92
425.094	3519.26
425.302	3564.32
425.51	3771.16
425.718	3853.08
425.925	3932.95
426.133	4084.5
426.341	4252.44
426.548	4268.82
426.756	4356.88
426.964	4647.69
427.171	4635.41
427.379	4981.51
427.586	5018.38
427.794	5120.78
428.001	5217.03
428.209	5548.8
428.417	5475.07
428.624	5845.76
428.832	5778.17
429.039	5833.47
429.247	5810.94
429.454	6513.39
429.662	6791.92
429.869	6439.67
430.076	6841.07
430.284	6730.48
430.491	6888.17
430.699	7283.43
430.906	7258.85
431.114	7205.61
431.321	7568.1
431.528	7801.57
431.736	8243.93
431.943	8692.43
432.15	8397.53
432.358	8491.73
432.565	9032.4
432.772	8962.76
432.979	9388.74
433.187	9702.08
433.394	9638.59
433.601	10551.99
433.808	10398.39
434.016	10402.49
434.223	10601.14
434.43	11438.76
434.637	11205.29
434.844	11860.64
435.052	12057.25
435.259	11940.51
435.466	12036.77
435.673	11928.22
435.88	12685.97
436.087	13396.62
436.294	13568.65
436.501	13087.37
436.708	13537.93
436.915	13910.66
437.122	14320.25
437.329	14303.87
437.537	14830.2
437.743	15065.71
437.95	14832.24
438.157	15954.53
438.364	16175.71
438.571	16200.29
438.778	16462.43
438.985	17875.52
439.192	16962.13
439.399	17803.85
439.606	17080.91
439.813	18369.09
440.02	19137.07
440.227	18967.09
440.433	18870.84
440.64	19655.21
440.847	19286.58
441.054	20011.56
441.261	21168.66
441.467	20750.87
441.674	21269.01
441.881	22034.95
442.088	22008.33
442.294	21686.79
442.501	22450.69
442.708	22772.22
442.914	23740.91
443.121	24748.51
443.328	24054.25
443.534	25754.06
443.741	25102.81
443.948	24527.33
444.154	26268.1
444.361	26427.84
444.568	26661.31
444.774	26507.71
444.981	26716.61
445.187	27660.72
445.394	28869.02
445.6	28549.54
445.807	31318.39
446.013	29893.01
446.22	30120.33
446.426	31482.23
446.633	32090.48
446.839	33046.88
447.046	31644.02
447.252	33169.76
447.459	33483.09
447.665	33339.74
447.871	34580.81
448.078	35991.86
448.284	34439.5
448.491	35467.58
448.697	36452.65
448.903	37241.12
449.11	37527.83
449.316	36413.74
449.522	37617.94
449.728	38373.64
449.935	38467.85
450.141	38672.65
450.347	39690.49
450.553	38394.12
450.76	38936.84
450.966	40313.07
451.172	39987.44
451.378	40575.21
451.584	39592.19
451.791	40667.37
451.997	40468.72
452.203	41423.07
452.409	40775.91
452.615	40931.56
452.821	39622.9
453.027	39489.79
453.233	41208.03
453.44	39772.41
453.646	40239.34
453.852	40206.58
454.058	40866.02
454.264	39575.8
454.47	40610.03
454.676	39256.32
454.882	40829.16
455.088	37155.1
455.294	37830.93
455.5	38566.15
455.705	38854.92
455.911	37159.2
456.117	36544.81
456.323	36022.58
456.529	34093.39
456.735	35981.62
456.941	34982.21
457.147	34244.94
457.352	33007.97
457.558	32842.08
457.764	33065.31
457.97	32280.94
458.176	31162.75
458.381	31537.52
458.587	30224.78
458.793	29989.26
458.999	28486.05
459.204	30153.1
459.41	29847.95
459.616	27963.82
459.821	27630
460.027	27933.1
460.233	26978.75
460.438	25604.56
460.644	25950.67
460.85	24898.01
461.055	24295.91
461.261	24596.96
461.466	22635
461.672	21787.14
461.878	23454.19
462.083	21871.11
462.289	21572.11
462.494	21389.84
462.7	20458.01
462.905	19282.48
463.111	20412.96
463.316	20707.87
463.522	20175.39
463.727	19888.68
463.932	19935.78
464.138	19943.97
464.343	19753.51
464.549	19225.14
464.754	20161.06
464.959	19837.48
465.165	19628.59
465.37	18772.53
465.575	18442.81
465.781	18979.38
465.986	19221.04
