Data from USB4F104151__68__11-45-25-448.txt Node

Date: Fri Mar 14 11:45:25 EDT 2025
User: louis
Spectrometer: USB4F10415
Trigger mode: 4
Integration Time (sec): 2.000000E-2
Scans to average: 1
Electric dark correction enabled: true
Nonlinearity correction enabled: false
Boxcar width: 0
XAxis mode: Wavelengths
Number of Pixels in Spectrum: 3648
>>>>>Begin Spectral Data<<<<<
178.204	-99.33
178.424	-99.33
178.644	-99.33
178.864	-46.08
179.084	-95.23
179.304	11.26
179.524	-31.74
179.744	-54.27
179.964	31.74
180.184	19.46
180.404	-78.85
180.624	3.07
180.844	46.08
181.064	9.22
181.283	31.74
181.503	-41.98
181.723	54.27
181.943	-33.79
182.163	37.89
182.383	29.7
182.602	107.52
182.822	37.89
183.042	13.31
183.262	58.37
183.482	-11.26
183.701	64.51
183.921	-13.31
184.141	-9.22
184.361	109.57
184.58	27.65
184.8	-48.13
185.02	-76.8
185.239	138.24
185.459	39.94
185.679	50.18
185.898	-5.12
186.118	33.79
186.338	-7.17
186.557	13.31
186.777	-68.61
186.997	-35.84
187.216	115.71
187.436	-5.12
187.655	46.08
187.875	70.65
188.095	-3.07
188.314	72.7
188.534	19.46
188.753	54.27
188.973	23.55
189.192	72.7
189.412	-3.07
189.631	31.74
189.851	-68.61
190.07	46.08
190.29	82.94
190.509	-23.55
190.729	17.41
190.948	89.09
191.168	74.75
191.387	44.03
191.607	130.05
191.826	48.13
192.045	31.74
192.265	97.28
192.484	33.79
192.704	7.17
192.923	68.61
193.142	78.85
193.362	13.31
193.581	93.18
193.8	93.18
194.02	-19.46
194.239	-44.03
194.458	62.46
194.678	15.36
194.897	-37.89
195.116	-33.79
195.335	44.03
195.555	64.51
195.774	39.94
195.993	39.94
196.212	19.46
196.432	23.55
196.651	-13.31
196.87	-9.22
197.089	27.65
197.308	31.74
197.528	48.13
197.747	1.02
197.966	-41.98
198.185	31.74
198.404	11.26
198.623	-19.46
198.842	17.41
199.062	39.94
199.281	87.04
199.5	19.46
199.719	29.7
199.938	21.5
200.157	15.36
200.376	-3.07
200.595	91.13
200.814	11.26
201.033	58.37
201.252	-3.07
201.471	54.27
201.69	33.79
201.909	-21.5
202.128	-13.31
202.347	-9.22
202.566	-19.46
202.785	-50.18
203.004	7.17
203.223	-25.6
203.442	-15.36
203.661	-29.7
203.879	46.08
204.098	74.75
204.317	-1.02
204.536	-9.22
204.755	-3.07
204.974	44.03
205.193	23.55
205.411	58.37
205.63	23.55
205.849	101.37
206.068	39.94
206.287	7.17
206.505	-23.55
206.724	-39.94
206.943	50.18
207.162	9.22
207.381	19.46
207.599	-21.5
207.818	33.79
208.037	84.99
208.255	-52.22
208.474	3.07
208.693	78.85
208.911	-35.84
209.13	25.6
209.349	-21.5
209.567	-5.12
209.786	1.02
210.005	46.08
210.223	66.56
210.442	-41.98
210.661	37.89
210.879	52.22
211.098	17.41
211.316	91.13
211.535	1.02
211.753	-15.36
211.972	72.7
212.191	68.61
212.409	37.89
212.628	15.36
212.846	33.79
213.065	41.98
213.283	50.18
213.502	21.5
213.72	-50.18
213.938	13.31
214.157	109.57
214.375	27.65
214.594	82.94
214.812	11.26
215.031	39.94
215.249	-41.98
215.467	19.46
215.686	37.89
215.904	-11.26
216.122	54.27
216.341	101.37
216.559	5.12
216.778	-11.26
216.996	-1.02
217.214	-5.12
217.432	1.02
217.651	78.85
217.869	-15.36
218.087	13.31
218.306	-11.26
218.524	68.61
218.742	-82.94
218.96	-5.12
219.179	-7.17
219.397	3.07
219.615	25.6
219.833	27.65
220.051	13.31
220.27	13.31
220.488	17.41
220.706	37.89
220.924	48.13
221.142	46.08
221.36	-33.79
221.578	84.99
221.796	-21.5
222.015	50.18
222.233	-13.31
222.451	5.12
222.669	9.22
222.887	78.85
223.105	74.75
223.323	46.08
223.541	-39.94
223.759	39.94
223.977	-27.65
224.195	13.31
224.413	39.94
224.631	13.31
224.849	-15.36
225.067	44.03
225.285	62.46
225.503	-3.07
225.721	1.02
225.939	-1.02
226.157	23.55
226.375	48.13
226.592	-41.98
226.81	21.5
227.028	66.56
227.246	52.22
227.464	33.79
227.682	56.32
227.9	17.41
228.117	54.27
228.335	9.22
228.553	-21.5
228.771	-1.02
228.989	13.31
229.206	48.13
229.424	33.79
229.642	-23.55
229.86	13.31
230.077	97.28
230.295	-41.98
230.513	25.6
230.731	58.37
230.948	52.22
231.166	80.89
231.384	-5.12
231.601	41.98
231.819	1.02
232.037	-29.7
232.254	13.31
232.472	7.17
232.689	-13.31
232.907	44.03
233.125	-58.37
233.342	-9.22
233.56	31.74
233.777	7.17
233.995	39.94
234.213	21.5
234.43	76.8
234.648	-15.36
234.865	-19.46
235.083	46.08
235.3	60.42
235.518	54.27
235.735	27.65
235.953	70.65
236.17	-27.65
236.388	-31.74
236.605	134.14
236.822	31.74
237.04	78.85
237.257	56.32
237.475	11.26
237.692	25.6
237.909	58.37
238.127	37.89
238.344	66.56
238.562	58.37
238.779	3.07
238.996	11.26
239.214	-25.6
239.431	7.17
239.648	35.84
239.865	46.08
240.083	52.22
240.3	60.42
240.517	1.02
240.735	-44.03
240.952	60.42
241.169	-9.22
241.386	66.56
241.603	60.42
241.821	-17.41
242.038	48.13
242.255	64.51
242.472	-17.41
242.689	99.33
242.907	29.7
243.124	72.7
243.341	39.94
243.558	-33.79
243.775	60.42
243.992	15.36
244.209	21.5
244.426	72.7
244.643	-29.7
244.86	-27.65
245.078	68.61
245.295	-7.17
245.512	64.51
245.729	-9.22
245.946	5.12
246.163	-9.22
246.38	-1.02
246.597	37.89
246.814	21.5
247.031	25.6
247.248	17.41
247.464	33.79
247.681	72.7
247.898	97.28
248.115	46.08
248.332	-9.22
248.549	44.03
248.766	23.55
248.983	82.94
249.2	7.17
249.417	111.61
249.633	60.42
249.85	46.08
250.067	-11.26
250.284	37.89
250.501	62.46
250.717	87.04
250.934	-1.02
251.151	-66.56
251.368	87.04
251.585	-1.02
251.801	-31.74
252.018	21.5
252.235	80.89
252.451	7.17
252.668	46.08
252.885	19.46
253.102	54.27
253.318	9.22
253.535	-21.5
253.752	56.32
253.968	27.65
254.185	7.17
254.401	39.94
254.618	17.41
254.835	-5.12
255.051	54.27
255.268	-82.94
255.484	39.94
255.701	-9.22
255.917	68.61
256.134	-11.26
256.351	9.22
256.567	-1.02
256.784	132.09
257	-3.07
257.217	15.36
257.433	27.65
257.65	27.65
257.866	35.84
258.082	-7.17
258.299	48.13
258.515	72.7
258.732	-56.32
258.948	-25.6
259.165	25.6
259.381	9.22
259.597	87.04
259.814	-17.41
260.03	9.22
260.246	-1.02
260.463	70.65
260.679	37.89
260.895	91.13
261.112	87.04
261.328	-7.17
261.544	74.75
261.761	21.5
261.977	25.6
262.193	-13.31
262.409	-33.79
262.626	-41.98
262.842	29.7
263.058	-3.07
263.274	91.13
263.49	89.09
263.707	23.55
263.923	3.07
264.139	-31.74
264.355	-9.22
264.571	58.37
264.787	27.65
265.004	128
265.22	97.28
265.436	-39.94
265.652	-3.07
265.868	-44.03
266.084	23.55
266.3	54.27
266.516	-39.94
266.732	111.61
266.948	125.95
267.164	-60.42
267.38	-9.22
267.596	39.94
267.812	82.94
268.028	56.32
268.244	-39.94
268.46	23.55
268.676	33.79
268.892	58.37
269.108	5.12
269.324	-52.22
269.54	27.65
269.756	-5.12
269.972	23.55
270.188	19.46
270.403	37.89
270.619	66.56
270.835	5.12
271.051	91.13
271.267	37.89
271.483	-27.65
271.698	17.41
271.914	21.5
272.13	-3.07
272.346	91.13
272.562	15.36
272.777	58.37
272.993	39.94
273.209	-21.5
273.425	48.13
273.64	23.55
273.856	58.37
274.072	-3.07
274.287	-1.02
274.503	3.07
274.719	35.84
274.934	-17.41
275.15	-3.07
275.366	11.26
275.581	9.22
275.797	-17.41
276.012	68.61
276.228	62.46
276.444	15.36
276.659	3.07
276.875	-9.22
277.09	80.89
277.306	23.55
277.521	27.65
277.737	-13.31
277.952	72.7
278.168	3.07
278.383	132.09
278.599	-27.65
278.814	5.12
279.03	21.5
279.245	37.89
279.461	1.02
279.676	27.65
279.892	23.55
280.107	13.31
280.322	-41.98
280.538	7.17
280.753	9.22
280.969	111.61
281.184	48.13
281.399	62.46
281.615	29.7
281.83	11.26
282.045	3.07
282.26	41.98
282.476	-5.12
282.691	21.5
282.906	58.37
283.122	56.32
283.337	46.08
283.552	68.61
283.767	23.55
283.983	91.13
284.198	29.7
284.413	50.18
284.628	-31.74
284.843	46.08
285.058	-13.31
285.274	-19.46
285.489	48.13
285.704	41.98
285.919	3.07
286.134	-3.07
286.349	31.74
286.564	50.18
286.779	93.18
286.995	21.5
287.21	1.02
287.425	-15.36
287.64	44.03
287.855	62.46
288.07	-46.08
288.285	103.42
288.5	78.85
288.715	103.42
288.93	13.31
289.145	54.27
289.36	58.37
289.575	50.18
289.79	9.22
290.004	39.94
290.219	21.5
290.434	93.18
290.649	33.79
290.864	31.74
291.079	-13.31
291.294	-11.26
291.509	82.94
291.724	29.7
291.938	3.07
292.153	54.27
292.368	41.98
292.583	-17.41
292.798	54.27
293.012	64.51
293.227	44.03
293.442	72.7
293.657	9.22
293.871	101.37
294.086	87.04
294.301	80.89
294.516	62.46
294.73	46.08
294.945	37.89
295.16	31.74
295.374	11.26
295.589	117.76
295.804	-44.03
296.018	48.13
296.233	119.81
296.447	41.98
296.662	19.46
296.877	74.75
297.091	35.84
297.306	-17.41
297.52	-17.41
297.735	74.75
297.949	46.08
298.164	62.46
298.378	7.17
298.593	41.98
298.807	11.26
299.022	13.31
299.236	60.42
299.451	9.22
299.665	-21.5
299.88	44.03
300.094	15.36
300.309	7.17
300.523	-23.55
300.737	91.13
300.952	21.5
301.166	41.98
301.381	3.07
301.595	5.12
301.809	62.46
302.024	56.32
302.238	78.85
302.452	56.32
302.667	54.27
302.881	109.57
303.095	21.5
303.309	60.42
303.524	-23.55
303.738	52.22
303.952	-7.17
304.166	11.26
304.381	-7.17
304.595	125.95
304.809	15.36
305.023	-39.94
305.237	-11.26
305.452	-29.7
305.666	-33.79
305.88	48.13
306.094	-21.5
306.308	74.75
306.522	54.27
306.736	33.79
306.95	78.85
307.164	11.26
307.379	-1.02
307.593	70.65
307.807	-9.22
308.021	50.18
308.235	19.46
308.449	-19.46
308.663	17.41
308.877	56.32
309.091	25.6
309.305	109.57
309.519	-66.56
309.733	64.51
309.947	52.22
310.161	27.65
310.374	74.75
310.588	-25.6
310.802	50.18
311.016	95.23
311.23	39.94
311.444	33.79
311.658	41.98
311.872	37.89
312.085	50.18
312.299	15.36
312.513	52.22
312.727	-5.12
312.941	-21.5
313.154	107.52
313.368	19.46
313.582	64.51
313.796	97.28
314.009	31.74
314.223	80.89
314.437	68.61
314.651	17.41
314.864	25.6
315.078	134.14
315.292	27.65
315.505	60.42
315.719	117.76
315.933	48.13
316.146	5.12
316.36	48.13
316.573	111.61
316.787	19.46
317.001	15.36
317.214	82.94
317.428	101.37
317.641	29.7
317.855	48.13
318.068	41.98
318.282	19.46
318.495	70.65
318.709	99.33
318.922	54.27
319.136	60.42
319.349	41.98
319.563	11.26
319.776	17.41
319.99	-11.26
320.203	46.08
320.417	17.41
320.63	-9.22
320.843	123.9
321.057	25.6
321.27	33.79
321.483	25.6
321.697	39.94
321.91	72.7
322.124	87.04
322.337	21.5
322.55	19.46
322.763	111.61
322.977	74.75
323.19	39.94
323.403	39.94
323.617	-11.26
323.83	103.42
324.043	9.22
324.256	41.98
324.469	103.42
324.683	25.6
324.896	11.26
325.109	11.26
325.322	11.26
325.535	84.99
325.748	15.36
325.962	74.75
326.175	54.27
326.388	80.89
326.601	1.02
326.814	1.02
327.027	5.12
327.24	35.84
327.453	21.5
327.666	35.84
327.879	39.94
328.092	54.27
328.305	29.7
328.518	62.46
328.731	74.75
328.944	29.7
329.157	44.03
329.37	62.46
329.583	33.79
329.796	107.52
330.009	7.17
330.222	87.04
330.435	52.22
330.648	-54.27
330.861	74.75
331.073	121.85
331.286	91.13
331.499	99.33
331.712	66.56
331.925	72.7
332.138	46.08
332.35	58.37
332.563	-25.6
332.776	9.22
332.989	21.5
333.202	1.02
333.414	-44.03
333.627	-23.55
333.84	1.02
334.053	48.13
334.265	-17.41
334.478	37.89
334.691	48.13
334.903	11.26
335.116	-41.98
335.329	50.18
335.541	54.27
335.754	82.94
335.966	103.42
336.179	17.41
336.392	9.22
336.604	64.51
336.817	-17.41
337.029	76.8
337.242	-13.31
337.454	64.51
337.667	48.13
337.88	9.22
338.092	113.66
338.305	74.75
338.517	50.18
338.729	-3.07
338.942	44.03
339.154	-35.84
339.367	-31.74
339.579	-27.65
339.792	-25.6
340.004	128
340.217	-35.84
340.429	99.33
340.641	52.22
340.854	72.7
341.066	70.65
341.278	80.89
341.491	46.08
341.703	72.7
341.915	1.02
342.128	7.17
342.34	62.46
342.552	7.17
342.764	60.42
342.977	84.99
343.189	15.36
343.401	64.51
343.613	103.42
343.826	60.42
344.038	19.46
344.25	78.85
344.462	-15.36
344.674	119.81
344.886	64.51
345.099	130.05
345.311	60.42
345.523	21.5
345.735	25.6
345.947	50.18
346.159	-25.6
346.371	-1.02
346.583	50.18
346.795	138.24
347.007	58.37
347.219	62.46
347.431	1.02
347.643	123.9
347.855	72.7
348.067	76.8
348.279	37.89
348.491	60.42
348.703	41.98
348.915	74.75
349.127	-31.74
349.339	84.99
349.551	109.57
349.763	132.09
349.975	70.65
350.187	37.89
350.399	-25.6
350.61	1.02
350.822	-1.02
351.034	31.74
351.246	78.85
351.458	19.46
351.669	74.75
351.881	72.7
352.093	13.31
352.305	5.12
352.517	19.46
352.728	31.74
352.94	-9.22
353.152	50.18
353.363	7.17
353.575	-7.17
353.787	101.37
353.999	-21.5
354.21	29.7
354.422	19.46
354.633	-1.02
354.845	41.98
355.057	33.79
355.268	37.89
355.48	21.5
355.692	27.65
355.903	-3.07
356.115	13.31
356.326	7.17
356.538	62.46
356.749	66.56
356.961	50.18
357.172	9.22
357.384	-72.7
357.595	80.89
357.807	46.08
358.018	64.51
358.23	35.84
358.441	27.65
358.653	89.09
358.864	50.18
359.075	56.32
359.287	-5.12
359.498	103.42
359.709	82.94
359.921	13.31
360.132	82.94
360.344	33.79
360.555	82.94
360.766	62.46
360.977	60.42
361.189	99.33
361.4	41.98
361.611	50.18
361.823	95.23
362.034	60.42
362.245	50.18
362.456	35.84
362.667	17.41
362.879	37.89
363.09	21.5
363.301	105.47
363.512	46.08
363.723	-7.17
363.935	-13.31
364.146	113.66
364.357	64.51
364.568	-11.26
364.779	25.6
364.99	62.46
365.201	97.28
365.412	115.71
365.623	37.89
365.834	95.23
366.045	60.42
366.256	62.46
366.467	15.36
366.678	99.33
366.889	7.17
367.1	58.37
367.311	64.51
367.522	91.13
367.733	107.52
367.944	132.09
368.155	9.22
368.366	70.65
368.577	58.37
368.788	109.57
368.999	74.75
369.209	80.89
369.42	46.08
369.631	87.04
369.842	97.28
370.053	-29.7
370.264	74.75
370.474	58.37
370.685	99.33
370.896	23.55
371.107	52.22
371.317	37.89
371.528	27.65
371.739	15.36
371.95	17.41
372.16	84.99
372.371	19.46
372.582	60.42
372.792	-19.46
373.003	29.7
373.214	-17.41
373.424	91.13
373.635	105.47
373.846	33.79
374.056	78.85
374.267	80.89
374.477	70.65
374.688	31.74
374.898	-25.6
375.109	136.19
375.319	80.89
375.53	91.13
375.74	58.37
375.951	39.94
376.161	29.7
376.372	68.61
376.582	19.46
376.793	74.75
377.003	48.13
377.214	103.42
377.424	35.84
377.635	95.23
377.845	39.94
378.055	58.37
378.266	35.84
378.476	48.13
378.686	54.27
378.897	52.22
379.107	64.51
379.317	13.31
379.528	33.79
379.738	89.09
379.948	-37.89
380.158	101.37
380.369	62.46
380.579	-39.94
380.789	84.99
380.999	68.61
381.21	95.23
381.42	80.89
381.63	13.31
381.84	82.94
382.05	60.42
382.261	123.9
382.471	99.33
382.681	21.5
382.891	39.94
383.101	62.46
383.311	17.41
383.521	21.5
383.731	56.32
383.941	82.94
384.151	41.98
384.361	66.56
384.571	39.94
384.781	29.7
384.991	29.7
385.201	76.8
385.411	109.57
385.621	25.6
385.831	9.22
386.041	52.22
386.251	70.65
386.461	72.7
386.671	78.85
386.881	80.89
387.091	52.22
387.301	152.57
387.511	15.36
387.72	44.03
387.93	33.79
388.14	39.94
388.35	84.99
388.56	60.42
388.769	89.09
388.979	33.79
389.189	54.27
389.399	21.5
389.609	121.85
389.818	23.55
390.028	7.17
390.238	107.52
390.447	29.7
390.657	54.27
390.867	39.94
391.076	7.17
391.286	121.85
391.496	132.09
391.705	-7.17
391.915	162.81
392.125	66.56
392.334	101.37
392.544	52.22
392.753	64.51
392.963	9.22
393.172	121.85
393.382	41.98
393.591	78.85
393.801	105.47
394.01	142.33
394.22	115.71
394.429	109.57
394.639	91.13
394.848	82.94
395.058	64.51
395.267	46.08
395.477	95.23
395.686	105.47
395.895	99.33
396.105	140.29
396.314	56.32
396.524	87.04
396.733	84.99
396.942	119.81
397.152	171.01
397.361	150.53
397.57	111.61
397.78	150.53
397.989	87.04
398.198	93.18
398.407	82.94
398.617	44.03
398.826	173.05
399.035	78.85
399.244	111.61
399.453	199.68
399.663	173.05
399.872	121.85
400.081	41.98
400.29	95.23
400.499	148.48
400.708	111.61
400.917	56.32
401.127	117.76
401.336	80.89
401.545	164.86
401.754	115.71
401.963	166.91
402.172	11.26
402.381	99.33
402.59	113.66
402.799	154.62
403.008	123.9
403.217	189.44
403.426	181.25
403.635	158.72
403.844	162.81
404.053	132.09
404.262	99.33
404.471	232.44
404.68	162.81
404.888	91.13
405.097	154.62
405.306	146.43
405.515	183.29
405.724	115.71
405.933	273.4
406.142	214.01
406.35	207.87
406.559	177.15
406.768	189.44
406.977	201.72
407.185	257.02
407.394	259.07
407.603	185.34
407.812	232.44
408.02	254.97
408.229	244.73
408.438	334.84
408.646	312.32
408.855	300.03
409.064	330.75
409.272	291.84
409.481	392.19
409.69	312.32
409.898	332.79
410.107	349.18
410.315	316.41
410.524	275.45
410.733	412.67
410.941	478.2
411.15	510.97
411.358	443.39
411.567	504.82
411.775	404.47
411.984	431.1
412.192	517.11
412.401	502.78
412.609	486.39
412.818	558.07
413.026	629.75
413.234	541.69
413.443	639.99
413.651	560.12
413.86	623.61
414.068	609.27
414.276	695.29
414.485	734.2
414.693	809.97
414.901	801.78
415.11	760.82
415.318	709.62
415.526	893.94
415.734	863.22
415.943	1004.53
416.151	1031.15
416.359	908.27
416.567	1031.15
416.776	1129.45
416.984	1102.83
417.192	1151.98
417.4	1188.85
417.608	1217.52
417.817	1240.05
418.025	1311.72
418.233	1403.88
418.441	1346.54
418.649	1367.02
418.857	1373.16
419.065	1493.99
419.273	1506.28
419.481	1625.06
419.689	1739.75
419.897	1760.23
420.105	1825.76
420.313	1825.76
420.521	1901.54
420.729	1803.24
420.937	1979.36
421.145	2081.76
421.353	2175.97
421.561	2221.02
421.769	2245.6
421.977	2401.24
422.185	2364.38
422.393	2542.55
422.601	2714.58
422.809	2685.91
423.017	2665.43
423.224	2847.7
423.432	2980.82
423.64	3011.54
423.848	3146.7
424.056	3029.97
424.263	3285.97
424.471	3277.77
424.679	3521.48
424.887	3576.78
425.094	3589.07
425.302	3683.27
425.51	3791.81
425.718	4051.91
425.925	3974.08
426.133	4119.49
426.341	4346.81
426.548	4518.84
426.756	4608.95
426.964	4651.96
427.171	4942.77
427.379	5032.88
427.586	5075.89
427.794	5278.64
428.001	5596.07
428.209	5761.96
428.417	5706.66
428.624	6155.17
428.832	5962.66
429.039	6112.16
429.247	6001.57
429.454	6708.12
429.662	6943.64
429.869	6585.24
430.076	7123.86
430.284	7095.19
430.491	7373.71
430.699	7723.91
430.906	7562.12
431.114	7834.5
431.321	8223.62
431.528	8428.42
431.736	8590.2
431.943	8987.51
432.15	8946.55
432.358	8952.7
432.565	9188.21
432.772	9370.48
432.979	9790.31
433.187	9911.14
433.394	10226.53
433.601	10885.98
433.808	10578.78
434.016	10779.48
434.223	11203.41
434.43	11967.31
434.637	11606.86
434.844	12426.05
435.052	12763.97
435.259	12495.68
435.466	12686.14
435.673	12495.68
435.88	13310.77
436.087	14301.99
436.294	14023.47
436.501	13898.54
436.708	14091.05
436.915	14379.81
437.122	15424.28
437.329	15061.79
437.537	15563.54
437.743	15649.55
437.95	15690.51
438.157	16632.58
438.364	16968.45
438.571	17107.71
438.778	17134.33
438.985	18840.29
439.192	18092.78
439.399	18670.31
439.606	18082.54
439.813	19399.38
440.02	20613.83
440.227	19899.09
440.433	19692.24
440.64	20488.9
440.847	20638.41
441.054	21041.85
441.261	22194.86
441.467	21957.3
441.674	22469.29
441.881	23110.3
442.088	23165.6
442.294	22997.67
442.501	23480.99
442.708	24138.38
442.914	25160.32
443.121	25956.98
443.328	25301.63
443.534	27230.82
443.741	26661.48
443.948	25821.81
444.154	27937.37
444.361	27779.67
444.568	27976.28
444.774	27986.52
444.981	28256.85
445.187	28813.9
445.394	30573.1
445.6	30075.45
445.807	32977.42
446.013	31429.15
446.22	32045.59
446.426	33016.33
446.633	33511.94
446.839	34580.98
447.046	32991.75
447.252	34834.92
447.459	35183.08
447.665	35021.29
447.871	36485.59
448.078	37925.31
448.284	36270.55
448.491	37104.07
448.697	38889.9
448.903	39465.38
449.11	39877.02
449.316	38889.9
449.522	39629.22
449.728	40640.92
449.935	40913.3
450.141	40888.72
450.347	41941.38
450.553	40438.17
450.76	40941.97
450.966	41724.29
451.172	41775.49
451.378	42789.24
451.584	42027.39
451.791	42742.13
451.997	43012.46
452.203	43657.57
452.409	43604.33
452.615	43446.63
452.821	41722.24
453.027	41699.72
453.233	43778.4
453.44	42191.23
453.646	42670.45
453.852	42248.57
454.058	43243.88
454.264	41779.59
454.47	42574.2
454.676	41515.4
454.882	43170.16
455.088	39584.16
455.294	39934.37
455.5	40741.27
455.705	41003.41
455.911	39176.62
456.117	38750.64
456.323	38083
456.529	36004.31
456.735	37398.98
456.941	36829.65
457.147	35899.87
457.352	34961.9
457.558	34583.02
457.764	34732.53
457.97	34111.99
458.176	33442.31
458.381	33618.43
458.587	31984.15
458.793	31392.29
458.999	30075.45
459.204	32193.04
459.41	31255.08
459.616	29284.93
459.821	29471.29
460.027	29567.55
460.233	28398.16
460.438	27368.03
460.644	27611.74
460.85	26018.42
461.055	26126.96
461.261	26190.45
461.466	24087.18
461.672	23159.45
461.878	24867.46
462.083	23505.56
462.289	22934.18
462.494	22575.78
462.7	21668.53
462.905	21009.09
463.111	21668.53
463.316	21660.34
463.522	21463.74
463.727	21312.19
463.932	21189.31
464.138	21111.49
464.343	21109.44
464.549	20550.34
464.754	21174.97
464.959	21050.05
465.165	20851.39
465.37	19851.99
465.575	19428.06
465.781	20406.98
465.986	20292.3
466.191	19411.67
466.397	19354.33
466.602	18133.74
466.807	19436.25
467.012	19182.3
467.218	18883.3
467.423	18655.97
