Data from USB4F104151__67__11-45-25-129.txt Node

Date: Fri Mar 14 11:45:25 EDT 2025
User: louis
Spectrometer: USB4F10415
Trigger mode: 4
Integration Time (sec): 2.000000E-2
Scans to average: 1
Electric dark correction enabled: true
Nonlinearity correction enabled: false
Boxcar width: 0
XAxis mode: Wavelengths
Number of Pixels in Spectrum: 3648
>>>>>Begin Spectral Data<<<<<
178.204	-69.97
178.424	-69.97
178.644	-69.97
178.864	-127.32
179.084	-33.11
179.304	7.85
179.524	-49.49
179.744	3.75
179.964	52.91
180.184	-63.83
180.404	40.62
180.624	9.9
180.844	-47.44
181.064	-39.25
181.283	30.38
181.503	13.99
181.723	40.62
181.943	-2.39
182.163	59.05
182.383	-16.73
182.602	57
182.822	71.34
183.042	36.52
183.262	-69.97
183.482	5.8
183.701	34.47
183.921	-47.44
184.141	3.75
184.361	-4.44
184.58	26.28
184.8	48.81
185.02	-6.49
185.239	61.1
185.459	-16.73
185.679	-8.53
185.898	7.85
186.118	81.58
186.338	-35.16
186.557	83.63
186.777	3.75
186.997	-37.2
187.216	7.85
187.436	46.76
187.655	38.57
187.875	46.76
188.095	-8.53
188.314	28.33
188.534	81.58
188.753	-2.39
188.973	-10.58
189.192	22.19
189.412	40.62
189.631	-6.49
189.851	93.87
190.07	38.57
190.29	-22.87
190.509	118.44
190.729	50.86
190.948	-43.35
191.168	194.22
191.387	-8.53
191.607	24.23
191.826	13.99
192.045	26.28
192.265	-2.39
192.484	71.34
192.704	9.9
192.923	-8.53
193.142	16.04
193.362	-16.73
193.581	20.14
193.8	40.62
194.02	44.71
194.239	63.15
194.458	83.63
194.678	-65.88
194.897	34.47
195.116	22.19
195.335	3.75
195.555	18.09
195.774	-16.73
195.993	7.85
196.212	67.24
196.432	-33.11
196.651	38.57
196.87	-47.44
197.089	104.11
197.308	9.9
197.528	95.91
197.747	-18.77
197.966	61.1
198.185	-18.77
198.404	11.95
198.623	28.33
198.842	44.71
199.062	3.75
199.281	67.24
199.5	1.71
199.719	71.34
199.938	-2.39
200.157	38.57
200.376	63.15
200.595	40.62
200.814	48.81
201.033	-2.39
201.252	89.77
201.471	-4.44
201.69	22.19
201.909	50.86
202.128	-10.58
202.347	26.28
202.566	24.23
202.785	1.71
203.004	-0.34
203.223	54.95
203.442	24.23
203.661	-0.34
203.879	-47.44
204.098	42.67
204.317	102.06
204.536	22.19
204.755	114.34
204.974	3.75
205.193	48.81
205.411	89.77
205.63	28.33
205.849	32.43
206.068	11.95
206.287	-10.58
206.505	50.86
206.724	54.95
206.943	26.28
207.162	5.8
207.381	50.86
207.599	22.19
207.818	30.38
208.037	-0.34
208.255	32.43
208.474	71.34
208.693	-0.34
208.911	5.8
209.13	26.28
209.349	-8.53
209.567	-8.53
209.786	97.96
210.005	61.1
210.223	42.67
210.442	-10.58
210.661	1.71
210.879	1.71
211.098	32.43
211.316	89.77
211.535	22.19
211.753	16.04
211.972	22.19
212.191	34.47
212.409	7.85
212.628	-10.58
212.846	-20.82
213.065	46.76
213.283	65.19
213.502	38.57
213.72	18.09
213.938	5.8
214.157	30.38
214.375	-18.77
214.594	24.23
214.812	46.76
215.031	40.62
215.249	-10.58
215.467	36.52
215.686	1.71
215.904	50.86
216.122	-24.92
216.341	65.19
216.559	34.47
216.778	36.52
216.996	22.19
217.214	-55.64
217.432	22.19
217.651	59.05
217.869	34.47
218.087	3.75
218.306	18.09
218.524	30.38
218.742	3.75
218.96	36.52
219.179	-37.2
219.397	-31.06
219.615	34.47
219.833	73.39
220.051	-24.92
220.27	26.28
220.488	34.47
220.706	40.62
220.924	24.23
221.142	69.29
221.36	28.33
221.578	24.23
221.796	-4.44
222.015	28.33
222.233	16.04
222.451	54.95
222.669	44.71
222.887	7.85
223.105	32.43
223.323	9.9
223.541	3.75
223.759	67.24
223.977	5.8
224.195	34.47
224.413	1.71
224.631	-53.59
224.849	-29.01
225.067	42.67
225.285	32.43
225.503	7.85
225.721	-26.96
225.939	75.43
226.157	83.63
226.375	34.47
226.592	79.53
226.81	-12.63
227.028	-26.96
227.246	1.71
227.464	30.38
227.682	85.67
227.9	50.86
228.117	22.19
228.335	30.38
228.553	50.86
228.771	20.14
228.989	-4.44
229.206	-0.34
229.424	-41.3
229.642	52.91
229.86	-14.68
230.077	3.75
230.295	18.09
230.513	-6.49
230.731	-45.4
230.948	50.86
231.166	143.02
231.384	-6.49
231.601	-20.82
231.819	9.9
232.037	24.23
232.254	44.71
232.472	16.04
232.689	71.34
232.907	34.47
233.125	71.34
233.342	26.28
233.56	3.75
233.777	-2.39
233.995	-43.35
234.213	52.91
234.43	57
234.648	77.48
234.865	1.71
235.083	59.05
235.3	16.04
235.518	30.38
235.735	18.09
235.953	20.14
236.17	46.76
236.388	-18.77
236.605	-82.26
236.822	59.05
237.04	38.57
237.257	100.01
237.475	-84.31
237.692	26.28
237.909	46.76
238.127	71.34
238.344	7.85
238.562	13.99
238.779	-12.63
238.996	-39.25
239.214	3.75
239.431	36.52
239.648	-6.49
239.865	40.62
240.083	50.86
240.3	106.15
240.517	30.38
240.735	-0.34
240.952	44.71
241.169	69.29
241.386	-43.35
241.603	32.43
241.821	67.24
242.038	26.28
242.255	9.9
242.472	-45.4
242.689	48.81
242.907	59.05
243.124	24.23
243.341	61.1
243.558	75.43
243.775	32.43
243.992	30.38
244.209	61.1
244.426	100.01
244.643	-14.68
244.86	63.15
245.078	30.38
245.295	22.19
245.512	110.25
245.729	-14.68
245.946	-8.53
246.163	69.29
246.38	91.82
246.597	48.81
246.814	-18.77
247.031	1.71
247.248	97.96
247.464	54.95
247.681	34.47
247.898	61.1
248.115	87.72
248.332	-35.16
248.549	24.23
248.766	40.62
248.983	50.86
249.2	16.04
249.417	81.58
249.633	16.04
249.85	83.63
250.067	46.76
250.284	-20.82
250.501	-16.73
250.717	30.38
250.934	16.04
251.151	50.86
251.368	52.91
251.585	50.86
251.801	57
252.018	-0.34
252.235	-29.01
252.451	-18.77
252.668	7.85
252.885	57
253.102	40.62
253.318	89.77
253.535	52.91
253.752	54.95
253.968	1.71
254.185	9.9
254.401	63.15
254.618	16.04
254.835	61.1
255.051	57
255.268	1.71
255.484	28.33
255.701	-14.68
255.917	65.19
256.134	1.71
256.351	44.71
256.567	20.14
256.784	44.71
257	7.85
257.217	75.43
257.433	26.28
257.65	30.38
257.866	36.52
258.082	32.43
258.299	59.05
258.515	32.43
258.732	-26.96
258.948	-16.73
259.165	13.99
259.381	13.99
259.597	18.09
259.814	-26.96
260.03	-43.35
260.246	20.14
260.463	87.72
260.679	38.57
260.895	34.47
261.112	89.77
261.328	-2.39
261.544	20.14
261.761	81.58
261.977	114.34
262.193	30.38
262.409	28.33
262.626	36.52
262.842	34.47
263.058	22.19
263.274	28.33
263.49	9.9
263.707	71.34
263.923	22.19
264.139	7.85
264.355	50.86
264.571	67.24
264.787	69.29
265.004	57
265.22	-37.2
265.436	75.43
265.652	46.76
265.868	-4.44
266.084	22.19
266.3	-51.54
266.516	-8.53
266.732	32.43
266.948	-119.12
267.164	28.33
267.38	20.14
267.596	108.2
267.812	57
268.028	42.67
268.244	46.76
268.46	22.19
268.676	28.33
268.892	30.38
269.108	-0.34
269.324	52.91
269.54	-2.39
269.756	48.81
269.972	36.52
270.188	18.09
270.403	-74.07
270.619	11.95
270.835	34.47
271.051	11.95
271.267	5.8
271.483	75.43
271.698	69.29
271.914	-0.34
272.13	20.14
272.346	-26.96
272.562	-12.63
272.777	73.39
272.993	54.95
273.209	-14.68
273.425	20.14
273.64	26.28
273.856	3.75
274.072	46.76
274.287	20.14
274.503	32.43
274.719	38.57
274.934	73.39
275.15	13.99
275.366	-14.68
275.581	50.86
275.797	13.99
276.012	50.86
276.228	59.05
276.444	40.62
276.659	89.77
276.875	-4.44
277.09	-2.39
277.306	-6.49
277.521	95.91
277.737	108.2
277.952	20.14
278.168	77.48
278.383	83.63
278.599	3.75
278.814	50.86
279.03	32.43
279.245	38.57
279.461	32.43
279.676	1.71
279.892	-29.01
280.107	-29.01
280.322	-16.73
280.538	-8.53
280.753	1.71
280.969	71.34
281.184	50.86
281.399	32.43
281.615	73.39
281.83	32.43
282.045	42.67
282.26	42.67
282.476	75.43
282.691	61.1
282.906	44.71
283.122	110.25
283.337	-8.53
283.552	34.47
283.767	44.71
283.983	-69.97
284.198	-43.35
284.413	57
284.628	52.91
284.843	-88.4
285.058	54.95
285.274	50.86
285.489	22.19
285.704	57
285.919	26.28
286.134	-22.87
286.349	7.85
286.564	24.23
286.779	63.15
286.995	71.34
287.21	24.23
287.425	22.19
287.64	61.1
287.855	52.91
288.07	1.71
288.285	18.09
288.5	24.23
288.715	102.06
288.93	3.75
289.145	85.67
289.36	71.34
289.575	102.06
289.79	79.53
290.004	54.95
290.219	-31.06
290.434	32.43
290.649	18.09
290.864	13.99
291.079	59.05
291.294	48.81
291.509	11.95
291.724	-22.87
291.938	-37.2
292.153	52.91
292.368	-10.58
292.583	44.71
292.798	57
293.012	5.8
293.227	48.81
293.442	11.95
293.657	34.47
293.871	87.72
294.086	71.34
294.301	106.15
294.516	-10.58
294.73	75.43
294.945	1.71
295.16	110.25
295.374	30.38
295.589	79.53
295.804	11.95
296.018	28.33
296.233	73.39
296.447	24.23
296.662	-74.07
296.877	50.86
297.091	28.33
297.306	79.53
297.52	-35.16
297.735	97.96
297.949	24.23
298.164	22.19
298.378	77.48
298.593	9.9
298.807	57
299.022	73.39
299.236	97.96
299.451	-4.44
299.665	73.39
299.88	75.43
300.094	20.14
300.309	18.09
300.523	-0.34
300.737	38.57
300.952	34.47
301.166	-0.34
301.381	-22.87
301.595	85.67
301.809	11.95
302.024	54.95
302.238	50.86
302.452	75.43
302.667	48.81
302.881	77.48
303.095	40.62
303.309	28.33
303.524	48.81
303.738	95.91
303.952	-0.34
304.166	67.24
304.381	-20.82
304.595	-14.68
304.809	3.75
305.023	69.29
305.237	-24.92
305.452	5.8
305.666	46.76
305.88	44.71
306.094	79.53
306.308	16.04
306.522	16.04
306.736	32.43
306.95	106.15
307.164	77.48
307.379	38.57
307.593	22.19
307.807	3.75
308.021	42.67
308.235	57
308.449	42.67
308.663	44.71
308.877	138.92
309.091	102.06
309.305	48.81
309.519	-31.06
309.733	28.33
309.947	50.86
310.161	40.62
310.374	5.8
310.588	128.68
310.802	3.75
311.016	-16.73
311.23	1.71
311.444	79.53
311.658	-4.44
311.872	36.52
312.085	95.91
312.299	57
312.513	5.8
312.727	-41.3
312.941	61.1
313.154	38.57
313.368	16.04
313.582	18.09
313.796	24.23
314.009	-0.34
314.223	73.39
314.437	61.1
314.651	85.67
314.864	83.63
315.078	65.19
315.292	-10.58
315.505	93.87
315.719	65.19
315.933	118.44
316.146	5.8
316.36	81.58
316.573	32.43
316.787	40.62
317.001	36.52
317.214	50.86
317.428	16.04
317.641	34.47
317.855	59.05
318.068	-31.06
318.282	24.23
318.495	-8.53
318.709	87.72
318.922	-0.34
319.136	71.34
319.349	79.53
319.563	-26.96
319.776	-10.58
319.99	36.52
320.203	-26.96
320.417	-14.68
320.63	-37.2
320.843	7.85
321.057	59.05
321.27	97.96
321.483	89.77
321.697	9.9
321.91	-12.63
322.124	46.76
322.337	13.99
322.55	95.91
322.763	11.95
322.977	61.1
323.19	71.34
323.403	32.43
323.617	-20.82
323.83	145.06
324.043	24.23
324.256	30.38
324.469	16.04
324.683	48.81
324.896	81.58
325.109	7.85
325.322	-10.58
325.535	73.39
325.748	11.95
325.962	16.04
326.175	-24.92
326.388	57
326.601	85.67
326.814	44.71
327.027	13.99
327.24	69.29
327.453	7.85
327.666	63.15
327.879	7.85
328.092	28.33
328.305	-29.01
328.518	38.57
328.731	26.28
328.944	-2.39
329.157	52.91
329.37	16.04
329.583	20.14
329.796	61.1
330.009	126.63
330.222	24.23
330.435	61.1
330.648	87.72
330.861	44.71
331.073	18.09
331.286	30.38
331.499	100.01
331.712	9.9
331.925	48.81
332.138	36.52
332.35	-55.64
332.563	26.28
332.776	73.39
332.989	11.95
333.202	46.76
333.414	52.91
333.627	36.52
333.84	54.95
334.053	-4.44
334.265	44.71
334.478	18.09
334.691	65.19
334.903	3.75
335.116	13.99
335.329	71.34
335.541	57
335.754	42.67
335.966	44.71
336.179	65.19
336.392	20.14
336.604	59.05
336.817	57
337.029	77.48
337.242	13.99
337.454	16.04
337.667	81.58
337.88	5.8
338.092	61.1
338.305	32.43
338.517	44.71
338.729	59.05
338.942	-10.58
339.154	26.28
339.367	13.99
339.579	81.58
339.792	40.62
340.004	77.48
340.217	7.85
340.429	50.86
340.641	36.52
340.854	-16.73
341.066	32.43
341.278	138.92
341.491	89.77
341.703	93.87
341.915	-20.82
342.128	106.15
342.34	85.67
342.552	-20.82
342.764	11.95
342.977	44.71
343.189	-0.34
343.401	93.87
343.613	-2.39
343.826	28.33
344.038	83.63
344.25	-4.44
344.462	48.81
344.674	9.9
344.886	26.28
345.099	13.99
345.311	11.95
345.523	54.95
345.735	54.95
345.947	46.76
346.159	61.1
346.371	-8.53
346.583	52.91
346.795	36.52
347.007	-43.35
347.219	59.05
347.431	22.19
347.643	32.43
347.855	-10.58
348.067	65.19
348.279	42.67
348.491	1.71
348.703	59.05
348.915	24.23
349.127	-8.53
349.339	108.2
349.551	-8.53
349.763	-10.58
349.975	52.91
350.187	85.67
350.399	32.43
350.61	61.1
350.822	16.04
351.034	116.39
351.246	104.11
351.458	65.19
351.669	-6.49
351.881	87.72
352.093	32.43
352.305	30.38
352.517	44.71
352.728	16.04
352.94	-6.49
353.152	87.72
353.363	65.19
353.575	28.33
353.787	57
353.999	175.78
354.21	-22.87
354.422	7.85
354.633	75.43
354.845	59.05
355.057	7.85
355.268	16.04
355.48	-8.53
355.692	16.04
355.903	1.71
356.115	73.39
356.326	30.38
356.538	85.67
356.749	32.43
356.961	24.23
357.172	126.63
357.384	32.43
357.595	194.22
357.807	26.28
358.018	57
358.23	63.15
358.441	65.19
358.653	36.52
358.864	-20.82
359.075	28.33
359.287	89.77
359.498	7.85
359.709	57
359.921	11.95
360.132	67.24
360.344	83.63
360.555	48.81
360.766	79.53
360.977	-41.3
361.189	97.96
361.4	48.81
361.611	102.06
361.823	-14.68
362.034	34.47
362.245	34.47
362.456	67.24
362.667	69.29
362.879	128.68
363.09	22.19
363.301	73.39
363.512	24.23
363.723	9.9
363.935	7.85
364.146	77.48
364.357	38.57
364.568	42.67
364.779	-2.39
364.99	71.34
365.201	22.19
365.412	30.38
365.623	57
365.834	87.72
366.045	18.09
366.256	73.39
366.467	44.71
366.678	26.28
366.889	32.43
367.1	106.15
367.311	40.62
367.522	-12.63
367.733	79.53
367.944	77.48
368.155	54.95
368.366	102.06
368.577	-45.4
368.788	104.11
368.999	65.19
369.209	61.1
369.42	28.33
369.631	112.3
369.842	-72.02
370.053	24.23
370.264	36.52
370.474	44.71
370.685	44.71
370.896	18.09
371.107	-20.82
371.317	36.52
371.528	24.23
371.739	36.52
371.95	3.75
372.16	-8.53
372.371	-16.73
372.582	67.24
372.792	67.24
373.003	63.15
373.214	52.91
373.424	126.63
373.635	40.62
373.846	40.62
374.056	18.09
374.267	73.39
374.477	69.29
374.688	28.33
374.898	57
375.109	-20.82
375.319	24.23
375.53	28.33
375.74	38.57
375.951	3.75
376.161	63.15
376.372	85.67
376.582	130.73
376.793	7.85
377.003	30.38
377.214	24.23
377.424	61.1
377.635	77.48
377.845	7.85
378.055	85.67
378.266	65.19
378.476	93.87
378.686	-43.35
378.897	42.67
379.107	30.38
379.317	48.81
379.528	-24.92
379.738	179.88
379.948	1.71
380.158	28.33
380.369	40.62
380.579	106.15
380.789	-8.53
380.999	120.49
381.21	18.09
381.42	71.34
381.63	26.28
381.84	128.68
382.05	108.2
382.261	81.58
382.471	132.78
382.681	3.75
382.891	36.52
383.101	52.91
383.311	-20.82
383.521	-10.58
383.731	130.73
383.941	48.81
384.151	79.53
384.361	34.47
384.571	44.71
384.781	34.47
384.991	16.04
385.201	104.11
385.411	28.33
385.621	71.34
385.831	65.19
386.041	112.3
386.251	91.82
386.461	36.52
386.671	34.47
386.881	79.53
387.091	-20.82
387.301	61.1
387.511	57
387.72	61.1
387.93	112.3
388.14	57
388.35	61.1
388.56	124.58
388.769	112.3
388.979	50.86
389.189	44.71
389.399	63.15
389.609	50.86
389.818	122.54
390.028	54.95
390.238	44.71
390.447	93.87
390.657	34.47
390.867	75.43
391.076	81.58
391.286	134.82
391.496	40.62
391.705	46.76
391.915	120.49
392.125	73.39
392.334	75.43
392.544	20.14
392.753	77.48
392.963	151.21
393.172	46.76
393.382	73.39
393.591	52.91
393.801	26.28
394.01	200.36
394.22	40.62
394.429	44.71
394.639	36.52
394.848	89.77
395.058	57
395.267	79.53
395.477	138.92
395.686	167.59
395.895	140.97
396.105	186.02
396.314	108.2
396.524	106.15
396.733	177.83
396.942	112.3
397.152	93.87
397.361	138.92
397.57	106.15
397.78	32.43
397.989	81.58
398.198	83.63
398.407	91.82
398.617	93.87
398.826	118.44
399.035	97.96
399.244	128.68
399.453	145.06
399.663	57
399.872	59.05
400.081	179.88
400.29	122.54
400.499	128.68
400.708	138.92
400.917	138.92
401.127	167.59
401.336	145.06
401.545	143.02
401.754	52.91
401.963	188.07
402.172	108.2
402.381	114.34
402.59	157.35
402.799	157.35
403.008	81.58
403.217	112.3
403.426	214.7
403.635	171.69
403.844	167.59
404.053	151.21
404.262	208.55
404.471	204.46
404.68	208.55
404.888	132.78
405.097	196.26
405.306	130.73
405.515	128.68
405.724	208.55
405.933	210.6
406.142	200.36
406.35	149.16
406.559	208.55
406.768	173.74
406.977	220.84
407.185	177.83
407.394	245.41
407.603	214.7
407.812	263.85
408.02	331.43
408.229	274.09
408.438	272.04
408.646	241.32
408.855	239.27
409.064	276.13
409.272	288.42
409.481	345.77
409.69	282.28
409.898	329.38
410.107	306.85
410.315	374.44
410.524	370.34
410.733	456.36
410.941	339.62
411.15	374.44
411.358	431.78
411.567	532.13
411.775	448.16
411.984	523.94
412.192	472.74
412.401	462.5
412.609	503.46
412.818	612
413.026	575.14
413.234	550.56
413.443	564.9
413.651	669.34
413.86	593.57
414.068	683.68
414.276	745.12
414.485	724.64
414.693	720.54
414.901	837.28
415.11	784.03
415.318	859.81
415.526	831.13
415.734	992.92
415.943	849.57
416.151	1029.79
416.359	888.48
416.567	902.81
416.776	1052.31
416.984	1064.6
417.192	1169.05
417.4	1187.48
417.608	1068.7
417.817	1189.53
418.025	1347.22
418.233	1400.47
418.441	1289.88
418.649	1406.61
418.857	1463.96
419.065	1435.28
419.273	1445.52
419.481	1529.49
419.689	1752.72
419.897	1701.52
420.105	1891.98
420.313	1828.49
420.521	1883.79
420.729	1830.54
420.937	2023.05
421.145	1982.09
421.353	2166.41
421.561	2338.44
421.769	2277
421.977	2469.51
422.185	2401.93
422.393	2442.89
422.601	2576
422.809	2680.45
423.017	2604.67
423.224	2776.7
423.432	2764.42
423.64	2895.49
423.848	3057.28
424.056	3110.52
424.263	3362.42
424.471	3389.05
424.679	3397.24
424.887	3616.37
425.094	3657.33
425.302	3659.38
425.51	3749.49
425.718	3980.91
425.925	3997.29
426.133	4167.28
426.341	4505.19
426.548	4630.12
426.756	4609.64
426.964	4523.62
427.171	4841.06
427.379	4927.07
427.586	5234.27
427.794	5295.71
428.001	5512.79
428.209	5838.42
428.417	5811.79
428.624	6086.22
428.832	6200.91
429.039	5959.25
429.247	5992.02
429.454	6772.29
429.662	7136.83
429.869	6618.69
430.076	7169.6
430.284	6749.76
430.491	7368.25
430.699	7536.18
430.906	7622.2
431.114	7634.49
431.321	8072.75
431.528	8361.52
431.736	8664.61
431.943	9088.54
432.15	8885.8
432.358	8918.56
432.565	9426.46
432.772	9457.18
432.979	9969.17
433.187	9967.12
433.394	9991.7
433.601	10720.78
433.808	10860.04
434.016	10599.94
434.223	11077.12
434.43	12004.85
434.637	11589.11
434.844	12266.99
435.052	12631.53
435.259	12482.03
435.466	12539.37
435.673	12604.91
435.88	13444.57
436.087	14116.31
436.294	14142.93
436.501	13665.75
436.708	14063.06
436.915	14542.28
437.122	15142.34
437.329	15304.13
437.537	15547.84
437.743	16121.27
437.95	15734.2
438.157	16432.56
438.364	17208.74
438.571	17403.3
438.778	17165.73
438.985	18806.16
439.192	17839.51
439.399	18843.02
439.606	18288.02
439.813	19201.41
440.02	20286.84
440.227	19942.78
440.433	19709.31
440.64	20444.53
440.847	20372.85
441.054	20868.46
441.261	22177.11
441.467	22084.95
441.674	22504.79
441.881	23459.14
442.088	23326.02
442.294	22865.23
442.501	23698.75
442.708	23854.4
442.914	24935.73
443.121	25941.28
443.328	25179.43
443.534	27077.9
443.741	26129.69
443.948	25984.29
444.154	28157.18
444.361	27618.57
444.568	27694.34
444.774	27692.29
444.981	28413.18
445.187	28542.2
445.394	30493.91
445.6	29852.9
445.807	32752.82
446.013	31313.1
446.22	31976.64
446.426	33301.68
446.633	33561.77
446.839	34479.26
447.046	33266.86
447.252	34854.04
447.459	35124.37
447.665	34897.05
447.871	36181.12
448.078	37762.15
448.284	36080.77
448.491	37139.57
448.697	38761.56
448.903	39107.67
449.11	39142.49
449.316	38806.62
449.522	39220.31
449.728	40621.12
449.935	40322.12
450.141	40457.28
450.347	41786.41
450.553	40260.68
450.76	41206.84
450.966	42085.42
451.172	41919.53
451.378	42527.78
451.584	41978.92
451.791	42974.23
451.997	42435.62
452.203	43701.26
452.409	43236.37
452.615	43230.23
452.821	41845.8
453.027	41231.41
453.233	43475.99
453.44	41755.69
453.646	42146.86
453.852	42632.22
454.058	43426.84
454.264	41776.17
454.47	42701.86
454.676	41491.51
454.882	42390.56
455.088	39308.37
455.294	39955.53
455.5	40457.28
455.705	41034.81
455.911	39355.47
456.117	38720.6
456.323	38128.74
456.529	36189.31
456.735	37825.64
456.941	36891.77
457.147	36418.69
457.352	35017.88
457.558	34552.99
457.764	34718.87
457.97	34180.26
458.176	33326.25
458.381	33629.35
458.587	31861.96
458.793	32066.75
458.999	30149.85
459.204	32093.38
459.41	31540.43
459.616	29338.86
459.821	29349.1
460.027	29097.2
460.233	28677.37
460.438	27620.61
460.644	27569.41
460.85	26455.32
461.055	25836.83
461.261	25898.27
461.466	23946.56
461.672	23321.93
461.878	24796.46
462.083	23385.41
462.289	22822.22
462.494	22283.61
462.7	21699.94
462.905	21085.54
463.111	21824.86
463.316	21757.28
463.522	21198.18
463.727	21372.26
463.932	21288.29
464.138	20995.43
464.343	21120.36
464.549	20333.94
464.754	21355.88
464.959	21136.74
465.165	20634.99
465.37	19973.5
465.575	19578.24
465.781	20071.8
465.986	20321.65
466.191	19592.58
466.397	19101.06
466.602	18351.51
466.807	18906.51
467.012	18910.6
467.218	18847.12
467.423	18566.54
467.628	18859.4
467.833	19719.55
468.038	18533.78
468.244	18193.81
