Data from USB4F104151__0__11-44-19-609.txt Node

Date: Fri Mar 14 11:44:19 EDT 2025
User: louis
Spectrometer: USB4F10415
Trigger mode: 4
Integration Time (sec): 2.000000E-2
Scans to average: 1
Electric dark correction enabled: true
Nonlinearity correction enabled: false
Boxcar width: 0
XAxis mode: Wavelengths
Number of Pixels in Spectrum: 3648
>>>>>Begin Spectral Data<<<<<
178.204	-62.98
178.424	-62.98
178.644	-62.98
178.864	-22.02
179.084	-44.54
179.304	35.33
179.524	10.75
179.744	37.38
179.964	-13.82
180.184	12.8
180.404	47.62
180.624	12.8
180.844	-89.6
181.064	-5.63
181.283	12.8
181.503	-71.17
181.723	10.75
181.943	27.14
182.163	49.66
182.383	-15.87
182.602	51.71
182.822	57.86
183.042	78.33
183.262	-15.87
183.482	88.57
183.701	20.99
183.921	-50.69
184.141	55.81
184.361	33.28
184.58	76.29
184.8	10.75
185.02	-11.78
185.239	33.28
185.459	45.57
185.679	55.81
185.898	47.62
186.118	39.42
186.338	20.99
186.557	98.81
186.777	18.94
186.997	104.96
187.216	10.75
187.436	37.38
187.655	-3.58
187.875	55.81
188.095	-32.26
188.314	96.77
188.534	-5.63
188.753	12.8
188.973	70.14
189.192	29.18
189.412	84.48
189.631	33.28
189.851	14.85
190.07	14.85
190.29	10.75
190.509	-46.59
190.729	18.94
190.948	29.18
191.168	154.11
191.387	107.01
191.607	-11.78
191.826	31.23
192.045	59.9
192.265	20.99
192.484	53.76
192.704	98.81
192.923	82.43
193.142	35.33
193.362	68.09
193.581	94.72
193.8	72.19
194.02	94.72
194.239	-7.68
194.458	68.09
194.678	27.14
194.897	98.81
195.116	-42.5
195.335	61.95
195.555	98.81
195.774	61.95
195.993	41.47
196.212	14.85
196.432	88.57
196.651	70.14
196.87	-22.02
197.089	80.38
197.308	41.47
197.528	86.53
197.747	27.14
197.966	8.7
198.185	33.28
198.404	-9.73
198.623	37.38
198.842	88.57
199.062	55.81
199.281	88.57
199.5	66.05
199.719	-9.73
199.938	16.9
200.157	33.28
200.376	10.75
200.595	43.52
200.814	117.25
201.033	53.76
201.252	18.94
201.471	20.99
201.69	55.81
201.909	51.71
202.128	16.9
202.347	107.01
202.566	70.14
202.785	37.38
203.004	12.8
203.223	66.05
203.442	-52.74
203.661	61.95
203.879	98.81
204.098	92.67
204.317	-24.06
204.536	0.51
204.755	35.33
204.974	6.66
205.193	66.05
205.411	82.43
205.63	4.61
205.849	16.9
206.068	61.95
206.287	0.51
206.505	35.33
206.724	66.05
206.943	2.56
207.162	-11.78
207.381	14.85
207.599	37.38
207.818	4.61
208.037	-11.78
208.255	39.42
208.474	-24.06
208.693	-38.4
208.911	-15.87
209.13	92.67
209.349	-3.58
209.567	25.09
209.786	88.57
210.005	61.95
210.223	68.09
210.442	23.04
210.661	78.33
210.879	18.94
211.098	61.95
211.316	8.7
211.535	8.7
211.753	51.71
211.972	61.95
212.191	-36.35
212.409	27.14
212.628	4.61
212.846	61.95
213.065	-32.26
213.283	80.38
213.502	37.38
213.72	104.96
213.938	-5.63
214.157	43.52
214.375	59.9
214.594	31.23
214.812	61.95
215.031	-9.73
215.249	-13.82
215.467	-26.11
215.686	-30.21
215.904	57.86
216.122	41.47
216.341	96.77
216.559	-17.92
216.778	-5.63
216.996	39.42
217.214	-7.68
217.432	4.61
217.651	51.71
217.869	31.23
218.087	14.85
218.306	66.05
218.524	37.38
218.742	51.71
218.96	61.95
219.179	141.82
219.397	4.61
219.615	-7.68
219.833	45.57
220.051	12.8
220.27	6.66
220.488	53.76
220.706	98.81
220.924	41.47
221.142	23.04
221.36	16.9
221.578	31.23
221.796	-81.41
222.015	45.57
222.233	-22.02
222.451	12.8
222.669	18.94
222.887	43.52
223.105	53.76
223.323	27.14
223.541	-22.02
223.759	31.23
223.977	57.86
224.195	115.2
224.413	55.81
224.631	53.76
224.849	-19.97
225.067	82.43
225.285	-26.11
225.503	25.09
225.721	-93.69
225.939	16.9
226.157	-1.54
226.375	92.67
226.592	37.38
226.81	10.75
227.028	49.66
227.246	41.47
227.464	45.57
227.682	10.75
227.9	6.66
228.117	76.29
228.335	39.42
228.553	47.62
228.771	25.09
228.989	90.62
229.206	18.94
229.424	-17.92
229.642	49.66
229.86	51.71
230.077	51.71
230.295	31.23
230.513	25.09
230.731	80.38
230.948	18.94
231.166	92.67
231.384	66.05
231.601	37.38
231.819	0.51
232.037	-62.98
232.254	27.14
232.472	102.91
232.689	25.09
232.907	72.19
233.125	72.19
233.342	20.99
233.56	37.38
233.777	43.52
233.995	-15.87
234.213	31.23
234.43	6.66
234.648	78.33
234.865	41.47
235.083	74.24
235.3	10.75
235.518	66.05
235.735	-3.58
235.953	49.66
236.17	35.33
236.388	41.47
236.605	76.29
236.822	47.62
237.04	82.43
237.257	78.33
237.475	-13.82
237.692	100.86
237.909	-3.58
238.127	14.85
238.344	55.81
238.562	115.2
238.779	-13.82
238.996	-15.87
239.214	-34.3
239.431	82.43
239.648	23.04
239.865	18.94
240.083	27.14
240.3	-19.97
240.517	-13.82
240.735	27.14
240.952	135.68
241.169	78.33
241.386	2.56
241.603	-3.58
241.821	51.71
242.038	-15.87
242.255	37.38
242.472	45.57
242.689	94.72
242.907	104.96
243.124	-77.31
243.341	-7.68
243.558	-11.78
243.775	-13.82
243.992	31.23
244.209	90.62
244.426	35.33
244.643	107.01
244.86	18.94
245.078	51.71
245.295	29.18
245.512	29.18
245.729	18.94
245.946	8.7
246.163	72.19
246.38	-24.06
246.597	18.94
246.814	57.86
247.031	57.86
247.248	57.86
247.464	104.96
247.681	-13.82
247.898	-1.54
248.115	51.71
248.332	-5.63
248.549	117.25
248.766	113.15
248.983	2.56
249.2	16.9
249.417	14.85
249.633	29.18
249.85	-5.63
250.067	78.33
250.284	51.71
250.501	76.29
250.717	45.57
250.934	18.94
251.151	33.28
251.368	14.85
251.585	0.51
251.801	68.09
252.018	-7.68
252.235	-13.82
252.451	-3.58
252.668	-5.63
252.885	70.14
253.102	61.95
253.318	31.23
253.535	102.91
253.752	57.86
253.968	53.76
254.185	23.04
254.401	31.23
254.618	4.61
254.835	37.38
255.051	78.33
255.268	45.57
255.484	39.42
255.701	66.05
255.917	55.81
256.134	31.23
256.351	127.49
256.567	-11.78
256.784	8.7
257	-1.54
257.217	31.23
257.433	8.7
257.65	-3.58
257.866	12.8
258.082	-3.58
258.299	4.61
258.515	59.9
258.732	86.53
258.948	20.99
259.165	47.62
259.381	74.24
259.597	41.47
259.814	10.75
260.03	12.8
260.246	31.23
260.463	47.62
260.679	14.85
260.895	88.57
261.112	43.52
261.328	76.29
261.544	61.95
261.761	113.15
261.977	74.24
262.193	-11.78
262.409	53.76
262.626	-7.68
262.842	82.43
263.058	-3.58
263.274	82.43
263.49	49.66
263.707	82.43
263.923	35.33
264.139	-3.58
264.355	57.86
264.571	82.43
264.787	-19.97
265.004	43.52
265.22	33.28
265.436	31.23
265.652	74.24
265.868	-1.54
266.084	45.57
266.3	39.42
266.516	39.42
266.732	61.95
266.948	64
267.164	12.8
267.38	49.66
267.596	6.66
267.812	76.29
268.028	-30.21
268.244	66.05
268.46	55.81
268.676	-44.54
268.892	10.75
269.108	-9.73
269.324	18.94
269.54	12.8
269.756	47.62
269.972	43.52
270.188	78.33
270.403	-42.5
270.619	43.52
270.835	-32.26
271.051	29.18
271.267	-5.63
271.483	-40.45
271.698	51.71
271.914	70.14
272.13	-3.58
272.346	31.23
272.562	55.81
272.777	57.86
272.993	-3.58
273.209	35.33
273.425	14.85
273.64	51.71
273.856	141.82
274.072	49.66
274.287	0.51
274.503	20.99
274.719	96.77
274.934	49.66
275.15	-5.63
275.366	64
275.581	6.66
275.797	33.28
276.012	84.48
276.228	39.42
276.444	10.75
276.659	94.72
276.875	29.18
277.09	66.05
277.306	45.57
277.521	74.24
277.737	55.81
277.952	64
278.168	27.14
278.383	31.23
278.599	66.05
278.814	-11.78
279.03	53.76
279.245	76.29
279.461	102.91
279.676	31.23
279.892	47.62
280.107	20.99
280.322	45.57
280.538	33.28
280.753	-44.54
280.969	18.94
281.184	25.09
281.399	39.42
281.615	-1.54
281.83	35.33
282.045	8.7
282.26	27.14
282.476	57.86
282.691	35.33
282.906	55.81
283.122	88.57
283.337	43.52
283.552	10.75
283.767	66.05
283.983	92.67
284.198	55.81
284.413	16.9
284.628	76.29
284.843	59.9
285.058	-1.54
285.274	33.28
285.489	-22.02
285.704	86.53
285.919	0.51
286.134	14.85
286.349	-40.45
286.564	96.77
286.779	119.29
286.995	-32.26
287.21	-5.63
287.425	68.09
287.64	66.05
287.855	39.42
288.07	-22.02
288.285	25.09
288.5	78.33
288.715	49.66
288.93	117.25
289.145	57.86
289.36	72.19
289.575	-40.45
289.79	-5.63
290.004	59.9
290.219	74.24
290.434	-19.97
290.649	18.94
290.864	55.81
291.079	29.18
291.294	0.51
291.509	-40.45
291.724	20.99
291.938	55.81
292.153	23.04
292.368	20.99
292.583	49.66
292.798	119.29
293.012	59.9
293.227	66.05
293.442	37.38
293.657	12.8
293.871	49.66
294.086	39.42
294.301	25.09
294.516	-38.4
294.73	37.38
294.945	25.09
295.16	33.28
295.374	74.24
295.589	39.42
295.804	43.52
296.018	109.05
296.233	39.42
296.447	31.23
296.662	74.24
296.877	115.2
297.091	55.81
297.306	51.71
297.52	37.38
297.735	33.28
297.949	61.95
298.164	55.81
298.378	-3.58
298.593	29.18
298.807	49.66
299.022	66.05
299.236	10.75
299.451	55.81
299.665	4.61
299.88	64
300.094	64
300.309	41.47
300.523	64
300.737	20.99
300.952	25.09
301.166	35.33
301.381	74.24
301.595	25.09
301.809	45.57
302.024	61.95
302.238	53.76
302.452	59.9
302.667	4.61
302.881	70.14
303.095	57.86
303.309	104.96
303.524	45.57
303.738	49.66
303.952	4.61
304.166	86.53
304.381	4.61
304.595	117.25
304.809	82.43
305.023	35.33
305.237	66.05
305.452	25.09
305.666	53.76
305.88	12.8
306.094	86.53
306.308	78.33
306.522	39.42
306.736	27.14
306.95	64
307.164	35.33
307.379	-22.02
307.593	119.29
307.807	68.09
308.021	37.38
308.235	-11.78
308.449	-7.68
308.663	-22.02
308.877	111.1
309.091	119.29
309.305	57.86
309.519	41.47
309.733	113.15
309.947	-7.68
310.161	23.04
310.374	10.75
310.588	8.7
310.802	37.38
311.016	72.19
311.23	53.76
311.444	84.48
311.658	90.62
311.872	47.62
312.085	45.57
312.299	78.33
312.513	55.81
312.727	70.14
312.941	41.47
313.154	27.14
313.368	-7.68
313.582	96.77
313.796	45.57
314.009	51.71
314.223	98.81
314.437	10.75
314.651	25.09
314.864	18.94
315.078	29.18
315.292	-3.58
315.505	25.09
315.719	-5.63
315.933	74.24
316.146	0.51
316.36	-50.69
316.573	123.39
316.787	57.86
317.001	55.81
317.214	59.9
317.428	80.38
317.641	49.66
317.855	49.66
318.068	115.2
318.282	68.09
318.495	111.1
318.709	6.66
318.922	98.81
319.136	113.15
319.349	51.71
319.563	49.66
319.776	74.24
319.99	68.09
320.203	104.96
320.417	88.57
320.63	-9.73
320.843	37.38
321.057	45.57
321.27	82.43
321.483	18.94
321.697	47.62
321.91	102.91
322.124	86.53
322.337	-15.87
322.55	23.04
322.763	-1.54
322.977	49.66
323.19	6.66
323.403	-44.54
323.617	64
323.83	37.38
324.043	20.99
324.256	41.47
324.469	66.05
324.683	-3.58
324.896	12.8
325.109	10.75
325.322	-38.4
325.535	35.33
325.748	4.61
325.962	66.05
326.175	45.57
326.388	14.85
326.601	90.62
326.814	57.86
327.027	86.53
327.24	55.81
327.453	29.18
327.666	45.57
327.879	49.66
328.092	88.57
328.305	94.72
328.518	45.57
328.731	6.66
328.944	68.09
329.157	49.66
329.37	49.66
329.583	0.51
329.796	39.42
330.009	78.33
330.222	-13.82
330.435	29.18
330.648	104.96
330.861	41.47
331.073	55.81
331.286	33.28
331.499	35.33
331.712	39.42
331.925	57.86
332.138	39.42
332.35	64
332.563	-7.68
332.776	82.43
332.989	25.09
333.202	33.28
333.414	55.81
333.627	-3.58
333.84	6.66
334.053	68.09
334.265	80.38
334.478	12.8
334.691	53.76
334.903	76.29
335.116	18.94
335.329	66.05
335.541	29.18
335.754	107.01
335.966	61.95
336.179	37.38
336.392	53.76
336.604	12.8
336.817	66.05
337.029	4.61
337.242	90.62
337.454	66.05
337.667	64
337.88	90.62
338.092	18.94
338.305	33.28
338.517	25.09
338.729	-38.4
338.942	4.61
339.154	59.9
339.367	49.66
339.579	61.95
339.792	23.04
340.004	98.81
340.217	68.09
340.429	16.9
340.641	-24.06
340.854	96.77
341.066	37.38
341.278	12.8
341.491	88.57
341.703	82.43
341.915	55.81
342.128	72.19
342.34	88.57
342.552	92.67
342.764	123.39
342.977	16.9
343.189	4.61
343.401	66.05
343.613	20.99
343.826	-3.58
344.038	20.99
344.25	66.05
344.462	-7.68
344.674	66.05
344.886	43.52
345.099	27.14
345.311	61.95
345.523	10.75
345.735	61.95
345.947	70.14
346.159	16.9
346.371	70.14
346.583	51.71
346.795	109.05
347.007	25.09
347.219	31.23
347.431	102.91
347.643	55.81
347.855	117.25
348.067	35.33
348.279	-1.54
348.491	74.24
348.703	35.33
348.915	41.47
349.127	76.29
349.339	35.33
349.551	55.81
349.763	-3.58
349.975	59.9
350.187	152.06
350.399	27.14
350.61	53.76
350.822	37.38
351.034	68.09
351.246	2.56
351.458	45.57
351.669	33.28
351.881	-22.02
352.093	8.7
352.305	96.77
352.517	100.86
352.728	94.72
352.94	66.05
353.152	113.15
353.363	66.05
353.575	23.04
353.787	39.42
353.999	29.18
354.21	74.24
354.422	76.29
354.633	-36.35
354.845	92.67
355.057	66.05
355.268	55.81
355.48	31.23
355.692	70.14
355.903	57.86
356.115	47.62
356.326	18.94
356.538	66.05
356.749	78.33
356.961	64
357.172	-13.82
357.384	35.33
357.595	115.2
357.807	45.57
358.018	39.42
358.23	51.71
358.441	152.06
358.653	43.52
358.864	82.43
359.075	45.57
359.287	70.14
359.498	80.38
359.709	84.48
359.921	51.71
360.132	-67.07
360.344	47.62
360.555	14.85
360.766	25.09
360.977	35.33
361.189	100.86
361.4	-28.16
361.611	115.2
361.823	45.57
362.034	33.28
362.245	45.57
362.456	23.04
362.667	61.95
362.879	18.94
363.09	14.85
363.301	-9.73
363.512	37.38
363.723	-56.83
363.935	72.19
364.146	39.42
364.357	51.71
364.568	98.81
364.779	14.85
364.99	66.05
365.201	143.87
365.412	43.52
365.623	45.57
365.834	47.62
366.045	70.14
366.256	-7.68
366.467	-24.06
366.678	57.86
366.889	82.43
367.1	10.75
367.311	49.66
367.522	55.81
367.733	104.96
367.944	141.82
368.155	51.71
368.366	117.25
368.577	41.47
368.788	111.1
368.999	111.1
369.209	4.61
369.42	76.29
369.631	96.77
369.842	53.76
370.053	55.81
370.264	90.62
370.474	66.05
370.685	76.29
370.896	47.62
371.107	49.66
371.317	76.29
371.528	49.66
371.739	100.86
371.95	61.95
372.16	127.49
372.371	74.24
372.582	76.29
372.792	72.19
373.003	133.63
373.214	88.57
373.424	84.48
373.635	-1.54
373.846	31.23
374.056	80.38
374.267	74.24
374.477	78.33
374.688	66.05
374.898	70.14
375.109	57.86
375.319	82.43
375.53	100.86
375.74	90.62
375.951	82.43
376.161	121.34
376.372	150.01
376.582	94.72
376.793	119.29
377.003	-28.16
377.214	125.44
377.424	86.53
377.635	45.57
377.845	68.09
378.055	74.24
378.266	4.61
378.476	35.33
378.686	27.14
378.897	135.68
379.107	39.42
379.317	90.62
379.528	76.29
379.738	80.38
379.948	55.81
380.158	35.33
380.369	64
380.579	20.99
380.789	47.62
380.999	43.52
381.21	33.28
381.42	84.48
381.63	0.51
381.84	94.72
382.05	92.67
382.261	68.09
382.471	115.2
382.681	25.09
382.891	49.66
383.101	0.51
383.311	61.95
383.521	86.53
383.731	72.19
383.941	20.99
384.151	121.34
384.361	-38.4
384.571	78.33
384.781	-32.26
384.991	82.43
385.201	10.75
385.411	102.91
385.621	154.11
385.831	-15.87
386.041	94.72
386.251	-32.26
386.461	27.14
386.671	156.16
386.881	10.75
387.091	68.09
387.301	94.72
387.511	94.72
387.72	27.14
387.93	45.57
388.14	43.52
388.35	41.47
388.56	109.05
388.769	53.76
388.979	131.58
389.189	8.7
389.399	-9.73
389.609	55.81
389.818	78.33
390.028	109.05
390.238	59.9
390.447	51.71
390.657	78.33
390.867	29.18
391.076	78.33
391.286	53.76
391.496	53.76
391.705	109.05
391.915	94.72
392.125	64
392.334	98.81
392.544	92.67
392.753	70.14
392.963	80.38
393.172	109.05
393.382	57.86
393.591	121.34
393.801	76.29
394.01	94.72
394.22	154.11
394.429	115.2
394.639	43.52
394.848	88.57
395.058	78.33
395.267	84.48
395.477	47.62
395.686	100.86
395.895	80.38
396.105	129.53
396.314	104.96
396.524	59.9
396.733	76.29
396.942	154.11
397.152	66.05
397.361	150.01
397.57	162.3
397.78	143.87
397.989	88.57
398.198	88.57
398.407	45.57
398.617	111.1
398.826	123.39
399.035	94.72
399.244	37.38
399.453	129.53
399.663	107.01
399.872	154.11
400.081	55.81
400.29	117.25
400.499	107.01
400.708	43.52
400.917	102.91
401.127	86.53
401.336	156.16
401.545	178.69
401.754	141.82
401.963	147.97
402.172	80.38
402.381	61.95
402.59	123.39
402.799	160.25
403.008	184.83
403.217	164.35
403.426	123.39
403.635	131.58
403.844	121.34
404.053	143.87
404.262	166.4
404.471	180.73
404.68	104.96
404.888	186.88
405.097	172.54
405.306	188.93
405.515	203.26
405.724	162.3
405.933	109.05
406.142	123.39
406.35	207.36
406.559	178.69
406.768	211.45
406.977	246.27
407.185	197.12
407.394	197.12
407.603	199.16
407.812	221.69
408.02	256.51
408.229	244.22
408.438	215.55
408.646	305.66
408.855	193.02
409.064	256.51
409.272	205.31
409.481	233.98
409.69	240.12
409.898	320
410.107	287.23
410.315	373.24
410.524	311.8
410.733	320
410.941	360.95
411.15	338.43
411.358	401.91
411.567	406.01
411.775	414.2
411.984	367.1
412.192	322.04
412.401	436.73
412.609	459.26
412.818	528.89
413.026	471.54
413.234	485.88
413.443	508.41
413.651	489.98
413.86	553.46
414.068	563.7
414.276	623.09
414.485	555.51
414.693	567.8
414.901	688.63
415.11	616.95
415.318	696.82
415.526	745.97
415.734	752.12
415.943	762.36
416.151	727.54
416.359	819.7
416.567	784.88
416.776	879.09
416.984	920.05
417.192	934.39
417.4	995.82
417.608	1004.02
417.817	942.58
418.025	1071.6
418.233	1047.02
418.441	1026.54
418.649	1061.36
418.857	1112.56
419.065	1249.77
419.273	1284.59
419.481	1325.55
419.689	1360.36
419.897	1423.85
420.105	1434.09
420.313	1444.33
420.521	1487.34
420.729	1485.29
420.937	1688.04
421.145	1585.64
421.353	1733.09
421.561	1782.24
421.769	1776.1
421.977	1882.6
422.185	1976.8
422.393	2036.19
422.601	2181.6
422.809	2212.32
423.017	2181.6
423.224	2294.24
423.432	2355.68
423.64	2404.83
423.848	2607.58
424.056	2611.67
424.263	2714.07
424.471	2904.53
424.679	2806.23
424.887	3054.03
425.094	3070.42
425.302	3090.9
425.51	3084.75
425.718	3213.77
425.925	3299.79
426.133	3426.76
426.341	3494.35
426.548	3725.77
426.756	3723.72
426.964	3807.69
427.171	4141.5
427.379	4014.53
427.586	4159.94
427.794	4407.74
428.001	4430.27
428.209	4639.16
428.417	4618.68
428.624	4940.21
428.832	4899.25
429.039	5048.75
429.247	4985.27
429.454	5370.29
429.662	5732.78
429.869	5437.87
430.076	5904.81
430.284	5620.14
430.491	5818.79
430.699	6168.99
430.906	6138.27
431.114	6277.54
431.321	6504.86
431.528	6619.55
431.736	7074.2
431.943	7373.2
432.15	7182.74
432.358	7223.7
432.565	7815.56
432.772	7563.66
432.979	7969.16
433.187	8251.78
433.394	8167.81
433.601	8874.36
433.808	8724.86
434.016	8788.35
434.223	8823.16
434.43	9429.36
434.637	9431.41
434.844	9939.3
435.052	10189.16
435.259	10176.87
435.466	9953.64
435.673	10277.22
435.88	10883.42
436.087	11485.52
436.294	11544.91
436.501	11047.26
436.708	11354.45
436.915	11706.7
437.122	12243.27
437.329	12411.2
437.537	12728.64
437.743	12927.29
437.95	12579.14
438.157	13406.52
438.364	13730.09
438.571	14088.49
438.778	13924.65
438.985	15063.32
439.192	14436.64
439.399	15182.1
439.606	14668.06
439.813	15626.51
440.02	16658.69
440.227	16345.35
440.433	15960.33
440.64	16734.46
440.847	16279.82
441.054	16711.94
441.261	18004.21
441.467	17918.19
441.674	18223.34
441.881	18878.69
442.088	18815.2
442.294	18577.64
442.501	19185.88
442.708	19753.17
442.914	20383.94
443.121	20904.13
443.328	20596.93
443.534	21749.94
443.741	21475.51
443.948	21141.69
444.154	22786.21
444.361	22517.93
444.568	22763.68
444.774	22937.76
444.981	23062.69
445.187	23765.14
445.394	24658.06
445.6	24725.64
445.807	26718.31
446.013	25700.47
446.22	25751.67
446.426	26941.54
446.633	27457.63
446.839	28176.47
447.046	27035.75
447.252	28610.64
447.459	28706.89
447.665	28489.81
447.871	29630.52
448.078	30808.11
448.284	29503.55
448.491	30570.54
448.697	31381.54
448.903	32299.03
449.11	31864.86
449.316	31741.98
449.522	32430.1
449.728	32768.01
449.935	33140.74
450.141	33204.23
450.347	34179.06
450.553	32614.41
450.76	33280
450.966	34615.28
451.172	33970.17
451.378	34932.71
451.584	34160.63
451.791	34854.89
451.997	34791.41
452.203	35227.62
452.409	35583.97
452.615	35186.66
452.821	33953.79
453.027	33310.72
453.233	35635.17
453.44	34375.67
453.646	34623.47
453.852	34422.77
454.058	34887.66
454.264	34224.12
454.47	35076.07
454.676	33927.16
454.882	35211.24
455.088	32081.94
455.294	32651.28
455.5	33146.89
455.705	33595.39
455.911	32163.86
456.117	30959.66
456.323	31029.29
456.529	29243.46
456.735	30806.06
456.941	29812.79
457.147	29376.58
457.352	28502.09
457.558	28285.01
457.764	28344.4
457.97	27560.03
458.176	26959.97
458.381	27199.58
458.587	25942.13
458.793	25788.53
458.999	24672.39
459.204	26288.24
459.41	25708.66
459.616	23767.19
459.821	23724.18
460.027	23509.15
460.233	23326.88
460.438	22167.73
460.644	22591.66
460.85	21395.64
461.055	20943.04
461.261	20627.65
461.466	19454.17
461.672	18976.99
461.878	20115.66
462.083	18696.42
462.289	18567.4
462.494	18340.07
462.7	17590.52
462.905	16873.73
463.111	17877.23
463.316	17647.86
463.522	17191.16
463.727	17455.35
463.932	17273.08
464.138	17131.77
464.343	17006.84
464.549	16644.35
464.754	16992.51
464.959	16931.07
465.165	16900.35
465.37	16263.43
465.575	15673.62
465.781	16382.21
465.986	16533.76
466.191	16038.16
466.397	15456.53
466.602	14754.08
466.807	15456.53
467.012	15542.55
467.218	15264.02
467.423	14997.79
467.628	15180.06
467.833	15876.37
