Data from USB4F104151__49__11-45-09-057.txt Node

Date: Fri Mar 14 11:45:09 EDT 2025
User: louis
Spectrometer: USB4F10415
Trigger mode: 4
Integration Time (sec): 2.000000E-2
Scans to average: 1
Electric dark correction enabled: true
Nonlinearity correction enabled: false
Boxcar width: 0
XAxis mode: Wavelengths
Number of Pixels in Spectrum: 3648
>>>>>Begin Spectral Data<<<<<
178.204	-38.74
178.424	-38.74
178.644	-38.74
178.864	-16.21
179.084	-124.76
179.304	-16.21
179.524	45.23
179.744	4.27
179.964	-12.12
180.184	96.43
180.404	41.13
180.624	-53.08
180.844	-10.07
181.064	-57.17
181.283	-61.27
181.503	-42.84
181.723	65.71
181.943	-44.88
182.163	110.76
182.383	77.99
182.602	0.17
182.822	-16.21
183.042	34.99
183.262	39.08
183.482	-32.6
183.701	28.84
183.921	41.13
184.141	-77.65
184.361	14.51
184.58	53.42
184.8	92.33
185.02	-3.93
185.239	69.8
185.459	112.81
185.679	12.46
185.898	-1.88
186.118	24.75
186.338	32.94
186.557	108.71
186.777	16.55
186.997	34.99
187.216	18.6
187.436	61.61
187.655	16.55
187.875	69.8
188.095	-18.26
188.314	53.42
188.534	45.23
188.753	32.94
188.973	53.42
189.192	61.61
189.412	55.47
189.631	12.46
189.851	20.65
190.07	37.03
190.29	14.51
190.509	49.32
190.729	37.03
190.948	53.42
191.168	61.61
191.387	55.47
191.607	12.46
191.826	26.79
192.045	32.94
192.265	55.47
192.484	10.41
192.704	26.79
192.923	8.36
193.142	94.38
193.362	69.8
193.581	-10.07
193.8	32.94
194.02	28.84
194.239	53.42
194.458	-24.4
194.678	69.8
194.897	114.86
195.116	63.66
195.335	-10.07
195.555	47.27
195.774	24.75
195.993	-30.55
196.212	63.66
196.432	30.89
196.651	-12.12
196.87	39.08
197.089	82.09
197.308	106.67
197.528	18.6
197.747	12.46
197.966	26.79
198.185	82.09
198.404	104.62
198.623	-48.98
198.842	8.36
199.062	59.56
199.281	32.94
199.5	82.09
199.719	8.36
199.938	82.09
200.157	53.42
200.376	65.71
200.595	28.84
200.814	14.51
201.033	-36.69
201.252	53.42
201.471	32.94
201.69	6.31
201.909	14.51
202.128	30.89
202.347	32.94
202.566	8.36
202.785	-14.17
203.004	39.08
203.223	88.23
203.442	75.95
203.661	-5.97
203.879	-12.12
204.098	84.14
204.317	-36.69
204.536	-3.93
204.755	65.71
204.974	75.95
205.193	30.89
205.411	51.37
205.63	61.61
205.849	22.7
206.068	-32.6
206.287	102.57
206.505	61.61
206.724	37.03
206.943	-1.88
207.162	41.13
207.381	41.13
207.599	39.08
207.818	41.13
208.037	14.51
208.255	-22.36
208.474	73.9
208.693	63.66
208.911	20.65
209.13	39.08
209.349	92.33
209.567	63.66
209.786	37.03
210.005	55.47
210.223	12.46
210.442	57.51
210.661	65.71
210.879	24.75
211.098	16.55
211.316	37.03
211.535	-20.31
211.753	41.13
211.972	-26.45
212.191	2.22
212.409	18.6
212.628	75.95
212.846	-26.45
213.065	-26.45
213.283	67.75
213.502	51.37
213.72	4.27
213.938	16.55
214.157	-16.21
214.375	141.48
214.594	39.08
214.812	143.53
215.031	55.47
215.249	51.37
215.467	32.94
215.686	-42.84
215.904	24.75
216.122	-3.93
216.341	75.95
216.559	-24.4
216.778	53.42
216.996	49.32
217.214	82.09
217.432	77.99
217.651	-28.5
217.869	55.47
218.087	28.84
218.306	28.84
218.524	-3.93
218.742	43.18
218.96	-24.4
219.179	-22.36
219.397	-32.6
219.615	-26.45
219.833	47.27
220.051	28.84
220.27	4.27
220.488	94.38
220.706	110.76
220.924	100.52
221.142	71.85
221.36	37.03
221.578	51.37
221.796	-8.02
222.015	112.81
222.233	55.47
222.451	-10.07
222.669	-24.4
222.887	30.89
223.105	-20.31
223.323	-42.84
223.541	-20.31
223.759	102.57
223.977	51.37
224.195	71.85
224.413	53.42
224.631	59.56
224.849	28.84
225.067	55.47
225.285	63.66
225.503	37.03
225.721	14.51
225.939	77.99
226.157	59.56
226.375	110.76
226.592	28.84
226.81	-1.88
227.028	43.18
227.246	129.19
227.464	59.56
227.682	69.8
227.9	-24.4
228.117	32.94
228.335	28.84
228.553	55.47
228.771	24.75
228.989	114.86
229.206	71.85
229.424	34.99
229.642	18.6
229.86	-1.88
230.077	37.03
230.295	49.32
230.513	16.55
230.731	88.23
230.948	116.9
231.166	71.85
231.384	-14.17
231.601	32.94
231.819	51.37
232.037	53.42
232.254	-8.02
232.472	-20.31
232.689	24.75
232.907	8.36
233.125	45.23
233.342	22.7
233.56	18.6
233.777	59.56
233.995	69.8
234.213	77.99
234.43	34.99
234.648	8.36
234.865	-34.64
235.083	86.19
235.3	59.56
235.518	43.18
235.735	121
235.953	84.14
236.17	2.22
236.388	118.95
236.605	63.66
236.822	30.89
237.04	69.8
237.257	32.94
237.475	57.51
237.692	41.13
237.909	32.94
238.127	28.84
238.344	8.36
238.562	63.66
238.779	-18.26
238.996	45.23
239.214	51.37
239.431	16.55
239.648	67.75
239.865	59.56
240.083	125.1
240.3	43.18
240.517	4.27
240.735	45.23
240.952	63.66
241.169	32.94
241.386	32.94
241.603	75.95
241.821	26.79
242.038	75.95
242.255	71.85
242.472	61.61
242.689	53.42
242.907	69.8
243.124	37.03
243.341	59.56
243.558	53.42
243.775	32.94
243.992	-1.88
244.209	102.57
244.426	53.42
244.643	18.6
244.86	16.55
245.078	51.37
245.295	-5.97
245.512	106.67
245.729	51.37
245.946	49.32
246.163	55.47
246.38	14.51
246.597	47.27
246.814	57.51
247.031	57.51
247.248	39.08
247.464	65.71
247.681	59.56
247.898	37.03
248.115	63.66
248.332	-32.6
248.549	28.84
248.766	18.6
248.983	12.46
249.2	18.6
249.417	98.47
249.633	24.75
249.85	39.08
250.067	4.27
250.284	-53.08
250.501	41.13
250.717	75.95
250.934	-32.6
251.151	16.55
251.368	28.84
251.585	-10.07
251.801	77.99
252.018	24.75
252.235	45.23
252.451	49.32
252.668	39.08
252.885	-3.93
253.102	77.99
253.318	61.61
253.535	80.04
253.752	69.8
253.968	-3.93
254.185	16.55
254.401	51.37
254.618	22.7
254.835	-12.12
255.051	61.61
255.268	98.47
255.484	69.8
255.701	8.36
255.917	65.71
256.134	34.99
256.351	61.61
256.567	61.61
256.784	92.33
257	0.17
257.217	26.79
257.433	16.55
257.65	108.71
257.866	12.46
258.082	30.89
258.299	-20.31
258.515	14.51
258.732	71.85
258.948	53.42
259.165	14.51
259.381	24.75
259.597	102.57
259.814	110.76
260.03	59.56
260.246	-14.17
260.463	69.8
260.679	53.42
260.895	94.38
261.112	147.62
261.328	-16.21
261.544	59.56
261.761	123.05
261.977	55.47
262.193	28.84
262.409	57.51
262.626	28.84
262.842	84.14
263.058	28.84
263.274	39.08
263.49	41.13
263.707	43.18
263.923	4.27
264.139	51.37
264.355	-20.31
264.571	73.9
264.787	28.84
265.004	49.32
265.22	26.79
265.436	59.56
265.652	8.36
265.868	41.13
266.084	73.9
266.3	-5.97
266.516	49.32
266.732	32.94
266.948	39.08
267.164	28.84
267.38	-12.12
267.596	14.51
267.812	86.19
268.028	63.66
268.244	26.79
268.46	106.67
268.676	90.28
268.892	73.9
269.108	10.41
269.324	0.17
269.54	12.46
269.756	67.75
269.972	-77.65
270.188	86.19
270.403	20.65
270.619	4.27
270.835	32.94
271.051	63.66
271.267	10.41
271.483	18.6
271.698	39.08
271.914	-16.21
272.13	24.75
272.346	30.89
272.562	47.27
272.777	14.51
272.993	20.65
273.209	41.13
273.425	75.95
273.64	10.41
273.856	73.9
274.072	59.56
274.287	49.32
274.503	77.99
274.719	88.23
274.934	94.38
275.15	-8.02
275.366	86.19
275.581	-16.21
275.797	73.9
276.012	-10.07
276.228	133.29
276.444	-14.17
276.659	-26.45
276.875	-5.97
277.09	55.47
277.306	14.51
277.521	14.51
277.737	88.23
277.952	-12.12
278.168	24.75
278.383	61.61
278.599	32.94
278.814	-24.4
279.03	80.04
279.245	47.27
279.461	18.6
279.676	30.89
279.892	-3.93
280.107	77.99
280.322	51.37
280.538	49.32
280.753	-16.21
280.969	118.95
281.184	-1.88
281.399	41.13
281.615	34.99
281.83	94.38
282.045	63.66
282.26	20.65
282.476	53.42
282.691	49.32
282.906	53.42
283.122	24.75
283.337	71.85
283.552	-14.17
283.767	47.27
283.983	69.8
284.198	71.85
284.413	61.61
284.628	30.89
284.843	24.75
285.058	57.51
285.274	-26.45
285.489	53.42
285.704	4.27
285.919	30.89
286.134	-3.93
286.349	18.6
286.564	26.79
286.779	39.08
286.995	43.18
287.21	-26.45
287.425	-1.88
287.64	-1.88
287.855	20.65
288.07	49.32
288.285	94.38
288.5	41.13
288.715	157.86
288.93	10.41
289.145	-20.31
289.36	65.71
289.575	-8.02
289.79	43.18
290.004	69.8
290.219	90.28
290.434	55.47
290.649	47.27
290.864	26.79
291.079	41.13
291.294	26.79
291.509	-57.17
291.724	53.42
291.938	41.13
292.153	51.37
292.368	45.23
292.583	12.46
292.798	34.99
293.012	67.75
293.227	32.94
293.442	-32.6
293.657	-24.4
293.871	-5.97
294.086	125.1
294.301	82.09
294.516	49.32
294.73	28.84
294.945	49.32
295.16	0.17
295.374	-3.93
295.589	106.67
295.804	-1.88
296.018	45.23
296.233	6.31
296.447	8.36
296.662	-28.5
296.877	16.55
297.091	-12.12
297.306	20.65
297.52	-59.22
297.735	-26.45
297.949	94.38
298.164	88.23
298.378	110.76
298.593	-5.97
298.807	67.75
299.022	96.43
299.236	94.38
299.451	-8.02
299.665	-61.27
299.88	8.36
300.094	-20.31
300.309	20.65
300.523	49.32
300.737	92.33
300.952	61.61
301.166	80.04
301.381	-32.6
301.595	67.75
301.809	-18.26
302.024	39.08
302.238	55.47
302.452	55.47
302.667	143.53
302.881	59.56
303.095	47.27
303.309	57.51
303.524	34.99
303.738	26.79
303.952	34.99
304.166	26.79
304.381	26.79
304.595	32.94
304.809	-44.88
305.023	22.7
305.237	67.75
305.452	-18.26
305.666	82.09
305.88	43.18
306.094	-1.88
306.308	61.61
306.522	94.38
306.736	96.43
306.95	59.56
307.164	-1.88
307.379	61.61
307.593	71.85
307.807	22.7
308.021	20.65
308.235	49.32
308.449	77.99
308.663	-1.88
308.877	106.67
309.091	53.42
309.305	80.04
309.519	4.27
309.733	102.57
309.947	-1.88
310.161	34.99
310.374	75.95
310.588	41.13
310.802	53.42
311.016	-42.84
311.23	47.27
311.444	37.03
311.658	20.65
311.872	86.19
312.085	26.79
312.299	59.56
312.513	110.76
312.727	59.56
312.941	47.27
313.154	28.84
313.368	8.36
313.582	32.94
313.796	69.8
314.009	57.51
314.223	45.23
314.437	37.03
314.651	71.85
314.864	51.37
315.078	2.22
315.292	55.47
315.505	12.46
315.719	98.47
315.933	-18.26
316.146	73.9
316.36	-24.4
316.573	8.36
316.787	10.41
317.001	63.66
317.214	-1.88
317.428	-42.84
317.641	-20.31
317.855	57.51
318.068	32.94
318.282	12.46
318.495	77.99
318.709	39.08
318.922	75.95
319.136	18.6
319.349	90.28
319.563	41.13
319.776	0.17
319.99	57.51
320.203	59.56
320.417	28.84
320.63	-10.07
320.843	125.1
321.057	55.47
321.27	39.08
321.483	69.8
321.697	6.31
321.91	30.89
322.124	-28.5
322.337	47.27
322.55	55.47
322.763	77.99
322.977	43.18
323.19	96.43
323.403	16.55
323.617	-26.45
323.83	96.43
324.043	49.32
324.256	96.43
324.469	84.14
324.683	73.9
324.896	61.61
325.109	77.99
325.322	20.65
325.535	59.56
325.748	-16.21
325.962	-14.17
326.175	69.8
326.388	65.71
326.601	80.04
326.814	32.94
327.027	-3.93
327.24	96.43
327.453	22.7
327.666	43.18
327.879	102.57
328.092	20.65
328.305	92.33
328.518	-3.93
328.731	90.28
328.944	63.66
329.157	92.33
329.37	65.71
329.583	63.66
329.796	164.01
330.009	43.18
330.222	30.89
330.435	69.8
330.648	24.75
330.861	47.27
331.073	65.71
331.286	49.32
331.499	45.23
331.712	49.32
331.925	69.8
332.138	0.17
332.35	61.61
332.563	18.6
332.776	47.27
332.989	14.51
333.202	67.75
333.414	92.33
333.627	-5.97
333.84	98.47
334.053	16.55
334.265	77.99
334.478	43.18
334.691	73.9
334.903	77.99
335.116	28.84
335.329	-20.31
335.541	-5.97
335.754	71.85
335.966	-3.93
336.179	94.38
336.392	45.23
336.604	-24.4
336.817	59.56
337.029	45.23
337.242	18.6
337.454	45.23
337.667	12.46
337.88	106.67
338.092	32.94
338.305	-5.97
338.517	-28.5
338.729	2.22
338.942	18.6
339.154	59.56
339.367	4.27
339.579	39.08
339.792	28.84
340.004	32.94
340.217	69.8
340.429	24.75
340.641	53.42
340.854	12.46
341.066	-3.93
341.278	69.8
341.491	16.55
341.703	67.75
341.915	59.56
342.128	-12.12
342.34	0.17
342.552	18.6
342.764	80.04
342.977	20.65
343.189	24.75
343.401	69.8
343.613	32.94
343.826	18.6
344.038	8.36
344.25	2.22
344.462	104.62
344.674	20.65
344.886	63.66
345.099	67.75
345.311	51.37
345.523	18.6
345.735	-14.17
345.947	47.27
346.159	18.6
346.371	61.61
346.583	51.37
346.795	75.95
347.007	39.08
347.219	45.23
347.431	14.51
347.643	57.51
347.855	92.33
348.067	41.13
348.279	59.56
348.491	139.43
348.703	37.03
348.915	34.99
349.127	51.37
349.339	41.13
349.551	43.18
349.763	71.85
349.975	84.14
350.187	90.28
350.399	8.36
350.61	61.61
350.822	98.47
351.034	61.61
351.246	69.8
351.458	67.75
351.669	96.43
351.881	57.51
352.093	47.27
352.305	30.89
352.517	108.71
352.728	125.1
352.94	-3.93
353.152	-3.93
353.363	34.99
353.575	137.38
353.787	67.75
353.999	37.03
354.21	94.38
354.422	39.08
354.633	32.94
354.845	4.27
355.057	-28.5
355.268	24.75
355.48	47.27
355.692	73.9
355.903	59.56
356.115	39.08
356.326	69.8
356.538	45.23
356.749	82.09
356.961	55.47
357.172	-22.36
357.384	16.55
357.595	108.71
357.807	39.08
358.018	45.23
358.23	-22.36
358.441	-1.88
358.653	43.18
358.864	77.99
359.075	65.71
359.287	98.47
359.498	10.41
359.709	106.67
359.921	106.67
360.132	32.94
360.344	121
360.555	-5.97
360.766	57.51
360.977	6.31
361.189	49.32
361.4	20.65
361.611	6.31
361.823	82.09
362.034	88.23
362.245	-38.74
362.456	-5.97
362.667	37.03
362.879	63.66
363.09	69.8
363.301	59.56
363.512	55.47
363.723	106.67
363.935	12.46
364.146	-8.02
364.357	84.14
364.568	4.27
364.779	26.79
364.99	98.47
365.201	20.65
365.412	118.95
365.623	53.42
365.834	32.94
366.045	55.47
366.256	73.9
366.467	71.85
366.678	106.67
366.889	57.51
367.1	73.9
367.311	53.42
367.522	24.75
367.733	108.71
367.944	51.37
368.155	34.99
368.366	-16.21
368.577	39.08
368.788	96.43
368.999	4.27
369.209	26.79
369.42	96.43
369.631	114.86
369.842	102.57
370.053	53.42
370.264	4.27
370.474	71.85
370.685	-36.69
370.896	39.08
371.107	-1.88
371.317	18.6
371.528	69.8
371.739	-12.12
371.95	-36.69
372.16	135.34
372.371	45.23
372.582	131.24
372.792	32.94
373.003	16.55
373.214	92.33
373.424	26.79
373.635	34.99
373.846	59.56
374.056	8.36
374.267	108.71
374.477	65.71
374.688	24.75
374.898	94.38
375.109	71.85
375.319	121
375.53	82.09
375.74	94.38
375.951	88.23
376.161	24.75
376.372	-5.97
376.582	45.23
376.793	12.46
377.003	4.27
377.214	45.23
377.424	45.23
377.635	49.32
377.845	69.8
378.055	86.19
378.266	24.75
378.476	82.09
378.686	61.61
378.897	67.75
379.107	59.56
379.317	71.85
379.528	22.7
379.738	71.85
379.948	61.61
380.158	129.19
380.369	112.81
380.579	4.27
380.789	65.71
380.999	51.37
381.21	6.31
381.42	69.8
381.63	26.79
381.84	43.18
382.05	49.32
382.261	102.57
382.471	20.65
382.681	-3.93
382.891	112.81
383.101	43.18
383.311	24.75
383.521	-16.21
383.731	37.03
383.941	104.62
384.151	77.99
384.361	86.19
384.571	37.03
384.781	141.48
384.991	32.94
385.201	77.99
385.411	106.67
385.621	77.99
385.831	41.13
386.041	49.32
386.251	73.9
386.461	106.67
386.671	133.29
386.881	106.67
387.091	39.08
387.301	84.14
387.511	61.61
387.72	131.24
387.93	65.71
388.14	43.18
388.35	39.08
388.56	63.66
388.769	67.75
388.979	51.37
389.189	75.95
389.399	45.23
389.609	59.56
389.818	2.22
390.028	32.94
390.238	26.79
390.447	96.43
390.657	30.89
390.867	67.75
391.076	0.17
391.286	75.95
391.496	92.33
391.705	2.22
391.915	141.48
392.125	47.27
392.334	94.38
392.544	12.46
392.753	127.14
392.963	77.99
393.172	53.42
393.382	92.33
393.591	133.29
393.801	69.8
394.01	77.99
394.22	127.14
394.429	73.9
394.639	98.47
394.848	82.09
395.058	28.84
395.267	28.84
395.477	55.47
395.686	28.84
395.895	86.19
396.105	69.8
396.314	8.36
396.524	118.95
396.733	82.09
396.942	106.67
397.152	77.99
397.361	55.47
397.57	65.71
397.78	123.05
397.989	98.47
398.198	102.57
398.407	153.77
398.617	69.8
398.826	100.52
399.035	116.9
399.244	75.95
399.453	4.27
399.663	104.62
399.872	157.86
400.081	69.8
400.29	121
400.499	26.79
400.708	125.1
400.917	86.19
401.127	110.76
401.336	22.7
401.545	151.72
401.754	96.43
401.963	127.14
402.172	53.42
402.381	139.43
402.59	141.48
402.799	98.47
403.008	47.27
403.217	55.47
403.426	77.99
403.635	127.14
403.844	84.14
404.053	59.56
404.262	153.77
404.471	157.86
404.68	55.47
404.888	131.24
405.097	178.34
405.306	65.71
405.515	180.39
405.724	77.99
405.933	184.49
406.142	77.99
406.35	159.91
406.559	90.28
406.768	133.29
406.977	157.86
407.185	213.16
407.394	141.48
407.603	125.1
407.812	192.68
408.02	86.19
408.229	155.82
408.438	192.68
408.646	180.39
408.855	213.16
409.064	260.26
409.272	213.16
409.481	250.02
409.69	219.3
409.898	227.5
410.107	247.97
410.315	258.21
410.524	202.92
410.733	299.17
410.941	252.07
411.15	282.79
411.358	243.88
411.567	309.41
411.775	297.13
411.984	274.6
412.192	305.32
412.401	284.84
412.609	370.85
412.818	374.95
413.026	336.04
413.234	315.56
413.443	258.21
413.651	391.33
413.86	358.57
414.068	485.54
414.276	487.59
414.485	442.53
414.693	532.64
414.901	485.54
415.11	485.54
415.318	413.86
415.526	534.69
415.734	503.97
415.943	518.31
416.151	637.09
416.359	532.64
416.567	680.1
416.776	714.91
416.984	684.19
417.192	735.39
417.4	696.48
417.608	735.39
417.817	651.42
418.025	727.2
418.233	762.02
418.441	714.91
418.649	872.61
418.857	876.7
419.065	862.37
419.273	858.27
419.481	874.65
419.689	1007.77
419.897	989.34
420.105	1058.97
420.313	1036.44
420.521	1149.08
420.729	1110.17
420.937	1140.89
421.145	1187.99
421.353	1243.29
421.561	1329.3
421.769	1239.19
421.977	1353.88
422.185	1355.93
422.393	1355.93
422.601	1484.95
422.809	1464.47
423.017	1616.02
423.224	1583.25
423.432	1652.88
423.64	1671.31
423.848	1745.04
424.056	1712.27
424.263	1896.59
424.471	1937.55
424.679	1802.38
424.887	2087.05
425.094	2080.91
425.302	2080.91
425.51	2154.63
425.718	2252.94
425.925	2244.74
426.133	2326.66
426.341	2523.27
426.548	2504.84
426.756	2617.47
426.964	2642.05
427.171	2762.88
427.379	2924.67
427.586	2881.66
427.794	3033.21
428.001	3223.67
428.209	3338.36
428.417	3242.11
428.624	3330.17
428.832	3432.57
429.039	3303.54
429.247	3557.49
429.454	3768.43
429.662	3942.51
429.869	3790.96
430.076	4036.72
430.284	3913.84
430.491	3999.85
430.699	4206.7
430.906	4352.1
431.114	4350.06
431.321	4536.42
431.528	4661.35
431.736	4937.82
431.943	5144.67
432.15	5054.56
432.358	5046.37
432.565	5328.99
432.772	5404.76
432.979	5539.93
433.187	5521.49
433.394	5740.63
433.601	6142.03
433.808	6023.25
434.016	6144.08
434.223	6398.03
434.43	6699.08
434.637	6600.77
434.844	6895.68
435.052	7077.95
435.259	6907.97
435.466	7039.04
435.673	7141.44
435.88	7458.87
436.087	7831.6
436.294	7817.27
436.501	7852.08
436.708	7962.67
436.915	8050.74
437.122	8572.97
437.329	8618.02
437.537	8726.57
437.743	8921.12
437.95	8937.51
438.157	9332.76
438.364	9465.88
438.571	9480.22
438.778	9783.32
438.985	10672.14
439.192	9945.11
439.399	10410
439.606	10340.36
439.813	10610.7
440.02	11390.97
440.227	11139.07
440.433	11212.8
440.64	11374.59
440.847	11427.84
441.054	11864.05
441.261	12525.55
441.467	12328.94
441.674	12687.34
441.881	13017.06
442.088	12965.86
442.294	12939.24
442.501	13135.84
442.708	13416.41
442.914	13995.99
443.121	14696.39
443.328	14282.7
443.534	15347.65
443.741	14925.77
443.948	14677.96
444.154	15652.8
444.361	15585.21
444.568	15689.66
444.774	15681.47
444.981	15886.26
445.187	16570.29
445.394	17139.62
445.6	16621.49
445.807	18452.37
446.013	17665.95
446.22	17909.66
446.426	18587.54
446.633	18943.88
446.839	19335.04
447.046	18898.83
447.252	19451.78
447.459	19937.15
447.665	19603.33
447.871	20574.06
448.078	21483.36
448.284	20275.06
448.491	20987.75
448.697	21888.86
448.903	22042.46
449.11	22110.04
449.316	21786.46
449.522	22243.16
449.728	23062.35
449.935	23160.65
450.141	22824.78
450.347	23701.31
450.553	22861.65
450.76	23162.7
450.966	23560
451.172	23856.96
451.378	24205.11
451.584	23779.14
451.791	24686.39
451.997	24268.6
452.203	24489.78
452.409	24762.16
452.615	24528.69
452.821	23770.94
453.027	23353.16
453.233	24854.32
453.44	23600.96
453.646	23809.86
453.852	23816
454.058	24463.16
454.264	23424.84
454.47	24348.47
454.676	23449.41
454.882	24024.89
455.088	22308.69
455.294	22486.87
455.5	22722.38
455.705	23019.34
455.911	22157.14
456.117	21593.95
456.323	21430.12
456.529	20393.84
456.735	21157.74
456.941	20750.19
457.147	20420.47
457.352	19728.25
457.558	19644.29
457.764	19591.04
457.97	19091.34
458.176	18859.91
458.381	18851.72
458.587	17876.89
458.793	17770.4
458.999	16936.87
459.204	18444.18
459.41	17653.66
459.616	16723.88
459.821	16359.35
460.027	16269.23
460.233	16199.6
460.438	15372.22
460.644	15509.44
460.85	14831.56
461.055	14690.25
461.261	14381.01
461.466	13436.89
461.672	13012.96
461.878	14086.1
462.083	13111.27
462.289	12783.59
462.494	12675.05
462.7	12060.66
462.905	11708.41
463.111	12027.89
463.316	12433.39
463.522	11960.31
463.727	12009.46
463.932	11827.19
464.138	12070.9
464.343	11870.2
464.549	11466.75
464.754	12101.62
464.959	11864.05
465.165	11603.96
465.37	11266.05
465.575	10801.16
465.781	11503.61
465.986	11499.52
466.191	10926.08
466.397	10885.12
466.602	10346.51
466.807	10801.16
467.012	10817.54
467.218	10606.6
467.423	10577.93
467.628	10420.24
467.833	10878.98
468.038	10698.76
468.244	10276.88
