Data from USB4F104151__32__11-44-53-172.txt Node

Date: Fri Mar 14 11:44:53 EDT 2025
User: louis
Spectrometer: USB4F10415
Trigger mode: 4
Integration Time (sec): 2.000000E-2
Scans to average: 1
Electric dark correction enabled: true
Nonlinearity correction enabled: false
Boxcar width: 0
XAxis mode: Wavelengths
Number of Pixels in Spectrum: 3648
>>>>>Begin Spectral Data<<<<<
178.204	-109.05
178.424	-109.05
178.644	-109.05
178.864	-53.76
179.084	-49.66
179.304	-25.09
179.524	-61.95
179.744	-66.05
179.964	-10.75
180.184	13.82
180.404	120.32
180.624	22.02
180.844	-20.99
181.064	17.92
181.283	3.58
181.503	-18.94
181.723	26.11
181.943	-61.95
182.163	42.5
182.383	-23.04
182.602	32.26
182.822	56.83
183.042	40.45
183.262	7.68
183.482	-10.75
183.701	1.54
183.921	-86.53
184.141	-37.38
184.361	30.21
184.58	32.26
184.8	26.11
185.02	7.68
185.239	-39.42
185.459	19.97
185.679	62.98
185.898	17.92
186.118	-8.7
186.338	36.35
186.557	-49.66
186.777	22.02
186.997	9.73
187.216	36.35
187.436	146.94
187.655	-14.85
187.875	110.08
188.095	-76.29
188.314	19.97
188.534	22.02
188.753	13.82
188.973	17.92
189.192	32.26
189.412	42.5
189.631	48.64
189.851	65.02
190.07	13.82
190.29	-25.09
190.509	-18.94
190.729	52.74
190.948	15.87
191.168	40.45
191.387	83.45
191.607	17.92
191.826	-6.66
192.045	32.26
192.265	-20.99
192.484	67.07
192.704	60.93
192.923	-16.9
193.142	40.45
193.362	79.36
193.581	56.83
193.8	-47.62
194.02	42.5
194.239	67.07
194.458	44.54
194.678	56.83
194.897	17.92
195.116	40.45
195.335	-14.85
195.555	52.74
195.774	-0.51
195.993	46.59
196.212	28.16
196.432	24.06
196.651	9.73
196.87	9.73
197.089	75.26
197.308	56.83
197.528	48.64
197.747	56.83
197.966	22.02
198.185	95.74
198.404	67.07
198.623	13.82
198.842	46.59
199.062	97.79
199.281	30.21
199.5	-4.61
199.719	60.93
199.938	9.73
200.157	105.98
200.376	65.02
200.595	-12.8
200.814	-76.29
201.033	19.97
201.252	62.98
201.471	34.3
201.69	52.74
201.909	-49.66
202.128	-31.23
202.347	3.58
202.566	-18.94
202.785	11.78
203.004	-35.33
203.223	122.37
203.442	52.74
203.661	-35.33
203.879	5.63
204.098	36.35
204.317	62.98
204.536	73.21
204.755	-0.51
204.974	48.64
205.193	54.78
205.411	56.83
205.63	1.54
205.849	46.59
206.068	17.92
206.287	-23.04
206.505	60.93
206.724	15.87
206.943	3.58
207.162	1.54
207.381	36.35
207.599	85.5
207.818	-55.81
208.037	7.68
208.255	17.92
208.474	-23.04
208.693	9.73
208.911	11.78
209.13	73.21
209.349	85.5
209.567	52.74
209.786	60.93
210.005	48.64
210.223	42.5
210.442	5.63
210.661	99.84
210.879	9.73
211.098	44.54
211.316	-16.9
211.535	67.07
211.753	1.54
211.972	50.69
212.191	-37.38
212.409	5.63
212.628	56.83
212.846	-33.28
213.065	7.68
213.283	60.93
213.502	17.92
213.72	50.69
213.938	28.16
214.157	-53.76
214.375	11.78
214.594	15.87
214.812	34.3
215.031	34.3
215.249	19.97
215.467	22.02
215.686	24.06
215.904	7.68
216.122	-6.66
216.341	5.63
216.559	9.73
216.778	22.02
216.996	15.87
217.214	-14.85
217.432	19.97
217.651	26.11
217.869	22.02
218.087	60.93
218.306	69.12
218.524	-8.7
218.742	-4.61
218.96	44.54
219.179	-20.99
219.397	28.16
219.615	54.78
219.833	15.87
220.051	-20.99
220.27	54.78
220.488	40.45
220.706	-10.75
220.924	26.11
221.142	17.92
221.36	34.3
221.578	-31.23
221.796	26.11
222.015	69.12
222.233	-23.04
222.451	58.88
222.669	-0.51
222.887	50.69
223.105	69.12
223.323	105.98
223.541	11.78
223.759	32.26
223.977	-2.56
224.195	81.41
224.413	71.17
224.631	1.54
224.849	17.92
225.067	50.69
225.285	-49.66
225.503	36.35
225.721	-51.71
225.939	32.26
226.157	36.35
226.375	146.94
226.592	13.82
226.81	28.16
227.028	77.31
227.246	71.17
227.464	19.97
227.682	79.36
227.9	-66.05
228.117	-23.04
228.335	69.12
228.553	-4.61
228.771	81.41
228.989	30.21
229.206	52.74
229.424	15.87
229.642	1.54
229.86	-10.75
230.077	19.97
230.295	30.21
230.513	58.88
230.731	120.32
230.948	65.02
231.166	15.87
231.384	50.69
231.601	69.12
231.819	46.59
232.037	58.88
232.254	73.21
232.472	13.82
232.689	-0.51
232.907	40.45
233.125	15.87
233.342	48.64
233.56	-8.7
233.777	-55.81
233.995	42.5
234.213	65.02
234.43	34.3
234.648	26.11
234.865	-94.72
235.083	36.35
235.3	26.11
235.518	34.3
235.735	112.13
235.953	65.02
236.17	-4.61
236.388	-20.99
236.605	26.11
236.822	-35.33
237.04	15.87
237.257	-4.61
237.475	32.26
237.692	46.59
237.909	-16.9
238.127	-16.9
238.344	77.31
238.562	36.35
238.779	46.59
238.996	38.4
239.214	36.35
239.431	22.02
239.648	69.12
239.865	71.17
240.083	58.88
240.3	30.21
240.517	-23.04
240.735	44.54
240.952	42.5
241.169	101.89
241.386	71.17
241.603	24.06
241.821	-47.62
242.038	87.55
242.255	-33.28
242.472	-23.04
242.689	50.69
242.907	1.54
243.124	58.88
243.341	19.97
243.558	24.06
243.775	1.54
243.992	62.98
244.209	-8.7
244.426	87.55
244.643	26.11
244.86	40.45
245.078	89.6
245.295	15.87
245.512	73.21
245.729	-35.33
245.946	38.4
246.163	-0.51
246.38	54.78
246.597	15.87
246.814	56.83
247.031	38.4
247.248	50.69
247.464	36.35
247.681	34.3
247.898	17.92
248.115	11.78
248.332	-18.94
248.549	67.07
248.766	30.21
248.983	126.46
249.2	28.16
249.417	13.82
249.633	38.4
249.85	62.98
250.067	28.16
250.284	42.5
250.501	-6.66
250.717	32.26
250.934	60.93
251.151	77.31
251.368	-39.42
251.585	85.5
251.801	-2.56
252.018	-2.56
252.235	36.35
252.451	32.26
252.668	7.68
252.885	-16.9
253.102	1.54
253.318	13.82
253.535	-25.09
253.752	28.16
253.968	30.21
254.185	9.73
254.401	11.78
254.618	50.69
254.835	-31.23
255.051	87.55
255.268	-12.8
255.484	17.92
255.701	58.88
255.917	9.73
256.134	22.02
256.351	-6.66
256.567	15.87
256.784	-2.56
257	-33.28
257.217	56.83
257.433	46.59
257.65	42.5
257.866	116.22
258.082	-10.75
258.299	-27.14
258.515	44.54
258.732	-18.94
258.948	26.11
259.165	44.54
259.381	-4.61
259.597	-29.18
259.814	58.88
260.03	65.02
260.246	28.16
260.463	87.55
260.679	22.02
260.895	9.73
261.112	79.36
261.328	40.45
261.544	22.02
261.761	17.92
261.977	22.02
262.193	-0.51
262.409	38.4
262.626	58.88
262.842	7.68
263.058	-6.66
263.274	58.88
263.49	32.26
263.707	112.13
263.923	54.78
264.139	54.78
264.355	34.3
264.571	65.02
264.787	13.82
265.004	122.37
265.22	17.92
265.436	-35.33
265.652	24.06
265.868	52.74
266.084	-41.47
266.3	28.16
266.516	-84.48
266.732	65.02
266.948	48.64
267.164	13.82
267.38	36.35
267.596	60.93
267.812	26.11
268.028	65.02
268.244	1.54
268.46	19.97
268.676	93.69
268.892	46.59
269.108	19.97
269.324	34.3
269.54	-0.51
269.756	54.78
269.972	-0.51
270.188	44.54
270.403	65.02
270.619	15.87
270.835	83.45
271.051	36.35
271.267	-6.66
271.483	38.4
271.698	71.17
271.914	28.16
272.13	-31.23
272.346	15.87
272.562	42.5
272.777	-33.28
272.993	52.74
273.209	30.21
273.425	15.87
273.64	15.87
273.856	71.17
274.072	17.92
274.287	19.97
274.503	73.21
274.719	24.06
274.934	42.5
275.15	67.07
275.366	-27.14
275.581	34.3
275.797	54.78
276.012	-35.33
276.228	-0.51
276.444	19.97
276.659	132.61
276.875	5.63
277.09	44.54
277.306	19.97
277.521	56.83
277.737	87.55
277.952	9.73
278.168	62.98
278.383	1.54
278.599	1.54
278.814	67.07
279.03	-16.9
279.245	95.74
279.461	-18.94
279.676	46.59
279.892	22.02
280.107	26.11
280.322	30.21
280.538	85.5
280.753	-10.75
280.969	36.35
281.184	42.5
281.399	46.59
281.615	38.4
281.83	38.4
282.045	60.93
282.26	1.54
282.476	38.4
282.691	85.5
282.906	26.11
283.122	-0.51
283.337	34.3
283.552	1.54
283.767	44.54
283.983	71.17
284.198	-10.75
284.413	114.17
284.628	-31.23
284.843	24.06
285.058	-2.56
285.274	34.3
285.489	-45.57
285.704	81.41
285.919	9.73
286.134	5.63
286.349	5.63
286.564	22.02
286.779	79.36
286.995	11.78
287.21	-98.81
287.425	28.16
287.64	-16.9
287.855	110.08
288.07	54.78
288.285	42.5
288.5	38.4
288.715	50.69
288.93	89.6
289.145	-20.99
289.36	81.41
289.575	44.54
289.79	40.45
290.004	54.78
290.219	71.17
290.434	85.5
290.649	28.16
290.864	85.5
291.079	28.16
291.294	13.82
291.509	34.3
291.724	60.93
291.938	40.45
292.153	-16.9
292.368	30.21
292.583	50.69
292.798	42.5
293.012	-29.18
293.227	89.6
293.442	28.16
293.657	-16.9
293.871	3.58
294.086	30.21
294.301	22.02
294.516	22.02
294.73	56.83
294.945	11.78
295.16	105.98
295.374	17.92
295.589	93.69
295.804	22.02
296.018	103.93
296.233	71.17
296.447	7.68
296.662	-4.61
296.877	95.74
297.091	-8.7
297.306	44.54
297.52	52.74
297.735	56.83
297.949	32.26
298.164	36.35
298.378	-41.47
298.593	91.65
298.807	13.82
299.022	-8.7
299.236	46.59
299.451	32.26
299.665	-47.62
299.88	-2.56
300.094	15.87
300.309	77.31
300.523	95.74
300.737	50.69
300.952	44.54
301.166	36.35
301.381	-39.42
301.595	65.02
301.809	42.5
302.024	54.78
302.238	32.26
302.452	3.58
302.667	-10.75
302.881	15.87
303.095	34.3
303.309	60.93
303.524	69.12
303.738	44.54
303.952	97.79
304.166	71.17
304.381	42.5
304.595	112.13
304.809	3.58
305.023	15.87
305.237	-10.75
305.452	-59.9
305.666	87.55
305.88	1.54
306.094	62.98
306.308	58.88
306.522	58.88
306.736	58.88
306.95	9.73
307.164	9.73
307.379	-8.7
307.593	75.26
307.807	77.31
308.021	50.69
308.235	-37.38
308.449	65.02
308.663	9.73
308.877	140.8
309.091	42.5
309.305	1.54
309.519	-27.14
309.733	103.93
309.947	-39.42
310.161	-8.7
310.374	-27.14
310.588	69.12
310.802	34.3
311.016	52.74
311.23	42.5
311.444	30.21
311.658	81.41
311.872	97.79
312.085	85.5
312.299	30.21
312.513	79.36
312.727	-2.56
312.941	132.61
313.154	-4.61
313.368	11.78
313.582	101.89
313.796	17.92
314.009	-29.18
314.223	69.12
314.437	24.06
314.651	13.82
314.864	-0.51
315.078	71.17
315.292	36.35
315.505	32.26
315.719	60.93
315.933	75.26
316.146	40.45
316.36	15.87
316.573	69.12
316.787	44.54
317.001	15.87
317.214	-0.51
317.428	22.02
317.641	38.4
317.855	46.59
318.068	89.6
318.282	103.93
318.495	87.55
318.709	5.63
318.922	-4.61
319.136	128.51
319.349	97.79
319.563	54.78
319.776	65.02
319.99	-2.56
320.203	-20.99
320.417	40.45
320.63	62.98
320.843	56.83
321.057	5.63
321.27	71.17
321.483	-0.51
321.697	97.79
321.91	71.17
322.124	89.6
322.337	83.45
322.55	-2.56
322.763	60.93
322.977	26.11
323.19	-47.62
323.403	48.64
323.617	93.69
323.83	101.89
324.043	26.11
324.256	38.4
324.469	-27.14
324.683	9.73
324.896	81.41
325.109	24.06
325.322	15.87
325.535	-35.33
325.748	13.82
325.962	13.82
326.175	-20.99
326.388	73.21
326.601	83.45
326.814	3.58
327.027	-16.9
327.24	146.94
327.453	1.54
327.666	56.83
327.879	-6.66
328.092	75.26
328.305	56.83
328.518	75.26
328.731	58.88
328.944	24.06
329.157	65.02
329.37	34.3
329.583	144.89
329.796	-16.9
330.009	28.16
330.222	44.54
330.435	15.87
330.648	101.89
330.861	108.03
331.073	40.45
331.286	-41.47
331.499	71.17
331.712	9.73
331.925	75.26
332.138	17.92
332.35	36.35
332.563	26.11
332.776	42.5
332.989	-0.51
333.202	54.78
333.414	17.92
333.627	44.54
333.84	-20.99
334.053	95.74
334.265	-12.8
334.478	17.92
334.691	89.6
334.903	44.54
335.116	19.97
335.329	-41.47
335.541	34.3
335.754	116.22
335.966	62.98
336.179	30.21
336.392	-51.71
336.604	15.87
336.817	11.78
337.029	5.63
337.242	26.11
337.454	15.87
337.667	-47.62
337.88	95.74
338.092	103.93
338.305	85.5
338.517	73.21
338.729	62.98
338.942	56.83
339.154	44.54
339.367	50.69
339.579	58.88
339.792	26.11
340.004	89.6
340.217	79.36
340.429	81.41
340.641	42.5
340.854	9.73
341.066	38.4
341.278	71.17
341.491	81.41
341.703	1.54
341.915	-20.99
342.128	50.69
342.34	-16.9
342.552	99.84
342.764	38.4
342.977	67.07
343.189	-20.99
343.401	-27.14
343.613	19.97
343.826	69.12
344.038	-16.9
344.25	97.79
344.462	-2.56
344.674	-0.51
344.886	-0.51
345.099	79.36
345.311	81.41
345.523	67.07
345.735	19.97
345.947	-6.66
346.159	71.17
346.371	75.26
346.583	67.07
346.795	95.74
347.007	34.3
347.219	126.46
347.431	62.98
347.643	83.45
347.855	62.98
348.067	44.54
348.279	-6.66
348.491	95.74
348.703	24.06
348.915	101.89
349.127	58.88
349.339	71.17
349.551	-4.61
349.763	17.92
349.975	22.02
350.187	101.89
350.399	50.69
350.61	26.11
350.822	38.4
351.034	30.21
351.246	-23.04
351.458	40.45
351.669	54.78
351.881	65.02
352.093	56.83
352.305	87.55
352.517	26.11
352.728	69.12
352.94	-10.75
353.152	-31.23
353.363	87.55
353.575	5.63
353.787	-33.28
353.999	32.26
354.21	62.98
354.422	1.54
354.633	34.3
354.845	93.69
355.057	79.36
355.268	91.65
355.48	7.68
355.692	13.82
355.903	62.98
356.115	-12.8
356.326	-2.56
356.538	34.3
356.749	56.83
356.961	105.98
357.172	26.11
357.384	1.54
357.595	-0.51
357.807	56.83
358.018	11.78
358.23	5.63
358.441	34.3
358.653	24.06
358.864	13.82
359.075	30.21
359.287	26.11
359.498	42.5
359.709	81.41
359.921	48.64
360.132	-6.66
360.344	22.02
360.555	77.31
360.766	-4.61
360.977	42.5
361.189	95.74
361.4	54.78
361.611	60.93
361.823	28.16
362.034	67.07
362.245	-20.99
362.456	26.11
362.667	65.02
362.879	56.83
363.09	58.88
363.301	65.02
363.512	85.5
363.723	58.88
363.935	81.41
364.146	5.63
364.357	54.78
364.568	50.69
364.779	13.82
364.99	71.17
365.201	81.41
365.412	7.68
365.623	3.58
365.834	42.5
366.045	101.89
366.256	54.78
366.467	11.78
366.678	110.08
366.889	26.11
367.1	54.78
367.311	58.88
367.522	101.89
367.733	24.06
367.944	101.89
368.155	-0.51
368.366	36.35
368.577	-31.23
368.788	26.11
368.999	62.98
369.209	83.45
369.42	50.69
369.631	77.31
369.842	-33.28
370.053	30.21
370.264	97.79
370.474	75.26
370.685	56.83
370.896	48.64
371.107	85.5
371.317	87.55
371.528	7.68
371.739	60.93
371.95	60.93
372.16	36.35
372.371	44.54
372.582	77.31
372.792	87.55
373.003	46.59
373.214	24.06
373.424	46.59
373.635	1.54
373.846	15.87
374.056	62.98
374.267	22.02
374.477	40.45
374.688	67.07
374.898	24.06
375.109	60.93
375.319	130.56
375.53	46.59
375.74	83.45
375.951	73.21
376.161	24.06
376.372	79.36
376.582	19.97
376.793	17.92
377.003	7.68
377.214	11.78
377.424	52.74
377.635	75.26
377.845	83.45
378.055	-8.7
378.266	67.07
378.476	48.64
378.686	69.12
378.897	73.21
379.107	26.11
379.317	85.5
379.528	5.63
379.738	136.7
379.948	15.87
380.158	91.65
380.369	56.83
380.579	54.78
380.789	56.83
380.999	79.36
381.21	44.54
381.42	69.12
381.63	52.74
381.84	77.31
382.05	13.82
382.261	69.12
382.471	120.32
382.681	40.45
382.891	-23.04
383.101	36.35
383.311	73.21
383.521	36.35
383.731	56.83
383.941	130.56
384.151	46.59
384.361	17.92
384.571	114.17
384.781	22.02
384.991	97.79
385.201	62.98
385.411	75.26
385.621	46.59
385.831	54.78
386.041	34.3
386.251	108.03
386.461	116.22
386.671	50.69
386.881	28.16
387.091	44.54
387.301	65.02
387.511	79.36
387.72	140.8
387.93	97.79
388.14	58.88
388.35	58.88
388.56	79.36
388.769	71.17
388.979	116.22
389.189	30.21
389.399	120.32
389.609	71.17
389.818	60.93
390.028	105.98
390.238	157.18
390.447	103.93
390.657	99.84
390.867	42.5
391.076	1.54
391.286	42.5
391.496	103.93
391.705	83.45
391.915	22.02
392.125	81.41
392.334	38.4
392.544	75.26
392.753	3.58
392.963	50.69
393.172	60.93
393.382	89.6
393.591	212.48
393.801	15.87
394.01	124.41
394.22	138.75
394.429	44.54
394.639	77.31
394.848	157.18
395.058	44.54
395.267	36.35
395.477	58.88
395.686	58.88
395.895	134.65
396.105	146.94
396.314	126.46
396.524	93.69
396.733	116.22
396.942	67.07
397.152	181.76
397.361	89.6
397.57	185.85
397.78	105.98
397.989	130.56
398.198	105.98
398.407	148.99
398.617	132.61
398.826	30.21
399.035	114.17
399.244	144.89
399.453	116.22
399.663	126.46
399.872	75.26
400.081	58.88
400.29	91.65
400.499	50.69
400.708	210.43
400.917	73.21
401.127	103.93
401.336	146.94
401.545	87.55
401.754	81.41
401.963	187.9
402.172	124.41
402.381	120.32
402.59	124.41
402.799	120.32
403.008	126.46
403.217	67.07
403.426	181.76
403.635	159.23
403.844	79.36
404.053	146.94
404.262	179.71
404.471	161.28
404.68	165.37
404.888	79.36
405.097	124.41
405.306	198.14
405.515	165.37
405.724	108.03
405.933	208.38
406.142	122.37
406.35	214.52
406.559	241.15
406.768	235
406.977	296.44
407.185	202.24
407.394	228.86
407.603	138.75
407.812	198.14
408.02	280.06
408.229	243.2
408.438	206.33
408.646	179.71
408.855	288.25
409.064	241.15
409.272	232.96
409.481	402.94
409.69	267.77
409.898	345.59
410.107	294.4
410.315	386.55
410.524	284.16
410.733	318.97
410.941	284.16
411.15	327.16
411.358	378.36
411.567	390.65
411.775	386.55
411.984	361.98
412.192	421.37
412.401	398.84
412.609	450.04
412.818	460.28
413.026	431.61
413.234	474.62
413.443	542.2
413.651	511.48
413.86	531.96
414.068	671.22
414.276	581.11
414.485	675.32
414.693	654.84
414.901	742.9
415.11	759.28
415.318	740.85
415.526	728.56
415.734	804.34
415.943	855.54
416.151	878.07
416.359	849.4
416.567	894.45
416.776	953.84
416.984	925.17
417.192	1062.38
417.4	1023.47
417.608	984.56
417.817	1046
418.025	1082.86
418.233	1228.27
418.441	1091.06
418.649	1218.03
418.857	1263.08
419.065	1273.32
419.273	1326.57
419.481	1326.57
419.689	1537.51
419.897	1529.32
420.105	1471.98
420.313	1500.65
420.521	1639.91
420.729	1680.87
420.937	1791.46
421.145	1756.65
421.353	1940.96
421.561	1996.26
421.769	1947.11
421.977	2000.35
422.185	2026.98
422.393	2131.42
422.601	2205.15
422.809	2348.51
423.017	2543.07
423.224	2471.39
423.432	2524.63
423.64	2532.83
423.848	2704.85
424.056	2649.56
424.263	2899.41
424.471	2944.47
424.679	2993.62
424.887	3286.48
425.094	3151.31
425.302	3147.22
425.51	3294.67
425.718	3450.32
425.925	3521.99
426.133	3571.15
426.341	3792.33
426.548	3984.84
426.756	3980.74
426.964	3999.17
427.171	4199.87
427.379	4433.34
427.586	4302.27
427.794	4574.65
428.001	4877.75
428.209	4955.57
428.417	5025.2
428.624	5465.52
428.832	5293.49
429.039	5324.21
429.247	5262.77
429.454	5741.99
429.662	6079.91
429.869	5752.23
430.076	6346.14
430.284	6100.39
430.491	6309.28
430.699	6522.27
430.906	6542.75
431.114	6675.87
431.321	6909.33
431.528	7267.73
431.736	7609.74
431.943	7779.72
432.15	7722.38
432.358	7646.6
432.565	8236.42
432.772	8232.32
432.979	8568.19
433.187	8742.27
433.394	8764.79
433.601	9274.74
433.808	9211.25
434.016	9309.55
434.223	9717.1
434.43	10345.83
434.637	10102.12
434.844	10616.16
435.052	11015.51
435.259	10894.68
435.466	10962.26
435.673	11044.18
435.88	11421.01
436.087	12135.75
436.294	12420.42
436.501	11689.29
436.708	12205.38
436.915	12760.38
437.122	12961.08
437.329	13059.38
437.537	13534.51
437.743	13751.6
437.95	13389.11
438.157	14236.97
438.364	14726.43
438.571	14767.39
438.778	14931.23
438.985	16192.78
439.192	15742.22
439.399	15922.45
439.606	15527.19
439.813	16530.69
440.02	17616.12
440.227	17372.41
440.433	17083.64
440.64	17478.9
440.847	17661.17
441.054	17929.45
441.261	19412.18
441.467	18937.06
441.674	19340.5
441.881	19950.8
442.088	20214.99
442.294	19705.04
442.501	20409.54
442.708	20974.78
442.914	21693.62
443.121	22316.2
443.328	22078.64
443.534	23467.16
443.741	22965.41
443.948	22680.74
444.154	24030.35
444.361	23911.57
444.568	24534.15
444.774	24095.89
444.981	24433.8
445.187	25089.15
445.394	26424.43
445.6	25842.81
445.807	28425.29
446.013	27020.39
446.22	27903.06
446.426	28841.03
446.633	28914.76
446.839	30014.52
447.046	28986.44
447.252	30256.18
447.459	30551.09
447.665	30176.31
447.871	31562.78
448.078	32773.13
448.284	31380.51
448.491	32336.91
448.697	33608.7
448.903	33993.72
449.11	34509.81
449.316	33561.6
449.522	33811.45
449.728	34958.31
449.935	35453.92
450.141	35029.99
450.347	35998.68
450.553	34849.77
450.76	35521.51
450.966	36760.53
451.172	35845.09
451.378	36883.41
451.584	36240.34
451.791	37245.9
451.997	36903.88
452.203	37563.33
452.409	37587.91
452.615	37716.93
452.821	36484.05
453.027	35797.98
453.233	37417.93
453.44	36348.89
453.646	36568.02
453.852	36496.34
454.058	37327.81
454.264	36023.26
454.47	36914.12
454.676	36060.12
454.882	37372.87
455.088	33905.66
455.294	34337.78
455.5	34948.07
455.705	35318.76
455.911	34331.64
456.117	33205.25
456.323	32889.87
456.529	31042.6
456.735	32427.03
456.941	31568.93
457.147	31263.78
457.352	30438.45
457.558	29811.77
457.764	30209.08
457.97	29385.79
458.176	28777.54
458.381	28873.8
458.587	27298.91
458.793	27153.51
458.999	26047.6
459.204	28075.09
459.41	26840.17
459.616	25291.9
459.821	25490.56
460.027	25070.72
460.233	24777.86
460.438	23313.56
460.644	23733.4
460.85	22523.05
461.055	22172.85
461.261	22295.72
461.466	20671.68
461.672	19813.59
461.878	21466.3
462.083	19948.75
462.289	19647.7
462.494	19563.73
462.7	18750.69
462.905	18001.13
463.111	18652.39
463.316	18666.72
463.522	18283.75
463.727	18134.25
463.932	18308.33
464.138	17994.99
464.343	18142.44
464.549	17448.18
464.754	18013.42
464.959	17937.65
465.165	18060.52
465.37	17183.99
465.575	16698.63
465.781	17347.83
465.986	17628.4
466.191	16946.43
466.397	16252.17
466.602	15602.96
466.807	16473.35
467.012	16239.88
467.218	16147.72
467.423	16151.82
467.628	16008.46
467.833	16747.78
