Data from USB4F104151__38__11-44-58-111.txt Node

Date: Fri Mar 14 11:44:58 EDT 2025
User: louis
Spectrometer: USB4F10415
Trigger mode: 4
Integration Time (sec): 2.000000E-2
Scans to average: 1
Electric dark correction enabled: true
Nonlinearity correction enabled: false
Boxcar width: 0
XAxis mode: Wavelengths
Number of Pixels in Spectrum: 3648
>>>>>Begin Spectral Data<<<<<
178.204	-84.31
178.424	-84.31
178.644	-84.31
178.864	-141.65
179.084	-31.06
179.304	-14.68
179.524	34.47
179.744	-22.87
179.964	-0.34
180.184	28.33
180.404	-51.54
180.624	-6.49
180.844	-2.39
181.064	-41.3
181.283	-53.59
181.503	18.09
181.723	112.3
181.943	-61.78
182.163	26.28
182.383	-59.73
182.602	20.14
182.822	-45.4
183.042	13.99
183.262	-22.87
183.482	13.99
183.701	-16.73
183.921	-53.59
184.141	-39.25
184.361	59.05
184.58	-108.88
184.8	-6.49
185.02	-33.11
185.239	16.04
185.459	-45.4
185.679	95.91
185.898	-6.49
186.118	26.28
186.338	-8.53
186.557	44.71
186.777	20.14
186.997	13.99
187.216	-59.73
187.436	67.24
187.655	-10.58
187.875	34.47
188.095	-14.68
188.314	48.81
188.534	-2.39
188.753	11.95
188.973	-6.49
189.192	40.62
189.412	-80.21
189.631	132.78
189.851	7.85
190.07	11.95
190.29	-0.34
190.509	34.47
190.729	-14.68
190.948	34.47
191.168	50.86
191.387	16.04
191.607	42.67
191.826	-0.34
192.045	-39.25
192.265	-0.34
192.484	16.04
192.704	-4.44
192.923	-41.3
193.142	18.09
193.362	-47.44
193.581	1.71
193.8	18.09
194.02	11.95
194.239	-22.87
194.458	-2.39
194.678	-2.39
194.897	-10.58
195.116	-51.54
195.335	16.04
195.555	-2.39
195.774	28.33
195.993	52.91
196.212	18.09
196.432	-31.06
196.651	24.23
196.87	-6.49
197.089	93.87
197.308	-67.92
197.528	11.95
197.747	32.43
197.966	-8.53
198.185	-12.63
198.404	-4.44
198.623	26.28
198.842	11.95
199.062	16.04
199.281	7.85
199.5	-0.34
199.719	65.19
199.938	50.86
200.157	-12.63
200.376	-74.07
200.595	36.52
200.814	-2.39
201.033	20.14
201.252	18.09
201.471	13.99
201.69	7.85
201.909	63.15
202.128	38.57
202.347	-2.39
202.566	73.39
202.785	11.95
203.004	-10.58
203.223	65.19
203.442	-22.87
203.661	-16.73
203.879	24.23
204.098	18.09
204.317	48.81
204.536	13.99
204.755	-10.58
204.974	79.53
205.193	67.24
205.411	40.62
205.63	-26.96
205.849	7.85
206.068	26.28
206.287	-14.68
206.505	22.19
206.724	-53.59
206.943	-22.87
207.162	63.15
207.381	38.57
207.599	-33.11
207.818	-18.77
208.037	-45.4
208.255	-20.82
208.474	-2.39
208.693	-29.01
208.911	-2.39
209.13	-6.49
209.349	69.29
209.567	26.28
209.786	-59.73
210.005	16.04
210.223	20.14
210.442	-8.53
210.661	-20.82
210.879	-18.77
211.098	1.71
211.316	42.67
211.535	-14.68
211.753	-41.3
211.972	73.39
212.191	-55.64
212.409	-10.58
212.628	-43.35
212.846	-45.4
213.065	-8.53
213.283	18.09
213.502	-47.44
213.72	7.85
213.938	-43.35
214.157	46.76
214.375	18.09
214.594	28.33
214.812	7.85
215.031	18.09
215.249	26.28
215.467	54.95
215.686	-55.64
215.904	100.01
216.122	11.95
216.341	-49.49
216.559	-55.64
216.778	-26.96
216.996	-20.82
217.214	-76.12
217.432	9.9
217.651	-16.73
217.869	28.33
218.087	42.67
218.306	52.91
218.524	38.57
218.742	-41.3
218.96	89.77
219.179	26.28
219.397	87.72
219.615	59.05
219.833	20.14
220.051	-33.11
220.27	22.19
220.488	-16.73
220.706	3.75
220.924	-76.12
221.142	32.43
221.36	3.75
221.578	79.53
221.796	-8.53
222.015	-6.49
222.233	-65.88
222.451	24.23
222.669	16.04
222.887	9.9
223.105	-24.92
223.323	30.38
223.541	-2.39
223.759	7.85
223.977	-65.88
224.195	-4.44
224.413	59.05
224.631	13.99
224.849	-22.87
225.067	71.34
225.285	7.85
225.503	-8.53
225.721	9.9
225.939	5.8
226.157	-22.87
226.375	67.24
226.592	-16.73
226.81	13.99
227.028	3.75
227.246	1.71
227.464	44.71
227.682	3.75
227.9	32.43
228.117	-69.97
228.335	18.09
228.553	26.28
228.771	-16.73
228.989	102.06
229.206	5.8
229.424	-61.78
229.642	28.33
229.86	36.52
230.077	-4.44
230.295	32.43
230.513	44.71
230.731	20.14
230.948	97.96
231.166	71.34
231.384	-65.88
231.601	-16.73
231.819	40.62
232.037	-37.2
232.254	-80.21
232.472	52.91
232.689	-31.06
232.907	87.72
233.125	-108.88
233.342	28.33
233.56	-14.68
233.777	-43.35
233.995	59.05
234.213	63.15
234.43	32.43
234.648	-14.68
234.865	-37.2
235.083	-18.77
235.3	48.81
235.518	54.95
235.735	67.24
235.953	104.11
236.17	1.71
236.388	36.52
236.605	54.95
236.822	-6.49
237.04	-41.3
237.257	50.86
237.475	28.33
237.692	26.28
237.909	11.95
238.127	-37.2
238.344	44.71
238.562	63.15
238.779	-6.49
238.996	-45.4
239.214	63.15
239.431	50.86
239.648	-10.58
239.865	32.43
240.083	18.09
240.3	20.14
240.517	-22.87
240.735	34.47
240.952	-14.68
241.169	-10.58
241.386	9.9
241.603	1.71
241.821	-6.49
242.038	79.53
242.255	28.33
242.472	-16.73
242.689	48.81
242.907	1.71
243.124	-76.12
243.341	24.23
243.558	22.19
243.775	-84.31
243.992	69.29
244.209	-33.11
244.426	67.24
244.643	7.85
244.86	-45.4
245.078	32.43
245.295	91.82
245.512	9.9
245.729	-6.49
245.946	-47.44
246.163	20.14
246.38	30.38
246.597	-51.54
246.814	61.1
247.031	13.99
247.248	46.76
247.464	-31.06
247.681	5.8
247.898	46.76
248.115	52.91
248.332	1.71
248.549	-6.49
248.766	26.28
248.983	16.04
249.2	46.76
249.417	67.24
249.633	9.9
249.85	46.76
250.067	46.76
250.284	-63.83
250.501	46.76
250.717	-18.77
250.934	36.52
251.151	77.48
251.368	-18.77
251.585	38.57
251.801	38.57
252.018	46.76
252.235	42.67
252.451	-22.87
252.668	54.95
252.885	-37.2
253.102	-18.77
253.318	100.01
253.535	-84.31
253.752	44.71
253.968	34.47
254.185	18.09
254.401	7.85
254.618	-2.39
254.835	-8.53
255.051	-12.63
255.268	93.87
255.484	38.57
255.701	-47.44
255.917	89.77
256.134	-59.73
256.351	36.52
256.567	24.23
256.784	1.71
257	-39.25
257.217	-39.25
257.433	32.43
257.65	40.62
257.866	38.57
258.082	46.76
258.299	32.43
258.515	40.62
258.732	30.38
258.948	-24.92
259.165	36.52
259.381	20.14
259.597	42.67
259.814	9.9
260.03	11.95
260.246	-26.96
260.463	-22.87
260.679	44.71
260.895	54.95
261.112	54.95
261.328	85.67
261.544	-53.59
261.761	24.23
261.977	1.71
262.193	-20.82
262.409	52.91
262.626	9.9
262.842	52.91
263.058	59.05
263.274	5.8
263.49	61.1
263.707	81.58
263.923	3.75
264.139	5.8
264.355	-51.54
264.571	118.44
264.787	-6.49
265.004	24.23
265.22	20.14
265.436	9.9
265.652	-33.11
265.868	61.1
266.084	-37.2
266.3	7.85
266.516	-39.25
266.732	-74.07
266.948	-6.49
267.164	-16.73
267.38	-41.3
267.596	-14.68
267.812	48.81
268.028	54.95
268.244	-6.49
268.46	-10.58
268.676	-57.68
268.892	-18.77
269.108	-26.96
269.324	-20.82
269.54	28.33
269.756	30.38
269.972	-35.16
270.188	9.9
270.403	11.95
270.619	32.43
270.835	24.23
271.051	-57.68
271.267	63.15
271.483	16.04
271.698	16.04
271.914	-10.58
272.13	32.43
272.346	18.09
272.562	9.9
272.777	50.86
272.993	-10.58
273.209	-33.11
273.425	18.09
273.64	28.33
273.856	13.99
274.072	91.82
274.287	-22.87
274.503	-12.63
274.719	46.76
274.934	46.76
275.15	7.85
275.366	-2.39
275.581	-35.16
275.797	-6.49
276.012	73.39
276.228	36.52
276.444	16.04
276.659	52.91
276.875	11.95
277.09	40.62
277.306	-22.87
277.521	65.19
277.737	16.04
277.952	18.09
278.168	20.14
278.383	22.19
278.599	-2.39
278.814	24.23
279.03	-8.53
279.245	13.99
279.461	32.43
279.676	-22.87
279.892	-8.53
280.107	40.62
280.322	22.19
280.538	5.8
280.753	34.47
280.969	38.57
281.184	-26.96
281.399	46.76
281.615	-53.59
281.83	-31.06
282.045	-8.53
282.26	9.9
282.476	5.8
282.691	61.1
282.906	-12.63
283.122	5.8
283.337	-29.01
283.552	-24.92
283.767	22.19
283.983	59.05
284.198	13.99
284.413	38.57
284.628	22.19
284.843	-18.77
285.058	-39.25
285.274	16.04
285.489	-43.35
285.704	22.19
285.919	-33.11
286.134	-41.3
286.349	18.09
286.564	44.71
286.779	77.48
286.995	3.75
287.21	93.87
287.425	20.14
287.64	-57.68
287.855	1.71
288.07	-26.96
288.285	42.67
288.5	59.05
288.715	-29.01
288.93	59.05
289.145	-29.01
289.36	128.68
289.575	34.47
289.79	24.23
290.004	-29.01
290.219	69.29
290.434	-0.34
290.649	-69.97
290.864	-12.63
291.079	24.23
291.294	30.38
291.509	3.75
291.724	-0.34
291.938	32.43
292.153	18.09
292.368	5.8
292.583	44.71
292.798	44.71
293.012	-6.49
293.227	3.75
293.442	32.43
293.657	-16.73
293.871	65.19
294.086	9.9
294.301	28.33
294.516	3.75
294.73	46.76
294.945	26.28
295.16	54.95
295.374	5.8
295.589	52.91
295.804	-14.68
296.018	-29.01
296.233	79.53
296.447	7.85
296.662	18.09
296.877	87.72
297.091	73.39
297.306	34.47
297.52	13.99
297.735	57
297.949	3.75
298.164	77.48
298.378	5.8
298.593	-18.77
298.807	32.43
299.022	48.81
299.236	26.28
299.451	85.67
299.665	11.95
299.88	-84.31
300.094	48.81
300.309	26.28
300.523	9.9
300.737	-18.77
300.952	-2.39
301.166	22.19
301.381	50.86
301.595	16.04
301.809	-33.11
302.024	9.9
302.238	-24.92
302.452	-10.58
302.667	-45.4
302.881	61.1
303.095	-10.58
303.309	71.34
303.524	-55.64
303.738	-76.12
303.952	71.34
304.166	54.95
304.381	13.99
304.595	-0.34
304.809	-33.11
305.023	-26.96
305.237	50.86
305.452	-12.63
305.666	38.57
305.88	-35.16
306.094	11.95
306.308	30.38
306.522	91.82
306.736	48.81
306.95	36.52
307.164	-26.96
307.379	46.76
307.593	24.23
307.807	71.34
308.021	44.71
308.235	-31.06
308.449	46.76
308.663	-92.5
308.877	149.16
309.091	3.75
309.305	36.52
309.519	-18.77
309.733	-6.49
309.947	-6.49
310.161	-43.35
310.374	1.71
310.588	48.81
310.802	-100.69
311.016	-0.34
311.23	-4.44
311.444	11.95
311.658	106.15
311.872	46.76
312.085	-22.87
312.299	16.04
312.513	65.19
312.727	3.75
312.941	-57.68
313.154	40.62
313.368	11.95
313.582	-0.34
313.796	-2.39
314.009	-6.49
314.223	26.28
314.437	-39.25
314.651	5.8
314.864	3.75
315.078	59.05
315.292	-29.01
315.505	-14.68
315.719	-6.49
315.933	46.76
316.146	-10.58
316.36	38.57
316.573	-22.87
316.787	-29.01
317.001	-2.39
317.214	-29.01
317.428	83.63
317.641	50.86
317.855	11.95
318.068	20.14
318.282	-29.01
318.495	130.73
318.709	61.1
318.922	9.9
319.136	50.86
319.349	69.29
319.563	65.19
319.776	-10.58
319.99	-22.87
320.203	65.19
320.417	22.19
320.63	9.9
320.843	34.47
321.057	-67.92
321.27	34.47
321.483	-12.63
321.697	26.28
321.91	1.71
322.124	18.09
322.337	30.38
322.55	-14.68
322.763	-16.73
322.977	11.95
323.19	-65.88
323.403	36.52
323.617	18.09
323.83	102.06
324.043	-8.53
324.256	50.86
324.469	38.57
324.683	57
324.896	22.19
325.109	13.99
325.322	1.71
325.535	52.91
325.748	1.71
325.962	87.72
326.175	-39.25
326.388	40.62
326.601	36.52
326.814	38.57
327.027	-10.58
327.24	42.67
327.453	-45.4
327.666	-2.39
327.879	20.14
328.092	106.15
328.305	11.95
328.518	69.29
328.731	-57.68
328.944	-0.34
329.157	-47.44
329.37	65.19
329.583	28.33
329.796	54.95
330.009	-69.97
330.222	5.8
330.435	-16.73
330.648	7.85
330.861	48.81
331.073	22.19
331.286	-47.44
331.499	-41.3
331.712	-22.87
331.925	11.95
332.138	67.24
332.35	-14.68
332.563	18.09
332.776	83.63
332.989	5.8
333.202	-26.96
333.414	7.85
333.627	44.71
333.84	67.24
334.053	30.38
334.265	34.47
334.478	-67.92
334.691	-16.73
334.903	26.28
335.116	34.47
335.329	5.8
335.541	-8.53
335.754	-6.49
335.966	61.1
336.179	120.49
336.392	1.71
336.604	50.86
336.817	36.52
337.029	-2.39
337.242	-2.39
337.454	32.43
337.667	-6.49
337.88	22.19
338.092	-10.58
338.305	13.99
338.517	42.67
338.729	32.43
338.942	-0.34
339.154	75.43
339.367	16.04
339.579	24.23
339.792	-8.53
340.004	32.43
340.217	26.28
340.429	-2.39
340.641	9.9
340.854	-26.96
341.066	3.75
341.278	63.15
341.491	-22.87
341.703	59.05
341.915	11.95
342.128	5.8
342.34	18.09
342.552	26.28
342.764	38.57
342.977	91.82
343.189	18.09
343.401	-2.39
343.613	-0.34
343.826	38.57
344.038	5.8
344.25	85.67
344.462	11.95
344.674	11.95
344.886	7.85
345.099	9.9
345.311	-20.82
345.523	-39.25
345.735	38.57
345.947	63.15
346.159	61.1
346.371	52.91
346.583	32.43
346.795	91.82
347.007	32.43
347.219	48.81
347.431	63.15
347.643	-4.44
347.855	-31.06
348.067	5.8
348.279	32.43
348.491	32.43
348.703	11.95
348.915	13.99
349.127	-43.35
349.339	48.81
349.551	77.48
349.763	69.29
349.975	18.09
350.187	32.43
350.399	9.9
350.61	54.95
350.822	38.57
351.034	67.24
351.246	63.15
351.458	54.95
351.669	42.67
351.881	36.52
352.093	65.19
352.305	42.67
352.517	3.75
352.728	38.57
352.94	16.04
353.152	87.72
353.363	11.95
353.575	108.2
353.787	83.63
353.999	38.57
354.21	9.9
354.422	-53.59
354.633	30.38
354.845	59.05
355.057	1.71
355.268	22.19
355.48	-26.96
355.692	22.19
355.903	106.15
356.115	-24.92
356.326	3.75
356.538	-0.34
356.749	5.8
356.961	7.85
357.172	26.28
357.384	-0.34
357.595	63.15
357.807	28.33
358.018	-8.53
358.23	16.04
358.441	-24.92
358.653	16.04
358.864	46.76
359.075	44.71
359.287	-24.92
359.498	20.14
359.709	18.09
359.921	5.8
360.132	1.71
360.344	-4.44
360.555	-4.44
360.766	63.15
360.977	-16.73
361.189	108.2
361.4	1.71
361.611	32.43
361.823	85.67
362.034	61.1
362.245	36.52
362.456	-12.63
362.667	-12.63
362.879	-94.55
363.09	61.1
363.301	-18.77
363.512	-47.44
363.723	71.34
363.935	-20.82
364.146	22.19
364.357	-31.06
364.568	54.95
364.779	32.43
364.99	71.34
365.201	65.19
365.412	69.29
365.623	-53.59
365.834	9.9
366.045	-31.06
366.256	87.72
366.467	-16.73
366.678	81.58
366.889	-2.39
367.1	32.43
367.311	52.91
367.522	42.67
367.733	22.19
367.944	52.91
368.155	48.81
368.366	116.39
368.577	-0.34
368.788	42.67
368.999	40.62
369.209	13.99
369.42	61.1
369.631	83.63
369.842	85.67
370.053	-29.01
370.264	-12.63
370.474	54.95
370.685	40.62
370.896	-2.39
371.107	63.15
371.317	71.34
371.528	54.95
371.739	3.75
371.95	32.43
372.16	30.38
372.371	-74.07
372.582	118.44
372.792	26.28
373.003	46.76
373.214	-8.53
373.424	9.9
373.635	1.71
373.846	16.04
374.056	32.43
374.267	40.62
374.477	57
374.688	11.95
374.898	20.14
375.109	63.15
375.319	-6.49
375.53	9.9
375.74	52.91
375.951	5.8
376.161	34.47
376.372	42.67
376.582	34.47
376.793	40.62
377.003	30.38
377.214	-78.16
377.424	16.04
377.635	42.67
377.845	-16.73
378.055	-41.3
378.266	26.28
378.476	32.43
378.686	30.38
378.897	20.14
379.107	46.76
379.317	9.9
379.528	7.85
379.738	61.1
379.948	13.99
380.158	95.91
380.369	93.87
380.579	28.33
380.789	85.67
380.999	54.95
381.21	126.63
381.42	59.05
381.63	63.15
381.84	63.15
382.05	73.39
382.261	-61.78
382.471	1.71
382.681	59.05
382.891	48.81
383.101	52.91
383.311	34.47
383.521	30.38
383.731	28.33
383.941	16.04
384.151	42.67
384.361	18.09
384.571	16.04
384.781	-26.96
384.991	91.82
385.201	44.71
385.411	63.15
385.621	26.28
385.831	5.8
386.041	81.58
386.251	-18.77
386.461	48.81
386.671	44.71
386.881	61.1
387.091	93.87
387.301	42.67
387.511	42.67
387.72	54.95
387.93	-10.58
388.14	59.05
388.35	38.57
388.56	61.1
388.769	34.47
388.979	110.25
389.189	81.58
389.399	40.62
389.609	122.54
389.818	65.19
390.028	44.71
390.238	67.24
390.447	73.39
390.657	34.47
390.867	48.81
391.076	75.43
391.286	67.24
391.496	34.47
391.705	63.15
391.915	67.24
392.125	85.67
392.334	100.01
392.544	79.53
392.753	75.43
392.963	52.91
393.172	73.39
393.382	30.38
393.591	147.11
393.801	87.72
394.01	46.76
394.22	30.38
394.429	85.67
394.639	61.1
394.848	91.82
395.058	63.15
395.267	48.81
395.477	83.63
395.686	89.77
395.895	85.67
396.105	79.53
396.314	40.62
396.524	79.53
396.733	71.34
396.942	95.91
397.152	138.92
397.361	71.34
397.57	118.44
397.78	50.86
397.989	93.87
398.198	122.54
398.407	-2.39
398.617	128.68
398.826	132.78
399.035	122.54
399.244	69.29
399.453	79.53
399.663	106.15
399.872	69.29
400.081	59.05
400.29	67.24
400.499	69.29
400.708	30.38
400.917	91.82
401.127	22.19
401.336	114.34
401.545	73.39
401.754	120.49
401.963	122.54
402.172	30.38
402.381	106.15
402.59	147.11
402.799	-16.73
403.008	126.63
403.217	73.39
403.426	65.19
403.635	46.76
403.844	91.82
404.053	69.29
404.262	112.3
404.471	155.3
404.68	67.24
404.888	116.39
405.097	65.19
405.306	87.72
405.515	81.58
405.724	183.98
405.933	159.4
406.142	147.11
406.35	100.01
406.559	83.63
406.768	192.17
406.977	149.16
407.185	140.97
407.394	149.16
407.603	192.17
407.812	220.84
408.02	181.93
408.229	245.41
408.438	149.16
408.646	208.55
408.855	140.97
409.064	95.91
409.272	175.78
409.481	190.12
409.69	214.7
409.898	188.07
410.107	204.46
410.315	265.89
410.524	183.98
410.733	288.42
410.941	226.98
411.15	296.61
411.358	304.81
411.567	261.8
411.775	280.23
411.984	349.86
412.192	364.2
412.401	341.67
412.609	337.57
412.818	454.31
413.026	460.45
413.234	433.83
413.443	431.78
413.651	464.55
413.86	446.12
414.068	491.17
414.276	485.03
414.485	542.37
414.693	620.19
414.901	634.53
415.11	593.57
415.318	650.91
415.526	644.77
415.734	640.67
415.943	566.95
416.151	722.59
416.359	736.93
416.567	644.77
416.776	679.58
416.984	886.43
417.192	798.37
417.4	800.41
417.608	884.38
417.817	896.67
418.025	945.82
418.233	919.2
418.441	947.87
418.649	970.4
418.857	1072.79
419.065	1144.47
419.273	1025.69
419.481	1128.09
419.689	1140.38
419.897	1242.78
420.105	1326.74
420.313	1404.57
420.521	1351.32
420.729	1386.13
420.937	1474.2
421.145	1461.91
421.353	1588.88
421.561	1666.71
421.769	1586.83
421.977	1816.21
422.185	1703.57
422.393	1889.93
422.601	1947.28
422.809	1937.04
423.017	1863.31
423.224	2059.92
423.432	2211.46
423.64	2178.7
423.848	2332.3
424.056	2346.63
424.263	2512.52
424.471	2453.13
424.679	2571.91
424.887	2668.16
425.094	2770.56
425.302	2719.36
425.51	2772.61
425.718	2895.49
425.925	2999.93
426.133	3012.22
426.341	3257.98
426.548	3315.32
426.756	3339.9
426.964	3427.96
427.171	3747.44
427.379	3833.46
427.586	3806.83
427.794	3671.67
428.001	4099.69
428.209	4126.32
428.417	4103.79
428.624	4503.14
428.832	4523.62
429.039	4310.63
429.247	4441.7
429.454	4982.37
429.662	5084.77
429.869	4648.55
430.076	5375.58
430.284	5146.2
430.491	5379.67
430.699	5598.81
430.906	5627.48
431.114	5623.38
431.321	5994.06
431.528	6106.7
431.736	6239.82
431.943	6731.33
432.15	6573.64
432.358	6461
432.565	6884.93
432.772	6798.91
432.979	7294.52
433.187	7386.68
433.394	7315
433.601	7910.96
433.808	8013.36
434.016	7962.16
434.223	8082.99
434.43	8840.74
434.637	8603.18
434.844	9014.82
435.052	9158.17
435.259	9082.4
435.466	9377.31
435.673	9287.2
435.88	9778.71
436.087	10139.15
436.294	10331.66
436.501	9930.26
436.708	10145.3
436.915	10694.15
437.122	10901
437.329	10931.72
437.537	11464.19
437.743	11433.47
437.95	11410.94
438.157	11955.7
438.364	12422.64
438.571	12371.44
438.778	12791.27
438.985	13544.92
439.192	13016.55
439.399	13602.27
439.606	13276.64
439.813	13962.71
440.02	14882.25
440.227	14140.88
440.433	14464.46
440.64	15029.7
440.847	14798.28
441.054	15285.7
441.261	16205.24
441.467	15758.78
441.674	16651.69
441.881	16774.57
442.088	16717.23
442.294	16692.65
442.501	17028.52
442.708	17673.63
442.914	18316.69
443.121	19084.68
443.328	18494.86
443.534	20006.27
443.741	19111.3
443.948	19123.59
444.154	20264.31
444.361	20331.89
444.568	20245.88
444.774	20174.2
444.981	20528.5
445.187	21013.87
445.394	22084.95
445.6	21620.06
445.807	23872.83
446.013	23022.92
446.22	23532.87
446.426	24331.58
446.633	24470.84
446.839	25199.91
447.046	24433.97
447.252	25394.47
447.459	25632.04
447.665	25548.07
447.871	26467.61
448.078	27677.96
448.284	26279.19
448.491	27413.77
448.697	27802.88
448.903	28761.33
449.11	28886.26
449.316	28292.35
449.522	28835.06
449.728	29494.5
449.935	29928.67
450.141	29971.68
450.347	30229.73
450.553	29324.52
450.76	29859.04
450.966	30874.84
451.172	30231.77
451.378	31010
451.584	30620.89
451.791	31114.45
451.997	31337.68
452.203	31646.92
452.409	31831.24
452.615	31821
452.821	30411.99
453.027	29820.13
453.233	31982.79
453.44	30682.33
453.646	30737.62
453.852	30975.19
454.058	31642.82
454.264	30520.54
454.47	31306.96
454.676	30149.85
454.882	31777.99
455.088	28732.66
455.294	29191.41
455.5	29887.71
455.705	29983.97
455.911	29060.34
456.117	28204.28
456.323	27819.27
456.529	26576.15
456.735	27772.16
456.941	26549.53
457.147	26508.57
457.352	25539.88
457.558	24919.34
457.764	25441.57
457.97	24876.34
458.176	24204.6
458.381	23950.65
458.587	22979.92
458.793	23092.55
458.999	22023.51
459.204	23672.13
459.41	22850.89
459.616	21378.4
459.821	21015.91
460.027	21099.88
460.233	20731.25
460.438	19934.59
460.644	20174.2
460.85	19062.15
461.055	18769.29
461.261	18441.62
461.466	17239.46
461.672	16612.78
461.878	17894.81
462.083	16840.11
462.289	16397.74
462.494	16446.9
462.7	15711.67
462.905	15371.71
463.111	15795.64
463.316	15762.87
463.522	15463.87
463.727	15185.35
463.932	15259.07
464.138	15300.03
464.343	15343.04
464.549	14915.02
464.754	15441.34
464.959	15381.95
465.165	15062.47
465.37	14521.81
465.575	14030.29
465.781	14714.31
465.986	14841.29
466.191	14048.72
466.397	13897.17
466.602	13057.51
466.807	13880.79
467.012	13712.86
467.218	13657.56
467.423	13585.88
