Data from USB4F104151__58__11-45-15-889.txt Node

Date: Fri Mar 14 11:45:15 EDT 2025
User: louis
Spectrometer: USB4F10415
Trigger mode: 4
Integration Time (sec): 2.000000E-2
Scans to average: 1
Electric dark correction enabled: true
Nonlinearity correction enabled: false
Boxcar width: 0
XAxis mode: Wavelengths
Number of Pixels in Spectrum: 3648
>>>>>Begin Spectral Data<<<<<
178.204	-49.32
178.424	-49.32
178.644	-49.32
178.864	-75.95
179.084	-75.95
179.304	-2.22
179.524	-8.36
179.744	-63.66
179.964	65.36
180.184	-10.41
180.404	5.97
180.624	38.74
180.844	14.17
181.064	-14.51
181.283	12.12
181.503	-34.99
181.723	-2.22
181.943	1.88
182.163	10.07
182.383	59.22
182.602	-22.7
182.822	-30.89
183.042	8.02
183.262	42.84
183.482	8.02
183.701	10.07
183.921	94.04
184.141	-84.14
184.361	14.17
184.58	-39.08
184.8	100.18
185.02	14.17
185.239	83.8
185.459	-39.08
185.679	18.26
185.898	-63.66
186.118	-32.94
186.338	-2.22
186.557	-24.75
186.777	-10.41
186.997	63.32
187.216	8.02
187.436	110.42
187.655	5.97
187.875	26.45
188.095	44.88
188.314	112.47
188.534	55.12
188.753	5.97
188.973	63.32
189.192	8.02
189.412	22.36
189.631	94.04
189.851	5.97
190.07	24.4
190.29	-34.99
190.509	38.74
190.729	16.21
190.948	10.07
191.168	91.99
191.387	63.32
191.607	-37.03
191.826	69.46
192.045	-41.13
192.265	-4.27
192.484	61.27
192.704	44.88
192.923	57.17
193.142	26.45
193.362	26.45
193.581	40.79
193.8	26.45
194.02	-14.51
194.239	106.32
194.458	32.6
194.678	38.74
194.897	36.69
195.116	-14.51
195.335	42.84
195.555	51.03
195.774	3.93
195.993	48.98
196.212	-22.7
196.432	34.64
196.651	-47.27
196.87	46.93
197.089	16.21
197.308	-8.36
197.528	-20.65
197.747	-96.43
197.966	63.32
198.185	12.12
198.404	-4.27
198.623	-8.36
198.842	77.65
199.062	71.51
199.281	57.17
199.5	-4.27
199.719	59.22
199.938	-16.55
200.157	73.56
200.376	5.97
200.595	-12.46
200.814	10.07
201.033	16.21
201.252	40.79
201.471	-45.23
201.69	1.88
201.909	34.64
202.128	-0.17
202.347	55.12
202.566	38.74
202.785	16.21
203.004	-4.27
203.223	75.6
203.442	22.36
203.661	18.26
203.879	55.12
204.098	44.88
204.317	22.36
204.536	30.55
204.755	-10.41
204.974	30.55
205.193	-6.31
205.411	61.27
205.63	20.31
205.849	3.93
206.068	-4.27
206.287	59.22
206.505	55.12
206.724	65.36
206.943	26.45
207.162	122.71
207.381	-55.47
207.599	28.5
207.818	1.88
208.037	-8.36
208.255	65.36
208.474	26.45
208.693	-20.65
208.911	51.03
209.13	40.79
209.349	16.21
209.567	75.6
209.786	26.45
210.005	38.74
210.223	55.12
210.442	10.07
210.661	18.26
210.879	-0.17
211.098	30.55
211.316	1.88
211.535	30.55
211.753	96.08
211.972	28.5
212.191	-0.17
212.409	-18.6
212.628	14.17
212.846	1.88
213.065	126.8
213.283	73.56
213.502	14.17
213.72	14.17
213.938	46.93
214.157	5.97
214.375	67.41
214.594	26.45
214.812	59.22
215.031	-10.41
215.249	-24.75
215.467	16.21
215.686	-0.17
215.904	96.08
216.122	-55.47
216.341	3.93
216.559	26.45
216.778	3.93
216.996	116.56
217.214	-12.46
217.432	10.07
217.651	40.79
217.869	-14.51
218.087	51.03
218.306	20.31
218.524	38.74
218.742	-4.27
218.96	38.74
219.179	38.74
219.397	55.12
219.615	108.37
219.833	38.74
220.051	30.55
220.27	32.6
220.488	-26.79
220.706	63.32
220.924	12.12
221.142	63.32
221.36	67.41
221.578	10.07
221.796	-16.55
222.015	89.94
222.233	-51.37
222.451	69.46
222.669	83.8
222.887	57.17
223.105	-34.99
223.323	94.04
223.541	1.88
223.759	20.31
223.977	55.12
224.195	-4.27
224.413	18.26
224.631	124.76
224.849	5.97
225.067	75.6
225.285	-43.18
225.503	116.56
225.721	-0.17
225.939	-14.51
226.157	30.55
226.375	114.52
226.592	-20.65
226.81	42.84
227.028	46.93
227.246	26.45
227.464	-10.41
227.682	87.89
227.9	-4.27
228.117	34.64
228.335	40.79
228.553	44.88
228.771	30.55
228.989	26.45
229.206	-14.51
229.424	53.08
229.642	-0.17
229.86	-24.75
230.077	-22.7
230.295	53.08
230.513	14.17
230.731	102.23
230.948	-18.6
231.166	12.12
231.384	-0.17
231.601	-6.31
231.819	5.97
232.037	48.98
232.254	-8.36
232.472	44.88
232.689	20.31
232.907	106.32
233.125	3.93
233.342	40.79
233.56	12.12
233.777	46.93
233.995	22.36
234.213	69.46
234.43	83.8
234.648	3.93
234.865	59.22
235.083	73.56
235.3	77.65
235.518	46.93
235.735	42.84
235.953	100.18
236.17	-2.22
236.388	-12.46
236.605	36.69
236.822	42.84
237.04	5.97
237.257	79.7
237.475	14.17
237.692	1.88
237.909	-47.27
238.127	65.36
238.344	-20.65
238.562	63.32
238.779	40.79
238.996	-69.8
239.214	10.07
239.431	-34.99
239.648	-28.84
239.865	87.89
240.083	53.08
240.3	10.07
240.517	30.55
240.735	36.69
240.952	87.89
241.169	40.79
241.386	48.98
241.603	-22.7
241.821	8.02
242.038	83.8
242.255	42.84
242.472	48.98
242.689	3.93
242.907	8.02
243.124	-8.36
243.341	26.45
243.558	51.03
243.775	-53.42
243.992	61.27
244.209	5.97
244.426	53.08
244.643	51.03
244.86	16.21
245.078	28.5
245.295	40.79
245.512	-2.22
245.729	20.31
245.946	8.02
246.163	5.97
246.38	100.18
246.597	53.08
246.814	108.37
247.031	36.69
247.248	-0.17
247.464	-8.36
247.681	67.41
247.898	1.88
248.115	3.93
248.332	32.6
248.549	32.6
248.766	69.46
248.983	3.93
249.2	-14.51
249.417	20.31
249.633	30.55
249.85	116.56
250.067	20.31
250.284	77.65
250.501	46.93
250.717	79.7
250.934	22.36
251.151	-18.6
251.368	-24.75
251.585	57.17
251.801	12.12
252.018	63.32
252.235	24.4
252.451	40.79
252.668	5.97
252.885	-16.55
253.102	16.21
253.318	26.45
253.535	10.07
253.752	32.6
253.968	5.97
254.185	-49.32
254.401	65.36
254.618	65.36
254.835	38.74
255.051	46.93
255.268	10.07
255.484	3.93
255.701	44.88
255.917	20.31
256.134	-28.84
256.351	94.04
256.567	10.07
256.784	55.12
257	-57.51
257.217	44.88
257.433	98.13
257.65	73.56
257.866	20.31
258.082	10.07
258.299	-22.7
258.515	53.08
258.732	85.84
258.948	16.21
259.165	63.32
259.381	5.97
259.597	53.08
259.814	26.45
260.03	8.02
260.246	1.88
260.463	30.55
260.679	42.84
260.895	24.4
261.112	87.89
261.328	-30.89
261.544	24.4
261.761	32.6
261.977	8.02
262.193	71.51
262.409	73.56
262.626	-8.36
262.842	53.08
263.058	12.12
263.274	26.45
263.49	61.27
263.707	20.31
263.923	-8.36
264.139	36.69
264.355	18.26
264.571	18.26
264.787	16.21
265.004	14.17
265.22	38.74
265.436	-8.36
265.652	16.21
265.868	34.64
266.084	36.69
266.3	1.88
266.516	14.17
266.732	32.6
266.948	65.36
267.164	46.93
267.38	36.69
267.596	12.12
267.812	14.17
268.028	22.36
268.244	77.65
268.46	20.31
268.676	79.7
268.892	59.22
269.108	36.69
269.324	8.02
269.54	-16.55
269.756	81.75
269.972	42.84
270.188	63.32
270.403	57.17
270.619	32.6
270.835	69.46
271.051	94.04
271.267	12.12
271.483	122.71
271.698	12.12
271.914	118.61
272.13	71.51
272.346	32.6
272.562	87.89
272.777	96.08
272.993	59.22
273.209	44.88
273.425	10.07
273.64	14.17
273.856	5.97
274.072	-18.6
274.287	-16.55
274.503	-51.37
274.719	26.45
274.934	59.22
275.15	-0.17
275.366	14.17
275.581	-55.47
275.797	59.22
276.012	-16.55
276.228	36.69
276.444	-12.46
276.659	65.36
276.875	5.97
277.09	16.21
277.306	-86.19
277.521	71.51
277.737	-51.37
277.952	32.6
278.168	61.27
278.383	28.5
278.599	26.45
278.814	-8.36
279.03	30.55
279.245	10.07
279.461	-4.27
279.676	34.64
279.892	18.26
280.107	46.93
280.322	57.17
280.538	20.31
280.753	16.21
280.969	-24.75
281.184	59.22
281.399	-4.27
281.615	3.93
281.83	63.32
282.045	65.36
282.26	73.56
282.476	34.64
282.691	79.7
282.906	-2.22
283.122	-43.18
283.337	-55.47
283.552	34.64
283.767	20.31
283.983	12.12
284.198	36.69
284.413	89.94
284.628	-26.79
284.843	32.6
285.058	91.99
285.274	-28.84
285.489	1.88
285.704	36.69
285.919	10.07
286.134	100.18
286.349	-4.27
286.564	22.36
286.779	75.6
286.995	30.55
287.21	34.64
287.425	30.55
287.64	34.64
287.855	8.02
288.07	-6.31
288.285	108.37
288.5	63.32
288.715	42.84
288.93	-28.84
289.145	48.98
289.36	-10.41
289.575	-18.6
289.79	1.88
290.004	34.64
290.219	46.93
290.434	-22.7
290.649	-4.27
290.864	-20.65
291.079	-0.17
291.294	-16.55
291.509	65.36
291.724	104.28
291.938	73.56
292.153	-39.08
292.368	14.17
292.583	40.79
292.798	36.69
293.012	12.12
293.227	-45.23
293.442	-0.17
293.657	42.84
293.871	81.75
294.086	20.31
294.301	100.18
294.516	20.31
294.73	14.17
294.945	22.36
295.16	-18.6
295.374	14.17
295.589	-8.36
295.804	-8.36
296.018	36.69
296.233	106.32
296.447	46.93
296.662	55.12
296.877	118.61
297.091	-4.27
297.306	16.21
297.52	-0.17
297.735	-12.46
297.949	3.93
298.164	110.42
298.378	71.51
298.593	-16.55
298.807	67.41
299.022	20.31
299.236	79.7
299.451	18.26
299.665	-34.99
299.88	42.84
300.094	24.4
300.309	28.5
300.523	-10.41
300.737	79.7
300.952	24.4
301.166	1.88
301.381	-12.46
301.595	-8.36
301.809	22.36
302.024	46.93
302.238	-16.55
302.452	38.74
302.667	-61.61
302.881	55.12
303.095	-30.89
303.309	34.64
303.524	-6.31
303.738	24.4
303.952	46.93
304.166	85.84
304.381	-32.94
304.595	104.28
304.809	-39.08
305.023	-12.46
305.237	57.17
305.452	48.98
305.666	26.45
305.88	5.97
306.094	22.36
306.308	51.03
306.522	145.24
306.736	42.84
306.95	51.03
307.164	16.21
307.379	73.56
307.593	-2.22
307.807	48.98
308.021	46.93
308.235	5.97
308.449	14.17
308.663	59.22
308.877	38.74
309.091	34.64
309.305	69.46
309.519	-10.41
309.733	100.18
309.947	53.08
310.161	-2.22
310.374	44.88
310.588	20.31
310.802	-2.22
311.016	51.03
311.23	36.69
311.444	61.27
311.658	1.88
311.872	73.56
312.085	-8.36
312.299	61.27
312.513	36.69
312.727	77.65
312.941	44.88
313.154	20.31
313.368	28.5
313.582	112.47
313.796	14.17
314.009	69.46
314.223	67.41
314.437	89.94
314.651	20.31
314.864	8.02
315.078	-24.75
315.292	73.56
315.505	63.32
315.719	85.84
315.933	5.97
316.146	96.08
316.36	-6.31
316.573	46.93
316.787	81.75
317.001	-14.51
317.214	14.17
317.428	59.22
317.641	-2.22
317.855	44.88
318.068	57.17
318.282	55.12
318.495	57.17
318.709	-34.99
318.922	26.45
319.136	69.46
319.349	26.45
319.563	8.02
319.776	24.4
319.99	-47.27
320.203	48.98
320.417	63.32
320.63	46.93
320.843	51.03
321.057	53.08
321.27	67.41
321.483	-26.79
321.697	44.88
321.91	22.36
322.124	38.74
322.337	8.02
322.55	14.17
322.763	34.64
322.977	24.4
323.19	104.28
323.403	48.98
323.617	18.26
323.83	69.46
324.043	-0.17
324.256	30.55
324.469	40.79
324.683	8.02
324.896	44.88
325.109	38.74
325.322	-8.36
325.535	104.28
325.748	114.52
325.962	26.45
326.175	96.08
326.388	-2.22
326.601	59.22
326.814	77.65
327.027	18.26
327.24	-16.55
327.453	-63.66
327.666	53.08
327.879	65.36
328.092	83.8
328.305	63.32
328.518	-2.22
328.731	77.65
328.944	75.6
329.157	38.74
329.37	71.51
329.583	67.41
329.796	143.19
330.009	63.32
330.222	69.46
330.435	16.21
330.648	8.02
330.861	42.84
331.073	-2.22
331.286	8.02
331.499	130.9
331.712	32.6
331.925	61.27
332.138	53.08
332.35	89.94
332.563	83.8
332.776	132.95
332.989	46.93
333.202	67.41
333.414	67.41
333.627	42.84
333.84	-26.79
334.053	55.12
334.265	32.6
334.478	44.88
334.691	-30.89
334.903	30.55
335.116	40.79
335.329	26.45
335.541	40.79
335.754	106.32
335.966	40.79
336.179	55.12
336.392	-14.51
336.604	14.17
336.817	12.12
337.029	34.64
337.242	61.27
337.454	100.18
337.667	34.64
337.88	-8.36
338.092	59.22
338.305	8.02
338.517	34.64
338.729	51.03
338.942	63.32
339.154	26.45
339.367	-4.27
339.579	32.6
339.792	110.42
340.004	42.84
340.217	44.88
340.429	83.8
340.641	-8.36
340.854	44.88
341.066	61.27
341.278	30.55
341.491	94.04
341.703	38.74
341.915	77.65
342.128	46.93
342.34	24.4
342.552	57.17
342.764	20.31
342.977	55.12
343.189	57.17
343.401	1.88
343.613	-14.51
343.826	48.98
344.038	-8.36
344.25	96.08
344.462	61.27
344.674	114.52
344.886	-24.75
345.099	71.51
345.311	-6.31
345.523	100.18
345.735	63.32
345.947	42.84
346.159	32.6
346.371	46.93
346.583	-6.31
346.795	89.94
347.007	-2.22
347.219	55.12
347.431	22.36
347.643	81.75
347.855	-12.46
348.067	87.89
348.279	-32.94
348.491	16.21
348.703	20.31
348.915	69.46
349.127	46.93
349.339	55.12
349.551	-45.23
349.763	77.65
349.975	42.84
350.187	63.32
350.399	18.26
350.61	100.18
350.822	57.17
351.034	42.84
351.246	24.4
351.458	145.24
351.669	32.6
351.881	102.23
352.093	85.84
352.305	40.79
352.517	61.27
352.728	5.97
352.94	12.12
353.152	126.8
353.363	-30.89
353.575	53.08
353.787	59.22
353.999	5.97
354.21	44.88
354.422	57.17
354.633	36.69
354.845	40.79
355.057	51.03
355.268	53.08
355.48	42.84
355.692	59.22
355.903	85.84
356.115	46.93
356.326	-2.22
356.538	-4.27
356.749	14.17
356.961	96.08
357.172	63.32
357.384	61.27
357.595	48.98
357.807	-51.37
358.018	40.79
358.23	34.64
358.441	89.94
358.653	128.85
358.864	28.5
359.075	46.93
359.287	55.12
359.498	55.12
359.709	67.41
359.921	71.51
360.132	40.79
360.344	12.12
360.555	77.65
360.766	26.45
360.977	14.17
361.189	59.22
361.4	71.51
361.611	73.56
361.823	42.84
362.034	89.94
362.245	16.21
362.456	67.41
362.667	42.84
362.879	67.41
363.09	67.41
363.301	89.94
363.512	16.21
363.723	48.98
363.935	75.6
364.146	69.46
364.357	81.75
364.568	55.12
364.779	75.6
364.99	87.89
365.201	26.45
365.412	44.88
365.623	-41.13
365.834	46.93
366.045	100.18
366.256	112.47
366.467	106.32
366.678	73.56
366.889	14.17
367.1	44.88
367.311	51.03
367.522	55.12
367.733	32.6
367.944	69.46
368.155	104.28
368.366	24.4
368.577	122.71
368.788	16.21
368.999	102.23
369.209	87.89
369.42	65.36
369.631	55.12
369.842	51.03
370.053	110.42
370.264	5.97
370.474	71.51
370.685	5.97
370.896	10.07
371.107	42.84
371.317	63.32
371.528	65.36
371.739	-4.27
371.95	-16.55
372.16	16.21
372.371	34.64
372.582	67.41
372.792	26.45
373.003	36.69
373.214	38.74
373.424	118.61
373.635	16.21
373.846	110.42
374.056	106.32
374.267	94.04
374.477	89.94
374.688	30.55
374.898	98.13
375.109	104.28
375.319	-10.41
375.53	77.65
375.74	18.26
375.951	14.17
376.161	75.6
376.372	53.08
376.582	100.18
376.793	40.79
377.003	26.45
377.214	65.36
377.424	-20.65
377.635	77.65
377.845	36.69
378.055	79.7
378.266	-4.27
378.476	40.79
378.686	79.7
378.897	81.75
379.107	85.84
379.317	73.56
379.528	116.56
379.738	130.9
379.948	-12.46
380.158	161.62
380.369	91.99
380.579	14.17
380.789	34.64
380.999	34.64
381.21	40.79
381.42	122.71
381.63	91.99
381.84	57.17
382.05	67.41
382.261	77.65
382.471	69.46
382.681	-0.17
382.891	141.14
383.101	69.46
383.311	-2.22
383.521	32.6
383.731	26.45
383.941	79.7
384.151	87.89
384.361	26.45
384.571	67.41
384.781	12.12
384.991	128.85
385.201	112.47
385.411	5.97
385.621	77.65
385.831	38.74
386.041	5.97
386.251	-4.27
386.461	137.04
386.671	91.99
386.881	96.08
387.091	85.84
387.301	48.98
387.511	71.51
387.72	112.47
387.93	22.36
388.14	53.08
388.35	116.56
388.56	69.46
388.769	42.84
388.979	79.7
389.189	75.6
389.399	12.12
389.609	38.74
389.818	122.71
390.028	38.74
390.238	-4.27
390.447	128.85
390.657	69.46
390.867	57.17
391.076	57.17
391.286	122.71
391.496	91.99
391.705	169.81
391.915	55.12
392.125	165.71
392.334	-6.31
392.544	83.8
392.753	75.6
392.963	57.17
393.172	114.52
393.382	87.89
393.591	65.36
393.801	89.94
394.01	145.24
394.22	22.36
394.429	118.61
394.639	116.56
394.848	163.67
395.058	132.95
395.267	85.84
395.477	106.32
395.686	149.33
395.895	151.38
396.105	69.46
396.314	126.8
396.524	55.12
396.733	48.98
396.942	89.94
397.152	75.6
397.361	137.04
397.57	73.56
397.78	55.12
397.989	116.56
398.198	104.28
398.407	83.8
398.617	128.85
398.826	112.47
399.035	225.11
399.244	77.65
399.453	141.14
399.663	59.22
399.872	137.04
400.081	110.42
400.29	141.14
400.499	128.85
400.708	190.29
400.917	116.56
401.127	159.57
401.336	100.18
401.545	126.8
401.754	147.28
401.963	100.18
402.172	77.65
402.381	100.18
402.59	165.71
402.799	221.01
403.008	198.48
403.217	120.66
403.426	159.57
403.635	151.38
403.844	130.9
404.053	184.15
404.262	130.9
404.471	171.86
404.68	210.77
404.888	227.15
405.097	218.96
405.306	178
405.515	200.53
405.724	190.29
405.933	221.01
406.142	212.82
406.35	188.24
406.559	159.57
406.768	268.11
406.977	202.58
407.185	261.97
407.394	249.68
407.603	264.02
407.812	296.78
408.02	321.36
408.229	339.79
408.438	255.83
408.646	315.22
408.855	337.74
409.064	182.1
409.272	300.88
409.481	354.13
409.69	300.88
409.898	368.46
410.107	378.7
410.315	370.51
410.524	411.47
410.733	395.09
410.941	509.77
411.15	419.66
411.358	436.05
411.567	532.3
411.775	526.16
411.984	569.16
412.192	608.08
412.401	452.43
412.609	606.03
412.818	583.5
413.026	669.52
413.234	610.12
413.443	616.27
413.651	587.6
413.86	718.67
414.068	704.33
414.276	780.11
414.485	812.87
414.693	851.78
414.901	862.02
415.11	853.83
415.318	878.41
415.526	870.22
415.734	896.84
415.943	950.09
416.151	943.94
416.359	952.13
416.567	1097.54
416.776	1003.33
416.984	1189.7
417.192	1128.26
417.4	1156.93
417.608	1199.94
417.817	1257.28
418.025	1384.26
418.233	1396.54
418.441	1466.17
418.649	1500.99
418.857	1550.14
419.065	1562.43
419.273	1558.33
419.481	1595.2
419.689	1791.8
419.897	1910.58
420.105	1941.3
420.313	1834.81
420.521	1935.16
420.729	2168.63
420.937	2033.46
421.145	2258.74
421.353	2232.12
421.561	2334.51
421.769	2389.81
421.977	2498.35
422.185	2389.81
422.393	2643.76
422.601	2846.51
422.809	2660.14
423.017	2844.46
423.224	2889.51
423.432	3002.15
423.64	3039.01
423.848	3176.23
424.056	3346.21
424.263	3528.48
424.471	3499.81
424.679	3604.25
424.887	3718.94
425.094	3788.57
425.302	3868.44
425.51	3940.12
425.718	4204.31
425.925	4087.57
426.133	4415.25
426.341	4505.36
426.548	5048.07
426.756	4878.09
426.964	4843.28
427.171	5216.01
427.379	5416.71
427.586	5506.82
427.794	5496.58
428.001	5844.73
428.209	6022.91
428.417	5818.11
428.624	6446.83
428.832	6389.49
429.039	6237.94
429.247	6418.16
429.454	6983.4
429.662	7263.97
429.869	6960.88
430.076	7487.2
430.284	7200.49
430.491	7683.81
430.699	7974.62
430.906	7917.28
431.114	8013.53
431.321	8406.74
431.528	8474.32
431.736	9135.82
431.943	9379.53
432.15	9127.63
432.358	9236.17
432.565	9852.61
432.772	9866.94
432.979	10305.21
433.187	10432.18
433.394	10532.53
433.601	11146.92
433.808	11060.91
434.016	11243.18
434.223	11562.66
434.43	12318.36
434.637	12234.39
434.844	12746.39
435.052	13184.65
435.259	13069.97
435.466	12969.62
435.673	13018.77
435.88	13958.78
436.087	14405.24
436.294	14694.01
436.501	14341.75
436.708	14749.3
436.915	14759.54
437.122	15937.12
437.329	15451.75
437.537	16049.76
437.743	16461.4
437.95	16334.43
438.157	17299.02
438.364	17819.21
438.571	17708.62
438.778	17854.02
438.985	19316.27
439.192	18665.02
439.399	19330.61
439.606	19289.65
439.813	19834.41
440.02	21329.42
440.227	20979.22
440.433	20616.73
440.64	21394.96
440.847	21210.64
441.054	21730.83
441.261	23070.2
441.467	22642.17
441.674	23184.88
441.881	24014.31
442.088	24071.65
442.294	23645.68
442.501	24497.63
442.708	25091.54
442.914	26029.51
443.121	27284.92
443.328	26439.11
443.534	27997.61
443.741	26949.05
443.948	27041.21
444.154	29250.97
444.361	28771.74
444.568	29277.59
444.774	28890.52
444.981	29515.15
445.187	30414.21
445.394	31352.18
445.6	31149.43
445.807	34401.61
446.013	32298.34
446.22	33062.24
446.426	34350.41
446.633	34741.57
446.839	36156.72
447.046	34624.84
447.252	36402.47
447.459	36396.33
447.665	36322.6
447.871	37874.96
448.078	39398.65
448.284	37670.17
448.491	38343.95
448.697	40017.14
448.903	41112.8
449.11	40903.91
449.316	40316.14
449.522	41041.12
449.728	41837.78
449.935	42104.02
450.141	42030.29
450.347	43091.14
450.553	41866.45
450.76	42390.73
450.966	44027.06
451.172	43562.17
451.378	44899.5
451.584	43799.74
451.791	44717.23
451.997	44483.76
452.203	45282.47
452.409	44784.81
452.615	45302.95
452.821	43322.56
453.027	42939.59
453.233	44911.78
453.44	43302.08
453.646	43973.81
453.852	44111.03
454.058	45030.57
454.264	43363.52
454.47	44690.6
454.676	43443.39
454.882	44481.71
455.088	40967.4
455.294	41954.52
455.5	42274
455.705	42452.17
455.911	40592.62
456.117	39677.18
456.323	39619.83
456.529	37328.16
456.735	39083.26
456.941	37985.55
457.147	37547.29
457.352	36599.08
457.558	35972.4
457.764	36441.39
457.97	35251.52
458.176	34796.87
458.381	34524.49
458.587	33103.2
458.793	33070.43
458.999	31591.8
459.204	33381.72
459.41	32390.5
459.616	30733.7
459.821	30137.74
460.027	30551.43
460.233	29353.37
460.438	28345.76
460.644	28478.88
460.85	27352.5
461.055	26553.79
461.261	26760.64
461.466	24643.04
461.672	23969.26
461.878	25687.5
462.083	24157.67
462.289	23889.38
462.494	23492.08
462.7	22328.83
462.905	21669.39
463.111	22459.9
463.316	22535.68
463.522	21947.91
463.727	22138.37
463.932	22382.08
464.138	21814.79
464.343	22038.02
464.549	21157.39
464.754	22095.36
464.959	21663.24
465.165	21227.03
465.37	21022.23
465.575	20233.76
465.781	20878.87
465.986	21247.51
466.191	20338.21
466.397	19813.93
466.602	18945.59
466.807	19740.2
467.012	19828.26
467.218	19629.61
