Data from USB4F104151__8__11-44-26-674.txt Node

Date: Fri Mar 14 11:44:26 EDT 2025
User: louis
Spectrometer: USB4F10415
Trigger mode: 4
Integration Time (sec): 2.000000E-2
Scans to average: 1
Electric dark correction enabled: true
Nonlinearity correction enabled: false
Boxcar width: 0
XAxis mode: Wavelengths
Number of Pixels in Spectrum: 3648
>>>>>Begin Spectral Data<<<<<
178.204	-68.27
178.424	-68.27
178.644	-68.27
178.864	-168.62
179.084	-72.36
179.304	34.13
179.524	66.9
179.744	15.7
179.964	-74.41
180.184	-51.88
180.404	-10.92
180.624	-29.35
180.844	36.18
181.064	-27.31
181.283	13.65
181.503	-17.07
181.723	44.37
181.943	-58.03
182.163	130.39
182.383	40.28
182.602	-6.83
182.822	71
183.042	32.08
183.262	19.8
183.482	111.96
183.701	25.94
183.921	48.47
184.141	-55.98
184.361	79.19
184.58	23.89
184.8	17.75
185.02	-2.73
185.239	93.52
185.459	36.18
185.679	91.48
185.898	-70.31
186.118	54.61
186.338	-17.07
186.557	46.42
186.777	17.75
186.997	30.04
187.216	-21.16
187.436	-45.74
187.655	15.7
187.875	58.71
188.095	-41.64
188.314	48.47
188.534	5.46
188.753	-58.03
188.973	64.85
189.192	-51.88
189.412	56.66
189.631	48.47
189.851	48.47
190.07	68.95
190.29	-4.78
190.509	48.47
190.729	-6.83
190.948	7.51
191.168	101.72
191.387	71
191.607	13.65
191.826	54.61
192.045	-6.83
192.265	15.7
192.484	17.75
192.704	-27.31
192.923	38.23
193.142	89.43
193.362	13.65
193.581	73.04
193.8	42.32
194.02	79.19
194.239	38.23
194.458	95.57
194.678	-6.83
194.897	46.42
195.116	23.89
195.335	50.52
195.555	17.75
195.774	83.28
195.993	17.75
196.212	5.46
196.432	30.04
196.651	48.47
196.87	64.85
197.089	62.8
197.308	40.28
197.528	5.46
197.747	-12.97
197.966	-49.83
198.185	17.75
198.404	5.46
198.623	71
198.842	66.9
199.062	9.56
199.281	85.33
199.5	62.8
199.719	-6.83
199.938	21.85
200.157	27.99
200.376	58.71
200.595	42.32
200.814	71
201.033	7.51
201.252	-43.69
201.471	32.08
201.69	83.28
201.909	68.95
202.128	1.37
202.347	-0.68
202.566	30.04
202.785	7.51
203.004	-60.07
203.223	15.7
203.442	-43.69
203.661	11.61
203.879	62.8
204.098	36.18
204.317	97.62
204.536	54.61
204.755	83.28
204.974	-39.59
205.193	21.85
205.411	73.04
205.63	-8.87
205.849	-2.73
206.068	21.85
206.287	27.99
206.505	36.18
206.724	-19.11
206.943	-12.97
207.162	27.99
207.381	23.89
207.599	1.37
207.818	25.94
208.037	3.41
208.255	30.04
208.474	50.52
208.693	36.18
208.911	81.24
209.13	-2.73
209.349	73.04
209.567	19.8
209.786	111.96
210.005	25.94
210.223	93.52
210.442	73.04
210.661	7.51
210.879	19.8
211.098	17.75
211.316	-51.88
211.535	7.51
211.753	-4.78
211.972	17.75
212.191	5.46
212.409	56.66
212.628	52.56
212.846	40.28
213.065	-17.07
213.283	64.85
213.502	21.85
213.72	13.65
213.938	3.41
214.157	23.89
214.375	19.8
214.594	17.75
214.812	7.51
215.031	48.47
215.249	-10.92
215.467	17.75
215.686	-43.69
215.904	-0.68
216.122	1.37
216.341	52.56
216.559	62.8
216.778	-15.02
216.996	56.66
217.214	9.56
217.432	-53.93
217.651	48.47
217.869	56.66
218.087	27.99
218.306	5.46
218.524	46.42
218.742	48.47
218.96	60.76
219.179	27.99
219.397	27.99
219.615	17.75
219.833	128.34
220.051	68.95
220.27	9.56
220.488	73.04
220.706	-17.07
220.924	114
221.142	25.94
221.36	54.61
221.578	48.47
221.796	30.04
222.015	75.09
222.233	-17.07
222.451	60.76
222.669	-29.35
222.887	107.86
223.105	15.7
223.323	34.13
223.541	9.56
223.759	50.52
223.977	27.99
224.195	38.23
224.413	60.76
224.631	34.13
224.849	11.61
225.067	3.41
225.285	25.94
225.503	-21.16
225.721	-8.87
225.939	38.23
226.157	34.13
226.375	91.48
226.592	21.85
226.81	42.32
227.028	25.94
227.246	91.48
227.464	-15.02
227.682	-29.35
227.9	32.08
228.117	56.66
228.335	73.04
228.553	-4.78
228.771	-2.73
228.989	-0.68
229.206	-43.69
229.424	34.13
229.642	-31.4
229.86	-33.45
230.077	19.8
230.295	48.47
230.513	13.65
230.731	83.28
230.948	126.29
231.166	9.56
231.384	30.04
231.601	-17.07
231.819	60.76
232.037	64.85
232.254	9.56
232.472	-8.87
232.689	-12.97
232.907	3.41
233.125	42.32
233.342	3.41
233.56	40.28
233.777	-15.02
233.995	-21.16
234.213	-8.87
234.43	58.71
234.648	30.04
234.865	-23.21
235.083	23.89
235.3	126.29
235.518	34.13
235.735	77.14
235.953	42.32
236.17	-10.92
236.388	-2.73
236.605	48.47
236.822	34.13
237.04	81.24
237.257	27.99
237.475	21.85
237.692	60.76
237.909	-6.83
238.127	38.23
238.344	-2.73
238.562	42.32
238.779	-68.27
238.996	23.89
239.214	7.51
239.431	89.43
239.648	-33.45
239.865	-8.87
240.083	99.67
240.3	21.85
240.517	21.85
240.735	38.23
240.952	-17.07
241.169	44.37
241.386	42.32
241.603	38.23
241.821	30.04
242.038	66.9
242.255	-49.83
242.472	99.67
242.689	19.8
242.907	30.04
243.124	17.75
243.341	81.24
243.558	5.46
243.775	19.8
243.992	-47.79
244.209	89.43
244.426	34.13
244.643	77.14
244.86	9.56
245.078	27.99
245.295	36.18
245.512	95.57
245.729	52.56
245.946	52.56
246.163	15.7
246.38	71
246.597	19.8
246.814	68.95
247.031	44.37
247.248	30.04
247.464	93.52
247.681	56.66
247.898	-33.45
248.115	50.52
248.332	40.28
248.549	46.42
248.766	58.71
248.983	42.32
249.2	25.94
249.417	134.48
249.633	3.41
249.85	79.19
250.067	77.14
250.284	32.08
250.501	62.8
250.717	91.48
250.934	-6.83
251.151	38.23
251.368	-12.97
251.585	89.43
251.801	105.81
252.018	-12.97
252.235	9.56
252.451	-33.45
252.668	-4.78
252.885	58.71
253.102	83.28
253.318	40.28
253.535	-21.16
253.752	58.71
253.968	89.43
254.185	60.76
254.401	89.43
254.618	1.37
254.835	44.37
255.051	66.9
255.268	27.99
255.484	36.18
255.701	52.56
255.917	71
256.134	-35.5
256.351	99.67
256.567	-17.07
256.784	23.89
257	15.7
257.217	68.95
257.433	-0.68
257.65	66.9
257.866	50.52
258.082	64.85
258.299	-39.59
258.515	60.76
258.732	30.04
258.948	44.37
259.165	38.23
259.381	54.61
259.597	25.94
259.814	-35.5
260.03	21.85
260.246	-0.68
260.463	62.8
260.679	118.1
260.895	-12.97
261.112	-17.07
261.328	25.94
261.544	-39.59
261.761	142.68
261.977	40.28
262.193	54.61
262.409	66.9
262.626	56.66
262.842	15.7
263.058	-33.45
263.274	81.24
263.49	17.75
263.707	81.24
263.923	7.51
264.139	48.47
264.355	56.66
264.571	40.28
264.787	62.8
265.004	81.24
265.22	25.94
265.436	54.61
265.652	-58.03
265.868	42.32
266.084	-45.74
266.3	66.9
266.516	-2.73
266.732	44.37
266.948	1.37
267.164	25.94
267.38	109.91
267.596	73.04
267.812	-15.02
268.028	3.41
268.244	52.56
268.46	48.47
268.676	54.61
268.892	38.23
269.108	38.23
269.324	1.37
269.54	23.89
269.756	-10.92
269.972	-8.87
270.188	19.8
270.403	48.47
270.619	21.85
270.835	15.7
271.051	32.08
271.267	124.24
271.483	15.7
271.698	36.18
271.914	11.61
272.13	52.56
272.346	54.61
272.562	64.85
272.777	40.28
272.993	58.71
273.209	-6.83
273.425	48.47
273.64	48.47
273.856	27.99
274.072	68.95
274.287	5.46
274.503	54.61
274.719	99.67
274.934	21.85
275.15	56.66
275.366	-21.16
275.581	-10.92
275.797	23.89
276.012	83.28
276.228	60.76
276.444	21.85
276.659	-25.26
276.875	19.8
277.09	68.95
277.306	-2.73
277.521	60.76
277.737	58.71
277.952	87.38
278.168	60.76
278.383	52.56
278.599	77.14
278.814	60.76
279.03	56.66
279.245	30.04
279.461	48.47
279.676	30.04
279.892	-53.93
280.107	34.13
280.322	38.23
280.538	36.18
280.753	42.32
280.969	36.18
281.184	52.56
281.399	81.24
281.615	-8.87
281.83	1.37
282.045	-6.83
282.26	40.28
282.476	48.47
282.691	40.28
282.906	21.85
283.122	54.61
283.337	-6.83
283.552	30.04
283.767	-33.45
283.983	50.52
284.198	32.08
284.413	27.99
284.628	66.9
284.843	120.15
285.058	148.82
285.274	73.04
285.489	56.66
285.704	62.8
285.919	-8.87
286.134	13.65
286.349	1.37
286.564	58.71
286.779	68.95
286.995	21.85
287.21	27.99
287.425	79.19
287.64	-4.78
287.855	27.99
288.07	19.8
288.285	159.06
288.5	40.28
288.715	73.04
288.93	68.95
289.145	34.13
289.36	40.28
289.575	48.47
289.79	79.19
290.004	85.33
290.219	58.71
290.434	27.99
290.649	3.41
290.864	34.13
291.079	46.42
291.294	13.65
291.509	56.66
291.724	75.09
291.938	23.89
292.153	-2.73
292.368	-47.79
292.583	11.61
292.798	118.1
293.012	60.76
293.227	-82.6
293.442	-12.97
293.657	107.86
293.871	54.61
294.086	25.94
294.301	111.96
294.516	-53.93
294.73	-17.07
294.945	5.46
295.16	19.8
295.374	56.66
295.589	21.85
295.804	79.19
296.018	27.99
296.233	89.43
296.447	89.43
296.662	-41.64
296.877	71
297.091	1.37
297.306	64.85
297.52	60.76
297.735	34.13
297.949	68.95
298.164	32.08
298.378	40.28
298.593	-37.55
298.807	46.42
299.022	-29.35
299.236	71
299.451	32.08
299.665	34.13
299.88	44.37
300.094	52.56
300.309	79.19
300.523	5.46
300.737	71
300.952	3.41
301.166	52.56
301.381	-23.21
301.595	93.52
301.809	1.37
302.024	56.66
302.238	-41.64
302.452	64.85
302.667	32.08
302.881	58.71
303.095	19.8
303.309	27.99
303.524	62.8
303.738	79.19
303.952	-10.92
304.166	87.38
304.381	56.66
304.595	103.76
304.809	77.14
305.023	89.43
305.237	30.04
305.452	-12.97
305.666	83.28
305.88	30.04
306.094	101.72
306.308	-15.02
306.522	75.09
306.736	48.47
306.95	13.65
307.164	71
307.379	-8.87
307.593	40.28
307.807	50.52
308.021	91.48
308.235	27.99
308.449	25.94
308.663	34.13
308.877	58.71
309.091	64.85
309.305	52.56
309.519	40.28
309.733	52.56
309.947	46.42
310.161	54.61
310.374	-29.35
310.588	38.23
310.802	23.89
311.016	5.46
311.23	77.14
311.444	1.37
311.658	17.75
311.872	87.38
312.085	44.37
312.299	126.29
312.513	15.7
312.727	95.57
312.941	44.37
313.154	116.05
313.368	27.99
313.582	-15.02
313.796	52.56
314.009	30.04
314.223	46.42
314.437	111.96
314.651	62.8
314.864	7.51
315.078	46.42
315.292	56.66
315.505	19.8
315.719	-51.88
315.933	13.65
316.146	71
316.36	-17.07
316.573	81.24
316.787	-0.68
317.001	38.23
317.214	64.85
317.428	83.28
317.641	66.9
317.855	5.46
318.068	25.94
318.282	79.19
318.495	142.68
318.709	36.18
318.922	46.42
319.136	52.56
319.349	13.65
319.563	23.89
319.776	36.18
319.99	48.47
320.203	81.24
320.417	21.85
320.63	120.15
320.843	95.57
321.057	56.66
321.27	56.66
321.483	95.57
321.697	48.47
321.91	-8.87
322.124	68.95
322.337	42.32
322.55	21.85
322.763	89.43
322.977	95.57
323.19	3.41
323.403	13.65
323.617	30.04
323.83	52.56
324.043	103.76
324.256	15.7
324.469	-12.97
324.683	77.14
324.896	21.85
325.109	30.04
325.322	1.37
325.535	30.04
325.748	73.04
325.962	-10.92
326.175	64.85
326.388	48.47
326.601	-6.83
326.814	42.32
327.027	64.85
327.24	54.61
327.453	58.71
327.666	21.85
327.879	62.8
328.092	-35.5
328.305	15.7
328.518	93.52
328.731	-0.68
328.944	38.23
329.157	9.56
329.37	32.08
329.583	50.52
329.796	103.76
330.009	30.04
330.222	9.56
330.435	-37.55
330.648	64.85
330.861	11.61
331.073	85.33
331.286	11.61
331.499	91.48
331.712	36.18
331.925	27.99
332.138	30.04
332.35	111.96
332.563	1.37
332.776	71
332.989	36.18
333.202	32.08
333.414	105.81
333.627	87.38
333.84	42.32
334.053	79.19
334.265	36.18
334.478	32.08
334.691	36.18
334.903	-2.73
335.116	25.94
335.329	21.85
335.541	103.76
335.754	48.47
335.966	85.33
336.179	-10.92
336.392	30.04
336.604	77.14
336.817	122.2
337.029	21.85
337.242	91.48
337.454	-6.83
337.667	48.47
337.88	85.33
338.092	7.51
338.305	64.85
338.517	1.37
338.729	15.7
338.942	23.89
339.154	7.51
339.367	-21.16
339.579	77.14
339.792	30.04
340.004	27.99
340.217	105.81
340.429	62.8
340.641	111.96
340.854	11.61
341.066	34.13
341.278	66.9
341.491	40.28
341.703	68.95
341.915	-58.03
342.128	15.7
342.34	64.85
342.552	-17.07
342.764	48.47
342.977	36.18
343.189	54.61
343.401	27.99
343.613	46.42
343.826	93.52
344.038	85.33
344.25	87.38
344.462	-17.07
344.674	44.37
344.886	52.56
345.099	68.95
345.311	13.65
345.523	-6.83
345.735	54.61
345.947	34.13
346.159	79.19
346.371	54.61
346.583	62.8
346.795	93.52
347.007	-2.73
347.219	23.89
347.431	-25.26
347.643	73.04
347.855	36.18
348.067	17.75
348.279	54.61
348.491	21.85
348.703	97.62
348.915	93.52
349.127	66.9
349.339	93.52
349.551	30.04
349.763	81.24
349.975	44.37
350.187	17.75
350.399	79.19
350.61	95.57
350.822	73.04
351.034	73.04
351.246	64.85
351.458	32.08
351.669	161.11
351.881	81.24
352.093	97.62
352.305	40.28
352.517	-60.07
352.728	52.56
352.94	52.56
353.152	71
353.363	83.28
353.575	60.76
353.787	-10.92
353.999	21.85
354.21	66.9
354.422	56.66
354.633	60.76
354.845	73.04
355.057	44.37
355.268	91.48
355.48	87.38
355.692	34.13
355.903	77.14
356.115	38.23
356.326	32.08
356.538	107.86
356.749	50.52
356.961	9.56
357.172	73.04
357.384	7.51
357.595	68.95
357.807	21.85
358.018	7.51
358.23	114
358.441	93.52
358.653	5.46
358.864	15.7
359.075	25.94
359.287	42.32
359.498	46.42
359.709	32.08
359.921	46.42
360.132	58.71
360.344	77.14
360.555	40.28
360.766	85.33
360.977	87.38
361.189	19.8
361.4	50.52
361.611	27.99
361.823	15.7
362.034	75.09
362.245	-17.07
362.456	54.61
362.667	73.04
362.879	99.67
363.09	36.18
363.301	73.04
363.512	105.81
363.723	5.46
363.935	17.75
364.146	50.52
364.357	38.23
364.568	42.32
364.779	42.32
364.99	85.33
365.201	38.23
365.412	89.43
365.623	50.52
365.834	81.24
366.045	89.43
366.256	48.47
366.467	-23.21
366.678	109.91
366.889	-23.21
367.1	27.99
367.311	122.2
367.522	36.18
367.733	44.37
367.944	66.9
368.155	1.37
368.366	52.56
368.577	40.28
368.788	42.32
368.999	-51.88
369.209	101.72
369.42	71
369.631	48.47
369.842	103.76
370.053	34.13
370.264	118.1
370.474	66.9
370.685	66.9
370.896	27.99
371.107	46.42
371.317	54.61
371.528	11.61
371.739	71
371.95	75.09
372.16	48.47
372.371	5.46
372.582	66.9
372.792	40.28
373.003	99.67
373.214	99.67
373.424	17.75
373.635	-23.21
373.846	23.89
374.056	27.99
374.267	56.66
374.477	44.37
374.688	97.62
374.898	50.52
375.109	52.56
375.319	19.8
375.53	71
375.74	97.62
375.951	87.38
376.161	93.52
376.372	79.19
376.582	95.57
376.793	93.52
377.003	64.85
377.214	50.52
377.424	40.28
377.635	36.18
377.845	-12.97
378.055	34.13
378.266	44.37
378.476	85.33
378.686	64.85
378.897	3.41
379.107	103.76
379.317	60.76
379.528	89.43
379.738	71
379.948	36.18
380.158	46.42
380.369	103.76
380.579	54.61
380.789	79.19
380.999	105.81
381.21	114
381.42	48.47
381.63	111.96
381.84	116.05
382.05	64.85
382.261	38.23
382.471	71
382.681	107.86
382.891	126.29
383.101	23.89
383.311	50.52
383.521	52.56
383.731	107.86
383.941	30.04
384.151	42.32
384.361	122.2
384.571	81.24
384.781	109.91
384.991	109.91
385.201	54.61
385.411	36.18
385.621	107.86
385.831	85.33
386.041	-4.78
386.251	101.72
386.461	91.48
386.671	126.29
386.881	134.48
387.091	17.75
387.301	32.08
387.511	34.13
387.72	103.76
387.93	36.18
388.14	77.14
388.35	71
388.56	109.91
388.769	89.43
388.979	83.28
389.189	97.62
389.399	105.81
389.609	103.76
389.818	91.48
390.028	34.13
390.238	42.32
390.447	77.14
390.657	99.67
390.867	144.72
391.076	93.52
391.286	148.82
391.496	114
391.705	77.14
391.915	77.14
392.125	101.72
392.334	66.9
392.544	144.72
392.753	54.61
392.963	46.42
393.172	85.33
393.382	62.8
393.591	118.1
393.801	64.85
394.01	105.81
394.22	111.96
394.429	130.39
394.639	64.85
394.848	116.05
395.058	124.24
395.267	128.34
395.477	122.2
395.686	134.48
395.895	171.35
396.105	169.3
396.314	56.66
396.524	83.28
396.733	58.71
396.942	93.52
397.152	163.15
397.361	79.19
397.57	109.91
397.78	48.47
397.989	56.66
398.198	167.25
398.407	87.38
398.617	101.72
398.826	118.1
399.035	157.01
399.244	138.58
399.453	167.25
399.663	62.8
399.872	132.44
400.081	187.73
400.29	126.29
400.499	81.24
400.708	130.39
400.917	128.34
401.127	157.01
401.336	161.11
401.545	152.91
401.754	193.87
401.963	179.54
402.172	114
402.381	173.39
402.59	128.34
402.799	152.91
403.008	175.44
403.217	202.07
403.426	140.63
403.635	58.71
403.844	101.72
404.053	189.78
404.262	124.24
404.471	224.59
404.68	136.53
404.888	173.39
405.097	171.35
405.306	175.44
405.515	159.06
405.724	154.96
405.933	251.22
406.142	210.26
406.35	283.99
406.559	208.21
406.768	214.35
406.977	249.17
407.185	318.8
407.394	302.42
407.603	216.4
407.812	243.03
408.02	316.75
408.229	257.36
408.438	320.85
408.646	314.7
408.855	322.9
409.064	347.47
409.272	404.82
409.481	421.2
409.69	292.18
409.898	376.14
410.107	435.53
410.315	509.26
410.524	382.29
410.733	458.06
410.941	507.21
411.15	507.21
411.358	537.93
411.567	517.45
411.775	519.5
411.984	484.69
412.192	515.41
412.401	613.71
412.609	632.14
412.818	601.42
413.026	701.77
413.234	707.91
413.443	601.42
413.651	654.67
413.86	732.49
414.068	845.13
414.276	777.55
414.485	855.37
414.693	875.85
414.901	877.9
415.11	910.66
415.318	922.95
415.526	998.73
415.734	1049.93
415.943	1090.88
416.151	1082.69
416.359	1111.36
416.567	1111.36
416.776	1252.67
416.984	1205.57
417.192	1260.87
417.4	1310.02
417.608	1269.06
417.817	1383.74
418.025	1314.11
418.233	1627.45
418.441	1561.92
418.649	1547.58
418.857	1742.14
419.065	1719.61
419.273	1811.77
419.481	1846.59
419.689	1930.55
419.897	2026.81
420.105	2069.81
420.313	2114.87
420.521	2178.36
420.729	2159.92
420.937	2274.61
421.145	2428.21
421.353	2475.31
421.561	2559.28
421.769	2571.57
421.977	2802.99
422.185	2733.36
422.393	2923.82
422.601	3151.14
422.809	2989.35
423.017	3114.28
423.224	3163.43
423.432	3226.92
423.64	3386.66
423.848	3685.66
424.056	3712.28
424.263	3904.79
424.471	3765.53
424.679	3714.33
424.887	4279.57
425.094	4295.96
425.302	4349.2
425.51	4320.53
425.718	4525.33
425.925	4492.56
426.133	4658.45
426.341	4998.41
426.548	5143.81
426.756	5387.52
426.964	5352.71
427.171	5694.72
427.379	5946.62
427.586	5858.56
427.794	6251.77
428.001	6352.12
428.209	6687.98
428.417	6540.53
428.624	6855.92
428.832	7042.28
429.039	6974.7
429.247	6888.68
429.454	7498.98
429.662	8213.72
429.869	7703.78
430.076	8256.73
430.284	7937.24
430.491	8262.87
430.699	8895.69
430.906	8654.03
431.114	8834.25
431.321	9143.5
431.528	9225.42
431.736	9876.67
431.943	10478.77
432.15	10210.49
432.358	10357.94
432.565	10775.73
432.772	10669.23
432.979	11353.26
433.187	11486.37
433.394	11844.77
433.601	12362.9
433.808	12528.79
434.016	12371.1
434.223	12676.24
434.43	13515.91
434.637	13563.01
434.844	14288
435.052	14496.89
435.259	14361.72
435.466	14367.87
435.673	14255.23
435.88	15393.9
436.087	16188.51
436.294	16168.03
436.501	16075.87
436.708	16086.11
436.915	16706.65
437.122	17544.27
437.329	17362
437.537	18013.25
437.743	18168.9
437.95	18009.15
438.157	18943.03
438.364	19790.89
438.571	19674.15
438.778	19741.74
438.985	21576.72
439.192	20319.26
439.399	21214.23
439.606	20923.41
439.813	21984.26
440.02	23497.71
440.227	23223.28
440.433	22934.52
440.64	23462.9
440.847	23419.89
441.054	24015.85
441.261	25414.61
441.467	25478.1
441.674	25725.9
441.881	26618.82
442.088	26471.36
442.294	26235.84
442.501	27089.85
442.708	27597.74
442.914	28654.5
443.121	29768.59
443.328	28916.64
443.534	31202.17
443.741	30086.03
443.948	29770.64
444.154	32174.95
444.361	32037.74
444.568	32070.51
444.774	32244.59
444.981	32328.55
445.187	33186.65
445.394	34986.82
445.6	34239.31
445.807	37389.08
446.013	36078.38
446.22	36612.9
446.426	38048.53
446.633	38073.1
446.839	40010.48
447.046	38253.33
447.252	40385.26
447.459	40170.22
447.665	39932.66
447.871	41552.6
448.078	43528.89
448.284	41515.74
448.491	42863.3
448.697	44266.16
448.903	44735.15
449.11	45333.15
449.316	44352.18
449.522	45062.82
449.728	46531.22
449.935	46901.9
450.141	46394
450.347	47792.76
450.553	46432.91
450.76	47207.04
450.966	48296.56
451.172	47866.49
451.378	48927.34
451.584	47800.96
451.791	49128.04
451.997	49420.9
452.203	49828.44
452.409	49699.42
452.615	49521.25
452.821	47659.65
453.027	47235.72
453.233	49545.83
453.44	47665.79
453.646	48036.47
453.852	48462.45
454.058	49121.9
454.264	47745.66
454.47	48630.38
454.676	47477.38
454.882	49261.16
455.088	45048.49
455.294	46006.94
455.5	46332.56
455.705	46498.45
455.911	45034.15
456.117	44071.6
456.323	43782.84
456.529	41192.16
456.735	42889.93
456.941	41906.9
457.147	41290.46
457.352	40366.83
457.558	39545.59
457.764	39994.1
457.97	38986.5
458.176	38365.96
458.381	38222.61
458.587	36440.87
458.793	36094.77
458.999	34454.34
459.204	36772.64
459.41	36111.15
459.616	33368.92
459.821	33262.43
460.027	33313.62
460.233	32600.93
460.438	30882.69
460.644	31572.85
460.85	30028.68
461.055	29756.3
461.261	29582.23
461.466	27491.25
461.672	26555.33
461.878	28449.7
462.083	26612.67
462.289	26442.69
462.494	25787.34
462.7	24761.31
462.905	24048.61
463.111	24800.22
463.316	24927.19
463.522	24187.88
463.727	24247.27
463.932	24390.63
464.138	24134.63
464.343	24488.93
464.549	23340.02
464.754	24095.72
464.959	23905.26
465.165	23804.91
465.37	22987.77
465.575	22187.01
465.781	23108.6
465.986	23491.57
466.191	22684.67
466.397	22320.13
466.602	20911.13
466.807	21847.05
467.012	21824.52
467.218	21433.36
467.423	21312.53
467.628	21183.51
467.833	22307.84
468.038	21500.94
