Data from USB4F104151__82__11-45-34-507.txt Node

Date: Fri Mar 14 11:45:34 EDT 2025
User: louis
Spectrometer: USB4F10415
Trigger mode: 4
Integration Time (sec): 2.000000E-2
Scans to average: 1
Electric dark correction enabled: true
Nonlinearity correction enabled: false
Boxcar width: 0
XAxis mode: Wavelengths
Number of Pixels in Spectrum: 3648
>>>>>Begin Spectral Data<<<<<
178.204	-9.9
178.424	-9.9
178.644	-9.9
178.864	-89.77
179.084	-122.54
179.304	-5.8
179.524	6.49
179.744	-1.71
179.964	-28.33
180.184	37.2
180.404	18.77
180.624	47.44
180.844	-40.62
181.064	-50.86
181.283	41.3
181.503	-3.75
181.723	-20.14
181.943	-77.48
182.163	22.87
182.383	24.92
182.602	-44.71
182.822	37.2
183.042	-7.85
183.262	31.06
183.482	8.53
183.701	-48.81
183.921	-50.86
184.141	8.53
184.361	-26.28
184.58	33.11
184.8	67.92
185.02	67.92
185.239	-7.85
185.459	59.73
185.679	82.26
185.898	22.87
186.118	31.06
186.338	63.83
186.557	98.64
186.777	47.44
186.997	4.44
187.216	24.92
187.436	92.5
187.655	18.77
187.875	55.64
188.095	35.16
188.314	31.06
188.534	20.82
188.753	0.34
188.973	10.58
189.192	10.58
189.412	41.3
189.631	10.58
189.851	6.49
190.07	-44.71
190.29	31.06
190.509	63.83
190.729	-22.19
190.948	37.2
191.168	119.12
191.387	47.44
191.607	6.49
191.826	14.68
192.045	20.82
192.265	33.11
192.484	10.58
192.704	35.16
192.923	-1.71
193.142	155.99
193.362	37.2
193.581	67.92
193.8	78.16
194.02	45.4
194.239	14.68
194.458	49.49
194.678	4.44
194.897	37.2
195.116	-3.75
195.335	-7.85
195.555	-7.85
195.774	-24.23
195.993	39.25
196.212	-7.85
196.432	78.16
196.651	51.54
196.87	37.2
197.089	33.11
197.308	-9.9
197.528	29.01
197.747	20.82
197.966	-46.76
198.185	-48.81
198.404	-7.85
198.623	37.2
198.842	45.4
199.062	69.97
199.281	69.97
199.5	4.44
199.719	20.82
199.938	2.39
200.157	61.78
200.376	129.36
200.595	-22.19
200.814	35.16
201.033	104.79
201.252	49.49
201.471	33.11
201.69	33.11
201.909	2.39
202.128	24.92
202.347	-5.8
202.566	-18.09
202.785	96.6
203.004	57.68
203.223	72.02
203.442	-22.19
203.661	-36.52
203.879	-7.85
204.098	8.53
204.317	-3.75
204.536	-40.62
204.755	-13.99
204.974	139.6
205.193	55.64
205.411	86.36
205.63	45.4
205.849	88.4
206.068	80.21
206.287	65.88
206.505	37.2
206.724	59.73
206.943	8.53
207.162	10.58
207.381	37.2
207.599	-16.04
207.818	57.68
208.037	53.59
208.255	2.39
208.474	61.78
208.693	80.21
208.911	61.78
209.13	0.34
209.349	45.4
209.567	45.4
209.786	29.01
210.005	-24.23
210.223	-7.85
210.442	59.73
210.661	76.12
210.879	10.58
211.098	88.4
211.316	6.49
211.535	92.5
211.753	-26.28
211.972	18.77
212.191	10.58
212.409	37.2
212.628	0.34
212.846	20.82
213.065	22.87
213.283	78.16
213.502	29.01
213.72	37.2
213.938	6.49
214.157	45.4
214.375	-22.19
214.594	43.35
214.812	-13.99
215.031	43.35
215.249	98.64
215.467	76.12
215.686	41.3
215.904	106.84
216.122	-5.8
216.341	61.78
216.559	51.54
216.778	76.12
216.996	65.88
217.214	59.73
217.432	-26.28
217.651	-3.75
217.869	-3.75
218.087	4.44
218.306	47.44
218.524	57.68
218.742	16.73
218.96	78.16
219.179	20.82
219.397	35.16
219.615	12.63
219.833	88.4
220.051	8.53
220.27	57.68
220.488	63.83
220.706	33.11
220.924	16.73
221.142	12.63
221.36	-22.19
221.578	18.77
221.796	39.25
222.015	67.92
222.233	-44.71
222.451	106.84
222.669	37.2
222.887	-9.9
223.105	49.49
223.323	98.64
223.541	33.11
223.759	82.26
223.977	96.6
224.195	20.82
224.413	49.49
224.631	4.44
224.849	12.63
225.067	20.82
225.285	10.58
225.503	-26.28
225.721	-18.09
225.939	14.68
226.157	-40.62
226.375	88.4
226.592	-28.33
226.81	-3.75
227.028	45.4
227.246	115.03
227.464	-1.71
227.682	84.31
227.9	45.4
228.117	-22.19
228.335	16.73
228.553	2.39
228.771	-20.14
228.989	59.73
229.206	-61.1
229.424	-22.19
229.642	-7.85
229.86	43.35
230.077	-73.39
230.295	-26.28
230.513	35.16
230.731	49.49
230.948	12.63
231.166	4.44
231.384	61.78
231.601	104.79
231.819	47.44
232.037	51.54
232.254	-24.23
232.472	37.2
232.689	24.92
232.907	31.06
233.125	84.31
233.342	-11.95
233.56	47.44
233.777	74.07
233.995	49.49
234.213	98.64
234.43	24.92
234.648	65.88
234.865	14.68
235.083	80.21
235.3	-30.38
235.518	20.82
235.735	82.26
235.953	94.55
236.17	127.32
236.388	-3.75
236.605	33.11
236.822	63.83
237.04	-16.04
237.257	29.01
237.475	8.53
237.692	-9.9
237.909	12.63
238.127	10.58
238.344	63.83
238.562	76.12
238.779	10.58
238.996	37.2
239.214	121.17
239.431	69.97
239.648	6.49
239.865	24.92
240.083	47.44
240.3	41.3
240.517	20.82
240.735	108.88
240.952	31.06
241.169	59.73
241.386	53.59
241.603	18.77
241.821	-85.67
242.038	45.4
242.255	-52.91
242.472	20.82
242.689	-34.47
242.907	43.35
243.124	35.16
243.341	72.02
243.558	31.06
243.775	4.44
243.992	18.77
244.209	24.92
244.426	43.35
244.643	47.44
244.86	-48.81
245.078	6.49
245.295	51.54
245.512	102.74
245.729	57.68
245.946	47.44
246.163	-5.8
246.38	63.83
246.597	-5.8
246.814	88.4
247.031	78.16
247.248	-16.04
247.464	-32.43
247.681	53.59
247.898	41.3
248.115	55.64
248.332	82.26
248.549	12.63
248.766	67.92
248.983	41.3
249.2	43.35
249.417	31.06
249.633	24.92
249.85	53.59
250.067	37.2
250.284	53.59
250.501	57.68
250.717	98.64
250.934	37.2
251.151	53.59
251.368	43.35
251.585	26.96
251.801	37.2
252.018	45.4
252.235	14.68
252.451	43.35
252.668	35.16
252.885	86.36
253.102	49.49
253.318	0.34
253.535	20.82
253.752	41.3
253.968	26.96
254.185	-44.71
254.401	26.96
254.618	45.4
254.835	20.82
255.051	55.64
255.268	80.21
255.484	61.78
255.701	-22.19
255.917	47.44
256.134	-22.19
256.351	0.34
256.567	24.92
256.784	-1.71
257	-7.85
257.217	98.64
257.433	80.21
257.65	29.01
257.866	72.02
258.082	33.11
258.299	92.5
258.515	74.07
258.732	96.6
258.948	22.87
259.165	-40.62
259.381	-7.85
259.597	-1.71
259.814	35.16
260.03	76.12
260.246	-26.28
260.463	117.08
260.679	59.73
260.895	69.97
261.112	49.49
261.328	2.39
261.544	-9.9
261.761	100.69
261.977	121.17
262.193	16.73
262.409	39.25
262.626	80.21
262.842	41.3
263.058	59.73
263.274	65.88
263.49	43.35
263.707	90.45
263.923	47.44
264.139	31.06
264.355	74.07
264.571	119.12
264.787	80.21
265.004	72.02
265.22	69.97
265.436	6.49
265.652	-54.95
265.868	84.31
266.084	-34.47
266.3	8.53
266.516	4.44
266.732	76.12
266.948	26.96
267.164	24.92
267.38	6.49
267.596	74.07
267.812	0.34
268.028	37.2
268.244	8.53
268.46	47.44
268.676	8.53
268.892	108.88
269.108	47.44
269.324	35.16
269.54	57.68
269.756	-48.81
269.972	31.06
270.188	-5.8
270.403	-75.43
270.619	37.2
270.835	-18.09
271.051	-32.43
271.267	63.83
271.483	-30.38
271.698	31.06
271.914	-1.71
272.13	24.92
272.346	16.73
272.562	12.63
272.777	47.44
272.993	47.44
273.209	47.44
273.425	49.49
273.64	-20.14
273.856	59.73
274.072	-1.71
274.287	49.49
274.503	90.45
274.719	26.96
274.934	37.2
275.15	43.35
275.366	10.58
275.581	78.16
275.797	-3.75
276.012	-16.04
276.228	-57
276.444	12.63
276.659	104.79
276.875	29.01
277.09	61.78
277.306	41.3
277.521	26.96
277.737	20.82
277.952	37.2
278.168	-3.75
278.383	39.25
278.599	41.3
278.814	31.06
279.03	63.83
279.245	76.12
279.461	90.45
279.676	4.44
279.892	6.49
280.107	-42.67
280.322	-11.95
280.538	4.44
280.753	33.11
280.969	61.78
281.184	47.44
281.399	55.64
281.615	63.83
281.83	33.11
282.045	18.77
282.26	-5.8
282.476	76.12
282.691	31.06
282.906	41.3
283.122	37.2
283.337	57.68
283.552	31.06
283.767	12.63
283.983	4.44
284.198	-16.04
284.413	121.17
284.628	-11.95
284.843	35.16
285.058	4.44
285.274	6.49
285.489	-26.28
285.704	20.82
285.919	57.68
286.134	65.88
286.349	94.55
286.564	20.82
286.779	-40.62
286.995	14.68
287.21	33.11
287.425	88.4
287.64	49.49
287.855	39.25
288.07	39.25
288.285	41.3
288.5	37.2
288.715	94.55
288.93	51.54
289.145	82.26
289.36	53.59
289.575	47.44
289.79	35.16
290.004	61.78
290.219	102.74
290.434	-16.04
290.649	86.36
290.864	43.35
291.079	41.3
291.294	26.96
291.509	20.82
291.724	29.01
291.938	-20.14
292.153	8.53
292.368	26.96
292.583	133.46
292.798	-9.9
293.012	84.31
293.227	41.3
293.442	57.68
293.657	12.63
293.871	102.74
294.086	53.59
294.301	98.64
294.516	94.55
294.73	12.63
294.945	49.49
295.16	-18.09
295.374	112.98
295.589	53.59
295.804	20.82
296.018	12.63
296.233	74.07
296.447	31.06
296.662	10.58
296.877	74.07
297.091	35.16
297.306	57.68
297.52	6.49
297.735	8.53
297.949	45.4
298.164	53.59
298.378	12.63
298.593	31.06
298.807	74.07
299.022	80.21
299.236	-3.75
299.451	53.59
299.665	-7.85
299.88	14.68
300.094	53.59
300.309	92.5
300.523	14.68
300.737	8.53
300.952	96.6
301.166	6.49
301.381	31.06
301.595	12.63
301.809	72.02
302.024	131.41
302.238	8.53
302.452	-11.95
302.667	22.87
302.881	86.36
303.095	16.73
303.309	53.59
303.524	39.25
303.738	82.26
303.952	24.92
304.166	61.78
304.381	80.21
304.595	112.98
304.809	31.06
305.023	39.25
305.237	-1.71
305.452	69.97
305.666	65.88
305.88	39.25
306.094	16.73
306.308	41.3
306.522	37.2
306.736	26.96
306.95	-22.19
307.164	43.35
307.379	80.21
307.593	100.69
307.807	49.49
308.021	74.07
308.235	69.97
308.449	-28.33
308.663	35.16
308.877	117.08
309.091	92.5
309.305	57.68
309.519	-46.76
309.733	18.77
309.947	-1.71
310.161	33.11
310.374	137.56
310.588	57.68
310.802	18.77
311.016	47.44
311.23	4.44
311.444	22.87
311.658	8.53
311.872	86.36
312.085	-7.85
312.299	96.6
312.513	22.87
312.727	26.96
312.941	55.64
313.154	20.82
313.368	12.63
313.582	49.49
313.796	55.64
314.009	96.6
314.223	96.6
314.437	82.26
314.651	72.02
314.864	55.64
315.078	53.59
315.292	72.02
315.505	29.01
315.719	92.5
315.933	92.5
316.146	67.92
316.36	8.53
316.573	108.88
316.787	55.64
317.001	16.73
317.214	78.16
317.428	51.54
317.641	76.12
317.855	6.49
318.068	76.12
318.282	88.4
318.495	72.02
318.709	127.32
318.922	53.59
319.136	69.97
319.349	94.55
319.563	55.64
319.776	69.97
319.99	33.11
320.203	18.77
320.417	51.54
320.63	41.3
320.843	78.16
321.057	98.64
321.27	10.58
321.483	22.87
321.697	-30.38
321.91	-11.95
322.124	41.3
322.337	14.68
322.55	12.63
322.763	37.2
322.977	0.34
323.19	2.39
323.403	-18.09
323.617	55.64
323.83	76.12
324.043	8.53
324.256	12.63
324.469	108.88
324.683	0.34
324.896	24.92
325.109	-26.28
325.322	-50.86
325.535	43.35
325.748	6.49
325.962	-1.71
326.175	61.78
326.388	43.35
326.601	90.45
326.814	63.83
327.027	22.87
327.24	18.77
327.453	16.73
327.666	74.07
327.879	12.63
328.092	108.88
328.305	108.88
328.518	43.35
328.731	22.87
328.944	26.96
329.157	78.16
329.37	37.2
329.583	102.74
329.796	61.78
330.009	35.16
330.222	6.49
330.435	129.36
330.648	29.01
330.861	35.16
331.073	72.02
331.286	33.11
331.499	74.07
331.712	20.82
331.925	45.4
332.138	112.98
332.35	63.83
332.563	-48.81
332.776	41.3
332.989	18.77
333.202	-7.85
333.414	31.06
333.627	43.35
333.84	12.63
334.053	63.83
334.265	-7.85
334.478	72.02
334.691	0.34
334.903	47.44
335.116	76.12
335.329	10.58
335.541	65.88
335.754	96.6
335.966	43.35
336.179	88.4
336.392	41.3
336.604	59.73
336.817	22.87
337.029	49.49
337.242	24.92
337.454	69.97
337.667	112.98
337.88	74.07
338.092	35.16
338.305	90.45
338.517	41.3
338.729	47.44
338.942	35.16
339.154	-3.75
339.367	67.92
339.579	12.63
339.792	80.21
340.004	33.11
340.217	55.64
340.429	96.6
340.641	29.01
340.854	37.2
341.066	90.45
341.278	135.51
341.491	67.92
341.703	90.45
341.915	20.82
342.128	47.44
342.34	63.83
342.552	84.31
342.764	31.06
342.977	-13.99
343.189	31.06
343.401	94.55
343.613	24.92
343.826	49.49
344.038	-26.28
344.25	88.4
344.462	149.84
344.674	37.2
344.886	16.73
345.099	69.97
345.311	63.83
345.523	76.12
345.735	-5.8
345.947	4.44
346.159	16.73
346.371	82.26
346.583	20.82
346.795	94.55
347.007	61.78
347.219	10.58
347.431	-9.9
347.643	100.69
347.855	37.2
348.067	110.93
348.279	-40.62
348.491	20.82
348.703	37.2
348.915	47.44
349.127	-48.81
349.339	84.31
349.551	14.68
349.763	45.4
349.975	31.06
350.187	-3.75
350.399	80.21
350.61	61.78
350.822	41.3
351.034	67.92
351.246	22.87
351.458	22.87
351.669	24.92
351.881	92.5
352.093	53.59
352.305	108.88
352.517	69.97
352.728	96.6
352.94	55.64
353.152	155.99
353.363	55.64
353.575	80.21
353.787	61.78
353.999	86.36
354.21	55.64
354.422	18.77
354.633	49.49
354.845	33.11
355.057	108.88
355.268	47.44
355.48	110.93
355.692	45.4
355.903	-20.14
356.115	8.53
356.326	-1.71
356.538	59.73
356.749	119.12
356.961	72.02
357.172	-26.28
357.384	41.3
357.595	76.12
357.807	35.16
358.018	-38.57
358.23	72.02
358.441	63.83
358.653	12.63
358.864	117.08
359.075	41.3
359.287	29.01
359.498	18.77
359.709	96.6
359.921	-5.8
360.132	14.68
360.344	123.22
360.555	53.59
360.766	63.83
360.977	80.21
361.189	43.35
361.4	72.02
361.611	78.16
361.823	47.44
362.034	78.16
362.245	49.49
362.456	31.06
362.667	80.21
362.879	147.8
363.09	90.45
363.301	78.16
363.512	-32.43
363.723	45.4
363.935	78.16
364.146	49.49
364.357	39.25
364.568	115.03
364.779	-28.33
364.99	98.64
365.201	45.4
365.412	67.92
365.623	65.88
365.834	55.64
366.045	-7.85
366.256	74.07
366.467	57.68
366.678	24.92
366.889	67.92
367.1	92.5
367.311	47.44
367.522	22.87
367.733	55.64
367.944	47.44
368.155	57.68
368.366	45.4
368.577	115.03
368.788	94.55
368.999	31.06
369.209	88.4
369.42	151.89
369.631	117.08
369.842	80.21
370.053	88.4
370.264	47.44
370.474	-3.75
370.685	37.2
370.896	43.35
371.107	74.07
371.317	72.02
371.528	59.73
371.739	78.16
371.95	63.83
372.16	94.55
372.371	-20.14
372.582	29.01
372.792	55.64
373.003	110.93
373.214	69.97
373.424	94.55
373.635	65.88
373.846	100.69
374.056	37.2
374.267	0.34
374.477	53.59
374.688	24.92
374.898	82.26
375.109	22.87
375.319	125.27
375.53	117.08
375.74	39.25
375.951	104.79
376.161	67.92
376.372	31.06
376.582	106.84
376.793	-1.71
377.003	39.25
377.214	51.54
377.424	-30.38
377.635	127.32
377.845	12.63
378.055	82.26
378.266	4.44
378.476	51.54
378.686	88.4
378.897	86.36
379.107	84.31
379.317	82.26
379.528	90.45
379.738	-11.95
379.948	-1.71
380.158	135.51
380.369	61.78
380.579	24.92
380.789	55.64
380.999	88.4
381.21	-11.95
381.42	108.88
381.63	88.4
381.84	76.12
382.05	72.02
382.261	47.44
382.471	33.11
382.681	115.03
382.891	45.4
383.101	80.21
383.311	69.97
383.521	137.56
383.731	106.84
383.941	121.17
384.151	45.4
384.361	51.54
384.571	35.16
384.781	149.84
384.991	26.96
385.201	10.58
385.411	16.73
385.621	76.12
385.831	65.88
386.041	76.12
386.251	92.5
386.461	45.4
386.671	90.45
386.881	35.16
387.091	76.12
387.301	-7.85
387.511	127.32
387.72	65.88
387.93	88.4
388.14	-11.95
388.35	78.16
388.56	41.3
388.769	-20.14
388.979	59.73
389.189	84.31
389.399	49.49
389.609	63.83
389.818	145.75
390.028	16.73
390.238	94.55
390.447	-16.04
390.657	45.4
390.867	53.59
391.076	98.64
391.286	72.02
391.496	22.87
391.705	92.5
391.915	72.02
392.125	33.11
392.334	53.59
392.544	137.56
392.753	57.68
392.963	100.69
393.172	115.03
393.382	26.96
393.591	108.88
393.801	41.3
394.01	180.56
394.22	158.03
394.429	110.93
394.639	78.16
394.848	53.59
395.058	26.96
395.267	31.06
395.477	94.55
395.686	24.92
395.895	82.26
396.105	162.13
396.314	133.46
396.524	129.36
396.733	63.83
396.942	164.18
397.152	80.21
397.361	137.56
397.57	43.35
397.78	119.12
397.989	69.97
398.198	164.18
398.407	100.69
398.617	96.6
398.826	76.12
399.035	78.16
399.244	82.26
399.453	106.84
399.663	117.08
399.872	143.7
400.081	145.75
400.29	94.55
400.499	106.84
400.708	115.03
400.917	149.84
401.127	153.94
401.336	108.88
401.545	125.27
401.754	155.99
401.963	102.74
402.172	100.69
402.381	221.52
402.59	153.94
402.799	86.36
403.008	172.37
403.217	84.31
403.426	108.88
403.635	153.94
403.844	129.36
404.053	149.84
404.262	96.6
404.471	110.93
404.68	53.59
404.888	178.51
405.097	186.71
405.306	149.84
405.515	194.9
405.724	151.89
405.933	149.84
406.142	147.8
406.35	211.28
406.559	254.29
406.768	145.75
406.977	250.19
407.185	229.71
407.394	201.04
407.603	229.71
407.812	246.1
408.02	184.66
408.229	262.48
408.438	223.57
408.646	158.03
408.855	244.05
409.064	213.33
409.272	258.39
409.481	352.59
409.69	278.87
409.898	323.92
410.107	330.06
410.315	340.3
410.524	334.16
410.733	389.46
410.941	340.3
411.15	389.46
411.358	428.37
411.567	348.5
411.775	434.51
411.984	467.28
412.192	551.24
412.401	483.66
412.609	465.23
412.818	477.52
413.026	500.05
413.234	547.15
413.443	530.77
413.651	610.64
413.86	700.75
414.068	633.16
414.276	727.37
414.485	655.69
414.693	643.4
414.901	790.86
415.11	751.95
415.318	698.7
415.526	790.86
415.734	835.91
415.943	909.64
416.151	938.31
416.359	921.93
416.567	917.83
416.776	928.07
416.984	1018.18
417.192	1030.47
417.4	1102.15
417.608	999.75
417.817	1192.26
418.025	1169.73
418.233	1360.19
418.441	1222.98
418.649	1206.59
418.857	1417.54
419.065	1392.96
419.273	1386.82
419.481	1483.07
419.689	1620.28
419.897	1665.34
420.105	1759.55
420.313	1765.69
420.521	1696.06
420.729	1773.88
420.937	1804.6
421.145	1950.01
421.353	2076.98
421.561	2027.83
421.769	2185.52
421.977	2240.82
422.185	2185.52
422.393	2316.59
422.601	2474.29
422.809	2459.95
423.017	2427.18
423.224	2535.73
423.432	2654.51
423.64	2789.67
423.848	2871.59
424.056	2892.07
424.263	3092.77
424.471	3053.86
424.679	3227.94
424.887	3356.96
425.094	3471.65
425.302	3473.7
425.51	3498.27
425.718	3651.87
425.925	3713.31
426.133	3801.37
426.341	4141.33
426.548	4268.31
426.756	4196.63
426.964	4342.04
427.171	4464.91
427.379	4784.4
427.586	4671.76
427.794	4845.84
428.001	5091.59
428.209	5286.15
428.417	5337.35
428.624	5693.69
428.832	5665.02
429.039	5652.74
429.247	5548.29
429.454	6123.77
429.662	6531.31
429.869	6150.39
430.076	6412.53
430.284	6240.5
430.491	6574.32
430.699	7053.55
430.906	7078.12
431.114	7014.63
431.321	7354.6
431.528	7649.5
431.736	7844.06
431.943	8411.35
432.15	8100.06
432.358	8220.89
432.565	8751.31
432.772	8489.17
432.979	9119.95
433.187	9167.05
433.394	9355.46
433.601	9896.13
433.808	10025.15
434.016	9926.85
434.223	10156.22
434.43	10991.79
434.637	10715.31
434.844	11333.8
435.052	11733.15
435.259	11552.93
435.466	11761.83
435.673	11643.04
435.88	12353.69
436.087	12871.82
436.294	12763.28
436.501	12644.5
436.708	12630.16
436.915	13408.39
437.122	13779.08
437.329	13752.45
437.537	14274.68
437.743	14712.95
437.95	14405.75
438.157	14934.13
438.364	15790.18
438.571	15634.53
438.778	15544.42
438.985	17414.22
439.192	16574.55
439.399	17043.54
439.606	16730.2
439.813	17821.77
440.02	18829.37
440.227	18272.32
440.433	18288.7
440.64	18722.87
440.847	18647.1
441.054	19140.66
441.261	20477.98
441.467	20197.41
441.674	20594.72
441.881	21209.11
442.088	21557.26
442.294	20977.69
442.501	21944.33
442.708	22050.82
442.914	22794.23
443.121	24309.73
443.328	23541.74
443.534	24936.41
443.741	24031.21
443.948	23695.34
444.154	25925.58
444.361	25538.51
444.568	25782.22
444.774	25675.73
444.981	26148.81
445.187	26589.12
445.394	28037.03
445.6	27473.84
445.807	30146.44
446.013	28764.06
446.22	29429.65
446.426	30801.79
446.633	30926.72
446.839	31811.44
447.046	30441.35
447.252	32016.24
447.459	32049
447.665	31838.06
447.871	33349.46
448.078	34856.77
448.284	33355.61
448.491	33560.41
448.697	35747.64
448.903	36245.29
449.11	36142.89
449.316	35678
449.522	36450.09
449.728	37209.89
449.935	37560.09
450.141	37267.23
450.347	38713.09
450.553	37670.68
450.76	37527.32
450.966	38758.15
451.172	38135.57
451.378	39446.27
451.584	38745.86
451.791	39857.91
451.997	39329.53
452.203	40302.32
452.409	40007.41
452.615	40314.61
452.821	38240.01
453.027	37992.21
453.233	40275.69
453.44	38287.12
453.646	38985.47
453.852	39728.89
454.058	39796.47
454.264	37961.49
454.47	39184.13
454.676	38254.35
454.882	39558.91
455.088	35956.53
455.294	36622.12
455.5	37580.57
455.705	38045.46
455.911	36411.18
456.117	35567.41
456.323	35018.56
456.529	33216.35
456.735	34545.48
456.941	33806.16
457.147	33275.74
457.352	32423.78
457.558	32098.16
457.764	31971.18
457.97	31403.89
458.176	30439.3
458.381	30713.73
458.587	29247.38
458.793	29597.59
458.999	27729.84
459.204	29738.9
459.41	28692.38
459.616	27207.61
459.821	26992.57
460.027	26843.07
460.233	26363.84
460.438	25114.58
460.644	25386.96
460.85	24023.01
461.055	23838.7
461.261	23695.34
461.466	22149.12
461.672	21209.11
461.878	22859.77
462.083	21393.42
462.289	20959.25
462.494	20641.82
462.7	19875.88
462.905	19445.8
463.111	19800.1
463.316	19914.79
463.522	19517.48
463.727	19525.68
463.932	19429.42
464.138	19054.64
464.343	19482.67
464.549	18718.78
464.754	19288.11
464.959	19068.98
465.165	19191.86
465.37	18544.7
465.575	17987.65
465.781	18659.38
465.986	18960.44
466.191	18425.92
466.397	17520.71
466.602	16703.57
466.807	17238.09
467.012	17655.88
467.218	17334.35
467.423	17045.59
467.628	17379.4
467.833	18012.23
468.038	17266.77
468.244	16527.45
