Data from USB4F104151__75__12-54-40-265.txt Node

Date: Fri Mar 14 12:54:40 EDT 2025
User: louis
Spectrometer: USB4F10415
Trigger mode: 4
Integration Time (sec): 1.000000E-2
Scans to average: 1
Electric dark correction enabled: true
Nonlinearity correction enabled: false
Boxcar width: 0
XAxis mode: Wavelengths
Number of Pixels in Spectrum: 3648
>>>>>Begin Spectral Data<<<<<
178.204	-43.01
178.424	-43.01
178.644	-43.01
178.864	-96.25
179.084	-26.62
179.304	38.91
179.524	-43.01
179.744	10.24
179.964	36.86
180.184	-16.38
180.404	16.38
180.624	32.77
180.844	-16.38
181.064	-12.29
181.283	-28.67
181.503	-36.86
181.723	18.43
181.943	-26.62
182.163	14.34
182.383	26.62
182.602	24.58
182.822	-34.82
183.042	36.86
183.262	-43.01
183.482	30.72
183.701	-34.82
183.921	-4.1
184.141	8.19
184.361	-30.72
184.58	20.48
184.8	8.19
185.02	12.29
185.239	43.01
185.459	4.1
185.679	79.87
185.898	51.2
186.118	-24.58
186.338	-20.48
186.557	67.58
186.777	-22.53
186.997	38.91
187.216	38.91
187.436	-16.38
187.655	75.77
187.875	110.59
188.095	-77.82
188.314	47.1
188.534	26.62
188.753	98.3
188.973	24.58
189.192	63.49
189.412	-10.24
189.631	-8.19
189.851	-34.82
190.07	24.58
190.29	-2.05
190.509	45.06
190.729	-20.48
190.948	14.34
191.168	83.97
191.387	10.24
191.607	-38.91
191.826	-2.05
192.045	-26.62
192.265	20.48
192.484	43.01
192.704	30.72
192.923	-6.14
193.142	-16.38
193.362	-8.19
193.581	0
193.8	-18.43
194.02	47.1
194.239	-12.29
194.458	-16.38
194.678	-53.25
194.897	-2.05
195.116	63.49
195.335	30.72
195.555	-12.29
195.774	47.1
195.993	6.14
196.212	22.53
196.432	14.34
196.651	8.19
196.87	24.58
197.089	-12.29
197.308	77.82
197.528	-20.48
197.747	32.77
197.966	-36.86
198.185	26.62
198.404	34.82
198.623	-30.72
198.842	38.91
199.062	34.82
199.281	49.15
199.5	-8.19
199.719	-38.91
199.938	-14.34
200.157	30.72
200.376	-38.91
200.595	18.43
200.814	20.48
201.033	22.53
201.252	-38.91
201.471	-73.73
201.69	-40.96
201.909	0
202.128	-63.49
202.347	-28.67
202.566	4.1
202.785	38.91
203.004	-10.24
203.223	34.82
203.442	106.49
203.661	32.77
203.879	-43.01
204.098	88.06
204.317	75.77
204.536	20.48
204.755	6.14
204.974	67.58
205.193	71.68
205.411	38.91
205.63	86.01
205.849	71.68
206.068	-34.82
206.287	10.24
206.505	0
206.724	8.19
206.943	-14.34
207.162	59.39
207.381	-10.24
207.599	12.29
207.818	-26.62
208.037	22.53
208.255	-28.67
208.474	36.86
208.693	-55.3
208.911	-63.49
209.13	24.58
209.349	63.49
209.567	-28.67
209.786	47.1
210.005	32.77
210.223	22.53
210.442	53.25
210.661	-65.54
210.879	-12.29
211.098	55.3
211.316	-36.86
211.535	-18.43
211.753	-12.29
211.972	14.34
212.191	-8.19
212.409	6.14
212.628	10.24
212.846	43.01
213.065	22.53
213.283	63.49
213.502	43.01
213.72	20.48
213.938	8.19
214.157	67.58
214.375	-18.43
214.594	-8.19
214.812	73.73
215.031	-40.96
215.249	14.34
215.467	16.38
215.686	63.49
215.904	-22.53
216.122	32.77
216.341	-53.25
216.559	-24.58
216.778	47.1
216.996	59.39
217.214	-22.53
217.432	2.05
217.651	-47.1
217.869	-30.72
218.087	49.15
218.306	-22.53
218.524	16.38
218.742	-40.96
218.96	26.62
219.179	-16.38
219.397	10.24
219.615	79.87
219.833	49.15
220.051	-30.72
220.27	32.77
220.488	2.05
220.706	-6.14
220.924	49.15
221.142	10.24
221.36	-53.25
221.578	38.91
221.796	30.72
222.015	10.24
222.233	51.2
222.451	12.29
222.669	10.24
222.887	112.64
223.105	-26.62
223.323	26.62
223.541	-20.48
223.759	6.14
223.977	88.06
224.195	47.1
224.413	-49.15
224.631	0
224.849	34.82
225.067	61.44
225.285	18.43
225.503	43.01
225.721	34.82
225.939	67.58
226.157	-75.77
226.375	55.3
226.592	-30.72
226.81	6.14
227.028	-32.77
227.246	32.77
227.464	-10.24
227.682	22.53
227.9	-26.62
228.117	-28.67
228.335	2.05
228.553	8.19
228.771	79.87
228.989	20.48
229.206	43.01
229.424	43.01
229.642	-38.91
229.86	4.1
230.077	10.24
230.295	36.86
230.513	32.77
230.731	28.67
230.948	43.01
231.166	8.19
231.384	43.01
231.601	12.29
231.819	18.43
232.037	-43.01
232.254	-34.82
232.472	28.67
232.689	18.43
232.907	18.43
233.125	-59.39
233.342	-30.72
233.56	16.38
233.777	40.96
233.995	-14.34
234.213	18.43
234.43	-22.53
234.648	106.49
234.865	14.34
235.083	10.24
235.3	16.38
235.518	-4.1
235.735	-30.72
235.953	-4.1
236.17	-16.38
236.388	-55.3
236.605	-32.77
236.822	20.48
237.04	-14.34
237.257	16.38
237.475	4.1
237.692	4.1
237.909	12.29
238.127	-28.67
238.344	-12.29
238.562	40.96
238.779	-59.39
238.996	20.48
239.214	-18.43
239.431	65.53
239.648	-22.53
239.865	28.67
240.083	-2.05
240.3	-2.05
240.517	40.96
240.735	67.58
240.952	40.96
241.169	69.63
241.386	12.29
241.603	18.43
241.821	-43.01
242.038	49.15
242.255	2.05
242.472	-32.77
242.689	40.96
242.907	55.3
243.124	18.43
243.341	77.82
243.558	57.34
243.775	26.62
243.992	4.1
244.209	-10.24
244.426	51.2
244.643	26.62
244.86	79.87
245.078	92.16
245.295	-14.34
245.512	12.29
245.729	-49.15
245.946	71.68
246.163	-16.38
246.38	2.05
246.597	36.86
246.814	83.97
247.031	45.06
247.248	2.05
247.464	2.05
247.681	77.82
247.898	18.43
248.115	-63.49
248.332	-18.43
248.549	30.72
248.766	22.53
248.983	63.49
249.2	-26.62
249.417	40.96
249.633	32.77
249.85	57.34
250.067	-6.14
250.284	-36.86
250.501	26.62
250.717	-28.67
250.934	38.91
251.151	49.15
251.368	-20.48
251.585	49.15
251.801	-63.49
252.018	6.14
252.235	-43.01
252.451	55.3
252.668	-57.34
252.885	6.14
253.102	57.34
253.318	-14.34
253.535	81.92
253.752	47.1
253.968	12.29
254.185	-45.06
254.401	59.39
254.618	36.86
254.835	96.25
255.051	43.01
255.268	-10.24
255.484	98.3
255.701	-4.1
255.917	20.48
256.134	-2.05
256.351	24.58
256.567	71.68
256.784	98.3
257	-59.39
257.217	28.67
257.433	49.15
257.65	61.44
257.866	6.14
258.082	-20.48
258.299	30.72
258.515	47.1
258.732	12.29
258.948	14.34
259.165	47.1
259.381	73.73
259.597	-4.1
259.814	-61.44
260.03	81.92
260.246	-34.82
260.463	30.72
260.679	38.91
260.895	16.38
261.112	63.49
261.328	12.29
261.544	-18.43
261.761	104.45
261.977	4.1
262.193	6.14
262.409	-47.1
262.626	-4.1
262.842	88.06
263.058	45.06
263.274	2.05
263.49	-49.15
263.707	100.35
263.923	-45.06
264.139	61.44
264.355	-32.77
264.571	32.77
264.787	-18.43
265.004	38.91
265.22	8.19
265.436	36.86
265.652	51.2
265.868	43.01
266.084	-45.06
266.3	-10.24
266.516	-22.53
266.732	-20.48
266.948	59.39
267.164	98.3
267.38	-28.67
267.596	-40.96
267.812	53.25
268.028	32.77
268.244	26.62
268.46	0
268.676	-16.38
268.892	22.53
269.108	51.2
269.324	-2.05
269.54	-24.58
269.756	-8.19
269.972	43.01
270.188	65.53
270.403	-26.62
270.619	51.2
270.835	63.49
271.051	20.48
271.267	67.58
271.483	18.43
271.698	-32.77
271.914	22.53
272.13	16.38
272.346	24.58
272.562	-36.86
272.777	57.34
272.993	-12.29
273.209	118.78
273.425	26.62
273.64	30.72
273.856	2.05
274.072	6.14
274.287	47.1
274.503	65.53
274.719	63.49
274.934	38.91
275.15	-34.82
275.366	-2.05
275.581	-14.34
275.797	34.82
276.012	43.01
276.228	-22.53
276.444	-18.43
276.659	43.01
276.875	-36.86
277.09	55.3
277.306	0
277.521	65.53
277.737	43.01
277.952	10.24
278.168	-2.05
278.383	12.29
278.599	59.39
278.814	-14.34
279.03	36.86
279.245	112.64
279.461	-6.14
279.676	32.77
279.892	-20.48
280.107	6.14
280.322	-8.19
280.538	16.38
280.753	83.97
280.969	77.82
281.184	-26.62
281.399	30.72
281.615	77.82
281.83	112.64
282.045	47.1
282.26	-26.62
282.476	30.72
282.691	28.67
282.906	43.01
283.122	53.25
283.337	-47.1
283.552	-8.19
283.767	-10.24
283.983	0
284.198	-40.96
284.413	-67.58
284.628	-51.2
284.843	61.44
285.058	6.14
285.274	32.77
285.489	-38.91
285.704	-6.14
285.919	45.06
286.134	-22.53
286.349	-69.63
286.564	0
286.779	30.72
286.995	-34.82
287.21	-6.14
287.425	20.48
287.64	22.53
287.855	24.58
288.07	-16.38
288.285	-14.34
288.5	4.1
288.715	51.2
288.93	40.96
289.145	-75.77
289.36	8.19
289.575	40.96
289.79	24.58
290.004	63.49
290.219	49.15
290.434	51.2
290.649	55.3
290.864	6.14
291.079	-67.58
291.294	-43.01
291.509	-8.19
291.724	47.1
291.938	-12.29
292.153	83.97
292.368	-47.1
292.583	-28.67
292.798	-49.15
293.012	47.1
293.227	65.53
293.442	-49.15
293.657	22.53
293.871	16.38
294.086	22.53
294.301	57.34
294.516	40.96
294.73	36.86
294.945	30.72
295.16	-32.77
295.374	43.01
295.589	43.01
295.804	-22.53
296.018	16.38
296.233	14.34
296.447	-2.05
296.662	4.1
296.877	-67.58
297.091	32.77
297.306	24.58
297.52	12.29
297.735	18.43
297.949	12.29
298.164	30.72
298.378	14.34
298.593	73.73
298.807	45.06
299.022	-51.2
299.236	6.14
299.451	10.24
299.665	-10.24
299.88	20.48
300.094	0
300.309	-24.58
300.523	49.15
300.737	55.3
300.952	-6.14
301.166	14.34
301.381	43.01
301.595	-34.82
301.809	0
302.024	69.63
302.238	-79.87
302.452	40.96
302.667	40.96
302.881	-10.24
303.095	6.14
303.309	75.77
303.524	24.58
303.738	-12.29
303.952	-4.1
304.166	30.72
304.381	-28.67
304.595	28.67
304.809	-30.72
305.023	30.72
305.237	-8.19
305.452	-6.14
305.666	16.38
305.88	65.53
306.094	67.58
306.308	-14.34
306.522	-40.96
306.736	0
306.95	55.3
307.164	6.14
307.379	10.24
307.593	67.58
307.807	20.48
308.021	-6.14
308.235	63.49
308.449	20.48
308.663	-16.38
308.877	16.38
309.091	49.15
309.305	77.82
309.519	-10.24
309.733	24.58
309.947	-18.43
310.161	-73.73
310.374	18.43
310.588	61.44
310.802	45.06
311.016	-26.62
311.23	-12.29
311.444	6.14
311.658	24.58
311.872	18.43
312.085	16.38
312.299	75.77
312.513	73.73
312.727	14.34
312.941	-30.72
313.154	43.01
313.368	6.14
313.582	32.77
313.796	-16.38
314.009	-4.1
314.223	34.82
314.437	8.19
314.651	-22.53
314.864	16.38
315.078	16.38
315.292	96.25
315.505	14.34
315.719	-8.19
315.933	-38.91
316.146	26.62
316.36	22.53
316.573	49.15
316.787	6.14
317.001	57.34
317.214	49.15
317.428	96.25
317.641	-10.24
317.855	12.29
318.068	61.44
318.282	32.77
318.495	53.25
318.709	22.53
318.922	24.58
319.136	108.54
319.349	8.19
319.563	-22.53
319.776	18.43
319.99	61.44
320.203	36.86
320.417	-43.01
320.63	77.82
320.843	2.05
321.057	63.49
321.27	18.43
321.483	-14.34
321.697	36.86
321.91	-18.43
322.124	8.19
322.337	20.48
322.55	51.2
322.763	-51.2
322.977	36.86
323.19	28.67
323.403	32.77
323.617	-22.53
323.83	14.34
324.043	38.91
324.256	26.62
324.469	-30.72
324.683	26.62
324.896	-20.48
325.109	-10.24
325.322	-2.05
325.535	45.06
325.748	16.38
325.962	26.62
326.175	30.72
326.388	43.01
326.601	53.25
326.814	-24.58
327.027	32.77
327.24	49.15
327.453	57.34
327.666	-75.77
327.879	32.77
328.092	6.14
328.305	-47.1
328.518	47.1
328.731	24.58
328.944	96.25
329.157	22.53
329.37	-8.19
329.583	67.58
329.796	-12.29
330.009	40.96
330.222	-30.72
330.435	16.38
330.648	-10.24
330.861	22.53
331.073	0
331.286	8.19
331.499	43.01
331.712	-61.44
331.925	6.14
332.138	16.38
332.35	-8.19
332.563	8.19
332.776	59.39
332.989	-20.48
333.202	-2.05
333.414	-6.14
333.627	-18.43
333.84	-40.96
334.053	14.34
334.265	-2.05
334.478	67.58
334.691	0
334.903	26.62
335.116	-36.86
335.329	116.73
335.541	-16.38
335.754	20.48
335.966	-28.67
336.179	-55.3
336.392	-20.48
336.604	51.2
336.817	26.62
337.029	14.34
337.242	16.38
337.454	-28.67
337.667	4.1
337.88	12.29
338.092	34.82
338.305	-47.1
338.517	-26.62
338.729	36.86
338.942	-28.67
339.154	40.96
339.367	47.1
339.579	24.58
339.792	49.15
340.004	38.91
340.217	-16.38
340.429	51.2
340.641	30.72
340.854	-12.29
341.066	49.15
341.278	20.48
341.491	53.25
341.703	24.58
341.915	-8.19
342.128	32.77
342.34	53.25
342.552	10.24
342.764	14.34
342.977	-26.62
343.189	16.38
343.401	49.15
343.613	34.82
343.826	14.34
344.038	8.19
344.25	28.67
344.462	-24.58
344.674	65.53
344.886	-43.01
345.099	-24.58
345.311	18.43
345.523	32.77
345.735	-22.53
345.947	-20.48
346.159	51.2
346.371	6.14
346.583	16.38
346.795	38.91
347.007	71.68
347.219	30.72
347.431	8.19
347.643	69.63
347.855	-2.05
348.067	88.06
348.279	-67.58
348.491	120.83
348.703	49.15
348.915	-10.24
349.127	-10.24
349.339	-59.39
349.551	73.73
349.763	73.73
349.975	-69.63
350.187	45.06
350.399	36.86
350.61	30.72
350.822	-26.62
351.034	32.77
351.246	-16.38
351.458	49.15
351.669	-32.77
351.881	47.1
352.093	65.53
352.305	30.72
352.517	69.63
352.728	43.01
352.94	-36.86
353.152	26.62
353.363	2.05
353.575	26.62
353.787	34.82
353.999	-14.34
354.21	38.91
354.422	34.82
354.633	-14.34
354.845	67.58
355.057	61.44
355.268	2.05
355.48	45.06
355.692	-24.58
355.903	-22.53
356.115	96.25
356.326	45.06
356.538	14.34
356.749	6.14
356.961	49.15
357.172	-26.62
357.384	77.82
357.595	53.25
357.807	14.34
358.018	57.34
358.23	61.44
358.441	43.01
358.653	75.77
358.864	-6.14
359.075	20.48
359.287	38.91
359.498	22.53
359.709	67.58
359.921	22.53
360.132	55.3
360.344	49.15
360.555	6.14
360.766	-12.29
360.977	-18.43
361.189	40.96
361.4	-71.68
361.611	22.53
361.823	59.39
362.034	32.77
362.245	-32.77
362.456	34.82
362.667	24.58
362.879	2.05
363.09	40.96
363.301	32.77
363.512	4.1
363.723	38.91
363.935	59.39
364.146	36.86
364.357	32.77
364.568	79.87
364.779	-12.29
364.99	-16.38
365.201	-2.05
365.412	65.53
365.623	-24.58
365.834	61.44
366.045	4.1
366.256	26.62
366.467	47.1
366.678	79.87
366.889	-8.19
367.1	14.34
367.311	43.01
367.522	75.77
367.733	-16.38
367.944	69.63
368.155	38.91
368.366	51.2
368.577	-69.63
368.788	-10.24
368.999	24.58
369.209	18.43
369.42	53.25
369.631	55.3
369.842	43.01
370.053	-36.86
370.264	0
370.474	-18.43
370.685	43.01
370.896	10.24
371.107	40.96
371.317	36.86
371.528	-12.29
371.739	47.1
371.95	-43.01
372.16	-32.77
372.371	-4.1
372.582	-32.77
372.792	53.25
373.003	45.06
373.214	63.49
373.424	0
373.635	2.05
373.846	26.62
374.056	8.19
374.267	-8.19
374.477	81.92
374.688	45.06
374.898	-6.14
375.109	16.38
375.319	4.1
375.53	-4.1
375.74	-14.34
375.951	-63.49
376.161	65.53
376.372	-6.14
376.582	-51.2
376.793	67.58
377.003	22.53
377.214	43.01
377.424	55.3
377.635	55.3
377.845	45.06
378.055	30.72
378.266	10.24
378.476	79.87
378.686	32.77
378.897	-26.62
379.107	-20.48
379.317	12.29
379.528	-32.77
379.738	51.2
379.948	-30.72
380.158	55.3
380.369	45.06
380.579	12.29
380.789	51.2
380.999	40.96
381.21	49.15
381.42	10.24
381.63	-8.19
381.84	45.06
382.05	47.1
382.261	131.07
382.471	63.49
382.681	4.1
382.891	28.67
383.101	4.1
383.311	47.1
383.521	-51.2
383.731	-49.15
383.941	28.67
384.151	47.1
384.361	6.14
384.571	6.14
384.781	34.82
384.991	57.34
385.201	-34.82
385.411	34.82
385.621	-26.62
385.831	4.1
386.041	28.67
386.251	40.96
386.461	65.53
386.671	47.1
386.881	73.73
387.091	12.29
387.301	-30.72
387.511	28.67
387.72	38.91
387.93	22.53
388.14	-2.05
388.35	16.38
388.56	51.2
388.769	16.38
388.979	36.86
389.189	16.38
389.399	26.62
389.609	49.15
389.818	51.2
390.028	43.01
390.238	-2.05
390.447	40.96
390.657	55.3
390.867	-26.62
391.076	-24.58
391.286	-51.2
391.496	-18.43
391.705	26.62
391.915	92.16
392.125	47.1
392.334	-6.14
392.544	108.54
392.753	28.67
392.963	20.48
393.172	83.97
393.382	36.86
393.591	47.1
393.801	38.91
394.01	79.87
394.22	55.3
394.429	43.01
394.639	-18.43
394.848	59.39
395.058	8.19
395.267	61.44
395.477	24.58
395.686	32.77
395.895	0
396.105	22.53
396.314	-20.48
396.524	32.77
396.733	0
396.942	32.77
397.152	102.4
397.361	8.19
397.57	22.53
397.78	61.44
397.989	73.73
398.198	49.15
398.407	-2.05
398.617	43.01
398.826	12.29
399.035	100.35
399.244	45.06
399.453	65.53
399.663	40.96
399.872	61.44
400.081	-4.1
400.29	63.49
400.499	61.44
400.708	161.79
400.917	43.01
401.127	-6.14
401.336	77.82
401.545	112.64
401.754	63.49
401.963	53.25
402.172	81.92
402.381	26.62
402.59	24.58
402.799	6.14
403.008	43.01
403.217	24.58
403.426	14.34
403.635	-8.19
403.844	77.82
404.053	38.91
404.262	53.25
404.471	108.54
404.68	100.35
404.888	73.73
405.097	51.2
405.306	43.01
405.515	61.44
405.724	63.49
405.933	38.91
406.142	32.77
406.35	51.2
406.559	43.01
406.768	131.07
406.977	73.73
407.185	61.44
407.394	81.92
407.603	126.97
407.812	81.92
408.02	36.86
408.229	55.3
408.438	51.2
408.646	63.49
408.855	34.82
409.064	112.64
409.272	102.4
409.481	96.25
409.69	131.07
409.898	75.77
410.107	184.32
410.315	176.13
410.524	100.35
410.733	118.78
410.941	67.58
411.15	100.35
411.358	147.45
411.567	131.07
411.775	204.8
411.984	251.9
412.192	223.23
412.401	165.89
412.609	202.75
412.818	260.09
413.026	163.84
413.234	190.46
413.443	145.41
413.651	212.99
413.86	215.04
414.068	301.05
414.276	229.37
414.485	282.62
414.693	350.2
414.901	317.44
415.11	327.67
415.318	329.72
415.526	327.67
415.734	290.81
415.943	344.06
416.151	385.02
416.359	317.44
416.567	403.45
416.776	356.35
416.984	401.4
417.192	378.87
417.4	481.27
417.608	557.05
417.817	483.32
418.025	483.32
418.233	518.14
418.441	561.14
418.649	501.75
418.857	557.05
419.065	626.68
419.273	557.05
419.481	598.01
419.689	573.43
419.897	655.35
420.105	663.54
420.313	673.78
420.521	733.17
420.729	782.32
420.937	784.37
421.145	798.71
421.353	782.32
421.561	825.33
421.769	913.39
421.977	937.97
422.185	921.59
422.393	1013.74
422.601	1001.46
422.809	1017.84
423.017	1001.46
423.224	942.07
423.432	1075.18
423.64	1091.57
423.848	1259.5
424.056	1196.01
424.263	1325.04
424.471	1286.12
424.679	1202.16
424.887	1396.71
425.094	1357.8
425.302	1388.52
425.51	1458.15
425.718	1542.12
425.925	1441.77
426.133	1593.32
426.341	1578.98
426.548	1748.97
426.756	1748.97
426.964	1816.55
427.171	1871.84
427.379	1832.93
427.586	1978.34
427.794	1992.67
428.001	2107.36
428.209	2297.82
428.417	2176.99
428.624	2279.39
428.832	2176.99
429.039	2267.1
429.247	2269.15
429.454	2559.96
429.662	2621.4
429.869	2598.87
430.076	2596.82
430.284	2584.54
430.491	2666.46
430.699	2904.02
430.906	2756.57
431.114	2856.92
431.321	2971.6
431.528	3129.3
431.736	3286.99
431.943	3442.64
432.15	3268.56
432.358	3338.19
432.565	3534.79
432.772	3538.89
432.979	3702.73
433.187	3743.69
433.394	3829.7
433.601	4009.92
433.808	4042.69
434.016	4022.21
434.223	4163.52
434.43	4396.99
434.637	4368.32
434.844	4528.06
435.052	4745.14
435.259	4796.34
435.466	4829.11
435.673	4763.58
435.88	4894.65
436.087	5332.91
436.294	5269.42
436.501	5232.56
436.708	5406.64
436.915	5408.69
437.122	5685.16
437.329	5758.89
437.537	5777.32
437.743	5830.57
437.95	6109.09
438.157	6143.91
438.364	6477.73
438.571	6420.38
438.778	6635.42
438.985	7014.29
439.192	6899.61
439.399	6979.48
439.606	7018.39
439.813	7133.08
440.02	7581.58
440.227	7636.88
440.433	7436.17
440.64	7614.35
440.847	7628.68
441.054	7864.2
441.261	8478.59
441.467	8408.96
441.674	8337.28
441.881	8746.87
442.088	8650.62
442.294	8634.24
442.501	8920.95
442.708	9092.98
442.914	9557.87
443.121	9891.69
443.328	9764.72
443.534	10221.41
443.741	9998.18
443.948	9822.06
444.154	10667.87
444.361	10499.94
444.568	10663.77
444.774	10661.73
444.981	10714.97
445.187	11093.85
445.394	11347.79
445.6	11239.25
445.807	12650.3
446.013	11792.2
446.22	12193.61
446.426	12695.36
446.633	12746.56
446.839	13223.73
447.046	12574.53
447.252	13252.41
447.459	13322.04
447.665	13588.27
447.871	14081.83
448.078	14798.62
448.284	13932.33
448.491	14423.84
448.697	14640.93
448.903	14980.89
449.11	15146.78
449.316	14651.17
449.522	15220.5
449.728	15480.6
449.935	16037.64
450.141	16004.88
450.347	16240.39
450.553	15566.61
450.76	15888.14
450.966	16211.72
451.172	16183.05
451.378	16471.81
451.584	16197.38
451.791	16506.63
451.997	16357.13
452.203	16967.42
452.409	16928.51
452.615	16799.49
452.821	16135.95
453.027	15871.76
453.233	17051.39
453.44	16252.68
453.646	16154.38
453.852	16439.05
454.058	16738.05
454.264	16269.06
454.47	16686.85
454.676	16064.27
454.882	16787.2
455.088	15279.89
455.294	15644.43
455.5	15626
455.705	15849.23
455.911	15376.15
456.117	14917.4
456.323	14894.88
456.529	13958.95
456.735	14620.45
456.941	14405.41
457.147	14016.3
457.352	13467.44
457.558	13602.61
457.764	13461.3
457.97	13117.24
458.176	12973.88
458.381	12838.72
458.587	12345.16
458.793	12441.41
458.999	11415.38
459.204	12087.11
459.41	12080.97
459.616	11382.61
459.821	11337.56
460.027	11339.6
460.233	10958.68
460.438	10477.41
460.644	10534.75
460.85	10082.15
461.055	10155.88
461.261	10057.57
461.466	8949.62
461.672	8988.53
461.878	9613.17
462.083	8906.62
462.289	8667
462.494	8554.37
462.7	8167.3
462.905	7962.5
463.111	8120.2
463.316	8423.3
463.522	8009.61
463.727	8138.63
463.932	8183.68
464.138	8075.14
464.343	8157.06
464.549	8095.62
464.754	8271.75
464.959	8085.38
465.165	8036.23
465.37	7622.54
465.575	7591.82
465.781	7968.65
465.986	7952.26
466.191	7659.4
466.397	7440.27
466.602	7133.08
466.807	7327.63
467.012	7485.33
467.218	7296.91
467.423	7348.11
467.628	7397.26
467.833	7460.75
468.038	7178.13
468.244	7063.44
468.449	7374.74
468.654	7104.4
468.859	7081.88
469.064	6956.95
469.269	6727.58
