Data from USB4F104151__85__12-54-48-538.txt Node

Date: Fri Mar 14 12:54:48 EDT 2025
User: louis
Spectrometer: USB4F10415
Trigger mode: 4
Integration Time (sec): 1.000000E-2
Scans to average: 1
Electric dark correction enabled: true
Nonlinearity correction enabled: false
Boxcar width: 0
XAxis mode: Wavelengths
Number of Pixels in Spectrum: 3648
>>>>>Begin Spectral Data<<<<<
178.204	-41.81
178.424	-41.81
178.644	-41.81
178.864	-17.24
179.084	58.54
179.304	-11.09
179.524	62.63
179.744	-7
179.964	89.26
180.184	-15.19
180.404	-0.85
180.624	-21.33
180.844	-13.14
181.064	-35.67
181.283	11.43
181.503	-56.15
181.723	-2.9
181.943	21.67
182.163	9.39
182.383	52.39
182.602	85.16
182.822	74.92
183.042	54.44
183.262	54.44
183.482	17.58
183.701	74.92
183.921	-25.43
184.141	95.4
184.361	38.06
184.58	38.06
184.8	79.02
185.02	11.43
185.239	-7
185.459	-17.24
185.679	-72.53
185.898	-25.43
186.118	-25.43
186.338	9.39
186.557	36.01
186.777	66.73
186.997	46.25
187.216	-11.09
187.436	3.24
187.655	17.58
187.875	3.24
188.095	-0.85
188.314	31.91
188.534	-2.9
188.753	38.06
188.973	-0.85
189.192	40.11
189.412	97.45
189.631	-19.29
189.851	9.39
190.07	15.53
190.29	25.77
190.509	40.11
190.729	-17.24
190.948	52.39
191.168	48.3
191.387	33.96
191.607	17.58
191.826	-13.14
192.045	-39.76
192.265	70.83
192.484	25.77
192.704	25.77
192.923	-29.52
193.142	52.39
193.362	-33.62
193.581	21.67
193.8	31.91
194.02	31.91
194.239	-29.52
194.458	-17.24
194.678	-27.48
194.897	-27.48
195.116	15.53
195.335	13.48
195.555	29.87
195.774	13.48
195.993	9.39
196.212	13.48
196.432	52.39
196.651	42.15
196.87	50.35
197.089	-43.86
197.308	19.63
197.528	-31.57
197.747	-29.52
197.966	23.72
198.185	13.48
198.404	-19.29
198.623	-29.52
198.842	9.39
199.062	21.67
199.281	29.87
199.5	38.06
199.719	93.35
199.938	31.91
200.157	-11.09
200.376	23.72
200.595	13.48
200.814	-4.95
201.033	1.19
201.252	33.96
201.471	31.91
201.69	-17.24
201.909	36.01
202.128	25.77
202.347	9.39
202.566	36.01
202.785	27.82
203.004	81.07
203.223	79.02
203.442	42.15
203.661	-21.33
203.879	-9.05
204.098	54.44
204.317	-11.09
204.536	74.92
204.755	54.44
204.974	42.15
205.193	19.63
205.411	70.83
205.63	27.82
205.849	25.77
206.068	1.19
206.287	76.97
206.505	-0.85
206.724	29.87
206.943	-31.57
207.162	-45.91
207.381	-7
207.599	107.69
207.818	17.58
208.037	64.68
208.255	-11.09
208.474	-23.38
208.693	117.93
208.911	79.02
209.13	38.06
209.349	-29.52
209.567	11.43
209.786	66.73
210.005	-13.14
210.223	58.54
210.442	3.24
210.661	-33.62
210.879	7.34
211.098	29.87
211.316	13.48
211.535	-2.9
211.753	-29.52
211.972	33.96
212.191	29.87
212.409	44.2
212.628	11.43
212.846	-47.96
213.065	33.96
213.283	62.63
213.502	31.91
213.72	107.69
213.938	9.39
214.157	56.49
214.375	3.24
214.594	52.39
214.812	1.19
215.031	72.87
215.249	17.58
215.467	85.16
215.686	-9.05
215.904	48.3
216.122	76.97
216.341	85.16
216.559	21.67
216.778	50.35
216.996	-50
217.214	95.4
217.432	-21.33
217.651	11.43
217.869	-21.33
218.087	46.25
218.306	52.39
218.524	-4.95
218.742	1.19
218.96	-31.57
219.179	1.19
219.397	52.39
219.615	1.19
219.833	40.11
220.051	42.15
220.27	58.54
220.488	-72.53
220.706	-29.52
220.924	3.24
221.142	25.77
221.36	44.2
221.578	-27.48
221.796	40.11
222.015	-52.05
222.233	50.35
222.451	56.49
222.669	36.01
222.887	-43.86
223.105	-39.76
223.323	23.72
223.541	-11.09
223.759	60.59
223.977	23.72
224.195	74.92
224.413	5.29
224.631	66.73
224.849	19.63
225.067	62.63
225.285	56.49
225.503	36.01
225.721	-19.29
225.939	33.96
226.157	-13.14
226.375	91.31
226.592	-56.15
226.81	-7
227.028	-25.43
227.246	-0.85
227.464	-19.29
227.682	52.39
227.9	1.19
228.117	-4.95
228.335	23.72
228.553	7.34
228.771	3.24
228.989	33.96
229.206	42.15
229.424	5.29
229.642	-11.09
229.86	33.96
230.077	-109.4
230.295	-54.1
230.513	68.78
230.731	-13.14
230.948	-60.24
231.166	-31.57
231.384	21.67
231.601	-13.14
231.819	11.43
232.037	40.11
232.254	-4.95
232.472	19.63
232.689	25.77
232.907	91.31
233.125	-37.72
233.342	-50
233.56	83.11
233.777	27.82
233.995	-29.52
234.213	50.35
234.43	21.67
234.648	27.82
234.865	27.82
235.083	36.01
235.3	3.24
235.518	-43.86
235.735	-47.96
235.953	-9.05
236.17	15.53
236.388	5.29
236.605	33.96
236.822	48.3
237.04	-7
237.257	5.29
237.475	-31.57
237.692	1.19
237.909	74.92
238.127	7.34
238.344	-2.9
238.562	-13.14
238.779	74.92
238.996	66.73
239.214	-13.14
239.431	62.63
239.648	7.34
239.865	44.2
240.083	-27.48
240.3	44.2
240.517	5.29
240.735	21.67
240.952	62.63
241.169	42.15
241.386	33.96
241.603	-19.29
241.821	-35.67
242.038	101.55
242.255	91.31
242.472	-17.24
242.689	74.92
242.907	56.49
243.124	9.39
243.341	-11.09
243.558	-21.33
243.775	7.34
243.992	31.91
244.209	-7
244.426	29.87
244.643	33.96
244.86	-45.91
245.078	5.29
245.295	3.24
245.512	64.68
245.729	46.25
245.946	-2.9
246.163	68.78
246.38	-13.14
246.597	76.97
246.814	13.48
247.031	50.35
247.248	9.39
247.464	58.54
247.681	23.72
247.898	-25.43
248.115	23.72
248.332	66.73
248.549	-7
248.766	40.11
248.983	44.2
249.2	19.63
249.417	85.16
249.633	50.35
249.85	48.3
250.067	38.06
250.284	-21.33
250.501	-4.95
250.717	9.39
250.934	-13.14
251.151	60.59
251.368	-76.63
251.585	58.54
251.801	17.58
252.018	-64.34
252.235	23.72
252.451	17.58
252.668	-2.9
252.885	-2.9
253.102	-58.2
253.318	5.29
253.535	3.24
253.752	13.48
253.968	66.73
254.185	-33.62
254.401	42.15
254.618	-7
254.835	-33.62
255.051	-11.09
255.268	3.24
255.484	-17.24
255.701	-7
255.917	60.59
256.134	-60.24
256.351	5.29
256.567	7.34
256.784	17.58
257	-29.52
257.217	50.35
257.433	91.31
257.65	17.58
257.866	72.87
258.082	76.97
258.299	-13.14
258.515	74.92
258.732	66.73
258.948	36.01
259.165	33.96
259.381	1.19
259.597	29.87
259.814	-0.85
260.03	79.02
260.246	54.44
260.463	-21.33
260.679	52.39
260.895	42.15
261.112	5.29
261.328	7.34
261.544	33.96
261.761	79.02
261.977	-109.4
262.193	17.58
262.409	3.24
262.626	-19.29
262.842	3.24
263.058	23.72
263.274	-27.48
263.49	-60.24
263.707	29.87
263.923	9.39
264.139	-15.19
264.355	79.02
264.571	13.48
264.787	17.58
265.004	17.58
265.22	-11.09
265.436	29.87
265.652	-23.38
265.868	-7
266.084	-27.48
266.3	54.44
266.516	-37.72
266.732	-13.14
266.948	44.2
267.164	-37.72
267.38	-7
267.596	25.77
267.812	3.24
268.028	13.48
268.244	-62.29
268.46	3.24
268.676	9.39
268.892	66.73
269.108	44.2
269.324	46.25
269.54	19.63
269.756	79.02
269.972	38.06
270.188	15.53
270.403	5.29
270.619	85.16
270.835	17.58
271.051	25.77
271.267	-33.62
271.483	-15.19
271.698	-25.43
271.914	83.11
272.13	31.91
272.346	19.63
272.562	81.07
272.777	50.35
272.993	36.01
273.209	50.35
273.425	-11.09
273.64	42.15
273.856	31.91
274.072	3.24
274.287	56.49
274.503	27.82
274.719	89.26
274.934	44.2
275.15	-35.67
275.366	-29.52
275.581	-29.52
275.797	3.24
276.012	-56.15
276.228	46.25
276.444	13.48
276.659	3.24
276.875	36.01
277.09	21.67
277.306	48.3
277.521	85.16
277.737	-35.67
277.952	19.63
278.168	27.82
278.383	87.21
278.599	42.15
278.814	36.01
279.03	19.63
279.245	50.35
279.461	33.96
279.676	50.35
279.892	29.87
280.107	17.58
280.322	9.39
280.538	76.97
280.753	68.78
280.969	1.19
281.184	27.82
281.399	113.83
281.615	5.29
281.83	19.63
282.045	1.19
282.26	58.54
282.476	9.39
282.691	-7
282.906	15.53
283.122	9.39
283.337	11.43
283.552	119.98
283.767	25.77
283.983	27.82
284.198	27.82
284.413	-15.19
284.628	-35.67
284.843	27.82
285.058	7.34
285.274	72.87
285.489	38.06
285.704	17.58
285.919	58.54
286.134	33.96
286.349	-54.1
286.564	-31.57
286.779	36.01
286.995	-7
287.21	58.54
287.425	-17.24
287.64	-13.14
287.855	62.63
288.07	60.59
288.285	-62.29
288.5	-2.9
288.715	5.29
288.93	-19.29
289.145	13.48
289.36	15.53
289.575	19.63
289.79	38.06
290.004	66.73
290.219	-23.38
290.434	-19.29
290.649	40.11
290.864	42.15
291.079	46.25
291.294	38.06
291.509	38.06
291.724	103.59
291.938	-0.85
292.153	19.63
292.368	27.82
292.583	36.01
292.798	1.19
293.012	-0.85
293.227	3.24
293.442	-33.62
293.657	54.44
293.871	27.82
294.086	38.06
294.301	36.01
294.516	3.24
294.73	17.58
294.945	19.63
295.16	3.24
295.374	-56.15
295.589	29.87
295.804	23.72
296.018	23.72
296.233	56.49
296.447	-27.48
296.662	-39.76
296.877	68.78
297.091	50.35
297.306	33.96
297.52	62.63
297.735	15.53
297.949	50.35
298.164	91.31
298.378	50.35
298.593	-56.15
298.807	7.34
299.022	58.54
299.236	79.02
299.451	23.72
299.665	54.44
299.88	52.39
300.094	40.11
300.309	64.68
300.523	48.3
300.737	29.87
300.952	25.77
301.166	11.43
301.381	-9.05
301.595	-15.19
301.809	52.39
302.024	76.97
302.238	-72.53
302.452	66.73
302.667	25.77
302.881	68.78
303.095	117.93
303.309	9.39
303.524	7.34
303.738	46.25
303.952	-0.85
304.166	31.91
304.381	-15.19
304.595	27.82
304.809	3.24
305.023	46.25
305.237	-19.29
305.452	-9.05
305.666	68.78
305.88	60.59
306.094	-62.29
306.308	11.43
306.522	31.91
306.736	54.44
306.95	25.77
307.164	-25.43
307.379	13.48
307.593	42.15
307.807	15.53
308.021	5.29
308.235	23.72
308.449	-7
308.663	-56.15
308.877	15.53
309.091	38.06
309.305	74.92
309.519	9.39
309.733	62.63
309.947	27.82
310.161	42.15
310.374	44.2
310.588	58.54
310.802	1.19
311.016	33.96
311.23	40.11
311.444	72.87
311.658	21.67
311.872	56.49
312.085	-19.29
312.299	54.44
312.513	52.39
312.727	15.53
312.941	-4.95
313.154	1.19
313.368	93.35
313.582	72.87
313.796	-19.29
314.009	-4.95
314.223	42.15
314.437	-68.44
314.651	29.87
314.864	52.39
315.078	97.45
315.292	85.16
315.505	-4.95
315.719	25.77
315.933	13.48
316.146	42.15
316.36	11.43
316.573	58.54
316.787	-13.14
317.001	25.77
317.214	-37.72
317.428	40.11
317.641	15.53
317.855	95.4
318.068	-29.52
318.282	101.55
318.495	48.3
318.709	-19.29
318.922	52.39
319.136	-17.24
319.349	50.35
319.563	-17.24
319.776	42.15
319.99	11.43
320.203	-68.44
320.417	50.35
320.63	38.06
320.843	54.44
321.057	-7
321.27	42.15
321.483	19.63
321.697	-7
321.91	64.68
322.124	36.01
322.337	38.06
322.55	79.02
322.763	-0.85
322.977	-9.05
323.19	31.91
323.403	17.58
323.617	25.77
323.83	62.63
324.043	50.35
324.256	1.19
324.469	-56.15
324.683	-11.09
324.896	-2.9
325.109	48.3
325.322	1.19
325.535	42.15
325.748	54.44
325.962	79.02
326.175	21.67
326.388	13.48
326.601	-13.14
326.814	-15.19
327.027	1.19
327.24	58.54
327.453	-0.85
327.666	79.02
327.879	-7
328.092	23.72
328.305	52.39
328.518	31.91
328.731	31.91
328.944	-11.09
329.157	15.53
329.37	-13.14
329.583	62.63
329.796	-9.05
330.009	-37.72
330.222	5.29
330.435	-13.14
330.648	87.21
330.861	46.25
331.073	33.96
331.286	52.39
331.499	23.72
331.712	64.68
331.925	36.01
332.138	21.67
332.35	-9.05
332.563	-15.19
332.776	5.29
332.989	50.35
333.202	-19.29
333.414	52.39
333.627	-66.39
333.84	11.43
334.053	1.19
334.265	3.24
334.478	-15.19
334.691	3.24
334.903	-7
335.116	70.83
335.329	89.26
335.541	3.24
335.754	3.24
335.966	11.43
336.179	-29.52
336.392	-27.48
336.604	40.11
336.817	31.91
337.029	87.21
337.242	5.29
337.454	1.19
337.667	7.34
337.88	13.48
338.092	27.82
338.305	11.43
338.517	25.77
338.729	85.16
338.942	-41.81
339.154	-11.09
339.367	46.25
339.579	33.96
339.792	-15.19
340.004	-13.14
340.217	58.54
340.429	48.3
340.641	-19.29
340.854	64.68
341.066	117.93
341.278	50.35
341.491	38.06
341.703	54.44
341.915	29.87
342.128	81.07
342.34	44.2
342.552	7.34
342.764	-21.33
342.977	38.06
343.189	21.67
343.401	64.68
343.613	13.48
343.826	38.06
344.038	5.29
344.25	15.53
344.462	33.96
344.674	29.87
344.886	17.58
345.099	38.06
345.311	50.35
345.523	36.01
345.735	-35.67
345.947	50.35
346.159	74.92
346.371	21.67
346.583	79.02
346.795	76.97
347.007	40.11
347.219	13.48
347.431	11.43
347.643	93.35
347.855	72.87
348.067	11.43
348.279	42.15
348.491	-29.52
348.703	3.24
348.915	27.82
349.127	-2.9
349.339	70.83
349.551	126.12
349.763	11.43
349.975	58.54
350.187	-4.95
350.399	-4.95
350.61	17.58
350.822	-19.29
351.034	36.01
351.246	-31.57
351.458	3.24
351.669	3.24
351.881	54.44
352.093	79.02
352.305	25.77
352.517	56.49
352.728	27.82
352.94	93.35
353.152	23.72
353.363	66.73
353.575	-15.19
353.787	38.06
353.999	58.54
354.21	38.06
354.422	25.77
354.633	5.29
354.845	7.34
355.057	54.44
355.268	29.87
355.48	17.58
355.692	-7
355.903	-43.86
356.115	83.11
356.326	36.01
356.538	66.73
356.749	89.26
356.961	87.21
357.172	-13.14
357.384	33.96
357.595	38.06
357.807	-9.05
358.018	72.87
358.23	17.58
358.441	-33.62
358.653	17.58
358.864	15.53
359.075	11.43
359.287	60.59
359.498	50.35
359.709	50.35
359.921	7.34
360.132	15.53
360.344	19.63
360.555	7.34
360.766	27.82
360.977	27.82
361.189	13.48
361.4	1.19
361.611	79.02
361.823	52.39
362.034	91.31
362.245	21.67
362.456	50.35
362.667	-15.19
362.879	-37.72
363.09	27.82
363.301	76.97
363.512	29.87
363.723	-33.62
363.935	99.5
364.146	-13.14
364.357	9.39
364.568	-4.95
364.779	42.15
364.99	79.02
365.201	7.34
365.412	36.01
365.623	5.29
365.834	-35.67
366.045	46.25
366.256	27.82
366.467	66.73
366.678	64.68
366.889	-23.38
367.1	29.87
367.311	36.01
367.522	38.06
367.733	3.24
367.944	9.39
368.155	-0.85
368.366	40.11
368.577	36.01
368.788	66.73
368.999	-15.19
369.209	-4.95
369.42	48.3
369.631	52.39
369.842	-23.38
370.053	-7
370.264	74.92
370.474	11.43
370.685	-0.85
370.896	36.01
371.107	25.77
371.317	95.4
371.528	48.3
371.739	19.63
371.95	5.29
372.16	81.07
372.371	-4.95
372.582	23.72
372.792	1.19
373.003	54.44
373.214	-27.48
373.424	-15.19
373.635	-11.09
373.846	87.21
374.056	83.11
374.267	-4.95
374.477	79.02
374.688	74.92
374.898	-23.38
375.109	33.96
375.319	-21.33
375.53	9.39
375.74	31.91
375.951	-9.05
376.161	40.11
376.372	1.19
376.582	29.87
376.793	13.48
377.003	13.48
377.214	25.77
377.424	-17.24
377.635	89.26
377.845	60.59
378.055	9.39
378.266	-15.19
378.476	46.25
378.686	13.48
378.897	40.11
379.107	23.72
379.317	38.06
379.528	15.53
379.738	52.39
379.948	19.63
380.158	5.29
380.369	62.63
380.579	-11.09
380.789	-23.38
380.999	9.39
381.21	15.53
381.42	83.11
381.63	40.11
381.84	29.87
382.05	3.24
382.261	-29.52
382.471	54.44
382.681	17.58
382.891	42.15
383.101	68.78
383.311	50.35
383.521	33.96
383.731	-17.24
383.941	60.59
384.151	5.29
384.361	5.29
384.571	48.3
384.781	115.88
384.991	7.34
385.201	76.97
385.411	17.58
385.621	54.44
385.831	107.69
386.041	31.91
386.251	68.78
386.461	62.63
386.671	48.3
386.881	101.55
387.091	60.59
387.301	-27.48
387.511	3.24
387.72	29.87
387.93	50.35
388.14	-15.19
388.35	56.49
388.56	40.11
388.769	56.49
388.979	-15.19
389.189	42.15
389.399	-25.43
389.609	60.59
389.818	79.02
390.028	56.49
390.238	54.44
390.447	44.2
390.657	-17.24
390.867	91.31
391.076	17.58
391.286	58.54
391.496	81.07
391.705	-13.14
391.915	48.3
392.125	-66.39
392.334	33.96
392.544	62.63
392.753	-9.05
392.963	42.15
393.172	-13.14
393.382	42.15
393.591	46.25
393.801	-31.57
394.01	31.91
394.22	50.35
394.429	101.55
394.639	13.48
394.848	81.07
395.058	93.35
395.267	81.07
395.477	70.83
395.686	-52.05
395.895	1.19
396.105	89.26
396.314	19.63
396.524	72.87
396.733	-21.33
396.942	-9.05
397.152	72.87
397.361	54.44
397.57	31.91
397.78	74.92
397.989	56.49
398.198	83.11
398.407	40.11
398.617	21.67
398.826	19.63
399.035	17.58
399.244	50.35
399.453	33.96
399.663	60.59
399.872	9.39
400.081	62.63
400.29	42.15
400.499	109.74
400.708	58.54
400.917	60.59
401.127	93.35
401.336	74.92
401.545	122.02
401.754	-7
401.963	119.98
402.172	-11.09
402.381	79.02
402.59	42.15
402.799	68.78
403.008	-13.14
403.217	-7
403.426	93.35
403.635	17.58
403.844	38.06
404.053	17.58
404.262	5.29
404.471	27.82
404.68	48.3
404.888	1.19
405.097	38.06
405.306	33.96
405.515	58.54
405.724	83.11
405.933	101.55
406.142	115.88
406.35	56.49
406.559	64.68
406.768	105.64
406.977	107.69
407.185	62.63
407.394	91.31
407.603	89.26
407.812	44.2
408.02	48.3
408.229	58.54
408.438	167.08
408.646	48.3
408.855	117.93
409.064	105.64
409.272	122.02
409.481	99.5
409.69	175.27
409.898	165.03
410.107	162.98
410.315	111.78
410.524	89.26
410.733	189.61
410.941	216.23
411.15	95.4
411.358	218.28
411.567	181.42
411.775	234.66
411.984	205.99
412.192	183.46
412.401	205.99
412.609	201.9
412.818	165.03
413.026	226.47
413.234	226.47
413.443	165.03
413.651	259.24
413.86	255.14
414.068	300.2
414.276	261.29
414.485	283.81
414.693	283.81
414.901	251.05
415.11	320.68
415.318	289.96
415.526	396.45
415.734	410.79
415.943	386.21
416.151	308.39
416.359	384.16
416.567	416.93
416.776	318.63
416.984	410.79
417.192	416.93
417.4	408.74
417.608	461.99
417.817	519.33
418.025	433.32
418.233	615.59
418.441	550.05
418.649	552.1
418.857	582.82
419.065	488.61
419.273	552.1
419.481	636.06
419.689	564.39
419.897	763.04
420.105	677.02
420.313	697.5
420.521	654.5
420.729	847.01
420.937	740.51
421.145	806.05
421.353	730.27
421.561	789.66
421.769	851.1
421.977	867.49
422.185	955.55
422.393	879.77
422.601	928.92
422.809	1002.65
423.017	980.12
423.224	1080.47
423.432	1051.8
423.64	1170.58
423.848	1211.54
424.056	1178.78
424.263	1195.16
424.471	1299.61
424.679	1291.41
424.887	1262.74
425.094	1336.47
425.302	1395.86
425.51	1459.35
425.718	1440.92
425.925	1393.81
426.133	1584.27
426.341	1582.23
426.548	1707.15
426.756	1598.61
426.964	1744.02
427.171	1846.41
427.379	1928.33
427.586	1932.43
427.794	1883.28
428.001	2137.23
428.209	2126.99
428.417	2178.19
428.624	2358.41
428.832	2323.59
429.039	2294.92
429.247	2329.74
429.454	2452.61
429.662	2622.59
429.869	2512
430.076	2573.44
430.284	2548.87
430.491	2704.51
430.699	2942.08
430.906	2815.1
431.114	2991.23
431.321	3021.95
431.528	3114.11
431.736	3279.99
431.943	3497.08
432.15	3345.53
432.358	3265.66
432.565	3681.39
432.772	3519.6
432.979	3796.08
433.187	3708.02
433.394	3810.42
433.601	3865.71
433.808	3980.4
434.016	3910.77
434.223	4179.05
434.43	4412.52
434.637	4471.91
434.844	4613.22
435.052	4510.82
435.259	4781.15
435.466	4818.02
435.673	4621.41
435.88	4838.5
436.087	5182.56
436.294	5313.63
436.501	5039.2
436.708	5260.38
436.915	5463.13
437.122	5706.84
437.329	5741.65
437.537	5866.58
437.743	5991.5
437.95	5866.58
438.157	6282.31
438.364	6417.48
438.571	6433.86
438.778	6554.69
438.985	6978.62
439.192	6763.59
439.399	6978.62
439.606	6857.79
439.813	7058.49
440.02	7670.84
440.227	7437.37
440.433	7316.54
440.64	7623.73
440.847	7670.84
441.054	7951.41
441.261	8340.52
441.467	8320.04
441.674	8498.22
441.881	8621.1
442.088	8662.05
442.294	8510.5
442.501	8793.12
442.708	9169.95
442.914	9309.21
443.121	9788.44
443.328	9419.8
443.534	10290.19
443.741	9958.42
443.948	9638.94
444.154	10494.99
444.361	10546.19
444.568	10415.12
444.774	10435.6
444.981	10791.94
445.187	10986.5
445.394	11420.67
445.6	11219.97
445.807	12518.38
446.013	11723.77
446.22	12047.35
446.426	12473.32
446.633	12735.46
446.839	13253.6
447.046	12686.31
447.252	13237.22
447.459	13384.67
447.665	13192.16
447.871	14083.03
448.078	14308.3
448.284	13681.63
448.491	14377.94
448.697	14650.32
448.903	14740.43
449.11	15055.81
449.316	14914.5
449.522	15158.21
449.728	15614.91
449.935	15868.86
450.141	15645.63
450.347	15989.69
450.553	15518.65
450.76	15668.16
450.966	16208.82
451.172	16036.79
451.378	16313.27
451.584	16169.91
451.791	16565.17
451.997	16569.26
452.203	16751.53
452.409	16677.8
452.615	16638.89
452.821	16149.43
453.027	15938.49
453.233	16769.96
453.44	15903.67
453.646	16462.77
453.852	16294.83
454.058	16855.98
454.264	16032.69
454.47	16425.9
454.676	16065.46
454.882	16595.89
455.088	15186.88
455.294	15598.52
455.5	15619
455.705	15854.52
455.911	14889.93
456.117	14721.99
456.323	14500.81
456.529	14121.94
456.735	14418.89
456.941	14281.68
457.147	13890.52
457.352	13179.87
457.558	13356
457.764	13468.64
457.97	12944.36
458.176	12891.11
458.381	12616.68
458.587	12162.03
458.793	12084.21
458.999	11432.96
459.204	12280.82
459.41	12018.68
459.616	11158.53
459.821	11076.61
460.027	11111.43
460.233	10982.4
460.438	10421.26
460.644	10503.18
460.85	10224.65
461.055	9821.2
461.261	9956.37
461.466	9227.29
461.672	8883.24
461.878	9303.07
462.083	8768.55
462.289	8582.18
462.494	8494.12
462.7	8238.12
462.905	7928.88
463.111	8346.67
463.316	8272.94
463.522	8145.97
463.727	8008.75
463.932	8178.73
464.138	8242.22
464.343	8105.01
464.549	7926.83
464.754	8035.38
464.959	8006.7
465.165	8162.35
465.37	7728.18
465.575	7545.91
465.781	7820.34
465.986	7771.19
466.191	7550.01
466.397	7459.9
466.602	7097.41
466.807	7142.46
467.012	7248.96
467.218	7281.72
467.423	7273.53
467.628	7324.73
467.833	7490.62
468.038	7218.24
468.244	7087.17
468.449	7394.36
468.654	7068.73
468.859	6886.47
469.064	6976.58
469.269	6655.05
469.474	6642.76
469.679	6949.95
469.885	6700.1
470.09	6929.47
