Data from USB4F104151__40__12-53-45-075.txt Node

Date: Fri Mar 14 12:53:45 EDT 2025
User: louis
Spectrometer: USB4F10415
Trigger mode: 4
Integration Time (sec): 1.000000E-2
Scans to average: 1
Electric dark correction enabled: true
Nonlinearity correction enabled: false
Boxcar width: 0
XAxis mode: Wavelengths
Number of Pixels in Spectrum: 3648
>>>>>Begin Spectral Data<<<<<
178.204	-53.76
178.424	-53.76
178.644	-53.76
178.864	-66.05
179.084	-31.23
179.304	-47.62
179.524	-39.42
179.744	-31.23
179.964	50.69
180.184	-16.9
180.404	-14.85
180.624	60.93
180.844	22.02
181.064	-12.8
181.283	50.69
181.503	-12.8
181.723	-8.7
181.943	-14.85
182.163	-33.28
182.383	3.58
182.602	1.54
182.822	32.26
183.042	36.35
183.262	46.59
183.482	1.54
183.701	-14.85
183.921	-20.99
184.141	1.54
184.361	44.54
184.58	-10.75
184.8	11.78
185.02	46.59
185.239	32.26
185.459	-4.61
185.679	28.16
185.898	-31.23
186.118	34.3
186.338	-23.04
186.557	-0.51
186.777	-10.75
186.997	-16.9
187.216	13.82
187.436	-10.75
187.655	-27.14
187.875	52.74
188.095	7.68
188.314	30.21
188.534	15.87
188.753	52.74
188.973	5.63
189.192	11.78
189.412	13.82
189.631	85.5
189.851	-14.85
190.07	7.68
190.29	50.69
190.509	-29.18
190.729	-14.85
190.948	24.06
191.168	65.02
191.387	13.82
191.607	3.58
191.826	-27.14
192.045	-18.94
192.265	-23.04
192.484	3.58
192.704	-39.42
192.923	-45.57
193.142	83.45
193.362	13.82
193.581	-12.8
193.8	22.02
194.02	1.54
194.239	3.58
194.458	-4.61
194.678	-55.81
194.897	73.21
195.116	-2.56
195.335	-2.56
195.555	79.36
195.774	-12.8
195.993	46.59
196.212	-35.33
196.432	44.54
196.651	52.74
196.87	-33.28
197.089	3.58
197.308	-12.8
197.528	42.5
197.747	-18.94
197.966	3.58
198.185	58.88
198.404	52.74
198.623	-10.75
198.842	17.92
199.062	30.21
199.281	5.63
199.5	-27.14
199.719	28.16
199.938	-6.66
200.157	54.78
200.376	15.87
200.595	32.26
200.814	-16.9
201.033	-2.56
201.252	52.74
201.471	30.21
201.69	-41.47
201.909	69.12
202.128	-20.99
202.347	52.74
202.566	36.35
202.785	-12.8
203.004	32.26
203.223	81.41
203.442	-33.28
203.661	-12.8
203.879	-12.8
204.098	52.74
204.317	30.21
204.536	13.82
204.755	40.45
204.974	11.78
205.193	54.78
205.411	62.98
205.63	-41.47
205.849	-45.57
206.068	36.35
206.287	28.16
206.505	-0.51
206.724	-0.51
206.943	-0.51
207.162	28.16
207.381	9.73
207.599	58.88
207.818	50.69
208.037	3.58
208.255	9.73
208.474	46.59
208.693	-0.51
208.911	24.06
209.13	-8.7
209.349	24.06
209.567	-29.18
209.786	46.59
210.005	-31.23
210.223	5.63
210.442	30.21
210.661	62.98
210.879	32.26
211.098	3.58
211.316	38.4
211.535	17.92
211.753	24.06
211.972	32.26
212.191	-29.18
212.409	73.21
212.628	73.21
212.846	-6.66
213.065	-20.99
213.283	15.87
213.502	34.3
213.72	42.5
213.938	50.69
214.157	52.74
214.375	-29.18
214.594	7.68
214.812	56.83
215.031	13.82
215.249	-39.42
215.467	-18.94
215.686	11.78
215.904	44.54
216.122	-33.28
216.341	-39.42
216.559	42.5
216.778	17.92
216.996	17.92
217.214	-37.38
217.432	-92.67
217.651	28.16
217.869	-2.56
218.087	9.73
218.306	30.21
218.524	50.69
218.742	-18.94
218.96	-10.75
219.179	-4.61
219.397	24.06
219.615	26.11
219.833	52.74
220.051	-31.23
220.27	-0.51
220.488	50.69
220.706	52.74
220.924	-18.94
221.142	28.16
221.36	-18.94
221.578	34.3
221.796	-25.09
222.015	11.78
222.233	-20.99
222.451	-25.09
222.669	-2.56
222.887	3.58
223.105	32.26
223.323	17.92
223.541	-18.94
223.759	56.83
223.977	-76.29
224.195	-14.85
224.413	24.06
224.631	62.98
224.849	3.58
225.067	50.69
225.285	-10.75
225.503	3.58
225.721	-49.66
225.939	-18.94
226.157	62.98
226.375	50.69
226.592	-18.94
226.81	52.74
227.028	62.98
227.246	1.54
227.464	52.74
227.682	7.68
227.9	38.4
228.117	15.87
228.335	-10.75
228.553	-31.23
228.771	36.35
228.989	65.02
229.206	-0.51
229.424	44.54
229.642	-0.51
229.86	-18.94
230.077	-12.8
230.295	15.87
230.513	60.93
230.731	60.93
230.948	3.58
231.166	-20.99
231.384	87.55
231.601	-23.04
231.819	-14.85
232.037	30.21
232.254	85.5
232.472	99.84
232.689	50.69
232.907	50.69
233.125	-8.7
233.342	34.3
233.56	-14.85
233.777	62.98
233.995	44.54
234.213	44.54
234.43	-18.94
234.648	-29.18
234.865	30.21
235.083	-31.23
235.3	30.21
235.518	11.78
235.735	65.02
235.953	19.97
236.17	-39.42
236.388	-23.04
236.605	15.87
236.822	-25.09
237.04	3.58
237.257	-10.75
237.475	89.6
237.692	5.63
237.909	3.58
238.127	50.69
238.344	34.3
238.562	-18.94
238.779	11.78
238.996	52.74
239.214	30.21
239.431	-8.7
239.648	-2.56
239.865	30.21
240.083	-12.8
240.3	19.97
240.517	-29.18
240.735	65.02
240.952	-2.56
241.169	5.63
241.386	40.45
241.603	75.26
241.821	-8.7
242.038	62.98
242.255	44.54
242.472	7.68
242.689	30.21
242.907	11.78
243.124	11.78
243.341	36.35
243.558	52.74
243.775	52.74
243.992	-4.61
244.209	95.74
244.426	42.5
244.643	73.21
244.86	36.35
245.078	60.93
245.295	83.45
245.512	36.35
245.729	46.59
245.946	34.3
246.163	30.21
246.38	-33.28
246.597	-41.47
246.814	19.97
247.031	17.92
247.248	7.68
247.464	60.93
247.681	69.12
247.898	-51.71
248.115	28.16
248.332	22.02
248.549	30.21
248.766	42.5
248.983	-33.28
249.2	28.16
249.417	-4.61
249.633	5.63
249.85	48.64
250.067	-23.04
250.284	-33.28
250.501	120.32
250.717	1.54
250.934	-29.18
251.151	58.88
251.368	56.83
251.585	17.92
251.801	-39.42
252.018	-27.14
252.235	-18.94
252.451	3.58
252.668	26.11
252.885	83.45
253.102	36.35
253.318	52.74
253.535	-20.99
253.752	-2.56
253.968	56.83
254.185	-0.51
254.401	-8.7
254.618	-45.57
254.835	-12.8
255.051	13.82
255.268	17.92
255.484	48.64
255.701	42.5
255.917	5.63
256.134	9.73
256.351	3.58
256.567	56.83
256.784	38.4
257	-20.99
257.217	-35.33
257.433	-18.94
257.65	1.54
257.866	-14.85
258.082	-0.51
258.299	-4.61
258.515	75.26
258.732	-35.33
258.948	34.3
259.165	58.88
259.381	-33.28
259.597	87.55
259.814	28.16
260.03	65.02
260.246	44.54
260.463	-72.19
260.679	40.45
260.895	1.54
261.112	-33.28
261.328	-39.42
261.544	1.54
261.761	50.69
261.977	3.58
262.193	83.45
262.409	46.59
262.626	62.98
262.842	19.97
263.058	36.35
263.274	50.69
263.49	32.26
263.707	-4.61
263.923	46.59
264.139	38.4
264.355	-16.9
264.571	-51.71
264.787	38.4
265.004	83.45
265.22	-61.95
265.436	36.35
265.652	1.54
265.868	58.88
266.084	58.88
266.3	30.21
266.516	48.64
266.732	44.54
266.948	24.06
267.164	-2.56
267.38	42.5
267.596	52.74
267.812	34.3
268.028	-64
268.244	67.07
268.46	-2.56
268.676	13.82
268.892	-31.23
269.108	17.92
269.324	71.17
269.54	19.97
269.756	40.45
269.972	50.69
270.188	89.6
270.403	-72.19
270.619	69.12
270.835	-23.04
271.051	40.45
271.267	56.83
271.483	1.54
271.698	-10.75
271.914	34.3
272.13	19.97
272.346	95.74
272.562	1.54
272.777	-2.56
272.993	28.16
273.209	-10.75
273.425	40.45
273.64	60.93
273.856	79.36
274.072	-33.28
274.287	-14.85
274.503	30.21
274.719	32.26
274.934	58.88
275.15	5.63
275.366	26.11
275.581	11.78
275.797	-0.51
276.012	15.87
276.228	-8.7
276.444	-27.14
276.659	114.17
276.875	32.26
277.09	-25.09
277.306	-29.18
277.521	26.11
277.737	-23.04
277.952	34.3
278.168	-10.75
278.383	17.92
278.599	-4.61
278.814	15.87
279.03	5.63
279.245	19.97
279.461	-74.24
279.676	-27.14
279.892	69.12
280.107	91.65
280.322	5.63
280.538	26.11
280.753	-12.8
280.969	-35.33
281.184	-59.9
281.399	30.21
281.615	9.73
281.83	-18.94
282.045	5.63
282.26	30.21
282.476	-6.66
282.691	38.4
282.906	30.21
283.122	-47.62
283.337	-39.42
283.552	15.87
283.767	19.97
283.983	40.45
284.198	11.78
284.413	67.07
284.628	-31.23
284.843	83.45
285.058	71.17
285.274	46.59
285.489	36.35
285.704	15.87
285.919	-16.9
286.134	-18.94
286.349	13.82
286.564	32.26
286.779	62.98
286.995	69.12
287.21	-2.56
287.425	11.78
287.64	-4.61
287.855	56.83
288.07	34.3
288.285	36.35
288.5	1.54
288.715	-6.66
288.93	73.21
289.145	62.98
289.36	32.26
289.575	-51.71
289.79	36.35
290.004	38.4
290.219	-6.66
290.434	56.83
290.649	3.58
290.864	46.59
291.079	-37.38
291.294	116.22
291.509	-47.62
291.724	9.73
291.938	-2.56
292.153	42.5
292.368	-23.04
292.583	1.54
292.798	-10.75
293.012	40.45
293.227	-2.56
293.442	-18.94
293.657	36.35
293.871	11.78
294.086	73.21
294.301	40.45
294.516	13.82
294.73	58.88
294.945	7.68
295.16	62.98
295.374	1.54
295.589	-59.9
295.804	-18.94
296.018	54.78
296.233	58.88
296.447	52.74
296.662	83.45
296.877	67.07
297.091	34.3
297.306	52.74
297.52	-29.18
297.735	89.6
297.949	3.58
298.164	54.78
298.378	-20.99
298.593	26.11
298.807	19.97
299.022	44.54
299.236	46.59
299.451	40.45
299.665	-16.9
299.88	-14.85
300.094	24.06
300.309	112.13
300.523	-25.09
300.737	-12.8
300.952	79.36
301.166	44.54
301.381	-57.86
301.595	79.36
301.809	-25.09
302.024	7.68
302.238	-6.66
302.452	-25.09
302.667	11.78
302.881	62.98
303.095	30.21
303.309	50.69
303.524	87.55
303.738	65.02
303.952	3.58
304.166	36.35
304.381	36.35
304.595	44.54
304.809	-4.61
305.023	93.69
305.237	93.69
305.452	-37.38
305.666	40.45
305.88	32.26
306.094	38.4
306.308	52.74
306.522	9.73
306.736	151.04
306.95	28.16
307.164	-10.75
307.379	-59.9
307.593	40.45
307.807	32.26
308.021	93.69
308.235	30.21
308.449	-27.14
308.663	44.54
308.877	69.12
309.091	-25.09
309.305	26.11
309.519	34.3
309.733	71.17
309.947	1.54
310.161	75.26
310.374	71.17
310.588	60.93
310.802	28.16
311.016	7.68
311.23	60.93
311.444	5.63
311.658	19.97
311.872	95.74
312.085	24.06
312.299	22.02
312.513	81.41
312.727	-10.75
312.941	99.84
313.154	103.93
313.368	75.26
313.582	-20.99
313.796	26.11
314.009	-20.99
314.223	71.17
314.437	65.02
314.651	46.59
314.864	28.16
315.078	38.4
315.292	-20.99
315.505	13.82
315.719	52.74
315.933	60.93
316.146	-47.62
316.36	-8.7
316.573	9.73
316.787	26.11
317.001	71.17
317.214	-16.9
317.428	-47.62
317.641	-23.04
317.855	36.35
318.068	85.5
318.282	67.07
318.495	13.82
318.709	-33.28
318.922	-47.62
319.136	65.02
319.349	3.58
319.563	85.5
319.776	22.02
319.99	42.5
320.203	-59.9
320.417	-23.04
320.63	50.69
320.843	40.45
321.057	-29.18
321.27	89.6
321.483	17.92
321.697	60.93
321.91	50.69
322.124	-2.56
322.337	-25.09
322.55	85.5
322.763	-43.52
322.977	60.93
323.19	73.21
323.403	34.3
323.617	1.54
323.83	-29.18
324.043	38.4
324.256	89.6
324.469	26.11
324.683	116.22
324.896	60.93
325.109	62.98
325.322	-14.85
325.535	91.65
325.748	52.74
325.962	93.69
326.175	34.3
326.388	-23.04
326.601	26.11
326.814	81.41
327.027	-18.94
327.24	50.69
327.453	13.82
327.666	-33.28
327.879	26.11
328.092	-2.56
328.305	17.92
328.518	22.02
328.731	46.59
328.944	-16.9
329.157	44.54
329.37	-35.33
329.583	58.88
329.796	30.21
330.009	-27.14
330.222	40.45
330.435	17.92
330.648	38.4
330.861	-6.66
331.073	52.74
331.286	67.07
331.499	17.92
331.712	-33.28
331.925	24.06
332.138	58.88
332.35	83.45
332.563	24.06
332.776	-29.18
332.989	28.16
333.202	71.17
333.414	-12.8
333.627	7.68
333.84	-20.99
334.053	34.3
334.265	-10.75
334.478	-20.99
334.691	36.35
334.903	28.16
335.116	56.83
335.329	28.16
335.541	9.73
335.754	46.59
335.966	19.97
336.179	1.54
336.392	22.02
336.604	32.26
336.817	3.58
337.029	67.07
337.242	54.78
337.454	46.59
337.667	-6.66
337.88	56.83
338.092	15.87
338.305	83.45
338.517	9.73
338.729	40.45
338.942	38.4
339.154	-18.94
339.367	-31.23
339.579	44.54
339.792	-20.99
340.004	-41.47
340.217	-20.99
340.429	-59.9
340.641	42.5
340.854	-68.09
341.066	42.5
341.278	46.59
341.491	71.17
341.703	75.26
341.915	-41.47
342.128	58.88
342.34	73.21
342.552	-27.14
342.764	1.54
342.977	-31.23
343.189	19.97
343.401	50.69
343.613	7.68
343.826	19.97
344.038	-14.85
344.25	91.65
344.462	58.88
344.674	73.21
344.886	36.35
345.099	91.65
345.311	26.11
345.523	-6.66
345.735	17.92
345.947	85.5
346.159	38.4
346.371	85.5
346.583	-6.66
346.795	7.68
347.007	101.89
347.219	32.26
347.431	-12.8
347.643	-12.8
347.855	-2.56
348.067	-6.66
348.279	-25.09
348.491	67.07
348.703	118.27
348.915	32.26
349.127	46.59
349.339	71.17
349.551	1.54
349.763	-59.9
349.975	-45.57
350.187	-27.14
350.399	40.45
350.61	9.73
350.822	54.78
351.034	36.35
351.246	-2.56
351.458	7.68
351.669	42.5
351.881	32.26
352.093	73.21
352.305	36.35
352.517	7.68
352.728	34.3
352.94	-39.42
353.152	3.58
353.363	83.45
353.575	3.58
353.787	9.73
353.999	32.26
354.21	44.54
354.422	77.31
354.633	54.78
354.845	56.83
355.057	42.5
355.268	22.02
355.48	11.78
355.692	17.92
355.903	30.21
356.115	54.78
356.326	7.68
356.538	105.98
356.749	42.5
356.961	93.69
357.172	95.74
357.384	22.02
357.595	-10.75
357.807	-18.94
358.018	28.16
358.23	36.35
358.441	30.21
358.653	62.98
358.864	103.93
359.075	46.59
359.287	-14.85
359.498	87.55
359.709	-8.7
359.921	60.93
360.132	15.87
360.344	-10.75
360.555	48.64
360.766	-12.8
360.977	50.69
361.189	65.02
361.4	-2.56
361.611	28.16
361.823	-4.61
362.034	-2.56
362.245	28.16
362.456	17.92
362.667	42.5
362.879	75.26
363.09	69.12
363.301	87.55
363.512	44.54
363.723	-16.9
363.935	32.26
364.146	60.93
364.357	-14.85
364.568	71.17
364.779	19.97
364.99	140.8
365.201	-6.66
365.412	83.45
365.623	40.45
365.834	-4.61
366.045	-41.47
366.256	52.74
366.467	26.11
366.678	3.58
366.889	5.63
367.1	42.5
367.311	5.63
367.522	-33.28
367.733	-4.61
367.944	24.06
368.155	44.54
368.366	-4.61
368.577	5.63
368.788	81.41
368.999	-96.77
369.209	19.97
369.42	58.88
369.631	22.02
369.842	83.45
370.053	17.92
370.264	24.06
370.474	58.88
370.685	56.83
370.896	75.26
371.107	9.73
371.317	-18.94
371.528	60.93
371.739	28.16
371.95	40.45
372.16	24.06
372.371	36.35
372.582	28.16
372.792	75.26
373.003	58.88
373.214	40.45
373.424	42.5
373.635	77.31
373.846	46.59
374.056	-10.75
374.267	79.36
374.477	44.54
374.688	22.02
374.898	-37.38
375.109	54.78
375.319	15.87
375.53	36.35
375.74	13.82
375.951	-45.57
376.161	13.82
376.372	3.58
376.582	28.16
376.793	85.5
377.003	19.97
377.214	67.07
377.424	11.78
377.635	36.35
377.845	93.69
378.055	48.64
378.266	24.06
378.476	60.93
378.686	71.17
378.897	24.06
379.107	91.65
379.317	67.07
379.528	71.17
379.738	85.5
379.948	19.97
380.158	22.02
380.369	77.31
380.579	-18.94
380.789	7.68
380.999	67.07
381.21	-4.61
381.42	1.54
381.63	52.74
381.84	38.4
382.05	40.45
382.261	116.22
382.471	22.02
382.681	26.11
382.891	44.54
383.101	87.55
383.311	75.26
383.521	83.45
383.731	-20.99
383.941	73.21
384.151	-8.7
384.361	-0.51
384.571	114.17
384.781	83.45
384.991	1.54
385.201	28.16
385.411	3.58
385.621	-18.94
385.831	28.16
386.041	-12.8
386.251	-0.51
386.461	75.26
386.671	46.59
386.881	36.35
387.091	71.17
387.301	58.88
387.511	46.59
387.72	65.02
387.93	26.11
388.14	157.18
388.35	77.31
388.56	65.02
388.769	-12.8
388.979	28.16
389.189	71.17
389.399	34.3
389.609	30.21
389.818	40.45
390.028	30.21
390.238	13.82
390.447	3.58
390.657	36.35
390.867	52.74
391.076	-14.85
391.286	44.54
391.496	38.4
391.705	56.83
391.915	116.22
392.125	50.69
392.334	7.68
392.544	126.46
392.753	-14.85
392.963	71.17
393.172	28.16
393.382	91.65
393.591	38.4
393.801	52.74
394.01	71.17
394.22	52.74
394.429	-10.75
394.639	56.83
394.848	11.78
395.058	122.37
395.267	30.21
395.477	95.74
395.686	116.22
395.895	103.93
396.105	105.98
396.314	48.64
396.524	85.5
396.733	103.93
396.942	99.84
397.152	26.11
397.361	79.36
397.57	3.58
397.78	79.36
397.989	54.78
398.198	114.17
398.407	24.06
398.617	103.93
398.826	99.84
399.035	97.79
399.244	83.45
399.453	112.13
399.663	44.54
399.872	69.12
400.081	3.58
400.29	60.93
400.499	46.59
400.708	38.4
400.917	50.69
401.127	103.93
401.336	91.65
401.545	101.89
401.754	26.11
401.963	93.69
402.172	42.5
402.381	50.69
402.59	73.21
402.799	7.68
403.008	83.45
403.217	62.98
403.426	87.55
403.635	38.4
403.844	67.07
404.053	120.32
404.262	140.8
404.471	110.08
404.68	67.07
404.888	85.5
405.097	67.07
405.306	93.69
405.515	118.27
405.724	93.69
405.933	30.21
406.142	128.51
406.35	167.42
406.559	44.54
406.768	3.58
406.977	173.57
407.185	75.26
407.394	77.31
407.603	101.89
407.812	163.33
408.02	132.61
408.229	169.47
408.438	56.83
408.646	120.32
408.855	130.56
409.064	155.13
409.272	175.61
409.481	83.45
409.69	120.32
409.898	105.98
410.107	177.66
410.315	206.33
410.524	148.99
410.733	130.56
410.941	235
411.15	175.61
411.358	208.38
411.567	161.28
411.775	247.29
411.984	288.25
412.192	167.42
412.401	298.49
412.609	278.01
412.818	226.81
413.026	243.2
413.234	284.16
413.443	290.3
413.651	230.91
413.86	339.45
414.068	329.21
414.276	329.21
414.485	349.69
414.693	265.72
414.901	370.17
415.11	368.12
415.318	341.5
415.526	376.31
415.734	392.7
415.943	327.16
416.151	409.08
416.359	445.95
416.567	429.56
416.776	435.71
416.984	505.34
417.192	462.33
417.4	439.8
417.608	454.14
417.817	493.05
418.025	615.93
418.233	665.08
418.441	529.91
418.649	591.35
418.857	599.54
419.065	652.79
419.273	542.2
419.481	703.99
419.689	753.14
419.897	724.47
420.105	792.05
420.313	814.58
420.521	865.78
420.729	785.91
420.937	855.54
421.145	923.12
421.353	900.59
421.561	964.08
421.769	962.03
421.977	1046
422.185	1023.47
422.393	1076.72
422.601	1236.46
422.809	1156.59
423.017	1175.02
423.224	1148.4
423.432	1144.3
423.64	1265.13
423.848	1334.76
424.056	1332.72
424.263	1445.35
424.471	1469.93
424.679	1453.55
424.887	1474.03
425.094	1631.72
425.302	1637.86
425.51	1699.3
425.718	1701.35
425.925	1752.55
426.133	1762.79
426.341	2012.64
426.548	2041.31
426.756	1961.44
426.964	1983.97
427.171	2135.52
427.379	2147.81
427.586	2254.3
427.794	2352.6
428.001	2332.12
428.209	2426.33
428.417	2442.71
428.624	2551.26
428.832	2586.07
429.039	2608.6
429.247	2686.42
429.454	2788.82
429.662	2915.8
429.869	2917.84
430.076	2993.62
430.284	2958.8
430.491	3028.43
430.699	3380.68
430.906	3255.76
431.114	3282.38
431.321	3415.5
431.528	3399.12
431.736	3685.83
431.943	3767.75
432.15	3788.23
432.358	3868.1
432.565	4093.38
432.772	3986.88
432.979	4302.27
433.187	4271.55
433.394	4502.97
433.601	4773.3
433.808	4605.37
434.016	4621.75
434.223	4724.15
434.43	5137.84
434.637	4922.8
434.844	5451.18
435.052	5440.94
435.259	5445.04
435.466	5277.1
435.673	5256.62
435.88	5574.06
436.087	5991.84
436.294	6061.48
436.501	6045.09
436.708	5942.69
436.915	6278.56
437.122	6593.95
437.329	6389.15
437.537	6825.37
437.743	6765.98
437.95	6641.05
438.157	7095.7
438.364	7347.6
438.571	7415.18
438.778	7398.8
438.985	7980.42
439.192	7986.57
439.399	8062.34
439.606	8080.77
439.813	8287.62
440.02	8840.57
440.227	8533.37
440.433	8750.46
440.64	8967.54
440.847	8871.29
441.054	9096.57
441.261	9731.44
441.467	9598.32
441.674	9727.34
441.881	10081.64
442.088	10210.66
442.294	9760.11
442.501	10304.87
442.708	10196.32
442.914	10687.84
443.121	11232.6
443.328	11025.75
443.534	11781.45
443.741	11355.47
443.948	11339.09
444.154	12076.36
444.361	12137.8
444.568	11914.57
444.774	12250.44
444.981	12444.99
445.187	12799.29
445.394	13276.47
445.6	13059.38
445.807	14224.68
446.013	13702.45
446.22	14105.9
446.426	14550.31
446.633	14744.86
446.839	15131.93
447.046	14796.06
447.252	15254.81
447.459	15506.71
447.665	15316.25
447.871	16133.39
448.078	16948.48
448.284	16033.04
448.491	16323.85
448.697	16995.58
448.903	17270.01
449.11	17466.61
449.316	17054.97
449.522	17372.41
449.728	17986.8
449.935	17972.46
450.141	17929.45
450.347	18363.62
450.553	17939.69
450.76	18001.13
450.966	18863.33
451.172	18410.73
451.378	18908.38
451.584	18556.13
451.791	19064.03
451.997	18898.14
452.203	19162.33
452.409	19408.09
452.615	18963.68
452.821	18459.88
453.027	18322.66
453.233	19336.41
453.44	18558.18
453.646	18822.37
453.852	18724.07
454.058	19180.76
454.264	18459.88
454.47	18984.16
454.676	18584.8
454.882	19336.41
455.088	17446.13
455.294	17761.52
455.5	18089.2
455.705	18232.55
455.911	17386.74
456.117	17171.71
456.323	16819.46
456.529	16026.89
456.735	16880.89
456.941	15994.12
457.147	16045.32
457.352	15576.34
457.558	15385.88
457.764	15496.47
457.97	15174.94
458.176	14964
458.381	14767.39
458.587	14013.74
458.793	13993.26
458.999	13385.01
459.204	14314.79
459.41	13919.53
459.616	12977.47
459.821	12993.85
460.027	12920.12
460.233	12531.01
460.438	12199.24
460.644	12066.12
460.85	11466.07
461.055	11558.22
461.261	11365.71
461.466	10413.41
461.672	10308.96
461.878	11085.14
462.083	10579.29
462.289	10265.96
462.494	10112.36
462.7	9616.75
462.905	9280.88
463.111	9663.85
463.316	9823.59
463.522	9495.92
463.727	9532.78
463.932	9713
464.138	9344.37
464.343	9201.01
464.549	9080.18
464.754	9475.44
464.959	9231.73
465.165	9323.89
465.37	9129.33
465.575	8768.89
465.781	9149.81
465.986	9201.01
466.191	8850.81
466.397	8719.74
466.602	8066.44
466.807	8519.04
467.012	8627.58
467.218	8471.93
467.423	8357.25
467.628	8469.89
467.833	8682.88
468.038	8291.71
468.244	8328.58
468.449	8613.24
468.654	8086.92
468.859	8394.11
469.064	8156.55
