Data from USB4F104151__74__12-54-39-959.txt Node

Date: Fri Mar 14 12:54:39 EDT 2025
User: louis
Spectrometer: USB4F10415
Trigger mode: 4
Integration Time (sec): 1.000000E-2
Scans to average: 1
Electric dark correction enabled: true
Nonlinearity correction enabled: false
Boxcar width: 0
XAxis mode: Wavelengths
Number of Pixels in Spectrum: 3648
>>>>>Begin Spectral Data<<<<<
178.204	-100.52
178.424	-100.52
178.644	-100.52
178.864	-61.61
179.084	-57.51
179.304	-0.17
179.524	46.93
179.744	-18.6
179.964	42.84
180.184	-43.18
180.404	-10.41
180.624	-59.56
180.844	-4.27
181.064	24.4
181.283	48.98
181.503	-4.27
181.723	-22.7
181.943	-28.84
182.163	-26.79
182.383	3.93
182.602	12.12
182.822	-12.46
183.042	-94.38
183.262	5.97
183.482	69.46
183.701	46.93
183.921	-43.18
184.141	-77.99
184.361	22.36
184.58	-12.46
184.8	-37.03
185.02	10.07
185.239	44.88
185.459	40.79
185.679	20.31
185.898	-4.27
186.118	-39.08
186.338	-71.85
186.557	-18.6
186.777	-6.31
186.997	53.08
187.216	48.98
187.436	20.31
187.655	36.69
187.875	-2.22
188.095	28.5
188.314	-43.18
188.534	38.74
188.753	-8.36
188.973	20.31
189.192	-8.36
189.412	-0.17
189.631	28.5
189.851	-16.55
190.07	-2.22
190.29	1.88
190.509	-30.89
190.729	28.5
190.948	46.93
191.168	77.65
191.387	36.69
191.607	-10.41
191.826	-2.22
192.045	-18.6
192.265	12.12
192.484	-43.18
192.704	53.08
192.923	-37.03
193.142	59.22
193.362	-65.71
193.581	-16.55
193.8	-86.19
194.02	40.79
194.239	-26.79
194.458	44.88
194.678	-26.79
194.897	5.97
195.116	8.02
195.335	3.93
195.555	-49.32
195.774	69.46
195.993	18.26
196.212	-12.46
196.432	44.88
196.651	-37.03
196.87	61.27
197.089	12.12
197.308	-51.37
197.528	28.5
197.747	38.74
197.966	40.79
198.185	-6.31
198.404	-37.03
198.623	38.74
198.842	-12.46
199.062	38.74
199.281	-45.23
199.5	26.45
199.719	24.4
199.938	73.56
200.157	8.02
200.376	5.97
200.595	-75.95
200.814	65.36
201.033	3.93
201.252	-53.42
201.471	-10.41
201.69	30.55
201.909	63.32
202.128	55.12
202.347	-16.55
202.566	3.93
202.785	-86.19
203.004	-24.75
203.223	51.03
203.442	-34.99
203.661	-86.19
203.879	71.51
204.098	12.12
204.317	5.97
204.536	14.17
204.755	-45.23
204.974	40.79
205.193	-53.42
205.411	36.69
205.63	-22.7
205.849	-10.41
206.068	36.69
206.287	61.27
206.505	28.5
206.724	69.46
206.943	3.93
207.162	34.64
207.381	26.45
207.599	-14.51
207.818	-39.08
208.037	63.32
208.255	-16.55
208.474	5.97
208.693	20.31
208.911	-18.6
209.13	-12.46
209.349	-12.46
209.567	14.17
209.786	46.93
210.005	1.88
210.223	57.17
210.442	-28.84
210.661	-14.51
210.879	55.12
211.098	22.36
211.316	34.64
211.535	-34.99
211.753	-4.27
211.972	-8.36
212.191	-41.13
212.409	-24.75
212.628	-6.31
212.846	-2.22
213.065	18.26
213.283	32.6
213.502	-0.17
213.72	-10.41
213.938	1.88
214.157	-16.55
214.375	32.6
214.594	-16.55
214.812	-53.42
215.031	-10.41
215.249	1.88
215.467	-26.79
215.686	-20.65
215.904	36.69
216.122	-18.6
216.341	16.21
216.559	3.93
216.778	-57.51
216.996	-43.18
217.214	20.31
217.432	-57.51
217.651	-20.65
217.869	3.93
218.087	24.4
218.306	55.12
218.524	5.97
218.742	-32.94
218.96	-10.41
219.179	-22.7
219.397	-18.6
219.615	-12.46
219.833	14.17
220.051	32.6
220.27	20.31
220.488	-8.36
220.706	46.93
220.924	-67.75
221.142	14.17
221.36	18.26
221.578	24.4
221.796	-12.46
222.015	-55.47
222.233	-4.27
222.451	-18.6
222.669	1.88
222.887	36.69
223.105	12.12
223.323	-41.13
223.541	-4.27
223.759	44.88
223.977	-10.41
224.195	-4.27
224.413	-10.41
224.631	-47.27
224.849	-41.13
225.067	42.84
225.285	-8.36
225.503	-16.55
225.721	-10.41
225.939	14.17
226.157	51.03
226.375	71.51
226.592	-43.18
226.81	55.12
227.028	-63.66
227.246	22.36
227.464	-88.23
227.682	-18.6
227.9	-18.6
228.117	46.93
228.335	-12.46
228.553	3.93
228.771	-4.27
228.989	-63.66
229.206	32.6
229.424	20.31
229.642	14.17
229.86	-2.22
230.077	59.22
230.295	3.93
230.513	-67.75
230.731	53.08
230.948	-16.55
231.166	-69.8
231.384	44.88
231.601	-16.55
231.819	-37.03
232.037	32.6
232.254	-41.13
232.472	-4.27
232.689	-28.84
232.907	42.84
233.125	-20.65
233.342	-12.46
233.56	-4.27
233.777	-49.32
233.995	-4.27
234.213	69.46
234.43	18.26
234.648	-4.27
234.865	-0.17
235.083	-82.09
235.3	-14.51
235.518	3.93
235.735	14.17
235.953	-4.27
236.17	61.27
236.388	40.79
236.605	-30.89
236.822	-69.8
237.04	12.12
237.257	36.69
237.475	-0.17
237.692	-16.55
237.909	22.36
238.127	-43.18
238.344	59.22
238.562	-34.99
238.779	-14.51
238.996	20.31
239.214	-57.51
239.431	59.22
239.648	-57.51
239.865	1.88
240.083	-20.65
240.3	-0.17
240.517	-55.47
240.735	5.97
240.952	-0.17
241.169	-12.46
241.386	65.36
241.603	12.12
241.821	-102.57
242.038	48.98
242.255	83.8
242.472	14.17
242.689	28.5
242.907	-10.41
243.124	-55.47
243.341	-0.17
243.558	3.93
243.775	14.17
243.992	-8.36
244.209	12.12
244.426	32.6
244.643	22.36
244.86	-32.94
245.078	26.45
245.295	24.4
245.512	-12.46
245.729	-65.71
245.946	20.31
246.163	1.88
246.38	-26.79
246.597	3.93
246.814	8.02
247.031	-6.31
247.248	-10.41
247.464	3.93
247.681	5.97
247.898	-24.75
248.115	55.12
248.332	-10.41
248.549	48.98
248.766	22.36
248.983	20.31
249.2	51.03
249.417	10.07
249.633	-59.56
249.85	42.84
250.067	-30.89
250.284	-37.03
250.501	-12.46
250.717	-39.08
250.934	5.97
251.151	46.93
251.368	38.74
251.585	8.02
251.801	22.36
252.018	-32.94
252.235	-55.47
252.451	5.97
252.668	-4.27
252.885	-18.6
253.102	34.64
253.318	-51.37
253.535	28.5
253.752	14.17
253.968	8.02
254.185	-32.94
254.401	-22.7
254.618	55.12
254.835	-14.51
255.051	59.22
255.268	51.03
255.484	40.79
255.701	-90.28
255.917	46.93
256.134	14.17
256.351	55.12
256.567	28.5
256.784	-24.75
257	30.55
257.217	-57.51
257.433	10.07
257.65	-2.22
257.866	5.97
258.082	44.88
258.299	51.03
258.515	28.5
258.732	5.97
258.948	-28.84
259.165	-32.94
259.381	16.21
259.597	-6.31
259.814	-20.65
260.03	-2.22
260.246	-12.46
260.463	14.17
260.679	55.12
260.895	-30.89
261.112	-32.94
261.328	-28.84
261.544	32.6
261.761	77.65
261.977	-34.99
262.193	-51.37
262.409	81.75
262.626	28.5
262.842	36.69
263.058	-43.18
263.274	51.03
263.49	-20.65
263.707	34.64
263.923	10.07
264.139	48.98
264.355	20.31
264.571	26.45
264.787	18.26
265.004	12.12
265.22	-6.31
265.436	53.08
265.652	-2.22
265.868	20.31
266.084	-4.27
266.3	-63.66
266.516	-88.23
266.732	-0.17
266.948	-28.84
267.164	42.84
267.38	51.03
267.596	-4.27
267.812	16.21
268.028	55.12
268.244	22.36
268.46	-0.17
268.676	-22.7
268.892	-14.51
269.108	10.07
269.324	12.12
269.54	28.5
269.756	61.27
269.972	1.88
270.188	-4.27
270.403	-26.79
270.619	-47.27
270.835	-43.18
271.051	-10.41
271.267	-28.84
271.483	-37.03
271.698	-51.37
271.914	-10.41
272.13	-4.27
272.346	28.5
272.562	3.93
272.777	14.17
272.993	55.12
273.209	51.03
273.425	59.22
273.64	3.93
273.856	18.26
274.072	34.64
274.287	-49.32
274.503	1.88
274.719	12.12
274.934	-10.41
275.15	-88.23
275.366	-39.08
275.581	55.12
275.797	-8.36
276.012	-49.32
276.228	-0.17
276.444	34.64
276.659	12.12
276.875	-45.23
277.09	67.41
277.306	5.97
277.521	53.08
277.737	-26.79
277.952	77.65
278.168	-30.89
278.383	51.03
278.599	-43.18
278.814	48.98
279.03	5.97
279.245	30.55
279.461	-65.71
279.676	36.69
279.892	-55.47
280.107	-6.31
280.322	-18.6
280.538	44.88
280.753	-16.55
280.969	-26.79
281.184	16.21
281.399	-2.22
281.615	12.12
281.83	38.74
282.045	8.02
282.26	102.23
282.476	16.21
282.691	81.75
282.906	3.93
283.122	-24.75
283.337	67.41
283.552	-41.13
283.767	-53.42
283.983	28.5
284.198	-28.84
284.413	-16.55
284.628	18.26
284.843	96.08
285.058	1.88
285.274	-10.41
285.489	55.12
285.704	20.31
285.919	-14.51
286.134	18.26
286.349	-2.22
286.564	36.69
286.779	32.6
286.995	98.13
287.21	-65.71
287.425	34.64
287.64	67.41
287.855	24.4
288.07	-88.23
288.285	59.22
288.5	-65.71
288.715	28.5
288.93	-14.51
289.145	18.26
289.36	-39.08
289.575	55.12
289.79	-20.65
290.004	-4.27
290.219	16.21
290.434	77.65
290.649	-22.7
290.864	42.84
291.079	-14.51
291.294	-4.27
291.509	-12.46
291.724	8.02
291.938	8.02
292.153	1.88
292.368	5.97
292.583	22.36
292.798	22.36
293.012	-24.75
293.227	28.5
293.442	-24.75
293.657	36.69
293.871	-2.22
294.086	94.04
294.301	40.79
294.516	44.88
294.73	14.17
294.945	-53.42
295.16	-32.94
295.374	46.93
295.589	-32.94
295.804	-104.62
296.018	8.02
296.233	44.88
296.447	36.69
296.662	-6.31
296.877	14.17
297.091	-8.36
297.306	-0.17
297.52	-18.6
297.735	-24.75
297.949	10.07
298.164	36.69
298.378	-16.55
298.593	-24.75
298.807	30.55
299.022	26.45
299.236	46.93
299.451	42.84
299.665	-4.27
299.88	-24.75
300.094	16.21
300.309	-39.08
300.523	-22.7
300.737	12.12
300.952	-10.41
301.166	44.88
301.381	-41.13
301.595	-4.27
301.809	40.79
302.024	-100.52
302.238	-45.23
302.452	16.21
302.667	-37.03
302.881	42.84
303.095	-10.41
303.309	8.02
303.524	40.79
303.738	-4.27
303.952	14.17
304.166	3.93
304.381	20.31
304.595	-49.32
304.809	10.07
305.023	-6.31
305.237	-18.6
305.452	3.93
305.666	-14.51
305.88	40.79
306.094	20.31
306.308	16.21
306.522	24.4
306.736	-28.84
306.95	-30.89
307.164	22.36
307.379	-20.65
307.593	77.65
307.807	12.12
308.021	75.6
308.235	3.93
308.449	3.93
308.663	-8.36
308.877	40.79
309.091	-24.75
309.305	-30.89
309.519	51.03
309.733	14.17
309.947	65.36
310.161	24.4
310.374	-53.42
310.588	-18.6
310.802	-47.27
311.016	-12.46
311.23	63.32
311.444	5.97
311.658	-18.6
311.872	55.12
312.085	16.21
312.299	42.84
312.513	1.88
312.727	22.36
312.941	36.69
313.154	-4.27
313.368	89.94
313.582	53.08
313.796	-49.32
314.009	-20.65
314.223	-43.18
314.437	34.64
314.651	65.36
314.864	30.55
315.078	16.21
315.292	-2.22
315.505	44.88
315.719	-14.51
315.933	-10.41
316.146	-59.56
316.36	20.31
316.573	-18.6
316.787	-37.03
317.001	30.55
317.214	8.02
317.428	14.17
317.641	-45.23
317.855	5.97
318.068	20.31
318.282	10.07
318.495	-28.84
318.709	5.97
318.922	3.93
319.136	20.31
319.349	-39.08
319.563	-18.6
319.776	-18.6
319.99	71.51
320.203	112.47
320.417	-69.8
320.63	-16.55
320.843	65.36
321.057	-4.27
321.27	44.88
321.483	32.6
321.697	36.69
321.91	71.51
322.124	14.17
322.337	-0.17
322.55	30.55
322.763	26.45
322.977	-37.03
323.19	61.27
323.403	-2.22
323.617	16.21
323.83	30.55
324.043	3.93
324.256	18.26
324.469	24.4
324.683	-2.22
324.896	-32.94
325.109	40.79
325.322	-43.18
325.535	-20.65
325.748	18.26
325.962	-43.18
326.175	-10.41
326.388	-2.22
326.601	-53.42
326.814	87.89
327.027	55.12
327.24	12.12
327.453	-6.31
327.666	-20.65
327.879	30.55
328.092	36.69
328.305	-63.66
328.518	-0.17
328.731	-14.51
328.944	-26.79
329.157	5.97
329.37	34.64
329.583	53.08
329.796	-16.55
330.009	5.97
330.222	53.08
330.435	22.36
330.648	-47.27
330.861	-16.55
331.073	8.02
331.286	32.6
331.499	14.17
331.712	48.98
331.925	81.75
332.138	34.64
332.35	1.88
332.563	-12.46
332.776	-34.99
332.989	63.32
333.202	-45.23
333.414	22.36
333.627	42.84
333.84	32.6
334.053	24.4
334.265	-32.94
334.478	-22.7
334.691	96.08
334.903	83.8
335.116	-20.65
335.329	-14.51
335.541	-0.17
335.754	57.17
335.966	34.64
336.179	34.64
336.392	-98.47
336.604	102.23
336.817	-18.6
337.029	51.03
337.242	24.4
337.454	20.31
337.667	-0.17
337.88	61.27
338.092	-16.55
338.305	-10.41
338.517	-65.71
338.729	-12.46
338.942	26.45
339.154	10.07
339.367	26.45
339.579	1.88
339.792	61.27
340.004	1.88
340.217	46.93
340.429	10.07
340.641	-51.37
340.854	34.64
341.066	44.88
341.278	55.12
341.491	91.99
341.703	1.88
341.915	12.12
342.128	26.45
342.34	22.36
342.552	-18.6
342.764	-14.51
342.977	14.17
343.189	28.5
343.401	75.6
343.613	1.88
343.826	57.17
344.038	32.6
344.25	-4.27
344.462	32.6
344.674	20.31
344.886	55.12
345.099	77.65
345.311	38.74
345.523	-2.22
345.735	12.12
345.947	-34.99
346.159	22.36
346.371	-49.32
346.583	14.17
346.795	-0.17
347.007	8.02
347.219	85.84
347.431	-8.36
347.643	87.89
347.855	59.22
348.067	24.4
348.279	-0.17
348.491	-43.18
348.703	42.84
348.915	48.98
349.127	3.93
349.339	-4.27
349.551	8.02
349.763	-77.99
349.975	8.02
350.187	10.07
350.399	16.21
350.61	59.22
350.822	-34.99
351.034	69.46
351.246	16.21
351.458	-26.79
351.669	120.66
351.881	53.08
352.093	24.4
352.305	-2.22
352.517	30.55
352.728	-32.94
352.94	20.31
353.152	3.93
353.363	28.5
353.575	55.12
353.787	-12.46
353.999	51.03
354.21	-39.08
354.422	65.36
354.633	-69.8
354.845	-30.89
355.057	14.17
355.268	-47.27
355.48	5.97
355.692	61.27
355.903	8.02
356.115	-14.51
356.326	-2.22
356.538	10.07
356.749	8.02
356.961	14.17
357.172	-18.6
357.384	-51.37
357.595	34.64
357.807	8.02
358.018	22.36
358.23	-26.79
358.441	8.02
358.653	-26.79
358.864	30.55
359.075	3.93
359.287	53.08
359.498	-55.47
359.709	-67.75
359.921	34.64
360.132	-24.75
360.344	-32.94
360.555	-8.36
360.766	30.55
360.977	-24.75
361.189	26.45
361.4	-22.7
361.611	-10.41
361.823	5.97
362.034	26.45
362.245	1.88
362.456	20.31
362.667	-84.14
362.879	1.88
363.09	-77.99
363.301	36.69
363.512	-16.55
363.723	22.36
363.935	26.45
364.146	53.08
364.357	-6.31
364.568	87.89
364.779	12.12
364.99	46.93
365.201	-10.41
365.412	65.36
365.623	-16.55
365.834	108.37
366.045	-12.46
366.256	3.93
366.467	12.12
366.678	38.74
366.889	14.17
367.1	16.21
367.311	14.17
367.522	-61.61
367.733	28.5
367.944	32.6
368.155	-55.47
368.366	3.93
368.577	79.7
368.788	-30.89
368.999	1.88
369.209	12.12
369.42	14.17
369.631	30.55
369.842	20.31
370.053	5.97
370.264	-0.17
370.474	48.98
370.685	-14.51
370.896	-28.84
371.107	14.17
371.317	-32.94
371.528	32.6
371.739	36.69
371.95	-34.99
372.16	40.79
372.371	-57.51
372.582	59.22
372.792	20.31
373.003	28.5
373.214	-18.6
373.424	5.97
373.635	-55.47
373.846	79.7
374.056	-22.7
374.267	10.07
374.477	61.27
374.688	3.93
374.898	48.98
375.109	5.97
375.319	67.41
375.53	59.22
375.74	-98.47
375.951	34.64
376.161	8.02
376.372	59.22
376.582	10.07
376.793	-32.94
377.003	-20.65
377.214	-86.19
377.424	-4.27
377.635	-28.84
377.845	22.36
378.055	-2.22
378.266	28.5
378.476	14.17
378.686	26.45
378.897	-30.89
379.107	40.79
379.317	16.21
379.528	-2.22
379.738	34.64
379.948	5.97
380.158	-43.18
380.369	-18.6
380.579	38.74
380.789	20.31
380.999	44.88
381.21	-26.79
381.42	65.36
381.63	12.12
381.84	-14.51
382.05	24.4
382.261	67.41
382.471	28.5
382.681	-4.27
382.891	44.88
383.101	16.21
383.311	-43.18
383.521	-0.17
383.731	18.26
383.941	77.65
384.151	61.27
384.361	73.56
384.571	-28.84
384.781	71.51
384.991	-16.55
385.201	14.17
385.411	5.97
385.621	22.36
385.831	5.97
386.041	-69.8
386.251	-49.32
386.461	61.27
386.671	42.84
386.881	3.93
387.091	32.6
387.301	16.21
387.511	30.55
387.72	-57.51
387.93	20.31
388.14	5.97
388.35	-55.47
388.56	18.26
388.769	14.17
388.979	8.02
389.189	14.17
389.399	-4.27
389.609	38.74
389.818	16.21
390.028	26.45
390.238	40.79
390.447	55.12
390.657	24.4
390.867	1.88
391.076	48.98
391.286	-18.6
391.496	-12.46
391.705	85.84
391.915	79.7
392.125	51.03
392.334	14.17
392.544	44.88
392.753	24.4
392.963	12.12
393.172	71.51
393.382	63.32
393.591	5.97
393.801	18.26
394.01	67.41
394.22	-6.31
394.429	22.36
394.639	20.31
394.848	34.64
395.058	59.22
395.267	-4.27
395.477	59.22
395.686	3.93
395.895	44.88
396.105	81.75
396.314	-34.99
396.524	1.88
396.733	53.08
396.942	-24.75
397.152	-2.22
397.361	28.5
397.57	98.13
397.78	46.93
397.989	24.4
398.198	24.4
398.407	34.64
398.617	30.55
398.826	112.47
399.035	85.84
399.244	38.74
399.453	5.97
399.663	22.36
399.872	-67.75
400.081	-4.27
400.29	14.17
400.499	14.17
400.708	42.84
400.917	5.97
401.127	61.27
401.336	-14.51
401.545	53.08
401.754	75.6
401.963	73.56
402.172	1.88
402.381	3.93
402.59	73.56
402.799	61.27
403.008	34.64
403.217	63.32
403.426	-2.22
403.635	14.17
403.844	69.46
404.053	65.36
404.262	77.65
404.471	8.02
404.68	108.37
404.888	55.12
405.097	155.47
405.306	98.13
405.515	61.27
405.724	104.28
405.933	61.27
406.142	87.89
406.35	34.64
406.559	87.89
406.768	98.13
406.977	104.28
407.185	40.79
407.394	22.36
407.603	151.38
407.812	63.32
408.02	124.76
408.229	126.8
408.438	65.36
408.646	71.51
408.855	128.85
409.064	106.32
409.272	77.65
409.481	126.8
409.69	79.7
409.898	122.71
410.107	112.47
410.315	104.28
410.524	110.42
410.733	167.76
410.941	106.32
411.15	85.84
411.358	182.1
411.567	118.61
411.775	165.71
411.984	184.15
412.192	186.19
412.401	188.24
412.609	143.19
412.818	153.43
413.026	137.04
413.234	221.01
413.443	161.62
413.651	261.97
413.86	270.16
414.068	280.4
414.276	223.06
414.485	282.45
414.693	233.3
414.901	249.68
415.11	239.44
415.318	358.22
415.526	266.07
415.734	253.78
415.943	382.8
416.151	327.5
416.359	302.93
416.567	323.41
416.776	372.56
416.984	403.28
417.192	495.44
417.4	292.69
417.608	397.14
417.817	470.86
418.025	481.1
418.233	532.3
418.441	515.92
418.649	530.25
418.857	513.87
419.065	520.01
419.273	579.4
419.481	565.07
419.689	636.75
419.897	683.85
420.105	642.89
420.313	692.04
420.521	667.47
420.729	667.47
420.937	741.19
421.145	708.43
421.353	790.35
421.561	812.87
421.769	755.53
421.977	829.26
422.185	968.52
422.393	870.22
422.601	1052.49
422.809	1019.72
423.017	935.75
423.224	1070.92
423.432	1093.44
423.64	1193.8
423.848	1152.84
424.056	1224.51
424.263	1171.27
424.471	1281.86
424.679	1255.23
424.887	1298.24
425.094	1357.63
425.302	1355.58
425.51	1482.56
425.718	1521.47
425.925	1562.43
426.133	1527.61
426.341	1681.21
426.548	1701.69
426.756	1726.27
426.964	1773.37
427.171	1875.77
427.379	1797.95
427.586	1953.59
427.794	2058.04
428.001	2043.7
428.209	2256.69
428.417	2215.73
428.624	2359.09
428.832	2408.24
429.039	2318.13
429.247	2250.55
429.454	2520.88
429.662	2543.41
429.869	2492.21
430.076	2672.43
430.284	2537.26
430.491	2684.72
430.699	2840.36
430.906	2764.59
431.114	2838.31
431.321	2959.14
431.528	3221.28
431.736	3055.4
431.943	3434.27
432.15	3286.82
432.358	3309.35
432.565	3385.12
432.772	3514.14
432.979	3823.39
433.187	3673.89
433.394	3725.08
433.601	3976.98
433.808	4028.18
434.016	3944.22
434.223	4265.75
434.43	4337.43
434.637	4337.43
434.844	4613.9
435.052	4628.24
435.259	4636.43
435.466	4675.34
435.673	4712.21
435.88	4972.3
436.087	5287.68
436.294	5160.71
436.501	5185.29
436.708	5285.64
436.915	5345.03
437.122	5494.53
437.329	5705.47
437.537	5965.56
437.743	5977.85
437.95	6110.97
438.157	6133.5
438.364	6336.24
438.571	6328.05
438.778	6467.31
438.985	6950.64
439.192	6858.48
439.399	7071.47
439.606	6819.57
439.813	7231.21
440.02	7739.1
440.227	7384.8
440.433	7528.16
440.64	7810.78
440.847	7519.97
441.054	7909.08
441.261	8208.09
441.467	8210.14
441.674	8386.26
441.881	8953.55
442.088	8611.54
442.294	8693.46
442.501	8865.49
442.708	9127.63
442.914	9232.07
443.121	9981.63
443.328	9584.32
443.534	10227.39
443.741	10145.47
443.948	9735.87
444.154	10510
444.361	10514.1
444.568	10612.4
444.774	10575.54
444.981	10665.65
445.187	10933.93
445.394	11439.78
445.6	11337.38
445.807	12492.44
446.013	11822.75
446.22	12132
446.426	12635.8
446.633	12619.41
446.839	13067.92
447.046	12420.76
447.252	13342.35
447.459	13385.35
447.665	13223.56
447.871	13727.36
448.078	14548.6
448.284	13481.61
448.491	14227.07
448.697	14728.82
448.903	14960.24
449.11	15031.92
449.316	14909.04
449.522	15052.4
449.728	15609.45
449.935	15523.43
450.141	15629.93
450.347	15578.73
450.553	15330.92
450.76	15687.27
450.966	16356.96
451.172	16043.62
451.378	16330.33
451.584	16279.13
451.791	16658.01
451.997	16332.38
452.203	17004.11
452.409	16944.72
452.615	16553.56
452.821	16088.67
453.027	15898.21
453.233	16701.01
453.44	16209.5
453.646	15994.47
453.852	16522.84
454.058	16488.03
454.264	16127.58
454.47	16596.57
454.676	16086.62
454.882	16492.12
455.088	15246.96
455.294	15326.83
455.5	15724.13
455.705	15638.12
455.911	15195.76
456.117	14784.12
456.323	14438.01
456.529	13809.28
456.735	14790.26
456.941	14093.95
457.147	13973.12
457.352	13522.57
457.558	13436.55
457.764	13325.96
457.97	13233.8
458.176	12873.36
458.381	13055.63
458.587	12295.83
458.793	12449.43
458.999	11570.85
459.204	12568.21
459.41	12129.95
459.616	11216.55
459.821	11206.31
460.027	11230.89
460.233	10913.45
460.438	10274.49
460.644	10491.57
460.85	10108.6
461.055	10034.88
461.261	9756.35
461.466	9166.54
461.672	8855.25
461.878	9572.04
462.083	8689.36
462.289	8818.38
462.494	8556.24
462.7	8197.85
462.905	8019.67
463.111	8335.06
463.316	8234.71
463.522	8163.03
463.727	8423.12
463.932	8177.37
464.138	8240.86
464.343	8017.63
464.549	8027.87
464.754	8021.72
464.959	8160.98
465.165	8060.63
465.37	7571.17
465.575	7466.72
465.781	7802.59
465.986	8021.72
466.191	7519.97
466.397	7372.52
466.602	7007.98
466.807	7481.06
467.012	7249.64
467.218	7261.93
467.423	7290.6
467.628	7298.79
467.833	7530.21
468.038	7302.89
