Data from USB4F104151__42__12-53-49-655.txt Node

Date: Fri Mar 14 12:53:49 EDT 2025
User: louis
Spectrometer: USB4F10415
Trigger mode: 4
Integration Time (sec): 1.000000E-2
Scans to average: 1
Electric dark correction enabled: true
Nonlinearity correction enabled: false
Boxcar width: 0
XAxis mode: Wavelengths
Number of Pixels in Spectrum: 3648
>>>>>Begin Spectral Data<<<<<
178.204	-46.25
178.424	-46.25
178.644	-46.25
178.864	-95.4
179.084	4.95
179.304	-1.19
179.524	-23.72
179.744	-83.11
179.964	-25.77
180.184	-9.39
180.404	25.43
180.624	33.62
180.844	-5.29
181.064	-52.39
181.283	90.96
181.503	60.24
181.723	-9.39
181.943	-66.73
182.163	-13.48
182.383	-9.39
182.602	56.15
182.822	-29.87
183.042	-13.48
183.262	41.81
183.482	-3.24
183.701	37.72
183.921	4.95
184.141	29.52
184.361	47.96
184.58	-11.43
184.8	64.34
185.02	-31.91
185.239	93.01
185.459	-17.58
185.679	-1.19
185.898	0.85
186.118	60.24
186.338	-15.53
186.557	72.53
186.777	39.76
186.997	-11.43
187.216	17.24
187.436	-40.11
187.655	41.81
187.875	66.39
188.095	25.43
188.314	27.48
188.534	-23.72
188.753	-29.87
188.973	37.72
189.192	37.72
189.412	39.76
189.631	52.05
189.851	-48.3
190.07	50
190.29	54.1
190.509	21.33
190.729	7
190.948	13.14
191.168	64.34
191.387	-1.19
191.607	35.67
191.826	15.19
192.045	-5.29
192.265	31.57
192.484	9.05
192.704	-1.19
192.923	43.86
193.142	31.57
193.362	13.14
193.581	78.68
193.8	-7.34
194.02	23.38
194.239	-52.39
194.458	-1.19
194.678	-44.2
194.897	58.2
195.116	-9.39
195.335	39.76
195.555	-27.82
195.774	-46.25
195.993	-64.68
196.212	78.68
196.432	21.33
196.651	21.33
196.87	-21.67
197.089	58.2
197.308	29.52
197.528	9.05
197.747	0.85
197.966	-5.29
198.185	17.24
198.404	-42.15
198.623	64.34
198.842	41.81
199.062	54.1
199.281	33.62
199.5	29.52
199.719	9.05
199.938	15.19
200.157	-15.53
200.376	2.9
200.595	50
200.814	0.85
201.033	-3.24
201.252	50
201.471	29.52
201.69	29.52
201.909	-13.48
202.128	41.81
202.347	-15.53
202.566	0.85
202.785	-17.58
203.004	41.81
203.223	35.67
203.442	2.9
203.661	76.63
203.879	33.62
204.098	-29.87
204.317	11.09
204.536	52.05
204.755	0.85
204.974	13.14
205.193	21.33
205.411	15.19
205.63	39.76
205.849	50
206.068	39.76
206.287	-27.82
206.505	84.82
206.724	29.52
206.943	37.72
207.162	-25.77
207.381	23.38
207.599	27.48
207.818	58.2
208.037	7
208.255	72.53
208.474	88.92
208.693	9.05
208.911	-76.97
209.13	86.87
209.349	60.24
209.567	9.05
209.786	47.96
210.005	-33.96
210.223	39.76
210.442	9.05
210.661	-3.24
210.879	-42.15
211.098	45.91
211.316	47.96
211.535	27.48
211.753	-17.58
211.972	13.14
212.191	23.38
212.409	23.38
212.628	2.9
212.846	39.76
213.065	-31.91
213.283	23.38
213.502	21.33
213.72	64.34
213.938	25.43
214.157	-3.24
214.375	-13.48
214.594	41.81
214.812	-21.67
215.031	-3.24
215.249	-9.39
215.467	45.91
215.686	-11.43
215.904	19.29
216.122	29.52
216.341	-68.78
216.559	-64.68
216.778	33.62
216.996	74.58
217.214	-15.53
217.432	17.24
217.651	21.33
217.869	-25.77
218.087	27.48
218.306	-5.29
218.524	27.48
218.742	25.43
218.96	66.39
219.179	78.68
219.397	66.39
219.615	80.72
219.833	39.76
220.051	-60.59
220.27	56.15
220.488	56.15
220.706	2.9
220.924	15.19
221.142	52.05
221.36	9.05
221.578	15.19
221.796	7
222.015	86.87
222.233	13.14
222.451	56.15
222.669	-9.39
222.887	70.48
223.105	4.95
223.323	43.86
223.541	-79.02
223.759	13.14
223.977	-13.48
224.195	-1.19
224.413	-19.63
224.631	68.44
224.849	31.57
225.067	86.87
225.285	-1.19
225.503	11.09
225.721	0.85
225.939	37.72
226.157	15.19
226.375	13.14
226.592	9.05
226.81	41.81
227.028	17.24
227.246	27.48
227.464	37.72
227.682	52.05
227.9	82.77
228.117	60.24
228.335	-58.54
228.553	0.85
228.771	27.48
228.989	45.91
229.206	27.48
229.424	15.19
229.642	4.95
229.86	-44.2
230.077	41.81
230.295	37.72
230.513	58.2
230.731	54.1
230.948	43.86
231.166	72.53
231.384	50
231.601	76.63
231.819	15.19
232.037	2.9
232.254	-29.87
232.472	80.72
232.689	56.15
232.907	-42.15
233.125	27.48
233.342	60.24
233.56	54.1
233.777	-11.43
233.995	11.09
234.213	2.9
234.43	-48.3
234.648	9.05
234.865	119.64
235.083	50
235.3	56.15
235.518	50
235.735	54.1
235.953	58.2
236.17	11.09
236.388	25.43
236.605	-9.39
236.822	80.72
237.04	43.86
237.257	17.24
237.475	-3.24
237.692	37.72
237.909	-50.35
238.127	31.57
238.344	62.29
238.562	-17.58
238.779	9.05
238.996	-27.82
239.214	-42.15
239.431	4.95
239.648	-23.72
239.865	52.05
240.083	82.77
240.3	23.38
240.517	-31.91
240.735	9.05
240.952	13.14
241.169	-56.49
241.386	11.09
241.603	25.43
241.821	-56.49
242.038	58.2
242.255	31.57
242.472	25.43
242.689	-11.43
242.907	45.91
243.124	25.43
243.341	-15.53
243.558	37.72
243.775	11.09
243.992	-13.48
244.209	64.34
244.426	-11.43
244.643	23.38
244.86	15.19
245.078	62.29
245.295	-21.67
245.512	-3.24
245.729	37.72
245.946	13.14
246.163	19.29
246.38	25.43
246.597	17.24
246.814	45.91
247.031	27.48
247.248	72.53
247.464	41.81
247.681	78.68
247.898	-50.35
248.115	88.92
248.332	21.33
248.549	66.39
248.766	47.96
248.983	45.91
249.2	43.86
249.417	45.91
249.633	-17.58
249.85	4.95
250.067	-27.82
250.284	54.1
250.501	82.77
250.717	52.05
250.934	31.57
251.151	54.1
251.368	-19.63
251.585	-1.19
251.801	27.48
252.018	-3.24
252.235	33.62
252.451	-7.34
252.668	58.2
252.885	31.57
253.102	31.57
253.318	74.58
253.535	15.19
253.752	-19.63
253.968	15.19
254.185	-50.35
254.401	33.62
254.618	37.72
254.835	33.62
255.051	56.15
255.268	-17.58
255.484	-11.43
255.701	-1.19
255.917	78.68
256.134	-46.25
256.351	4.95
256.567	9.05
256.784	-3.24
257	52.05
257.217	13.14
257.433	-15.53
257.65	35.67
257.866	31.57
258.082	47.96
258.299	23.38
258.515	19.29
258.732	29.52
258.948	-23.72
259.165	-11.43
259.381	13.14
259.597	11.09
259.814	56.15
260.03	78.68
260.246	23.38
260.463	41.81
260.679	-15.53
260.895	17.24
261.112	37.72
261.328	4.95
261.544	72.53
261.761	125.78
261.977	93.01
262.193	-42.15
262.409	103.25
262.626	9.05
262.842	72.53
263.058	52.05
263.274	66.39
263.49	56.15
263.707	56.15
263.923	-31.91
264.139	45.91
264.355	25.43
264.571	-74.92
264.787	-23.72
265.004	21.33
265.22	64.34
265.436	-42.15
265.652	4.95
265.868	15.19
266.084	-3.24
266.3	-19.63
266.516	11.09
266.732	58.2
266.948	13.14
267.164	17.24
267.38	76.63
267.596	-5.29
267.812	37.72
268.028	-9.39
268.244	101.2
268.46	19.29
268.676	39.76
268.892	78.68
269.108	17.24
269.324	-23.72
269.54	-19.63
269.756	4.95
269.972	23.38
270.188	-1.19
270.403	45.91
270.619	-1.19
270.835	82.77
271.051	7
271.267	21.33
271.483	39.76
271.698	-1.19
271.914	39.76
272.13	2.9
272.346	-3.24
272.562	-11.43
272.777	31.57
272.993	39.76
273.209	37.72
273.425	35.67
273.64	47.96
273.856	-15.53
274.072	21.33
274.287	-11.43
274.503	78.68
274.719	39.76
274.934	-38.06
275.15	-64.68
275.366	11.09
275.581	13.14
275.797	-70.83
276.012	-52.39
276.228	78.68
276.444	-19.63
276.659	15.19
276.875	37.72
277.09	9.05
277.306	4.95
277.521	25.43
277.737	19.29
277.952	21.33
278.168	37.72
278.383	58.2
278.599	-17.58
278.814	17.24
279.03	-9.39
279.245	-42.15
279.461	-7.34
279.676	-5.29
279.892	31.57
280.107	-36.01
280.322	37.72
280.538	4.95
280.753	80.72
280.969	25.43
281.184	2.9
281.399	45.91
281.615	-9.39
281.83	21.33
282.045	4.95
282.26	31.57
282.476	74.58
282.691	76.63
282.906	93.01
283.122	99.16
283.337	-19.63
283.552	88.92
283.767	56.15
283.983	-13.48
284.198	27.48
284.413	13.14
284.628	37.72
284.843	29.52
285.058	-3.24
285.274	-3.24
285.489	4.95
285.704	97.11
285.919	-36.01
286.134	64.34
286.349	25.43
286.564	31.57
286.779	7
286.995	-36.01
287.21	86.87
287.425	58.2
287.64	60.24
287.855	37.72
288.07	11.09
288.285	25.43
288.5	47.96
288.715	37.72
288.93	37.72
289.145	23.38
289.36	17.24
289.575	70.48
289.79	4.95
290.004	-11.43
290.219	88.92
290.434	15.19
290.649	15.19
290.864	-27.82
291.079	13.14
291.294	13.14
291.509	21.33
291.724	50
291.938	78.68
292.153	21.33
292.368	15.19
292.583	-11.43
292.798	60.24
293.012	15.19
293.227	-36.01
293.442	35.67
293.657	70.48
293.871	13.14
294.086	21.33
294.301	111.44
294.516	35.67
294.73	74.58
294.945	-13.48
295.16	27.48
295.374	9.05
295.589	41.81
295.804	-13.48
296.018	-27.82
296.233	31.57
296.447	29.52
296.662	74.58
296.877	9.05
297.091	97.11
297.306	-46.25
297.52	-3.24
297.735	70.48
297.949	-74.92
298.164	11.09
298.378	4.95
298.593	-23.72
298.807	-3.24
299.022	39.76
299.236	41.81
299.451	64.34
299.665	47.96
299.88	62.29
300.094	-9.39
300.309	15.19
300.523	-38.06
300.737	2.9
300.952	43.86
301.166	80.72
301.381	68.44
301.595	-5.29
301.809	17.24
302.024	86.87
302.238	19.29
302.452	17.24
302.667	25.43
302.881	-7.34
303.095	74.58
303.309	31.57
303.524	-23.72
303.738	125.78
303.952	2.9
304.166	31.57
304.381	58.2
304.595	27.48
304.809	15.19
305.023	60.24
305.237	9.05
305.452	27.48
305.666	15.19
305.88	19.29
306.094	-1.19
306.308	95.06
306.522	109.4
306.736	27.48
306.95	13.14
307.164	2.9
307.379	58.2
307.593	37.72
307.807	58.2
308.021	17.24
308.235	39.76
308.449	-13.48
308.663	17.24
308.877	29.52
309.091	41.81
309.305	31.57
309.519	-1.19
309.733	82.77
309.947	-11.43
310.161	29.52
310.374	25.43
310.588	37.72
310.802	-33.96
311.016	0.85
311.23	0.85
311.444	31.57
311.658	52.05
311.872	68.44
312.085	93.01
312.299	25.43
312.513	9.05
312.727	19.29
312.941	25.43
313.154	58.2
313.368	21.33
313.582	78.68
313.796	37.72
314.009	9.05
314.223	45.91
314.437	13.14
314.651	-17.58
314.864	-15.53
315.078	-50.35
315.292	-15.53
315.505	39.76
315.719	64.34
315.933	82.77
316.146	45.91
316.36	72.53
316.573	-31.91
316.787	33.62
317.001	74.58
317.214	29.52
317.428	60.24
317.641	37.72
317.855	-52.39
318.068	13.14
318.282	17.24
318.495	-52.39
318.709	-1.19
318.922	-7.34
319.136	15.19
319.349	58.2
319.563	-21.67
319.776	9.05
319.99	0.85
320.203	4.95
320.417	25.43
320.63	47.96
320.843	-58.54
321.057	37.72
321.27	15.19
321.483	29.52
321.697	84.82
321.91	2.9
322.124	45.91
322.337	27.48
322.55	7
322.763	-48.3
322.977	31.57
323.19	-46.25
323.403	68.44
323.617	-19.63
323.83	-7.34
324.043	-9.39
324.256	31.57
324.469	23.38
324.683	52.05
324.896	43.86
325.109	37.72
325.322	52.05
325.535	-3.24
325.748	25.43
325.962	74.58
326.175	-13.48
326.388	97.11
326.601	-46.25
326.814	54.1
327.027	47.96
327.24	70.48
327.453	33.62
327.666	27.48
327.879	105.3
328.092	123.73
328.305	0.85
328.518	58.2
328.731	9.05
328.944	17.24
329.157	78.68
329.37	43.86
329.583	45.91
329.796	76.63
330.009	2.9
330.222	21.33
330.435	9.05
330.648	17.24
330.861	-13.48
331.073	78.68
331.286	13.14
331.499	-21.67
331.712	17.24
331.925	62.29
332.138	13.14
332.35	62.29
332.563	-33.96
332.776	-19.63
332.989	50
333.202	13.14
333.414	-31.91
333.627	2.9
333.84	74.58
334.053	17.24
334.265	62.29
334.478	-13.48
334.691	15.19
334.903	52.05
335.116	-15.53
335.329	-15.53
335.541	54.1
335.754	64.34
335.966	39.76
336.179	-5.29
336.392	23.38
336.604	2.9
336.817	13.14
337.029	54.1
337.242	50
337.454	35.67
337.667	-66.73
337.88	76.63
338.092	-3.24
338.305	52.05
338.517	7
338.729	4.95
338.942	56.15
339.154	-7.34
339.367	-29.87
339.579	54.1
339.792	-3.24
340.004	62.29
340.217	-40.11
340.429	-38.06
340.641	41.81
340.854	84.82
341.066	41.81
341.278	33.62
341.491	19.29
341.703	39.76
341.915	7
342.128	0.85
342.34	17.24
342.552	23.38
342.764	39.76
342.977	19.29
343.189	35.67
343.401	31.57
343.613	-11.43
343.826	31.57
344.038	11.09
344.25	13.14
344.462	86.87
344.674	27.48
344.886	-15.53
345.099	39.76
345.311	13.14
345.523	52.05
345.735	37.72
345.947	0.85
346.159	54.1
346.371	13.14
346.583	-25.77
346.795	-1.19
347.007	-13.48
347.219	33.62
347.431	35.67
347.643	66.39
347.855	68.44
348.067	29.52
348.279	31.57
348.491	80.72
348.703	43.86
348.915	39.76
349.127	50
349.339	45.91
349.551	-36.01
349.763	2.9
349.975	9.05
350.187	72.53
350.399	56.15
350.61	23.38
350.822	62.29
351.034	39.76
351.246	-7.34
351.458	4.95
351.669	-9.39
351.881	13.14
352.093	-33.96
352.305	4.95
352.517	21.33
352.728	54.1
352.94	-27.82
353.152	0.85
353.363	52.05
353.575	56.15
353.787	50
353.999	72.53
354.21	62.29
354.422	37.72
354.633	56.15
354.845	37.72
355.057	13.14
355.268	0.85
355.48	-25.77
355.692	58.2
355.903	31.57
356.115	31.57
356.326	103.25
356.538	93.01
356.749	-25.77
356.961	31.57
357.172	-11.43
357.384	-23.72
357.595	15.19
357.807	64.34
358.018	29.52
358.23	-11.43
358.441	9.05
358.653	25.43
358.864	-36.01
359.075	37.72
359.287	35.67
359.498	64.34
359.709	-1.19
359.921	33.62
360.132	62.29
360.344	54.1
360.555	-1.19
360.766	7
360.977	21.33
361.189	64.34
361.4	50
361.611	43.86
361.823	41.81
362.034	9.05
362.245	-3.24
362.456	-7.34
362.667	62.29
362.879	9.05
363.09	45.91
363.301	9.05
363.512	39.76
363.723	35.67
363.935	101.2
364.146	37.72
364.357	-56.49
364.568	-19.63
364.779	4.95
364.99	66.39
365.201	7
365.412	47.96
365.623	-25.77
365.834	29.52
366.045	47.96
366.256	86.87
366.467	62.29
366.678	58.2
366.889	29.52
367.1	109.4
367.311	29.52
367.522	50
367.733	54.1
367.944	-17.58
368.155	45.91
368.366	-1.19
368.577	107.35
368.788	95.06
368.999	-27.82
369.209	15.19
369.42	4.95
369.631	103.25
369.842	62.29
370.053	60.24
370.264	90.96
370.474	70.48
370.685	56.15
370.896	84.82
371.107	31.57
371.317	119.64
371.528	74.58
371.739	115.54
371.95	37.72
372.16	56.15
372.371	29.52
372.582	52.05
372.792	31.57
373.003	15.19
373.214	-48.3
373.424	86.87
373.635	7
373.846	72.53
374.056	19.29
374.267	58.2
374.477	21.33
374.688	43.86
374.898	37.72
375.109	13.14
375.319	17.24
375.53	56.15
375.74	66.39
375.951	45.91
376.161	86.87
376.372	7
376.582	37.72
376.793	45.91
377.003	107.35
377.214	13.14
377.424	35.67
377.635	123.73
377.845	-31.91
378.055	27.48
378.266	17.24
378.476	80.72
378.686	41.81
378.897	31.57
379.107	29.52
379.317	-3.24
379.528	37.72
379.738	93.01
379.948	50
380.158	66.39
380.369	54.1
380.579	62.29
380.789	15.19
380.999	0.85
381.21	64.34
381.42	4.95
381.63	-17.58
381.84	43.86
382.05	88.92
382.261	31.57
382.471	39.76
382.681	115.54
382.891	66.39
383.101	-9.39
383.311	37.72
383.521	15.19
383.731	-17.58
383.941	58.2
384.151	-19.63
384.361	-7.34
384.571	31.57
384.781	47.96
384.991	37.72
385.201	41.81
385.411	60.24
385.621	-1.19
385.831	39.76
386.041	2.9
386.251	15.19
386.461	29.52
386.671	82.77
386.881	82.77
387.091	-48.3
387.301	11.09
387.511	74.58
387.72	56.15
387.93	39.76
388.14	68.44
388.35	7
388.56	76.63
388.769	37.72
388.979	-3.24
389.189	84.82
389.399	39.76
389.609	86.87
389.818	60.24
390.028	47.96
390.238	62.29
390.447	84.82
390.657	117.59
390.867	35.67
391.076	2.9
391.286	60.24
391.496	64.34
391.705	82.77
391.915	103.25
392.125	47.96
392.334	70.48
392.544	74.58
392.753	58.2
392.963	74.58
393.172	105.3
393.382	-13.48
393.591	60.24
393.801	23.38
394.01	136.02
394.22	64.34
394.429	111.44
394.639	97.11
394.848	56.15
395.058	56.15
395.267	47.96
395.477	90.96
395.686	19.29
395.895	74.58
396.105	103.25
396.314	11.09
396.524	-7.34
396.733	127.83
396.942	99.16
397.152	97.11
397.361	35.67
397.57	62.29
397.78	56.15
397.989	80.72
398.198	103.25
398.407	31.57
398.617	37.72
398.826	101.2
399.035	62.29
399.244	64.34
399.453	97.11
399.663	82.77
399.872	0.85
400.081	41.81
400.29	84.82
400.499	58.2
400.708	90.96
400.917	54.1
401.127	21.33
401.336	107.35
401.545	74.58
401.754	56.15
401.963	103.25
402.172	68.44
402.381	115.54
402.59	101.2
402.799	15.19
403.008	146.26
403.217	80.72
403.426	62.29
403.635	86.87
403.844	115.54
404.053	146.26
404.262	33.62
404.471	140.12
404.68	82.77
404.888	172.88
405.097	68.44
405.306	80.72
405.515	160.59
405.724	103.25
405.933	76.63
406.142	181.07
406.35	113.49
406.559	146.26
406.768	125.78
406.977	136.02
407.185	140.12
407.394	129.88
407.603	115.54
407.812	158.55
408.02	187.22
408.229	105.3
408.438	189.27
408.646	250.71
408.855	222.03
409.064	142.16
409.272	183.12
409.481	232.27
409.69	160.59
409.898	185.17
410.107	207.7
410.315	242.51
410.524	205.65
410.733	246.61
410.941	226.13
411.15	256.85
411.358	262.99
411.567	265.04
411.775	312.14
411.984	303.95
412.192	240.47
412.401	349.01
412.609	275.28
412.818	414.54
413.026	277.33
413.234	406.35
413.443	306
413.651	418.64
413.86	387.92
414.068	410.45
414.276	461.65
414.485	400.21
414.693	418.64
414.901	422.73
415.11	461.65
415.318	555.85
415.526	471.89
415.734	492.37
415.943	478.03
416.151	535.37
416.359	504.65
416.567	586.57
416.776	535.37
416.984	586.57
417.192	656.2
417.4	637.77
417.608	629.58
417.817	650.06
418.025	748.36
418.233	842.57
418.441	744.27
418.649	734.03
418.857	885.58
419.065	875.34
419.273	795.47
419.481	873.29
419.689	883.53
419.897	955.21
420.105	1069.89
420.313	961.35
420.521	1076.04
420.729	1123.14
420.937	1073.99
421.145	1112.9
421.353	1268.55
421.561	1274.69
421.769	1264.45
421.977	1295.17
422.185	1375.04
422.393	1403.71
422.601	1518.4
422.809	1538.88
423.017	1577.79
423.224	1504.06
423.432	1655.61
423.64	1682.24
423.848	1829.69
424.056	1803.07
424.263	1878.84
424.471	1864.5
424.679	1899.32
424.887	2009.91
425.094	2071.35
425.302	2048.82
425.51	2143.03
425.718	2177.84
425.925	2321.2
426.133	2509.62
426.341	2505.52
426.548	2599.73
426.756	2669.36
426.964	2667.31
427.171	2771.76
427.379	2833.19
427.586	2732.84
427.794	2947.88
428.001	3105.57
428.209	3296.04
428.417	3033.9
428.624	3404.58
428.832	3373.86
429.039	3351.33
429.247	3289.89
429.454	3625.76
429.662	4004.63
429.869	3695.39
430.076	4023.06
430.284	3851.03
430.491	4098.84
430.699	4326.16
430.906	4260.63
431.114	4403.99
431.321	4459.28
431.528	4625.17
431.736	5018.38
431.943	5088.01
432.15	5014.28
432.358	4961.03
432.565	5346.05
432.772	5192.45
432.979	5763.84
433.187	5671.68
433.394	5657.34
433.601	6144.76
433.808	6109.94
434.016	6130.42
434.223	6286.07
434.43	6677.23
434.637	6634.22
434.844	7041.77
435.052	7181.03
435.259	6959.85
435.466	7183.08
435.673	6984.43
435.88	7586.53
436.087	7928.54
436.294	8043.23
436.501	7967.45
436.708	8041.18
436.915	8227.54
437.122	8463.06
437.329	8635.09
437.537	8819.41
437.743	9071.31
437.95	8825.55
438.157	9532.1
438.364	9665.22
438.571	9632.45
438.778	10001.08
438.985	10400.44
439.192	10312.38
439.399	10588.85
439.606	10304.18
439.813	10894
440.02	11649.7
440.227	11326.12
440.433	11428.52
440.64	11637.41
440.847	11657.89
441.054	11817.63
441.261	12841.62
441.467	12446.36
441.674	12784.27
441.881	13408.9
442.088	13351.56
442.294	13392.52
442.501	13273.74
442.708	14002.82
442.914	14408.31
443.121	14940.79
443.328	14623.35
443.534	15536.74
443.741	15202.93
443.948	15026.8
444.154	16044.64
444.361	15897.19
444.568	15815.27
444.774	15927.91
444.981	16333.4
445.187	16349.79
445.394	17132.11
445.6	17248.85
445.807	18924.08
446.013	18100.8
446.22	18383.42
446.426	18985.52
446.633	19153.46
446.839	20066.85
447.046	19071.54
447.252	20322.85
447.459	20376.09
447.665	20046.37
447.871	21146.13
448.078	22053.38
448.284	21121.56
448.491	21463.57
448.697	22434.3
448.903	22813.18
449.11	22811.13
449.316	22477.31
449.522	22749.69
449.728	23435.76
449.935	23609.84
450.141	23771.63
450.347	24361.44
450.553	23503.34
450.76	23929.32
450.966	24652.25
451.172	24476.13
451.378	24887.77
451.584	24144.36
451.791	25037.27
451.997	25272.79
452.203	25502.16
452.409	25375.19
452.615	25246.16
452.821	24623.58
453.027	24320.48
453.233	25407.95
453.44	24928.73
453.646	25082.33
453.852	24949.21
454.058	25571.79
454.264	24515.04
454.47	25117.14
454.676	24275.43
454.882	25305.56
455.088	23161.33
455.294	23517.68
455.5	24003.05
455.705	23968.23
455.911	23155.19
456.117	22467.07
456.323	22847.99
456.529	21395.98
456.735	22352.38
456.941	21535.24
457.147	21529.1
457.352	20777.5
457.558	20460.06
457.764	20662.81
457.97	20283.94
458.176	19767.85
458.381	19847.72
458.587	18784.82
458.793	18774.58
458.999	18000.45
459.204	19075.63
459.41	18479.68
459.616	17353.29
459.821	17203.79
460.027	17166.93
460.233	17113.68
460.438	16181.85
460.644	16351.84
460.85	15721.06
461.055	15438.44
461.261	15415.91
461.466	14049.92
461.672	13845.12
461.878	14436.99
462.083	13769.35
462.289	13492.87
462.494	13539.97
462.7	12780.18
462.905	12427.93
463.111	13097.61
463.316	13005.45
463.522	12726.93
463.727	12614.29
463.932	12700.31
464.138	12405.4
464.343	12554.9
464.549	12444.31
464.754	12579.48
464.959	12862.1
465.165	12581.53
465.37	11844.26
465.575	11680.42
465.781	12077.73
465.986	12237.47
466.191	11868.83
466.397	11649.7
466.602	11020.97
466.807	11295.4
467.012	11567.78
467.218	11272.87
467.423	11252.39
467.628	11416.23
467.833	11831.97
468.038	11324.07
468.244	10973.87
468.449	11584.16
468.654	10844.85
468.859	11129.52
469.064	11000.49
469.269	10562.23
