Data from USB4F104151__96__12-54-55-927.txt Node

Date: Fri Mar 14 12:54:55 EDT 2025
User: louis
Spectrometer: USB4F10415
Trigger mode: 4
Integration Time (sec): 1.000000E-2
Scans to average: 1
Electric dark correction enabled: true
Nonlinearity correction enabled: false
Boxcar width: 0
XAxis mode: Wavelengths
Number of Pixels in Spectrum: 3648
>>>>>Begin Spectral Data<<<<<
178.204	-87.89
178.424	-87.89
178.644	-87.89
178.864	-20.31
179.084	-63.32
179.304	69.8
179.524	-124.76
179.744	26.79
179.964	0.17
180.184	32.94
180.404	14.51
180.624	24.75
180.844	-16.21
181.064	-46.93
181.283	12.46
181.503	-10.07
181.723	16.55
181.943	0.17
182.163	53.42
182.383	8.36
182.602	-24.4
182.822	39.08
183.042	-3.93
183.262	-36.69
183.482	26.79
183.701	-38.74
183.921	0.17
184.141	34.99
184.361	92.33
184.58	-14.17
184.8	14.51
185.02	71.85
185.239	108.71
185.459	22.7
185.679	24.75
185.898	2.22
186.118	22.7
186.338	71.85
186.557	51.37
186.777	2.22
186.997	57.51
187.216	-36.69
187.436	55.47
187.655	8.36
187.875	-30.55
188.095	18.6
188.314	100.52
188.534	6.31
188.753	-79.7
188.973	-34.64
189.192	59.56
189.412	32.94
189.631	53.42
189.851	104.62
190.07	32.94
190.29	45.23
190.509	59.56
190.729	-59.22
190.948	39.08
191.168	59.56
191.387	-1.88
191.607	-3.93
191.826	63.66
192.045	8.36
192.265	20.65
192.484	106.67
192.704	-14.17
192.923	-5.97
193.142	55.47
193.362	49.32
193.581	22.7
193.8	77.99
194.02	153.77
194.239	-22.36
194.458	37.03
194.678	57.51
194.897	41.13
195.116	32.94
195.335	55.47
195.555	24.75
195.774	94.38
195.993	2.22
196.212	24.75
196.432	-42.84
196.651	100.52
196.87	0.17
197.089	61.61
197.308	-22.36
197.528	51.37
197.747	-59.22
197.966	-22.36
198.185	-40.79
198.404	57.51
198.623	8.36
198.842	10.41
199.062	37.03
199.281	71.85
199.5	-18.26
199.719	43.18
199.938	-5.97
200.157	-10.07
200.376	-14.17
200.595	4.27
200.814	90.28
201.033	12.46
201.252	10.41
201.471	34.99
201.69	-10.07
201.909	28.84
202.128	8.36
202.347	55.47
202.566	53.42
202.785	24.75
203.004	-24.4
203.223	28.84
203.442	-8.02
203.661	53.42
203.879	32.94
204.098	26.79
204.317	20.65
204.536	59.56
204.755	30.89
204.974	32.94
205.193	45.23
205.411	18.6
205.63	49.32
205.849	55.47
206.068	-34.64
206.287	32.94
206.505	-24.4
206.724	12.46
206.943	34.99
207.162	55.47
207.381	37.03
207.599	28.84
207.818	-44.88
208.037	51.37
208.255	-12.12
208.474	12.46
208.693	-3.93
208.911	47.27
209.13	59.56
209.349	28.84
209.567	-20.31
209.786	-5.97
210.005	51.37
210.223	8.36
210.442	-12.12
210.661	20.65
210.879	2.22
211.098	-44.88
211.316	24.75
211.535	100.52
211.753	-63.32
211.972	22.7
212.191	20.65
212.409	51.37
212.628	67.75
212.846	12.46
213.065	57.51
213.283	28.84
213.502	-34.64
213.72	-14.17
213.938	6.31
214.157	10.41
214.375	16.55
214.594	32.94
214.812	28.84
215.031	43.18
215.249	-26.45
215.467	102.57
215.686	-12.12
215.904	2.22
216.122	45.23
216.341	47.27
216.559	2.22
216.778	32.94
216.996	-12.12
217.214	98.47
217.432	-5.97
217.651	71.85
217.869	4.27
218.087	49.32
218.306	-34.64
218.524	59.56
218.742	-38.74
218.96	-3.93
219.179	43.18
219.397	34.99
219.615	2.22
219.833	14.51
220.051	-51.03
220.27	65.71
220.488	47.27
220.706	18.6
220.924	55.47
221.142	2.22
221.36	-28.5
221.578	-5.97
221.796	34.99
222.015	-5.97
222.233	37.03
222.451	-16.21
222.669	94.38
222.887	63.66
223.105	10.41
223.323	-67.41
223.541	34.99
223.759	-32.6
223.977	2.22
224.195	41.13
224.413	-67.41
224.631	-14.17
224.849	30.89
225.067	37.03
225.285	59.56
225.503	4.27
225.721	55.47
225.939	18.6
226.157	-30.55
226.375	77.99
226.592	2.22
226.81	-8.02
227.028	-10.07
227.246	65.71
227.464	10.41
227.682	34.99
227.9	4.27
228.117	73.9
228.335	8.36
228.553	51.37
228.771	32.94
228.989	61.61
229.206	24.75
229.424	28.84
229.642	-16.21
229.86	73.9
230.077	30.89
230.295	-5.97
230.513	28.84
230.731	59.56
230.948	59.56
231.166	41.13
231.384	14.51
231.601	-16.21
231.819	71.85
232.037	34.99
232.254	-65.36
232.472	73.9
232.689	57.51
232.907	-1.88
233.125	-1.88
233.342	-16.21
233.56	71.85
233.777	10.41
233.995	0.17
234.213	121
234.43	16.55
234.648	34.99
234.865	22.7
235.083	-10.07
235.3	-1.88
235.518	49.32
235.735	73.9
235.953	32.94
236.17	20.65
236.388	34.99
236.605	22.7
236.822	102.57
237.04	-1.88
237.257	26.79
237.475	6.31
237.692	59.56
237.909	61.61
238.127	-16.21
238.344	28.84
238.562	26.79
238.779	30.89
238.996	-1.88
239.214	43.18
239.431	51.37
239.648	14.51
239.865	90.28
240.083	-26.45
240.3	12.46
240.517	82.09
240.735	14.51
240.952	22.7
241.169	22.7
241.386	32.94
241.603	75.95
241.821	18.6
242.038	51.37
242.255	14.51
242.472	18.6
242.689	71.85
242.907	-22.36
243.124	-16.21
243.341	71.85
243.558	8.36
243.775	24.75
243.992	39.08
244.209	53.42
244.426	30.89
244.643	10.41
244.86	-18.26
245.078	22.7
245.295	14.51
245.512	164.01
245.729	51.37
245.946	4.27
246.163	71.85
246.38	39.08
246.597	-3.93
246.814	-77.65
247.031	-26.45
247.248	59.56
247.464	-34.64
247.681	24.75
247.898	37.03
248.115	-20.31
248.332	10.41
248.549	67.75
248.766	30.89
248.983	28.84
249.2	53.42
249.417	63.66
249.633	49.32
249.85	12.46
250.067	12.46
250.284	-10.07
250.501	106.67
250.717	0.17
250.934	-53.08
251.151	20.65
251.368	43.18
251.585	37.03
251.801	90.28
252.018	45.23
252.235	-3.93
252.451	51.37
252.668	-65.36
252.885	45.23
253.102	49.32
253.318	39.08
253.535	6.31
253.752	55.47
253.968	26.79
254.185	45.23
254.401	104.62
254.618	41.13
254.835	32.94
255.051	47.27
255.268	71.85
255.484	43.18
255.701	92.33
255.917	32.94
256.134	26.79
256.351	16.55
256.567	-22.36
256.784	59.56
257	18.6
257.217	6.31
257.433	65.71
257.65	59.56
257.866	28.84
258.082	22.7
258.299	20.65
258.515	37.03
258.732	-1.88
258.948	73.9
259.165	16.55
259.381	75.95
259.597	57.51
259.814	18.6
260.03	-53.08
260.246	-79.7
260.463	-8.02
260.679	45.23
260.895	-3.93
261.112	-16.21
261.328	-22.36
261.544	4.27
261.761	18.6
261.977	-57.17
262.193	-10.07
262.409	63.66
262.626	28.84
262.842	0.17
263.058	51.37
263.274	-22.36
263.49	55.47
263.707	102.57
263.923	-51.03
264.139	16.55
264.355	28.84
264.571	-73.56
264.787	-8.02
265.004	30.89
265.22	30.89
265.436	28.84
265.652	10.41
265.868	-22.36
266.084	82.09
266.3	71.85
266.516	10.41
266.732	39.08
266.948	22.7
267.164	96.43
267.38	10.41
267.596	4.27
267.812	-18.26
268.028	28.84
268.244	20.65
268.46	55.47
268.676	-3.93
268.892	61.61
269.108	-48.98
269.324	2.22
269.54	90.28
269.756	8.36
269.972	-26.45
270.188	18.6
270.403	0.17
270.619	65.71
270.835	-16.21
271.051	-18.26
271.267	18.6
271.483	67.75
271.698	32.94
271.914	135.34
272.13	57.51
272.346	100.52
272.562	18.6
272.777	131.24
272.993	-44.88
273.209	37.03
273.425	12.46
273.64	18.6
273.856	12.46
274.072	-3.93
274.287	-32.6
274.503	110.76
274.719	-69.46
274.934	2.22
275.15	12.46
275.366	41.13
275.581	37.03
275.797	14.51
276.012	-48.98
276.228	51.37
276.444	77.99
276.659	6.31
276.875	61.61
277.09	-16.21
277.306	18.6
277.521	20.65
277.737	26.79
277.952	28.84
278.168	49.32
278.383	-20.31
278.599	10.41
278.814	-79.7
279.03	51.37
279.245	2.22
279.461	10.41
279.676	43.18
279.892	-24.4
280.107	6.31
280.322	8.36
280.538	22.7
280.753	20.65
280.969	-5.97
281.184	59.56
281.399	49.32
281.615	12.46
281.83	18.6
282.045	-5.97
282.26	-30.55
282.476	32.94
282.691	-10.07
282.906	16.55
283.122	14.51
283.337	0.17
283.552	4.27
283.767	-10.07
283.983	-8.02
284.198	28.84
284.413	69.8
284.628	67.75
284.843	-18.26
285.058	10.41
285.274	-46.93
285.489	8.36
285.704	2.22
285.919	43.18
286.134	-40.79
286.349	45.23
286.564	43.18
286.779	-26.45
286.995	45.23
287.21	18.6
287.425	59.56
287.64	10.41
287.855	37.03
288.07	-22.36
288.285	34.99
288.5	-42.84
288.715	-5.97
288.93	30.89
289.145	43.18
289.36	55.47
289.575	-26.45
289.79	-5.97
290.004	26.79
290.219	12.46
290.434	10.41
290.649	-26.45
290.864	63.66
291.079	-5.97
291.294	43.18
291.509	32.94
291.724	20.65
291.938	-28.5
292.153	34.99
292.368	22.7
292.583	57.51
292.798	8.36
293.012	53.42
293.227	18.6
293.442	24.75
293.657	22.7
293.871	-20.31
294.086	28.84
294.301	18.6
294.516	6.31
294.73	10.41
294.945	2.22
295.16	-3.93
295.374	16.55
295.589	26.79
295.804	-3.93
296.018	2.22
296.233	96.43
296.447	61.61
296.662	-14.17
296.877	22.7
297.091	43.18
297.306	55.47
297.52	-40.79
297.735	82.09
297.949	-30.55
298.164	-14.17
298.378	57.51
298.593	-28.5
298.807	-14.17
299.022	100.52
299.236	-26.45
299.451	-85.84
299.665	26.79
299.88	37.03
300.094	67.75
300.309	34.99
300.523	57.51
300.737	43.18
300.952	45.23
301.166	51.37
301.381	34.99
301.595	65.71
301.809	-20.31
302.024	18.6
302.238	65.71
302.452	32.94
302.667	14.51
302.881	114.86
303.095	28.84
303.309	65.71
303.524	53.42
303.738	28.84
303.952	77.99
304.166	37.03
304.381	-20.31
304.595	49.32
304.809	-3.93
305.023	4.27
305.237	-18.26
305.452	43.18
305.666	47.27
305.88	34.99
306.094	30.89
306.308	71.85
306.522	-16.21
306.736	30.89
306.95	41.13
307.164	18.6
307.379	39.08
307.593	34.99
307.807	75.95
308.021	-1.88
308.235	82.09
308.449	0.17
308.663	41.13
308.877	94.38
309.091	110.76
309.305	47.27
309.519	-5.97
309.733	82.09
309.947	2.22
310.161	24.75
310.374	41.13
310.588	59.56
310.802	67.75
311.016	-22.36
311.23	34.99
311.444	59.56
311.658	-5.97
311.872	-18.26
312.085	55.47
312.299	-14.17
312.513	61.61
312.727	12.46
312.941	8.36
313.154	34.99
313.368	16.55
313.582	45.23
313.796	34.99
314.009	-32.6
314.223	34.99
314.437	20.65
314.651	0.17
314.864	43.18
315.078	57.51
315.292	10.41
315.505	-18.26
315.719	-16.21
315.933	-24.4
316.146	55.47
316.36	-24.4
316.573	-14.17
316.787	41.13
317.001	-8.02
317.214	-5.97
317.428	43.18
317.641	-36.69
317.855	18.6
318.068	-5.97
318.282	86.19
318.495	55.47
318.709	18.6
318.922	-14.17
319.136	-10.07
319.349	26.79
319.563	-12.12
319.776	39.08
319.99	-8.02
320.203	75.95
320.417	37.03
320.63	24.75
320.843	67.75
321.057	-32.6
321.27	94.38
321.483	16.55
321.697	59.56
321.91	75.95
322.124	53.42
322.337	39.08
322.55	16.55
322.763	4.27
322.977	-10.07
323.19	10.41
323.403	-28.5
323.617	26.79
323.83	12.46
324.043	24.75
324.256	121
324.469	-28.5
324.683	-1.88
324.896	16.55
325.109	84.14
325.322	-20.31
325.535	51.37
325.748	47.27
325.962	47.27
326.175	-28.5
326.388	43.18
326.601	73.9
326.814	24.75
327.027	-12.12
327.24	45.23
327.453	28.84
327.666	-32.6
327.879	-71.51
328.092	18.6
328.305	2.22
328.518	-16.21
328.731	-10.07
328.944	16.55
329.157	110.76
329.37	39.08
329.583	43.18
329.796	96.43
330.009	-36.69
330.222	51.37
330.435	43.18
330.648	2.22
330.861	-30.55
331.073	24.75
331.286	4.27
331.499	-8.02
331.712	90.28
331.925	26.79
332.138	-3.93
332.35	65.71
332.563	24.75
332.776	2.22
332.989	12.46
333.202	22.7
333.414	4.27
333.627	30.89
333.84	32.94
334.053	65.71
334.265	43.18
334.478	30.89
334.691	43.18
334.903	-38.74
335.116	26.79
335.329	6.31
335.541	2.22
335.754	30.89
335.966	-5.97
336.179	77.99
336.392	-16.21
336.604	-5.97
336.817	34.99
337.029	6.31
337.242	-16.21
337.454	51.37
337.667	49.32
337.88	-5.97
338.092	-26.45
338.305	47.27
338.517	6.31
338.729	14.51
338.942	116.9
339.154	43.18
339.367	10.41
339.579	37.03
339.792	0.17
340.004	80.04
340.217	0.17
340.429	37.03
340.641	-46.93
340.854	45.23
341.066	84.14
341.278	28.84
341.491	2.22
341.703	34.99
341.915	12.46
342.128	-22.36
342.34	-3.93
342.552	47.27
342.764	63.66
342.977	24.75
343.189	30.89
343.401	-61.27
343.613	18.6
343.826	4.27
344.038	16.55
344.25	-12.12
344.462	22.7
344.674	61.61
344.886	100.52
345.099	-38.74
345.311	80.04
345.523	-5.97
345.735	-14.17
345.947	41.13
346.159	10.41
346.371	6.31
346.583	61.61
346.795	63.66
347.007	18.6
347.219	41.13
347.431	-20.31
347.643	92.33
347.855	47.27
348.067	63.66
348.279	32.94
348.491	-102.23
348.703	24.75
348.915	71.85
349.127	-48.98
349.339	-5.97
349.551	34.99
349.763	71.85
349.975	-40.79
350.187	10.41
350.399	12.46
350.61	12.46
350.822	-40.79
351.034	73.9
351.246	-5.97
351.458	39.08
351.669	-16.21
351.881	8.36
352.093	24.75
352.305	30.89
352.517	8.36
352.728	24.75
352.94	-20.31
353.152	39.08
353.363	45.23
353.575	-20.31
353.787	39.08
353.999	30.89
354.21	28.84
354.422	-3.93
354.633	67.75
354.845	30.89
355.057	-24.4
355.268	82.09
355.48	-12.12
355.692	55.47
355.903	43.18
356.115	10.41
356.326	-14.17
356.538	73.9
356.749	26.79
356.961	96.43
357.172	30.89
357.384	16.55
357.595	92.33
357.807	22.7
358.018	37.03
358.23	18.6
358.441	-1.88
358.653	28.84
358.864	34.99
359.075	20.65
359.287	-44.88
359.498	41.13
359.709	47.27
359.921	-5.97
360.132	69.8
360.344	12.46
360.555	2.22
360.766	-22.36
360.977	61.61
361.189	59.56
361.4	45.23
361.611	57.51
361.823	59.56
362.034	55.47
362.245	39.08
362.456	47.27
362.667	47.27
362.879	41.13
363.09	-30.55
363.301	-5.97
363.512	26.79
363.723	51.37
363.935	24.75
364.146	22.7
364.357	26.79
364.568	30.89
364.779	-5.97
364.99	55.47
365.201	32.94
365.412	75.95
365.623	-34.64
365.834	-16.21
366.045	61.61
366.256	-5.97
366.467	53.42
366.678	71.85
366.889	-3.93
367.1	-40.79
367.311	69.8
367.522	-34.64
367.733	55.47
367.944	86.19
368.155	37.03
368.366	75.95
368.577	26.79
368.788	12.46
368.999	-51.03
369.209	34.99
369.42	-3.93
369.631	14.51
369.842	57.51
370.053	10.41
370.264	34.99
370.474	22.7
370.685	28.84
370.896	73.9
371.107	39.08
371.317	26.79
371.528	-32.6
371.739	80.04
371.95	8.36
372.16	39.08
372.371	24.75
372.582	-26.45
372.792	-3.93
373.003	-14.17
373.214	37.03
373.424	-26.45
373.635	-20.31
373.846	75.95
374.056	-63.32
374.267	18.6
374.477	57.51
374.688	-30.55
374.898	8.36
375.109	45.23
375.319	57.51
375.53	-48.98
375.74	10.41
375.951	51.37
376.161	39.08
376.372	55.47
376.582	6.31
376.793	34.99
377.003	6.31
377.214	-5.97
377.424	30.89
377.635	61.61
377.845	30.89
378.055	67.75
378.266	-12.12
378.476	0.17
378.686	32.94
378.897	24.75
379.107	75.95
379.317	45.23
379.528	53.42
379.738	71.85
379.948	30.89
380.158	67.75
380.369	10.41
380.579	4.27
380.789	67.75
380.999	-38.74
381.21	-28.5
381.42	28.84
381.63	59.56
381.84	37.03
382.05	-1.88
382.261	59.56
382.471	30.89
382.681	-10.07
382.891	-18.26
383.101	-30.55
383.311	26.79
383.521	47.27
383.731	102.57
383.941	43.18
384.151	100.52
384.361	73.9
384.571	80.04
384.781	57.51
384.991	45.23
385.201	18.6
385.411	-8.02
385.621	143.53
385.831	57.51
386.041	26.79
386.251	22.7
386.461	86.19
386.671	12.46
386.881	39.08
387.091	22.7
387.301	-16.21
387.511	10.41
387.72	2.22
387.93	110.76
388.14	47.27
388.35	10.41
388.56	34.99
388.769	22.7
388.979	43.18
389.189	-38.74
389.399	53.42
389.609	73.9
389.818	26.79
390.028	86.19
390.238	24.75
390.447	45.23
390.657	63.66
390.867	22.7
391.076	34.99
391.286	37.03
391.496	20.65
391.705	-20.31
391.915	131.24
392.125	37.03
392.334	92.33
392.544	45.23
392.753	39.08
392.963	51.37
393.172	30.89
393.382	10.41
393.591	2.22
393.801	61.61
394.01	80.04
394.22	12.46
394.429	6.31
394.639	28.84
394.848	22.7
395.058	24.75
395.267	-5.97
395.477	28.84
395.686	0.17
395.895	28.84
396.105	84.14
396.314	53.42
396.524	16.55
396.733	32.94
396.942	55.47
397.152	10.41
397.361	20.65
397.57	26.79
397.78	41.13
397.989	32.94
398.198	100.52
398.407	39.08
398.617	28.84
398.826	75.95
399.035	41.13
399.244	61.61
399.453	43.18
399.663	39.08
399.872	12.46
400.081	6.31
400.29	-22.36
400.499	30.89
400.708	41.13
400.917	30.89
401.127	80.04
401.336	129.19
401.545	112.81
401.754	71.85
401.963	22.7
402.172	-1.88
402.381	39.08
402.59	20.65
402.799	69.8
403.008	41.13
403.217	88.23
403.426	16.55
403.635	28.84
403.844	88.23
404.053	73.9
404.262	47.27
404.471	92.33
404.68	100.52
404.888	73.9
405.097	84.14
405.306	32.94
405.515	28.84
405.724	59.56
405.933	41.13
406.142	178.34
406.35	61.61
406.559	90.28
406.768	67.75
406.977	125.1
407.185	57.51
407.394	43.18
407.603	0.17
407.812	47.27
408.02	98.47
408.229	90.28
408.438	98.47
408.646	100.52
408.855	108.71
409.064	145.58
409.272	145.58
409.481	106.67
409.69	139.43
409.898	65.71
410.107	123.05
410.315	139.43
410.524	80.04
410.733	108.71
410.941	77.99
411.15	84.14
411.358	127.14
411.567	84.14
411.775	143.53
411.984	118.95
412.192	96.43
412.401	129.19
412.609	55.47
412.818	202.92
413.026	157.86
413.234	112.81
413.443	137.38
413.651	63.66
413.86	176.3
414.068	198.82
414.276	188.58
414.485	170.15
414.693	176.3
414.901	209.06
415.11	217.26
415.318	204.97
415.526	223.4
415.734	280.74
415.943	211.11
416.151	243.88
416.359	213.16
416.567	323.75
416.776	293.03
416.984	358.57
417.192	309.41
417.4	280.74
417.608	231.59
417.817	293.03
418.025	340.13
418.233	432.29
418.441	313.51
418.649	327.85
418.857	424.1
419.065	377
419.273	446.63
419.481	391.33
419.689	477.35
419.897	510.11
420.105	454.82
420.313	475.3
420.521	417.96
420.729	481.44
420.937	534.69
421.145	499.88
421.353	417.96
421.561	526.5
421.769	616.61
421.977	565.41
422.185	583.84
422.393	696.48
422.601	608.42
422.809	682.14
423.017	712.86
423.224	686.24
423.432	665.76
423.64	700.58
423.848	782.49
424.056	800.93
424.263	809.12
424.471	852.13
424.679	932
424.887	872.61
425.094	921.76
425.302	993.44
425.51	1048.73
425.718	1024.16
425.925	977.05
426.133	1065.11
426.341	1140.89
426.548	1210.52
426.756	1153.18
426.964	1132.7
427.171	1110.17
427.379	1333.4
427.586	1278.1
427.794	1343.64
428.001	1378.45
428.209	1435.8
428.417	1312.92
428.624	1515.67
428.832	1575.06
429.039	1568.91
429.247	1513.62
429.454	1661.07
429.662	1820.81
429.869	1755.28
430.076	1910.93
430.284	1634.45
430.491	1835.15
430.699	1988.75
430.906	1982.6
431.114	2039.95
431.321	2009.23
431.528	2062.48
431.736	2205.83
431.943	2345.09
432.15	2226.31
432.358	2164.87
432.565	2248.84
432.772	2302.09
432.979	2343.05
433.187	2492.55
433.394	2484.36
433.601	2750.59
433.808	2721.92
434.016	2752.64
434.223	2779.26
434.43	2959.49
434.637	3039.36
434.844	3065.98
435.052	3186.81
435.259	3055.74
435.466	3184.76
435.673	3086.46
435.88	3405.94
436.087	3448.95
436.294	3360.89
436.501	3502.2
436.708	3510.39
436.915	3739.76
437.122	3651.7
437.329	3672.18
437.537	3938.41
437.743	3944.56
437.95	3956.85
438.157	4110.44
438.364	4302.95
438.571	4315.24
438.778	4237.42
438.985	4722.79
439.192	4364.39
439.399	4679.78
439.606	4454.5
439.813	4794.47
440.02	4880.48
440.227	5027.93
440.433	4946.02
440.64	5212.25
440.847	5142.62
441.054	5181.53
441.261	5570.65
441.467	5509.21
441.674	5627.99
441.881	5953.62
442.088	5748.82
442.294	5656.66
442.501	5902.42
442.708	6031.44
442.914	6035.53
443.121	6580.29
443.328	6316.11
443.534	6877.25
443.741	6504.52
443.948	6469.7
444.154	6965.31
444.361	6930.5
444.568	6989.89
444.774	7049.28
444.981	6987.84
445.187	7182.4
445.394	7573.56
445.6	7702.58
445.807	8130.61
446.013	7784.5
446.22	7952.43
446.426	8331.31
446.633	8335.4
446.839	8679.46
447.046	8325.16
447.252	8917.03
447.459	9005.09
447.665	8742.95
447.871	9050.14
448.078	9586.71
448.284	8970.27
448.491	9426.97
448.697	9631.77
448.903	10037.27
449.11	9955.35
449.316	9889.81
449.522	9945.11
449.728	10160.14
449.935	10299.41
450.141	10293.26
450.347	10553.35
450.553	10072.08
450.76	10176.53
450.966	10680.33
451.172	10536.97
451.378	10799.11
451.584	10639.37
451.791	10874.88
451.997	10825.73
452.203	10919.94
452.409	11106.31
452.615	10965
452.821	10770.44
453.027	10512.39
453.233	10799.11
453.44	10541.07
453.646	10592.27
453.852	10643.46
454.058	10846.21
454.264	10381.32
454.47	10854.41
454.676	10555.4
454.882	11042.82
455.088	10274.83
455.294	10346.51
455.5	10440.72
455.705	10377.23
455.911	9936.92
456.117	9830.42
456.323	9619.48
456.529	8906.79
456.735	9543.71
456.941	9224.22
457.147	9199.65
457.352	8794.15
457.558	8701.99
457.764	8736.81
457.97	8732.71
458.176	8413.23
458.381	8480.81
458.587	7884.85
458.793	8128.56
458.999	7735.35
459.204	8370.22
459.41	7759.92
459.616	7538.74
459.821	7389.24
460.027	7286.84
460.233	7237.69
460.438	6862.91
460.644	6836.29
460.85	6668.36
461.055	6617.16
461.261	6420.55
461.466	6017.1
461.672	5922.9
461.878	6080.59
462.083	5695.57
462.289	5707.86
462.494	5572.69
462.7	5529.69
462.905	5376.09
463.111	5703.76
463.316	5427.29
463.522	5376.09
463.727	5371.99
463.932	5410.9
464.138	5277.79
464.343	5128.28
464.549	5191.77
464.754	5390.42
464.959	5288.03
465.165	5216.35
465.37	5027.93
465.575	4886.62
465.781	5224.54
465.986	5091.42
466.191	5013.6
466.397	4907.1
466.602	4464.74
466.807	4954.21
467.012	4890.72
467.218	4634.72
467.423	4769.89
467.628	4640.87
467.833	4735.07
468.038	4685.92
468.244	4638.82
468.449	4925.54
468.654	4528.23
468.859	4597.86
469.064	4685.92
469.269	4321.38
469.474	4491.37
469.679	4520.04
469.885	4368.49
470.09	4370.54
470.295	4450.41
