Data from USB4F104151__56__12-54-04-983.txt Node

Date: Fri Mar 14 12:54:04 EDT 2025
User: louis
Spectrometer: USB4F10415
Trigger mode: 4
Integration Time (sec): 1.000000E-2
Scans to average: 1
Electric dark correction enabled: true
Nonlinearity correction enabled: false
Boxcar width: 0
XAxis mode: Wavelengths
Number of Pixels in Spectrum: 3648
>>>>>Begin Spectral Data<<<<<
178.204	-34.99
178.424	-34.99
178.644	-34.99
178.864	-43.18
179.084	22.36
179.304	-73.9
179.524	16.21
179.744	-32.94
179.964	69.46
180.184	1.88
180.404	-53.42
180.624	-2.22
180.844	22.36
181.064	10.07
181.283	24.4
181.503	10.07
181.723	8.02
181.943	-45.23
182.163	59.22
182.383	-65.71
182.602	-22.7
182.822	55.12
183.042	32.6
183.262	-0.17
183.482	-24.75
183.701	-16.55
183.921	-12.46
184.141	-0.17
184.361	-12.46
184.58	5.97
184.8	30.55
185.02	26.45
185.239	65.36
185.459	-14.51
185.679	48.98
185.898	24.4
186.118	-2.22
186.338	-8.36
186.557	53.08
186.777	38.74
186.997	-8.36
187.216	-43.18
187.436	-32.94
187.655	40.79
187.875	36.69
188.095	-6.31
188.314	51.03
188.534	16.21
188.753	48.98
188.973	1.88
189.192	18.26
189.412	22.36
189.631	-0.17
189.851	22.36
190.07	-32.94
190.29	30.55
190.509	30.55
190.729	57.17
190.948	69.46
191.168	59.22
191.387	-2.22
191.607	-61.61
191.826	-32.94
192.045	57.17
192.265	18.26
192.484	-47.27
192.704	71.51
192.923	-43.18
193.142	-0.17
193.362	53.08
193.581	18.26
193.8	3.93
194.02	53.08
194.239	-28.84
194.458	-16.55
194.678	-61.61
194.897	-4.27
195.116	16.21
195.335	1.88
195.555	20.31
195.774	-30.89
195.993	57.17
196.212	10.07
196.432	36.69
196.651	53.08
196.87	55.12
197.089	10.07
197.308	-10.41
197.528	22.36
197.747	-57.51
197.966	5.97
198.185	36.69
198.404	-4.27
198.623	5.97
198.842	-20.65
199.062	94.04
199.281	38.74
199.5	-18.6
199.719	118.61
199.938	24.4
200.157	96.08
200.376	40.79
200.595	53.08
200.814	-28.84
201.033	-67.75
201.252	46.93
201.471	-84.14
201.69	42.84
201.909	34.64
202.128	20.31
202.347	18.26
202.566	10.07
202.785	44.88
203.004	-18.6
203.223	12.12
203.442	18.26
203.661	-10.41
203.879	-28.84
204.098	40.79
204.317	28.5
204.536	106.32
204.755	-26.79
204.974	-55.47
205.193	24.4
205.411	40.79
205.63	22.36
205.849	96.08
206.068	5.97
206.287	44.88
206.505	-20.65
206.724	-12.46
206.943	-41.13
207.162	71.51
207.381	10.07
207.599	-63.66
207.818	20.31
208.037	-32.94
208.255	28.5
208.474	-22.7
208.693	-8.36
208.911	-8.36
209.13	-20.65
209.349	28.5
209.567	32.6
209.786	42.84
210.005	51.03
210.223	53.08
210.442	30.55
210.661	69.46
210.879	-4.27
211.098	77.65
211.316	-28.84
211.535	-10.41
211.753	69.46
211.972	89.94
212.191	-2.22
212.409	18.26
212.628	-4.27
212.846	30.55
213.065	61.27
213.283	12.12
213.502	-20.65
213.72	-8.36
213.938	5.97
214.157	67.41
214.375	46.93
214.594	1.88
214.812	-2.22
215.031	-24.75
215.249	67.41
215.467	14.17
215.686	26.45
215.904	-12.46
216.122	36.69
216.341	42.84
216.559	-67.75
216.778	-0.17
216.996	77.65
217.214	75.6
217.432	-4.27
217.651	-71.85
217.869	26.45
218.087	44.88
218.306	3.93
218.524	3.93
218.742	61.27
218.96	-22.7
219.179	36.69
219.397	-4.27
219.615	77.65
219.833	3.93
220.051	57.17
220.27	-24.75
220.488	28.5
220.706	10.07
220.924	32.6
221.142	28.5
221.36	12.12
221.578	61.27
221.796	-8.36
222.015	40.79
222.233	42.84
222.451	42.84
222.669	42.84
222.887	8.02
223.105	20.31
223.323	44.88
223.541	18.26
223.759	-2.22
223.977	67.41
224.195	28.5
224.413	28.5
224.631	8.02
224.849	-8.36
225.067	40.79
225.285	20.31
225.503	-18.6
225.721	-18.6
225.939	57.17
226.157	57.17
226.375	8.02
226.592	-10.41
226.81	85.84
227.028	-14.51
227.246	51.03
227.464	-22.7
227.682	79.7
227.9	38.74
228.117	-34.99
228.335	-47.27
228.553	-12.46
228.771	79.7
228.989	-10.41
229.206	14.17
229.424	61.27
229.642	-8.36
229.86	-55.47
230.077	38.74
230.295	32.6
230.513	-14.51
230.731	-12.46
230.948	-0.17
231.166	28.5
231.384	42.84
231.601	-14.51
231.819	51.03
232.037	24.4
232.254	3.93
232.472	-28.84
232.689	44.88
232.907	22.36
233.125	-39.08
233.342	-4.27
233.56	8.02
233.777	-12.46
233.995	-8.36
234.213	24.4
234.43	34.64
234.648	85.84
234.865	26.45
235.083	46.93
235.3	26.45
235.518	-49.32
235.735	-16.55
235.953	42.84
236.17	38.74
236.388	26.45
236.605	79.7
236.822	112.47
237.04	-18.6
237.257	1.88
237.475	61.27
237.692	14.17
237.909	34.64
238.127	32.6
238.344	-37.03
238.562	75.6
238.779	24.4
238.996	3.93
239.214	34.64
239.431	59.22
239.648	16.21
239.865	3.93
240.083	-30.89
240.3	61.27
240.517	-30.89
240.735	-16.55
240.952	20.31
241.169	-12.46
241.386	32.6
241.603	3.93
241.821	-16.55
242.038	57.17
242.255	24.4
242.472	94.04
242.689	-22.7
242.907	20.31
243.124	-14.51
243.341	28.5
243.558	-41.13
243.775	55.12
243.992	-22.7
244.209	110.42
244.426	32.6
244.643	-49.32
244.86	5.97
245.078	55.12
245.295	98.13
245.512	73.56
245.729	-8.36
245.946	65.36
246.163	42.84
246.38	53.08
246.597	16.21
246.814	24.4
247.031	26.45
247.248	46.93
247.464	14.17
247.681	-4.27
247.898	-6.31
248.115	83.8
248.332	53.08
248.549	65.36
248.766	3.93
248.983	3.93
249.2	46.93
249.417	59.22
249.633	51.03
249.85	1.88
250.067	18.26
250.284	8.02
250.501	-12.46
250.717	87.89
250.934	-43.18
251.151	46.93
251.368	-12.46
251.585	48.98
251.801	-2.22
252.018	48.98
252.235	53.08
252.451	28.5
252.668	51.03
252.885	16.21
253.102	5.97
253.318	69.46
253.535	73.56
253.752	-12.46
253.968	16.21
254.185	14.17
254.401	48.98
254.618	22.36
254.835	48.98
255.051	44.88
255.268	104.28
255.484	18.26
255.701	59.22
255.917	-47.27
256.134	8.02
256.351	67.41
256.567	32.6
256.784	-43.18
257	-22.7
257.217	81.75
257.433	-28.84
257.65	-24.75
257.866	42.84
258.082	20.31
258.299	24.4
258.515	-4.27
258.732	26.45
258.948	-24.75
259.165	-8.36
259.381	-41.13
259.597	-30.89
259.814	83.8
260.03	12.12
260.246	14.17
260.463	18.26
260.679	1.88
260.895	57.17
261.112	91.99
261.328	-8.36
261.544	94.04
261.761	77.65
261.977	38.74
262.193	-30.89
262.409	53.08
262.626	79.7
262.842	-8.36
263.058	-24.75
263.274	14.17
263.49	22.36
263.707	16.21
263.923	-20.65
264.139	-22.7
264.355	-4.27
264.571	77.65
264.787	53.08
265.004	8.02
265.22	79.7
265.436	24.4
265.652	-32.94
265.868	18.26
266.084	53.08
266.3	-4.27
266.516	22.36
266.732	46.93
266.948	36.69
267.164	16.21
267.38	10.07
267.596	16.21
267.812	44.88
268.028	89.94
268.244	48.98
268.46	89.94
268.676	36.69
268.892	83.8
269.108	-65.71
269.324	36.69
269.54	22.36
269.756	46.93
269.972	34.64
270.188	-4.27
270.403	57.17
270.619	79.7
270.835	-20.65
271.051	67.41
271.267	42.84
271.483	-22.7
271.698	20.31
271.914	77.65
272.13	38.74
272.346	-4.27
272.562	-10.41
272.777	-4.27
272.993	-24.75
273.209	3.93
273.425	-10.41
273.64	16.21
273.856	38.74
274.072	-51.37
274.287	10.07
274.503	-49.32
274.719	-0.17
274.934	-22.7
275.15	14.17
275.366	124.76
275.581	-37.03
275.797	26.45
276.012	34.64
276.228	67.41
276.444	24.4
276.659	83.8
276.875	42.84
277.09	36.69
277.306	44.88
277.521	12.12
277.737	34.64
277.952	3.93
278.168	51.03
278.383	71.51
278.599	24.4
278.814	-26.79
279.03	55.12
279.245	22.36
279.461	28.5
279.676	12.12
279.892	14.17
280.107	53.08
280.322	38.74
280.538	-18.6
280.753	20.31
280.969	22.36
281.184	-49.32
281.399	-39.08
281.615	38.74
281.83	-10.41
282.045	-49.32
282.26	85.84
282.476	34.64
282.691	46.93
282.906	75.6
283.122	-12.46
283.337	12.12
283.552	24.4
283.767	26.45
283.983	53.08
284.198	63.32
284.413	-0.17
284.628	22.36
284.843	34.64
285.058	20.31
285.274	20.31
285.489	36.69
285.704	71.51
285.919	-6.31
286.134	-69.8
286.349	8.02
286.564	-43.18
286.779	26.45
286.995	24.4
287.21	-30.89
287.425	20.31
287.64	-51.37
287.855	3.93
288.07	69.46
288.285	-4.27
288.5	18.26
288.715	-69.8
288.93	16.21
289.145	44.88
289.36	14.17
289.575	53.08
289.79	85.84
290.004	-14.51
290.219	-18.6
290.434	18.26
290.649	12.12
290.864	40.79
291.079	14.17
291.294	-2.22
291.509	18.26
291.724	36.69
291.938	-30.89
292.153	61.27
292.368	122.71
292.583	18.26
292.798	3.93
293.012	18.26
293.227	61.27
293.442	44.88
293.657	-41.13
293.871	36.69
294.086	-0.17
294.301	73.56
294.516	-37.03
294.73	14.17
294.945	63.32
295.16	46.93
295.374	18.26
295.589	20.31
295.804	28.5
296.018	42.84
296.233	1.88
296.447	63.32
296.662	61.27
296.877	3.93
297.091	71.51
297.306	57.17
297.52	-37.03
297.735	36.69
297.949	14.17
298.164	38.74
298.378	8.02
298.593	-0.17
298.807	65.36
299.022	-67.75
299.236	-20.65
299.451	32.6
299.665	3.93
299.88	63.32
300.094	42.84
300.309	51.03
300.523	61.27
300.737	57.17
300.952	73.56
301.166	-8.36
301.381	1.88
301.595	53.08
301.809	42.84
302.024	46.93
302.238	-26.79
302.452	94.04
302.667	-8.36
302.881	42.84
303.095	-18.6
303.309	10.07
303.524	20.31
303.738	5.97
303.952	-22.7
304.166	40.79
304.381	-37.03
304.595	81.75
304.809	16.21
305.023	-6.31
305.237	22.36
305.452	106.32
305.666	77.65
305.88	-4.27
306.094	-4.27
306.308	1.88
306.522	8.02
306.736	28.5
306.95	53.08
307.164	83.8
307.379	55.12
307.593	104.28
307.807	-20.65
308.021	22.36
308.235	75.6
308.449	10.07
308.663	-53.42
308.877	14.17
309.091	73.56
309.305	20.31
309.519	26.45
309.733	112.47
309.947	-28.84
310.161	55.12
310.374	20.31
310.588	24.4
310.802	102.23
311.016	98.13
311.23	1.88
311.444	48.98
311.658	-12.46
311.872	18.26
312.085	53.08
312.299	28.5
312.513	-6.31
312.727	69.46
312.941	63.32
313.154	10.07
313.368	14.17
313.582	34.64
313.796	16.21
314.009	44.88
314.223	10.07
314.437	18.26
314.651	-22.7
314.864	-2.22
315.078	1.88
315.292	3.93
315.505	26.45
315.719	100.18
315.933	-14.51
316.146	-8.36
316.36	-8.36
316.573	42.84
316.787	32.6
317.001	28.5
317.214	-10.41
317.428	-20.65
317.641	18.26
317.855	20.31
318.068	20.31
318.282	14.17
318.495	16.21
318.709	79.7
318.922	14.17
319.136	51.03
319.349	24.4
319.563	32.6
319.776	32.6
319.99	24.4
320.203	-4.27
320.417	-6.31
320.63	53.08
320.843	32.6
321.057	36.69
321.27	-0.17
321.483	77.65
321.697	-2.22
321.91	14.17
322.124	46.93
322.337	59.22
322.55	5.97
322.763	24.4
322.977	59.22
323.19	3.93
323.403	-28.84
323.617	61.27
323.83	-37.03
324.043	85.84
324.256	26.45
324.469	28.5
324.683	5.97
324.896	16.21
325.109	-6.31
325.322	12.12
325.535	63.32
325.748	96.08
325.962	36.69
326.175	-37.03
326.388	40.79
326.601	-14.51
326.814	-39.08
327.027	59.22
327.24	38.74
327.453	3.93
327.666	3.93
327.879	63.32
328.092	-12.46
328.305	22.36
328.518	18.26
328.731	5.97
328.944	30.55
329.157	40.79
329.37	18.26
329.583	75.6
329.796	81.75
330.009	44.88
330.222	-22.7
330.435	30.55
330.648	28.5
330.861	3.93
331.073	28.5
331.286	48.98
331.499	55.12
331.712	-20.65
331.925	-14.51
332.138	-30.89
332.35	12.12
332.563	79.7
332.776	-0.17
332.989	36.69
333.202	3.93
333.414	-30.89
333.627	79.7
333.84	44.88
334.053	81.75
334.265	14.17
334.478	71.51
334.691	-12.46
334.903	57.17
335.116	-2.22
335.329	36.69
335.541	85.84
335.754	87.89
335.966	28.5
336.179	48.98
336.392	3.93
336.604	48.98
336.817	32.6
337.029	67.41
337.242	55.12
337.454	-2.22
337.667	38.74
337.88	5.97
338.092	38.74
338.305	30.55
338.517	22.36
338.729	26.45
338.942	85.84
339.154	24.4
339.367	24.4
339.579	-0.17
339.792	-8.36
340.004	26.45
340.217	14.17
340.429	36.69
340.641	18.26
340.854	48.98
341.066	26.45
341.278	14.17
341.491	38.74
341.703	18.26
341.915	94.04
342.128	22.36
342.34	-18.6
342.552	-53.42
342.764	75.6
342.977	34.64
343.189	38.74
343.401	-8.36
343.613	46.93
343.826	63.32
344.038	18.26
344.25	48.98
344.462	46.93
344.674	-12.46
344.886	48.98
345.099	69.46
345.311	-8.36
345.523	120.66
345.735	-16.55
345.947	30.55
346.159	106.32
346.371	108.37
346.583	46.93
346.795	100.18
347.007	-10.41
347.219	118.61
347.431	26.45
347.643	57.17
347.855	63.32
348.067	-2.22
348.279	-4.27
348.491	51.03
348.703	51.03
348.915	48.98
349.127	-53.42
349.339	87.89
349.551	34.64
349.763	87.89
349.975	40.79
350.187	110.42
350.399	44.88
350.61	26.45
350.822	44.88
351.034	71.51
351.246	38.74
351.458	22.36
351.669	46.93
351.881	94.04
352.093	-26.79
352.305	-0.17
352.517	71.51
352.728	22.36
352.94	61.27
353.152	26.45
353.363	-4.27
353.575	24.4
353.787	63.32
353.999	46.93
354.21	61.27
354.422	34.64
354.633	18.26
354.845	32.6
355.057	-37.03
355.268	42.84
355.48	1.88
355.692	26.45
355.903	20.31
356.115	89.94
356.326	36.69
356.538	3.93
356.749	36.69
356.961	8.02
357.172	1.88
357.384	63.32
357.595	61.27
357.807	34.64
358.018	16.21
358.23	89.94
358.441	16.21
358.653	-12.46
358.864	10.07
359.075	-16.55
359.287	3.93
359.498	104.28
359.709	38.74
359.921	63.32
360.132	63.32
360.344	12.12
360.555	67.41
360.766	38.74
360.977	8.02
361.189	55.12
361.4	53.08
361.611	3.93
361.823	42.84
362.034	12.12
362.245	28.5
362.456	18.26
362.667	53.08
362.879	-16.55
363.09	98.13
363.301	53.08
363.512	-63.66
363.723	20.31
363.935	20.31
364.146	-4.27
364.357	14.17
364.568	38.74
364.779	-16.55
364.99	14.17
365.201	20.31
365.412	94.04
365.623	-0.17
365.834	73.56
366.045	-39.08
366.256	-32.94
366.467	16.21
366.678	-2.22
366.889	3.93
367.1	44.88
367.311	18.26
367.522	96.08
367.733	48.98
367.944	40.79
368.155	55.12
368.366	53.08
368.577	85.84
368.788	53.08
368.999	26.45
369.209	16.21
369.42	5.97
369.631	120.66
369.842	71.51
370.053	46.93
370.264	-0.17
370.474	96.08
370.685	44.88
370.896	8.02
371.107	-18.6
371.317	104.28
371.528	34.64
371.739	-18.6
371.95	48.98
372.16	42.84
372.371	20.31
372.582	42.84
372.792	20.31
373.003	30.55
373.214	34.64
373.424	38.74
373.635	18.26
373.846	53.08
374.056	36.69
374.267	36.69
374.477	42.84
374.688	61.27
374.898	53.08
375.109	34.64
375.319	14.17
375.53	77.65
375.74	67.41
375.951	-4.27
376.161	55.12
376.372	28.5
376.582	-6.31
376.793	65.36
377.003	-24.75
377.214	73.56
377.424	34.64
377.635	63.32
377.845	-12.46
378.055	91.99
378.266	26.45
378.476	-10.41
378.686	38.74
378.897	51.03
379.107	40.79
379.317	20.31
379.528	79.7
379.738	89.94
379.948	18.26
380.158	44.88
380.369	34.64
380.579	53.08
380.789	83.8
380.999	145.24
381.21	51.03
381.42	75.6
381.63	44.88
381.84	55.12
382.05	-59.56
382.261	114.52
382.471	91.99
382.681	44.88
382.891	28.5
383.101	102.23
383.311	5.97
383.521	128.85
383.731	24.4
383.941	55.12
384.151	77.65
384.361	16.21
384.571	38.74
384.781	53.08
384.991	67.41
385.201	40.79
385.411	87.89
385.621	12.12
385.831	3.93
386.041	36.69
386.251	104.28
386.461	22.36
386.671	20.31
386.881	63.32
387.091	61.27
387.301	71.51
387.511	40.79
387.72	73.56
387.93	24.4
388.14	-28.84
388.35	139.09
388.56	87.89
388.769	12.12
388.979	38.74
389.189	-18.6
389.399	32.6
389.609	38.74
389.818	75.6
390.028	14.17
390.238	65.36
390.447	1.88
390.657	18.26
390.867	87.89
391.076	28.5
391.286	36.69
391.496	53.08
391.705	1.88
391.915	79.7
392.125	16.21
392.334	55.12
392.544	75.6
392.753	77.65
392.963	12.12
393.172	65.36
393.382	-12.46
393.591	89.94
393.801	79.7
394.01	79.7
394.22	108.37
394.429	42.84
394.639	-16.55
394.848	137.04
395.058	96.08
395.267	83.8
395.477	22.36
395.686	91.99
395.895	20.31
396.105	57.17
396.314	16.21
396.524	59.22
396.733	48.98
396.942	85.84
397.152	28.5
397.361	225.11
397.57	38.74
397.78	57.17
397.989	85.84
398.198	18.26
398.407	32.6
398.617	102.23
398.826	34.64
399.035	149.33
399.244	192.34
399.453	94.04
399.663	91.99
399.872	81.75
400.081	77.65
400.29	40.79
400.499	96.08
400.708	106.32
400.917	30.55
401.127	91.99
401.336	42.84
401.545	124.76
401.754	104.28
401.963	87.89
402.172	36.69
402.381	59.22
402.59	38.74
402.799	94.04
403.008	112.47
403.217	57.17
403.426	69.46
403.635	120.66
403.844	149.33
404.053	118.61
404.262	73.56
404.471	130.9
404.68	130.9
404.888	65.36
405.097	106.32
405.306	159.57
405.515	69.46
405.724	106.32
405.933	122.71
406.142	128.85
406.35	106.32
406.559	94.04
406.768	151.38
406.977	165.71
407.185	128.85
407.394	118.61
407.603	128.85
407.812	167.76
408.02	61.27
408.229	137.04
408.438	210.77
408.646	202.58
408.855	192.34
409.064	249.68
409.272	137.04
409.481	237.39
409.69	175.95
409.898	151.38
410.107	243.54
410.315	126.8
410.524	157.52
410.733	147.28
410.941	251.73
411.15	292.69
411.358	241.49
411.567	229.2
411.775	253.78
411.984	225.11
412.192	227.15
412.401	278.35
412.609	266.07
412.818	352.08
413.026	288.59
413.234	321.36
413.443	335.7
413.651	323.41
413.86	294.74
414.068	434
414.276	352.08
414.485	407.38
414.693	374.61
414.901	462.67
415.11	509.77
415.318	503.63
415.526	460.62
415.734	483.15
415.943	493.39
416.151	503.63
416.359	507.73
416.567	550.73
416.776	503.63
416.984	646.99
417.192	616.27
417.4	618.32
417.608	589.64
417.817	638.8
418.025	743.24
418.233	778.06
418.441	692.04
418.649	714.57
418.857	802.63
419.065	849.74
419.273	835.4
419.481	878.41
419.689	915.27
419.897	917.32
420.105	943.94
420.313	970.57
420.521	976.71
420.729	1023.81
420.937	1021.77
421.145	1124.16
421.353	1126.21
421.561	1218.37
421.769	1263.43
421.977	1322.82
422.185	1220.42
422.393	1402.69
422.601	1421.12
422.809	1492.8
423.017	1521.47
423.224	1449.79
423.432	1576.77
423.64	1617.72
423.848	1718.08
424.056	1673.02
424.263	1744.7
424.471	1787.71
424.679	1679.16
424.887	1961.78
425.094	1896.25
425.302	1896.25
425.51	2045.75
425.718	2187.06
425.925	2232.12
426.133	2162.48
426.341	2389.81
426.548	2336.56
426.756	2434.86
426.964	2586.41
427.171	2647.85
427.379	2668.33
427.586	2694.96
427.794	2948.9
428.001	2918.18
428.209	2983.72
428.417	3055.4
428.624	3329.83
428.832	3254.05
429.039	3245.86
429.247	3260.2
429.454	3659.55
429.662	3720.99
429.869	3608.35
430.076	3847.96
430.284	3745.56
430.491	3880.73
430.699	4142.87
430.906	4044.57
431.114	4151.06
431.321	4192.02
431.528	4388.63
431.736	4648.72
431.943	4878.09
432.15	4630.29
432.358	4814.6
432.565	5091.08
432.772	5082.89
432.979	5287.68
433.187	5457.67
433.394	5422.85
433.601	5744.38
433.808	5867.26
434.016	5558.02
434.223	5986.04
434.43	6438.64
434.637	6168.31
434.844	6600.43
435.052	6641.39
435.259	6686.45
435.466	6729.45
435.673	6625.01
435.88	7073.51
436.087	7524.07
436.294	7571.17
436.501	7409.38
436.708	7630.56
436.915	7702.24
437.122	8152.79
437.329	7950.04
437.537	8552.15
437.743	8558.29
437.95	8533.72
438.157	8910.54
438.364	9109.19
438.571	9209.54
438.778	9350.85
438.985	10161.85
439.192	9750.21
439.399	10024.64
439.606	9848.51
439.813	10211
440.02	11019.95
440.227	10751.67
440.433	10770.1
440.64	10997.42
440.847	11058.86
441.054	11181.74
441.261	12109.47
441.467	11826.85
441.674	12134.04
441.881	12576.41
442.088	12861.07
442.294	12441.24
442.501	12777.11
442.708	12732.05
442.914	13549.19
443.121	14319.23
443.328	13803.14
443.534	14691.96
443.741	14108.29
443.948	14237.31
444.154	15287.92
444.361	15122.03
444.568	15294.06
444.774	14884.47
444.981	15496.81
445.187	15994.47
445.394	16578.14
445.6	16227.93
445.807	17509.96
446.013	16936.53
446.22	17165.9
446.426	18124.35
446.633	18339.39
446.839	18615.87
447.046	18132.54
447.252	19009.08
447.459	19152.43
447.665	19177.01
447.871	19936.81
448.078	20512.28
448.284	19578.41
448.491	20190.75
448.697	20983.32
448.903	21509.65
449.11	21542.41
449.316	20993.56
449.522	21632.52
449.728	22023.69
449.935	22314.5
450.141	22156.8
450.347	22937.08
450.553	22183.43
450.76	22607.36
450.966	23256.56
451.172	22724.09
451.378	23512.56
451.584	22674.94
451.791	23430.64
451.997	23539.18
452.203	23879.14
452.409	23997.93
452.615	23840.23
452.821	23076.34
453.027	22535.68
453.233	23946.73
453.44	23021.05
453.646	23197.17
453.852	23416.3
454.058	24004.07
454.264	23035.38
454.47	23600.62
454.676	22793.72
454.882	23705.07
455.088	21761.55
455.294	21841.42
455.5	22621.69
455.705	22711.8
455.911	21755.4
456.117	21366.29
456.323	21306.9
456.529	19752.49
456.735	20694.55
456.941	20264.48
457.147	19947.04
457.352	19549.74
457.558	19172.91
457.764	19379.76
457.97	18878.01
458.176	18333.25
458.381	18798.13
458.587	17481.29
458.793	17702.47
458.999	16668.25
459.204	18140.74
459.41	17415.76
459.616	16559.7
459.821	16330.33
460.027	16338.52
460.233	15998.56
460.438	15382.12
460.644	15382.12
460.85	14759.54
461.055	14507.64
461.261	14419.58
461.466	13307.53
461.672	12887.7
461.878	13956.74
462.083	13014.67
462.289	12793.49
462.494	12553.88
462.7	12015.26
462.905	11916.96
463.111	12152.48
463.316	12154.52
463.522	12123.8
463.727	12228.25
463.932	12152.48
464.138	11880.1
464.343	11939.49
464.549	11577
464.754	12062.37
464.959	11964.06
465.165	11873.95
465.37	11265.71
465.575	11056.81
465.781	11574.95
465.986	11527.85
466.191	11046.57
466.397	11032.24
466.602	10440.37
466.807	10694.32
467.012	10866.35
467.218	10786.48
467.423	10655.41
467.628	10684.08
467.833	11263.66
468.038	10624.69
468.244	10415.8
468.449	10837.68
