Data from USB4F104151__17__12-53-22-148.txt Node

Date: Fri Mar 14 12:53:22 EDT 2025
User: louis
Spectrometer: USB4F10415
Trigger mode: 4
Integration Time (sec): 1.000000E-2
Scans to average: 1
Electric dark correction enabled: true
Nonlinearity correction enabled: false
Boxcar width: 0
XAxis mode: Wavelengths
Number of Pixels in Spectrum: 3648
>>>>>Begin Spectral Data<<<<<
178.204	56.32
178.424	56.32
178.644	56.32
178.864	5.12
179.084	-31.74
179.304	52.22
179.524	7.17
179.744	-87.04
179.964	19.46
180.184	-23.55
180.404	23.55
180.624	48.13
180.844	19.46
181.064	-41.98
181.283	56.32
181.503	-39.94
181.723	-33.79
181.943	7.17
182.163	68.61
182.383	78.85
182.602	101.37
182.822	11.26
183.042	78.85
183.262	19.46
183.482	41.98
183.701	23.55
183.921	27.65
184.141	23.55
184.361	23.55
184.58	15.36
184.8	46.08
185.02	-50.18
185.239	50.18
185.459	29.7
185.679	54.27
185.898	25.6
186.118	58.37
186.338	-29.7
186.557	29.7
186.777	15.36
186.997	99.33
187.216	25.6
187.436	-21.5
187.655	25.6
187.875	39.94
188.095	11.26
188.314	11.26
188.534	109.57
188.753	-76.8
188.973	130.05
189.192	66.56
189.412	72.7
189.631	1.02
189.851	23.55
190.07	37.89
190.29	13.31
190.509	23.55
190.729	5.12
190.948	21.5
191.168	76.8
191.387	35.84
191.607	35.84
191.826	48.13
192.045	70.65
192.265	78.85
192.484	3.07
192.704	74.75
192.923	-27.65
193.142	37.89
193.362	-15.36
193.581	56.32
193.8	68.61
194.02	-13.31
194.239	35.84
194.458	41.98
194.678	-1.02
194.897	-17.41
195.116	31.74
195.335	31.74
195.555	74.75
195.774	41.98
195.993	33.79
196.212	121.85
196.432	80.89
196.651	60.42
196.87	-15.36
197.089	3.07
197.308	17.41
197.528	72.7
197.747	62.46
197.966	70.65
198.185	23.55
198.404	-9.22
198.623	27.65
198.842	19.46
199.062	46.08
199.281	19.46
199.5	15.36
199.719	52.22
199.938	-3.07
200.157	33.79
200.376	33.79
200.595	117.76
200.814	50.18
201.033	62.46
201.252	27.65
201.471	140.29
201.69	39.94
201.909	-3.07
202.128	54.27
202.347	66.56
202.566	54.27
202.785	27.65
203.004	68.61
203.223	60.42
203.442	13.31
203.661	29.7
203.879	19.46
204.098	87.04
204.317	48.13
204.536	29.7
204.755	19.46
204.974	56.32
205.193	21.5
205.411	101.37
205.63	101.37
205.849	56.32
206.068	99.33
206.287	91.13
206.505	74.75
206.724	52.22
206.943	58.37
207.162	113.66
207.381	9.22
207.599	62.46
207.818	19.46
208.037	-29.7
208.255	21.5
208.474	44.03
208.693	13.31
208.911	82.94
209.13	-21.5
209.349	11.26
209.567	56.32
209.786	31.74
210.005	15.36
210.223	58.37
210.442	-7.17
210.661	-21.5
210.879	68.61
211.098	68.61
211.316	52.22
211.535	-5.12
211.753	3.07
211.972	21.5
212.191	13.31
212.409	5.12
212.628	3.07
212.846	60.42
213.065	19.46
213.283	11.26
213.502	-5.12
213.72	-11.26
213.938	27.65
214.157	48.13
214.375	58.37
214.594	58.37
214.812	82.94
215.031	54.27
215.249	29.7
215.467	-64.51
215.686	11.26
215.904	78.85
216.122	11.26
216.341	-13.31
216.559	-3.07
216.778	109.57
216.996	13.31
217.214	3.07
217.432	-1.02
217.651	-5.12
217.869	46.08
218.087	-46.08
218.306	82.94
218.524	128
218.742	-9.22
218.96	-11.26
219.179	46.08
219.397	-19.46
219.615	-13.31
219.833	99.33
220.051	-27.65
220.27	35.84
220.488	23.55
220.706	87.04
220.924	41.98
221.142	39.94
221.36	56.32
221.578	78.85
221.796	48.13
222.015	-21.5
222.233	29.7
222.451	39.94
222.669	41.98
222.887	76.8
223.105	-52.22
223.323	1.02
223.541	54.27
223.759	144.38
223.977	41.98
224.195	72.7
224.413	39.94
224.631	95.23
224.849	44.03
225.067	97.28
225.285	-35.84
225.503	99.33
225.721	21.5
225.939	93.18
226.157	-9.22
226.375	21.5
226.592	52.22
226.81	41.98
227.028	74.75
227.246	82.94
227.464	-99.33
227.682	33.79
227.9	52.22
228.117	13.31
228.335	-21.5
228.553	29.7
228.771	76.8
228.989	64.51
229.206	31.74
229.424	25.6
229.642	27.65
229.86	54.27
230.077	125.95
230.295	66.56
230.513	68.61
230.731	66.56
230.948	-21.5
231.166	60.42
231.384	37.89
231.601	60.42
231.819	60.42
232.037	82.94
232.254	27.65
232.472	93.18
232.689	-9.22
232.907	60.42
233.125	109.57
233.342	-23.55
233.56	95.23
233.777	19.46
233.995	66.56
234.213	52.22
234.43	-5.12
234.648	62.46
234.865	-33.79
235.083	13.31
235.3	3.07
235.518	56.32
235.735	66.56
235.953	39.94
236.17	70.65
236.388	117.76
236.605	80.89
236.822	35.84
237.04	107.52
237.257	-87.04
237.475	-19.46
237.692	52.22
237.909	93.18
238.127	35.84
238.344	95.23
238.562	107.52
238.779	74.75
238.996	93.18
239.214	23.55
239.431	15.36
239.648	-15.36
239.865	84.99
240.083	-5.12
240.3	44.03
240.517	93.18
240.735	-29.7
240.952	-50.18
241.169	54.27
241.386	7.17
241.603	39.94
241.821	-21.5
242.038	27.65
242.255	56.32
242.472	68.61
242.689	3.07
242.907	64.51
243.124	-37.89
243.341	-23.55
243.558	54.27
243.775	3.07
243.992	44.03
244.209	29.7
244.426	125.95
244.643	70.65
244.86	15.36
245.078	-27.65
245.295	52.22
245.512	21.5
245.729	-1.02
245.946	-9.22
246.163	-19.46
246.38	48.13
246.597	35.84
246.814	21.5
247.031	111.61
247.248	93.18
247.464	9.22
247.681	111.61
247.898	33.79
248.115	179.2
248.332	1.02
248.549	70.65
248.766	68.61
248.983	21.5
249.2	-5.12
249.417	48.13
249.633	15.36
249.85	23.55
250.067	52.22
250.284	3.07
250.501	-17.41
250.717	103.42
250.934	-7.17
251.151	95.23
251.368	37.89
251.585	62.46
251.801	91.13
252.018	46.08
252.235	41.98
252.451	17.41
252.668	13.31
252.885	99.33
253.102	46.08
253.318	58.37
253.535	-3.07
253.752	19.46
253.968	66.56
254.185	64.51
254.401	72.7
254.618	84.99
254.835	103.42
255.051	80.89
255.268	-15.36
255.484	29.7
255.701	99.33
255.917	95.23
256.134	60.42
256.351	41.98
256.567	35.84
256.784	39.94
257	7.17
257.217	62.46
257.433	7.17
257.65	60.42
257.866	146.43
258.082	25.6
258.299	-13.31
258.515	11.26
258.732	3.07
258.948	64.51
259.165	-19.46
259.381	72.7
259.597	76.8
259.814	60.42
260.03	105.47
260.246	52.22
260.463	74.75
260.679	21.5
260.895	17.41
261.112	37.89
261.328	41.98
261.544	37.89
261.761	74.75
261.977	72.7
262.193	-7.17
262.409	76.8
262.626	62.46
262.842	27.65
263.058	-9.22
263.274	91.13
263.49	23.55
263.707	78.85
263.923	17.41
264.139	3.07
264.355	37.89
264.571	37.89
264.787	89.09
265.004	87.04
265.22	62.46
265.436	80.89
265.652	1.02
265.868	87.04
266.084	58.37
266.3	25.6
266.516	56.32
266.732	54.27
266.948	54.27
267.164	35.84
267.38	31.74
267.596	60.42
267.812	35.84
268.028	-9.22
268.244	21.5
268.46	76.8
268.676	54.27
268.892	60.42
269.108	-23.55
269.324	44.03
269.54	-29.7
269.756	35.84
269.972	-48.13
270.188	23.55
270.403	33.79
270.619	3.07
270.835	29.7
271.051	97.28
271.267	23.55
271.483	-29.7
271.698	-7.17
271.914	78.85
272.13	68.61
272.346	-7.17
272.562	33.79
272.777	46.08
272.993	72.7
273.209	89.09
273.425	31.74
273.64	29.7
273.856	84.99
274.072	1.02
274.287	-21.5
274.503	11.26
274.719	56.32
274.934	35.84
275.15	99.33
275.366	21.5
275.581	66.56
275.797	121.85
276.012	60.42
276.228	107.52
276.444	35.84
276.659	105.47
276.875	48.13
277.09	25.6
277.306	68.61
277.521	70.65
277.737	19.46
277.952	128
278.168	64.51
278.383	33.79
278.599	29.7
278.814	13.31
279.03	-23.55
279.245	19.46
279.461	58.37
279.676	-62.46
279.892	48.13
280.107	84.99
280.322	64.51
280.538	50.18
280.753	52.22
280.969	-5.12
281.184	109.57
281.399	84.99
281.615	21.5
281.83	117.76
282.045	82.94
282.26	3.07
282.476	56.32
282.691	-19.46
282.906	-3.07
283.122	44.03
283.337	101.37
283.552	82.94
283.767	25.6
283.983	91.13
284.198	-44.03
284.413	64.51
284.628	3.07
284.843	23.55
285.058	62.46
285.274	37.89
285.489	-31.74
285.704	109.57
285.919	84.99
286.134	23.55
286.349	56.32
286.564	48.13
286.779	44.03
286.995	-9.22
287.21	87.04
287.425	41.98
287.64	39.94
287.855	35.84
288.07	41.98
288.285	46.08
288.5	11.26
288.715	62.46
288.93	39.94
289.145	11.26
289.36	41.98
289.575	56.32
289.79	-3.07
290.004	-11.26
290.219	1.02
290.434	101.37
290.649	7.17
290.864	11.26
291.079	-31.74
291.294	80.89
291.509	7.17
291.724	-19.46
291.938	48.13
292.153	48.13
292.368	117.76
292.583	-35.84
292.798	-35.84
293.012	93.18
293.227	1.02
293.442	37.89
293.657	9.22
293.871	64.51
294.086	-29.7
294.301	25.6
294.516	58.37
294.73	84.99
294.945	54.27
295.16	29.7
295.374	21.5
295.589	15.36
295.804	-37.89
296.018	46.08
296.233	-9.22
296.447	52.22
296.662	78.85
296.877	52.22
297.091	58.37
297.306	50.18
297.52	-27.65
297.735	62.46
297.949	66.56
298.164	60.42
298.378	-11.26
298.593	76.8
298.807	-25.6
299.022	48.13
299.236	54.27
299.451	41.98
299.665	68.61
299.88	-31.74
300.094	56.32
300.309	56.32
300.523	66.56
300.737	-33.79
300.952	39.94
301.166	-23.55
301.381	39.94
301.595	44.03
301.809	23.55
302.024	15.36
302.238	-5.12
302.452	27.65
302.667	70.65
302.881	-11.26
303.095	107.52
303.309	54.27
303.524	-15.36
303.738	7.17
303.952	101.37
304.166	39.94
304.381	-3.07
304.595	52.22
304.809	9.22
305.023	1.02
305.237	25.6
305.452	37.89
305.666	35.84
305.88	78.85
306.094	56.32
306.308	64.51
306.522	64.51
306.736	19.46
306.95	-19.46
307.164	80.89
307.379	37.89
307.593	27.65
307.807	56.32
308.021	17.41
308.235	33.79
308.449	-23.55
308.663	72.7
308.877	66.56
309.091	76.8
309.305	-1.02
309.519	39.94
309.733	105.47
309.947	48.13
310.161	13.31
310.374	99.33
310.588	87.04
310.802	21.5
311.016	93.18
311.23	50.18
311.444	48.13
311.658	50.18
311.872	46.08
312.085	11.26
312.299	31.74
312.513	70.65
312.727	87.04
312.941	78.85
313.154	60.42
313.368	37.89
313.582	87.04
313.796	130.05
314.009	-7.17
314.223	48.13
314.437	64.51
314.651	35.84
314.864	64.51
315.078	39.94
315.292	46.08
315.505	35.84
315.719	64.51
315.933	15.36
316.146	-9.22
316.36	7.17
316.573	17.41
316.787	68.61
317.001	33.79
317.214	15.36
317.428	84.99
317.641	72.7
317.855	76.8
318.068	25.6
318.282	17.41
318.495	66.56
318.709	-11.26
318.922	-17.41
319.136	72.7
319.349	11.26
319.563	29.7
319.776	58.37
319.99	101.37
320.203	15.36
320.417	64.51
320.63	66.56
320.843	74.75
321.057	37.89
321.27	84.99
321.483	-11.26
321.697	70.65
321.91	13.31
322.124	-27.65
322.337	48.13
322.55	54.27
322.763	72.7
322.977	80.89
323.19	33.79
323.403	-11.26
323.617	11.26
323.83	39.94
324.043	37.89
324.256	33.79
324.469	50.18
324.683	37.89
324.896	3.07
325.109	35.84
325.322	39.94
325.535	52.22
325.748	41.98
325.962	115.71
326.175	19.46
326.388	50.18
326.601	29.7
326.814	39.94
327.027	76.8
327.24	23.55
327.453	7.17
327.666	-3.07
327.879	52.22
328.092	-11.26
328.305	-7.17
328.518	33.79
328.731	48.13
328.944	44.03
329.157	52.22
329.37	89.09
329.583	44.03
329.796	64.51
330.009	76.8
330.222	39.94
330.435	17.41
330.648	105.47
330.861	-1.02
331.073	23.55
331.286	9.22
331.499	52.22
331.712	-19.46
331.925	48.13
332.138	99.33
332.35	62.46
332.563	25.6
332.776	70.65
332.989	5.12
333.202	46.08
333.414	35.84
333.627	13.31
333.84	76.8
334.053	-17.41
334.265	89.09
334.478	46.08
334.691	13.31
334.903	52.22
335.116	60.42
335.329	66.56
335.541	39.94
335.754	29.7
335.966	13.31
336.179	68.61
336.392	23.55
336.604	50.18
336.817	-5.12
337.029	142.33
337.242	56.32
337.454	82.94
337.667	60.42
337.88	107.52
338.092	56.32
338.305	56.32
338.517	31.74
338.729	68.61
338.942	23.55
339.154	37.89
339.367	-13.31
339.579	54.27
339.792	68.61
340.004	74.75
340.217	-62.46
340.429	99.33
340.641	-7.17
340.854	111.61
341.066	9.22
341.278	76.8
341.491	121.85
341.703	37.89
341.915	91.13
342.128	89.09
342.34	74.75
342.552	-1.02
342.764	35.84
342.977	39.94
343.189	56.32
343.401	29.7
343.613	25.6
343.826	15.36
344.038	103.42
344.25	64.51
344.462	50.18
344.674	35.84
344.886	50.18
345.099	78.85
345.311	31.74
345.523	64.51
345.735	93.18
345.947	76.8
346.159	23.55
346.371	9.22
346.583	39.94
346.795	101.37
347.007	62.46
347.219	72.7
347.431	119.81
347.643	76.8
347.855	76.8
348.067	44.03
348.279	25.6
348.491	5.12
348.703	31.74
348.915	11.26
349.127	17.41
349.339	48.13
349.551	-9.22
349.763	62.46
349.975	56.32
350.187	109.57
350.399	91.13
350.61	37.89
350.822	19.46
351.034	76.8
351.246	72.7
351.458	115.71
351.669	-11.26
351.881	25.6
352.093	9.22
352.305	15.36
352.517	11.26
352.728	35.84
352.94	80.89
353.152	29.7
353.363	78.85
353.575	46.08
353.787	31.74
353.999	109.57
354.21	44.03
354.422	37.89
354.633	74.75
354.845	70.65
355.057	11.26
355.268	93.18
355.48	72.7
355.692	60.42
355.903	62.46
356.115	91.13
356.326	-35.84
356.538	80.89
356.749	3.07
356.961	15.36
357.172	27.65
357.384	-19.46
357.595	132.09
357.807	7.17
358.018	89.09
358.23	23.55
358.441	50.18
358.653	78.85
358.864	56.32
359.075	91.13
359.287	117.76
359.498	21.5
359.709	56.32
359.921	105.47
360.132	44.03
360.344	25.6
360.555	44.03
360.766	41.98
360.977	-7.17
361.189	1.02
361.4	37.89
361.611	37.89
361.823	11.26
362.034	33.79
362.245	7.17
362.456	87.04
362.667	78.85
362.879	50.18
363.09	-13.31
363.301	29.7
363.512	48.13
363.723	1.02
363.935	11.26
364.146	91.13
364.357	64.51
364.568	23.55
364.779	50.18
364.99	93.18
365.201	70.65
365.412	101.37
365.623	37.89
365.834	72.7
366.045	17.41
366.256	27.65
366.467	37.89
366.678	111.61
366.889	72.7
367.1	41.98
367.311	41.98
367.522	3.07
367.733	35.84
367.944	111.61
368.155	3.07
368.366	97.28
368.577	64.51
368.788	15.36
368.999	27.65
369.209	76.8
369.42	95.23
369.631	76.8
369.842	74.75
370.053	39.94
370.264	84.99
370.474	39.94
370.685	52.22
370.896	66.56
371.107	56.32
371.317	78.85
371.528	-3.07
371.739	105.47
371.95	21.5
372.16	25.6
372.371	70.65
372.582	58.37
372.792	54.27
373.003	46.08
373.214	62.46
373.424	52.22
373.635	-48.13
373.846	119.81
374.056	66.56
374.267	111.61
374.477	31.74
374.688	48.13
374.898	35.84
375.109	97.28
375.319	52.22
375.53	78.85
375.74	113.66
375.951	48.13
376.161	48.13
376.372	72.7
376.582	48.13
376.793	46.08
377.003	-21.5
377.214	89.09
377.424	-13.31
377.635	41.98
377.845	82.94
378.055	44.03
378.266	46.08
378.476	140.29
378.686	-21.5
378.897	27.65
379.107	74.75
379.317	97.28
379.528	52.22
379.738	48.13
379.948	-11.26
380.158	101.37
380.369	50.18
380.579	46.08
380.789	-11.26
380.999	113.66
381.21	29.7
381.42	107.52
381.63	70.65
381.84	46.08
382.05	115.71
382.261	66.56
382.471	46.08
382.681	91.13
382.891	11.26
383.101	70.65
383.311	-31.74
383.521	39.94
383.731	37.89
383.941	91.13
384.151	115.71
384.361	27.65
384.571	41.98
384.781	27.65
384.991	39.94
385.201	62.46
385.411	37.89
385.621	93.18
385.831	29.7
386.041	105.47
386.251	15.36
386.461	89.09
386.671	35.84
386.881	52.22
387.091	78.85
387.301	99.33
387.511	113.66
387.72	78.85
387.93	13.31
388.14	107.52
388.35	-17.41
388.56	78.85
388.769	39.94
388.979	54.27
389.189	50.18
389.399	56.32
389.609	19.46
389.818	154.62
390.028	52.22
390.238	9.22
390.447	78.85
390.657	93.18
390.867	-9.22
391.076	44.03
391.286	89.09
391.496	13.31
391.705	60.42
391.915	52.22
392.125	138.24
392.334	23.55
392.544	64.51
392.753	119.81
392.963	72.7
393.172	-23.55
393.382	99.33
393.591	111.61
393.801	41.98
394.01	109.57
394.22	66.56
394.429	5.12
394.639	-35.84
394.848	68.61
395.058	54.27
395.267	80.89
395.477	58.37
395.686	37.89
395.895	130.05
396.105	84.99
396.314	97.28
396.524	97.28
396.733	52.22
396.942	68.61
397.152	125.95
397.361	166.91
397.57	7.17
397.78	152.57
397.989	72.7
398.198	76.8
398.407	80.89
398.617	52.22
398.826	101.37
399.035	121.85
399.244	101.37
399.453	84.99
399.663	56.32
399.872	29.7
400.081	72.7
400.29	99.33
400.499	72.7
400.708	72.7
400.917	103.42
401.127	166.91
401.336	39.94
401.545	138.24
401.754	119.81
401.963	70.65
402.172	41.98
402.381	142.33
402.59	113.66
402.799	125.95
403.008	64.51
403.217	89.09
403.426	99.33
403.635	50.18
403.844	-9.22
404.053	84.99
404.262	119.81
404.471	105.47
404.68	54.27
404.888	60.42
405.097	140.29
405.306	62.46
405.515	123.9
405.724	56.32
405.933	93.18
406.142	103.42
406.35	91.13
406.559	109.57
406.768	95.23
406.977	66.56
407.185	128
407.394	183.29
407.603	101.37
407.812	134.14
408.02	152.57
408.229	66.56
408.438	140.29
408.646	117.76
408.855	97.28
409.064	134.14
409.272	121.85
409.481	144.38
409.69	125.95
409.898	128
410.107	103.42
410.315	252.92
410.524	117.76
410.733	187.39
410.941	107.52
411.15	134.14
411.358	125.95
411.567	230.4
411.775	203.77
411.984	97.28
412.192	189.44
412.401	211.96
412.609	193.53
412.818	244.73
413.026	263.16
413.234	267.26
413.443	183.29
413.651	181.25
413.86	297.98
414.068	283.64
414.276	273.4
414.485	281.6
414.693	302.08
414.901	293.88
415.11	211.96
415.318	345.08
415.526	416.76
415.734	357.37
415.943	306.17
416.151	334.84
416.359	355.32
416.567	375.8
416.776	381.95
416.984	359.42
417.192	465.91
417.4	375.8
417.608	334.84
417.817	474.1
418.025	353.27
418.233	601.08
418.441	601.08
418.649	506.87
418.857	558.07
419.065	627.7
419.273	541.69
419.481	637.94
419.689	762.87
419.897	596.98
420.105	603.13
420.313	676.85
420.521	562.17
420.729	732.15
420.937	740.34
421.145	707.57
421.353	670.71
421.561	803.83
421.769	775.16
421.977	832.5
422.185	844.79
422.393	826.36
422.601	885.75
422.809	914.42
423.017	865.27
423.224	969.71
423.432	1059.82
423.64	955.38
423.848	992.24
424.056	1078.26
424.263	1012.72
424.471	1063.92
424.679	1178.61
424.887	1303.53
425.094	1217.52
425.302	1270.76
425.51	1225.71
425.718	1313.77
425.925	1289.2
426.133	1387.5
426.341	1471.47
426.548	1555.43
426.756	1516.52
426.964	1620.97
427.171	1647.59
427.379	1698.79
427.586	1651.69
427.794	1731.56
428.001	1795.04
428.209	1864.68
428.417	1962.98
428.624	2096.1
428.832	2022.37
429.039	2083.81
429.247	2061.28
429.454	2214.88
429.662	2272.22
429.869	2186.21
430.076	2393.05
430.284	2178.01
430.491	2380.76
430.699	2438.11
430.906	2517.98
431.114	2524.12
431.321	2634.71
431.528	2622.42
431.736	2864.08
431.943	2980.82
432.15	2874.32
432.358	2968.53
432.565	3075.03
432.772	3034.07
432.979	3189.71
433.187	3193.81
433.394	3328.97
433.601	3492.81
433.808	3670.98
434.016	3570.63
434.223	3757
434.43	4029.38
434.637	3828.68
434.844	4221.89
435.052	4174.78
435.259	4293.57
435.466	4182.98
435.673	4221.89
435.88	4412.35
436.087	4613.05
436.294	4641.72
436.501	4578.23
436.708	4623.29
436.915	4869.05
437.122	5036.98
437.329	5118.9
437.537	5227.44
437.743	5426.09
437.95	5340.08
438.157	5630.89
438.364	5735.34
438.571	5698.47
438.778	5741.48
438.985	6093.73
439.192	6026.15
439.399	6192.03
439.606	6003.62
439.813	6312.86
440.02	6724.51
440.227	6742.94
440.433	6671.26
440.64	6892.44
440.847	6716.31
441.054	7003.03
441.261	7310.22
441.467	7410.57
441.674	7621.52
441.881	7801.74
442.088	7627.66
442.294	7707.53
442.501	7881.61
442.708	8065.92
442.914	8444.8
443.121	8647.55
443.328	8397.7
443.534	9182.07
443.741	8811.39
443.948	8801.15
444.154	9255.79
444.361	9270.13
444.568	9253.75
444.774	9343.86
444.981	9548.65
445.187	9720.68
445.394	10015.59
445.6	10031.97
445.807	11103.06
446.013	10595.17
446.22	10531.68
446.426	11045.72
446.633	11275.09
446.839	11709.26
447.046	11117.4
447.252	11643.73
447.459	11826
447.665	11770.7
447.871	12430.15
448.078	12997.43
448.284	12137.29
448.491	12569.41
448.697	13019.96
448.903	13134.65
449.11	13331.25
449.316	13122.36
449.522	13292.34
449.728	13824.81
449.935	13744.94
450.141	13740.85
450.347	14082.86
450.553	13589.3
450.76	13998.89
450.966	14205.74
451.172	14062.38
451.378	14670.62
451.584	14285.61
451.791	14582.56
451.997	14422.82
452.203	14881.56
452.409	14803.74
452.615	14818.08
452.821	14301.99
453.027	14029.61
453.233	15002.4
453.44	14379.81
453.646	14471.97
453.852	14492.45
454.058	14676.77
454.264	14224.17
454.47	14691.1
454.676	14213.93
454.882	14824.22
455.088	13331.25
455.294	13665.07
455.5	13785.9
455.705	13894.44
455.911	13370.16
456.117	13296.44
456.323	12878.65
456.529	12419.91
456.735	12809.02
456.941	12553.02
457.147	12364.61
457.352	12110.66
457.558	11893.58
457.764	11766.6
457.97	11754.32
458.176	11512.66
458.381	11324.24
458.587	10845.02
458.793	10971.99
458.999	10451.81
459.204	11025.24
459.41	11053.91
459.616	10132.33
459.821	10150.76
460.027	10210.15
460.233	9798.51
460.438	9423.73
460.644	9554.8
460.85	8985.46
461.055	8895.35
461.261	8946.55
461.466	8246.15
461.672	8207.23
461.878	8698.75
462.083	8104.84
462.289	7959.43
462.494	7705.48
462.7	7531.41
462.905	7443.34
463.111	7521.17
463.316	7574.41
463.522	7381.9
463.727	7451.53
463.932	7320.46
464.138	7527.31
464.343	7424.91
464.549	7175.06
464.754	7453.58
464.959	7379.86
465.165	7310.22
465.37	6888.34
465.575	6876.06
465.781	7168.91
465.986	7103.38
466.191	6874.01
466.397	6947.73
466.602	6568.86
466.807	6661.02
467.012	6855.58
467.218	6708.12
467.423	6636.44
467.628	6708.12
467.833	7000.98
468.038	6595.48
468.244	6466.46
468.449	6945.69
468.654	6634.39
468.859	6499.23
469.064	6640.54
469.269	6169.51
469.474	6405.02
469.679	6402.97
469.885	6296.48
