Data from USB4F104151__32__12-53-39-706.txt Node

Date: Fri Mar 14 12:53:39 EDT 2025
User: louis
Spectrometer: USB4F10415
Trigger mode: 4
Integration Time (sec): 1.000000E-2
Scans to average: 1
Electric dark correction enabled: true
Nonlinearity correction enabled: false
Boxcar width: 0
XAxis mode: Wavelengths
Number of Pixels in Spectrum: 3648
>>>>>Begin Spectral Data<<<<<
178.204	-70.14
178.424	-70.14
178.644	-70.14
178.864	-35.33
179.084	7.68
179.304	30.21
179.524	-12.8
179.744	-2.56
179.964	-39.42
180.184	22.02
180.404	22.02
180.624	-14.85
180.844	-10.75
181.064	-8.7
181.283	62.98
181.503	-12.8
181.723	-35.33
181.943	-45.57
182.163	38.4
182.383	24.06
182.602	42.5
182.822	32.26
183.042	71.17
183.262	-12.8
183.482	-35.33
183.701	28.16
183.921	50.69
184.141	46.59
184.361	-14.85
184.58	67.07
184.8	36.35
185.02	1.54
185.239	46.59
185.459	-6.66
185.679	-4.61
185.898	-10.75
186.118	-31.23
186.338	-39.42
186.557	42.5
186.777	99.84
186.997	38.4
187.216	50.69
187.436	9.73
187.655	-23.04
187.875	54.78
188.095	1.54
188.314	38.4
188.534	65.02
188.753	108.03
188.973	-10.75
189.192	15.87
189.412	22.02
189.631	-0.51
189.851	5.63
190.07	5.63
190.29	3.58
190.509	-55.81
190.729	81.41
190.948	-18.94
191.168	34.3
191.387	17.92
191.607	-18.94
191.826	38.4
192.045	19.97
192.265	60.93
192.484	-0.51
192.704	-31.23
192.923	28.16
193.142	73.21
193.362	-16.9
193.581	50.69
193.8	3.58
194.02	81.41
194.239	-35.33
194.458	32.26
194.678	1.54
194.897	-2.56
195.116	32.26
195.335	3.58
195.555	13.82
195.774	34.3
195.993	71.17
196.212	77.31
196.432	-23.04
196.651	46.59
196.87	-2.56
197.089	40.45
197.308	73.21
197.528	44.54
197.747	103.93
197.966	-43.52
198.185	-10.75
198.404	54.78
198.623	87.55
198.842	-29.18
199.062	58.88
199.281	32.26
199.5	48.64
199.719	19.97
199.938	3.58
200.157	36.35
200.376	122.37
200.595	101.89
200.814	73.21
201.033	42.5
201.252	73.21
201.471	-2.56
201.69	11.78
201.909	38.4
202.128	-2.56
202.347	62.98
202.566	89.6
202.785	13.82
203.004	62.98
203.223	75.26
203.442	-31.23
203.661	91.65
203.879	-47.62
204.098	83.45
204.317	30.21
204.536	-4.61
204.755	36.35
204.974	99.84
205.193	81.41
205.411	13.82
205.63	30.21
205.849	22.02
206.068	-23.04
206.287	19.97
206.505	36.35
206.724	38.4
206.943	58.88
207.162	40.45
207.381	-43.52
207.599	71.17
207.818	77.31
208.037	1.54
208.255	34.3
208.474	42.5
208.693	11.78
208.911	54.78
209.13	-8.7
209.349	32.26
209.567	-16.9
209.786	71.17
210.005	19.97
210.223	11.78
210.442	-33.28
210.661	30.21
210.879	-31.23
211.098	17.92
211.316	44.54
211.535	15.87
211.753	44.54
211.972	48.64
212.191	15.87
212.409	15.87
212.628	58.88
212.846	28.16
213.065	-10.75
213.283	99.84
213.502	40.45
213.72	-43.52
213.938	73.21
214.157	22.02
214.375	1.54
214.594	19.97
214.812	58.88
215.031	19.97
215.249	1.54
215.467	89.6
215.686	-41.47
215.904	67.07
216.122	46.59
216.341	-16.9
216.559	-33.28
216.778	89.6
216.996	19.97
217.214	50.69
217.432	81.41
217.651	65.02
217.869	60.93
218.087	165.37
218.306	1.54
218.524	89.6
218.742	9.73
218.96	69.12
219.179	60.93
219.397	1.54
219.615	-39.42
219.833	65.02
220.051	60.93
220.27	34.3
220.488	-0.51
220.706	91.65
220.924	-31.23
221.142	52.74
221.36	85.5
221.578	34.3
221.796	-20.99
222.015	30.21
222.233	30.21
222.451	48.64
222.669	-31.23
222.887	81.41
223.105	24.06
223.323	-14.85
223.541	58.88
223.759	56.83
223.977	22.02
224.195	132.61
224.413	-2.56
224.631	65.02
224.849	46.59
225.067	46.59
225.285	32.26
225.503	60.93
225.721	5.63
225.939	15.87
226.157	24.06
226.375	91.65
226.592	91.65
226.81	58.88
227.028	26.11
227.246	-8.7
227.464	-49.66
227.682	-14.85
227.9	-43.52
228.117	99.84
228.335	13.82
228.553	58.88
228.771	17.92
228.989	26.11
229.206	-12.8
229.424	-96.77
229.642	15.87
229.86	-14.85
230.077	30.21
230.295	-2.56
230.513	1.54
230.731	9.73
230.948	44.54
231.166	3.58
231.384	13.82
231.601	-68.09
231.819	114.17
232.037	65.02
232.254	-31.23
232.472	-2.56
232.689	28.16
232.907	71.17
233.125	24.06
233.342	-25.09
233.56	-25.09
233.777	17.92
233.995	75.26
234.213	48.64
234.43	26.11
234.648	67.07
234.865	-18.94
235.083	32.26
235.3	-14.85
235.518	65.02
235.735	1.54
235.953	-23.04
236.17	19.97
236.388	32.26
236.605	-4.61
236.822	-6.66
237.04	7.68
237.257	-12.8
237.475	52.74
237.692	38.4
237.909	77.31
238.127	60.93
238.344	-8.7
238.562	54.78
238.779	-70.14
238.996	58.88
239.214	28.16
239.431	1.54
239.648	-14.85
239.865	9.73
240.083	48.64
240.3	105.98
240.517	44.54
240.735	17.92
240.952	26.11
241.169	-12.8
241.386	71.17
241.603	22.02
241.821	1.54
242.038	112.13
242.255	69.12
242.472	11.78
242.689	83.45
242.907	-4.61
243.124	13.82
243.341	58.88
243.558	-2.56
243.775	54.78
243.992	34.3
244.209	15.87
244.426	24.06
244.643	17.92
244.86	83.45
245.078	24.06
245.295	48.64
245.512	-25.09
245.729	9.73
245.946	46.59
246.163	77.31
246.38	38.4
246.597	58.88
246.814	48.64
247.031	87.55
247.248	54.78
247.464	-16.9
247.681	26.11
247.898	-14.85
248.115	40.45
248.332	65.02
248.549	22.02
248.766	-8.7
248.983	32.26
249.2	91.65
249.417	73.21
249.633	36.35
249.85	-31.23
250.067	56.83
250.284	52.74
250.501	44.54
250.717	56.83
250.934	19.97
251.151	13.82
251.368	26.11
251.585	69.12
251.801	7.68
252.018	34.3
252.235	36.35
252.451	-70.14
252.668	71.17
252.885	108.03
253.102	32.26
253.318	130.56
253.535	32.26
253.752	32.26
253.968	48.64
254.185	56.83
254.401	-6.66
254.618	-23.04
254.835	-61.95
255.051	54.78
255.268	7.68
255.484	26.11
255.701	30.21
255.917	42.5
256.134	26.11
256.351	-10.75
256.567	28.16
256.784	34.3
257	54.78
257.217	75.26
257.433	-37.38
257.65	-16.9
257.866	7.68
258.082	-23.04
258.299	46.59
258.515	32.26
258.732	-4.61
258.948	40.45
259.165	58.88
259.381	52.74
259.597	17.92
259.814	46.59
260.03	22.02
260.246	30.21
260.463	-2.56
260.679	42.5
260.895	-20.99
261.112	101.89
261.328	60.93
261.544	19.97
261.761	-64
261.977	-25.09
262.193	-55.81
262.409	52.74
262.626	5.63
262.842	11.78
263.058	13.82
263.274	85.5
263.49	36.35
263.707	40.45
263.923	52.74
264.139	54.78
264.355	22.02
264.571	67.07
264.787	-12.8
265.004	56.83
265.22	56.83
265.436	46.59
265.652	26.11
265.868	48.64
266.084	-2.56
266.3	3.58
266.516	3.58
266.732	67.07
266.948	3.58
267.164	42.5
267.38	38.4
267.596	52.74
267.812	24.06
268.028	44.54
268.244	-39.42
268.46	40.45
268.676	11.78
268.892	17.92
269.108	-25.09
269.324	36.35
269.54	22.02
269.756	52.74
269.972	52.74
270.188	99.84
270.403	42.5
270.619	1.54
270.835	-8.7
271.051	-23.04
271.267	56.83
271.483	28.16
271.698	-47.62
271.914	-31.23
272.13	69.12
272.346	-31.23
272.562	50.69
272.777	79.36
272.993	32.26
273.209	58.88
273.425	52.74
273.64	60.93
273.856	40.45
274.072	87.55
274.287	17.92
274.503	1.54
274.719	67.07
274.934	-23.04
275.15	-25.09
275.366	3.58
275.581	-25.09
275.797	50.69
276.012	3.58
276.228	-4.61
276.444	24.06
276.659	26.11
276.875	-14.85
277.09	116.22
277.306	-0.51
277.521	58.88
277.737	40.45
277.952	-6.66
278.168	40.45
278.383	71.17
278.599	30.21
278.814	32.26
279.03	32.26
279.245	15.87
279.461	11.78
279.676	-35.33
279.892	-29.18
280.107	-0.51
280.322	32.26
280.538	17.92
280.753	95.74
280.969	54.78
281.184	-18.94
281.399	62.98
281.615	54.78
281.83	22.02
282.045	5.63
282.26	11.78
282.476	62.98
282.691	58.88
282.906	34.3
283.122	-0.51
283.337	15.87
283.552	26.11
283.767	15.87
283.983	-0.51
284.198	17.92
284.413	19.97
284.628	-10.75
284.843	-8.7
285.058	95.74
285.274	65.02
285.489	128.51
285.704	116.22
285.919	-10.75
286.134	11.78
286.349	-10.75
286.564	24.06
286.779	83.45
286.995	11.78
287.21	-25.09
287.425	118.27
287.64	30.21
287.855	83.45
288.07	48.64
288.285	32.26
288.5	32.26
288.715	15.87
288.93	28.16
289.145	-37.38
289.36	44.54
289.575	69.12
289.79	26.11
290.004	83.45
290.219	9.73
290.434	36.35
290.649	-0.51
290.864	11.78
291.079	17.92
291.294	65.02
291.509	30.21
291.724	-4.61
291.938	26.11
292.153	38.4
292.368	24.06
292.583	19.97
292.798	-14.85
293.012	69.12
293.227	-31.23
293.442	54.78
293.657	-33.28
293.871	40.45
294.086	50.69
294.301	75.26
294.516	79.36
294.73	50.69
294.945	-18.94
295.16	17.92
295.374	46.59
295.589	105.98
295.804	17.92
296.018	28.16
296.233	3.58
296.447	60.93
296.662	7.68
296.877	38.4
297.091	-12.8
297.306	22.02
297.52	26.11
297.735	54.78
297.949	77.31
298.164	93.69
298.378	-31.23
298.593	-25.09
298.807	-0.51
299.022	-2.56
299.236	19.97
299.451	91.65
299.665	-10.75
299.88	40.45
300.094	1.54
300.309	110.08
300.523	50.69
300.737	7.68
300.952	36.35
301.166	56.83
301.381	15.87
301.595	17.92
301.809	30.21
302.024	101.89
302.238	-10.75
302.452	65.02
302.667	-12.8
302.881	36.35
303.095	34.3
303.309	24.06
303.524	9.73
303.738	19.97
303.952	19.97
304.166	110.08
304.381	11.78
304.595	30.21
304.809	26.11
305.023	40.45
305.237	71.17
305.452	69.12
305.666	38.4
305.88	1.54
306.094	-12.8
306.308	67.07
306.522	-2.56
306.736	-37.38
306.95	46.59
307.164	13.82
307.379	-27.14
307.593	24.06
307.807	5.63
308.021	87.55
308.235	54.78
308.449	13.82
308.663	79.36
308.877	28.16
309.091	58.88
309.305	56.83
309.519	17.92
309.733	19.97
309.947	40.45
310.161	44.54
310.374	50.69
310.588	-18.94
310.802	79.36
311.016	85.5
311.23	73.21
311.444	40.45
311.658	105.98
311.872	60.93
312.085	36.35
312.299	24.06
312.513	-14.85
312.727	13.82
312.941	-35.33
313.154	34.3
313.368	77.31
313.582	9.73
313.796	46.59
314.009	50.69
314.223	13.82
314.437	93.69
314.651	-0.51
314.864	19.97
315.078	54.78
315.292	-10.75
315.505	-6.66
315.719	112.13
315.933	9.73
316.146	81.41
316.36	-37.38
316.573	11.78
316.787	36.35
317.001	13.82
317.214	-20.99
317.428	36.35
317.641	132.61
317.855	50.69
318.068	-20.99
318.282	67.07
318.495	15.87
318.709	-0.51
318.922	3.58
319.136	60.93
319.349	5.63
319.563	38.4
319.776	101.89
319.99	36.35
320.203	36.35
320.417	71.17
320.63	3.58
320.843	56.83
321.057	13.82
321.27	15.87
321.483	155.13
321.697	91.65
321.91	65.02
322.124	56.83
322.337	58.88
322.55	9.73
322.763	58.88
322.977	46.59
323.19	-33.28
323.403	3.58
323.617	-12.8
323.83	103.93
324.043	13.82
324.256	11.78
324.469	15.87
324.683	77.31
324.896	46.59
325.109	30.21
325.322	-4.61
325.535	69.12
325.748	28.16
325.962	9.73
326.175	38.4
326.388	11.78
326.601	11.78
326.814	77.31
327.027	38.4
327.24	79.36
327.453	-35.33
327.666	17.92
327.879	48.64
328.092	15.87
328.305	56.83
328.518	42.5
328.731	28.16
328.944	-12.8
329.157	134.65
329.37	52.74
329.583	79.36
329.796	30.21
330.009	5.63
330.222	48.64
330.435	42.5
330.648	-31.23
330.861	95.74
331.073	30.21
331.286	7.68
331.499	1.54
331.712	17.92
331.925	-57.86
332.138	-8.7
332.35	75.26
332.563	52.74
332.776	-20.99
332.989	30.21
333.202	36.35
333.414	50.69
333.627	11.78
333.84	93.69
334.053	42.5
334.265	101.89
334.478	48.64
334.691	15.87
334.903	24.06
335.116	26.11
335.329	58.88
335.541	50.69
335.754	97.79
335.966	85.5
336.179	54.78
336.392	24.06
336.604	-2.56
336.817	36.35
337.029	26.11
337.242	89.6
337.454	7.68
337.667	58.88
337.88	-8.7
338.092	-6.66
338.305	99.84
338.517	-10.75
338.729	5.63
338.942	-6.66
339.154	42.5
339.367	40.45
339.579	58.88
339.792	9.73
340.004	34.3
340.217	42.5
340.429	60.93
340.641	40.45
340.854	15.87
341.066	93.69
341.278	56.83
341.491	28.16
341.703	-14.85
341.915	40.45
342.128	87.55
342.34	71.17
342.552	-10.75
342.764	71.17
342.977	67.07
343.189	-2.56
343.401	34.3
343.613	32.26
343.826	58.88
344.038	60.93
344.25	5.63
344.462	87.55
344.674	38.4
344.886	60.93
345.099	56.83
345.311	13.82
345.523	11.78
345.735	11.78
345.947	60.93
346.159	34.3
346.371	-23.04
346.583	-23.04
346.795	-2.56
347.007	26.11
347.219	124.41
347.431	81.41
347.643	56.83
347.855	77.31
348.067	28.16
348.279	-23.04
348.491	-6.66
348.703	60.93
348.915	5.63
349.127	15.87
349.339	36.35
349.551	-20.99
349.763	81.41
349.975	28.16
350.187	126.46
350.399	34.3
350.61	-35.33
350.822	19.97
351.034	40.45
351.246	3.58
351.458	38.4
351.669	77.31
351.881	-37.38
352.093	65.02
352.305	-8.7
352.517	103.93
352.728	-27.14
352.94	60.93
353.152	110.08
353.363	34.3
353.575	34.3
353.787	105.98
353.999	-0.51
354.21	22.02
354.422	30.21
354.633	-14.85
354.845	3.58
355.057	15.87
355.268	3.58
355.48	42.5
355.692	-31.23
355.903	13.82
356.115	38.4
356.326	24.06
356.538	38.4
356.749	-55.81
356.961	97.79
357.172	7.68
357.384	26.11
357.595	-23.04
357.807	34.3
358.018	77.31
358.23	101.89
358.441	-14.85
358.653	5.63
358.864	-0.51
359.075	108.03
359.287	7.68
359.498	77.31
359.709	58.88
359.921	38.4
360.132	65.02
360.344	97.79
360.555	56.83
360.766	3.58
360.977	-76.29
361.189	38.4
361.4	11.78
361.611	7.68
361.823	7.68
362.034	11.78
362.245	-43.52
362.456	-31.23
362.667	69.12
362.879	5.63
363.09	42.5
363.301	56.83
363.512	62.98
363.723	56.83
363.935	9.73
364.146	101.89
364.357	38.4
364.568	-16.9
364.779	-31.23
364.99	48.64
365.201	42.5
365.412	44.54
365.623	128.51
365.834	52.74
366.045	-29.18
366.256	73.21
366.467	36.35
366.678	38.4
366.889	-2.56
367.1	60.93
367.311	93.69
367.522	-2.56
367.733	58.88
367.944	67.07
368.155	11.78
368.366	46.59
368.577	69.12
368.788	71.17
368.999	44.54
369.209	40.45
369.42	65.02
369.631	15.87
369.842	75.26
370.053	65.02
370.264	3.58
370.474	77.31
370.685	87.55
370.896	71.17
371.107	22.02
371.317	148.99
371.528	-39.42
371.739	40.45
371.95	17.92
372.16	67.07
372.371	83.45
372.582	13.82
372.792	24.06
373.003	118.27
373.214	38.4
373.424	15.87
373.635	58.88
373.846	-4.61
374.056	44.54
374.267	22.02
374.477	7.68
374.688	50.69
374.898	71.17
375.109	32.26
375.319	46.59
375.53	79.36
375.74	15.87
375.951	-0.51
376.161	-16.9
376.372	9.73
376.582	11.78
376.793	75.26
377.003	22.02
377.214	50.69
377.424	26.11
377.635	108.03
377.845	32.26
378.055	48.64
378.266	-37.38
378.476	148.99
378.686	-8.7
378.897	42.5
379.107	15.87
379.317	95.74
379.528	11.78
379.738	83.45
379.948	50.69
380.158	40.45
380.369	95.74
380.579	58.88
380.789	-0.51
380.999	7.68
381.21	13.82
381.42	58.88
381.63	-29.18
381.84	75.26
382.05	71.17
382.261	36.35
382.471	77.31
382.681	77.31
382.891	28.16
383.101	60.93
383.311	56.83
383.521	65.02
383.731	40.45
383.941	89.6
384.151	42.5
384.361	42.5
384.571	110.08
384.781	28.16
384.991	95.74
385.201	136.7
385.411	13.82
385.621	11.78
385.831	-4.61
386.041	67.07
386.251	-39.42
386.461	50.69
386.671	40.45
386.881	58.88
387.091	110.08
387.301	42.5
387.511	50.69
387.72	124.41
387.93	83.45
388.14	83.45
388.35	42.5
388.56	58.88
388.769	-59.9
388.979	38.4
389.189	13.82
389.399	67.07
389.609	-4.61
389.818	9.73
390.028	19.97
390.238	34.3
390.447	24.06
390.657	75.26
390.867	36.35
391.076	28.16
391.286	24.06
391.496	58.88
391.705	1.54
391.915	65.02
392.125	54.78
392.334	40.45
392.544	40.45
392.753	50.69
392.963	30.21
393.172	85.5
393.382	60.93
393.591	69.12
393.801	42.5
394.01	71.17
394.22	52.74
394.429	46.59
394.639	110.08
394.848	56.83
395.058	91.65
395.267	93.69
395.477	75.26
395.686	97.79
395.895	105.98
396.105	38.4
396.314	24.06
396.524	38.4
396.733	50.69
396.942	108.03
397.152	50.69
397.361	-6.66
397.57	89.6
397.78	126.46
397.989	91.65
398.198	124.41
398.407	124.41
398.617	42.5
398.826	79.36
399.035	83.45
399.244	32.26
399.453	-2.56
399.663	87.55
399.872	124.41
400.081	165.37
400.29	91.65
400.499	26.11
400.708	93.69
400.917	-47.62
401.127	91.65
401.336	62.98
401.545	46.59
401.754	79.36
401.963	81.41
402.172	99.84
402.381	60.93
402.59	62.98
402.799	151.04
403.008	124.41
403.217	32.26
403.426	79.36
403.635	40.45
403.844	67.07
404.053	34.3
404.262	97.79
404.471	77.31
404.68	65.02
404.888	122.37
405.097	-2.56
405.306	118.27
405.515	69.12
405.724	200.19
405.933	105.98
406.142	165.37
406.35	56.83
406.559	75.26
406.768	101.89
406.977	71.17
407.185	112.13
407.394	50.69
407.603	204.28
407.812	95.74
408.02	134.65
408.229	159.23
408.438	148.99
408.646	167.42
408.855	116.22
409.064	183.81
409.272	173.57
409.481	122.37
409.69	179.71
409.898	120.32
410.107	112.13
410.315	210.43
410.524	128.51
410.733	167.42
410.941	189.95
411.15	185.85
411.358	153.09
411.567	271.87
411.775	245.24
411.984	196.09
412.192	198.14
412.401	173.57
412.609	245.24
412.818	253.44
413.026	208.38
413.234	302.59
413.443	290.3
413.651	345.59
413.86	292.35
414.068	271.87
414.276	294.4
414.485	331.26
414.693	364.03
414.901	314.88
415.11	275.96
415.318	355.83
415.526	333.31
415.734	429.56
415.943	400.89
416.151	415.23
416.359	404.99
416.567	445.95
416.776	437.75
416.984	462.33
417.192	456.19
417.4	505.34
417.608	384.51
417.817	488.95
418.025	523.77
418.233	587.26
418.441	497.14
418.649	542.2
418.857	595.45
419.065	642.55
419.273	538.1
419.481	755.19
419.689	660.98
419.897	783.86
420.105	701.94
420.313	687.61
420.521	792.05
420.729	736.76
420.937	853.49
421.145	820.72
421.353	890.35
421.561	962.03
421.769	980.47
421.977	935.41
422.185	949.75
422.393	1138.16
422.601	1177.07
422.809	1162.73
423.017	1103.34
423.224	1050.1
423.432	1220.08
423.64	1170.93
423.848	1324.52
424.056	1240.56
424.263	1435.11
424.471	1338.86
424.679	1383.91
424.887	1478.12
425.094	1517.03
425.302	1549.8
425.51	1637.86
425.718	1588.71
425.925	1598.95
426.133	1727.97
426.341	1830.37
426.548	1967.59
426.756	1897.96
426.964	1893.86
427.171	1986.02
427.379	2078.18
427.586	2098.66
427.794	2217.44
428.001	2379.23
428.209	2438.62
428.417	2266.59
428.624	2565.59
428.832	2506.2
429.039	2502.11
429.247	2440.67
429.454	2815.45
429.662	2917.84
429.869	2731.48
430.076	2950.61
430.284	2833.88
430.491	2835.92
430.699	3139.02
430.906	3032.53
431.114	3227.09
431.321	3214.8
431.528	3470.8
431.736	3579.34
431.943	3747.27
432.15	3622.34
432.358	3671.5
432.565	3919.3
432.772	3962.31
432.979	4015.55
433.187	4222.4
433.394	4210.11
433.601	4406.72
433.808	4586.94
434.016	4363.71
434.223	4736.44
434.43	4957.62
434.637	4742.58
434.844	5027.25
435.052	5088.69
435.259	5158.32
435.466	5275.06
435.673	5354.93
435.88	5488.04
436.087	5774.76
436.294	5895.59
436.501	5754.28
436.708	5776.81
436.915	5965.22
437.122	6268.32
437.329	6430.11
437.537	6436.25
437.743	6509.98
437.95	6442.4
438.157	6878.62
438.364	7112.08
438.571	6956.44
438.778	7198.1
438.985	7642.51
439.192	7544.2
439.399	7652.75
439.606	7593.36
439.813	7998.85
440.02	8396.16
440.227	8375.68
440.433	8289.67
440.64	8514.94
440.847	8441.22
441.054	8785.27
441.261	9131.38
441.467	9094.52
441.674	9287.03
441.881	9688.43
442.088	9583.98
442.294	9575.79
442.501	9856.36
442.708	9815.4
442.914	10710.36
443.121	10769.76
443.328	10632.54
443.534	11314.52
443.741	10802.52
443.948	11109.72
444.154	11627.85
444.361	11715.92
444.568	11634
444.774	11625.81
444.981	11998.54
445.187	12268.87
445.394	12662.08
445.6	12541.25
445.807	13714.73
446.013	13350.2
446.22	13368.63
446.426	14013.74
446.633	14071.08
446.839	14654.75
447.046	14021.93
447.252	14859.55
447.459	14974.24
447.665	14630.18
447.871	15455.51
448.078	16168.2
448.284	15273.24
448.491	15656.21
448.697	16391.43
448.903	16499.97
449.11	16655.62
449.316	16393.48
449.522	16766.21
449.728	17110.27
449.935	17655.03
450.141	17194.23
450.347	17925.36
450.553	17360.12
450.76	17358.07
450.966	17890.54
451.172	17892.59
451.378	18306.28
451.584	18124.01
451.791	18195.69
451.997	18398.44
452.203	18619.62
452.409	18648.29
452.615	18523.37
452.821	17951.98
453.027	17583.35
453.233	18285.8
453.44	17968.37
453.646	18013.42
453.852	18183.4
454.058	18463.97
454.264	17751.28
454.47	17994.99
454.676	17784.05
454.882	18408.68
455.088	16602.37
455.294	17173.75
455.5	17276.15
455.705	17589.49
455.911	16784.64
456.117	16282.89
456.323	16162.06
456.529	15402.26
456.735	16237.83
456.941	15824.14
457.147	15516.95
457.352	15029.53
457.558	15072.54
457.764	14951.71
457.97	14619.94
458.176	14587.17
458.381	14294.31
458.587	13686.06
458.793	13692.21
458.999	13026.62
459.204	13755.69
459.41	13559.09
459.616	12549.44
459.821	12715.33
460.027	12311.88
460.233	12313.92
460.438	11580.75
460.644	11881.8
460.85	11128.15
461.055	11003.22
461.261	11341.14
461.466	10222.95
461.672	9960.81
461.878	10841.43
462.083	10003.82
462.289	9782.63
462.494	9700.72
462.7	9307.51
462.905	9127.28
463.111	9254.26
463.316	9700.72
463.522	9256.31
463.727	9274.74
463.932	9188.72
464.138	8965.5
464.343	9115
464.549	8801.66
464.754	9311.6
464.959	9276.79
465.165	9235.83
465.37	8707.45
465.575	8506.75
465.781	8783.23
465.986	9082.23
466.191	8533.37
466.397	8361.34
466.602	8072.58
466.807	8324.48
467.012	8248.71
467.218	8226.18
467.423	8328.58
467.628	8471.93
467.833	8629.63
468.038	8361.34
468.244	8035.72
468.449	8263.04
468.654	8080.77
468.859	7951.75
469.064	8082.82
469.269	7701.9
