Data from USB4F104151__65__12-54-10-422.txt Node

Date: Fri Mar 14 12:54:10 EDT 2025
User: louis
Spectrometer: USB4F10415
Trigger mode: 4
Integration Time (sec): 1.000000E-2
Scans to average: 1
Electric dark correction enabled: true
Nonlinearity correction enabled: false
Boxcar width: 0
XAxis mode: Wavelengths
Number of Pixels in Spectrum: 3648
>>>>>Begin Spectral Data<<<<<
178.204	9.22
178.424	9.22
178.644	9.22
178.864	-56.32
179.084	1.02
179.304	-23.55
179.524	-17.41
179.744	-113.66
179.964	37.89
180.184	-5.12
180.404	19.46
180.624	3.07
180.844	3.07
181.064	-25.6
181.283	9.22
181.503	33.79
181.723	78.85
181.943	-23.55
182.163	64.51
182.383	-5.12
182.602	80.89
182.822	-5.12
183.042	76.8
183.262	-21.5
183.482	35.84
183.701	70.65
183.921	19.46
184.141	76.8
184.361	101.37
184.58	39.94
184.8	9.22
185.02	-17.41
185.239	-5.12
185.459	5.12
185.679	3.07
185.898	-21.5
186.118	125.95
186.338	70.65
186.557	17.41
186.777	21.5
186.997	19.46
187.216	-35.84
187.436	64.51
187.655	21.5
187.875	19.46
188.095	31.74
188.314	7.17
188.534	132.09
188.753	-58.37
188.973	48.13
189.192	-33.79
189.412	72.7
189.631	82.94
189.851	27.65
190.07	123.9
190.29	13.31
190.509	3.07
190.729	46.08
190.948	31.74
191.168	78.85
191.387	23.55
191.607	29.7
191.826	44.03
192.045	21.5
192.265	-33.79
192.484	3.07
192.704	11.26
192.923	-11.26
193.142	-23.55
193.362	29.7
193.581	76.8
193.8	74.75
194.02	41.98
194.239	46.08
194.458	-25.6
194.678	21.5
194.897	17.41
195.116	37.89
195.335	27.65
195.555	54.27
195.774	3.07
195.993	64.51
196.212	11.26
196.432	21.5
196.651	50.18
196.87	13.31
197.089	25.6
197.308	31.74
197.528	-76.8
197.747	62.46
197.966	-25.6
198.185	-27.65
198.404	-31.74
198.623	-21.5
198.842	76.8
199.062	-1.02
199.281	101.37
199.5	7.17
199.719	44.03
199.938	39.94
200.157	21.5
200.376	33.79
200.595	13.31
200.814	11.26
201.033	-21.5
201.252	-39.94
201.471	56.32
201.69	19.46
201.909	-35.84
202.128	41.98
202.347	37.89
202.566	-9.22
202.785	80.89
203.004	17.41
203.223	93.18
203.442	7.17
203.661	54.27
203.879	-13.31
204.098	64.51
204.317	-11.26
204.536	7.17
204.755	-27.65
204.974	7.17
205.193	23.55
205.411	54.27
205.63	37.89
205.849	68.61
206.068	11.26
206.287	-50.18
206.505	33.79
206.724	35.84
206.943	-11.26
207.162	15.36
207.381	84.99
207.599	33.79
207.818	-37.89
208.037	58.37
208.255	19.46
208.474	76.8
208.693	78.85
208.911	-68.61
209.13	-3.07
209.349	-23.55
209.567	50.18
209.786	103.42
210.005	29.7
210.223	19.46
210.442	25.6
210.661	9.22
210.879	27.65
211.098	-29.7
211.316	-44.03
211.535	13.31
211.753	48.13
211.972	27.65
212.191	1.02
212.409	-21.5
212.628	-11.26
212.846	27.65
213.065	5.12
213.283	52.22
213.502	-27.65
213.72	39.94
213.938	3.07
214.157	56.32
214.375	11.26
214.594	-3.07
214.812	39.94
215.031	31.74
215.249	35.84
215.467	-52.22
215.686	9.22
215.904	44.03
216.122	50.18
216.341	78.85
216.559	19.46
216.778	80.89
216.996	-19.46
217.214	17.41
217.432	60.42
217.651	52.22
217.869	37.89
218.087	27.65
218.306	37.89
218.524	27.65
218.742	-23.55
218.96	37.89
219.179	56.32
219.397	35.84
219.615	56.32
219.833	19.46
220.051	11.26
220.27	-5.12
220.488	1.02
220.706	-23.55
220.924	31.74
221.142	-17.41
221.36	50.18
221.578	101.37
221.796	41.98
222.015	11.26
222.233	84.99
222.451	76.8
222.669	89.09
222.887	23.55
223.105	1.02
223.323	54.27
223.541	-29.7
223.759	-41.98
223.977	11.26
224.195	87.04
224.413	66.56
224.631	3.07
224.849	-60.42
225.067	29.7
225.285	19.46
225.503	29.7
225.721	19.46
225.939	80.89
226.157	46.08
226.375	31.74
226.592	29.7
226.81	11.26
227.028	78.85
227.246	-13.31
227.464	-5.12
227.682	66.56
227.9	54.27
228.117	44.03
228.335	72.7
228.553	70.65
228.771	-1.02
228.989	44.03
229.206	-17.41
229.424	56.32
229.642	52.22
229.86	-29.7
230.077	-9.22
230.295	50.18
230.513	9.22
230.731	-31.74
230.948	-3.07
231.166	-21.5
231.384	-11.26
231.601	50.18
231.819	48.13
232.037	1.02
232.254	44.03
232.472	-33.79
232.689	25.6
232.907	41.98
233.125	54.27
233.342	15.36
233.56	21.5
233.777	5.12
233.995	46.08
234.213	25.6
234.43	101.37
234.648	54.27
234.865	19.46
235.083	144.38
235.3	-7.17
235.518	54.27
235.735	64.51
235.953	109.57
236.17	23.55
236.388	68.61
236.605	11.26
236.822	125.95
237.04	25.6
237.257	9.22
237.475	-17.41
237.692	44.03
237.909	56.32
238.127	9.22
238.344	89.09
238.562	109.57
238.779	13.31
238.996	3.07
239.214	-7.17
239.431	37.89
239.648	50.18
239.865	17.41
240.083	60.42
240.3	33.79
240.517	87.04
240.735	-1.02
240.952	35.84
241.169	29.7
241.386	52.22
241.603	35.84
241.821	-64.51
242.038	25.6
242.255	27.65
242.472	-9.22
242.689	97.28
242.907	1.02
243.124	-7.17
243.341	17.41
243.558	-7.17
243.775	15.36
243.992	54.27
244.209	41.98
244.426	48.13
244.643	19.46
244.86	37.89
245.078	91.13
245.295	80.89
245.512	29.7
245.729	3.07
245.946	64.51
246.163	56.32
246.38	-23.55
246.597	-11.26
246.814	13.31
247.031	15.36
247.248	21.5
247.464	44.03
247.681	19.46
247.898	37.89
248.115	25.6
248.332	37.89
248.549	-25.6
248.766	35.84
248.983	27.65
249.2	46.08
249.417	60.42
249.633	29.7
249.85	46.08
250.067	84.99
250.284	41.98
250.501	1.02
250.717	97.28
250.934	-48.13
251.151	52.22
251.368	-3.07
251.585	19.46
251.801	50.18
252.018	44.03
252.235	39.94
252.451	44.03
252.668	-15.36
252.885	-48.13
253.102	-5.12
253.318	19.46
253.535	68.61
253.752	-27.65
253.968	21.5
254.185	46.08
254.401	95.23
254.618	70.65
254.835	9.22
255.051	70.65
255.268	23.55
255.484	19.46
255.701	29.7
255.917	82.94
256.134	-5.12
256.351	93.18
256.567	3.07
256.784	31.74
257	39.94
257.217	31.74
257.433	62.46
257.65	84.99
257.866	13.31
258.082	1.02
258.299	-25.6
258.515	39.94
258.732	-3.07
258.948	-58.37
259.165	-13.31
259.381	31.74
259.597	164.86
259.814	60.42
260.03	76.8
260.246	-44.03
260.463	72.7
260.679	64.51
260.895	-1.02
261.112	19.46
261.328	31.74
261.544	37.89
261.761	-37.89
261.977	-11.26
262.193	48.13
262.409	76.8
262.626	29.7
262.842	78.85
263.058	-21.5
263.274	25.6
263.49	84.99
263.707	-13.31
263.923	56.32
264.139	46.08
264.355	64.51
264.571	5.12
264.787	3.07
265.004	19.46
265.22	13.31
265.436	89.09
265.652	82.94
265.868	115.71
266.084	-7.17
266.3	19.46
266.516	39.94
266.732	44.03
266.948	99.33
267.164	70.65
267.38	31.74
267.596	-7.17
267.812	48.13
268.028	50.18
268.244	37.89
268.46	39.94
268.676	33.79
268.892	33.79
269.108	-9.22
269.324	39.94
269.54	-46.08
269.756	9.22
269.972	33.79
270.188	-27.65
270.403	48.13
270.619	68.61
270.835	25.6
271.051	17.41
271.267	56.32
271.483	109.57
271.698	29.7
271.914	46.08
272.13	39.94
272.346	46.08
272.562	33.79
272.777	68.61
272.993	23.55
273.209	25.6
273.425	23.55
273.64	-5.12
273.856	-17.41
274.072	-9.22
274.287	27.65
274.503	-52.22
274.719	50.18
274.934	41.98
275.15	-39.94
275.366	123.9
275.581	62.46
275.797	-1.02
276.012	15.36
276.228	46.08
276.444	23.55
276.659	5.12
276.875	9.22
277.09	70.65
277.306	-35.84
277.521	-35.84
277.737	-17.41
277.952	97.28
278.168	54.27
278.383	68.61
278.599	35.84
278.814	21.5
279.03	91.13
279.245	1.02
279.461	19.46
279.676	19.46
279.892	11.26
280.107	68.61
280.322	23.55
280.538	41.98
280.753	11.26
280.969	41.98
281.184	1.02
281.399	97.28
281.615	46.08
281.83	44.03
282.045	7.17
282.26	13.31
282.476	-27.65
282.691	44.03
282.906	-44.03
283.122	19.46
283.337	54.27
283.552	82.94
283.767	19.46
283.983	29.7
284.198	7.17
284.413	41.98
284.628	50.18
284.843	89.09
285.058	-3.07
285.274	31.74
285.489	-3.07
285.704	87.04
285.919	23.55
286.134	95.23
286.349	33.79
286.564	41.98
286.779	-5.12
286.995	62.46
287.21	1.02
287.425	9.22
287.64	-7.17
287.855	23.55
288.07	27.65
288.285	48.13
288.5	56.32
288.715	44.03
288.93	119.81
289.145	-35.84
289.36	13.31
289.575	15.36
289.79	7.17
290.004	25.6
290.219	-54.27
290.434	23.55
290.649	-5.12
290.864	-9.22
291.079	29.7
291.294	70.65
291.509	78.85
291.724	46.08
291.938	27.65
292.153	58.37
292.368	-3.07
292.583	80.89
292.798	-11.26
293.012	84.99
293.227	-23.55
293.442	-56.32
293.657	-44.03
293.871	39.94
294.086	41.98
294.301	41.98
294.516	15.36
294.73	31.74
294.945	-44.03
295.16	23.55
295.374	74.75
295.589	21.5
295.804	9.22
296.018	33.79
296.233	-21.5
296.447	27.65
296.662	21.5
296.877	-25.6
297.091	21.5
297.306	19.46
297.52	19.46
297.735	29.7
297.949	37.89
298.164	-11.26
298.378	35.84
298.593	48.13
298.807	-5.12
299.022	48.13
299.236	23.55
299.451	19.46
299.665	70.65
299.88	66.56
300.094	35.84
300.309	29.7
300.523	-5.12
300.737	66.56
300.952	48.13
301.166	58.37
301.381	48.13
301.595	31.74
301.809	7.17
302.024	-9.22
302.238	72.7
302.452	44.03
302.667	41.98
302.881	-7.17
303.095	19.46
303.309	76.8
303.524	27.65
303.738	33.79
303.952	31.74
304.166	19.46
304.381	-99.33
304.595	9.22
304.809	29.7
305.023	29.7
305.237	17.41
305.452	-1.02
305.666	23.55
305.88	46.08
306.094	21.5
306.308	52.22
306.522	11.26
306.736	29.7
306.95	-15.36
307.164	7.17
307.379	25.6
307.593	54.27
307.807	11.26
308.021	35.84
308.235	27.65
308.449	-5.12
308.663	-21.5
308.877	17.41
309.091	44.03
309.305	39.94
309.519	-1.02
309.733	66.56
309.947	-31.74
310.161	119.81
310.374	62.46
310.588	84.99
310.802	11.26
311.016	70.65
311.23	21.5
311.444	56.32
311.658	70.65
311.872	17.41
312.085	-46.08
312.299	5.12
312.513	11.26
312.727	95.23
312.941	27.65
313.154	35.84
313.368	11.26
313.582	15.36
313.796	52.22
314.009	74.75
314.223	31.74
314.437	93.18
314.651	130.05
314.864	105.47
315.078	3.07
315.292	21.5
315.505	54.27
315.719	37.89
315.933	23.55
316.146	27.65
316.36	37.89
316.573	54.27
316.787	9.22
317.001	78.85
317.214	64.51
317.428	31.74
317.641	-33.79
317.855	25.6
318.068	29.7
318.282	37.89
318.495	87.04
318.709	9.22
318.922	37.89
319.136	27.65
319.349	-13.31
319.563	84.99
319.776	48.13
319.99	68.61
320.203	41.98
320.417	-25.6
320.63	7.17
320.843	62.46
321.057	-25.6
321.27	66.56
321.483	62.46
321.697	93.18
321.91	44.03
322.124	29.7
322.337	-3.07
322.55	66.56
322.763	146.43
322.977	23.55
323.19	80.89
323.403	41.98
323.617	13.31
323.83	-15.36
324.043	19.46
324.256	39.94
324.469	64.51
324.683	-5.12
324.896	11.26
325.109	5.12
325.322	-54.27
325.535	33.79
325.748	29.7
325.962	128
326.175	62.46
326.388	93.18
326.601	62.46
326.814	21.5
327.027	13.31
327.24	111.61
327.453	-21.5
327.666	70.65
327.879	13.31
328.092	84.99
328.305	52.22
328.518	52.22
328.731	58.37
328.944	23.55
329.157	-9.22
329.37	52.22
329.583	-3.07
329.796	66.56
330.009	-50.18
330.222	76.8
330.435	76.8
330.648	37.89
330.861	-13.31
331.073	37.89
331.286	70.65
331.499	-7.17
331.712	-15.36
331.925	91.13
332.138	27.65
332.35	41.98
332.563	3.07
332.776	103.42
332.989	5.12
333.202	62.46
333.414	-13.31
333.627	19.46
333.84	35.84
334.053	87.04
334.265	-1.02
334.478	-9.22
334.691	1.02
334.903	39.94
335.116	9.22
335.329	52.22
335.541	-84.99
335.754	58.37
335.966	60.42
336.179	-44.03
336.392	58.37
336.604	54.27
336.817	50.18
337.029	46.08
337.242	-13.31
337.454	62.46
337.667	68.61
337.88	70.65
338.092	74.75
338.305	13.31
338.517	-60.42
338.729	84.99
338.942	125.95
339.154	11.26
339.367	27.65
339.579	74.75
339.792	33.79
340.004	-29.7
340.217	70.65
340.429	64.51
340.641	44.03
340.854	60.42
341.066	-1.02
341.278	68.61
341.491	105.47
341.703	31.74
341.915	13.31
342.128	60.42
342.34	33.79
342.552	54.27
342.764	11.26
342.977	48.13
343.189	93.18
343.401	31.74
343.613	-1.02
343.826	21.5
344.038	48.13
344.25	15.36
344.462	76.8
344.674	54.27
344.886	35.84
345.099	44.03
345.311	19.46
345.523	50.18
345.735	50.18
345.947	46.08
346.159	-7.17
346.371	29.7
346.583	13.31
346.795	134.14
347.007	-35.84
347.219	84.99
347.431	21.5
347.643	80.89
347.855	9.22
348.067	37.89
348.279	56.32
348.491	31.74
348.703	80.89
348.915	3.07
349.127	15.36
349.339	74.75
349.551	35.84
349.763	84.99
349.975	54.27
350.187	66.56
350.399	17.41
350.61	87.04
350.822	64.51
351.034	119.81
351.246	54.27
351.458	41.98
351.669	17.41
351.881	9.22
352.093	-11.26
352.305	123.9
352.517	52.22
352.728	66.56
352.94	-3.07
353.152	50.18
353.363	33.79
353.575	-27.65
353.787	31.74
353.999	76.8
354.21	5.12
354.422	11.26
354.633	78.85
354.845	48.13
355.057	7.17
355.268	21.5
355.48	11.26
355.692	60.42
355.903	-23.55
356.115	70.65
356.326	25.6
356.538	87.04
356.749	50.18
356.961	82.94
357.172	-7.17
357.384	29.7
357.595	48.13
357.807	46.08
358.018	-3.07
358.23	80.89
358.441	58.37
358.653	31.74
358.864	46.08
359.075	19.46
359.287	5.12
359.498	64.51
359.709	23.55
359.921	-7.17
360.132	3.07
360.344	54.27
360.555	21.5
360.766	-33.79
360.977	64.51
361.189	41.98
361.4	41.98
361.611	41.98
361.823	68.61
362.034	84.99
362.245	25.6
362.456	46.08
362.667	3.07
362.879	-15.36
363.09	74.75
363.301	13.31
363.512	93.18
363.723	-11.26
363.935	25.6
364.146	58.37
364.357	3.07
364.568	95.23
364.779	-39.94
364.99	87.04
365.201	41.98
365.412	13.31
365.623	-5.12
365.834	13.31
366.045	1.02
366.256	52.22
366.467	62.46
366.678	21.5
366.889	-21.5
367.1	48.13
367.311	27.65
367.522	66.56
367.733	52.22
367.944	56.32
368.155	5.12
368.366	70.65
368.577	60.42
368.788	64.51
368.999	33.79
369.209	70.65
369.42	50.18
369.631	-11.26
369.842	29.7
370.053	56.32
370.264	41.98
370.474	44.03
370.685	70.65
370.896	-15.36
371.107	46.08
371.317	39.94
371.528	37.89
371.739	97.28
371.95	37.89
372.16	103.42
372.371	11.26
372.582	115.71
372.792	132.09
373.003	21.5
373.214	76.8
373.424	113.66
373.635	-9.22
373.846	74.75
374.056	97.28
374.267	87.04
374.477	48.13
374.688	89.09
374.898	39.94
375.109	48.13
375.319	35.84
375.53	13.31
375.74	101.37
375.951	23.55
376.161	72.7
376.372	97.28
376.582	-39.94
376.793	87.04
377.003	46.08
377.214	33.79
377.424	103.42
377.635	60.42
377.845	80.89
378.055	7.17
378.266	15.36
378.476	5.12
378.686	29.7
378.897	3.07
379.107	19.46
379.317	62.46
379.528	27.65
379.738	87.04
379.948	84.99
380.158	46.08
380.369	74.75
380.579	56.32
380.789	-1.02
380.999	111.61
381.21	68.61
381.42	125.95
381.63	70.65
381.84	62.46
382.05	74.75
382.261	60.42
382.471	89.09
382.681	39.94
382.891	-17.41
383.101	66.56
383.311	-33.79
383.521	37.89
383.731	46.08
383.941	31.74
384.151	50.18
384.361	125.95
384.571	70.65
384.781	9.22
384.991	60.42
385.201	44.03
385.411	9.22
385.621	48.13
385.831	-1.02
386.041	37.89
386.251	9.22
386.461	72.7
386.671	21.5
386.881	5.12
387.091	50.18
387.301	113.66
387.511	29.7
387.72	111.61
387.93	52.22
388.14	1.02
388.35	25.6
388.56	58.37
388.769	74.75
388.979	52.22
389.189	15.36
389.399	91.13
389.609	48.13
389.818	19.46
390.028	93.18
390.238	13.31
390.447	33.79
390.657	80.89
390.867	31.74
391.076	11.26
391.286	70.65
391.496	52.22
391.705	-11.26
391.915	156.67
392.125	84.99
392.334	80.89
392.544	37.89
392.753	37.89
392.963	103.42
393.172	35.84
393.382	-7.17
393.591	5.12
393.801	82.94
394.01	41.98
394.22	97.28
394.429	21.5
394.639	25.6
394.848	58.37
395.058	105.47
395.267	82.94
395.477	54.27
395.686	62.46
395.895	25.6
396.105	54.27
396.314	115.71
396.524	121.85
396.733	101.37
396.942	91.13
397.152	52.22
397.361	46.08
397.57	58.37
397.78	7.17
397.989	60.42
398.198	138.24
398.407	-1.02
398.617	72.7
398.826	82.94
399.035	84.99
399.244	89.09
399.453	37.89
399.663	101.37
399.872	48.13
400.081	132.09
400.29	46.08
400.499	87.04
400.708	101.37
400.917	5.12
401.127	25.6
401.336	82.94
401.545	52.22
401.754	113.66
401.963	103.42
402.172	37.89
402.381	107.52
402.59	84.99
402.799	95.23
403.008	91.13
403.217	27.65
403.426	105.47
403.635	68.61
403.844	-21.5
404.053	84.99
404.262	29.7
404.471	103.42
404.68	111.61
404.888	162.81
405.097	101.37
405.306	111.61
405.515	111.61
405.724	103.42
405.933	156.67
406.142	50.18
406.35	72.7
406.559	150.53
406.768	130.05
406.977	125.95
407.185	89.09
407.394	211.96
407.603	93.18
407.812	111.61
408.02	173.05
408.229	173.05
408.438	113.66
408.646	121.85
408.855	181.25
409.064	154.62
409.272	156.67
409.481	142.33
409.69	138.24
409.898	171.01
410.107	222.2
410.315	277.5
410.524	195.58
410.733	191.49
410.941	154.62
411.15	250.88
411.358	220.16
411.567	240.64
411.775	222.2
411.984	324.6
412.192	238.59
412.401	291.84
412.609	386.04
412.818	297.98
413.026	330.75
413.234	308.22
413.443	263.16
413.651	375.8
413.86	343.03
414.068	365.56
414.276	431.1
414.485	451.58
414.693	414.71
414.901	449.53
415.11	383.99
415.318	500.73
415.526	416.76
415.734	478.2
415.943	521.21
416.151	441.34
416.359	453.63
416.567	537.59
416.776	603.13
416.984	650.23
417.192	580.6
417.4	642.04
417.608	605.17
417.817	611.32
418.025	650.23
418.233	764.92
418.441	764.92
418.649	740.34
418.857	809.97
419.065	814.07
419.273	816.12
419.481	855.03
419.689	871.41
419.897	893.94
420.105	1006.58
420.313	922.61
420.521	1029.1
420.729	992.24
420.937	1041.39
421.145	1039.34
421.353	1145.84
421.561	1252.33
421.769	1217.52
421.977	1289.2
422.185	1262.57
422.393	1430.51
422.601	1420.27
422.809	1500.14
423.017	1321.96
423.224	1483.75
423.432	1567.72
423.64	1549.29
423.848	1692.65
424.056	1567.72
424.263	1850.34
424.471	1706.98
424.679	1825.76
424.887	1780.71
425.094	1897.44
425.302	1899.49
425.51	1962.98
425.718	2042.85
425.925	2087.9
426.133	2194.4
426.341	2319.32
426.548	2370.52
426.756	2276.32
426.964	2348
427.171	2585.56
427.379	2700.25
427.586	2690.01
427.794	2825.17
428.001	2872.28
428.209	2894.8
428.417	2956.24
428.624	3126.22
428.832	3169.23
429.039	3097.55
429.247	3142.61
429.454	3369.93
429.662	3744.71
429.869	3486.67
430.076	3675.08
430.284	3578.83
430.491	3767.24
430.699	3969.99
430.906	3924.93
431.114	4117.44
431.321	4289.47
431.528	4236.22
431.736	4682.68
431.943	4674.49
432.15	4725.69
432.358	4778.94
432.565	5073.84
432.772	4867
432.979	5204.91
433.187	5256.11
433.394	5204.91
433.601	5655.47
433.808	5647.27
434.016	5659.56
434.223	5878.69
434.43	6286.24
434.637	6063.01
434.844	6462.37
435.052	6527.9
435.259	6599.58
435.466	6693.79
435.673	6591.39
435.88	7132.05
436.087	7312.27
436.294	7367.57
436.501	7379.86
436.708	7451.53
436.915	7621.52
437.122	8082.31
437.329	7904.14
437.537	8164.23
437.743	8438.66
437.95	8264.58
438.157	8803.19
438.364	9012.09
438.571	9032.57
438.778	9114.48
438.985	10003.3
439.192	9282.42
439.399	9866.09
439.606	9517.93
439.813	10255.2
440.02	10654.56
440.227	10554.21
440.433	10546.02
440.64	10955.61
440.847	10804.06
441.054	11019.1
441.261	11840.33
441.467	11533.14
441.674	12180.29
441.881	12194.63
442.088	12278.6
442.294	11879.24
442.501	12450.63
442.708	12782.4
442.914	13411.12
443.121	13818.67
443.328	13054.78
443.534	14093.1
443.741	14080.81
443.948	13738.8
444.154	14678.82
444.361	14633.76
444.568	14764.83
444.774	14656.29
444.981	14760.73
445.187	15403.8
445.394	16036.62
445.6	15702.8
445.807	17562.36
446.013	16657.15
446.22	16847.61
446.426	17771.25
446.633	17668.85
446.839	18397.93
447.046	17414.9
447.252	18479.85
447.459	18619.11
447.665	18465.51
447.871	19266.27
448.078	20110.03
448.284	18944.73
448.491	19727.06
448.697	20488.9
448.903	20935.36
449.11	20705.99
449.316	20400.84
449.522	20914.88
449.728	21566.13
449.935	21596.85
450.141	21752.5
450.347	22158
450.553	21371.58
450.76	21934.77
450.966	22287.02
451.172	22409.9
451.378	23212.7
451.584	22610.6
451.791	22987.43
451.997	22708.9
452.203	22823.59
452.409	23231.13
452.615	23153.31
452.821	22301.36
453.027	21963.44
453.233	23259.81
453.44	22528.68
453.646	22545.06
453.852	22626.98
454.058	23192.22
454.264	22577.83
454.47	22880.93
454.676	22416.04
454.882	23351.96
455.088	21314.23
455.294	21424.83
455.5	21848.75
455.705	22268.59
455.911	21162.69
456.117	21091.01
456.323	20736.71
456.529	19434.2
456.735	20343.5
456.941	19751.63
457.147	19405.53
457.352	18885.34
457.558	18701.03
457.764	18932.45
457.97	18391.78
458.176	18064.11
458.381	18090.73
458.587	17332.98
458.793	17347.32
458.999	16397.06
459.204	17332.98
459.41	16966.4
459.616	15835.92
459.821	15887.12
460.027	16005.9
460.233	15368.98
460.438	14682.91
460.644	15018.78
460.85	14197.54
461.055	14265.13
461.261	13833
461.466	13093.69
461.672	12671.81
461.878	13658.93
462.083	12593.98
462.289	12600.13
462.494	12180.29
462.7	11690.83
462.905	11557.71
463.111	11889.48
463.316	11844.43
463.522	11580.24
463.727	11670.35
463.932	11576.14
464.138	11641.68
464.343	11428.69
464.549	11256.66
464.754	11754.32
464.959	11686.73
465.165	11600.72
465.37	11119.45
465.575	10810.2
465.781	11373.39
465.986	11354.96
466.191	10898.27
466.397	10652.51
466.602	10238.82
466.807	10693.47
467.012	10644.32
467.218	10613.6
467.423	10523.49
467.628	10754.91
467.833	11082.58
468.038	10451.81
468.244	10216.29
468.449	10601.31
468.654	10310.5
468.859	10097.51
469.064	10144.61
469.269	9620.33
