Data from USB4F104151__21__12-53-27-767.txt Node

Date: Fri Mar 14 12:53:27 EDT 2025
User: louis
Spectrometer: USB4F10415
Trigger mode: 4
Integration Time (sec): 1.000000E-2
Scans to average: 1
Electric dark correction enabled: true
Nonlinearity correction enabled: false
Boxcar width: 0
XAxis mode: Wavelengths
Number of Pixels in Spectrum: 3648
>>>>>Begin Spectral Data<<<<<
178.204	-40.62
178.424	-40.62
178.644	-40.62
178.864	-36.52
179.084	-63.15
179.304	-9.9
179.524	22.87
179.744	-20.14
179.964	-13.99
180.184	4.44
180.404	45.4
180.624	-20.14
180.844	24.92
181.064	-75.43
181.283	0.34
181.503	45.4
181.723	-3.75
181.943	-48.81
182.163	-40.62
182.383	22.87
182.602	33.11
182.822	-34.47
183.042	47.44
183.262	-26.28
183.482	2.39
183.701	-26.28
183.921	-11.95
184.141	-38.57
184.361	-24.23
184.58	-44.71
184.8	-52.91
185.02	31.06
185.239	16.73
185.459	29.01
185.679	-9.9
185.898	10.58
186.118	-24.23
186.338	-38.57
186.557	59.73
186.777	-1.71
186.997	-65.19
187.216	86.36
187.436	29.01
187.655	-13.99
187.875	31.06
188.095	-73.39
188.314	-52.91
188.534	-36.52
188.753	43.35
188.973	-13.99
189.192	8.53
189.412	33.11
189.631	-13.99
189.851	-20.14
190.07	10.58
190.29	-67.24
190.509	33.11
190.729	51.54
190.948	20.82
191.168	-38.57
191.387	-7.85
191.607	49.49
191.826	43.35
192.045	-13.99
192.265	37.2
192.484	-9.9
192.704	14.68
192.923	-24.23
193.142	57.68
193.362	-11.95
193.581	-16.04
193.8	-34.47
194.02	61.78
194.239	-30.38
194.458	6.49
194.678	59.73
194.897	-48.81
195.116	29.01
195.335	6.49
195.555	20.82
195.774	2.39
195.993	115.03
196.212	-93.87
196.432	-44.71
196.651	-73.39
196.87	6.49
197.089	57.68
197.308	29.01
197.528	-13.99
197.747	41.3
197.966	-22.19
198.185	20.82
198.404	47.44
198.623	-30.38
198.842	24.92
199.062	-7.85
199.281	39.25
199.5	-20.14
199.719	53.59
199.938	14.68
200.157	41.3
200.376	37.2
200.595	-5.8
200.814	-13.99
201.033	-24.23
201.252	-9.9
201.471	20.82
201.69	37.2
201.909	8.53
202.128	-11.95
202.347	-24.23
202.566	2.39
202.785	26.96
203.004	-32.43
203.223	29.01
203.442	14.68
203.661	-24.23
203.879	14.68
204.098	22.87
204.317	-24.23
204.536	-26.28
204.755	2.39
204.974	-57
205.193	65.88
205.411	12.63
205.63	-22.19
205.849	6.49
206.068	-16.04
206.287	-48.81
206.505	26.96
206.724	41.3
206.943	-32.43
207.162	-20.14
207.381	-52.91
207.599	-22.19
207.818	-40.62
208.037	14.68
208.255	-36.52
208.474	-16.04
208.693	-24.23
208.911	12.63
209.13	-7.85
209.349	2.39
209.567	-3.75
209.786	18.77
210.005	37.2
210.223	16.73
210.442	-26.28
210.661	63.83
210.879	-40.62
211.098	-3.75
211.316	-34.47
211.535	22.87
211.753	0.34
211.972	-16.04
212.191	-20.14
212.409	26.96
212.628	26.96
212.846	-16.04
213.065	53.59
213.283	26.96
213.502	-48.81
213.72	-5.8
213.938	-54.95
214.157	16.73
214.375	35.16
214.594	-65.19
214.812	43.35
215.031	-54.95
215.249	8.53
215.467	-16.04
215.686	-11.95
215.904	-16.04
216.122	-18.09
216.341	49.49
216.559	-36.52
216.778	-9.9
216.996	12.63
217.214	-22.19
217.432	-36.52
217.651	-85.67
217.869	-9.9
218.087	-52.91
218.306	63.83
218.524	-3.75
218.742	14.68
218.96	96.6
219.179	33.11
219.397	41.3
219.615	-3.75
219.833	31.06
220.051	-7.85
220.27	16.73
220.488	-7.85
220.706	0.34
220.924	24.92
221.142	2.39
221.36	72.02
221.578	-22.19
221.796	-7.85
222.015	29.01
222.233	26.96
222.451	-26.28
222.669	24.92
222.887	82.26
223.105	33.11
223.323	86.36
223.541	57.68
223.759	-32.43
223.977	0.34
224.195	43.35
224.413	59.73
224.631	115.03
224.849	-44.71
225.067	12.63
225.285	12.63
225.503	31.06
225.721	-52.91
225.939	8.53
226.157	43.35
226.375	88.4
226.592	16.73
226.81	8.53
227.028	-11.95
227.246	-7.85
227.464	-40.62
227.682	35.16
227.9	39.25
228.117	24.92
228.335	8.53
228.553	12.63
228.771	14.68
228.989	20.82
229.206	51.54
229.424	-3.75
229.642	-61.1
229.86	0.34
230.077	-57
230.295	16.73
230.513	43.35
230.731	8.53
230.948	-9.9
231.166	39.25
231.384	-11.95
231.601	26.96
231.819	55.64
232.037	-30.38
232.254	-9.9
232.472	-32.43
232.689	-16.04
232.907	29.01
233.125	-13.99
233.342	-40.62
233.56	33.11
233.777	-22.19
233.995	2.39
234.213	8.53
234.43	-28.33
234.648	0.34
234.865	14.68
235.083	-3.75
235.3	-69.29
235.518	14.68
235.735	-24.23
235.953	-7.85
236.17	24.92
236.388	-9.9
236.605	80.21
236.822	-40.62
237.04	74.07
237.257	0.34
237.475	29.01
237.692	-13.99
237.909	8.53
238.127	43.35
238.344	-1.71
238.562	33.11
238.779	-3.75
238.996	-24.23
239.214	-38.57
239.431	2.39
239.648	41.3
239.865	-7.85
240.083	63.83
240.3	55.64
240.517	-100.01
240.735	-46.76
240.952	41.3
241.169	43.35
241.386	14.68
241.603	96.6
241.821	-46.76
242.038	55.64
242.255	43.35
242.472	88.4
242.689	8.53
242.907	-30.38
243.124	63.83
243.341	16.73
243.558	2.39
243.775	16.73
243.992	24.92
244.209	20.82
244.426	18.77
244.643	49.49
244.86	-108.2
245.078	-3.75
245.295	39.25
245.512	29.01
245.729	-30.38
245.946	-36.52
246.163	-13.99
246.38	-22.19
246.597	-30.38
246.814	-7.85
247.031	14.68
247.248	-3.75
247.464	33.11
247.681	-38.57
247.898	18.77
248.115	49.49
248.332	26.96
248.549	41.3
248.766	24.92
248.983	-22.19
249.2	4.44
249.417	12.63
249.633	-7.85
249.85	-65.19
250.067	-34.47
250.284	6.49
250.501	-30.38
250.717	0.34
250.934	20.82
251.151	18.77
251.368	35.16
251.585	-46.76
251.801	-7.85
252.018	-42.67
252.235	0.34
252.451	-1.71
252.668	-26.28
252.885	-5.8
253.102	-16.04
253.318	37.2
253.535	29.01
253.752	18.77
253.968	-34.47
254.185	45.4
254.401	-3.75
254.618	-48.81
254.835	12.63
255.051	115.03
255.268	-61.1
255.484	-24.23
255.701	24.92
255.917	-5.8
256.134	-7.85
256.351	16.73
256.567	18.77
256.784	-5.8
257	24.92
257.217	49.49
257.433	4.44
257.65	41.3
257.866	-38.57
258.082	-13.99
258.299	43.35
258.515	18.77
258.732	4.44
258.948	-26.28
259.165	-18.09
259.381	18.77
259.597	-26.28
259.814	74.07
260.03	-13.99
260.246	51.54
260.463	-16.04
260.679	35.16
260.895	22.87
261.112	16.73
261.328	-44.71
261.544	74.07
261.761	33.11
261.977	-7.85
262.193	4.44
262.409	37.2
262.626	4.44
262.842	90.45
263.058	33.11
263.274	69.97
263.49	-1.71
263.707	-13.99
263.923	41.3
264.139	100.69
264.355	-16.04
264.571	-16.04
264.787	29.01
265.004	33.11
265.22	45.4
265.436	-9.9
265.652	0.34
265.868	0.34
266.084	18.77
266.3	-3.75
266.516	55.64
266.732	-3.75
266.948	18.77
267.164	-30.38
267.38	-5.8
267.596	-5.8
267.812	-40.62
268.028	51.54
268.244	22.87
268.46	20.82
268.676	78.16
268.892	-46.76
269.108	2.39
269.324	-7.85
269.54	-46.76
269.756	6.49
269.972	18.77
270.188	-52.91
270.403	-73.39
270.619	2.39
270.835	0.34
271.051	8.53
271.267	41.3
271.483	-20.14
271.698	45.4
271.914	18.77
272.13	-24.23
272.346	6.49
272.562	6.49
272.777	65.88
272.993	16.73
273.209	0.34
273.425	2.39
273.64	49.49
273.856	8.53
274.072	45.4
274.287	-1.71
274.503	-18.09
274.719	8.53
274.934	-22.19
275.15	-59.05
275.366	-26.28
275.581	-9.9
275.797	35.16
276.012	4.44
276.228	-65.19
276.444	24.92
276.659	49.49
276.875	-57
277.09	0.34
277.306	35.16
277.521	-9.9
277.737	-5.8
277.952	43.35
278.168	-67.24
278.383	8.53
278.599	63.83
278.814	26.96
279.03	-26.28
279.245	-36.52
279.461	53.59
279.676	20.82
279.892	-3.75
280.107	-7.85
280.322	-3.75
280.538	51.54
280.753	-11.95
280.969	24.92
281.184	29.01
281.399	69.97
281.615	-44.71
281.83	26.96
282.045	-124.58
282.26	112.98
282.476	0.34
282.691	14.68
282.906	29.01
283.122	14.68
283.337	2.39
283.552	2.39
283.767	90.45
283.983	24.92
284.198	-42.67
284.413	65.88
284.628	12.63
284.843	24.92
285.058	20.82
285.274	-48.81
285.489	6.49
285.704	74.07
285.919	-7.85
286.134	45.4
286.349	-20.14
286.564	-42.67
286.779	12.63
286.995	65.88
287.21	-18.09
287.425	45.4
287.64	37.2
287.855	-38.57
288.07	31.06
288.285	-32.43
288.5	61.78
288.715	88.4
288.93	-30.38
289.145	57.68
289.36	-40.62
289.575	33.11
289.79	10.58
290.004	-3.75
290.219	-13.99
290.434	29.01
290.649	82.26
290.864	-30.38
291.079	82.26
291.294	6.49
291.509	0.34
291.724	55.64
291.938	-61.1
292.153	51.54
292.368	-42.67
292.583	-38.57
292.798	-11.95
293.012	-13.99
293.227	51.54
293.442	-40.62
293.657	-30.38
293.871	45.4
294.086	-11.95
294.301	-18.09
294.516	-63.15
294.73	22.87
294.945	2.39
295.16	41.3
295.374	72.02
295.589	-1.71
295.804	22.87
296.018	20.82
296.233	-3.75
296.447	29.01
296.662	65.88
296.877	55.64
297.091	-40.62
297.306	0.34
297.52	31.06
297.735	12.63
297.949	-36.52
298.164	43.35
298.378	-18.09
298.593	65.88
298.807	-46.76
299.022	65.88
299.236	-7.85
299.451	-40.62
299.665	-34.47
299.88	2.39
300.094	-16.04
300.309	18.77
300.523	35.16
300.737	-32.43
300.952	-83.63
301.166	4.44
301.381	-7.85
301.595	22.87
301.809	72.02
302.024	43.35
302.238	-22.19
302.452	55.64
302.667	10.58
302.881	-13.99
303.095	57.68
303.309	-24.23
303.524	4.44
303.738	22.87
303.952	-16.04
304.166	10.58
304.381	-9.9
304.595	-28.33
304.809	-50.86
305.023	-11.95
305.237	2.39
305.452	-7.85
305.666	-32.43
305.88	61.78
306.094	-38.57
306.308	-36.52
306.522	-48.81
306.736	72.02
306.95	49.49
307.164	24.92
307.379	-11.95
307.593	35.16
307.807	-18.09
308.021	100.69
308.235	-5.8
308.449	22.87
308.663	-38.57
308.877	55.64
309.091	16.73
309.305	59.73
309.519	-13.99
309.733	49.49
309.947	-48.81
310.161	98.64
310.374	43.35
310.588	123.22
310.802	53.59
311.016	24.92
311.23	6.49
311.444	-20.14
311.658	-1.71
311.872	-5.8
312.085	-28.33
312.299	45.4
312.513	0.34
312.727	37.2
312.941	-36.52
313.154	-24.23
313.368	-9.9
313.582	8.53
313.796	10.58
314.009	61.78
314.223	49.49
314.437	35.16
314.651	-5.8
314.864	-30.38
315.078	-9.9
315.292	-30.38
315.505	22.87
315.719	-20.14
315.933	-57
316.146	-61.1
316.36	-13.99
316.573	35.16
316.787	41.3
317.001	2.39
317.214	-7.85
317.428	35.16
317.641	-28.33
317.855	-57
318.068	37.2
318.282	-7.85
318.495	51.54
318.709	4.44
318.922	22.87
319.136	-3.75
319.349	-20.14
319.563	-22.19
319.776	88.4
319.99	-44.71
320.203	-5.8
320.417	12.63
320.63	-38.57
320.843	47.44
321.057	-42.67
321.27	-9.9
321.483	16.73
321.697	6.49
321.91	76.12
322.124	31.06
322.337	12.63
322.55	-20.14
322.763	-3.75
322.977	-30.38
323.19	-7.85
323.403	31.06
323.617	37.2
323.83	10.58
324.043	-11.95
324.256	-38.57
324.469	4.44
324.683	-32.43
324.896	-3.75
325.109	-42.67
325.322	4.44
325.535	63.83
325.748	37.2
325.962	-40.62
326.175	37.2
326.388	-24.23
326.601	39.25
326.814	-18.09
327.027	0.34
327.24	-20.14
327.453	16.73
327.666	0.34
327.879	10.58
328.092	22.87
328.305	-65.19
328.518	14.68
328.731	-11.95
328.944	-5.8
329.157	-28.33
329.37	14.68
329.583	0.34
329.796	41.3
330.009	-26.28
330.222	-7.85
330.435	2.39
330.648	59.73
330.861	26.96
331.073	69.97
331.286	-11.95
331.499	24.92
331.712	8.53
331.925	-48.81
332.138	59.73
332.35	35.16
332.563	51.54
332.776	6.49
332.989	-57
333.202	-24.23
333.414	-20.14
333.627	-3.75
333.84	-20.14
334.053	49.49
334.265	-30.38
334.478	74.07
334.691	12.63
334.903	43.35
335.116	14.68
335.329	-40.62
335.541	-30.38
335.754	2.39
335.966	43.35
336.179	0.34
336.392	67.92
336.604	-32.43
336.817	-18.09
337.029	57.68
337.242	12.63
337.454	41.3
337.667	26.96
337.88	-7.85
338.092	84.31
338.305	94.55
338.517	-77.48
338.729	-13.99
338.942	20.82
339.154	84.31
339.367	-13.99
339.579	47.44
339.792	10.58
340.004	74.07
340.217	-24.23
340.429	-50.86
340.641	-28.33
340.854	39.25
341.066	-11.95
341.278	37.2
341.491	6.49
341.703	-34.47
341.915	24.92
342.128	-20.14
342.34	22.87
342.552	0.34
342.764	29.01
342.977	47.44
343.189	-57
343.401	-30.38
343.613	-22.19
343.826	-3.75
344.038	26.96
344.25	18.77
344.462	-22.19
344.674	123.22
344.886	-36.52
345.099	-34.47
345.311	4.44
345.523	49.49
345.735	-5.8
345.947	2.39
346.159	-20.14
346.371	-1.71
346.583	-67.24
346.795	45.4
347.007	-18.09
347.219	39.25
347.431	-28.33
347.643	20.82
347.855	-11.95
348.067	29.01
348.279	-1.71
348.491	12.63
348.703	14.68
348.915	-24.23
349.127	51.54
349.339	35.16
349.551	-34.47
349.763	20.82
349.975	-11.95
350.187	88.4
350.399	90.45
350.61	26.96
350.822	0.34
351.034	45.4
351.246	22.87
351.458	12.63
351.669	74.07
351.881	76.12
352.093	-20.14
352.305	53.59
352.517	51.54
352.728	20.82
352.94	22.87
353.152	24.92
353.363	-44.71
353.575	18.77
353.787	69.97
353.999	-16.04
354.21	10.58
354.422	16.73
354.633	26.96
354.845	8.53
355.057	-1.71
355.268	-71.34
355.48	49.49
355.692	16.73
355.903	-13.99
356.115	-20.14
356.326	-26.28
356.538	57.68
356.749	-52.91
356.961	-5.8
357.172	0.34
357.384	8.53
357.595	41.3
357.807	141.65
358.018	-3.75
358.23	-11.95
358.441	12.63
358.653	-46.76
358.864	-3.75
359.075	-5.8
359.287	22.87
359.498	-13.99
359.709	-30.38
359.921	-40.62
360.132	-85.67
360.344	61.78
360.555	67.92
360.766	96.6
360.977	-3.75
361.189	-13.99
361.4	-40.62
361.611	22.87
361.823	20.82
362.034	-18.09
362.245	35.16
362.456	-59.05
362.667	49.49
362.879	45.4
363.09	-50.86
363.301	33.11
363.512	-46.76
363.723	-32.43
363.935	12.63
364.146	-24.23
364.357	29.01
364.568	10.58
364.779	-69.29
364.99	33.11
365.201	-20.14
365.412	-28.33
365.623	-5.8
365.834	16.73
366.045	-5.8
366.256	24.92
366.467	35.16
366.678	57.68
366.889	-77.48
367.1	24.92
367.311	-30.38
367.522	-54.95
367.733	92.5
367.944	-16.04
368.155	49.49
368.366	-61.1
368.577	-18.09
368.788	14.68
368.999	-30.38
369.209	106.84
369.42	117.08
369.631	41.3
369.842	-46.76
370.053	8.53
370.264	55.64
370.474	-3.75
370.685	33.11
370.896	29.01
371.107	41.3
371.317	-11.95
371.528	14.68
371.739	24.92
371.95	-28.33
372.16	88.4
372.371	-20.14
372.582	16.73
372.792	86.36
373.003	18.77
373.214	18.77
373.424	-52.91
373.635	55.64
373.846	-7.85
374.056	18.77
374.267	129.36
374.477	14.68
374.688	0.34
374.898	12.63
375.109	26.96
375.319	-13.99
375.53	-9.9
375.74	57.68
375.951	-20.14
376.161	112.98
376.372	-81.58
376.582	10.58
376.793	16.73
377.003	33.11
377.214	10.58
377.424	12.63
377.635	45.4
377.845	-38.57
378.055	0.34
378.266	2.39
378.476	57.68
378.686	-1.71
378.897	8.53
379.107	24.92
379.317	16.73
379.528	-36.52
379.738	74.07
379.948	-5.8
380.158	16.73
380.369	-22.19
380.579	0.34
380.789	14.68
380.999	43.35
381.21	20.82
381.42	22.87
381.63	14.68
381.84	4.44
382.05	33.11
382.261	33.11
382.471	33.11
382.681	51.54
382.891	0.34
383.101	55.64
383.311	-91.82
383.521	39.25
383.731	-36.52
383.941	86.36
384.151	-7.85
384.361	-5.8
384.571	61.78
384.781	29.01
384.991	14.68
385.201	6.49
385.411	-3.75
385.621	33.11
385.831	-11.95
386.041	10.58
386.251	106.84
386.461	53.59
386.671	-9.9
386.881	-11.95
387.091	94.55
387.301	-28.33
387.511	2.39
387.72	10.58
387.93	24.92
388.14	35.16
388.35	-20.14
388.56	24.92
388.769	20.82
388.979	-16.04
389.189	67.92
389.399	67.92
389.609	57.68
389.818	47.44
390.028	2.39
390.238	-34.47
390.447	-75.43
390.657	65.88
390.867	29.01
391.076	0.34
391.286	45.4
391.496	51.54
391.705	29.01
391.915	35.16
392.125	47.44
392.334	-34.47
392.544	35.16
392.753	22.87
392.963	-22.19
393.172	47.44
393.382	-7.85
393.591	-9.9
393.801	-57
394.01	45.4
394.22	18.77
394.429	-3.75
394.639	10.58
394.848	59.73
395.058	35.16
395.267	-30.38
395.477	14.68
395.686	-9.9
395.895	37.2
396.105	119.12
396.314	29.01
396.524	-20.14
396.733	16.73
396.942	67.92
397.152	-34.47
397.361	33.11
397.57	2.39
397.78	4.44
397.989	18.77
398.198	74.07
398.407	29.01
398.617	-46.76
398.826	-38.57
399.035	-1.71
399.244	45.4
399.453	-7.85
399.663	6.49
399.872	94.55
400.081	-54.95
400.29	45.4
400.499	31.06
400.708	106.84
400.917	-28.33
401.127	-5.8
401.336	-1.71
401.545	78.16
401.754	16.73
401.963	57.68
402.172	-44.71
402.381	49.49
402.59	-22.19
402.799	2.39
403.008	8.53
403.217	-3.75
403.426	-16.04
403.635	-20.14
403.844	22.87
404.053	-24.23
404.262	-93.87
404.471	10.58
404.68	33.11
404.888	35.16
405.097	-26.28
405.306	100.69
405.515	18.77
405.724	24.92
405.933	20.82
406.142	16.73
406.35	29.01
406.559	31.06
406.768	29.01
406.977	61.78
407.185	29.01
407.394	88.4
407.603	-42.67
407.812	55.64
408.02	78.16
408.229	12.63
408.438	141.65
408.646	74.07
408.855	0.34
409.064	63.83
409.272	67.92
409.481	4.44
409.69	16.73
409.898	49.49
410.107	-28.33
410.315	57.68
410.524	55.64
410.733	16.73
410.941	16.73
411.15	20.82
411.358	63.83
411.567	80.21
411.775	104.79
411.984	119.12
412.192	86.36
412.401	162.13
412.609	53.59
412.818	108.88
413.026	57.68
413.234	72.02
413.443	37.2
413.651	76.12
413.86	37.2
414.068	65.88
414.276	106.84
414.485	74.07
414.693	158.03
414.901	153.94
415.11	72.02
415.318	147.8
415.526	125.27
415.734	112.98
415.943	145.75
416.151	147.8
416.359	160.08
416.567	203.09
416.776	162.13
416.984	213.33
417.192	131.41
417.4	151.89
417.608	135.51
417.817	115.03
418.025	192.85
418.233	172.37
418.441	190.8
418.649	184.66
418.857	211.28
419.065	233.81
419.273	231.76
419.481	276.82
419.689	258.39
419.897	229.71
420.105	219.47
420.313	250.19
420.521	325.97
420.729	291.15
420.937	194.9
421.145	403.79
421.353	278.87
421.561	360.78
421.769	268.63
421.977	393.55
422.185	364.88
422.393	280.91
422.601	438.61
422.809	420.17
423.017	391.5
423.224	366.93
423.432	411.98
423.64	422.22
423.848	491.85
424.056	465.23
424.263	454.99
424.471	457.04
424.679	399.7
424.887	518.48
425.094	565.58
425.302	545.1
425.51	563.53
425.718	606.54
425.925	528.72
426.133	657.74
426.341	710.99
426.548	653.64
426.756	596.3
426.964	633.16
427.171	674.12
427.379	690.51
427.586	717.13
427.794	749.9
428.001	766.28
428.209	815.43
428.417	801.1
428.624	936.26
428.832	790.86
429.039	893.26
429.247	835.91
429.454	899.4
429.662	1022.28
429.869	1042.76
430.076	1005.89
430.284	1016.13
430.491	1034.57
430.699	1050.95
430.906	1036.61
431.114	1118.53
431.321	1032.52
431.528	1136.96
431.736	1249.6
431.943	1292.61
432.15	1261.89
432.358	1243.46
432.565	1347.9
432.772	1290.56
432.979	1337.66
433.187	1415.49
433.394	1423.68
433.601	1462.59
433.808	1505.6
434.016	1487.17
434.223	1579.33
434.43	1732.92
434.637	1632.57
434.844	1820.99
435.052	1769.79
435.259	1696.06
435.466	1741.11
435.673	1634.62
435.88	1859.9
436.087	1884.47
436.294	1982.78
436.501	1909.05
436.708	1988.92
436.915	2103.61
437.122	2091.32
437.329	2095.41
437.537	2228.53
437.743	2122.04
437.95	2218.29
438.157	2308.4
438.364	2349.36
438.571	2470.19
438.778	2435.38
438.985	2509.1
439.192	2607.41
439.399	2515.25
439.606	2566.45
439.813	2758.96
440.02	2787.63
440.227	2812.2
440.433	2812.2
440.64	2965.8
440.847	2959.66
441.054	3027.24
441.261	3148.07
441.467	3066.15
441.674	3105.06
441.881	3268.9
442.088	3201.32
442.294	3203.36
442.501	3258.66
442.708	3377.44
442.914	3518.75
443.121	3615.01
443.328	3563.81
443.534	3858.71
443.741	3746.08
443.948	3633.44
444.154	3918.11
444.361	3952.92
444.568	3928.35
444.774	3889.43
444.981	4014.36
445.187	4163.86
445.394	4243.73
445.6	4178.2
445.807	4677.9
446.013	4372.75
446.22	4528.4
446.426	4798.73
446.633	4663.57
446.839	4962.57
447.046	4688.14
447.252	5099.78
447.459	4882.7
447.665	4899.08
447.871	5306.63
448.078	5548.29
448.284	5173.51
448.491	5187.85
448.697	5636.35
448.903	5507.33
449.11	5730.56
449.316	5642.5
449.522	5660.93
449.728	5792
449.935	5857.53
450.141	5875.96
450.347	5869.82
450.553	5695.74
450.76	5869.82
450.966	6146.3
451.172	6162.68
451.378	6158.58
451.584	6047.99
451.791	6152.44
451.997	6119.67
452.203	6168.82
452.409	6224.12
452.615	6228.21
452.821	5859.58
453.027	5728.51
453.233	6332.66
453.44	6144.25
453.646	6091
453.852	6203.64
454.058	6162.68
454.264	6023.42
454.47	6199.54
454.676	5961.98
454.882	6156.54
455.088	5681.41
455.294	5914.88
455.5	5939.45
455.705	5849.34
455.911	5689.6
456.117	5605.63
456.323	5509.38
456.529	5187.85
456.735	5503.23
456.941	5263.62
457.147	5112.07
457.352	5050.63
457.558	5017.86
457.764	5036.3
457.97	4983.05
458.176	4765.96
458.381	4798.73
458.587	4638.99
458.793	4546.83
458.999	4264.21
459.204	4608.27
459.41	4538.64
459.616	4290.84
459.821	4106.52
460.027	4225.3
460.233	4143.38
460.438	4004.12
460.644	3987.74
460.85	3801.37
461.055	3952.92
461.261	3832.09
461.466	3420.45
461.672	3496.22
461.878	3567.9
462.083	3320.1
462.289	3334.43
462.494	3352.87
462.7	3115.3
462.905	3041.57
463.111	3197.22
463.316	3154.21
463.522	3043.62
463.727	3076.39
463.932	3160.36
464.138	3031.34
464.343	3201.32
464.549	3017
464.754	3238.18
464.959	3125.54
465.165	2902.31
465.37	2992.42
465.575	2781.48
465.781	3045.67
465.986	3051.81
466.191	2885.93
466.397	2885.93
466.602	2769.2
466.807	2791.72
467.012	2810.15
467.218	2844.97
467.423	2808.11
467.628	2898.22
467.833	2963.75
468.038	2816.3
468.244	2769.2
468.449	2773.29
468.654	2748.72
468.859	2711.85
469.064	2746.67
469.269	2681.13
469.474	2683.18
469.679	2631.98
469.885	2541.87
470.09	2658.6
470.295	2634.03
