Data from USB4F104151__32__12-20-40-215.txt Node

Date: Wed Feb 19 12:20:40 EST 2025
User: louis
Spectrometer: USB4F10415
Trigger mode: 4
Integration Time (sec): 2.250200E-1
Scans to average: 1
Electric dark correction enabled: true
Nonlinearity correction enabled: false
Boxcar width: 0
XAxis mode: Wavelengths
Number of Pixels in Spectrum: 3648
>>>>>Begin Spectral Data<<<<<
178.204	-779.93
178.424	-779.93
178.644	-779.93
178.864	-824.99
179.084	-810.65
179.304	125.27
179.524	16.73
179.744	-46.76
179.964	-179.88
180.184	272.72
180.404	172.37
180.624	-224.94
180.844	-57
181.064	-38.57
181.283	237.91
181.503	-194.22
181.723	-83.63
181.943	-112.3
182.163	424.27
182.383	-224.94
182.602	-231.08
182.822	436.56
183.042	223.57
183.262	-267.94
183.482	-128.68
183.701	141.65
183.921	186.71
184.141	-222.89
184.361	-143.02
184.58	313.68
184.8	233.81
185.02	-206.5
185.239	61.78
185.459	272.72
185.679	432.46
185.898	-315.05
186.118	-372.39
186.338	254.29
186.557	323.92
186.777	-274.09
186.997	-233.13
187.216	223.57
187.436	475.47
187.655	-167.59
187.875	-32.43
188.095	176.47
188.314	291.15
188.534	-77.48
188.753	-218.79
188.973	420.17
189.192	495.95
189.412	-192.17
189.631	-210.6
189.851	272.72
190.07	465.23
190.29	-216.74
190.509	-241.32
190.729	233.81
190.948	434.51
191.168	-73.39
191.387	-192.17
191.607	229.71
191.826	260.43
192.045	-143.02
192.265	-192.17
192.484	258.39
192.704	211.28
192.923	-157.35
193.142	-11.95
193.362	330.06
193.581	323.92
193.8	-87.72
194.02	-91.82
194.239	211.28
194.458	321.87
194.678	-100.01
194.897	-233.13
195.116	282.96
195.335	227.67
195.555	-134.82
195.774	-251.56
195.993	307.54
196.212	176.47
196.432	-104.11
196.651	-216.74
196.87	88.4
197.089	571.72
197.308	-161.45
197.528	-140.97
197.747	2.39
197.966	254.29
198.185	-93.87
198.404	-247.46
198.623	225.62
198.842	295.25
199.062	-102.06
199.281	-179.88
199.5	166.23
199.719	274.77
199.938	-220.84
200.157	-202.41
200.376	332.11
200.595	442.7
200.814	-143.02
201.033	-161.45
201.252	450.89
201.471	192.85
201.69	-149.16
201.909	-171.69
202.128	266.58
202.347	317.78
202.566	-57
202.785	-319.14
203.004	186.71
203.223	528.72
203.442	-134.82
203.661	-317.09
203.879	252.24
204.098	397.65
204.317	-190.12
204.536	49.49
204.755	244.05
204.974	278.87
205.193	-304.81
205.411	-130.73
205.63	379.22
205.849	289.1
206.068	-218.79
206.287	-276.13
206.505	371.02
206.724	139.6
206.943	-237.22
207.162	-134.82
207.381	221.52
207.599	178.51
207.818	-165.54
208.037	-245.41
208.255	229.71
208.474	231.76
208.693	-149.16
208.911	-138.92
209.13	334.16
209.349	287.06
209.567	-46.76
209.786	-126.63
210.005	397.65
210.223	166.23
210.442	-392.87
210.661	-257.7
210.879	258.39
211.098	198.99
211.316	-149.16
211.535	-183.98
211.753	252.24
211.972	258.39
212.191	-130.73
212.409	-85.67
212.628	313.68
212.846	82.26
213.065	-239.27
213.283	-118.44
213.502	219.47
213.72	242
213.938	-192.17
214.157	-202.41
214.375	344.4
214.594	215.38
214.812	-188.07
215.031	-216.74
215.249	182.61
215.467	321.87
215.686	-136.87
215.904	-237.22
216.122	203.09
216.341	379.22
216.559	-114.34
216.778	-48.81
216.996	348.5
217.214	164.18
217.432	-108.2
217.651	-284.33
217.869	303.44
218.087	192.85
218.306	-179.88
218.524	-194.22
218.742	186.71
218.96	377.17
219.179	-104.11
219.397	-165.54
219.615	510.29
219.833	325.97
220.051	-116.39
220.27	-112.3
220.488	313.68
220.706	258.39
220.924	-198.31
221.142	-190.12
221.36	233.81
221.578	293.2
221.796	-157.35
222.015	-30.38
222.233	252.24
222.451	411.98
222.669	-73.39
222.887	-32.43
223.105	133.46
223.323	272.72
223.541	-186.02
223.759	-143.02
223.977	203.09
224.195	430.41
224.413	-5.8
224.631	-102.06
224.849	219.47
225.067	528.72
225.285	-79.53
225.503	-167.59
225.721	-7.85
225.939	158.03
226.157	-95.91
226.375	20.82
226.592	143.7
226.81	166.23
227.028	-46.76
227.246	-202.41
227.464	254.29
227.682	328.02
227.9	-122.54
228.117	-134.82
228.335	201.04
228.553	158.03
228.771	-220.84
228.989	-118.44
229.206	186.71
229.424	86.36
229.642	-212.65
229.86	-155.3
230.077	416.08
230.295	141.65
230.513	-112.3
230.731	-149.16
230.948	418.13
231.166	366.93
231.384	-134.82
231.601	-200.36
231.819	409.94
232.037	151.89
232.254	-30.38
232.472	-108.2
232.689	186.71
232.907	274.77
233.125	-186.02
233.342	-249.51
233.56	86.36
233.777	180.56
233.995	-161.45
234.213	-77.48
234.43	305.49
234.648	233.81
234.865	-138.92
235.083	4.44
235.3	209.23
235.518	233.81
235.735	-140.97
235.953	-116.39
236.17	141.65
236.388	145.75
236.605	63.83
236.822	-104.11
237.04	307.54
237.257	237.91
237.475	-208.55
237.692	-165.54
237.909	393.55
238.127	158.03
238.344	-28.33
238.562	-83.63
238.779	63.83
238.996	20.82
239.214	-112.3
239.431	-122.54
239.648	129.36
239.865	274.77
240.083	-83.63
240.3	-212.65
240.517	108.88
240.735	188.75
240.952	65.88
241.169	-157.35
241.386	307.54
241.603	180.56
241.821	-173.74
242.038	-118.44
242.255	422.22
242.472	82.26
242.689	-130.73
242.907	-157.35
243.124	186.71
243.341	164.18
243.558	-145.06
243.775	-175.78
243.992	-65.19
244.209	246.1
244.426	-102.06
244.643	-71.34
244.86	100.69
245.078	229.71
245.295	-7.85
245.512	-192.17
245.729	78.16
245.946	250.19
246.163	-100.01
246.38	-175.78
246.597	180.56
246.814	235.86
247.031	-102.06
247.248	-186.02
247.464	340.3
247.681	209.23
247.898	-97.96
248.115	-57
248.332	92.5
248.549	428.37
248.766	4.44
248.983	-116.39
249.2	282.96
249.417	373.07
249.633	-188.07
249.85	-34.47
250.067	188.75
250.284	155.99
250.501	-194.22
250.717	-95.91
250.934	123.22
251.151	145.75
251.368	-42.67
251.585	-134.82
251.801	227.67
252.018	61.78
252.235	-28.33
252.451	-198.31
252.668	207.19
252.885	297.3
253.102	-110.25
253.318	-116.39
253.535	188.75
253.752	131.41
253.968	-229.03
254.185	-269.99
254.401	289.1
254.618	225.62
254.835	-104.11
255.051	-93.87
255.268	391.5
255.484	250.19
255.701	-138.92
255.917	-97.96
256.134	74.07
256.351	190.8
256.567	-222.89
256.784	-32.43
257	-30.38
257.217	293.2
257.433	-1.71
257.65	-73.39
257.866	358.74
258.082	-3.75
258.299	-173.74
258.515	-87.72
258.732	164.18
258.948	135.51
259.165	-36.52
259.381	-247.46
259.597	289.1
259.814	268.63
260.03	-175.78
260.246	-179.88
260.463	393.55
260.679	287.06
260.895	-114.34
261.112	-93.87
261.328	174.42
261.544	139.6
261.761	-122.54
261.977	-161.45
262.193	16.73
262.409	385.36
262.626	8.53
262.842	-192.17
263.058	135.51
263.274	305.49
263.49	-61.1
263.707	-181.93
263.923	352.59
264.139	18.77
264.355	-67.24
264.571	-75.43
264.787	266.58
265.004	303.44
265.22	8.53
265.436	-124.58
265.652	94.55
265.868	258.39
266.084	-124.58
266.3	-192.17
266.516	-24.23
266.732	192.85
266.948	-95.91
267.164	-245.41
267.38	375.12
267.596	297.3
267.812	0.34
268.028	-100.01
268.244	115.03
268.46	246.1
268.676	-75.43
268.892	29.01
269.108	51.54
269.324	98.64
269.54	-61.1
269.756	-87.72
269.972	123.22
270.188	188.75
270.403	-130.73
270.619	-134.82
270.835	221.52
271.051	213.33
271.267	-93.87
271.483	-145.06
271.698	332.11
271.914	219.47
272.13	-16.04
272.346	-89.77
272.562	211.28
272.777	424.27
272.993	51.54
273.209	-81.58
273.425	258.39
273.64	-69.29
273.856	-61.1
274.072	-231.08
274.287	137.56
274.503	205.14
274.719	45.4
274.934	-138.92
275.15	55.64
275.366	88.4
275.581	-93.87
275.797	-100.01
276.012	170.32
276.228	80.21
276.444	-91.82
276.659	80.21
276.875	-13.99
277.09	24.92
277.306	-26.28
277.521	-57
277.737	237.91
277.952	225.62
278.168	-79.53
278.383	-118.44
278.599	96.6
278.814	213.33
279.03	-157.35
279.245	14.68
279.461	217.43
279.676	262.48
279.892	-93.87
280.107	-91.82
280.322	65.88
280.538	311.63
280.753	-167.59
280.969	-120.49
281.184	174.42
281.399	346.45
281.615	-59.05
281.83	106.84
282.045	74.07
282.26	29.01
282.476	-89.77
282.691	72.02
282.906	254.29
283.122	86.36
283.337	-75.43
283.552	20.82
283.767	133.46
283.983	160.08
284.198	-38.57
284.413	-91.82
284.628	12.63
284.843	125.27
285.058	-50.86
285.274	-52.91
285.489	94.55
285.704	250.19
285.919	-54.95
286.134	39.25
286.349	186.71
286.564	63.83
286.779	61.78
286.995	-11.95
287.21	-32.43
287.425	192.85
287.64	-44.71
287.855	176.47
288.07	-3.75
288.285	268.63
288.5	29.01
288.715	53.59
288.93	180.56
289.145	82.26
289.36	-11.95
289.575	-73.39
289.79	438.61
290.004	61.78
290.219	49.49
290.434	-67.24
290.649	72.02
290.864	104.79
291.079	-50.86
291.294	33.11
291.509	225.62
291.724	164.18
291.938	-52.91
292.153	-52.91
292.368	225.62
292.583	297.3
292.798	-34.47
293.012	-7.85
293.227	239.95
293.442	106.84
293.657	121.17
293.871	-26.28
294.086	166.23
294.301	237.91
294.516	53.59
294.73	47.44
294.945	102.74
295.16	184.66
295.374	-3.75
295.589	90.45
295.804	82.26
296.018	168.27
296.233	-30.38
296.447	98.64
296.662	88.4
296.877	325.97
297.091	24.92
297.306	69.97
297.52	94.55
297.735	217.43
297.949	57.68
298.164	-126.63
298.378	194.9
298.593	6.49
298.807	20.82
299.022	31.06
299.236	334.16
299.451	69.97
299.665	-9.9
299.88	-30.38
300.094	285.01
300.309	178.51
300.523	-61.1
300.737	20.82
300.952	295.25
301.166	160.08
301.381	-32.43
301.595	-122.54
301.809	112.98
302.024	178.51
302.238	-11.95
302.452	96.6
302.667	151.89
302.881	237.91
303.095	-16.04
303.309	14.68
303.524	-9.9
303.738	149.84
303.952	-63.15
304.166	-38.57
304.381	-36.52
304.595	260.43
304.809	-9.9
305.023	-5.8
305.237	45.4
305.452	61.78
305.666	31.06
305.88	86.36
306.094	313.68
306.308	217.43
306.522	-57
306.736	-5.8
306.95	282.96
307.164	39.25
307.379	-16.04
307.593	49.49
307.807	223.57
308.021	194.9
308.235	119.12
308.449	-93.87
308.663	143.7
308.877	481.61
309.091	-40.62
309.305	119.12
309.519	-28.33
309.733	260.43
309.947	-149.16
310.161	2.39
310.374	248.15
310.588	268.63
310.802	-116.39
311.016	-106.15
311.23	186.71
311.444	33.11
311.658	41.3
311.872	137.56
312.085	366.93
312.299	303.44
312.513	184.66
312.727	-120.49
312.941	39.25
313.154	104.79
313.368	-50.86
313.582	-18.09
313.796	252.24
314.009	135.51
314.223	153.94
314.437	100.69
314.651	235.86
314.864	-3.75
315.078	-42.67
315.292	-130.73
315.505	133.46
315.719	115.03
315.933	115.03
316.146	-75.43
316.36	67.92
316.573	291.15
316.787	205.14
317.001	43.35
317.214	37.2
317.428	192.85
317.641	-89.77
317.855	-75.43
318.068	188.75
318.282	178.51
318.495	110.93
318.709	-63.15
318.922	86.36
319.136	330.06
319.349	96.6
319.563	10.58
319.776	256.34
319.99	-36.52
320.203	4.44
320.417	-106.15
320.63	102.74
320.843	348.5
321.057	98.64
321.27	-61.1
321.483	291.15
321.697	289.1
321.91	-59.05
322.124	-13.99
322.337	166.23
322.55	31.06
322.763	-34.47
322.977	-67.24
323.19	76.12
323.403	115.03
323.617	82.26
323.83	258.39
324.043	176.47
324.256	233.81
324.469	-226.98
324.683	143.7
324.896	172.37
325.109	145.75
325.322	-116.39
325.535	20.82
325.748	336.21
325.962	100.69
326.175	-24.23
326.388	-7.85
326.601	209.23
326.814	119.12
327.027	65.88
327.24	104.79
327.453	16.73
327.666	186.71
327.879	125.27
328.092	67.92
328.305	180.56
328.518	117.08
328.731	18.77
328.944	-75.43
329.157	127.32
329.37	39.25
329.583	100.69
329.796	72.02
330.009	-44.71
330.222	268.63
330.435	78.16
330.648	26.96
330.861	133.46
331.073	84.31
331.286	63.83
331.499	-77.48
331.712	80.21
331.925	147.8
332.138	6.49
332.35	-81.58
332.563	180.56
332.776	354.64
332.989	-24.23
333.202	-85.67
333.414	143.7
333.627	147.8
333.84	-42.67
334.053	2.39
334.265	102.74
334.478	98.64
334.691	-44.71
334.903	94.55
335.116	51.54
335.329	104.79
335.541	37.2
335.754	203.09
335.966	102.74
336.179	162.13
336.392	18.77
336.604	0.34
336.817	211.28
337.029	276.82
337.242	-28.33
337.454	90.45
337.667	182.61
337.88	260.43
338.092	45.4
338.305	51.54
338.517	47.44
338.729	223.57
338.942	98.64
339.154	-83.63
339.367	-26.28
339.579	272.72
339.792	-61.1
340.004	37.2
340.217	129.36
340.429	172.37
340.641	24.92
340.854	-128.68
341.066	201.04
341.278	264.53
341.491	198.99
341.703	-11.95
341.915	72.02
342.128	203.09
342.34	-20.14
342.552	-104.11
342.764	78.16
342.977	135.51
343.189	84.31
343.401	100.69
343.613	53.59
343.826	88.4
344.038	-36.52
344.25	145.75
344.462	74.07
344.674	108.88
344.886	-77.48
345.099	-11.95
345.311	174.42
345.523	53.59
345.735	-124.58
345.947	47.44
346.159	178.51
346.371	162.13
346.583	53.59
346.795	31.06
347.007	10.58
347.219	194.9
347.431	45.4
347.643	104.79
347.855	131.41
348.067	287.06
348.279	37.2
348.491	-16.04
348.703	254.29
348.915	133.46
349.127	-91.82
349.339	61.78
349.551	96.6
349.763	237.91
349.975	-40.62
350.187	88.4
350.399	299.34
350.61	139.6
350.822	-34.47
351.034	-5.8
351.246	205.14
351.458	225.62
351.669	45.4
351.881	29.01
352.093	321.87
352.305	287.06
352.517	-30.38
352.728	4.44
352.94	176.47
353.152	188.75
353.363	-93.87
353.575	-28.33
353.787	471.37
353.999	231.76
354.21	141.65
354.422	-175.78
354.633	211.28
354.845	100.69
355.057	14.68
355.268	-36.52
355.48	364.88
355.692	-36.52
355.903	49.49
356.115	-136.87
356.326	-34.47
356.538	350.54
356.749	39.25
356.961	102.74
357.172	172.37
357.384	31.06
357.595	143.7
357.807	-11.95
358.018	98.64
358.23	231.76
358.441	-13.99
358.653	-16.04
358.864	168.27
359.075	53.59
359.287	2.39
359.498	65.88
359.709	186.71
359.921	219.47
360.132	104.79
360.344	-1.71
360.555	88.4
360.766	135.51
360.977	-124.58
361.189	88.4
361.4	108.88
361.611	266.58
361.823	78.16
362.034	24.92
362.245	-34.47
362.456	121.17
362.667	96.6
362.879	-89.77
363.09	184.66
363.301	184.66
363.512	-61.1
363.723	-134.82
363.935	24.92
364.146	315.73
364.357	-9.9
364.568	-3.75
364.779	14.68
364.99	272.72
365.201	59.73
365.412	94.55
365.623	-24.23
365.834	237.91
366.045	90.45
366.256	14.68
366.467	229.71
366.678	176.47
366.889	-20.14
367.1	-44.71
367.311	295.25
367.522	106.84
367.733	90.45
367.944	88.4
368.155	213.33
368.366	270.67
368.577	78.16
368.788	160.08
368.999	115.03
369.209	121.17
369.42	80.21
369.631	368.98
369.842	168.27
370.053	133.46
370.264	59.73
370.474	-18.09
370.685	311.63
370.896	125.27
371.107	137.56
371.317	47.44
371.528	192.85
371.739	317.78
371.95	35.16
372.16	-65.19
372.371	67.92
372.582	82.26
372.792	45.4
373.003	47.44
373.214	217.43
373.424	258.39
373.635	-1.71
373.846	117.08
374.056	188.75
374.267	250.19
374.477	100.69
374.688	-59.05
374.898	270.67
375.109	141.65
375.319	18.77
375.53	69.97
375.74	258.39
375.951	78.16
376.161	59.73
376.372	80.21
376.582	45.4
376.793	276.82
377.003	-40.62
377.214	-20.14
377.424	188.75
377.635	192.85
377.845	12.63
378.055	115.03
378.266	-36.52
378.476	129.36
378.686	74.07
378.897	67.92
379.107	291.15
379.317	231.76
379.528	-1.71
379.738	170.32
379.948	45.4
380.158	278.87
380.369	2.39
380.579	147.8
380.789	151.89
380.999	149.84
381.21	80.21
381.42	207.19
381.63	221.52
381.84	264.53
382.05	49.49
382.261	94.55
382.471	364.88
382.681	20.82
382.891	135.51
383.101	102.74
383.311	86.36
383.521	88.4
383.731	-79.53
383.941	160.08
384.151	194.9
384.361	10.58
384.571	-11.95
384.781	-24.23
384.991	358.74
385.201	377.17
385.411	125.27
385.621	53.59
385.831	270.67
386.041	186.71
386.251	53.59
386.461	137.56
386.671	168.27
386.881	194.9
387.091	12.63
387.301	145.75
387.511	209.23
387.72	168.27
387.93	153.94
388.14	-40.62
388.35	250.19
388.56	309.58
388.769	49.49
388.979	-20.14
389.189	98.64
389.399	244.05
389.609	63.83
389.818	88.4
390.028	223.57
390.238	198.99
390.447	-46.76
390.657	63.83
390.867	219.47
391.076	26.96
391.286	4.44
391.496	-9.9
391.705	221.52
391.915	422.22
392.125	57.68
392.334	47.44
392.544	266.58
392.753	153.94
392.963	22.87
393.172	2.39
393.382	115.03
393.591	344.4
393.801	16.73
394.01	47.44
394.22	276.82
394.429	139.6
394.639	33.11
394.848	102.74
395.058	223.57
395.267	55.64
395.477	108.88
395.686	4.44
395.895	555.34
396.105	299.34
396.314	37.2
396.524	86.36
396.733	115.03
396.942	416.08
397.152	74.07
397.361	174.42
397.57	149.84
397.78	141.65
397.989	164.18
398.198	313.68
398.407	117.08
398.617	231.76
398.826	4.44
399.035	-24.23
399.244	244.05
399.453	170.32
399.663	-3.75
399.872	-120.49
400.081	65.88
400.29	332.11
400.499	29.01
400.708	170.32
400.917	213.33
401.127	129.36
401.336	-18.09
401.545	270.67
401.754	307.54
401.963	207.19
402.172	82.26
402.381	53.59
402.59	155.99
402.799	168.27
403.008	174.42
403.217	86.36
403.426	186.71
403.635	-24.23
403.844	-32.43
404.053	-28.33
404.262	121.17
404.471	313.68
404.68	65.88
404.888	110.93
405.097	115.03
405.306	151.89
405.515	41.3
405.724	-128.68
405.933	260.43
406.142	198.99
406.35	61.78
406.559	59.73
406.768	153.94
406.977	387.41
407.185	106.84
407.394	141.65
407.603	16.73
407.812	184.66
408.02	151.89
408.229	59.73
408.438	235.86
408.646	-26.28
408.855	-20.14
409.064	2.39
409.272	143.7
409.481	164.18
409.69	-48.81
409.898	37.2
410.107	207.19
410.315	303.44
410.524	16.73
410.733	121.17
410.941	278.87
411.15	366.93
411.358	53.59
411.567	164.18
411.775	274.77
411.984	125.27
412.192	51.54
412.401	6.49
412.609	399.7
412.818	321.87
413.026	43.35
413.234	74.07
413.443	121.17
413.651	80.21
413.86	-52.91
414.068	246.1
414.276	407.89
414.485	129.36
414.693	141.65
414.901	209.23
415.11	291.15
415.318	158.03
415.526	84.31
415.734	168.27
415.943	166.23
416.151	389.46
416.359	80.21
416.567	125.27
416.776	278.87
416.984	303.44
417.192	117.08
417.4	-1.71
417.608	86.36
417.817	92.5
418.025	237.91
418.233	147.8
418.441	94.55
418.649	96.6
418.857	149.84
419.065	139.6
419.273	194.9
419.481	162.13
419.689	145.75
419.897	-28.33
420.105	139.6
420.313	242
420.521	184.66
420.729	153.94
420.937	119.12
421.145	139.6
421.353	121.17
421.561	229.71
421.769	278.87
421.977	135.51
422.185	242
422.393	160.08
422.601	348.5
422.809	368.98
423.017	74.07
423.224	110.93
423.432	373.07
423.64	239.95
423.848	43.35
424.056	10.58
424.263	368.98
424.471	217.43
424.679	223.57
424.887	37.2
425.094	379.22
425.302	368.98
425.51	-71.34
425.718	92.5
425.925	299.34
426.133	117.08
426.341	207.19
426.548	147.8
426.756	207.19
426.964	303.44
427.171	110.93
427.379	63.83
427.586	305.49
427.794	344.4
428.001	203.09
428.209	86.36
428.417	373.07
428.624	399.7
428.832	151.89
429.039	248.15
429.247	350.54
429.454	323.92
429.662	299.34
429.869	242
430.076	424.27
430.284	317.78
430.491	254.29
430.699	186.71
430.906	448.85
431.114	336.21
431.321	170.32
431.528	205.14
431.736	340.3
431.943	469.33
432.15	217.43
432.358	129.36
432.565	538.96
432.772	67.92
432.979	330.06
433.187	219.47
433.394	561.48
433.601	301.39
433.808	344.4
434.016	299.34
434.223	397.65
434.43	436.56
434.637	307.54
434.844	414.03
435.052	487.76
435.259	518.48
435.466	424.27
435.673	358.74
435.88	631.12
436.087	557.39
436.294	612.68
436.501	475.47
436.708	528.72
436.915	534.86
437.122	565.58
437.329	266.58
437.537	465.23
437.743	577.87
437.95	551.24
438.157	549.2
438.364	522.57
438.571	561.48
438.778	588.11
438.985	520.53
439.192	696.65
439.399	627.02
439.606	538.96
439.813	678.22
440.02	948.55
440.227	993.61
440.433	614.73
440.64	577.87
440.847	678.22
441.054	780.62
441.261	670.03
441.467	725.32
441.674	805.19
441.881	938.31
442.088	692.55
442.294	760.14
442.501	1100.1
442.708	1044.81
442.914	725.32
443.121	889.16
443.328	989.51
443.534	1194.31
443.741	932.17
443.948	747.85
444.154	1186.12
444.361	1337.66
444.568	1063.24
444.774	1145.16
444.981	1093.96
445.187	1405.25
445.394	1155.4
445.6	1239.36
445.807	1425.73
446.013	1364.29
446.22	1020.23
446.426	1442.11
446.633	1513.79
446.839	1808.7
447.046	1239.36
447.252	1524.03
447.459	1671.48
447.665	1724.73
447.871	1708.35
448.078	1960.25
448.284	1892.66
448.491	2052.41
448.697	1849.66
448.903	1907
449.11	2103.61
449.316	2079.03
449.522	2220.34
449.728	2169.14
449.935	2314.55
450.141	2396.46
450.347	2429.23
450.553	2322.74
450.76	2490.67
450.966	2697.52
451.172	2638.13
451.378	2570.54
451.584	2781.48
451.791	3057.96
451.997	2928.94
452.203	2902.31
452.409	3279.14
452.615	3197.22
452.821	2847.02
453.027	3074.34
453.233	3694.88
453.44	3359.01
453.646	3324.19
453.852	3301.67
454.058	3514.66
454.264	3805.47
454.47	3782.94
454.676	3633.44
454.882	3983.64
455.088	3772.7
455.294	3772.7
455.5	4028.7
455.705	4280.6
455.911	3981.59
456.117	3926.3
456.323	3979.54
456.529	3907.87
456.735	4221.2
456.941	4096.28
457.147	4182.29
457.352	4301.08
457.558	4157.72
457.764	4231.44
457.97	4280.6
458.176	4323.6
458.381	4415.76
458.587	4321.56
458.793	4239.64
458.999	4026.65
459.204	4301.08
459.41	4253.97
459.616	4114.71
459.821	4442.39
460.027	4225.3
460.233	4331.8
460.438	4159.77
460.644	4083.99
460.85	4159.77
461.055	4043.03
461.261	4122.9
