Data from USB4F104151__31__12-20-33-690.txt Node

Date: Wed Feb 19 12:20:33 EST 2025
User: louis
Spectrometer: USB4F10415
Trigger mode: 4
Integration Time (sec): 2.250200E-1
Scans to average: 1
Electric dark correction enabled: true
Nonlinearity correction enabled: false
Boxcar width: 0
XAxis mode: Wavelengths
Number of Pixels in Spectrum: 3648
>>>>>Begin Spectral Data<<<<<
178.204	-872.61
178.424	-872.61
178.644	-872.61
178.864	-872.61
179.084	-858.27
179.304	94.04
179.524	65.36
179.744	-4.27
179.964	-143.53
180.184	331.6
180.404	169.81
180.624	-303.27
180.844	-127.14
181.064	16.21
181.283	149.33
181.503	-143.53
181.723	-104.62
181.943	-86.19
182.163	415.57
182.383	-196.78
182.602	-200.87
182.822	313.17
183.042	264.02
183.262	-174.25
183.482	-194.73
183.701	137.04
183.921	249.68
184.141	-133.29
184.361	-77.99
184.58	276.31
184.8	159.57
185.02	-254.12
185.239	-82.09
185.459	266.07
185.679	366.42
185.898	-301.22
186.118	-268.45
186.338	251.73
186.557	343.89
186.777	-172.2
186.997	-252.07
187.216	161.62
187.436	493.39
187.655	-161.96
187.875	3.93
188.095	245.59
188.314	333.65
188.534	-77.99
188.753	-254.12
188.973	427.85
189.192	477.01
189.412	-239.78
189.631	-190.63
189.851	298.83
190.07	446.29
190.29	-194.73
190.509	-213.16
190.729	198.48
190.948	378.7
191.168	-65.71
191.387	-223.4
191.607	145.24
191.826	272.21
192.045	-182.44
192.265	-247.97
192.484	329.55
192.704	206.67
192.923	-88.23
193.142	-59.56
193.362	317.26
193.581	364.37
193.8	-118.95
194.02	-145.58
194.239	192.34
194.458	304.98
194.678	-143.53
194.897	-274.6
195.116	268.11
195.335	235.35
195.555	-178.34
195.774	-227.5
195.993	388.94
196.212	102.23
196.432	-155.82
196.651	-202.92
196.87	214.87
197.089	599.88
197.308	-164.01
197.528	-125.1
197.747	81.75
197.966	251.73
198.185	-43.18
198.404	-219.3
198.623	259.92
198.842	362.32
199.062	-47.27
199.281	-75.95
199.5	194.39
199.719	259.92
199.938	-215.21
200.157	-192.68
200.376	323.41
200.595	378.7
200.814	-82.09
201.033	-135.34
201.252	468.81
201.471	190.29
201.69	-159.91
201.909	-94.38
202.128	235.35
202.347	298.83
202.566	-135.34
202.785	-319.65
203.004	143.19
203.223	485.2
203.442	-135.34
203.661	-239.78
203.879	288.59
204.098	368.46
204.317	-180.39
204.536	-71.85
204.755	272.21
204.974	294.74
205.193	-321.7
205.411	-139.43
205.63	309.07
205.849	307.02
206.068	-202.92
206.287	-233.64
206.505	356.18
206.724	221.01
206.943	-227.5
207.162	-161.96
207.381	192.34
207.599	118.61
207.818	-30.89
208.037	-215.21
208.255	229.2
208.474	302.93
208.693	-204.97
208.911	-202.92
209.13	335.7
209.349	290.64
209.567	-18.6
209.786	-149.67
210.005	354.13
210.223	241.49
210.442	-280.74
210.661	-299.17
210.879	321.36
211.098	167.76
211.316	-202.92
211.535	-250.02
211.753	241.49
211.972	190.29
212.191	-149.67
212.409	-80.04
212.628	374.61
212.846	130.9
213.065	-260.26
213.283	-57.51
213.502	184.15
213.72	206.67
213.938	-247.97
214.157	-235.69
214.375	298.83
214.594	198.48
214.812	-190.63
215.031	-135.34
215.249	149.33
215.467	239.44
215.686	-92.33
215.904	-168.1
216.122	274.26
216.341	436.05
216.559	-32.94
216.778	-51.37
216.996	380.75
217.214	61.27
217.432	-112.81
217.651	-229.54
217.869	216.91
218.087	192.34
218.306	-293.03
218.524	-96.43
218.742	175.95
218.96	272.21
219.179	-112.81
219.397	-209.06
219.615	526.16
219.833	247.63
220.051	-207.02
220.27	-77.99
220.488	331.6
220.706	304.98
220.924	-217.26
221.142	-252.07
221.36	304.98
221.578	198.48
221.796	-176.3
222.015	-77.99
222.233	253.78
222.451	499.53
222.669	-178.34
222.887	-176.3
223.105	38.74
223.323	130.9
223.541	-127.14
223.759	-92.33
223.977	173.91
224.195	436.05
224.413	-88.23
224.631	-164.01
224.849	221.01
225.067	446.29
225.285	-53.42
225.503	-219.3
225.721	28.5
225.939	292.69
226.157	-114.86
226.375	55.12
226.592	135
226.81	196.43
227.028	-34.99
227.246	-123.05
227.464	208.72
227.682	382.8
227.9	-96.43
228.117	-80.04
228.335	286.54
228.553	65.36
228.771	-215.21
228.989	-196.78
229.206	380.75
229.424	149.33
229.642	-168.1
229.86	-123.05
230.077	440.14
230.295	198.48
230.513	-94.38
230.731	-194.73
230.948	421.71
231.166	415.57
231.384	-94.38
231.601	-61.61
231.819	395.09
232.037	85.84
232.254	-118.95
232.472	-149.67
232.689	167.76
232.907	292.69
233.125	-186.54
233.342	-215.21
233.56	161.62
233.777	67.41
233.995	-145.58
234.213	-92.33
234.43	300.88
234.648	208.72
234.865	-223.4
235.083	-125.1
235.3	243.54
235.518	231.25
235.735	-100.52
235.953	-22.7
236.17	171.86
236.388	137.04
236.605	3.93
236.822	-125.1
237.04	337.74
237.257	200.53
237.475	-174.25
237.692	-61.61
237.909	325.46
238.127	157.52
238.344	-30.89
238.562	-82.09
238.779	-22.7
238.996	42.84
239.214	-49.32
239.431	-159.91
239.648	141.14
239.865	182.1
240.083	-57.51
240.3	-217.26
240.517	149.33
240.735	214.87
240.952	26.45
241.169	-155.82
241.386	249.68
241.603	124.76
241.821	-135.34
242.038	-94.38
242.255	362.32
242.472	100.18
242.689	-53.42
242.907	-133.29
243.124	190.29
243.341	286.54
243.558	-125.1
243.775	-250.02
243.992	26.45
244.209	278.35
244.426	-84.14
244.643	-116.9
244.86	145.24
245.078	268.11
245.295	-90.28
245.512	-200.87
245.729	69.46
245.946	327.5
246.163	-114.86
246.38	-159.91
246.597	208.72
246.814	175.95
247.031	-51.37
247.248	-229.54
247.464	356.18
247.681	245.59
247.898	-88.23
248.115	-90.28
248.332	132.95
248.549	403.28
248.766	18.26
248.983	-118.95
249.2	323.41
249.417	261.97
249.633	-178.34
249.85	-22.7
250.067	192.34
250.284	130.9
250.501	-153.77
250.717	-141.48
250.934	-28.84
251.151	190.29
251.368	-61.61
251.585	-94.38
251.801	221.01
252.018	79.7
252.235	-0.17
252.451	-149.67
252.668	200.53
252.885	409.42
253.102	-14.51
253.318	-47.27
253.535	186.19
253.752	79.7
253.968	-207.02
254.185	-276.65
254.401	198.48
254.618	255.83
254.835	-84.14
255.051	-116.9
255.268	280.4
255.484	192.34
255.701	-47.27
255.917	-61.61
256.134	59.22
256.351	182.1
256.567	-200.87
256.784	-12.46
257	-0.17
257.217	341.84
257.433	81.75
257.65	-67.75
257.866	390.99
258.082	32.6
258.299	-139.43
258.515	-92.33
258.732	167.76
258.948	87.89
259.165	-102.57
259.381	-135.34
259.597	272.21
259.814	67.41
260.03	-188.58
260.246	-127.14
260.463	325.46
260.679	327.5
260.895	-37.03
261.112	-114.86
261.328	194.39
261.544	55.12
261.761	-129.19
261.977	-141.48
262.193	28.5
262.409	321.36
262.626	42.84
262.842	-118.95
263.058	44.88
263.274	280.4
263.49	-2.22
263.707	-161.96
263.923	372.56
264.139	1.88
264.355	-123.05
264.571	-141.48
264.787	286.54
265.004	366.42
265.22	-41.13
265.436	-135.34
265.652	237.39
265.868	331.6
266.084	-198.82
266.3	-172.2
266.516	59.22
266.732	190.29
266.948	-102.57
267.164	-223.4
267.38	302.93
267.596	233.3
267.812	44.88
268.028	-47.27
268.244	135
268.46	155.47
268.676	-32.94
268.892	-45.23
269.108	55.12
269.324	59.22
269.54	-141.48
269.756	-67.75
269.972	5.97
270.188	255.83
270.403	-229.54
270.619	-116.9
270.835	233.3
271.051	163.67
271.267	-102.57
271.483	-188.58
271.698	315.22
271.914	270.16
272.13	10.07
272.346	-88.23
272.562	192.34
272.777	425.81
272.993	-4.27
273.209	-170.15
273.425	233.3
273.64	-26.79
273.856	-114.86
274.072	-227.5
274.287	83.8
274.503	264.02
274.719	63.32
274.934	-209.06
275.15	14.17
275.366	204.63
275.581	-174.25
275.797	-102.57
276.012	122.71
276.228	182.1
276.444	-4.27
276.659	147.28
276.875	73.56
277.09	126.8
277.306	-104.62
277.521	-16.55
277.737	186.19
277.952	196.43
278.168	-34.99
278.383	-53.42
278.599	116.56
278.814	321.36
279.03	-84.14
279.245	-22.7
279.461	151.38
279.676	173.91
279.892	-94.38
280.107	-192.68
280.322	-0.17
280.538	157.52
280.753	-121
280.969	-86.19
281.184	266.07
281.399	276.31
281.615	48.98
281.83	34.64
282.045	-39.08
282.26	8.02
282.476	-104.62
282.691	55.12
282.906	186.19
283.122	212.82
283.337	-14.51
283.552	-8.36
283.767	42.84
283.983	124.76
284.198	-67.75
284.413	-159.91
284.628	-30.89
284.843	161.62
285.058	-125.1
285.274	-139.43
285.489	65.36
285.704	175.95
285.919	-84.14
286.134	-59.56
286.349	141.14
286.564	53.08
286.779	48.98
286.995	8.02
287.21	-14.51
287.425	218.96
287.64	-63.66
287.855	114.52
288.07	-12.46
288.285	286.54
288.5	-0.17
288.715	-90.28
288.93	128.85
289.145	34.64
289.36	-92.33
289.575	-67.75
289.79	376.66
290.004	-6.31
290.219	81.75
290.434	-63.66
290.649	169.81
290.864	63.32
291.079	1.88
291.294	-34.99
291.509	233.3
291.724	175.95
291.938	-71.85
292.153	-145.58
292.368	149.33
292.583	212.82
292.798	26.45
293.012	12.12
293.227	223.06
293.442	139.09
293.657	-16.55
293.871	-6.31
294.086	208.72
294.301	323.41
294.516	34.64
294.73	-10.41
294.945	36.69
295.16	126.8
295.374	-18.6
295.589	-61.61
295.804	132.95
296.018	59.22
296.233	-75.95
296.447	112.47
296.662	73.56
296.877	280.4
297.091	-16.55
297.306	-6.31
297.52	165.71
297.735	157.52
297.949	69.46
298.164	-135.34
298.378	251.73
298.593	55.12
298.807	-73.9
299.022	30.55
299.236	333.65
299.451	36.69
299.665	-10.41
299.88	87.89
300.094	294.74
300.309	132.95
300.523	-53.42
300.737	-28.84
300.952	264.02
301.166	196.43
301.381	-73.9
301.595	-129.19
301.809	79.7
302.024	206.67
302.238	-24.75
302.452	77.65
302.667	135
302.881	231.25
303.095	57.17
303.309	83.8
303.524	96.08
303.738	180.05
303.952	-4.27
304.166	22.36
304.381	-90.28
304.595	317.26
304.809	61.27
305.023	-18.6
305.237	120.66
305.452	122.71
305.666	-53.42
305.88	-34.99
306.094	257.87
306.308	221.01
306.522	10.07
306.736	159.57
306.95	286.54
307.164	63.32
307.379	18.26
307.593	81.75
307.807	264.02
308.021	214.87
308.235	87.89
308.449	-71.85
308.663	135
308.877	530.25
309.091	-2.22
309.305	24.4
309.519	-69.8
309.733	175.95
309.947	-67.75
310.161	-30.89
310.374	83.8
310.588	325.46
310.802	-108.71
311.016	-14.51
311.23	118.61
311.444	12.12
311.658	8.02
311.872	206.67
312.085	290.64
312.299	298.83
312.513	116.56
312.727	-37.03
312.941	34.64
313.154	173.91
313.368	71.51
313.582	-55.47
313.796	173.91
314.009	77.65
314.223	87.89
314.437	-26.79
314.651	257.87
314.864	22.36
315.078	-82.09
315.292	-30.89
315.505	169.81
315.719	182.1
315.933	124.76
316.146	-92.33
316.36	83.8
316.573	221.01
316.787	216.91
317.001	61.27
317.214	98.13
317.428	163.67
317.641	-6.31
317.855	-43.18
318.068	241.49
318.282	202.58
318.495	173.91
318.709	-71.85
318.922	182.1
319.136	335.7
319.349	5.97
319.563	10.07
319.776	216.91
319.99	-14.51
320.203	-39.08
320.417	-28.84
320.63	108.37
320.843	245.59
321.057	85.84
321.27	55.12
321.483	288.59
321.697	184.15
321.91	5.97
322.124	-20.65
322.337	165.71
322.55	83.8
322.763	1.88
322.977	-8.36
323.19	28.5
323.403	145.24
323.617	85.84
323.83	200.53
324.043	163.67
324.256	165.71
324.469	-241.83
324.683	83.8
324.896	130.9
325.109	75.6
325.322	-114.86
325.535	-4.27
325.748	356.18
325.962	116.56
326.175	53.08
326.388	-59.56
326.601	165.71
326.814	118.61
327.027	5.97
327.24	59.22
327.453	-100.52
327.666	223.06
327.879	141.14
328.092	16.21
328.305	286.54
328.518	114.52
328.731	12.12
328.944	-88.23
329.157	194.39
329.37	36.69
329.583	130.9
329.796	71.51
330.009	-75.95
330.222	235.35
330.435	79.7
330.648	10.07
330.861	165.71
331.073	120.66
331.286	34.64
331.499	-4.27
331.712	147.28
331.925	102.23
332.138	77.65
332.35	-45.23
332.563	110.42
332.776	345.94
332.989	-90.28
333.202	-37.03
333.414	139.09
333.627	130.9
333.84	-26.79
334.053	118.61
334.265	112.47
334.478	24.4
334.691	28.5
334.903	155.47
335.116	118.61
335.329	34.64
335.541	85.84
335.754	239.44
335.966	167.76
336.179	200.53
336.392	-10.41
336.604	18.26
336.817	130.9
337.029	184.15
337.242	-24.75
337.454	20.31
337.667	253.78
337.88	325.46
338.092	104.28
338.305	87.89
338.517	38.74
338.729	202.58
338.942	1.88
339.154	-73.9
339.367	22.36
339.579	266.07
339.792	-129.19
340.004	8.02
340.217	128.85
340.429	208.72
340.641	-127.14
340.854	-69.8
341.066	145.24
341.278	210.77
341.491	137.04
341.703	-73.9
341.915	14.17
342.128	386.9
342.34	34.64
342.552	-77.99
342.764	153.43
342.977	163.67
343.189	40.79
343.401	137.04
343.613	-53.42
343.826	147.28
344.038	-22.7
344.25	65.36
344.462	67.41
344.674	200.53
344.886	-104.62
345.099	24.4
345.311	196.43
345.523	116.56
345.735	-80.04
345.947	57.17
346.159	239.44
346.371	208.72
346.583	30.55
346.795	79.7
347.007	40.79
347.219	231.25
347.431	83.8
347.643	198.48
347.855	128.85
348.067	278.35
348.279	-18.6
348.491	-22.7
348.703	241.49
348.915	206.67
349.127	-57.51
349.339	79.7
349.551	124.76
349.763	270.16
349.975	14.17
350.187	-43.18
350.399	366.42
350.61	128.85
350.822	-26.79
351.034	-14.51
351.246	290.64
351.458	120.66
351.669	20.31
351.881	-14.51
352.093	286.54
352.305	255.83
352.517	-69.8
352.728	75.6
352.94	98.13
353.152	272.21
353.363	-71.85
353.575	44.88
353.787	440.14
353.999	182.1
354.21	163.67
354.422	-57.51
354.633	216.91
354.845	151.38
355.057	91.99
355.268	1.88
355.48	292.69
355.692	1.88
355.903	77.65
356.115	-57.51
356.326	-65.71
356.538	364.37
356.749	-30.89
356.961	91.99
357.172	153.43
357.384	42.84
357.595	202.58
357.807	53.08
358.018	104.28
358.23	163.67
358.441	-18.6
358.653	-24.75
358.864	112.47
359.075	51.03
359.287	51.03
359.498	32.6
359.709	192.34
359.921	165.71
360.132	114.52
360.344	-96.43
360.555	59.22
360.766	233.3
360.977	-69.8
361.189	104.28
361.4	114.52
361.611	280.4
361.823	94.04
362.034	73.56
362.245	-63.66
362.456	229.2
362.667	139.09
362.879	-172.2
363.09	249.68
363.301	247.63
363.512	12.12
363.723	-37.03
363.935	218.96
364.146	261.97
364.357	-20.65
364.568	-22.7
364.779	24.4
364.99	307.02
365.201	-32.94
365.412	94.04
365.623	-18.6
365.834	171.86
366.045	100.18
366.256	18.26
366.467	149.33
366.678	175.95
366.889	69.46
367.1	28.5
367.311	298.83
367.522	116.56
367.733	89.94
367.944	3.93
368.155	145.24
368.366	255.83
368.577	34.64
368.788	149.33
368.999	61.27
369.209	171.86
369.42	143.19
369.631	386.9
369.842	178
370.053	214.87
370.264	-86.19
370.474	16.21
370.685	309.07
370.896	137.04
371.107	96.08
371.317	61.27
371.528	149.33
371.739	356.18
371.95	63.32
372.16	22.36
372.371	-8.36
372.582	94.04
372.792	-10.41
373.003	100.18
373.214	206.67
373.424	292.69
373.635	38.74
373.846	196.43
374.056	139.09
374.267	102.23
374.477	91.99
374.688	3.93
374.898	315.22
375.109	128.85
375.319	14.17
375.53	-6.31
375.74	286.54
375.951	118.61
376.161	145.24
376.372	-0.17
376.582	108.37
376.793	264.02
377.003	-47.27
377.214	-26.79
377.424	227.15
377.635	157.52
377.845	51.03
378.055	139.09
378.266	85.84
378.476	173.91
378.686	106.32
378.897	34.64
379.107	282.45
379.317	321.36
379.528	-39.08
379.738	59.22
379.948	110.42
380.158	208.72
380.369	73.56
380.579	104.28
380.789	206.67
380.999	206.67
381.21	114.52
381.42	212.82
381.63	122.71
381.84	237.39
382.05	55.12
382.261	141.14
382.471	210.77
382.681	118.61
382.891	108.37
383.101	73.56
383.311	-2.22
383.521	145.24
383.731	-69.8
383.941	216.91
384.151	245.59
384.361	132.95
384.571	53.08
384.781	44.88
384.991	345.94
385.201	405.33
385.411	216.91
385.621	135
385.831	253.78
386.041	167.76
386.251	108.37
386.461	165.71
386.671	184.15
386.881	210.77
387.091	30.55
387.301	132.95
387.511	178
387.72	137.04
387.93	104.28
388.14	5.97
388.35	122.71
388.56	319.31
388.769	67.41
388.979	3.93
389.189	96.08
389.399	202.58
389.609	73.56
389.818	75.6
390.028	182.1
390.238	223.06
390.447	-39.08
390.657	57.17
390.867	210.77
391.076	1.88
391.286	10.07
391.496	83.8
391.705	270.16
391.915	427.85
392.125	36.69
392.334	57.17
392.544	411.47
392.753	151.38
392.963	18.26
393.172	8.02
393.382	155.47
393.591	440.14
393.801	-32.94
394.01	118.61
394.22	270.16
394.429	159.57
394.639	104.28
394.848	85.84
395.058	225.11
395.267	132.95
395.477	128.85
395.686	173.91
395.895	597.84
396.105	407.38
396.314	61.27
396.524	32.6
396.733	114.52
396.942	388.94
397.152	104.28
397.361	157.52
397.57	235.35
397.78	223.06
397.989	137.04
398.198	268.11
398.407	200.53
398.617	184.15
398.826	126.8
399.035	26.45
399.244	309.07
399.453	249.68
399.663	1.88
399.872	18.26
400.081	106.32
400.29	397.14
400.499	20.31
400.708	173.91
400.917	302.93
401.127	173.91
401.336	71.51
401.545	345.94
401.754	331.6
401.963	221.01
402.172	155.47
402.381	-6.31
402.59	282.45
402.799	225.11
403.008	190.29
403.217	67.41
403.426	311.12
403.635	1.88
403.844	32.6
404.053	51.03
404.262	186.19
404.471	280.4
404.68	116.56
404.888	91.99
405.097	139.09
405.306	343.89
405.515	98.13
405.724	3.93
405.933	397.14
406.142	229.2
406.35	126.8
406.559	167.76
406.768	198.48
406.977	532.3
407.185	135
407.394	145.24
407.603	132.95
407.812	216.91
408.02	268.11
408.229	126.8
408.438	333.65
408.646	-28.84
408.855	1.88
409.064	83.8
409.272	149.33
409.481	280.4
409.69	-8.36
409.898	-30.89
410.107	270.16
410.315	315.22
410.524	85.84
410.733	40.79
410.941	214.87
411.15	362.32
411.358	192.34
411.567	231.25
411.775	216.91
411.984	247.63
412.192	141.14
412.401	-0.17
412.609	434
412.818	393.04
413.026	141.14
413.234	132.95
413.443	198.48
413.651	186.19
413.86	-88.23
414.068	272.21
414.276	565.07
414.485	143.19
414.693	239.44
414.901	225.11
415.11	356.18
415.318	229.2
415.526	157.52
415.734	214.87
415.943	313.17
416.151	456.53
416.359	102.23
416.567	120.66
416.776	304.98
416.984	372.56
417.192	218.96
417.4	73.56
417.608	221.01
417.817	182.1
418.025	259.92
418.233	77.65
418.441	143.19
418.649	87.89
418.857	116.56
419.065	147.28
419.273	251.73
419.481	302.93
419.689	161.62
419.897	83.8
420.105	264.02
420.313	472.91
420.521	288.59
420.729	149.33
420.937	190.29
421.145	165.71
421.353	137.04
421.561	259.92
421.769	366.42
421.977	202.58
422.185	225.11
422.393	171.86
422.601	304.98
422.809	376.66
423.017	202.58
423.224	116.56
423.432	460.62
423.64	294.74
423.848	124.76
424.056	89.94
424.263	511.82
424.471	319.31
424.679	352.08
424.887	153.43
425.094	556.88
425.302	419.66
425.51	81.75
425.718	255.83
425.925	354.13
426.133	214.87
426.341	333.65
426.548	290.64
426.756	235.35
426.964	411.47
427.171	264.02
427.379	274.26
427.586	448.33
427.794	401.23
428.001	302.93
428.209	382.8
428.417	511.82
428.624	536.4
428.832	321.36
429.039	307.02
429.247	503.63
429.454	434
429.662	438.09
429.869	309.07
430.076	515.92
430.284	546.64
430.491	327.5
430.699	409.42
430.906	683.85
431.114	528.21
431.321	460.62
431.528	456.53
431.736	532.3
431.943	485.2
432.15	438.09
432.358	362.32
432.565	806.73
432.772	229.2
432.979	563.02
433.187	483.15
433.394	722.76
433.601	599.88
433.808	646.99
434.016	683.85
434.223	726.86
434.43	671.56
434.637	589.64
434.844	710.47
435.052	790.35
435.259	831.3
435.466	786.25
435.673	700.23
435.88	1007.43
436.087	972.61
436.294	1001.29
436.501	911.18
436.708	851.78
436.915	1017.67
437.122	972.61
437.329	773.96
437.537	943.94
437.743	1011.53
437.95	1072.96
438.157	929.61
438.364	1101.64
438.571	1171.27
438.778	1062.73
438.985	1222.47
439.192	1328.96
439.399	1230.66
439.606	1124.16
439.813	1353.54
440.02	1617.72
440.227	1666.88
440.433	1277.76
440.64	1386.3
440.847	1421.12
441.054	1498.94
441.261	1468.22
441.467	1488.7
441.674	1617.72
441.881	1748.79
442.088	1552.19
442.294	1607.48
442.501	1931.06
442.708	1920.82
442.914	1750.84
443.121	1912.63
443.328	2051.89
443.534	2289.46
443.741	1969.98
443.948	1926.97
444.154	2230.07
444.361	2424.62
444.568	2221.88
444.774	2221.88
444.981	2275.12
445.187	2598.7
445.394	2469.68
445.6	2393.9
445.807	2842.41
446.013	2809.64
446.22	2606.89
446.426	2924.33
446.633	3071.78
446.839	3313.44
447.046	2912.04
447.252	3157.8
447.459	3276.58
447.665	3098.41
447.871	3366.69
448.078	3731.23
448.284	3538.72
448.491	3745.56
448.697	3929.88
448.903	4069.14
449.11	4144.92
449.316	4110.1
449.522	4304.66
449.728	4224.79
449.935	4603.66
450.141	4626.19
450.347	4779.79
450.553	4618
450.76	5007.11
450.966	5062.41
451.172	5168.9
451.378	5482.24
451.584	5674.75
451.791	5943.03
451.997	5660.41
452.203	5844.73
452.409	6356.72
452.615	6266.61
452.821	6029.05
453.027	6131.45
453.233	7055.08
453.44	6528.75
453.646	6651.63
453.852	6844.14
454.058	7044.84
454.264	7184.1
454.47	7399.14
454.676	7261.93
454.882	8025.82
455.088	7567.07
455.294	7636.7
455.5	7812.83
455.705	8138.46
455.911	7945.95
456.117	7892.7
456.323	8173.27
456.529	7956.19
456.735	8296.15
456.941	8115.93
457.147	8244.95
457.352	8279.77
457.558	8310.49
457.764	8441.56
457.97	8455.89
458.176	8521.43
458.381	8611.54
458.587	8367.83
458.793	8521.43
458.999	7956.19
459.204	8824.53
459.41	8531.67
459.616	8177.37
459.821	8605.39
460.027	8507.09
460.233	8255.19
460.438	8130.27
460.644	8287.96
460.85	8054.49
461.055	8072.92
461.261	8003.29
