Data from USB4F104151__33__12-20-50-115.txt Node

Date: Wed Feb 19 12:20:50 EST 2025
User: louis
Spectrometer: USB4F10415
Trigger mode: 4
Integration Time (sec): 2.250200E-1
Scans to average: 1
Electric dark correction enabled: true
Nonlinearity correction enabled: false
Boxcar width: 0
XAxis mode: Wavelengths
Number of Pixels in Spectrum: 3648
>>>>>Begin Spectral Data<<<<<
178.204	-761.67
178.424	-761.67
178.644	-761.67
178.864	-765.77
179.084	-792.39
179.304	178.34
179.524	133.29
179.744	-8.02
179.964	-151.38
180.184	217.26
180.404	207.02
180.624	-266.07
180.844	-87.89
181.064	-55.12
181.283	108.71
181.503	-141.14
181.723	-135
181.943	-91.99
182.163	426.15
182.383	-286.54
182.602	-196.43
182.822	495.78
183.042	258.21
183.262	-186.19
183.482	-173.91
183.701	200.87
183.921	309.41
184.141	-180.05
184.361	-157.52
184.58	254.12
184.8	127.14
185.02	-233.3
185.239	-34.64
185.459	290.98
185.679	403.62
185.898	-247.63
186.118	-200.53
186.338	213.16
186.557	370.85
186.777	-167.76
186.997	-210.77
187.216	164.01
187.436	536.74
187.655	-122.71
187.875	-30.55
188.095	196.78
188.314	372.9
188.534	-128.85
188.753	-284.5
188.973	372.9
189.192	432.29
189.412	-251.73
189.631	-231.25
189.851	274.6
190.07	415.91
190.29	-161.62
190.509	-159.57
190.729	159.91
190.948	424.1
191.168	4.27
191.387	-223.06
191.607	94.38
191.826	325.8
192.045	-143.19
192.265	-175.95
192.484	252.07
192.704	166.06
192.923	-139.09
193.142	26.79
193.362	362.66
193.581	387.24
193.8	-81.75
194.02	-184.15
194.239	198.82
194.458	403.62
194.678	-165.71
194.897	-231.25
195.116	215.21
195.335	311.46
195.555	-167.76
195.774	-298.83
195.993	401.57
196.212	116.9
196.432	-118.61
196.651	-198.48
196.87	200.87
197.089	467.11
197.308	-180.05
197.528	-112.47
197.747	88.23
197.966	184.49
198.185	-30.55
198.404	-163.67
198.623	280.74
198.842	346.28
199.062	-96.08
199.281	-94.04
199.5	260.26
199.719	274.6
199.938	-124.76
200.157	-198.48
200.376	352.42
200.595	446.63
200.814	-85.84
201.033	-178
201.252	516.26
201.471	282.79
201.69	-202.58
201.909	-167.76
202.128	340.13
202.347	305.32
202.566	-198.48
202.785	-290.64
203.004	143.53
203.223	522.4
203.442	-186.19
203.661	-282.45
203.879	278.69
204.098	374.95
204.317	-237.39
204.536	-59.22
204.755	336.04
204.974	295.08
205.193	-341.84
205.411	26.79
205.63	297.13
205.849	250.02
206.068	-137.04
206.287	-296.78
206.505	266.41
206.724	151.72
206.943	-169.81
207.162	-132.95
207.381	188.58
207.599	184.49
207.818	-128.85
208.037	-268.11
208.255	243.88
208.474	250.02
208.693	-143.19
208.911	-161.62
209.13	354.47
209.349	331.94
209.567	-18.26
209.786	-182.1
210.005	383.14
210.223	192.68
210.442	-327.5
210.661	-198.48
210.879	297.13
211.098	233.64
211.316	-145.24
211.535	-110.42
211.753	274.6
211.972	327.85
212.191	-141.14
212.409	-171.86
212.628	352.42
212.846	34.99
213.065	-206.67
213.283	-132.95
213.502	256.17
213.72	241.83
213.938	-102.23
214.157	-188.24
214.375	313.51
214.594	110.76
214.812	-137.04
215.031	-143.19
215.249	233.64
215.467	256.17
215.686	-186.19
215.904	-116.56
216.122	305.32
216.341	338.09
216.559	-44.88
216.778	-51.03
216.996	510.11
217.214	262.31
217.432	-61.27
217.651	-188.24
217.869	268.45
218.087	229.54
218.306	-141.14
218.524	-165.71
218.742	180.39
218.96	448.68
219.179	-110.42
219.397	-251.73
219.615	532.64
219.833	340.13
220.051	-202.58
220.27	-94.04
220.488	315.56
220.706	239.78
220.924	-253.78
221.142	-200.53
221.36	321.7
221.578	254.12
221.796	-194.39
222.015	-55.12
222.233	233.64
222.451	397.48
222.669	-79.7
222.887	-69.46
223.105	86.19
223.323	207.02
223.541	-141.14
223.759	-135
223.977	204.97
224.195	479.4
224.413	-96.08
224.631	-161.62
224.849	258.21
225.067	489.64
225.285	-42.84
225.503	-18.26
225.721	-55.12
225.939	217.26
226.157	-153.43
226.375	67.75
226.592	135.34
226.81	149.67
227.028	-5.97
227.246	-104.28
227.464	288.93
227.682	250.02
227.9	-135
228.117	-79.7
228.335	272.55
228.553	225.45
228.771	-270.16
228.989	-120.66
229.206	258.21
229.424	137.38
229.642	-173.91
229.86	-116.56
230.077	383.14
230.295	168.1
230.513	-51.03
230.731	-169.81
230.948	506.02
231.166	428.2
231.384	-188.24
231.601	-210.77
231.819	549.03
232.037	106.67
232.254	-116.56
232.472	-153.43
232.689	86.19
232.907	356.52
233.125	-173.91
233.342	-186.19
233.56	151.72
233.777	65.71
233.995	-202.58
234.213	-51.03
234.43	364.71
234.648	256.17
234.865	-108.37
235.083	-51.03
235.3	280.74
235.518	264.36
235.735	-137.04
235.953	-104.28
236.17	254.12
236.388	155.82
236.605	24.75
236.822	-145.24
237.04	280.74
237.257	213.16
237.475	-151.38
237.692	-153.43
237.909	338.09
238.127	174.25
238.344	32.94
238.562	-89.94
238.779	28.84
238.996	49.32
239.214	-42.84
239.431	-112.47
239.648	39.08
239.865	309.41
240.083	-104.28
240.3	-151.38
240.517	157.86
240.735	184.49
240.952	121
241.169	-184.15
241.386	356.52
241.603	182.44
241.821	-122.71
242.038	-145.24
242.255	403.62
242.472	2.22
242.689	-24.4
242.907	-137.04
243.124	133.29
243.341	157.86
243.558	-69.46
243.775	-157.52
243.992	28.84
244.209	243.88
244.426	-3.93
244.643	-104.28
244.86	250.02
245.078	301.22
245.295	-75.6
245.512	-194.39
245.729	194.73
245.946	295.08
246.163	-173.91
246.38	-175.95
246.597	282.79
246.814	227.5
247.031	-79.7
247.248	-188.24
247.464	356.52
247.681	143.53
247.898	-83.8
248.115	26.79
248.332	125.1
248.549	389.28
248.766	0.17
248.983	-30.55
249.2	340.13
249.417	311.46
249.633	-98.13
249.85	18.6
250.067	250.02
250.284	192.68
250.501	-141.14
250.717	-85.84
250.934	63.66
251.151	198.82
251.368	-75.6
251.585	-75.6
251.801	280.74
252.018	34.99
252.235	37.03
252.451	-212.82
252.668	252.07
252.885	309.41
253.102	-57.17
253.318	-188.24
253.535	190.63
253.752	170.15
253.968	-130.9
254.185	-182.1
254.401	254.12
254.618	272.55
254.835	-53.08
255.051	-98.13
255.268	301.22
255.484	256.17
255.701	-110.42
255.917	-130.9
256.134	75.95
256.351	254.12
256.567	-139.09
256.784	28.84
257	8.36
257.217	303.27
257.433	73.9
257.65	-143.19
257.866	366.76
258.082	18.6
258.299	-77.65
258.515	-10.07
258.732	129.19
258.948	121
259.165	-10.07
259.381	-202.58
259.597	317.61
259.814	184.49
260.03	-130.9
260.246	-118.61
260.463	309.41
260.679	313.51
260.895	-71.51
261.112	-22.36
261.328	155.82
261.544	94.38
261.761	-128.85
261.977	-192.34
262.193	49.32
262.409	293.03
262.626	6.31
262.842	-163.67
263.058	147.62
263.274	293.03
263.49	2.22
263.707	-198.48
263.923	321.7
264.139	73.9
264.355	-77.65
264.571	10.41
264.787	262.31
265.004	397.48
265.22	-61.27
265.436	-71.51
265.652	174.25
265.868	301.22
266.084	-169.81
266.3	-100.18
266.516	75.95
266.732	198.82
266.948	-79.7
267.164	-173.91
267.38	372.9
267.596	323.75
267.812	-20.31
268.028	-30.55
268.244	137.38
268.46	254.12
268.676	-69.46
268.892	10.41
269.108	41.13
269.324	53.42
269.54	-165.71
269.756	-120.66
269.972	22.7
270.188	180.39
270.403	-110.42
270.619	-102.23
270.835	239.78
271.051	239.78
271.267	-124.76
271.483	-169.81
271.698	247.97
271.914	293.03
272.13	4.27
272.346	-30.55
272.562	151.72
272.777	395.43
272.993	14.51
273.209	-22.36
273.425	247.97
273.64	51.37
273.856	-171.86
274.072	-210.77
274.287	73.9
274.503	364.71
274.719	63.66
274.934	-137.04
275.15	0.17
275.366	170.15
275.581	-139.09
275.797	-65.36
276.012	192.68
276.228	157.86
276.444	-5.97
276.659	116.9
276.875	102.57
277.09	26.79
277.306	-28.5
277.521	59.56
277.737	149.67
277.952	159.91
278.168	-75.6
278.383	18.6
278.599	104.62
278.814	268.45
279.03	-63.32
279.245	65.71
279.461	118.95
279.676	188.58
279.892	18.6
280.107	-126.8
280.322	59.56
280.538	303.27
280.753	-132.95
280.969	22.7
281.184	116.9
281.399	305.32
281.615	-102.23
281.83	59.56
282.045	88.23
282.26	51.37
282.476	-73.56
282.691	59.56
282.906	225.45
283.122	168.1
283.337	39.08
283.552	41.13
283.767	151.72
283.983	256.17
284.198	-59.22
284.413	-63.32
284.628	20.65
284.843	202.92
285.058	-114.52
285.274	-51.03
285.489	118.95
285.704	284.84
285.919	-20.31
286.134	51.37
286.349	135.34
286.564	51.37
286.779	37.03
286.995	-24.4
287.21	-20.31
287.425	190.63
287.64	-120.66
287.855	139.43
288.07	-51.03
288.285	286.89
288.5	2.22
288.715	-16.21
288.93	98.47
289.145	28.84
289.36	-94.04
289.575	-34.64
289.79	297.13
290.004	80.04
290.219	34.99
290.434	-1.88
290.649	104.62
290.864	84.14
291.079	-114.52
291.294	47.27
291.509	198.82
291.724	178.34
291.938	-57.17
292.153	-32.6
292.368	166.06
292.583	250.02
292.798	51.37
293.012	100.52
293.227	151.72
293.442	149.67
293.657	67.75
293.871	39.08
294.086	221.35
294.301	338.09
294.516	86.19
294.73	108.71
294.945	67.75
295.16	161.96
295.374	6.31
295.589	110.76
295.804	139.43
296.018	71.85
296.233	-22.36
296.447	77.99
296.662	168.1
296.877	358.57
297.091	47.27
297.306	-46.93
297.52	137.38
297.735	164.01
297.949	80.04
298.164	-202.58
298.378	141.48
298.593	63.66
298.807	-83.8
299.022	28.84
299.236	360.61
299.451	41.13
299.665	59.56
299.88	18.6
300.094	239.78
300.309	170.15
300.523	-57.17
300.737	-69.46
300.952	237.74
301.166	288.93
301.381	-67.41
301.595	-192.34
301.809	178.34
302.024	118.95
302.238	-42.84
302.452	88.23
302.667	247.97
302.881	295.08
303.095	153.77
303.309	37.03
303.524	127.14
303.738	170.15
303.952	-55.12
304.166	114.86
304.381	-42.84
304.595	358.57
304.809	20.65
305.023	-65.36
305.237	88.23
305.452	59.56
305.666	-3.93
305.88	92.33
306.094	241.83
306.308	204.97
306.522	-51.03
306.736	32.94
306.95	194.73
307.164	-3.93
307.379	-16.21
307.593	90.28
307.807	303.27
308.021	221.35
308.235	200.87
308.449	-63.32
308.663	108.71
308.877	643.23
309.091	16.55
309.305	137.38
309.519	-3.93
309.733	223.4
309.947	-32.6
310.161	-46.93
310.374	121
310.588	282.79
310.802	-87.89
311.016	-32.6
311.23	170.15
311.444	116.9
311.658	30.89
311.872	151.72
312.085	280.74
312.299	356.52
312.513	180.39
312.727	20.65
312.941	86.19
313.154	159.91
313.368	4.27
313.582	-18.26
313.796	174.25
314.009	186.54
314.223	96.43
314.437	43.18
314.651	325.8
314.864	-32.6
315.078	-32.6
315.292	8.36
315.505	168.1
315.719	149.67
315.933	159.91
316.146	-85.84
316.36	51.37
316.573	239.78
316.787	198.82
317.001	82.09
317.214	-26.45
317.428	182.44
317.641	-38.74
317.855	-1.88
318.068	174.25
318.282	137.38
318.495	86.19
318.709	0.17
318.922	164.01
319.136	356.52
319.349	98.47
319.563	4.27
319.776	288.93
319.99	-102.23
320.203	96.43
320.417	37.03
320.63	121
320.843	288.93
321.057	71.85
321.27	-44.88
321.483	250.02
321.697	229.54
321.91	59.56
322.124	-28.5
322.337	200.87
322.55	86.19
322.763	-10.07
322.977	-53.08
323.19	77.99
323.403	77.99
323.617	26.79
323.83	170.15
324.043	116.9
324.256	190.63
324.469	-235.35
324.683	151.72
324.896	59.56
325.109	161.96
325.322	-34.64
325.535	24.75
325.748	301.22
325.962	116.9
326.175	59.56
326.388	-34.64
326.601	245.93
326.814	155.82
327.027	14.51
327.24	100.52
327.453	-42.84
327.666	247.97
327.879	219.3
328.092	16.55
328.305	297.13
328.518	155.82
328.731	10.41
328.944	-100.18
329.157	164.01
329.37	129.19
329.583	157.86
329.796	45.23
330.009	-22.36
330.222	237.74
330.435	96.43
330.648	-10.07
330.861	176.3
331.073	209.06
331.286	145.58
331.499	26.79
331.712	151.72
331.925	86.19
332.138	92.33
332.35	39.08
332.563	-10.07
332.776	305.32
332.989	-5.97
333.202	-114.52
333.414	168.1
333.627	217.26
333.84	-5.97
334.053	84.14
334.265	112.81
334.478	59.56
334.691	4.27
334.903	112.81
335.116	55.47
335.329	166.06
335.541	-14.17
335.754	204.97
335.966	176.3
336.179	53.42
336.392	53.42
336.604	26.79
336.817	176.3
337.029	237.74
337.242	-94.04
337.454	63.66
337.667	243.88
337.88	325.8
338.092	84.14
338.305	45.23
338.517	84.14
338.729	196.78
338.942	125.1
339.154	-63.32
339.367	43.18
339.579	200.87
339.792	-48.98
340.004	116.9
340.217	121
340.429	209.06
340.641	-91.99
340.854	-132.95
341.066	217.26
341.278	299.17
341.491	237.74
341.703	24.75
341.915	143.53
342.128	299.17
342.34	139.43
342.552	-3.93
342.764	139.43
342.977	159.91
343.189	37.03
343.401	137.38
343.613	-10.07
343.826	225.45
344.038	-26.45
344.25	106.67
344.462	100.52
344.674	155.82
344.886	-20.31
345.099	37.03
345.311	250.02
345.523	127.14
345.735	-94.04
345.947	-30.55
346.159	182.44
346.371	202.92
346.583	34.99
346.795	184.49
347.007	100.52
347.219	282.79
347.431	51.37
347.643	247.97
347.855	75.95
348.067	286.89
348.279	-24.4
348.491	-22.36
348.703	303.27
348.915	231.59
349.127	-59.22
349.339	75.95
349.551	149.67
349.763	321.7
349.975	53.42
350.187	22.7
350.399	424.1
350.61	260.26
350.822	20.65
351.034	53.42
351.246	317.61
351.458	200.87
351.669	77.99
351.881	16.55
352.093	383.14
352.305	256.17
352.517	-63.32
352.728	86.19
352.94	116.9
353.152	313.51
353.363	-61.27
353.575	71.85
353.787	409.76
353.999	225.45
354.21	147.62
354.422	-28.5
354.633	151.72
354.845	143.53
355.057	61.61
355.268	-38.74
355.48	262.31
355.692	59.56
355.903	14.51
356.115	-139.09
356.326	-20.31
356.538	368.81
356.749	-20.31
356.961	100.52
357.172	194.73
357.384	77.99
357.595	213.16
357.807	32.94
358.018	157.86
358.23	266.41
358.441	-139.09
358.653	28.84
358.864	178.34
359.075	84.14
359.287	16.55
359.498	26.79
359.709	239.78
359.921	157.86
360.132	200.87
360.344	-51.03
360.555	39.08
360.766	239.78
360.977	0.17
361.189	125.1
361.4	104.62
361.611	231.59
361.823	133.29
362.034	-24.4
362.245	-20.31
362.456	174.25
362.667	192.68
362.879	-104.28
363.09	297.13
363.301	207.02
363.512	-14.17
363.723	-30.55
363.935	198.82
364.146	317.61
364.357	47.27
364.568	22.7
364.779	4.27
364.99	444.58
365.201	-18.26
365.412	135.34
365.623	-38.74
365.834	211.11
366.045	-14.17
366.256	53.42
366.467	338.09
366.678	166.06
366.889	47.27
367.1	14.51
367.311	264.36
367.522	108.71
367.733	118.95
367.944	18.6
368.155	155.82
368.366	252.07
368.577	88.23
368.788	149.67
368.999	137.38
369.209	151.72
369.42	166.06
369.631	397.48
369.842	284.84
370.053	155.82
370.264	10.41
370.474	-77.65
370.685	211.11
370.896	176.3
371.107	61.61
371.317	-1.88
371.528	221.35
371.739	356.52
371.95	100.52
372.16	116.9
372.371	61.61
372.582	92.33
372.792	10.41
373.003	92.33
373.214	202.92
373.424	182.44
373.635	37.03
373.846	116.9
374.056	196.78
374.267	192.68
374.477	51.37
374.688	-28.5
374.898	301.22
375.109	94.38
375.319	80.04
375.53	125.1
375.74	288.93
375.951	55.47
376.161	77.99
376.372	39.08
376.582	217.26
376.793	209.06
377.003	-8.02
377.214	-46.93
377.424	319.65
377.635	207.02
377.845	2.22
378.055	145.58
378.266	-22.36
378.476	114.86
378.686	57.51
378.897	88.23
379.107	327.85
379.317	235.69
379.528	-63.32
379.738	84.14
379.948	37.03
380.158	301.22
380.369	125.1
380.579	45.23
380.789	159.91
380.999	233.64
381.21	141.48
381.42	204.97
381.63	61.61
381.84	194.73
382.05	75.95
382.261	110.76
382.471	333.99
382.681	110.76
382.891	190.63
383.101	137.38
383.311	16.55
383.521	90.28
383.731	-1.88
383.941	188.58
384.151	266.41
384.361	131.24
384.571	-10.07
384.781	82.09
384.991	290.98
385.201	424.1
385.411	207.02
385.621	39.08
385.831	290.98
386.041	147.62
386.251	63.66
386.461	184.49
386.671	153.77
386.881	219.3
387.091	55.47
387.301	145.58
387.511	86.19
387.72	188.58
387.93	100.52
388.14	-75.6
388.35	145.58
388.56	325.8
388.769	43.18
388.979	121
389.189	24.75
389.399	211.11
389.609	41.13
389.818	84.14
390.028	237.74
390.238	141.48
390.447	-3.93
390.657	14.51
390.867	172.2
391.076	0.17
391.286	-18.26
391.496	-16.21
391.705	200.87
391.915	340.13
392.125	55.47
392.334	94.38
392.544	366.76
392.753	110.76
392.963	102.57
393.172	39.08
393.382	100.52
393.591	374.95
393.801	-69.46
394.01	77.99
394.22	305.32
394.429	213.16
394.639	67.75
394.848	90.28
395.058	241.83
395.267	192.68
395.477	82.09
395.686	75.95
395.895	546.98
396.105	383.14
396.314	112.81
396.524	116.9
396.733	125.1
396.942	354.47
397.152	80.04
397.361	174.25
397.57	198.82
397.78	192.68
397.989	151.72
398.198	262.31
398.407	168.1
398.617	166.06
398.826	86.19
399.035	20.65
399.244	227.5
399.453	215.21
399.663	-18.26
399.872	-102.23
400.081	88.23
400.29	338.09
400.499	-34.64
400.708	250.02
400.917	186.54
401.127	161.96
401.336	41.13
401.545	288.93
401.754	325.8
401.963	217.26
402.172	84.14
402.381	84.14
402.59	264.36
402.799	194.73
403.008	202.92
403.217	12.46
403.426	202.92
403.635	-3.93
403.844	-36.69
404.053	10.41
404.262	170.15
404.471	274.6
404.68	75.95
404.888	149.67
405.097	239.78
405.306	188.58
405.515	53.42
405.724	10.41
405.933	309.41
406.142	188.58
406.35	118.95
406.559	114.86
406.768	219.3
406.977	512.16
407.185	65.71
407.394	102.57
407.603	18.6
407.812	190.63
408.02	188.58
408.229	69.8
408.438	264.36
408.646	71.85
408.855	51.37
409.064	37.03
409.272	178.34
409.481	262.31
409.69	-16.21
409.898	-20.31
410.107	256.17
410.315	366.76
410.524	47.27
410.733	88.23
410.941	237.74
411.15	288.93
411.358	157.86
411.567	149.67
411.775	305.32
411.984	202.92
412.192	137.38
412.401	37.03
412.609	395.43
412.818	280.74
413.026	114.86
413.234	45.23
413.443	211.11
413.651	123.05
413.86	-89.94
414.068	239.78
414.276	501.92
414.485	157.86
414.693	166.06
414.901	250.02
415.11	254.12
415.318	223.4
415.526	143.53
415.734	178.34
415.943	309.41
416.151	348.33
416.359	-8.02
416.567	184.49
416.776	333.99
416.984	311.46
417.192	196.78
417.4	84.14
417.608	125.1
417.817	125.1
418.025	190.63
418.233	108.71
418.441	176.3
418.649	92.33
418.857	186.54
419.065	149.67
419.273	80.04
419.481	274.6
419.689	153.77
419.897	104.62
420.105	131.24
420.313	393.38
420.521	149.67
420.729	137.38
420.937	192.68
421.145	90.28
421.353	215.21
421.561	237.74
421.769	329.89
421.977	65.71
422.185	221.35
422.393	207.02
422.601	317.61
422.809	317.61
423.017	247.97
423.224	137.38
423.432	356.52
423.64	231.59
423.848	90.28
424.056	53.42
424.263	503.97
424.471	313.51
424.679	288.93
424.887	92.33
425.094	510.11
425.302	391.33
425.51	106.67
425.718	247.97
425.925	262.31
426.133	174.25
426.341	311.46
426.548	231.59
426.756	317.61
426.964	399.52
427.171	290.98
427.379	266.41
427.586	362.66
427.794	487.59
428.001	327.85
428.209	274.6
428.417	553.12
428.624	479.4
428.832	319.65
429.039	319.65
429.247	413.86
429.454	514.21
429.662	372.9
429.869	424.1
430.076	506.02
430.284	420
430.491	428.2
430.699	487.59
430.906	731.3
431.114	575.65
431.321	389.28
431.528	514.21
431.736	577.7
431.943	557.22
432.15	467.11
432.358	420
432.565	845.98
432.772	313.51
432.979	559.27
433.187	532.64
433.394	739.49
433.601	592.03
433.808	610.47
434.016	624.8
434.223	778.4
434.43	704.67
434.637	604.32
434.844	800.93
435.052	768.16
435.259	848.03
435.466	741.54
435.673	641.18
435.88	837.79
436.087	1001.63
436.294	960.67
436.501	882.85
436.708	870.56
436.915	936.09
437.122	964.76
437.329	725.15
437.537	893.09
437.743	1005.72
437.95	1040.54
438.157	940.19
438.364	1032.35
438.571	1073.31
438.778	1011.87
438.985	1114.27
439.192	1134.75
439.399	1106.07
439.606	1042.59
439.813	1237.14
440.02	1552.53
440.227	1568.91
440.433	1181.85
440.64	1185.94
440.847	1237.14
441.054	1362.07
441.261	1274.01
441.467	1386.65
441.674	1360.02
441.881	1632.4
442.088	1337.49
442.294	1452.18
442.501	1609.87
442.708	1753.23
442.914	1530
443.121	1732.75
443.328	1861.77
443.534	1968.27
443.741	1765.52
443.948	1726.61
444.154	2107.53
444.361	2287.75
444.568	2046.09
444.774	1900.69
444.981	1896.59
445.187	2214.02
445.394	2054.28
445.6	2191.5
445.807	2553.99
446.013	2459.78
446.22	2232.46
446.426	2539.65
446.633	2627.71
446.839	2924.67
447.046	2424.97
447.252	2664.58
447.459	2760.83
447.665	2967.68
447.871	2967.68
448.078	3397.75
448.284	3334.26
448.491	3375.22
448.697	3371.13
448.903	3461.24
449.11	3661.94
449.316	3565.68
449.522	3795.06
449.728	3831.92
449.935	4098.16
450.141	4089.96
450.347	4286.57
450.553	4081.77
450.76	4462.69
450.966	4624.48
451.172	4546.66
451.378	4726.88
451.584	4874.34
451.791	5294.17
451.997	5220.44
452.203	5261.4
452.409	5775.44
452.615	5722.2
452.821	5404.76
453.027	5384.28
453.233	6166.6
453.44	5875.79
453.646	5894.22
453.852	6127.69
454.058	6275.15
454.264	6613.06
454.47	6768.71
454.676	6643.78
454.882	7239.74
455.088	6772.8
455.294	6752.32
455.5	6987.84
455.705	7317.56
455.911	7417.91
456.117	7194.68
456.323	7284.8
456.529	7137.34
456.735	7753.78
456.941	7446.59
457.147	7147.58
457.352	7458.87
457.558	7536.7
457.764	7643.19
457.97	7669.81
458.176	7659.57
458.381	7692.34
458.587	7843.89
458.793	7489.59
458.999	7389.24
459.204	7946.29
459.41	7747.64
459.616	7497.78
459.821	7817.27
460.027	7538.74
460.233	7565.37
460.438	7426.11
460.644	7387.19
460.85	7335.99
461.055	7041.09
