Data from USB4F104151__54__12-36-17-296.txt Node

Date: Fri Mar 14 12:36:17 EDT 2025
User: louis
Spectrometer: USB4F10415
Trigger mode: 4
Integration Time (sec): 2.000000E-2
Scans to average: 1
Electric dark correction enabled: true
Nonlinearity correction enabled: false
Boxcar width: 0
XAxis mode: Wavelengths
Number of Pixels in Spectrum: 3648
>>>>>Begin Spectral Data<<<<<
178.204	-116.9
178.424	-116.9
178.644	-116.9
178.864	-26.79
179.084	-53.42
179.304	-22.7
179.524	32.6
179.744	-14.51
179.964	65.36
180.184	42.84
180.404	-24.75
180.624	-43.18
180.844	-18.6
181.064	5.97
181.283	32.6
181.503	-47.27
181.723	-8.36
181.943	-2.22
182.163	102.23
182.383	67.41
182.602	46.93
182.822	34.64
183.042	53.08
183.262	48.98
183.482	-32.94
183.701	-34.99
183.921	5.97
184.141	-8.36
184.361	51.03
184.58	-18.6
184.8	34.64
185.02	102.23
185.239	5.97
185.459	53.08
185.679	100.18
185.898	12.12
186.118	-10.41
186.338	-0.17
186.557	-26.79
186.777	-12.46
186.997	-10.41
187.216	30.55
187.436	18.26
187.655	12.12
187.875	34.64
188.095	98.13
188.314	20.31
188.534	-14.51
188.753	-45.23
188.973	-18.6
189.192	-14.51
189.412	16.21
189.631	100.18
189.851	-14.51
190.07	34.64
190.29	-10.41
190.509	-18.6
190.729	-6.31
190.948	10.07
191.168	69.46
191.387	12.12
191.607	-26.79
191.826	75.6
192.045	57.17
192.265	-45.23
192.484	-4.27
192.704	20.31
192.923	-22.7
193.142	40.79
193.362	-2.22
193.581	36.69
193.8	36.69
194.02	-10.41
194.239	-20.65
194.458	18.26
194.678	69.46
194.897	87.89
195.116	71.51
195.335	16.21
195.555	40.79
195.774	5.97
195.993	20.31
196.212	44.88
196.432	89.94
196.651	24.4
196.87	-32.94
197.089	20.31
197.308	67.41
197.528	53.08
197.747	-51.37
197.966	87.89
198.185	-12.46
198.404	-34.99
198.623	57.17
198.842	-28.84
199.062	38.74
199.281	48.98
199.5	3.93
199.719	22.36
199.938	104.28
200.157	67.41
200.376	34.64
200.595	1.88
200.814	69.46
201.033	-26.79
201.252	-22.7
201.471	28.5
201.69	16.21
201.909	108.37
202.128	40.79
202.347	20.31
202.566	38.74
202.785	1.88
203.004	65.36
203.223	59.22
203.442	44.88
203.661	-37.03
203.879	-90.28
204.098	-59.56
204.317	34.64
204.536	36.69
204.755	-2.22
204.974	26.45
205.193	-61.61
205.411	14.17
205.63	16.21
205.849	-16.55
206.068	22.36
206.287	16.21
206.505	48.98
206.724	10.07
206.943	10.07
207.162	-4.27
207.381	12.12
207.599	16.21
207.818	77.65
208.037	12.12
208.255	3.93
208.474	16.21
208.693	14.17
208.911	-6.31
209.13	71.51
209.349	48.98
209.567	77.65
209.786	40.79
210.005	14.17
210.223	1.88
210.442	-100.52
210.661	46.93
210.879	14.17
211.098	3.93
211.316	79.7
211.535	44.88
211.753	-24.75
211.972	26.45
212.191	12.12
212.409	46.93
212.628	10.07
212.846	32.6
213.065	-0.17
213.283	44.88
213.502	18.26
213.72	77.65
213.938	-45.23
214.157	28.5
214.375	-47.27
214.594	-32.94
214.812	77.65
215.031	12.12
215.249	53.08
215.467	-59.56
215.686	48.98
215.904	26.45
216.122	14.17
216.341	42.84
216.559	24.4
216.778	8.02
216.996	12.12
217.214	-4.27
217.432	-30.89
217.651	8.02
217.869	12.12
218.087	36.69
218.306	-26.79
218.524	55.12
218.742	-55.47
218.96	-6.31
219.179	-47.27
219.397	85.84
219.615	-39.08
219.833	40.79
220.051	-61.61
220.27	53.08
220.488	57.17
220.706	-8.36
220.924	63.32
221.142	40.79
221.36	8.02
221.578	-51.37
221.796	38.74
222.015	3.93
222.233	69.46
222.451	30.55
222.669	-41.13
222.887	-4.27
223.105	-22.7
223.323	98.13
223.541	-92.33
223.759	48.98
223.977	8.02
224.195	53.08
224.413	36.69
224.631	-8.36
224.849	-30.89
225.067	24.4
225.285	46.93
225.503	-47.27
225.721	-75.95
225.939	87.89
226.157	-4.27
226.375	24.4
226.592	36.69
226.81	32.6
227.028	3.93
227.246	26.45
227.464	30.55
227.682	55.12
227.9	34.64
228.117	18.26
228.335	-8.36
228.553	-16.55
228.771	42.84
228.989	-12.46
229.206	16.21
229.424	100.18
229.642	57.17
229.86	-16.55
230.077	16.21
230.295	24.4
230.513	22.36
230.731	83.8
230.948	-26.79
231.166	32.6
231.384	-73.9
231.601	-26.79
231.819	38.74
232.037	-12.46
232.254	-49.32
232.472	-22.7
232.689	-67.75
232.907	-43.18
233.125	51.03
233.342	16.21
233.56	-34.99
233.777	1.88
233.995	-12.46
234.213	16.21
234.43	34.64
234.648	44.88
234.865	-53.42
235.083	-0.17
235.3	-63.66
235.518	-14.51
235.735	-2.22
235.953	30.55
236.17	63.32
236.388	28.5
236.605	5.97
236.822	55.12
237.04	34.64
237.257	71.51
237.475	-53.42
237.692	8.02
237.909	14.17
238.127	-4.27
238.344	16.21
238.562	53.08
238.779	-16.55
238.996	-26.79
239.214	79.7
239.431	-18.6
239.648	14.17
239.865	-18.6
240.083	69.46
240.3	-20.65
240.517	26.45
240.735	18.26
240.952	18.26
241.169	100.18
241.386	18.26
241.603	-2.22
241.821	10.07
242.038	71.51
242.255	-6.31
242.472	-41.13
242.689	14.17
242.907	65.36
243.124	-20.65
243.341	-22.7
243.558	14.17
243.775	-10.41
243.992	-39.08
244.209	3.93
244.426	-24.75
244.643	51.03
244.86	-16.55
245.078	14.17
245.295	16.21
245.512	44.88
245.729	-0.17
245.946	-6.31
246.163	22.36
246.38	-10.41
246.597	106.32
246.814	65.36
247.031	34.64
247.248	32.6
247.464	24.4
247.681	12.12
247.898	22.36
248.115	-10.41
248.332	-20.65
248.549	-47.27
248.766	110.42
248.983	36.69
249.2	32.6
249.417	53.08
249.633	44.88
249.85	-41.13
250.067	8.02
250.284	44.88
250.501	16.21
250.717	89.94
250.934	-18.6
251.151	28.5
251.368	-26.79
251.585	85.84
251.801	55.12
252.018	48.98
252.235	24.4
252.451	-32.94
252.668	-20.65
252.885	51.03
253.102	46.93
253.318	-26.79
253.535	-8.36
253.752	12.12
253.968	-20.65
254.185	63.32
254.401	-6.31
254.618	53.08
254.835	-45.23
255.051	34.64
255.268	14.17
255.484	5.97
255.701	75.6
255.917	28.5
256.134	3.93
256.351	10.07
256.567	-30.89
256.784	34.64
257	-10.41
257.217	59.22
257.433	20.31
257.65	10.07
257.866	65.36
258.082	-26.79
258.299	-20.65
258.515	46.93
258.732	26.45
258.948	-8.36
259.165	46.93
259.381	-28.84
259.597	73.56
259.814	22.36
260.03	-6.31
260.246	-16.55
260.463	24.4
260.679	122.71
260.895	94.04
261.112	108.37
261.328	-10.41
261.544	-14.51
261.761	94.04
261.977	51.03
262.193	-37.03
262.409	-22.7
262.626	55.12
262.842	18.26
263.058	-32.94
263.274	-4.27
263.49	1.88
263.707	16.21
263.923	48.98
264.139	-8.36
264.355	149.33
264.571	-18.6
264.787	12.12
265.004	18.26
265.22	46.93
265.436	-22.7
265.652	44.88
265.868	42.84
266.084	-0.17
266.3	36.69
266.516	-14.51
266.732	42.84
266.948	30.55
267.164	-2.22
267.38	91.99
267.596	67.41
267.812	63.32
268.028	75.6
268.244	59.22
268.46	83.8
268.676	-22.7
268.892	46.93
269.108	-22.7
269.324	-26.79
269.54	22.36
269.756	20.31
269.972	-51.37
270.188	-8.36
270.403	-63.66
270.619	20.31
270.835	20.31
271.051	87.89
271.267	3.93
271.483	40.79
271.698	63.32
271.914	-10.41
272.13	20.31
272.346	20.31
272.562	28.5
272.777	14.17
272.993	-6.31
273.209	46.93
273.425	-28.84
273.64	-20.65
273.856	5.97
274.072	1.88
274.287	16.21
274.503	-18.6
274.719	32.6
274.934	38.74
275.15	-80.04
275.366	36.69
275.581	-77.99
275.797	48.98
276.012	10.07
276.228	-20.65
276.444	44.88
276.659	12.12
276.875	-41.13
277.09	-39.08
277.306	-4.27
277.521	-4.27
277.737	26.45
277.952	46.93
278.168	18.26
278.383	24.4
278.599	14.17
278.814	46.93
279.03	-6.31
279.245	14.17
279.461	55.12
279.676	44.88
279.892	-39.08
280.107	40.79
280.322	8.02
280.538	51.03
280.753	-28.84
280.969	71.51
281.184	81.75
281.399	-16.55
281.615	36.69
281.83	120.66
282.045	55.12
282.26	30.55
282.476	5.97
282.691	71.51
282.906	18.26
283.122	75.6
283.337	-10.41
283.552	20.31
283.767	-102.57
283.983	87.89
284.198	-28.84
284.413	38.74
284.628	28.5
284.843	-18.6
285.058	69.46
285.274	53.08
285.489	22.36
285.704	12.12
285.919	-12.46
286.134	-24.75
286.349	38.74
286.564	-4.27
286.779	48.98
286.995	38.74
287.21	-10.41
287.425	100.18
287.64	8.02
287.855	10.07
288.07	20.31
288.285	67.41
288.5	46.93
288.715	24.4
288.93	53.08
289.145	28.5
289.36	14.17
289.575	-30.89
289.79	20.31
290.004	-12.46
290.219	30.55
290.434	-4.27
290.649	10.07
290.864	51.03
291.079	1.88
291.294	63.32
291.509	-26.79
291.724	-6.31
291.938	-10.41
292.153	16.21
292.368	-4.27
292.583	-4.27
292.798	22.36
293.012	24.4
293.227	-22.7
293.442	8.02
293.657	75.6
293.871	-49.32
294.086	22.36
294.301	16.21
294.516	-22.7
294.73	-34.99
294.945	77.65
295.16	-4.27
295.374	26.45
295.589	63.32
295.804	10.07
296.018	-63.66
296.233	-12.46
296.447	-14.51
296.662	38.74
296.877	26.45
297.091	38.74
297.306	65.36
297.52	22.36
297.735	63.32
297.949	-34.99
298.164	30.55
298.378	-28.84
298.593	42.84
298.807	8.02
299.022	79.7
299.236	57.17
299.451	79.7
299.665	71.51
299.88	73.56
300.094	-0.17
300.309	-49.32
300.523	18.26
300.737	26.45
300.952	-37.03
301.166	40.79
301.381	-20.65
301.595	24.4
301.809	1.88
302.024	44.88
302.238	-8.36
302.452	-6.31
302.667	44.88
302.881	36.69
303.095	24.4
303.309	-2.22
303.524	-12.46
303.738	12.12
303.952	55.12
304.166	-8.36
304.381	-14.51
304.595	48.98
304.809	44.88
305.023	69.46
305.237	-63.66
305.452	38.74
305.666	-12.46
305.88	94.04
306.094	-16.55
306.308	-10.41
306.522	-10.41
306.736	57.17
306.95	-55.47
307.164	-28.84
307.379	34.64
307.593	16.21
307.807	44.88
308.021	-14.51
308.235	-8.36
308.449	-2.22
308.663	-20.65
308.877	48.98
309.091	5.97
309.305	36.69
309.519	-57.51
309.733	51.03
309.947	-34.99
310.161	57.17
310.374	48.98
310.588	-4.27
310.802	-6.31
311.016	-24.75
311.23	55.12
311.444	24.4
311.658	8.02
311.872	65.36
312.085	-14.51
312.299	18.26
312.513	61.27
312.727	-47.27
312.941	26.45
313.154	26.45
313.368	-26.79
313.582	61.27
313.796	-28.84
314.009	-4.27
314.223	12.12
314.437	5.97
314.651	57.17
314.864	3.93
315.078	-12.46
315.292	3.93
315.505	100.18
315.719	71.51
315.933	65.36
316.146	20.31
316.36	48.98
316.573	77.65
316.787	24.4
317.001	57.17
317.214	-34.99
317.428	67.41
317.641	-77.99
317.855	20.31
318.068	5.97
318.282	46.93
318.495	63.32
318.709	40.79
318.922	36.69
319.136	44.88
319.349	10.07
319.563	8.02
319.776	16.21
319.99	-43.18
320.203	-18.6
320.417	71.51
320.63	1.88
320.843	71.51
321.057	51.03
321.27	-6.31
321.483	61.27
321.697	36.69
321.91	44.88
322.124	-20.65
322.337	55.12
322.55	63.32
322.763	-43.18
322.977	89.94
323.19	-26.79
323.403	14.17
323.617	87.89
323.83	69.46
324.043	-0.17
324.256	16.21
324.469	-2.22
324.683	61.27
324.896	1.88
325.109	-6.31
325.322	71.51
325.535	104.28
325.748	-2.22
325.962	-20.65
326.175	-10.41
326.388	20.31
326.601	20.31
326.814	14.17
327.027	-53.42
327.24	44.88
327.453	-51.37
327.666	12.12
327.879	32.6
328.092	18.26
328.305	69.46
328.518	28.5
328.731	44.88
328.944	55.12
329.157	65.36
329.37	16.21
329.583	36.69
329.796	61.27
330.009	-69.8
330.222	-10.41
330.435	87.89
330.648	42.84
330.861	-0.17
331.073	46.93
331.286	24.4
331.499	-30.89
331.712	3.93
331.925	-16.55
332.138	112.47
332.35	53.08
332.563	3.93
332.776	65.36
332.989	-26.79
333.202	14.17
333.414	32.6
333.627	94.04
333.84	12.12
334.053	51.03
334.265	94.04
334.478	28.5
334.691	10.07
334.903	-6.31
335.116	20.31
335.329	16.21
335.541	57.17
335.754	14.17
335.966	71.51
336.179	63.32
336.392	3.93
336.604	-26.79
336.817	38.74
337.029	-43.18
337.242	14.17
337.454	53.08
337.667	-6.31
337.88	34.64
338.092	-34.99
338.305	69.46
338.517	28.5
338.729	63.32
338.942	63.32
339.154	63.32
339.367	-24.75
339.579	8.02
339.792	1.88
340.004	46.93
340.217	-10.41
340.429	120.66
340.641	51.03
340.854	12.12
341.066	102.23
341.278	-6.31
341.491	71.51
341.703	42.84
341.915	-39.08
342.128	112.47
342.34	18.26
342.552	22.36
342.764	61.27
342.977	32.6
343.189	-16.55
343.401	28.5
343.613	-61.61
343.826	-24.75
344.038	-6.31
344.25	1.88
344.462	22.36
344.674	-20.65
344.886	28.5
345.099	36.69
345.311	51.03
345.523	-47.27
345.735	1.88
345.947	-18.6
346.159	46.93
346.371	-10.41
346.583	-22.7
346.795	71.51
347.007	20.31
347.219	46.93
347.431	55.12
347.643	61.27
347.855	-57.51
348.067	48.98
348.279	18.26
348.491	5.97
348.703	53.08
348.915	32.6
349.127	-10.41
349.339	-18.6
349.551	18.26
349.763	24.4
349.975	-10.41
350.187	112.47
350.399	30.55
350.61	69.46
350.822	-24.75
351.034	67.41
351.246	48.98
351.458	-8.36
351.669	32.6
351.881	38.74
352.093	22.36
352.305	22.36
352.517	26.45
352.728	51.03
352.94	-34.99
353.152	53.08
353.363	-28.84
353.575	48.98
353.787	36.69
353.999	67.41
354.21	-22.7
354.422	-10.41
354.633	63.32
354.845	36.69
355.057	57.17
355.268	-45.23
355.48	128.85
355.692	-18.6
355.903	53.08
356.115	53.08
356.326	73.56
356.538	48.98
356.749	14.17
356.961	57.17
357.172	-49.32
357.384	-10.41
357.595	-16.55
357.807	61.27
358.018	57.17
358.23	16.21
358.441	38.74
358.653	8.02
358.864	28.5
359.075	10.07
359.287	22.36
359.498	63.32
359.709	-8.36
359.921	20.31
360.132	20.31
360.344	-39.08
360.555	36.69
360.766	94.04
360.977	-43.18
361.189	100.18
361.4	-34.99
361.611	69.46
361.823	77.65
362.034	1.88
362.245	-26.79
362.456	44.88
362.667	48.98
362.879	61.27
363.09	77.65
363.301	40.79
363.512	89.94
363.723	28.5
363.935	44.88
364.146	65.36
364.357	-45.23
364.568	26.45
364.779	-45.23
364.99	44.88
365.201	16.21
365.412	28.5
365.623	-6.31
365.834	32.6
366.045	-16.55
366.256	98.13
366.467	28.5
366.678	-59.56
366.889	12.12
367.1	-0.17
367.311	-34.99
367.522	44.88
367.733	59.22
367.944	83.8
368.155	-34.99
368.366	67.41
368.577	22.36
368.788	65.36
368.999	8.02
369.209	87.89
369.42	28.5
369.631	118.61
369.842	42.84
370.053	53.08
370.264	-22.7
370.474	61.27
370.685	10.07
370.896	-6.31
371.107	143.19
371.317	75.6
371.528	77.65
371.739	-0.17
371.95	26.45
372.16	-34.99
372.371	71.51
372.582	53.08
372.792	-34.99
373.003	-37.03
373.214	-24.75
373.424	20.31
373.635	32.6
373.846	46.93
374.056	22.36
374.267	36.69
374.477	40.79
374.688	-2.22
374.898	22.36
375.109	-2.22
375.319	38.74
375.53	85.84
375.74	26.45
375.951	20.31
376.161	40.79
376.372	71.51
376.582	96.08
376.793	10.07
377.003	12.12
377.214	73.56
377.424	48.98
377.635	53.08
377.845	-34.99
378.055	44.88
378.266	-61.61
378.476	44.88
378.686	65.36
378.897	61.27
379.107	75.6
379.317	44.88
379.528	48.98
379.738	59.22
379.948	12.12
380.158	26.45
380.369	114.52
380.579	87.89
380.789	38.74
380.999	100.18
381.21	61.27
381.42	46.93
381.63	20.31
381.84	106.32
382.05	18.26
382.261	87.89
382.471	65.36
382.681	59.22
382.891	-2.22
383.101	-22.7
383.311	-32.94
383.521	1.88
383.731	79.7
383.941	16.21
384.151	77.65
384.361	1.88
384.571	40.79
384.781	94.04
384.991	30.55
385.201	14.17
385.411	57.17
385.621	44.88
385.831	67.41
386.041	108.37
386.251	87.89
386.461	132.95
386.671	51.03
386.881	3.93
387.091	-24.75
387.301	46.93
387.511	69.46
387.72	26.45
387.93	114.52
388.14	1.88
388.35	38.74
388.56	79.7
388.769	71.51
388.979	42.84
389.189	79.7
389.399	-8.36
389.609	34.64
389.818	12.12
390.028	79.7
390.238	61.27
390.447	42.84
390.657	20.31
390.867	-59.56
391.076	3.93
391.286	46.93
391.496	73.56
391.705	14.17
391.915	89.94
392.125	46.93
392.334	-61.61
392.544	44.88
392.753	14.17
392.963	32.6
393.172	69.46
393.382	-39.08
393.591	38.74
393.801	8.02
394.01	46.93
394.22	102.23
394.429	87.89
394.639	36.69
394.848	59.22
395.058	59.22
395.267	38.74
395.477	32.6
395.686	44.88
395.895	-0.17
396.105	36.69
396.314	63.32
396.524	24.4
396.733	71.51
396.942	61.27
397.152	81.75
397.361	61.27
397.57	77.65
397.78	51.03
397.989	42.84
398.198	120.66
398.407	96.08
398.617	28.5
398.826	55.12
399.035	61.27
399.244	63.32
399.453	67.41
399.663	108.37
399.872	46.93
400.081	5.97
400.29	122.71
400.499	18.26
400.708	63.32
400.917	55.12
401.127	46.93
401.336	55.12
401.545	120.66
401.754	69.46
401.963	44.88
402.172	55.12
402.381	38.74
402.59	116.56
402.799	91.99
403.008	87.89
403.217	96.08
403.426	128.85
403.635	108.37
403.844	71.51
404.053	87.89
404.262	71.51
404.471	71.51
404.68	55.12
404.888	87.89
405.097	81.75
405.306	106.32
405.515	153.43
405.724	126.8
405.933	51.03
406.142	118.61
406.35	1.88
406.559	69.46
406.768	77.65
406.977	91.99
407.185	112.47
407.394	10.07
407.603	57.17
407.812	77.65
408.02	89.94
408.229	42.84
408.438	73.56
408.646	85.84
408.855	180.05
409.064	89.94
409.272	149.33
409.481	159.57
409.69	100.18
409.898	73.56
410.107	122.71
410.315	141.14
410.524	124.76
410.733	110.42
410.941	216.91
411.15	157.52
411.358	135
411.567	173.91
411.775	186.19
411.984	214.87
412.192	186.19
412.401	221.01
412.609	171.86
412.818	241.49
413.026	286.54
413.234	202.58
413.443	241.49
413.651	239.44
413.86	206.67
414.068	261.97
414.276	352.08
414.485	200.53
414.693	223.06
414.901	278.35
415.11	296.78
415.318	300.88
415.526	300.88
415.734	347.98
415.943	341.84
416.151	374.61
416.359	341.84
416.567	401.23
416.776	302.93
416.984	460.62
417.192	376.66
417.4	436.05
417.608	524.11
417.817	462.67
418.025	509.77
418.233	530.25
418.441	540.49
418.649	517.97
418.857	558.92
419.065	614.22
419.273	479.05
419.481	595.79
419.689	595.79
419.897	608.08
420.105	689.99
420.313	710.47
420.521	714.57
420.729	769.87
420.937	776.01
421.145	810.82
421.353	792.39
421.561	945.99
421.769	884.55
421.977	929.61
422.185	960.33
422.393	909.13
422.601	976.71
422.809	1034.05
423.017	1056.58
423.224	1118.02
423.432	1085.25
423.64	1150.79
423.848	1189.7
424.056	1214.27
424.263	1349.44
424.471	1201.99
424.679	1331.01
424.887	1376.06
425.094	1480.51
425.302	1490.75
425.51	1539.9
425.718	1511.23
425.925	1546.05
426.133	1730.36
426.341	1724.22
426.548	1802.04
426.756	1756.99
426.964	1900.34
427.171	1902.39
427.379	2023.22
427.586	1994.55
427.794	2021.17
428.001	2240.31
428.209	2348.85
428.417	2234.16
428.624	2342.71
428.832	2430.77
429.039	2334.51
429.247	2453.3
429.454	2721.58
429.662	2768.68
429.869	2545.45
430.076	2877.23
430.284	2662.19
430.491	2875.18
430.699	3061.54
430.906	3016.49
431.114	3079.97
431.321	3059.49
431.528	3204.9
431.736	3430.18
431.943	3540.77
432.15	3495.71
432.358	3487.52
432.565	3700.51
432.772	3659.55
432.979	3753.76
433.187	3895.07
433.394	3929.88
433.601	4198.17
433.808	4210.45
434.016	4255.51
434.223	4269.84
434.43	4779.79
434.637	4544.27
434.844	4839.18
435.052	5009.16
435.259	4880.14
435.466	5021.45
435.673	4998.92
435.88	5187.33
436.087	5441.28
436.294	5641.98
436.501	5332.74
436.708	5635.84
436.915	5584.64
437.122	5934.84
437.329	5900.03
437.537	6035.19
437.743	6166.26
437.95	6285.05
438.157	6665.97
438.364	6815.47
438.571	6649.58
438.778	6838
438.985	7374.56
439.192	7120.62
439.399	7223.02
439.606	7272.17
439.813	7595.75
440.02	8074.97
440.227	8015.58
440.433	7741.15
440.64	7978.72
440.847	7845.6
441.054	8154.84
441.261	8795.86
441.467	8713.94
441.674	8709.84
441.881	9080.52
442.088	9098.95
442.294	9084.62
442.501	9354.95
442.708	9572.04
442.914	9785.02
443.121	10258.1
443.328	9983.68
443.534	10733.23
443.741	10368.7
443.948	10370.74
444.154	10983.09
444.361	10880.69
444.568	11165.35
444.774	10991.28
444.981	11167.4
445.187	11376.3
445.394	11873.95
445.6	11878.05
445.807	13082.25
446.013	12410.52
446.22	12543.64
446.426	12930.7
446.633	13033.1
446.839	13614.73
447.046	13239.95
447.252	13975.17
447.459	13997.7
447.665	13803.14
447.871	14380.67
448.078	15197.81
448.284	14157.44
448.491	14622.33
448.697	15369.83
448.903	15537.77
449.11	15597.16
449.316	15349.36
449.522	15801.96
449.728	15994.47
449.935	16354.91
450.141	16270.94
450.347	16606.81
450.553	16045.66
450.76	16328.28
450.966	16967.25
451.172	16823.89
451.378	17296.97
451.584	16858.71
451.791	17321.55
451.997	17116.75
452.203	17395.28
452.409	17528.39
452.615	17382.99
452.821	16850.52
453.027	16592.47
453.233	17464.91
453.44	16791.13
453.646	16995.92
453.852	17051.22
454.058	17473.1
454.264	16991.83
454.47	17092.18
454.676	16602.71
454.882	17473.1
455.088	15869.54
455.294	16008.8
455.5	16236.13
455.705	16272.99
455.911	15572.58
456.117	15541.86
456.323	15042.16
456.529	14759.54
456.735	15177.33
456.941	14777.97
457.147	14339.71
457.352	13837.95
457.558	13751.94
457.764	13813.38
457.97	13596.29
458.176	13319.82
458.381	13465.22
458.587	12623.51
458.793	12801.68
458.999	11937.44
459.204	12936.85
459.41	12508.82
459.616	11679.4
459.821	11722.4
460.027	11640.48
460.233	11171.5
460.438	10796.72
460.644	10938.03
460.85	10305.21
461.055	10305.21
461.261	10243.77
461.466	9498.31
461.672	9248.46
461.878	10028.73
462.083	9256.65
462.289	8924.88
462.494	8826.57
462.7	8593.11
462.905	8316.63
463.111	8664.79
463.316	8877.77
463.522	8478.42
463.727	8382.17
463.932	8353.49
464.138	8351.45
464.343	8333.01
464.549	8120.03
464.754	8330.97
464.959	8220.38
465.165	8343.25
465.37	7925.47
465.575	7646.94
465.781	8167.13
465.986	7943.9
466.191	7737.06
466.397	7575.27
466.602	7276.26
466.807	7601.89
467.012	7519.97
467.218	7390.95
467.423	7315.17
467.628	7438.05
467.833	7657.18
468.038	7499.49
