Data from USB4F104151__1__12-34-44-907.txt Node

Date: Fri Mar 14 12:34:44 EDT 2025
User: louis
Spectrometer: USB4F10415
Trigger mode: 4
Integration Time (sec): 2.000000E-2
Scans to average: 1
Electric dark correction enabled: true
Nonlinearity correction enabled: false
Boxcar width: 0
XAxis mode: Wavelengths
Number of Pixels in Spectrum: 3648
>>>>>Begin Spectral Data<<<<<
178.204	-81.07
178.424	-81.07
178.644	-81.07
178.864	-97.45
179.084	-175.27
179.304	31.57
179.524	-64.68
179.744	-5.29
179.964	50
180.184	56.15
180.404	-17.58
180.624	-9.39
180.844	-5.29
181.064	9.05
181.283	21.33
181.503	-27.82
181.723	-38.06
181.943	-38.06
182.163	11.09
182.383	9.05
182.602	23.38
182.822	35.67
183.042	-76.97
183.262	37.72
183.482	58.2
183.701	-29.87
183.921	-21.67
184.141	2.9
184.361	33.62
184.58	-9.39
184.8	82.77
185.02	-1.19
185.239	-11.43
185.459	-13.48
185.679	9.05
185.898	-38.06
186.118	-23.72
186.338	80.72
186.557	-3.24
186.777	-5.29
186.997	29.52
187.216	-54.44
187.436	58.2
187.655	-5.29
187.875	-13.48
188.095	31.57
188.314	60.24
188.534	-62.63
188.753	23.38
188.973	-21.67
189.192	47.96
189.412	19.29
189.631	54.1
189.851	-36.01
190.07	33.62
190.29	-1.19
190.509	64.34
190.729	-66.73
190.948	43.86
191.168	113.49
191.387	58.2
191.607	-46.25
191.826	80.72
192.045	-25.77
192.265	-7.34
192.484	19.29
192.704	54.1
192.923	31.57
193.142	111.44
193.362	31.57
193.581	17.24
193.8	31.57
194.02	58.2
194.239	11.09
194.458	43.86
194.678	2.9
194.897	-23.72
195.116	25.43
195.335	80.72
195.555	41.81
195.774	-13.48
195.993	-29.87
196.212	80.72
196.432	64.34
196.651	80.72
196.87	11.09
197.089	27.48
197.308	62.29
197.528	-13.48
197.747	33.62
197.966	0.85
198.185	19.29
198.404	31.57
198.623	90.96
198.842	-5.29
199.062	23.38
199.281	140.12
199.5	-9.39
199.719	-23.72
199.938	56.15
200.157	31.57
200.376	33.62
200.595	90.96
200.814	90.96
201.033	17.24
201.252	88.92
201.471	60.24
201.69	15.19
201.909	78.68
202.128	21.33
202.347	72.53
202.566	-58.54
202.785	13.14
203.004	25.43
203.223	68.44
203.442	-5.29
203.661	50
203.879	23.38
204.098	64.34
204.317	-11.43
204.536	64.34
204.755	54.1
204.974	21.33
205.193	136.02
205.411	4.95
205.63	19.29
205.849	19.29
206.068	29.52
206.287	-50.35
206.505	33.62
206.724	58.2
206.943	37.72
207.162	19.29
207.381	41.81
207.599	50
207.818	39.76
208.037	-33.96
208.255	41.81
208.474	9.05
208.693	58.2
208.911	-17.58
209.13	13.14
209.349	52.05
209.567	29.52
209.786	11.09
210.005	84.82
210.223	-9.39
210.442	-19.63
210.661	15.19
210.879	88.92
211.098	17.24
211.316	66.39
211.535	25.43
211.753	-9.39
211.972	23.38
212.191	13.14
212.409	-21.67
212.628	2.9
212.846	84.82
213.065	-27.82
213.283	-13.48
213.502	82.77
213.72	103.25
213.938	11.09
214.157	-13.48
214.375	88.92
214.594	-13.48
214.812	76.63
215.031	17.24
215.249	64.34
215.467	-19.63
215.686	84.82
215.904	101.2
216.122	17.24
216.341	50
216.559	-1.19
216.778	47.96
216.996	90.96
217.214	-5.29
217.432	74.58
217.651	47.96
217.869	-5.29
218.087	9.05
218.306	2.9
218.524	50
218.742	-36.01
218.96	80.72
219.179	37.72
219.397	82.77
219.615	101.2
219.833	37.72
220.051	86.87
220.27	66.39
220.488	35.67
220.706	27.48
220.924	-5.29
221.142	43.86
221.36	27.48
221.578	27.48
221.796	52.05
222.015	70.48
222.233	-21.67
222.451	23.38
222.669	-99.5
222.887	43.86
223.105	54.1
223.323	7
223.541	27.48
223.759	62.29
223.977	25.43
224.195	-21.67
224.413	9.05
224.631	17.24
224.849	-11.43
225.067	25.43
225.285	2.9
225.503	62.29
225.721	-33.96
225.939	13.14
226.157	62.29
226.375	111.44
226.592	-3.24
226.81	33.62
227.028	13.14
227.246	-7.34
227.464	66.39
227.682	62.29
227.9	-3.24
228.117	29.52
228.335	39.76
228.553	37.72
228.771	60.24
228.989	45.91
229.206	-33.96
229.424	23.38
229.642	-11.43
229.86	-1.19
230.077	64.34
230.295	52.05
230.513	21.33
230.731	47.96
230.948	58.2
231.166	78.68
231.384	-1.19
231.601	17.24
231.819	74.58
232.037	0.85
232.254	33.62
232.472	43.86
232.689	35.67
232.907	62.29
233.125	25.43
233.342	-1.19
233.56	-52.39
233.777	-23.72
233.995	43.86
234.213	23.38
234.43	23.38
234.648	50
234.865	39.76
235.083	2.9
235.3	64.34
235.518	103.25
235.735	33.62
235.953	52.05
236.17	64.34
236.388	37.72
236.605	17.24
236.822	41.81
237.04	23.38
237.257	31.57
237.475	41.81
237.692	-25.77
237.909	27.48
238.127	-9.39
238.344	80.72
238.562	35.67
238.779	-23.72
238.996	56.15
239.214	45.91
239.431	76.63
239.648	-23.72
239.865	47.96
240.083	-36.01
240.3	2.9
240.517	25.43
240.735	13.14
240.952	21.33
241.169	15.19
241.386	39.76
241.603	17.24
241.821	-1.19
242.038	43.86
242.255	60.24
242.472	-1.19
242.689	-25.77
242.907	15.19
243.124	37.72
243.341	52.05
243.558	-9.39
243.775	47.96
243.992	21.33
244.209	72.53
244.426	60.24
244.643	-7.34
244.86	-15.53
245.078	33.62
245.295	39.76
245.512	47.96
245.729	-33.96
245.946	25.43
246.163	25.43
246.38	39.76
246.597	27.48
246.814	-5.29
247.031	-36.01
247.248	62.29
247.464	58.2
247.681	68.44
247.898	29.52
248.115	0.85
248.332	-7.34
248.549	64.34
248.766	45.91
248.983	25.43
249.2	45.91
249.417	47.96
249.633	-50.35
249.85	64.34
250.067	-11.43
250.284	60.24
250.501	19.29
250.717	31.57
250.934	-29.87
251.151	62.29
251.368	129.88
251.585	76.63
251.801	74.58
252.018	-9.39
252.235	-3.24
252.451	54.1
252.668	35.67
252.885	23.38
253.102	37.72
253.318	4.95
253.535	-11.43
253.752	23.38
253.968	29.52
254.185	-54.44
254.401	11.09
254.618	27.48
254.835	33.62
255.051	78.68
255.268	27.48
255.484	-11.43
255.701	50
255.917	43.86
256.134	60.24
256.351	-60.59
256.567	-5.29
256.784	43.86
257	15.19
257.217	31.57
257.433	29.52
257.65	-21.67
257.866	11.09
258.082	37.72
258.299	35.67
258.515	80.72
258.732	0.85
258.948	-17.58
259.165	31.57
259.381	-91.31
259.597	52.05
259.814	64.34
260.03	-52.39
260.246	45.91
260.463	35.67
260.679	19.29
260.895	74.58
261.112	29.52
261.328	0.85
261.544	-7.34
261.761	23.38
261.977	37.72
262.193	-23.72
262.409	-50.35
262.626	56.15
262.842	31.57
263.058	2.9
263.274	76.63
263.49	-11.43
263.707	4.95
263.923	4.95
264.139	27.48
264.355	31.57
264.571	133.97
264.787	27.48
265.004	-15.53
265.22	-23.72
265.436	64.34
265.652	9.05
265.868	47.96
266.084	-5.29
266.3	58.2
266.516	7
266.732	-21.67
266.948	-3.24
267.164	25.43
267.38	21.33
267.596	84.82
267.812	66.39
268.028	21.33
268.244	-31.91
268.46	2.9
268.676	64.34
268.892	-40.11
269.108	43.86
269.324	17.24
269.54	97.11
269.756	-29.87
269.972	23.38
270.188	80.72
270.403	15.19
270.619	74.58
270.835	15.19
271.051	17.24
271.267	-9.39
271.483	37.72
271.698	17.24
271.914	41.81
272.13	99.16
272.346	84.82
272.562	17.24
272.777	136.02
272.993	-17.58
273.209	19.29
273.425	80.72
273.64	33.62
273.856	-50.35
274.072	29.52
274.287	25.43
274.503	31.57
274.719	58.2
274.934	15.19
275.15	-36.01
275.366	52.05
275.581	11.09
275.797	21.33
276.012	4.95
276.228	-40.11
276.444	72.53
276.659	68.44
276.875	-36.01
277.09	-7.34
277.306	-50.35
277.521	144.21
277.737	13.14
277.952	4.95
278.168	25.43
278.383	70.48
278.599	21.33
278.814	66.39
279.03	68.44
279.245	86.87
279.461	-1.19
279.676	29.52
279.892	88.92
280.107	68.44
280.322	-3.24
280.538	88.92
280.753	-3.24
280.969	74.58
281.184	50
281.399	-3.24
281.615	117.59
281.83	23.38
282.045	-21.67
282.26	56.15
282.476	50
282.691	31.57
282.906	99.16
283.122	39.76
283.337	41.81
283.552	90.96
283.767	17.24
283.983	52.05
284.198	-11.43
284.413	-7.34
284.628	35.67
284.843	70.48
285.058	31.57
285.274	70.48
285.489	88.92
285.704	-5.29
285.919	-38.06
286.134	-33.96
286.349	2.9
286.564	82.77
286.779	-11.43
286.995	-17.58
287.21	-11.43
287.425	45.91
287.64	-17.58
287.855	64.34
288.07	-40.11
288.285	72.53
288.5	23.38
288.715	-29.87
288.93	56.15
289.145	9.05
289.36	84.82
289.575	0.85
289.79	50
290.004	17.24
290.219	17.24
290.434	78.68
290.649	9.05
290.864	31.57
291.079	105.3
291.294	37.72
291.509	2.9
291.724	9.05
291.938	0.85
292.153	9.05
292.368	58.2
292.583	95.06
292.798	31.57
293.012	47.96
293.227	-1.19
293.442	84.82
293.657	-40.11
293.871	-25.77
294.086	97.11
294.301	66.39
294.516	68.44
294.73	39.76
294.945	15.19
295.16	86.87
295.374	88.92
295.589	15.19
295.804	70.48
296.018	9.05
296.233	76.63
296.447	60.24
296.662	43.86
296.877	15.19
297.091	7
297.306	68.44
297.52	19.29
297.735	60.24
297.949	23.38
298.164	37.72
298.378	43.86
298.593	13.14
298.807	74.58
299.022	33.62
299.236	78.68
299.451	60.24
299.665	33.62
299.88	95.06
300.094	54.1
300.309	41.81
300.523	80.72
300.737	9.05
300.952	78.68
301.166	4.95
301.381	-38.06
301.595	-21.67
301.809	37.72
302.024	4.95
302.238	23.38
302.452	47.96
302.667	72.53
302.881	80.72
303.095	45.91
303.309	37.72
303.524	31.57
303.738	33.62
303.952	7
304.166	0.85
304.381	-36.01
304.595	35.67
304.809	27.48
305.023	-54.44
305.237	31.57
305.452	13.14
305.666	-31.91
305.88	107.35
306.094	95.06
306.308	-40.11
306.522	35.67
306.736	9.05
306.95	95.06
307.164	7
307.379	23.38
307.593	76.63
307.807	50
308.021	97.11
308.235	-9.39
308.449	31.57
308.663	45.91
308.877	33.62
309.091	64.34
309.305	43.86
309.519	-29.87
309.733	11.09
309.947	2.9
310.161	76.63
310.374	11.09
310.588	35.67
310.802	-27.82
311.016	-40.11
311.23	4.95
311.444	-56.49
311.658	70.48
311.872	56.15
312.085	-33.96
312.299	13.14
312.513	56.15
312.727	68.44
312.941	-11.43
313.154	74.58
313.368	-33.96
313.582	-15.53
313.796	45.91
314.009	-11.43
314.223	-5.29
314.437	33.62
314.651	19.29
314.864	99.16
315.078	19.29
315.292	25.43
315.505	-68.78
315.719	68.44
315.933	0.85
316.146	45.91
316.36	31.57
316.573	58.2
316.787	60.24
317.001	25.43
317.214	-68.78
317.428	37.72
317.641	60.24
317.855	43.86
318.068	35.67
318.282	31.57
318.495	72.53
318.709	-15.53
318.922	31.57
319.136	66.39
319.349	43.86
319.563	33.62
319.776	9.05
319.99	-50.35
320.203	88.92
320.417	15.19
320.63	25.43
320.843	82.77
321.057	50
321.27	27.48
321.483	-7.34
321.697	43.86
321.91	99.16
322.124	7
322.337	27.48
322.55	-68.78
322.763	119.64
322.977	72.53
323.19	-33.96
323.403	19.29
323.617	-1.19
323.83	70.48
324.043	62.29
324.256	17.24
324.469	37.72
324.683	-3.24
324.896	-11.43
325.109	-33.96
325.322	47.96
325.535	19.29
325.748	47.96
325.962	23.38
326.175	27.48
326.388	0.85
326.601	13.14
326.814	-11.43
327.027	-66.73
327.24	86.87
327.453	80.72
327.666	27.48
327.879	47.96
328.092	80.72
328.305	84.82
328.518	-5.29
328.731	19.29
328.944	-48.3
329.157	45.91
329.37	2.9
329.583	133.97
329.796	47.96
330.009	-1.19
330.222	60.24
330.435	29.52
330.648	29.52
330.861	58.2
331.073	-27.82
331.286	17.24
331.499	41.81
331.712	-52.39
331.925	-36.01
332.138	43.86
332.35	58.2
332.563	15.19
332.776	80.72
332.989	17.24
333.202	64.34
333.414	-13.48
333.627	0.85
333.84	50
334.053	82.77
334.265	27.48
334.478	39.76
334.691	27.48
334.903	21.33
335.116	66.39
335.329	-62.63
335.541	107.35
335.754	90.96
335.966	43.86
336.179	56.15
336.392	45.91
336.604	35.67
336.817	68.44
337.029	99.16
337.242	93.01
337.454	107.35
337.667	27.48
337.88	27.48
338.092	-17.58
338.305	21.33
338.517	84.82
338.729	31.57
338.942	33.62
339.154	41.81
339.367	25.43
339.579	74.58
339.792	7
340.004	64.34
340.217	68.44
340.429	35.67
340.641	39.76
340.854	86.87
341.066	62.29
341.278	82.77
341.491	43.86
341.703	35.67
341.915	-1.19
342.128	31.57
342.34	15.19
342.552	-5.29
342.764	29.52
342.977	35.67
343.189	97.11
343.401	-38.06
343.613	-9.39
343.826	50
344.038	29.52
344.25	56.15
344.462	-17.58
344.674	99.16
344.886	-33.96
345.099	-13.48
345.311	72.53
345.523	39.76
345.735	45.91
345.947	66.39
346.159	43.86
346.371	52.05
346.583	7
346.795	76.63
347.007	86.87
347.219	43.86
347.431	7
347.643	78.68
347.855	-23.72
348.067	64.34
348.279	2.9
348.491	-1.19
348.703	33.62
348.915	25.43
349.127	58.2
349.339	82.77
349.551	11.09
349.763	47.96
349.975	13.14
350.187	60.24
350.399	-27.82
350.61	17.24
350.822	45.91
351.034	113.49
351.246	23.38
351.458	88.92
351.669	56.15
351.881	27.48
352.093	-29.87
352.305	31.57
352.517	43.86
352.728	68.44
352.94	88.92
353.152	78.68
353.363	-48.3
353.575	60.24
353.787	152.4
353.999	52.05
354.21	78.68
354.422	99.16
354.633	37.72
354.845	33.62
355.057	4.95
355.268	60.24
355.48	90.96
355.692	52.05
355.903	29.52
356.115	15.19
356.326	-13.48
356.538	-15.53
356.749	23.38
356.961	54.1
357.172	7
357.384	-9.39
357.595	29.52
357.807	37.72
358.018	11.09
358.23	31.57
358.441	101.2
358.653	111.44
358.864	60.24
359.075	-1.19
359.287	105.3
359.498	41.81
359.709	72.53
359.921	29.52
360.132	43.86
360.344	2.9
360.555	21.33
360.766	64.34
360.977	86.87
361.189	23.38
361.4	17.24
361.611	4.95
361.823	33.62
362.034	41.81
362.245	23.38
362.456	45.91
362.667	29.52
362.879	-62.63
363.09	47.96
363.301	25.43
363.512	41.81
363.723	-27.82
363.935	-11.43
364.146	37.72
364.357	0.85
364.568	74.58
364.779	21.33
364.99	88.92
365.201	45.91
365.412	86.87
365.623	-1.19
365.834	84.82
366.045	58.2
366.256	64.34
366.467	4.95
366.678	17.24
366.889	29.52
367.1	21.33
367.311	-1.19
367.522	86.87
367.733	17.24
367.944	84.82
368.155	33.62
368.366	41.81
368.577	15.19
368.788	9.05
368.999	-23.72
369.209	88.92
369.42	129.88
369.631	47.96
369.842	17.24
370.053	58.2
370.264	-1.19
370.474	62.29
370.685	58.2
370.896	74.58
371.107	80.72
371.317	50
371.528	9.05
371.739	95.06
371.95	-21.67
372.16	70.48
372.371	62.29
372.582	76.63
372.792	-9.39
373.003	15.19
373.214	37.72
373.424	125.78
373.635	31.57
373.846	103.25
374.056	-25.77
374.267	82.77
374.477	13.14
374.688	84.82
374.898	50
375.109	127.83
375.319	93.01
375.53	45.91
375.74	68.44
375.951	7
376.161	25.43
376.372	107.35
376.582	21.33
376.793	-27.82
377.003	39.76
377.214	45.91
377.424	58.2
377.635	52.05
377.845	0.85
378.055	29.52
378.266	45.91
378.476	88.92
378.686	23.38
378.897	80.72
379.107	78.68
379.317	72.53
379.528	68.44
379.738	97.11
379.948	-1.19
380.158	25.43
380.369	-15.53
380.579	90.96
380.789	68.44
380.999	31.57
381.21	4.95
381.42	162.64
381.63	-5.29
381.84	103.25
382.05	9.05
382.261	62.29
382.471	84.82
382.681	93.01
382.891	41.81
383.101	66.39
383.311	41.81
383.521	54.1
383.731	29.52
383.941	43.86
384.151	2.9
384.361	115.54
384.571	37.72
384.781	21.33
384.991	129.88
385.201	29.52
385.411	95.06
385.621	60.24
385.831	52.05
386.041	35.67
386.251	-17.58
386.461	82.77
386.671	21.33
386.881	123.73
387.091	80.72
387.301	84.82
387.511	111.44
387.72	-5.29
387.93	39.76
388.14	0.85
388.35	47.96
388.56	103.25
388.769	107.35
388.979	17.24
389.189	7
389.399	117.59
389.609	127.83
389.818	140.12
390.028	84.82
390.238	58.2
390.447	33.62
390.657	113.49
390.867	41.81
391.076	54.1
391.286	45.91
391.496	70.48
391.705	60.24
391.915	62.29
392.125	27.48
392.334	97.11
392.544	-21.67
392.753	95.06
392.963	172.88
393.172	103.25
393.382	82.77
393.591	160.59
393.801	-3.24
394.01	125.78
394.22	52.05
394.429	64.34
394.639	-1.19
394.848	39.76
395.058	93.01
395.267	103.25
395.477	52.05
395.686	41.81
395.895	105.3
396.105	33.62
396.314	93.01
396.524	52.05
396.733	146.26
396.942	78.68
397.152	115.54
397.361	148.31
397.57	121.68
397.78	88.92
397.989	33.62
398.198	93.01
398.407	117.59
398.617	179.03
398.826	93.01
399.035	80.72
399.244	154.45
399.453	41.81
399.663	60.24
399.872	166.74
400.081	72.53
400.29	84.82
400.499	84.82
400.708	119.64
400.917	127.83
401.127	136.02
401.336	84.82
401.545	90.96
401.754	29.52
401.963	95.06
402.172	82.77
402.381	90.96
402.59	107.35
402.799	95.06
403.008	131.92
403.217	138.07
403.426	191.31
403.635	133.97
403.844	64.34
404.053	170.83
404.262	148.31
404.471	150.36
404.68	140.12
404.888	86.87
405.097	174.93
405.306	119.64
405.515	144.21
405.724	219.99
405.933	109.4
406.142	222.03
406.35	185.17
406.559	176.98
406.768	170.83
406.977	199.51
407.185	181.07
407.394	236.37
407.603	183.12
407.812	209.75
408.02	209.75
408.229	185.17
408.438	256.85
408.646	199.51
408.855	224.08
409.064	320.34
409.272	209.75
409.481	222.03
409.69	246.61
409.898	250.71
410.107	346.96
410.315	295.76
410.524	306
410.733	346.96
410.941	375.63
411.15	326.48
411.358	408.4
411.567	375.63
411.775	271.19
411.984	392.02
412.192	381.78
412.401	478.03
412.609	473.93
412.818	432.97
413.026	494.41
413.234	480.08
413.443	529.23
413.651	467.79
413.86	541.52
414.068	607.05
414.276	643.92
414.485	562
414.693	609.1
414.901	645.96
415.11	668.49
415.318	713.55
415.526	740.17
415.734	695.11
415.943	781.13
416.151	768.84
416.359	797.51
416.567	742.22
416.776	754.51
416.984	850.76
417.192	918.34
417.4	840.52
417.608	971.59
417.817	979.78
418.025	987.97
418.233	1043.27
418.441	953.16
418.649	1108.8
418.857	1260.35
419.065	1073.99
419.273	1133.38
419.481	1180.48
419.689	1319.75
419.897	1389.38
420.105	1418.05
420.313	1467.2
420.521	1538.88
420.729	1407.81
420.937	1569.6
421.145	1637.18
421.353	1674.04
421.561	1811.26
421.769	1805.11
421.977	1846.07
422.185	1848.12
422.393	1932.09
422.601	2069.3
422.809	2114.36
423.017	2028.34
423.224	2186.04
423.432	2337.59
423.64	2208.56
423.848	2458.42
424.056	2480.94
424.263	2564.91
424.471	2536.24
424.679	2749.23
424.887	2786.09
425.094	2894.63
425.302	2890.54
425.51	3011.37
425.718	3175.2
425.925	3097.38
426.133	3173.16
426.341	3470.11
426.548	3543.84
426.756	3599.13
426.964	3562.27
427.171	3914.52
427.379	3971.86
427.586	4037.4
427.794	3969.82
428.001	4262.68
428.209	4444.95
428.417	4393.75
428.624	4592.4
428.832	4666.13
429.039	4594.45
429.247	4766.48
429.454	5128.97
429.662	5460.74
429.869	5180.17
430.076	5593.86
430.284	5395.2
430.491	5638.91
430.699	5962.49
430.906	5806.84
431.114	5866.24
431.321	6046.46
431.528	6515.44
431.736	6761.2
431.943	7195.37
432.15	6742.77
432.358	7090.92
432.565	7310.05
432.772	7215.85
432.979	7666.4
433.187	7736.03
433.394	7727.84
433.601	8254.17
433.808	8196.82
434.016	8223.45
434.223	8667.86
434.43	9249.48
434.637	8921.81
434.844	9441.99
435.052	9890.49
435.259	9589.44
435.466	9863.87
435.673	9605.83
435.88	10441.4
436.087	10937.01
436.294	11111.08
436.501	10642.1
436.708	10971.82
436.915	11307.69
437.122	11668.13
437.329	11625.12
437.537	12069.53
437.743	12229.27
437.95	12165.79
438.157	12948.11
438.364	13259.4
438.571	13128.33
438.778	13292.17
438.985	14582.39
439.192	14088.83
439.399	14520.95
439.606	14092.93
439.813	14944.88
440.02	15741.54
440.227	15567.46
440.433	15217.26
440.64	15989.35
440.847	15581.8
441.054	16263.77
441.261	17033.81
441.467	16988.75
441.674	17418.83
441.881	17996.35
442.088	17932.87
442.294	17828.42
442.501	18305.6
442.708	18594.36
442.914	19388.97
443.121	20177.44
443.328	19587.63
443.534	20752.92
443.741	20220.45
443.948	20212.26
444.154	21580.3
444.361	21379.6
444.568	21758.47
444.774	21768.71
444.981	21985.8
445.187	22690.3
445.394	23411.18
445.6	23323.12
445.807	25678.29
446.013	24416.74
446.22	24852.95
446.426	25919.95
446.633	25971.15
446.839	27025.85
447.046	25807.31
447.252	27169.21
447.459	27095.48
447.665	27165.11
447.871	28383.65
448.078	29350.29
448.284	28139.94
448.491	29088.15
448.697	30261.64
448.903	30714.24
449.11	30527.88
449.316	29804.94
449.522	30878.08
449.728	31828.34
449.935	32088.43
450.141	31895.92
450.347	32627.04
450.553	31684.98
450.76	31764.85
450.966	33419.61
451.172	32790.88
451.378	33773.91
451.584	32702.82
451.791	33794.39
451.997	33640.79
452.203	34238.79
452.409	34058.57
452.615	34111.82
452.821	32827.74
453.027	32508.26
453.233	34156.88
453.44	32715.11
453.646	33210.71
453.852	33511.77
454.058	33898.83
454.264	32817.5
454.47	33608.02
454.676	32715.11
454.882	33827.15
455.088	31297.91
455.294	31752.56
455.5	31793.52
455.705	32010.6
455.911	31064.44
456.117	30472.58
456.323	29919.63
456.529	28328.36
456.735	29684.11
456.941	28715.42
457.147	28066.22
457.352	27638.19
457.558	27277.75
457.764	27314.61
457.97	26870.2
458.176	26257.86
458.381	26456.51
458.587	24943.06
458.793	25188.82
458.999	23794.15
459.204	25389.52
459.41	24670.68
459.616	23007.73
459.821	22979.06
460.027	23075.32
460.233	22290.95
460.438	21176.85
460.644	21733.9
460.85	20767.26
461.055	20443.68
461.261	20331.04
461.466	18774.58
461.672	18125.38
461.878	19687.98
462.083	18301.5
462.289	17969.73
462.494	17672.78
462.7	16923.22
462.905	16603.74
463.111	17046.1
463.316	16831.06
463.522	16720.47
463.727	16822.87
463.932	16702.04
464.138	16398.94
464.343	16568.92
464.549	16190.05
464.754	16411.23
464.959	16360.03
465.165	16423.51
465.37	15641.19
465.575	15225.45
465.781	15762.02
465.986	16065.12
466.191	15362.67
466.397	15061.62
466.602	14359.16
466.807	14815.86
467.012	14948.98
467.218	14740.08
467.423	14641.78
467.628	14543.48
467.833	15391.34
468.038	14621.3
468.244	14183.04
