Data from USB4F104151__33__12-35-36-181.txt Node

Date: Fri Mar 14 12:35:36 EDT 2025
User: louis
Spectrometer: USB4F10415
Trigger mode: 4
Integration Time (sec): 2.000000E-2
Scans to average: 1
Electric dark correction enabled: true
Nonlinearity correction enabled: false
Boxcar width: 0
XAxis mode: Wavelengths
Number of Pixels in Spectrum: 3648
>>>>>Begin Spectral Data<<<<<
178.204	-64.51
178.424	-64.51
178.644	-64.51
178.864	-56.32
179.084	-119.81
179.304	-17.41
179.524	-29.7
179.744	41.98
179.964	-27.65
180.184	101.37
180.404	-66.56
180.624	-17.41
180.844	29.7
181.064	-25.6
181.283	-3.07
181.503	21.5
181.723	-7.17
181.943	-62.46
182.163	48.13
182.383	21.5
182.602	37.89
182.822	44.03
183.042	89.09
183.262	-17.41
183.482	50.18
183.701	66.56
183.921	72.7
184.141	48.13
184.361	15.36
184.58	27.65
184.8	31.74
185.02	-35.84
185.239	-17.41
185.459	84.99
185.679	31.74
185.898	11.26
186.118	44.03
186.338	13.31
186.557	48.13
186.777	-3.07
186.997	-17.41
187.216	15.36
187.436	9.22
187.655	130.05
187.875	7.17
188.095	25.6
188.314	109.57
188.534	72.7
188.753	-52.22
188.973	97.28
189.192	74.75
189.412	-27.65
189.631	115.71
189.851	35.84
190.07	37.89
190.29	50.18
190.509	29.7
190.729	-82.94
190.948	121.85
191.168	80.89
191.387	64.51
191.607	-35.84
191.826	64.51
192.045	46.08
192.265	15.36
192.484	23.55
192.704	52.22
192.923	54.27
193.142	87.04
193.362	-11.26
193.581	128
193.8	3.07
194.02	95.23
194.239	-35.84
194.458	25.6
194.678	35.84
194.897	54.27
195.116	54.27
195.335	29.7
195.555	82.94
195.774	29.7
195.993	62.46
196.212	29.7
196.432	15.36
196.651	17.41
196.87	-9.22
197.089	62.46
197.308	-1.02
197.528	80.89
197.747	-29.7
197.966	56.32
198.185	87.04
198.404	-1.02
198.623	7.17
198.842	13.31
199.062	35.84
199.281	70.65
199.5	50.18
199.719	58.37
199.938	7.17
200.157	46.08
200.376	-41.98
200.595	-7.17
200.814	78.85
201.033	-50.18
201.252	74.75
201.471	101.37
201.69	76.8
201.909	27.65
202.128	23.55
202.347	33.79
202.566	9.22
202.785	23.55
203.004	-37.89
203.223	91.13
203.442	3.07
203.661	-3.07
203.879	-11.26
204.098	21.5
204.317	19.46
204.536	5.12
204.755	-11.26
204.974	68.61
205.193	23.55
205.411	33.79
205.63	27.65
205.849	95.23
206.068	66.56
206.287	66.56
206.505	64.51
206.724	17.41
206.943	70.65
207.162	29.7
207.381	52.22
207.599	31.74
207.818	1.02
208.037	11.26
208.255	9.22
208.474	-52.22
208.693	70.65
208.911	25.6
209.13	54.27
209.349	50.18
209.567	-3.07
209.786	39.94
210.005	27.65
210.223	150.53
210.442	-31.74
210.661	41.98
210.879	54.27
211.098	-37.89
211.316	56.32
211.535	89.09
211.753	-3.07
211.972	-27.65
212.191	23.55
212.409	15.36
212.628	11.26
212.846	-33.79
213.065	76.8
213.283	31.74
213.502	84.99
213.72	15.36
213.938	-13.31
214.157	76.8
214.375	-9.22
214.594	62.46
214.812	29.7
215.031	66.56
215.249	-33.79
215.467	44.03
215.686	-11.26
215.904	17.41
216.122	44.03
216.341	25.6
216.559	41.98
216.778	9.22
216.996	46.08
217.214	15.36
217.432	72.7
217.651	1.02
217.869	5.12
218.087	17.41
218.306	29.7
218.524	39.94
218.742	-3.07
218.96	39.94
219.179	15.36
219.397	56.32
219.615	56.32
219.833	-31.74
220.051	5.12
220.27	44.03
220.488	19.46
220.706	41.98
220.924	-37.89
221.142	70.65
221.36	-48.13
221.578	-17.41
221.796	39.94
222.015	29.7
222.233	-9.22
222.451	-17.41
222.669	91.13
222.887	84.99
223.105	7.17
223.323	9.22
223.541	54.27
223.759	84.99
223.977	41.98
224.195	84.99
224.413	35.84
224.631	29.7
224.849	41.98
225.067	87.04
225.285	-44.03
225.503	48.13
225.721	27.65
225.939	9.22
226.157	31.74
226.375	76.8
226.592	17.41
226.81	29.7
227.028	-7.17
227.246	41.98
227.464	13.31
227.682	21.5
227.9	64.51
228.117	52.22
228.335	82.94
228.553	13.31
228.771	128
228.989	87.04
229.206	91.13
229.424	58.37
229.642	-113.66
229.86	111.61
230.077	31.74
230.295	15.36
230.513	27.65
230.731	23.55
230.948	48.13
231.166	54.27
231.384	44.03
231.601	-9.22
231.819	31.74
232.037	-21.5
232.254	15.36
232.472	87.04
232.689	25.6
232.907	107.52
233.125	44.03
233.342	62.46
233.56	48.13
233.777	-35.84
233.995	117.76
234.213	64.51
234.43	41.98
234.648	7.17
234.865	1.02
235.083	101.37
235.3	11.26
235.518	-5.12
235.735	76.8
235.953	82.94
236.17	-23.55
236.388	-19.46
236.605	56.32
236.822	80.89
237.04	17.41
237.257	56.32
237.475	64.51
237.692	17.41
237.909	33.79
238.127	-23.55
238.344	37.89
238.562	44.03
238.779	-50.18
238.996	-41.98
239.214	33.79
239.431	1.02
239.648	48.13
239.865	33.79
240.083	9.22
240.3	29.7
240.517	-23.55
240.735	37.89
240.952	13.31
241.169	46.08
241.386	76.8
241.603	62.46
241.821	31.74
242.038	105.47
242.255	9.22
242.472	64.51
242.689	33.79
242.907	13.31
243.124	17.41
243.341	60.42
243.558	-41.98
243.775	56.32
243.992	-17.41
244.209	17.41
244.426	29.7
244.643	52.22
244.86	-52.22
245.078	84.99
245.295	70.65
245.512	-9.22
245.729	11.26
245.946	54.27
246.163	111.61
246.38	78.85
246.597	19.46
246.814	29.7
247.031	15.36
247.248	44.03
247.464	50.18
247.681	41.98
247.898	58.37
248.115	27.65
248.332	56.32
248.549	-25.6
248.766	27.65
248.983	76.8
249.2	95.23
249.417	66.56
249.633	80.89
249.85	76.8
250.067	-37.89
250.284	37.89
250.501	31.74
250.717	27.65
250.934	27.65
251.151	91.13
251.368	87.04
251.585	91.13
251.801	56.32
252.018	113.66
252.235	9.22
252.451	23.55
252.668	9.22
252.885	56.32
253.102	44.03
253.318	-3.07
253.535	44.03
253.752	95.23
253.968	23.55
254.185	17.41
254.401	72.7
254.618	31.74
254.835	7.17
255.051	84.99
255.268	29.7
255.484	54.27
255.701	-19.46
255.917	80.89
256.134	-15.36
256.351	48.13
256.567	23.55
256.784	78.85
257	74.75
257.217	46.08
257.433	62.46
257.65	50.18
257.866	27.65
258.082	-25.6
258.299	7.17
258.515	37.89
258.732	52.22
258.948	84.99
259.165	50.18
259.381	1.02
259.597	-9.22
259.814	62.46
260.03	76.8
260.246	84.99
260.463	72.7
260.679	29.7
260.895	27.65
261.112	62.46
261.328	56.32
261.544	-39.94
261.761	46.08
261.977	7.17
262.193	31.74
262.409	74.75
262.626	-3.07
262.842	80.89
263.058	25.6
263.274	70.65
263.49	84.99
263.707	15.36
263.923	33.79
264.139	-7.17
264.355	27.65
264.571	64.51
264.787	7.17
265.004	11.26
265.22	19.46
265.436	15.36
265.652	-23.55
265.868	84.99
266.084	-29.7
266.3	72.7
266.516	-56.32
266.732	144.38
266.948	74.75
267.164	11.26
267.38	21.5
267.596	84.99
267.812	95.23
268.028	-60.42
268.244	31.74
268.46	56.32
268.676	44.03
268.892	29.7
269.108	91.13
269.324	25.6
269.54	11.26
269.756	21.5
269.972	-7.17
270.188	64.51
270.403	58.37
270.619	-7.17
270.835	78.85
271.051	48.13
271.267	80.89
271.483	25.6
271.698	29.7
271.914	15.36
272.13	60.42
272.346	72.7
272.562	37.89
272.777	72.7
272.993	46.08
273.209	-19.46
273.425	5.12
273.64	60.42
273.856	50.18
274.072	76.8
274.287	50.18
274.503	54.27
274.719	70.65
274.934	39.94
275.15	58.37
275.366	64.51
275.581	44.03
275.797	74.75
276.012	62.46
276.228	9.22
276.444	29.7
276.659	48.13
276.875	48.13
277.09	56.32
277.306	21.5
277.521	70.65
277.737	66.56
277.952	48.13
278.168	91.13
278.383	-5.12
278.599	37.89
278.814	64.51
279.03	11.26
279.245	52.22
279.461	25.6
279.676	33.79
279.892	60.42
280.107	117.76
280.322	68.61
280.538	48.13
280.753	72.7
280.969	41.98
281.184	54.27
281.399	95.23
281.615	11.26
281.83	52.22
282.045	72.7
282.26	44.03
282.476	25.6
282.691	52.22
282.906	50.18
283.122	70.65
283.337	29.7
283.552	-25.6
283.767	19.46
283.983	64.51
284.198	58.37
284.413	56.32
284.628	-23.55
284.843	58.37
285.058	23.55
285.274	-39.94
285.489	5.12
285.704	142.33
285.919	-15.36
286.134	72.7
286.349	58.37
286.564	41.98
286.779	-37.89
286.995	31.74
287.21	-15.36
287.425	84.99
287.64	60.42
287.855	54.27
288.07	50.18
288.285	113.66
288.5	152.57
288.715	19.46
288.93	17.41
289.145	31.74
289.36	5.12
289.575	76.8
289.79	44.03
290.004	54.27
290.219	-7.17
290.434	97.28
290.649	-7.17
290.864	35.84
291.079	33.79
291.294	89.09
291.509	80.89
291.724	82.94
291.938	-21.5
292.153	62.46
292.368	-3.07
292.583	5.12
292.798	60.42
293.012	82.94
293.227	-19.46
293.442	5.12
293.657	-3.07
293.871	52.22
294.086	37.89
294.301	7.17
294.516	33.79
294.73	17.41
294.945	39.94
295.16	56.32
295.374	105.47
295.589	48.13
295.804	11.26
296.018	66.56
296.233	52.22
296.447	82.94
296.662	48.13
296.877	-7.17
297.091	37.89
297.306	35.84
297.52	-1.02
297.735	5.12
297.949	23.55
298.164	78.85
298.378	17.41
298.593	9.22
298.807	31.74
299.022	64.51
299.236	9.22
299.451	27.65
299.665	23.55
299.88	11.26
300.094	31.74
300.309	80.89
300.523	60.42
300.737	39.94
300.952	31.74
301.166	13.31
301.381	-5.12
301.595	19.46
301.809	1.02
302.024	29.7
302.238	13.31
302.452	29.7
302.667	29.7
302.881	87.04
303.095	35.84
303.309	50.18
303.524	52.22
303.738	3.07
303.952	-50.18
304.166	68.61
304.381	68.61
304.595	25.6
304.809	-19.46
305.023	89.09
305.237	-7.17
305.452	89.09
305.666	84.99
305.88	37.89
306.094	27.65
306.308	25.6
306.522	41.98
306.736	66.56
306.95	87.04
307.164	105.47
307.379	52.22
307.593	82.94
307.807	46.08
308.021	7.17
308.235	68.61
308.449	-41.98
308.663	7.17
308.877	93.18
309.091	41.98
309.305	-33.79
309.519	-19.46
309.733	128
309.947	11.26
310.161	46.08
310.374	58.37
310.588	64.51
310.802	5.12
311.016	-9.22
311.23	58.37
311.444	31.74
311.658	9.22
311.872	70.65
312.085	72.7
312.299	97.28
312.513	91.13
312.727	46.08
312.941	21.5
313.154	21.5
313.368	152.57
313.582	13.31
313.796	27.65
314.009	60.42
314.223	27.65
314.437	72.7
314.651	125.95
314.864	9.22
315.078	33.79
315.292	23.55
315.505	60.42
315.719	23.55
315.933	54.27
316.146	27.65
316.36	54.27
316.573	15.36
316.787	74.75
317.001	60.42
317.214	-9.22
317.428	113.66
317.641	41.98
317.855	-11.26
318.068	46.08
318.282	130.05
318.495	68.61
318.709	80.89
318.922	33.79
319.136	60.42
319.349	60.42
319.563	62.46
319.776	56.32
319.99	25.6
320.203	41.98
320.417	56.32
320.63	56.32
320.843	107.52
321.057	21.5
321.27	80.89
321.483	54.27
321.697	84.99
321.91	46.08
322.124	-29.7
322.337	3.07
322.55	56.32
322.763	11.26
322.977	162.81
323.19	50.18
323.403	7.17
323.617	19.46
323.83	48.13
324.043	9.22
324.256	52.22
324.469	5.12
324.683	50.18
324.896	-15.36
325.109	-17.41
325.322	52.22
325.535	76.8
325.748	76.8
325.962	105.47
326.175	41.98
326.388	9.22
326.601	3.07
326.814	66.56
327.027	27.65
327.24	60.42
327.453	-13.31
327.666	72.7
327.879	123.9
328.092	101.37
328.305	66.56
328.518	72.7
328.731	74.75
328.944	50.18
329.157	35.84
329.37	76.8
329.583	97.28
329.796	62.46
330.009	-9.22
330.222	5.12
330.435	62.46
330.648	58.37
330.861	23.55
331.073	117.76
331.286	58.37
331.499	46.08
331.712	64.51
331.925	144.38
332.138	29.7
332.35	27.65
332.563	-50.18
332.776	9.22
332.989	56.32
333.202	-17.41
333.414	60.42
333.627	29.7
333.84	21.5
334.053	52.22
334.265	35.84
334.478	15.36
334.691	78.85
334.903	93.18
335.116	105.47
335.329	91.13
335.541	68.61
335.754	119.81
335.966	7.17
336.179	62.46
336.392	29.7
336.604	54.27
336.817	37.89
337.029	46.08
337.242	72.7
337.454	52.22
337.667	66.56
337.88	150.53
338.092	91.13
338.305	109.57
338.517	95.23
338.729	72.7
338.942	101.37
339.154	-1.02
339.367	-97.28
339.579	70.65
339.792	46.08
340.004	15.36
340.217	19.46
340.429	70.65
340.641	37.89
340.854	7.17
341.066	31.74
341.278	23.55
341.491	89.09
341.703	74.75
341.915	1.02
342.128	44.03
342.34	52.22
342.552	48.13
342.764	68.61
342.977	103.42
343.189	25.6
343.401	91.13
343.613	41.98
343.826	5.12
344.038	50.18
344.25	125.95
344.462	-25.6
344.674	56.32
344.886	52.22
345.099	44.03
345.311	52.22
345.523	-5.12
345.735	58.37
345.947	44.03
346.159	97.28
346.371	125.95
346.583	109.57
346.795	68.61
347.007	91.13
347.219	78.85
347.431	82.94
347.643	179.2
347.855	33.79
348.067	128
348.279	56.32
348.491	50.18
348.703	54.27
348.915	48.13
349.127	-27.65
349.339	58.37
349.551	-7.17
349.763	78.85
349.975	3.07
350.187	50.18
350.399	95.23
350.61	87.04
350.822	60.42
351.034	48.13
351.246	58.37
351.458	56.32
351.669	66.56
351.881	130.05
352.093	144.38
352.305	64.51
352.517	95.23
352.728	97.28
352.94	66.56
353.152	142.33
353.363	-13.31
353.575	95.23
353.787	103.42
353.999	15.36
354.21	56.32
354.422	80.89
354.633	-1.02
354.845	48.13
355.057	91.13
355.268	54.27
355.48	48.13
355.692	78.85
355.903	89.09
356.115	50.18
356.326	29.7
356.538	84.99
356.749	31.74
356.961	78.85
357.172	130.05
357.384	50.18
357.595	97.28
357.807	93.18
358.018	5.12
358.23	60.42
358.441	91.13
358.653	66.56
358.864	97.28
359.075	54.27
359.287	13.31
359.498	46.08
359.709	-29.7
359.921	15.36
360.132	15.36
360.344	117.76
360.555	-44.03
360.766	19.46
360.977	119.81
361.189	80.89
361.4	17.41
361.611	78.85
361.823	89.09
362.034	44.03
362.245	-25.6
362.456	54.27
362.667	82.94
362.879	68.61
363.09	56.32
363.301	62.46
363.512	-27.65
363.723	29.7
363.935	-23.55
364.146	99.33
364.357	-48.13
364.568	76.8
364.779	58.37
364.99	111.61
365.201	-35.84
365.412	113.66
365.623	-23.55
365.834	66.56
366.045	17.41
366.256	119.81
366.467	87.04
366.678	58.37
366.889	23.55
367.1	80.89
367.311	68.61
367.522	3.07
367.733	33.79
367.944	97.28
368.155	41.98
368.366	82.94
368.577	62.46
368.788	113.66
368.999	62.46
369.209	70.65
369.42	91.13
369.631	101.37
369.842	27.65
370.053	123.9
370.264	-1.02
370.474	56.32
370.685	78.85
370.896	48.13
371.107	103.42
371.317	-21.5
371.528	13.31
371.739	146.43
371.95	115.71
372.16	5.12
372.371	48.13
372.582	109.57
372.792	76.8
373.003	84.99
373.214	115.71
373.424	101.37
373.635	74.75
373.846	33.79
374.056	121.85
374.267	70.65
374.477	78.85
374.688	23.55
374.898	60.42
375.109	113.66
375.319	130.05
375.53	80.89
375.74	74.75
375.951	103.42
376.161	84.99
376.372	70.65
376.582	17.41
376.793	72.7
377.003	70.65
377.214	76.8
377.424	84.99
377.635	7.17
377.845	97.28
378.055	72.7
378.266	1.02
378.476	27.65
378.686	93.18
378.897	44.03
379.107	74.75
379.317	9.22
379.528	-7.17
379.738	109.57
379.948	17.41
380.158	52.22
380.369	107.52
380.579	41.98
380.789	64.51
380.999	183.29
381.21	52.22
381.42	103.42
381.63	19.46
381.84	121.85
382.05	46.08
382.261	80.89
382.471	82.94
382.681	44.03
382.891	91.13
383.101	72.7
383.311	62.46
383.521	44.03
383.731	33.79
383.941	23.55
384.151	125.95
384.361	13.31
384.571	62.46
384.781	33.79
384.991	11.26
385.201	82.94
385.411	166.91
385.621	150.53
385.831	105.47
386.041	25.6
386.251	-17.41
386.461	78.85
386.671	41.98
386.881	93.18
387.091	76.8
387.301	76.8
387.511	64.51
387.72	29.7
387.93	66.56
388.14	105.47
388.35	136.19
388.56	128
388.769	107.52
388.979	48.13
389.189	62.46
389.399	84.99
389.609	72.7
389.818	123.9
390.028	123.9
390.238	93.18
390.447	64.51
390.657	140.29
390.867	99.33
391.076	7.17
391.286	68.61
391.496	87.04
391.705	37.89
391.915	82.94
392.125	107.52
392.334	68.61
392.544	103.42
392.753	64.51
392.963	3.07
393.172	136.19
393.382	64.51
393.591	115.71
393.801	87.04
394.01	152.57
394.22	125.95
394.429	177.15
394.639	138.24
394.848	107.52
395.058	95.23
395.267	148.48
395.477	158.72
395.686	97.28
395.895	111.61
396.105	154.62
396.314	78.85
396.524	103.42
396.733	101.37
396.942	68.61
397.152	164.86
397.361	144.38
397.57	119.81
397.78	89.09
397.989	78.85
398.198	175.1
398.407	113.66
398.617	191.49
398.826	156.67
399.035	46.08
399.244	128
399.453	140.29
399.663	107.52
399.872	128
400.081	35.84
400.29	166.91
400.499	181.25
400.708	187.39
400.917	107.52
401.127	183.29
401.336	140.29
401.545	254.97
401.754	109.57
401.963	218.11
402.172	238.59
402.381	121.85
402.59	144.38
402.799	168.96
403.008	156.67
403.217	175.1
403.426	105.47
403.635	138.24
403.844	203.77
404.053	214.01
404.262	166.91
404.471	214.01
404.68	211.96
404.888	191.49
405.097	226.3
405.306	271.36
405.515	183.29
405.724	218.11
405.933	183.29
406.142	279.55
406.35	209.92
406.559	234.49
406.768	218.11
406.977	265.21
407.185	228.35
407.394	332.79
407.603	216.06
407.812	224.25
408.02	328.7
408.229	279.55
408.438	332.79
408.646	271.36
408.855	314.36
409.064	336.89
409.272	349.18
409.481	308.22
409.69	424.95
409.898	398.33
410.107	424.95
410.315	402.43
410.524	394.23
410.733	506.87
410.941	379.9
411.15	478.2
411.358	488.44
411.567	531.45
411.775	560.12
411.984	500.73
412.192	553.98
412.401	580.6
412.609	605.17
412.818	674.81
413.026	603.13
413.234	666.61
413.443	754.68
413.651	695.29
413.86	633.85
414.068	748.53
414.276	836.6
414.485	828.4
414.693	807.92
414.901	844.79
415.11	908.27
415.318	967.67
415.526	898.03
415.734	1045.49
415.943	1025.01
416.151	1074.16
416.359	1065.97
416.567	1176.56
416.776	1235.95
416.984	1170.41
417.192	1371.12
417.4	1278.96
417.608	1317.87
417.817	1338.35
418.025	1502.19
418.233	1493.99
418.441	1496.04
418.649	1543.14
418.857	1749.99
419.065	1825.76
419.273	1690.6
419.481	1819.62
419.689	2012.13
419.897	2044.9
420.105	2100.19
420.313	2030.56
420.521	2130.91
420.729	2114.53
420.937	2155.49
421.145	2401.24
421.353	2401.24
421.561	2591.7
421.769	2700.25
421.977	2765.78
422.185	2747.35
422.393	2851.8
422.601	2968.53
422.809	3077.07
423.017	3120.08
423.224	3193.81
423.432	3322.83
423.64	3290.06
423.848	3666.89
424.056	3445.71
424.263	3859.4
424.471	3757
424.679	3820.49
424.887	4152.26
425.094	4240.32
425.302	4316.09
425.51	4283.33
425.718	4518.84
425.925	4326.33
426.133	4690.87
426.341	4936.63
426.548	5213.1
426.756	5182.38
426.964	5262.26
427.171	5618.6
427.379	5602.22
427.586	5905.32
427.794	6024.1
428.001	6280.1
428.209	6646.68
428.417	6124.45
428.624	6869.91
428.832	6972.31
429.039	6689.69
429.247	6900.63
429.454	7388.05
429.662	8061.83
429.869	7568.27
430.076	7975.81
430.284	7883.66
430.491	8102.79
430.699	8534.91
430.906	8362.88
431.114	8723.32
431.321	9042.81
431.528	9249.65
431.736	9780.07
431.943	10265.44
432.15	10023.78
432.358	10273.64
432.565	10658.65
432.772	10578.78
432.979	10896.22
433.187	11424.59
433.394	11326.29
433.601	12034.89
433.808	12182.34
434.016	11883.34
434.223	12743.49
434.43	13024.06
434.637	12780.35
434.844	13810.48
435.052	14148.39
435.259	14162.73
435.466	14297.89
435.673	13855.53
435.88	14918.43
436.087	15786.77
436.294	16034.57
436.501	15409.94
436.708	15659.79
436.915	16325.38
437.122	17003.26
437.329	16919.29
437.537	17158.91
437.743	17742.58
437.95	17564.4
438.157	18608.87
438.364	19194.59
438.571	19237.59
438.778	19266.27
438.985	21209.79
439.192	19970.77
439.399	20808.39
439.606	20583.11
439.813	21322.43
440.02	22577.83
440.227	22409.9
440.433	22207.15
440.64	23204.51
440.847	22411.95
441.054	23288.48
441.261	24820.36
441.467	24011.41
441.674	25266.81
441.881	25641.59
442.088	25946.74
442.294	25840.25
442.501	26524.27
442.708	26788.46
442.914	27755.1
443.121	29028.93
443.328	28158.55
443.534	30110.26
443.741	29180.48
443.948	28906.05
444.154	30921.26
444.361	30829.1
444.568	30800.43
444.774	31244.84
444.981	31396.38
445.187	32492.05
445.394	33829.37
445.6	33438.21
445.807	36481.49
446.013	34845.16
446.22	35576.29
446.426	36925.9
446.633	37114.31
446.839	38332.86
447.046	37216.71
447.252	38863.28
447.459	38894
447.665	38834.61
447.871	40472.98
448.078	41718.15
448.284	40212.89
448.491	41363.85
448.697	42613.11
448.903	43798.88
449.11	43663.72
449.316	43258.22
449.522	43823.46
449.728	45095.25
449.935	45216.08
450.141	44990.8
450.347	46307.65
450.553	44751.19
450.76	45332.81
450.966	46856.5
451.172	46623.03
451.378	47511.85
451.584	46676.28
451.791	47667.5
451.997	47927.59
452.203	48781.59
452.409	48392.48
452.615	47878.44
452.821	46336.32
453.027	46131.52
453.233	48179.49
453.44	46485.82
453.646	47180.08
453.852	47378.73
454.058	48269.6
454.264	46254.4
454.47	47370.54
454.676	46332.22
454.882	48017.7
455.088	44015.97
455.294	44708.18
455.5	45201.74
455.705	45586.76
455.911	43854.18
456.117	43075.95
456.323	42680.69
456.529	40452.5
456.735	42054.01
456.941	41030.03
457.147	40192.41
457.352	39178.67
457.558	38760.88
457.764	38658.48
457.97	37814.72
458.176	37351.88
458.381	37005.77
458.587	35449.32
458.793	35547.62
458.999	33724.93
459.204	36037.08
459.41	34957.8
459.616	32711.18
459.821	33028.62
460.027	32197.14
460.233	31789.59
460.438	30503.47
460.644	30599.73
460.85	29209.15
461.055	28901.96
461.261	29043.27
461.466	26530.41
461.672	25893.49
461.878	27816.54
462.083	25924.21
462.289	25410.17
462.494	25080.45
462.7	24146.58
462.905	23628.44
463.111	23880.34
463.316	24224.4
463.522	23730.84
463.727	23835.28
463.932	23458.46
464.138	23622.3
464.343	23673.49
464.549	22993.57
464.754	23696.02
464.959	23583.38
465.165	23288.48
465.37	22655.65
465.575	21377.72
465.781	22635.17
465.986	22391.47
466.191	21928.63
466.397	21361.34
466.602	20357.83
466.807	21058.24
467.012	21123.77
467.218	21039.81
467.423	21048
467.628	20882.11
