Data from USB4F104151__50__12-36-07-526.txt Node

Date: Fri Mar 14 12:36:07 EDT 2025
User: louis
Spectrometer: USB4F10415
Trigger mode: 4
Integration Time (sec): 2.000000E-2
Scans to average: 1
Electric dark correction enabled: true
Nonlinearity correction enabled: false
Boxcar width: 0
XAxis mode: Wavelengths
Number of Pixels in Spectrum: 3648
>>>>>Begin Spectral Data<<<<<
178.204	-145.58
178.424	-145.58
178.644	-145.58
178.864	-57.51
179.084	-86.19
179.304	12.12
179.524	-45.23
179.744	-47.27
179.964	1.88
180.184	12.12
180.404	100.18
180.624	-18.6
180.844	36.69
181.064	-32.94
181.283	12.12
181.503	-57.51
181.723	26.45
181.943	-24.75
182.163	5.97
182.383	-16.55
182.602	24.4
182.822	-12.46
183.042	-39.08
183.262	18.26
183.482	38.74
183.701	-37.03
183.921	32.6
184.141	16.21
184.361	-0.17
184.58	71.51
184.8	10.07
185.02	36.69
185.239	18.26
185.459	1.88
185.679	89.94
185.898	-8.36
186.118	63.32
186.338	32.6
186.557	44.88
186.777	-16.55
186.997	-65.71
187.216	-18.6
187.436	22.36
187.655	42.84
187.875	3.93
188.095	-30.89
188.314	34.64
188.534	79.7
188.753	26.45
188.973	-8.36
189.192	-2.22
189.412	57.17
189.631	-32.94
189.851	10.07
190.07	-24.75
190.29	-49.32
190.509	12.12
190.729	-10.41
190.948	87.89
191.168	87.89
191.387	-61.61
191.607	-24.75
191.826	-30.89
192.045	63.32
192.265	-59.56
192.484	-4.27
192.704	-4.27
192.923	18.26
193.142	38.74
193.362	44.88
193.581	36.69
193.8	20.31
194.02	57.17
194.239	26.45
194.458	-10.41
194.678	71.51
194.897	-2.22
195.116	-2.22
195.335	-6.31
195.555	-10.41
195.774	44.88
195.993	1.88
196.212	-6.31
196.432	42.84
196.651	16.21
196.87	12.12
197.089	102.23
197.308	26.45
197.528	-24.75
197.747	-123.05
197.966	-4.27
198.185	71.51
198.404	12.12
198.623	-39.08
198.842	48.98
199.062	24.4
199.281	20.31
199.5	32.6
199.719	-69.8
199.938	48.98
200.157	22.36
200.376	116.56
200.595	18.26
200.814	5.97
201.033	-43.18
201.252	120.66
201.471	26.45
201.69	40.79
201.909	110.42
202.128	77.65
202.347	79.7
202.566	71.51
202.785	-32.94
203.004	40.79
203.223	28.5
203.442	-16.55
203.661	-4.27
203.879	-47.27
204.098	100.18
204.317	-37.03
204.536	44.88
204.755	-49.32
204.974	40.79
205.193	28.5
205.411	12.12
205.63	-16.55
205.849	28.5
206.068	14.17
206.287	-10.41
206.505	-24.75
206.724	24.4
206.943	20.31
207.162	-32.94
207.381	-4.27
207.599	3.93
207.818	59.22
208.037	36.69
208.255	-39.08
208.474	-18.6
208.693	10.07
208.911	-6.31
209.13	51.03
209.349	18.26
209.567	22.36
209.786	53.08
210.005	-37.03
210.223	18.26
210.442	-18.6
210.661	32.6
210.879	89.94
211.098	-45.23
211.316	57.17
211.535	100.18
211.753	53.08
211.972	5.97
212.191	12.12
212.409	10.07
212.628	16.21
212.846	53.08
213.065	5.97
213.283	85.84
213.502	10.07
213.72	-16.55
213.938	18.26
214.157	-18.6
214.375	42.84
214.594	75.6
214.812	51.03
215.031	26.45
215.249	10.07
215.467	-12.46
215.686	8.02
215.904	40.79
216.122	-4.27
216.341	44.88
216.559	20.31
216.778	79.7
216.996	20.31
217.214	-20.65
217.432	-53.42
217.651	-32.94
217.869	18.26
218.087	73.56
218.306	-63.66
218.524	81.75
218.742	-4.27
218.96	67.41
219.179	48.98
219.397	1.88
219.615	71.51
219.833	-14.51
220.051	-51.37
220.27	-24.75
220.488	106.32
220.706	-20.65
220.924	14.17
221.142	81.75
221.36	5.97
221.578	5.97
221.796	53.08
222.015	108.37
222.233	48.98
222.451	10.07
222.669	12.12
222.887	44.88
223.105	8.02
223.323	-26.79
223.541	20.31
223.759	65.36
223.977	-45.23
224.195	94.04
224.413	16.21
224.631	-30.89
224.849	3.93
225.067	48.98
225.285	5.97
225.503	-14.51
225.721	44.88
225.939	-32.94
226.157	18.26
226.375	67.41
226.592	-4.27
226.81	-12.46
227.028	46.93
227.246	24.4
227.464	-8.36
227.682	53.08
227.9	-45.23
228.117	22.36
228.335	122.71
228.553	-63.66
228.771	-10.41
228.989	-4.27
229.206	20.31
229.424	46.93
229.642	1.88
229.86	3.93
230.077	65.36
230.295	34.64
230.513	26.45
230.731	18.26
230.948	85.84
231.166	18.26
231.384	32.6
231.601	12.12
231.819	16.21
232.037	34.64
232.254	10.07
232.472	-59.56
232.689	-32.94
232.907	44.88
233.125	-94.38
233.342	20.31
233.56	-4.27
233.777	-6.31
233.995	-30.89
234.213	98.13
234.43	24.4
234.648	55.12
234.865	-24.75
235.083	61.27
235.3	30.55
235.518	-0.17
235.735	42.84
235.953	102.23
236.17	-34.99
236.388	36.69
236.605	-24.75
236.822	24.4
237.04	10.07
237.257	71.51
237.475	-14.51
237.692	32.6
237.909	-0.17
238.127	-39.08
238.344	3.93
238.562	46.93
238.779	-4.27
238.996	-10.41
239.214	57.17
239.431	48.98
239.648	-45.23
239.865	63.32
240.083	18.26
240.3	1.88
240.517	75.6
240.735	-0.17
240.952	79.7
241.169	24.4
241.386	-10.41
241.603	5.97
241.821	26.45
242.038	24.4
242.255	42.84
242.472	-59.56
242.689	-30.89
242.907	53.08
243.124	14.17
243.341	63.32
243.558	22.36
243.775	28.5
243.992	24.4
244.209	32.6
244.426	-0.17
244.643	73.56
244.86	16.21
245.078	57.17
245.295	57.17
245.512	8.02
245.729	51.03
245.946	26.45
246.163	40.79
246.38	55.12
246.597	-53.42
246.814	-41.13
247.031	-6.31
247.248	-12.46
247.464	18.26
247.681	16.21
247.898	67.41
248.115	-8.36
248.332	-0.17
248.549	18.26
248.766	59.22
248.983	122.71
249.2	-10.41
249.417	-16.55
249.633	-37.03
249.85	94.04
250.067	-20.65
250.284	-28.84
250.501	51.03
250.717	94.04
250.934	46.93
251.151	36.69
251.368	-2.22
251.585	36.69
251.801	-2.22
252.018	-34.99
252.235	8.02
252.451	69.46
252.668	-45.23
252.885	77.65
253.102	8.02
253.318	116.56
253.535	-22.7
253.752	-14.51
253.968	-16.55
254.185	8.02
254.401	1.88
254.618	55.12
254.835	18.26
255.051	10.07
255.268	34.64
255.484	3.93
255.701	-16.55
255.917	34.64
256.134	12.12
256.351	14.17
256.567	32.6
256.784	-4.27
257	-41.13
257.217	81.75
257.433	-16.55
257.65	57.17
257.866	-0.17
258.082	-34.99
258.299	5.97
258.515	48.98
258.732	-4.27
258.948	-26.79
259.165	26.45
259.381	3.93
259.597	14.17
259.814	16.21
260.03	63.32
260.246	65.36
260.463	-53.42
260.679	12.12
260.895	-39.08
261.112	-18.6
261.328	36.69
261.544	59.22
261.761	-2.22
261.977	-34.99
262.193	-55.47
262.409	-8.36
262.626	34.64
262.842	-18.6
263.058	36.69
263.274	34.64
263.49	-51.37
263.707	81.75
263.923	87.89
264.139	-6.31
264.355	73.56
264.571	98.13
264.787	-0.17
265.004	38.74
265.22	-10.41
265.436	20.31
265.652	16.21
265.868	44.88
266.084	-22.7
266.3	5.97
266.516	-116.9
266.732	10.07
266.948	77.65
267.164	-4.27
267.38	22.36
267.596	-2.22
267.812	79.7
268.028	69.46
268.244	-41.13
268.46	5.97
268.676	12.12
268.892	38.74
269.108	38.74
269.324	14.17
269.54	24.4
269.756	1.88
269.972	-24.75
270.188	79.7
270.403	57.17
270.619	-26.79
270.835	26.45
271.051	8.02
271.267	-34.99
271.483	73.56
271.698	-2.22
271.914	61.27
272.13	40.79
272.346	-4.27
272.562	5.97
272.777	34.64
272.993	30.55
273.209	59.22
273.425	104.28
273.64	-10.41
273.856	44.88
274.072	87.89
274.287	28.5
274.503	-32.94
274.719	-26.79
274.934	73.56
275.15	28.5
275.366	14.17
275.581	-30.89
275.797	18.26
276.012	-34.99
276.228	38.74
276.444	3.93
276.659	-2.22
276.875	-30.89
277.09	51.03
277.306	67.41
277.521	30.55
277.737	-59.56
277.952	51.03
278.168	1.88
278.383	16.21
278.599	30.55
278.814	5.97
279.03	73.56
279.245	-16.55
279.461	-16.55
279.676	55.12
279.892	-26.79
280.107	28.5
280.322	38.74
280.538	-2.22
280.753	-49.32
280.969	24.4
281.184	10.07
281.399	-0.17
281.615	28.5
281.83	112.47
282.045	-53.42
282.26	10.07
282.476	-2.22
282.691	85.84
282.906	-12.46
283.122	79.7
283.337	10.07
283.552	-34.99
283.767	18.26
283.983	44.88
284.198	14.17
284.413	36.69
284.628	-45.23
284.843	48.98
285.058	10.07
285.274	28.5
285.489	42.84
285.704	-8.36
285.919	-18.6
286.134	-4.27
286.349	28.5
286.564	-0.17
286.779	59.22
286.995	-8.36
287.21	46.93
287.425	71.51
287.64	44.88
287.855	28.5
288.07	-49.32
288.285	132.95
288.5	24.4
288.715	8.02
288.93	42.84
289.145	24.4
289.36	1.88
289.575	91.99
289.79	73.56
290.004	-4.27
290.219	75.6
290.434	85.84
290.649	65.36
290.864	36.69
291.079	-20.65
291.294	3.93
291.509	77.65
291.724	73.56
291.938	14.17
292.153	-26.79
292.368	32.6
292.583	55.12
292.798	24.4
293.012	73.56
293.227	67.41
293.442	-18.6
293.657	-16.55
293.871	83.8
294.086	44.88
294.301	81.75
294.516	38.74
294.73	-30.89
294.945	-24.75
295.16	36.69
295.374	59.22
295.589	-4.27
295.804	-16.55
296.018	40.79
296.233	55.12
296.447	40.79
296.662	14.17
296.877	59.22
297.091	24.4
297.306	-2.22
297.52	-55.47
297.735	5.97
297.949	71.51
298.164	-45.23
298.378	53.08
298.593	-22.7
298.807	65.36
299.022	-2.22
299.236	3.93
299.451	18.26
299.665	-12.46
299.88	20.31
300.094	5.97
300.309	-30.89
300.523	-12.46
300.737	69.46
300.952	-26.79
301.166	1.88
301.381	18.26
301.595	14.17
301.809	48.98
302.024	81.75
302.238	-39.08
302.452	26.45
302.667	28.5
302.881	-18.6
303.095	91.99
303.309	-22.7
303.524	-12.46
303.738	-39.08
303.952	-6.31
304.166	69.46
304.381	-30.89
304.595	32.6
304.809	46.93
305.023	75.6
305.237	48.98
305.452	48.98
305.666	5.97
305.88	-2.22
306.094	108.37
306.308	55.12
306.522	69.46
306.736	-47.27
306.95	30.55
307.164	-49.32
307.379	-8.36
307.593	48.98
307.807	65.36
308.021	5.97
308.235	1.88
308.449	12.12
308.663	5.97
308.877	16.21
309.091	12.12
309.305	79.7
309.519	-53.42
309.733	46.93
309.947	5.97
310.161	16.21
310.374	51.03
310.588	20.31
310.802	-6.31
311.016	73.56
311.23	67.41
311.444	-28.84
311.658	26.45
311.872	32.6
312.085	100.18
312.299	-10.41
312.513	59.22
312.727	-28.84
312.941	-2.22
313.154	75.6
313.368	24.4
313.582	46.93
313.796	112.47
314.009	79.7
314.223	34.64
314.437	44.88
314.651	18.26
314.864	26.45
315.078	81.75
315.292	59.22
315.505	-16.55
315.719	34.64
315.933	-28.84
316.146	28.5
316.36	-2.22
316.573	-4.27
316.787	40.79
317.001	5.97
317.214	12.12
317.428	1.88
317.641	87.89
317.855	114.52
318.068	-39.08
318.282	48.98
318.495	-4.27
318.709	81.75
318.922	-0.17
319.136	79.7
319.349	30.55
319.563	18.26
319.776	20.31
319.99	-6.31
320.203	-37.03
320.417	77.65
320.63	-4.27
320.843	24.4
321.057	12.12
321.27	38.74
321.483	-6.31
321.697	137.04
321.91	-22.7
322.124	-6.31
322.337	79.7
322.55	30.55
322.763	42.84
322.977	98.13
323.19	38.74
323.403	32.6
323.617	89.94
323.83	61.27
324.043	-51.37
324.256	16.21
324.469	-6.31
324.683	36.69
324.896	3.93
325.109	24.4
325.322	-43.18
325.535	32.6
325.748	61.27
325.962	-2.22
326.175	36.69
326.388	36.69
326.601	20.31
326.814	10.07
327.027	42.84
327.24	57.17
327.453	-2.22
327.666	16.21
327.879	30.55
328.092	30.55
328.305	46.93
328.518	36.69
328.731	-2.22
328.944	-34.99
329.157	89.94
329.37	46.93
329.583	46.93
329.796	65.36
330.009	-8.36
330.222	55.12
330.435	-2.22
330.648	-22.7
330.861	-2.22
331.073	36.69
331.286	71.51
331.499	73.56
331.712	42.84
331.925	44.88
332.138	-18.6
332.35	102.23
332.563	16.21
332.776	67.41
332.989	22.36
333.202	24.4
333.414	-24.75
333.627	-10.41
333.84	22.36
334.053	38.74
334.265	1.88
334.478	53.08
334.691	34.64
334.903	61.27
335.116	-26.79
335.329	22.36
335.541	141.14
335.754	24.4
335.966	61.27
336.179	-24.75
336.392	-51.37
336.604	24.4
336.817	51.03
337.029	18.26
337.242	32.6
337.454	20.31
337.667	26.45
337.88	67.41
338.092	10.07
338.305	63.32
338.517	77.65
338.729	44.88
338.942	69.46
339.154	1.88
339.367	-20.65
339.579	48.98
339.792	30.55
340.004	-18.6
340.217	24.4
340.429	-59.56
340.641	55.12
340.854	28.5
341.066	-49.32
341.278	98.13
341.491	98.13
341.703	51.03
341.915	20.31
342.128	73.56
342.34	46.93
342.552	-32.94
342.764	-28.84
342.977	20.31
343.189	8.02
343.401	51.03
343.613	34.64
343.826	83.8
344.038	-10.41
344.25	53.08
344.462	-65.71
344.674	18.26
344.886	30.55
345.099	44.88
345.311	110.42
345.523	40.79
345.735	59.22
345.947	73.56
346.159	59.22
346.371	14.17
346.583	-2.22
346.795	83.8
347.007	-80.04
347.219	55.12
347.431	24.4
347.643	75.6
347.855	26.45
348.067	42.84
348.279	-67.75
348.491	-0.17
348.703	-22.7
348.915	12.12
349.127	48.98
349.339	-67.75
349.551	42.84
349.763	-28.84
349.975	-4.27
350.187	-6.31
350.399	34.64
350.61	5.97
350.822	22.36
351.034	-55.47
351.246	87.89
351.458	-61.61
351.669	34.64
351.881	71.51
352.093	34.64
352.305	89.94
352.517	14.17
352.728	-86.19
352.94	63.32
353.152	28.5
353.363	-34.99
353.575	1.88
353.787	81.75
353.999	12.12
354.21	85.84
354.422	55.12
354.633	-24.75
354.845	69.46
355.057	83.8
355.268	79.7
355.48	-16.55
355.692	30.55
355.903	14.17
356.115	38.74
356.326	22.36
356.538	32.6
356.749	14.17
356.961	120.66
357.172	51.03
357.384	42.84
357.595	8.02
357.807	30.55
358.018	-43.18
358.23	94.04
358.441	34.64
358.653	63.32
358.864	38.74
359.075	44.88
359.287	73.56
359.498	65.36
359.709	-0.17
359.921	-28.84
360.132	94.04
360.344	48.98
360.555	-14.51
360.766	32.6
360.977	3.93
361.189	53.08
361.4	1.88
361.611	46.93
361.823	71.51
362.034	26.45
362.245	-2.22
362.456	46.93
362.667	34.64
362.879	30.55
363.09	26.45
363.301	26.45
363.512	40.79
363.723	75.6
363.935	-28.84
364.146	53.08
364.357	-4.27
364.568	36.69
364.779	22.36
364.99	106.32
365.201	14.17
365.412	1.88
365.623	10.07
365.834	28.5
366.045	-30.89
366.256	63.32
366.467	69.46
366.678	16.21
366.889	57.17
367.1	67.41
367.311	69.46
367.522	-49.32
367.733	38.74
367.944	-20.65
368.155	-8.36
368.366	-0.17
368.577	24.4
368.788	87.89
368.999	100.18
369.209	67.41
369.42	96.08
369.631	91.99
369.842	83.8
370.053	3.93
370.264	-37.03
370.474	-34.99
370.685	98.13
370.896	24.4
371.107	20.31
371.317	94.04
371.528	94.04
371.739	77.65
371.95	65.36
372.16	110.42
372.371	48.98
372.582	63.32
372.792	65.36
373.003	8.02
373.214	61.27
373.424	40.79
373.635	16.21
373.846	69.46
374.056	71.51
374.267	87.89
374.477	34.64
374.688	42.84
374.898	135
375.109	51.03
375.319	-12.46
375.53	132.95
375.74	139.09
375.951	-0.17
376.161	-6.31
376.372	51.03
376.582	-67.75
376.793	77.65
377.003	18.26
377.214	40.79
377.424	26.45
377.635	8.02
377.845	44.88
378.055	69.46
378.266	61.27
378.476	32.6
378.686	1.88
378.897	16.21
379.107	63.32
379.317	51.03
379.528	44.88
379.738	77.65
379.948	16.21
380.158	-34.99
380.369	8.02
380.579	106.32
380.789	139.09
380.999	59.22
381.21	-24.75
381.42	20.31
381.63	63.32
381.84	75.6
382.05	67.41
382.261	55.12
382.471	42.84
382.681	75.6
382.891	20.31
383.101	96.08
383.311	28.5
383.521	57.17
383.731	59.22
383.941	87.89
384.151	36.69
384.361	81.75
384.571	110.42
384.781	46.93
384.991	75.6
385.201	100.18
385.411	26.45
385.621	73.56
385.831	51.03
386.041	30.55
386.251	-6.31
386.461	106.32
386.671	69.46
386.881	94.04
387.091	-55.47
387.301	89.94
387.511	48.98
387.72	65.36
387.93	38.74
388.14	46.93
388.35	104.28
388.56	75.6
388.769	53.08
388.979	40.79
389.189	36.69
389.399	79.7
389.609	69.46
389.818	118.61
390.028	73.56
390.238	116.56
390.447	18.26
390.657	104.28
390.867	18.26
391.076	89.94
391.286	36.69
391.496	-8.36
391.705	22.36
391.915	182.1
392.125	16.21
392.334	83.8
392.544	14.17
392.753	81.75
392.963	14.17
393.172	106.32
393.382	73.56
393.591	36.69
393.801	24.4
394.01	130.9
394.22	94.04
394.429	102.23
394.639	120.66
394.848	44.88
395.058	38.74
395.267	44.88
395.477	61.27
395.686	51.03
395.895	141.14
396.105	77.65
396.314	36.69
396.524	85.84
396.733	147.28
396.942	145.24
397.152	114.52
397.361	106.32
397.57	51.03
397.78	106.32
397.989	67.41
398.198	196.43
398.407	87.89
398.617	175.95
398.826	87.89
399.035	98.13
399.244	108.37
399.453	171.86
399.663	67.41
399.872	178
400.081	59.22
400.29	165.71
400.499	18.26
400.708	163.67
400.917	91.99
401.127	89.94
401.336	81.75
401.545	130.9
401.754	223.06
401.963	122.71
402.172	98.13
402.381	63.32
402.59	85.84
402.799	73.56
403.008	110.42
403.217	98.13
403.426	63.32
403.635	184.15
403.844	44.88
404.053	108.37
404.262	83.8
404.471	173.91
404.68	137.04
404.888	81.75
405.097	122.71
405.306	122.71
405.515	145.24
405.724	180.05
405.933	169.81
406.142	198.48
406.35	212.82
406.559	91.99
406.768	221.01
406.977	251.73
407.185	198.48
407.394	163.67
407.603	194.39
407.812	178
408.02	255.83
408.229	251.73
408.438	245.59
408.646	247.63
408.855	243.54
409.064	210.77
409.272	309.07
409.481	311.12
409.69	266.07
409.898	264.02
410.107	255.83
410.315	309.07
410.524	284.5
410.733	337.74
410.941	376.66
411.15	380.75
411.358	407.38
411.567	481.1
411.775	446.29
411.984	442.19
412.192	382.8
412.401	417.61
412.609	556.88
412.818	530.25
413.026	491.34
413.234	610.12
413.443	542.54
413.651	567.12
413.86	540.49
414.068	540.49
414.276	644.94
414.485	649.04
414.693	685.9
414.901	642.89
415.11	747.34
415.318	767.82
415.526	851.78
415.734	827.21
415.943	845.64
416.151	812.87
416.359	902.98
416.567	941.89
416.776	966.47
416.984	991.05
417.192	976.71
417.4	1007.43
417.608	1113.92
417.817	1136.45
418.025	1193.8
418.233	1251.14
418.441	1218.37
418.649	1300.29
418.857	1328.96
419.065	1335.1
419.273	1349.44
419.481	1406.78
419.689	1478.46
419.897	1607.48
420.105	1668.92
420.313	1685.31
420.521	1693.5
420.729	1654.59
420.937	1826.62
421.145	1863.48
421.353	1945.4
421.561	1996.6
421.769	2066.23
421.977	2115.38
422.185	2154.29
422.393	2162.48
422.601	2418.48
422.809	2385.71
423.017	2361.14
423.224	2539.31
423.432	2588.46
423.64	2664.24
423.848	2871.08
424.056	2848.55
424.263	2793.26
424.471	2973.48
424.679	3026.73
424.887	3129.13
425.094	3270.44
425.302	3393.31
425.51	3401.51
425.718	3491.62
425.925	3606.3
426.133	3864.35
426.341	3911.45
426.548	4103.96
426.756	4009.75
426.964	4056.86
427.171	4450.07
427.379	4525.84
427.586	4505.36
427.794	4632.33
428.001	4935.43
428.209	4988.68
428.417	5023.5
428.624	5353.22
428.832	5435.14
429.039	5365.51
429.247	5351.17
429.454	5938.94
429.662	6321.91
429.869	6006.52
430.076	6321.91
430.284	6127.35
430.491	6504.18
430.699	6784.75
430.906	6700.78
431.114	6858.48
431.321	7126.76
431.528	7349.99
431.736	7669.47
431.943	8068.83
432.15	7945.95
432.358	7941.85
432.565	8310.49
432.772	8298.2
432.979	8707.79
433.187	8883.92
433.394	9014.99
433.601	9563.84
433.808	9600.71
434.016	9463.49
434.223	9895.61
434.43	10587.83
434.637	10380.98
434.844	10935.98
435.052	11181.74
435.259	11022
435.466	11255.47
435.673	11065
435.88	11923.1
436.087	12480.15
436.294	12592.79
436.501	12265.11
436.708	12443.29
436.915	12850.83
437.122	13313.67
437.329	13428.36
437.537	13833.86
437.743	14241.4
437.95	13958.78
438.157	14544.5
438.364	15087.22
438.571	15066.74
438.778	15099.5
438.985	16533.08
439.192	15900.26
439.399	16406.11
439.606	16127.58
439.813	16993.87
440.02	18200.13
440.227	17749.57
440.433	17587.78
440.64	18173.5
440.847	18083.39
441.054	18605.63
441.261	19826.21
441.467	19686.95
441.674	19779.11
441.881	20706.84
442.088	20233.76
442.294	20256.29
442.501	20964.89
442.708	21411.34
442.914	21902.86
443.121	23113.2
443.328	22576.64
443.534	23766.51
443.741	23051.77
443.948	23066.1
444.154	24686.04
444.361	24925.66
444.568	24796.63
444.774	24606.17
444.981	25349.59
445.187	25779.66
445.394	27219.38
445.6	26549.7
445.807	29134.23
446.013	27858.35
446.22	28462.5
446.426	29291.93
446.633	29322.65
446.839	30696.83
447.046	29445.52
447.252	31176.06
447.459	31245.69
447.665	31188.35
447.871	32847.2
448.078	34061.65
448.284	32025.96
448.491	33187.16
448.697	34456.9
448.903	35190.08
449.11	35663.16
449.316	34563.4
449.522	35362.11
449.728	35880.24
449.935	36472.1
450.141	36672.81
450.347	37500.19
450.553	36207.92
450.76	36818.21
450.966	37960.98
451.172	37549.34
451.378	38515.98
451.584	38100.24
451.791	38565.13
451.997	38743.3
452.203	39171.33
452.409	39165.18
452.615	39042.31
452.821	37772.56
453.027	37549.34
453.233	39558.39
453.44	38202.64
453.646	38212.88
453.852	38597.9
454.058	39240.96
454.264	37942.55
454.47	38702.34
454.676	38014.23
454.882	39103.74
455.088	35855.67
455.294	36257.07
455.5	36969.76
455.705	37430.55
455.911	35800.37
456.117	35153.21
456.323	34411.85
456.529	32912.74
456.735	34311.5
456.941	33867.09
457.147	32763.23
457.352	32241
457.558	31350.13
457.764	31649.14
457.97	30766.46
458.176	30487.94
458.381	30217.61
458.587	28906.91
458.793	29076.89
458.999	27671.98
459.204	29656.46
459.41	28779.93
459.616	26660.29
459.821	26926.52
460.027	26623.42
460.233	25875.91
460.438	24628.7
460.644	25437.65
460.85	24008.17
461.055	23737.84
461.261	23905.77
461.466	21593.61
461.672	21323.28
461.878	22894.07
462.083	21169.68
462.289	20674.07
462.494	20747.8
462.7	19674.67
462.905	18740.79
463.111	19781.16
463.316	19875.37
463.522	19402.29
463.727	19385.9
463.932	19330.61
464.138	18994.74
464.343	19154.48
464.549	18751.03
464.754	19181.1
464.959	19142.19
465.165	18906.68
465.37	18136.64
465.575	17528.39
465.781	18306.62
465.986	18669.11
466.191	17757.77
466.397	17514.06
466.602	16608.86
466.807	17473.1
467.012	17421.9
467.218	17266.25
