Data from USB4F104151__22__12-35-25-862.txt Node

Date: Fri Mar 14 12:35:25 EDT 2025
User: louis
Spectrometer: USB4F10415
Trigger mode: 4
Integration Time (sec): 2.000000E-2
Scans to average: 1
Electric dark correction enabled: true
Nonlinearity correction enabled: false
Boxcar width: 0
XAxis mode: Wavelengths
Number of Pixels in Spectrum: 3648
>>>>>Begin Spectral Data<<<<<
178.204	0.51
178.424	0.51
178.644	0.51
178.864	-73.21
179.084	-79.36
179.304	4.61
179.524	-17.92
179.744	-11.78
179.964	31.23
180.184	33.28
180.404	-26.11
180.624	-36.35
180.844	33.28
181.064	-24.06
181.283	33.28
181.503	-56.83
181.723	37.38
181.943	2.56
182.163	143.87
182.383	2.56
182.602	47.62
182.822	41.47
183.042	49.66
183.262	12.8
183.482	-13.82
183.701	55.81
183.921	10.75
184.141	-1.54
184.361	45.57
184.58	6.66
184.8	-1.54
185.02	-1.54
185.239	72.19
185.459	-11.78
185.679	12.8
185.898	47.62
186.118	14.85
186.338	-13.82
186.557	66.05
186.777	10.75
186.997	43.52
187.216	0.51
187.436	74.24
187.655	12.8
187.875	61.95
188.095	6.66
188.314	8.7
188.534	35.33
188.753	0.51
188.973	-40.45
189.192	94.72
189.412	82.43
189.631	23.04
189.851	92.67
190.07	45.57
190.29	16.9
190.509	-19.97
190.729	14.85
190.948	2.56
191.168	109.05
191.387	31.23
191.607	31.23
191.826	12.8
192.045	-5.63
192.265	53.76
192.484	27.14
192.704	-34.3
192.923	16.9
193.142	78.33
193.362	31.23
193.581	-9.73
193.8	27.14
194.02	27.14
194.239	16.9
194.458	115.2
194.678	35.33
194.897	18.94
195.116	-5.63
195.335	33.28
195.555	53.76
195.774	-32.26
195.993	20.99
196.212	2.56
196.432	2.56
196.651	12.8
196.87	23.04
197.089	61.95
197.308	61.95
197.528	66.05
197.747	14.85
197.966	-3.58
198.185	27.14
198.404	-17.92
198.623	72.19
198.842	10.75
199.062	14.85
199.281	39.42
199.5	-26.11
199.719	80.38
199.938	29.18
200.157	61.95
200.376	70.14
200.595	14.85
200.814	66.05
201.033	57.86
201.252	16.9
201.471	35.33
201.69	39.42
201.909	78.33
202.128	10.75
202.347	47.62
202.566	39.42
202.785	0.51
203.004	16.9
203.223	70.14
203.442	-30.21
203.661	-11.78
203.879	59.9
204.098	16.9
204.317	78.33
204.536	29.18
204.755	-11.78
204.974	8.7
205.193	41.47
205.411	39.42
205.63	18.94
205.849	80.38
206.068	29.18
206.287	-3.58
206.505	-3.58
206.724	2.56
206.943	33.28
207.162	23.04
207.381	49.66
207.599	-34.3
207.818	4.61
208.037	45.57
208.255	4.61
208.474	27.14
208.693	10.75
208.911	-26.11
209.13	-40.45
209.349	86.53
209.567	-5.63
209.786	25.09
210.005	41.47
210.223	37.38
210.442	-19.97
210.661	43.52
210.879	55.81
211.098	16.9
211.316	25.09
211.535	53.76
211.753	41.47
211.972	51.71
212.191	35.33
212.409	53.76
212.628	53.76
212.846	16.9
213.065	-7.68
213.283	41.47
213.502	43.52
213.72	78.33
213.938	-38.4
214.157	98.81
214.375	4.61
214.594	12.8
214.812	78.33
215.031	-15.87
215.249	84.48
215.467	35.33
215.686	31.23
215.904	53.76
216.122	14.85
216.341	70.14
216.559	111.1
216.778	47.62
216.996	27.14
217.214	-32.26
217.432	-13.82
217.651	-58.88
217.869	-28.16
218.087	70.14
218.306	-15.87
218.524	92.67
218.742	-9.73
218.96	74.24
219.179	76.29
219.397	25.09
219.615	6.66
219.833	25.09
220.051	29.18
220.27	119.29
220.488	8.7
220.706	43.52
220.924	-24.06
221.142	4.61
221.36	70.14
221.578	-62.98
221.796	29.18
222.015	8.7
222.233	20.99
222.451	57.86
222.669	-46.59
222.887	8.7
223.105	47.62
223.323	86.53
223.541	-24.06
223.759	121.34
223.977	20.99
224.195	35.33
224.413	-5.63
224.631	43.52
224.849	-42.5
225.067	90.62
225.285	49.66
225.503	74.24
225.721	86.53
225.939	16.9
226.157	59.9
226.375	39.42
226.592	-13.82
226.81	-38.4
227.028	78.33
227.246	70.14
227.464	41.47
227.682	20.99
227.9	-11.78
228.117	2.56
228.335	4.61
228.553	82.43
228.771	-19.97
228.989	0.51
229.206	33.28
229.424	-13.82
229.642	-13.82
229.86	20.99
230.077	-22.02
230.295	43.52
230.513	51.71
230.731	6.66
230.948	59.9
231.166	86.53
231.384	41.47
231.601	45.57
231.819	57.86
232.037	33.28
232.254	45.57
232.472	-3.58
232.689	74.24
232.907	102.91
233.125	66.05
233.342	29.18
233.56	-36.35
233.777	98.81
233.995	-3.58
234.213	33.28
234.43	49.66
234.648	49.66
234.865	14.85
235.083	57.86
235.3	33.28
235.518	84.48
235.735	23.04
235.953	70.14
236.17	31.23
236.388	45.57
236.605	-13.82
236.822	66.05
237.04	68.09
237.257	-28.16
237.475	49.66
237.692	76.29
237.909	4.61
238.127	59.9
238.344	0.51
238.562	-3.58
238.779	2.56
238.996	-13.82
239.214	76.29
239.431	-28.16
239.648	45.57
239.865	90.62
240.083	-11.78
240.3	37.38
240.517	39.42
240.735	64
240.952	31.23
241.169	88.57
241.386	-19.97
241.603	-32.26
241.821	-46.59
242.038	39.42
242.255	10.75
242.472	43.52
242.689	20.99
242.907	68.09
243.124	59.9
243.341	37.38
243.558	51.71
243.775	-3.58
243.992	-28.16
244.209	90.62
244.426	127.49
244.643	68.09
244.86	8.7
245.078	70.14
245.295	4.61
245.512	-3.58
245.729	74.24
245.946	4.61
246.163	12.8
246.38	61.95
246.597	12.8
246.814	-17.92
247.031	68.09
247.248	-1.54
247.464	20.99
247.681	2.56
247.898	55.81
248.115	39.42
248.332	31.23
248.549	57.86
248.766	121.34
248.983	20.99
249.2	27.14
249.417	55.81
249.633	37.38
249.85	12.8
250.067	8.7
250.284	2.56
250.501	84.48
250.717	76.29
250.934	35.33
251.151	51.71
251.368	57.86
251.585	84.48
251.801	31.23
252.018	-7.68
252.235	43.52
252.451	70.14
252.668	0.51
252.885	49.66
253.102	104.96
253.318	-30.21
253.535	33.28
253.752	10.75
253.968	33.28
254.185	86.53
254.401	-17.92
254.618	-3.58
254.835	37.38
255.051	20.99
255.268	37.38
255.484	31.23
255.701	51.71
255.917	74.24
256.134	0.51
256.351	39.42
256.567	27.14
256.784	70.14
257	-40.45
257.217	86.53
257.433	-17.92
257.65	43.52
257.866	86.53
258.082	-17.92
258.299	-19.97
258.515	64
258.732	2.56
258.948	-13.82
259.165	-17.92
259.381	33.28
259.597	-1.54
259.814	-13.82
260.03	-38.4
260.246	-5.63
260.463	70.14
260.679	94.72
260.895	35.33
261.112	27.14
261.328	27.14
261.544	49.66
261.761	64
261.977	23.04
262.193	-19.97
262.409	-48.64
262.626	57.86
262.842	100.86
263.058	0.51
263.274	31.23
263.49	57.86
263.707	64
263.923	53.76
264.139	43.52
264.355	92.67
264.571	41.47
264.787	-3.58
265.004	23.04
265.22	68.09
265.436	-1.54
265.652	41.47
265.868	64
266.084	14.85
266.3	8.7
266.516	31.23
266.732	6.66
266.948	45.57
267.164	53.76
267.38	39.42
267.596	23.04
267.812	20.99
268.028	156.16
268.244	35.33
268.46	23.04
268.676	47.62
268.892	96.77
269.108	0.51
269.324	43.52
269.54	-9.73
269.756	59.9
269.972	45.57
270.188	-26.11
270.403	0.51
270.619	-34.3
270.835	70.14
271.051	53.76
271.267	-54.78
271.483	49.66
271.698	31.23
271.914	2.56
272.13	0.51
272.346	-24.06
272.562	49.66
272.777	82.43
272.993	-7.68
273.209	18.94
273.425	-3.58
273.64	47.62
273.856	59.9
274.072	74.24
274.287	-50.69
274.503	0.51
274.719	23.04
274.934	29.18
275.15	-99.84
275.366	-1.54
275.581	8.7
275.797	84.48
276.012	47.62
276.228	78.33
276.444	-48.64
276.659	4.61
276.875	8.7
277.09	119.29
277.306	-30.21
277.521	-15.87
277.737	88.57
277.952	76.29
278.168	59.9
278.383	-1.54
278.599	49.66
278.814	-11.78
279.03	70.14
279.245	29.18
279.461	66.05
279.676	47.62
279.892	4.61
280.107	-50.69
280.322	8.7
280.538	33.28
280.753	-36.35
280.969	51.71
281.184	-19.97
281.399	27.14
281.615	66.05
281.83	8.7
282.045	14.85
282.26	-7.68
282.476	27.14
282.691	27.14
282.906	27.14
283.122	53.76
283.337	10.75
283.552	-15.87
283.767	-40.45
283.983	25.09
284.198	66.05
284.413	12.8
284.628	2.56
284.843	45.57
285.058	18.94
285.274	31.23
285.489	-17.92
285.704	94.72
285.919	35.33
286.134	80.38
286.349	14.85
286.564	8.7
286.779	8.7
286.995	-7.68
287.21	31.23
287.425	82.43
287.64	16.9
287.855	55.81
288.07	23.04
288.285	31.23
288.5	104.96
288.715	57.86
288.93	-13.82
289.145	-42.5
289.36	88.57
289.575	88.57
289.79	20.99
290.004	33.28
290.219	49.66
290.434	49.66
290.649	37.38
290.864	20.99
291.079	16.9
291.294	14.85
291.509	31.23
291.724	12.8
291.938	27.14
292.153	25.09
292.368	-22.02
292.583	68.09
292.798	25.09
293.012	51.71
293.227	14.85
293.442	-30.21
293.657	98.81
293.871	41.47
294.086	-5.63
294.301	18.94
294.516	18.94
294.73	78.33
294.945	35.33
295.16	37.38
295.374	55.81
295.589	31.23
295.804	80.38
296.018	4.61
296.233	-5.63
296.447	37.38
296.662	29.18
296.877	80.38
297.091	20.99
297.306	76.29
297.52	-38.4
297.735	23.04
297.949	29.18
298.164	23.04
298.378	90.62
298.593	45.57
298.807	-22.02
299.022	2.56
299.236	49.66
299.451	51.71
299.665	37.38
299.88	100.86
300.094	35.33
300.309	53.76
300.523	0.51
300.737	8.7
300.952	64
301.166	2.56
301.381	16.9
301.595	-13.82
301.809	55.81
302.024	61.95
302.238	-62.98
302.452	-32.26
302.667	43.52
302.881	55.81
303.095	39.42
303.309	57.86
303.524	-50.69
303.738	8.7
303.952	49.66
304.166	39.42
304.381	-17.92
304.595	35.33
304.809	59.9
305.023	18.94
305.237	-40.45
305.452	14.85
305.666	-11.78
305.88	31.23
306.094	55.81
306.308	55.81
306.522	98.81
306.736	29.18
306.95	92.67
307.164	23.04
307.379	20.99
307.593	20.99
307.807	57.86
308.021	4.61
308.235	66.05
308.449	-50.69
308.663	-11.78
308.877	37.38
309.091	102.91
309.305	107.01
309.519	-34.3
309.733	37.38
309.947	-22.02
310.161	35.33
310.374	-32.26
310.588	80.38
310.802	47.62
311.016	-19.97
311.23	72.19
311.444	107.01
311.658	10.75
311.872	49.66
312.085	53.76
312.299	10.75
312.513	23.04
312.727	-11.78
312.941	80.38
313.154	20.99
313.368	70.14
313.582	119.29
313.796	96.77
314.009	29.18
314.223	86.53
314.437	47.62
314.651	102.91
314.864	33.28
315.078	-32.26
315.292	16.9
315.505	29.18
315.719	49.66
315.933	-38.4
316.146	55.81
316.36	16.9
316.573	86.53
316.787	78.33
317.001	6.66
317.214	80.38
317.428	82.43
317.641	-17.92
317.855	14.85
318.068	2.56
318.282	94.72
318.495	109.05
318.709	61.95
318.922	76.29
319.136	25.09
319.349	74.24
319.563	-67.07
319.776	45.57
319.99	68.09
320.203	27.14
320.417	25.09
320.63	18.94
320.843	88.57
321.057	43.52
321.27	8.7
321.483	-22.02
321.697	43.52
321.91	10.75
322.124	86.53
322.337	98.81
322.55	23.04
322.763	-40.45
322.977	113.15
323.19	84.48
323.403	125.44
323.617	57.86
323.83	84.48
324.043	102.91
324.256	64
324.469	29.18
324.683	35.33
324.896	61.95
325.109	76.29
325.322	-5.63
325.535	76.29
325.748	-22.02
325.962	37.38
326.175	-44.54
326.388	41.47
326.601	25.09
326.814	80.38
327.027	45.57
327.24	104.96
327.453	10.75
327.666	70.14
327.879	51.71
328.092	-9.73
328.305	72.19
328.518	23.04
328.731	18.94
328.944	49.66
329.157	16.9
329.37	61.95
329.583	100.86
329.796	86.53
330.009	27.14
330.222	45.57
330.435	20.99
330.648	47.62
330.861	49.66
331.073	68.09
331.286	59.9
331.499	27.14
331.712	-15.87
331.925	8.7
332.138	66.05
332.35	92.67
332.563	-3.58
332.776	43.52
332.989	18.94
333.202	129.53
333.414	49.66
333.627	16.9
333.84	39.42
334.053	0.51
334.265	27.14
334.478	18.94
334.691	53.76
334.903	39.42
335.116	0.51
335.329	6.66
335.541	43.52
335.754	78.33
335.966	49.66
336.179	53.76
336.392	6.66
336.604	31.23
336.817	72.19
337.029	45.57
337.242	27.14
337.454	96.77
337.667	27.14
337.88	49.66
338.092	72.19
338.305	47.62
338.517	-3.58
338.729	86.53
338.942	127.49
339.154	94.72
339.367	41.47
339.579	78.33
339.792	-1.54
340.004	59.9
340.217	57.86
340.429	49.66
340.641	74.24
340.854	59.9
341.066	-24.06
341.278	29.18
341.491	125.44
341.703	-9.73
341.915	-24.06
342.128	111.1
342.34	51.71
342.552	121.34
342.764	-22.02
342.977	-24.06
343.189	29.18
343.401	55.81
343.613	43.52
343.826	94.72
344.038	-24.06
344.25	12.8
344.462	-46.59
344.674	31.23
344.886	41.47
345.099	47.62
345.311	74.24
345.523	49.66
345.735	8.7
345.947	49.66
346.159	23.04
346.371	45.57
346.583	18.94
346.795	31.23
347.007	16.9
347.219	94.72
347.431	-24.06
347.643	12.8
347.855	23.04
348.067	102.91
348.279	29.18
348.491	39.42
348.703	47.62
348.915	-58.88
349.127	23.04
349.339	39.42
349.551	12.8
349.763	86.53
349.975	80.38
350.187	78.33
350.399	43.52
350.61	47.62
350.822	59.9
351.034	74.24
351.246	72.19
351.458	18.94
351.669	115.2
351.881	12.8
352.093	51.71
352.305	18.94
352.517	23.04
352.728	35.33
352.94	111.1
353.152	74.24
353.363	27.14
353.575	78.33
353.787	94.72
353.999	84.48
354.21	12.8
354.422	-44.54
354.633	49.66
354.845	66.05
355.057	37.38
355.268	49.66
355.48	43.52
355.692	14.85
355.903	10.75
356.115	61.95
356.326	31.23
356.538	100.86
356.749	16.9
356.961	47.62
357.172	35.33
357.384	68.09
357.595	25.09
357.807	47.62
358.018	59.9
358.23	31.23
358.441	111.1
358.653	57.86
358.864	23.04
359.075	61.95
359.287	64
359.498	190.97
359.709	35.33
359.921	47.62
360.132	35.33
360.344	2.56
360.555	31.23
360.766	25.09
360.977	10.75
361.189	154.11
361.4	51.71
361.611	96.77
361.823	104.96
362.034	61.95
362.245	-38.4
362.456	25.09
362.667	-3.58
362.879	57.86
363.09	53.76
363.301	37.38
363.512	20.99
363.723	66.05
363.935	-44.54
364.146	107.01
364.357	33.28
364.568	55.81
364.779	57.86
364.99	53.76
365.201	37.38
365.412	68.09
365.623	0.51
365.834	64
366.045	33.28
366.256	100.86
366.467	59.9
366.678	39.42
366.889	20.99
367.1	20.99
367.311	88.57
367.522	131.58
367.733	88.57
367.944	39.42
368.155	0.51
368.366	72.19
368.577	92.67
368.788	123.39
368.999	33.28
369.209	72.19
369.42	78.33
369.631	133.63
369.842	133.63
370.053	25.09
370.264	104.96
370.474	29.18
370.685	2.56
370.896	88.57
371.107	135.68
371.317	92.67
371.528	59.9
371.739	64
371.95	111.1
372.16	45.57
372.371	61.95
372.582	76.29
372.792	109.05
373.003	23.04
373.214	29.18
373.424	80.38
373.635	2.56
373.846	33.28
374.056	-9.73
374.267	78.33
374.477	4.61
374.688	53.76
374.898	0.51
375.109	12.8
375.319	14.85
375.53	127.49
375.74	-44.54
375.951	86.53
376.161	47.62
376.372	39.42
376.582	37.38
376.793	139.77
377.003	92.67
377.214	31.23
377.424	86.53
377.635	86.53
377.845	-36.35
378.055	45.57
378.266	51.71
378.476	139.77
378.686	76.29
378.897	104.96
379.107	64
379.317	102.91
379.528	61.95
379.738	57.86
379.948	41.47
380.158	39.42
380.369	78.33
380.579	66.05
380.789	107.01
380.999	96.77
381.21	104.96
381.42	66.05
381.63	55.81
381.84	115.2
382.05	14.85
382.261	64
382.471	47.62
382.681	86.53
382.891	96.77
383.101	86.53
383.311	92.67
383.521	45.57
383.731	51.71
383.941	35.33
384.151	96.77
384.361	-3.58
384.571	113.15
384.781	100.86
384.991	12.8
385.201	137.73
385.411	115.2
385.621	70.14
385.831	57.86
386.041	45.57
386.251	74.24
386.461	53.76
386.671	33.28
386.881	98.81
387.091	86.53
387.301	131.58
387.511	76.29
387.72	64
387.93	139.77
388.14	12.8
388.35	162.3
388.56	51.71
388.769	94.72
388.979	109.05
389.189	20.99
389.399	8.7
389.609	74.24
389.818	131.58
390.028	47.62
390.238	57.86
390.447	43.52
390.657	68.09
390.867	16.9
391.076	66.05
391.286	16.9
391.496	117.25
391.705	76.29
391.915	14.85
392.125	92.67
392.334	70.14
392.544	84.48
392.753	70.14
392.963	68.09
393.172	147.97
393.382	68.09
393.591	109.05
393.801	98.81
394.01	107.01
394.22	78.33
394.429	76.29
394.639	68.09
394.848	156.16
395.058	41.47
395.267	154.11
395.477	86.53
395.686	113.15
395.895	109.05
396.105	176.64
396.314	123.39
396.524	109.05
396.733	80.38
396.942	33.28
397.152	66.05
397.361	107.01
397.57	98.81
397.78	115.2
397.989	160.25
398.198	154.11
398.407	117.25
398.617	31.23
398.826	41.47
399.035	174.59
399.244	135.68
399.453	162.3
399.663	199.16
399.872	82.43
400.081	107.01
400.29	82.43
400.499	129.53
400.708	119.29
400.917	47.62
401.127	64
401.336	35.33
401.545	125.44
401.754	109.05
401.963	197.12
402.172	141.82
402.381	78.33
402.59	109.05
402.799	102.91
403.008	176.64
403.217	127.49
403.426	129.53
403.635	111.1
403.844	150.01
404.053	180.73
404.262	104.96
404.471	135.68
404.68	221.69
404.888	135.68
405.097	211.45
405.306	211.45
405.515	131.58
405.724	197.12
405.933	170.49
406.142	131.58
406.35	199.16
406.559	184.83
406.768	233.98
406.977	272.89
407.185	236.03
407.394	225.79
407.603	176.64
407.812	240.12
408.02	317.95
408.229	254.46
408.438	223.74
408.646	287.23
408.855	283.13
409.064	287.23
409.272	244.22
409.481	328.19
409.69	295.42
409.898	354.81
410.107	367.1
410.315	391.67
410.524	338.43
410.733	420.35
410.941	422.39
411.15	424.44
411.358	387.58
411.567	512.5
411.775	434.68
411.984	444.92
412.192	498.17
412.401	514.55
412.609	563.7
412.818	582.14
413.026	557.56
413.234	596.47
413.443	678.39
413.651	567.8
413.86	647.67
414.068	739.83
414.276	692.73
414.485	748.02
414.693	752.12
414.901	838.13
415.11	829.94
415.318	850.42
415.526	862.71
415.734	842.23
415.943	936.43
416.151	946.67
416.359	846.32
416.567	1083.89
416.776	1020.4
416.984	1184.24
417.192	1188.33
417.4	1180.14
417.608	1049.07
417.817	1208.81
418.025	1266.16
418.233	1286.64
418.441	1309.16
418.649	1505.77
418.857	1509.86
419.065	1495.53
419.273	1454.57
419.481	1585.64
419.689	1833.44
419.897	1755.62
420.105	1733.09
420.313	1749.48
420.521	1843.68
420.729	1896.93
420.937	2068.96
421.145	1894.88
421.353	2085.34
421.561	2116.06
421.769	2339.29
421.977	2490.84
422.185	2400.73
422.393	2527.71
422.601	2617.82
422.809	2689.49
423.017	2656.73
423.224	2730.45
423.432	3008.98
423.64	2988.5
423.848	3230.16
424.056	2925.01
424.263	3367.37
424.471	3314.13
424.679	3449.29
424.887	3578.31
425.094	3727.82
425.302	3723.72
425.51	3746.25
425.718	4010.43
425.925	3985.86
426.133	4200.9
426.341	4336.06
426.548	4563.39
426.756	4647.35
426.964	4557.24
427.171	4684.22
427.379	5069.23
427.586	5063.09
427.794	5116.34
428.001	5566.89
428.209	5620.14
428.417	5603.75
428.624	6111.65
428.832	6199.71
429.039	6019.49
429.247	6085.03
429.454	6521.24
429.662	7008.66
429.869	6554.01
430.076	7164.31
430.284	6781.34
430.491	7199.12
430.699	7541.13
430.906	7491.98
431.114	7518.61
431.321	7942.53
431.528	8034.69
431.736	8606.08
431.943	8808.83
432.15	8675.71
432.358	8534.4
432.565	9083.25
432.772	9234.8
432.979	9765.23
433.187	9980.26
433.394	9873.77
433.601	10508.64
433.808	10527.07
434.016	10391.91
434.223	11071.83
434.43	11567.44
434.637	11526.48
434.844	12112.2
435.052	12337.48
435.259	12460.35
435.466	12443.97
435.673	12218.69
435.88	12958.01
436.087	13662.51
436.294	13803.82
436.501	13306.16
436.708	13844.78
436.915	14098.73
437.122	14668.06
437.329	14715.17
437.537	15284.5
437.743	15495.44
437.95	15135
438.157	16095.5
438.364	16658.69
438.571	16447.75
438.778	16511.24
438.985	18399.46
439.192	17625.33
439.399	18036.97
439.606	17924.33
439.813	18680.03
440.02	19886.29
440.227	19572.95
440.433	19224.79
440.64	19859.66
440.847	19738.83
441.054	20224.2
441.261	21586.1
441.467	21246.14
441.674	21672.12
441.881	22687.91
442.088	22597.8
442.294	22149.29
442.501	22890.66
442.708	23656.6
442.914	24379.53
443.121	25317.5
443.328	24281.23
443.534	26134.64
443.741	25450.62
443.948	25118.85
444.154	27088.99
444.361	26605.67
444.568	26988.64
444.774	27322.46
444.981	27447.39
445.187	27797.59
445.394	29327.42
445.6	29005.89
445.807	31817.75
446.013	30363.7
446.22	31197.22
446.426	31709.21
446.633	32567.31
446.839	33652.73
447.046	32075.8
447.252	33880.06
447.459	34121.72
447.665	34097.14
447.871	35207.14
448.078	36653.01
448.284	34938.86
448.491	36386.77
448.697	37488.58
448.903	38336.44
449.11	38158.27
449.316	37797.82
449.522	37943.23
449.728	39331.75
449.935	39364.52
450.141	39727.01
450.347	40460.18
450.553	39137.19
450.76	39647.14
450.966	40804.24
451.172	40353.69
451.378	41492.36
451.584	41277.32
451.791	41885.57
451.997	41598.85
452.203	42434.42
452.409	42239.87
452.615	42250.11
452.821	40521.62
453.027	40152.99
453.233	42100.61
453.44	40363.93
453.646	41068.43
453.852	41301.9
454.058	41746.31
454.264	40808.34
454.47	41578.37
454.676	40802.19
454.882	42047.36
455.088	38215.61
455.294	38940.59
455.5	39182.25
455.705	40142.75
455.911	38643.63
456.117	37560.26
456.323	36878.29
456.529	35135.46
456.735	36804.56
456.941	35799.01
457.147	35344.36
457.352	33927.16
457.558	33771.52
457.764	33634.3
457.97	33218.57
458.176	32559.12
458.381	32481.3
458.587	30982.18
458.793	30892.07
458.999	29136.96
459.204	31248.42
459.41	31006.76
459.616	28371.02
459.821	28663.88
460.027	28368.98
460.233	28115.03
460.438	26267.76
460.644	26859.62
460.85	25720.95
461.055	25014.4
461.261	25106.56
461.466	23318.68
461.672	22546.6
461.878	23992.47
462.083	22436.01
462.289	22393
462.494	21926.07
462.7	20887.75
462.905	20494.54
463.111	20926.66
463.316	21231.8
463.522	20711.62
463.727	20689.09
463.932	20639.94
464.138	20371.66
464.343	20441.29
464.549	19863.76
464.754	20246.73
464.959	20271.31
465.165	20250.83
465.37	19290.33
465.575	19036.38
465.781	19753.17
465.986	19673.3
466.191	19362.01
466.397	18737.38
466.602	17809.65
466.807	18387.18
467.012	18573.54
467.218	18331.88
467.423	18055.4
467.628	18061.55
467.833	18985.18
468.038	18219.24
