Data from USB4F104151__8__12-34-59-225.txt Node

Date: Fri Mar 14 12:34:59 EDT 2025
User: louis
Spectrometer: USB4F10415
Trigger mode: 4
Integration Time (sec): 2.000000E-2
Scans to average: 1
Electric dark correction enabled: true
Nonlinearity correction enabled: false
Boxcar width: 0
XAxis mode: Wavelengths
Number of Pixels in Spectrum: 3648
>>>>>Begin Spectral Data<<<<<
178.204	-120.49
178.424	-120.49
178.644	-120.49
178.864	-48.81
179.084	-114.34
179.304	-20.14
179.524	-97.96
179.744	-9.9
179.964	6.49
180.184	-34.47
180.404	-13.99
180.624	61.78
180.844	45.4
181.064	-48.81
181.283	-22.19
181.503	12.63
181.723	121.17
181.943	-65.19
182.163	37.2
182.383	37.2
182.602	33.11
182.822	-9.9
183.042	-1.71
183.262	55.64
183.482	22.87
183.701	-16.04
183.921	41.3
184.141	8.53
184.361	76.12
184.58	24.92
184.8	37.2
185.02	29.01
185.239	88.4
185.459	8.53
185.679	90.45
185.898	-61.1
186.118	96.6
186.338	16.73
186.557	-7.85
186.777	55.64
186.997	53.59
187.216	-34.47
187.436	115.03
187.655	-16.04
187.875	49.49
188.095	-69.29
188.314	43.35
188.534	59.73
188.753	37.2
188.973	72.02
189.192	55.64
189.412	-11.95
189.631	29.01
189.851	72.02
190.07	51.54
190.29	-5.8
190.509	-24.23
190.729	-71.34
190.948	69.97
191.168	45.4
191.387	20.82
191.607	29.01
191.826	12.63
192.045	24.92
192.265	-22.19
192.484	-30.38
192.704	41.3
192.923	12.63
193.142	67.92
193.362	39.25
193.581	63.83
193.8	90.45
194.02	39.25
194.239	4.44
194.458	-28.33
194.678	-44.71
194.897	-26.28
195.116	43.35
195.335	-18.09
195.555	20.82
195.774	4.44
195.993	96.6
196.212	41.3
196.432	67.92
196.651	-44.71
196.87	29.01
197.089	106.84
197.308	41.3
197.528	8.53
197.747	-9.9
197.966	51.54
198.185	61.78
198.404	0.34
198.623	10.58
198.842	39.25
199.062	41.3
199.281	-9.9
199.5	-5.8
199.719	-22.19
199.938	22.87
200.157	84.31
200.376	29.01
200.595	6.49
200.814	31.06
201.033	33.11
201.252	82.26
201.471	14.68
201.69	-5.8
201.909	90.45
202.128	-32.43
202.347	31.06
202.566	67.92
202.785	8.53
203.004	18.77
203.223	53.59
203.442	-18.09
203.661	33.11
203.879	45.4
204.098	-3.75
204.317	-71.34
204.536	45.4
204.755	55.64
204.974	63.83
205.193	-20.14
205.411	61.78
205.63	33.11
205.849	26.96
206.068	49.49
206.287	22.87
206.505	31.06
206.724	-18.09
206.943	-20.14
207.162	43.35
207.381	26.96
207.599	49.49
207.818	53.59
208.037	41.3
208.255	6.49
208.474	-61.1
208.693	49.49
208.911	49.49
209.13	33.11
209.349	14.68
209.567	6.49
209.786	92.5
210.005	37.2
210.223	47.44
210.442	22.87
210.661	-11.95
210.879	22.87
211.098	45.4
211.316	-32.43
211.535	26.96
211.753	16.73
211.972	-102.06
212.191	-36.52
212.409	14.68
212.628	-30.38
212.846	41.3
213.065	18.77
213.283	55.64
213.502	37.2
213.72	4.44
213.938	24.92
214.157	10.58
214.375	-13.99
214.594	53.59
214.812	29.01
215.031	96.6
215.249	45.4
215.467	59.73
215.686	4.44
215.904	84.31
216.122	33.11
216.341	55.64
216.559	14.68
216.778	2.39
216.996	39.25
217.214	6.49
217.432	-42.67
217.651	65.88
217.869	-18.09
218.087	96.6
218.306	67.92
218.524	39.25
218.742	29.01
218.96	20.82
219.179	55.64
219.397	-5.8
219.615	72.02
219.833	33.11
220.051	4.44
220.27	2.39
220.488	49.49
220.706	14.68
220.924	-42.67
221.142	78.16
221.36	59.73
221.578	0.34
221.796	90.45
222.015	84.31
222.233	-3.75
222.451	53.59
222.669	-5.8
222.887	55.64
223.105	10.58
223.323	45.4
223.541	-48.81
223.759	20.82
223.977	20.82
224.195	29.01
224.413	72.02
224.631	61.78
224.849	8.53
225.067	106.84
225.285	49.49
225.503	-7.85
225.721	-11.95
225.939	-1.71
226.157	-38.57
226.375	115.03
226.592	45.4
226.81	63.83
227.028	108.88
227.246	76.12
227.464	57.68
227.682	63.83
227.9	84.31
228.117	10.58
228.335	-13.99
228.553	72.02
228.771	2.39
228.989	22.87
229.206	51.54
229.424	2.39
229.642	-22.19
229.86	55.64
230.077	78.16
230.295	-7.85
230.513	104.79
230.731	-52.91
230.948	82.26
231.166	117.08
231.384	24.92
231.601	-104.11
231.819	24.92
232.037	-3.75
232.254	35.16
232.472	-13.99
232.689	57.68
232.907	53.59
233.125	-89.77
233.342	51.54
233.56	-5.8
233.777	33.11
233.995	59.73
234.213	94.55
234.43	-1.71
234.648	4.44
234.865	0.34
235.083	26.96
235.3	-97.96
235.518	10.58
235.735	33.11
235.953	69.97
236.17	37.2
236.388	12.63
236.605	115.03
236.822	33.11
237.04	35.16
237.257	18.77
237.475	29.01
237.692	88.4
237.909	8.53
238.127	12.63
238.344	26.96
238.562	22.87
238.779	72.02
238.996	0.34
239.214	90.45
239.431	63.83
239.648	65.88
239.865	31.06
240.083	33.11
240.3	29.01
240.517	-20.14
240.735	74.07
240.952	47.44
241.169	59.73
241.386	26.96
241.603	24.92
241.821	-46.76
242.038	2.39
242.255	39.25
242.472	-22.19
242.689	6.49
242.907	-18.09
243.124	41.3
243.341	16.73
243.558	55.64
243.775	49.49
243.992	-42.67
244.209	8.53
244.426	43.35
244.643	74.07
244.86	31.06
245.078	33.11
245.295	18.77
245.512	6.49
245.729	41.3
245.946	-1.71
246.163	-5.8
246.38	-65.19
246.597	94.55
246.814	12.63
247.031	90.45
247.248	61.78
247.464	53.59
247.681	41.3
247.898	14.68
248.115	2.39
248.332	26.96
248.549	59.73
248.766	82.26
248.983	-40.62
249.2	37.2
249.417	-1.71
249.633	74.07
249.85	31.06
250.067	55.64
250.284	-20.14
250.501	43.35
250.717	-26.28
250.934	16.73
251.151	-26.28
251.368	12.63
251.585	67.92
251.801	-91.82
252.018	-5.8
252.235	24.92
252.451	35.16
252.668	-9.9
252.885	-13.99
253.102	86.36
253.318	37.2
253.535	100.69
253.752	-50.86
253.968	80.21
254.185	-7.85
254.401	-26.28
254.618	78.16
254.835	26.96
255.051	2.39
255.268	49.49
255.484	-57
255.701	63.83
255.917	78.16
256.134	49.49
256.351	102.74
256.567	0.34
256.784	86.36
257	35.16
257.217	-9.9
257.433	45.4
257.65	0.34
257.866	55.64
258.082	-16.04
258.299	18.77
258.515	43.35
258.732	-5.8
258.948	41.3
259.165	-40.62
259.381	-11.95
259.597	26.96
259.814	35.16
260.03	51.54
260.246	-40.62
260.463	100.69
260.679	84.31
260.895	35.16
261.112	57.68
261.328	39.25
261.544	-3.75
261.761	45.4
261.977	61.78
262.193	86.36
262.409	0.34
262.626	24.92
262.842	53.59
263.058	12.63
263.274	51.54
263.49	37.2
263.707	49.49
263.923	82.26
264.139	-67.24
264.355	-1.71
264.571	24.92
264.787	-9.9
265.004	53.59
265.22	45.4
265.436	51.54
265.652	-7.85
265.868	80.21
266.084	-16.04
266.3	53.59
266.516	0.34
266.732	6.49
266.948	29.01
267.164	39.25
267.38	-5.8
267.596	-16.04
267.812	63.83
268.028	-1.71
268.244	49.49
268.46	47.44
268.676	37.2
268.892	12.63
269.108	-1.71
269.324	33.11
269.54	-85.67
269.756	6.49
269.972	-32.43
270.188	24.92
270.403	-28.33
270.619	12.63
270.835	6.49
271.051	43.35
271.267	39.25
271.483	33.11
271.698	6.49
271.914	-13.99
272.13	43.35
272.346	26.96
272.562	20.82
272.777	45.4
272.993	8.53
273.209	61.78
273.425	-11.95
273.64	18.77
273.856	43.35
274.072	22.87
274.287	24.92
274.503	86.36
274.719	37.2
274.934	-1.71
275.15	24.92
275.366	-38.57
275.581	57.68
275.797	-20.14
276.012	12.63
276.228	-9.9
276.444	-9.9
276.659	39.25
276.875	-28.33
277.09	-22.19
277.306	53.59
277.521	26.96
277.737	-9.9
277.952	29.01
278.168	127.32
278.383	72.02
278.599	39.25
278.814	41.3
279.03	22.87
279.245	0.34
279.461	31.06
279.676	61.78
279.892	12.63
280.107	18.77
280.322	59.73
280.538	20.82
280.753	-9.9
280.969	94.55
281.184	-59.05
281.399	133.46
281.615	-3.75
281.83	24.92
282.045	-1.71
282.26	-44.71
282.476	31.06
282.691	80.21
282.906	22.87
283.122	82.26
283.337	29.01
283.552	57.68
283.767	-16.04
283.983	76.12
284.198	10.58
284.413	67.92
284.628	-1.71
284.843	-9.9
285.058	31.06
285.274	37.2
285.489	18.77
285.704	24.92
285.919	22.87
286.134	84.31
286.349	16.73
286.564	67.92
286.779	8.53
286.995	31.06
287.21	-24.23
287.425	67.92
287.64	26.96
287.855	20.82
288.07	72.02
288.285	-1.71
288.5	63.83
288.715	-1.71
288.93	-3.75
289.145	18.77
289.36	14.68
289.575	20.82
289.79	88.4
290.004	29.01
290.219	-20.14
290.434	16.73
290.649	-9.9
290.864	45.4
291.079	-9.9
291.294	12.63
291.509	61.78
291.724	41.3
291.938	-28.33
292.153	4.44
292.368	29.01
292.583	55.64
292.798	29.01
293.012	8.53
293.227	-16.04
293.442	-7.85
293.657	33.11
293.871	43.35
294.086	8.53
294.301	92.5
294.516	106.84
294.73	-42.67
294.945	-71.34
295.16	57.68
295.374	-65.19
295.589	76.12
295.804	-3.75
296.018	0.34
296.233	69.97
296.447	47.44
296.662	29.01
296.877	80.21
297.091	84.31
297.306	-24.23
297.52	29.01
297.735	49.49
297.949	84.31
298.164	4.44
298.378	57.68
298.593	41.3
298.807	-34.47
299.022	98.64
299.236	22.87
299.451	-11.95
299.665	22.87
299.88	43.35
300.094	82.26
300.309	-46.76
300.523	45.4
300.737	33.11
300.952	90.45
301.166	24.92
301.381	12.63
301.595	20.82
301.809	29.01
302.024	-13.99
302.238	51.54
302.452	26.96
302.667	102.74
302.881	59.73
303.095	-38.57
303.309	108.88
303.524	18.77
303.738	119.12
303.952	49.49
304.166	12.63
304.381	10.58
304.595	10.58
304.809	-24.23
305.023	53.59
305.237	-26.28
305.452	90.45
305.666	45.4
305.88	-5.8
306.094	20.82
306.308	94.55
306.522	-11.95
306.736	106.84
306.95	20.82
307.164	-5.8
307.379	47.44
307.593	24.92
307.807	59.73
308.021	53.59
308.235	45.4
308.449	-46.76
308.663	55.64
308.877	12.63
309.091	6.49
309.305	18.77
309.519	-7.85
309.733	55.64
309.947	4.44
310.161	-22.19
310.374	8.53
310.588	115.03
310.802	92.5
311.016	55.64
311.23	-46.76
311.444	12.63
311.658	37.2
311.872	53.59
312.085	20.82
312.299	106.84
312.513	72.02
312.727	47.44
312.941	-16.04
313.154	74.07
313.368	41.3
313.582	65.88
313.796	-13.99
314.009	57.68
314.223	59.73
314.437	31.06
314.651	61.78
314.864	49.49
315.078	-34.47
315.292	31.06
315.505	16.73
315.719	18.77
315.933	33.11
316.146	98.64
316.36	14.68
316.573	0.34
316.787	112.98
317.001	51.54
317.214	-18.09
317.428	63.83
317.641	59.73
317.855	74.07
318.068	16.73
318.282	63.83
318.495	45.4
318.709	67.92
318.922	-26.28
319.136	65.88
319.349	-11.95
319.563	96.6
319.776	35.16
319.99	47.44
320.203	51.54
320.417	6.49
320.63	63.83
320.843	57.68
321.057	65.88
321.27	39.25
321.483	67.92
321.697	-28.33
321.91	45.4
322.124	82.26
322.337	0.34
322.55	72.02
322.763	-3.75
322.977	29.01
323.19	-42.67
323.403	31.06
323.617	0.34
323.83	22.87
324.043	65.88
324.256	31.06
324.469	-5.8
324.683	26.96
324.896	14.68
325.109	18.77
325.322	-20.14
325.535	35.16
325.748	31.06
325.962	74.07
326.175	43.35
326.388	4.44
326.601	41.3
326.814	-7.85
327.027	6.49
327.24	22.87
327.453	26.96
327.666	35.16
327.879	22.87
328.092	-18.09
328.305	65.88
328.518	22.87
328.731	14.68
328.944	43.35
329.157	43.35
329.37	-16.04
329.583	45.4
329.796	80.21
330.009	37.2
330.222	41.3
330.435	-3.75
330.648	33.11
330.861	8.53
331.073	31.06
331.286	115.03
331.499	78.16
331.712	29.01
331.925	14.68
332.138	47.44
332.35	76.12
332.563	0.34
332.776	170.32
332.989	59.73
333.202	57.68
333.414	-11.95
333.627	43.35
333.84	4.44
334.053	-20.14
334.265	41.3
334.478	26.96
334.691	33.11
334.903	-5.8
335.116	-1.71
335.329	76.12
335.541	88.4
335.754	84.31
335.966	4.44
336.179	98.64
336.392	-1.71
336.604	35.16
336.817	8.53
337.029	74.07
337.242	-1.71
337.454	65.88
337.667	18.77
337.88	49.49
338.092	-44.71
338.305	26.96
338.517	18.77
338.729	53.59
338.942	47.44
339.154	43.35
339.367	14.68
339.579	41.3
339.792	-42.67
340.004	80.21
340.217	-16.04
340.429	35.16
340.641	-5.8
340.854	10.58
341.066	29.01
341.278	100.69
341.491	104.79
341.703	90.45
341.915	22.87
342.128	18.77
342.34	72.02
342.552	61.78
342.764	8.53
342.977	41.3
343.189	6.49
343.401	86.36
343.613	-3.75
343.826	45.4
344.038	33.11
344.25	88.4
344.462	8.53
344.674	59.73
344.886	51.54
345.099	84.31
345.311	63.83
345.523	22.87
345.735	-3.75
345.947	20.82
346.159	12.63
346.371	59.73
346.583	-1.71
346.795	106.84
347.007	-16.04
347.219	24.92
347.431	67.92
347.643	41.3
347.855	61.78
348.067	29.01
348.279	-54.95
348.491	14.68
348.703	20.82
348.915	37.2
349.127	29.01
349.339	26.96
349.551	74.07
349.763	20.82
349.975	-5.8
350.187	86.36
350.399	63.83
350.61	102.74
350.822	-24.23
351.034	6.49
351.246	55.64
351.458	24.92
351.669	98.64
351.881	55.64
352.093	31.06
352.305	125.27
352.517	16.73
352.728	39.25
352.94	78.16
353.152	82.26
353.363	-3.75
353.575	26.96
353.787	162.13
353.999	51.54
354.21	31.06
354.422	33.11
354.633	47.44
354.845	10.58
355.057	61.78
355.268	94.55
355.48	61.78
355.692	33.11
355.903	10.58
356.115	24.92
356.326	55.64
356.538	33.11
356.749	22.87
356.961	96.6
357.172	90.45
357.384	121.17
357.595	43.35
357.807	-16.04
358.018	-3.75
358.23	98.64
358.441	49.49
358.653	67.92
358.864	80.21
359.075	53.59
359.287	-7.85
359.498	55.64
359.709	65.88
359.921	45.4
360.132	-36.52
360.344	33.11
360.555	37.2
360.766	29.01
360.977	8.53
361.189	94.55
361.4	-24.23
361.611	84.31
361.823	59.73
362.034	117.08
362.245	41.3
362.456	115.03
362.667	8.53
362.879	78.16
363.09	-18.09
363.301	39.25
363.512	22.87
363.723	57.68
363.935	4.44
364.146	31.06
364.357	20.82
364.568	88.4
364.779	-5.8
364.99	65.88
365.201	35.16
365.412	35.16
365.623	6.49
365.834	-16.04
366.045	29.01
366.256	63.83
366.467	61.78
366.678	78.16
366.889	22.87
367.1	24.92
367.311	69.97
367.522	-65.19
367.733	45.4
367.944	51.54
368.155	-5.8
368.366	63.83
368.577	55.64
368.788	31.06
368.999	16.73
369.209	49.49
369.42	37.2
369.631	39.25
369.842	6.49
370.053	18.77
370.264	119.12
370.474	55.64
370.685	-42.67
370.896	-3.75
371.107	141.65
371.317	43.35
371.528	26.96
371.739	110.93
371.95	63.83
372.16	43.35
372.371	59.73
372.582	33.11
372.792	-24.23
373.003	45.4
373.214	-3.75
373.424	22.87
373.635	29.01
373.846	69.97
374.056	53.59
374.267	69.97
374.477	37.2
374.688	53.59
374.898	24.92
375.109	10.58
375.319	0.34
375.53	-11.95
375.74	20.82
375.951	108.88
376.161	26.96
376.372	35.16
376.582	22.87
376.793	57.68
377.003	67.92
377.214	76.12
377.424	63.83
377.635	-3.75
377.845	22.87
378.055	45.4
378.266	-24.23
378.476	33.11
378.686	106.84
378.897	45.4
379.107	41.3
379.317	90.45
379.528	104.79
379.738	57.68
379.948	39.25
380.158	-18.09
380.369	39.25
380.579	31.06
380.789	-5.8
380.999	2.39
381.21	61.78
381.42	-18.09
381.63	45.4
381.84	35.16
382.05	29.01
382.261	39.25
382.471	53.59
382.681	65.88
382.891	47.44
383.101	74.07
383.311	61.78
383.521	72.02
383.731	59.73
383.941	141.65
384.151	-9.9
384.361	33.11
384.571	86.36
384.781	10.58
384.991	59.73
385.201	10.58
385.411	88.4
385.621	63.83
385.831	-5.8
386.041	57.68
386.251	22.87
386.461	100.69
386.671	18.77
386.881	-7.85
387.091	37.2
387.301	63.83
387.511	29.01
387.72	67.92
387.93	90.45
388.14	92.5
388.35	35.16
388.56	100.69
388.769	80.21
388.979	82.26
389.189	100.69
389.399	53.59
389.609	31.06
389.818	72.02
390.028	33.11
390.238	112.98
390.447	121.17
390.657	72.02
390.867	-3.75
391.076	57.68
391.286	61.78
391.496	41.3
391.705	65.88
391.915	51.54
392.125	119.12
392.334	92.5
392.544	24.92
392.753	74.07
392.963	-16.04
393.172	61.78
393.382	-9.9
393.591	82.26
393.801	51.54
394.01	76.12
394.22	69.97
394.429	80.21
394.639	39.25
394.848	82.26
395.058	16.73
395.267	86.36
395.477	57.68
395.686	37.2
395.895	104.79
396.105	33.11
396.314	82.26
396.524	119.12
396.733	96.6
396.942	129.36
397.152	129.36
397.361	72.02
397.57	-24.23
397.78	55.64
397.989	115.03
398.198	76.12
398.407	80.21
398.617	86.36
398.826	74.07
399.035	104.79
399.244	69.97
399.453	45.4
399.663	100.69
399.872	188.75
400.081	69.97
400.29	59.73
400.499	45.4
400.708	104.79
400.917	141.65
401.127	80.21
401.336	125.27
401.545	201.04
401.754	115.03
401.963	106.84
402.172	61.78
402.381	76.12
402.59	108.88
402.799	110.93
403.008	106.84
403.217	170.32
403.426	96.6
403.635	72.02
403.844	104.79
404.053	16.73
404.262	63.83
404.471	139.6
404.68	174.42
404.888	65.88
405.097	139.6
405.306	184.66
405.515	112.98
405.724	112.98
405.933	203.09
406.142	145.75
406.35	139.6
406.559	74.07
406.768	100.69
406.977	160.08
407.185	184.66
407.394	96.6
407.603	153.94
407.812	190.8
408.02	207.19
408.229	149.84
408.438	168.27
408.646	221.52
408.855	192.85
409.064	233.81
409.272	137.56
409.481	186.71
409.69	268.63
409.898	225.62
410.107	242
410.315	270.67
410.524	280.91
410.733	239.95
410.941	235.86
411.15	305.49
411.358	317.78
411.567	274.77
411.775	301.39
411.984	387.41
412.192	325.97
412.401	356.69
412.609	368.98
412.818	362.83
413.026	450.89
413.234	416.08
413.443	457.04
413.651	411.98
413.86	397.65
414.068	483.66
414.276	502.09
414.485	498
414.693	526.67
414.901	485.71
415.11	487.76
415.318	588.11
415.526	635.21
415.734	543.05
415.943	680.27
416.151	620.88
416.359	688.46
416.567	663.88
416.776	690.51
416.984	766.28
417.192	772.43
417.4	835.91
417.608	676.17
417.817	790.86
418.025	842.06
418.233	919.88
418.441	917.83
418.649	952.65
418.857	991.56
419.065	991.56
419.273	1030.47
419.481	989.51
419.689	1136.96
419.897	1120.58
420.105	1110.34
420.313	1229.12
420.521	1265.99
420.729	1302.85
420.937	1268.03
421.145	1388.86
421.353	1323.33
421.561	1513.79
421.769	1411.39
421.977	1624.38
422.185	1511.74
422.393	1714.49
422.601	1790.27
422.809	1769.79
423.017	1861.94
423.224	1812.79
423.432	1950.01
423.64	1990.97
423.848	2005.3
424.056	2099.51
424.263	2359.6
424.471	2199.86
424.679	2208.05
424.887	2396.46
425.094	2335.03
425.302	2394.42
425.51	2545.97
425.718	2605.36
425.925	2683.18
426.133	2750.76
426.341	2908.46
426.548	3096.87
426.756	3078.44
426.964	3076.39
427.171	3189.03
427.379	3141.93
427.586	3387.68
427.794	3522.85
428.001	3711.26
428.209	3658.01
428.417	3653.92
428.624	4124.95
428.832	4065.56
429.039	4002.07
429.247	4036.89
429.454	4315.41
429.662	4557.07
429.869	4393.23
430.076	4614.41
430.284	4624.65
430.491	4731.15
430.699	5024.01
430.906	4985.1
431.114	4970.76
431.321	5288.2
431.528	5353.73
431.736	5822.72
431.943	5855.48
432.15	5843.2
432.358	5886.2
432.565	6179.06
432.772	6209.78
432.979	6547.7
433.187	6646
433.394	6580.46
433.601	7172.33
433.808	7084.27
434.016	7231.72
434.223	7358.69
434.43	7637.22
434.637	7366.88
434.844	7930.08
435.052	8278.23
435.259	8157.4
435.466	8319.19
435.673	8098.01
435.88	8739.02
436.087	9312.46
436.294	9275.59
436.501	8878.29
436.708	8974.54
436.915	9523.4
437.122	9881.79
437.329	10047.68
437.537	10119.35
437.743	10279.1
437.95	10160.31
438.157	10727.6
438.364	11079.85
438.571	11284.65
438.778	11190.44
438.985	12093.6
439.192	11468.97
439.399	12212.38
439.606	11860.13
439.813	12435.61
440.02	13230.22
440.227	12994.7
440.433	12961.94
440.64	13269.13
440.847	13500.55
441.054	13529.22
441.261	14665.85
441.467	14235.77
441.674	14506.1
441.881	15216.75
442.088	15001.71
442.294	14788.72
442.501	15394.92
442.708	15716.45
442.914	16322.65
443.121	16857.17
443.328	16707.67
443.534	17659.98
443.741	17293.39
443.948	17115.22
444.154	18096.19
444.361	18208.83
444.568	18198.59
444.774	18257.98
444.981	18542.65
445.187	18716.73
445.394	19699.75
445.6	19767.34
445.807	21411.85
446.013	20549.66
446.22	21004.31
446.426	21833.74
446.633	21809.16
446.839	22396.93
447.046	21739.53
447.252	23011.32
447.459	22624.25
447.665	22870.01
447.871	23986.15
448.078	24571.87
448.284	23764.97
448.491	24627.17
448.697	25454.54
448.903	25769.93
449.11	26015.69
449.316	25454.54
449.522	26161.09
449.728	26605.5
449.935	26757.05
450.141	26769.34
450.347	27506.61
450.553	26466.24
450.76	26986.43
450.966	28008.36
451.172	27469.75
451.378	28235.69
451.584	27776.94
451.791	28204.97
451.997	28315.56
452.203	28817.31
452.409	28831.65
452.615	28692.38
452.821	27563.95
453.027	27350.96
453.233	28821.41
453.44	27717.55
453.646	27908.01
453.852	28350.37
454.058	28655.52
454.264	27727.79
454.47	28112.81
454.676	27383.73
454.882	28352.42
455.088	26136.52
455.294	26318.79
455.5	27078.58
455.705	27236.28
455.911	26054.6
456.117	25454.54
456.323	25309.14
456.529	24025.06
456.735	24946.65
456.941	24545.25
457.147	23850.99
457.352	23359.47
457.558	22972.41
457.764	22996.98
457.97	22679.55
458.176	22087.68
458.381	22102.02
458.587	20959.25
458.793	20797.46
458.999	19925.03
459.204	21346.32
459.41	20903.96
459.616	19443.76
459.821	19773.48
460.027	19363.89
460.233	18937.91
460.438	18116.67
460.644	18282.56
460.85	17520.71
461.055	17072.21
461.261	17068.11
461.466	15820.9
461.672	15335.53
461.878	16506.97
462.083	15249.52
462.289	14907.51
462.494	14805.11
462.7	14266.49
462.905	13899.91
463.111	14024.83
463.316	14211.2
463.522	14002.3
463.727	13971.58
463.932	14178.43
464.138	13756.55
464.343	13740.16
464.549	13656.2
464.754	13959.3
464.959	13803.65
465.165	13676.68
465.37	13230.22
465.575	12906.64
465.781	13269.13
465.986	13711.49
466.191	12947.6
466.397	12589.21
466.602	12173.47
466.807	12529.81
467.012	12611.73
467.218	12517.53
467.423	12179.61
467.628	12304.54
467.833	12837.01
468.038	12378.26
468.244	12021.92
468.449	12351.64
