Data from USB4F104151__46__12-35-57-238.txt Node

Date: Fri Mar 14 12:35:57 EDT 2025
User: louis
Spectrometer: USB4F10415
Trigger mode: 4
Integration Time (sec): 2.000000E-2
Scans to average: 1
Electric dark correction enabled: true
Nonlinearity correction enabled: false
Boxcar width: 0
XAxis mode: Wavelengths
Number of Pixels in Spectrum: 3648
>>>>>Begin Spectral Data<<<<<
178.204	-90.11
178.424	-90.11
178.644	-90.11
178.864	-94.21
179.084	-16.38
179.304	-18.43
179.524	30.72
179.744	4.1
179.964	14.34
180.184	-16.38
180.404	47.1
180.624	-49.15
180.844	34.82
181.064	-12.29
181.283	51.2
181.503	-65.53
181.723	-20.48
181.943	-28.67
182.163	24.58
182.383	51.2
182.602	-6.14
182.822	28.67
183.042	-63.49
183.262	-14.34
183.482	86.01
183.701	61.44
183.921	63.49
184.141	12.29
184.361	63.49
184.58	133.12
184.8	-45.06
185.02	51.2
185.239	69.63
185.459	40.96
185.679	26.62
185.898	-14.34
186.118	83.97
186.338	-32.77
186.557	8.19
186.777	55.3
186.997	-86.01
187.216	71.68
187.436	135.17
187.655	16.38
187.875	24.58
188.095	30.72
188.314	10.24
188.534	59.39
188.753	36.86
188.973	-86.01
189.192	34.82
189.412	-32.77
189.631	116.73
189.851	83.97
190.07	90.11
190.29	-4.1
190.509	45.06
190.729	55.3
190.948	102.4
191.168	55.3
191.387	94.21
191.607	18.43
191.826	57.34
192.045	-18.43
192.265	59.39
192.484	26.62
192.704	96.25
192.923	14.34
193.142	69.63
193.362	28.67
193.581	14.34
193.8	12.29
194.02	32.77
194.239	-14.34
194.458	96.25
194.678	6.14
194.897	34.82
195.116	67.58
195.335	57.34
195.555	45.06
195.774	10.24
195.993	69.63
196.212	34.82
196.432	75.77
196.651	26.62
196.87	28.67
197.089	108.54
197.308	-10.24
197.528	10.24
197.747	69.63
197.966	43.01
198.185	110.59
198.404	2.05
198.623	-10.24
198.842	36.86
199.062	43.01
199.281	30.72
199.5	-10.24
199.719	57.34
199.938	-2.05
200.157	2.05
200.376	26.62
200.595	51.2
200.814	6.14
201.033	-16.38
201.252	-6.14
201.471	69.63
201.69	-14.34
201.909	12.29
202.128	8.19
202.347	26.62
202.566	51.2
202.785	20.48
203.004	6.14
203.223	63.49
203.442	30.72
203.661	24.58
203.879	-73.73
204.098	28.67
204.317	-6.14
204.536	67.58
204.755	43.01
204.974	43.01
205.193	20.48
205.411	51.2
205.63	71.68
205.849	71.68
206.068	100.35
206.287	73.73
206.505	28.67
206.724	71.68
206.943	40.96
207.162	34.82
207.381	53.25
207.599	65.54
207.818	45.06
208.037	65.54
208.255	26.62
208.474	75.77
208.693	28.67
208.911	-36.86
209.13	71.68
209.349	63.49
209.567	88.06
209.786	22.53
210.005	77.82
210.223	49.15
210.442	-102.4
210.661	26.62
210.879	24.58
211.098	8.19
211.316	20.48
211.535	51.2
211.753	-32.77
211.972	63.49
212.191	75.77
212.409	36.86
212.628	-12.29
212.846	28.67
213.065	34.82
213.283	36.86
213.502	55.3
213.72	43.01
213.938	32.77
214.157	63.49
214.375	57.34
214.594	51.2
214.812	28.67
215.031	51.2
215.249	57.34
215.467	43.01
215.686	26.62
215.904	40.96
216.122	-28.67
216.341	100.35
216.559	114.69
216.778	90.11
216.996	-8.19
217.214	24.58
217.432	-32.77
217.651	43.01
217.869	-22.53
218.087	-24.58
218.306	28.67
218.524	16.38
218.742	6.14
218.96	73.73
219.179	-18.43
219.397	22.53
219.615	55.3
219.833	-38.91
220.051	-53.25
220.27	67.58
220.488	40.96
220.706	88.06
220.924	59.39
221.142	10.24
221.36	-28.67
221.578	49.15
221.796	12.29
222.015	8.19
222.233	2.05
222.451	45.06
222.669	-16.38
222.887	36.86
223.105	8.19
223.323	57.34
223.541	-10.24
223.759	77.82
223.977	32.77
224.195	-24.58
224.413	49.15
224.631	83.97
224.849	77.82
225.067	-12.29
225.285	2.05
225.503	40.96
225.721	14.34
225.939	-45.06
226.157	16.38
226.375	63.49
226.592	-53.25
226.81	57.34
227.028	63.49
227.246	83.97
227.464	-43.01
227.682	-16.38
227.9	65.54
228.117	94.21
228.335	36.86
228.553	-26.62
228.771	26.62
228.989	61.44
229.206	-8.19
229.424	6.14
229.642	16.38
229.86	92.16
230.077	40.96
230.295	73.73
230.513	34.82
230.731	-28.67
230.948	65.54
231.166	45.06
231.384	-24.58
231.601	-67.58
231.819	49.15
232.037	22.53
232.254	-34.82
232.472	65.54
232.689	69.63
232.907	12.29
233.125	51.2
233.342	53.25
233.56	-4.1
233.777	36.86
233.995	-22.53
234.213	22.53
234.43	12.29
234.648	40.96
234.865	98.3
235.083	92.16
235.3	-47.1
235.518	59.39
235.735	110.59
235.953	-67.58
236.17	38.91
236.388	86.01
236.605	-22.53
236.822	124.93
237.04	10.24
237.257	14.34
237.475	49.15
237.692	14.34
237.909	28.67
238.127	6.14
238.344	18.43
238.562	4.1
238.779	49.15
238.996	24.58
239.214	-88.06
239.431	61.44
239.648	47.1
239.865	2.05
240.083	53.25
240.3	63.49
240.517	-4.1
240.735	-16.38
240.952	155.65
241.169	2.05
241.386	69.63
241.603	59.39
241.821	-6.14
242.038	57.34
242.255	96.25
242.472	-20.48
242.689	51.2
242.907	90.11
243.124	6.14
243.341	63.49
243.558	77.82
243.775	24.58
243.992	-20.48
244.209	73.73
244.426	81.92
244.643	126.97
244.86	65.54
245.078	71.68
245.295	-6.14
245.512	-24.58
245.729	18.43
245.946	53.25
246.163	67.58
246.38	-38.91
246.597	-20.48
246.814	118.78
247.031	40.96
247.248	47.1
247.464	59.39
247.681	96.25
247.898	47.1
248.115	45.06
248.332	47.1
248.549	86.01
248.766	86.01
248.983	51.2
249.2	-55.3
249.417	-10.24
249.633	-14.34
249.85	12.29
250.067	-14.34
250.284	28.67
250.501	55.3
250.717	96.25
250.934	49.15
251.151	-34.82
251.368	67.58
251.585	139.26
251.801	-45.06
252.018	6.14
252.235	81.92
252.451	-28.67
252.668	86.01
252.885	129.02
253.102	38.91
253.318	16.38
253.535	-63.49
253.752	20.48
253.968	26.62
254.185	28.67
254.401	38.91
254.618	36.86
254.835	75.77
255.051	118.78
255.268	102.4
255.484	26.62
255.701	83.97
255.917	55.3
256.134	57.34
256.351	30.72
256.567	16.38
256.784	67.58
257	24.58
257.217	36.86
257.433	65.54
257.65	24.58
257.866	32.77
258.082	32.77
258.299	24.58
258.515	0
258.732	114.69
258.948	20.48
259.165	-8.19
259.381	67.58
259.597	81.92
259.814	22.53
260.03	114.69
260.246	47.1
260.463	40.96
260.679	63.49
260.895	14.34
261.112	77.82
261.328	30.72
261.544	-6.14
261.761	73.73
261.977	0
262.193	-30.72
262.409	38.91
262.626	-18.43
262.842	-20.48
263.058	6.14
263.274	67.58
263.49	57.34
263.707	63.49
263.923	0
264.139	26.62
264.355	28.67
264.571	53.25
264.787	-14.34
265.004	10.24
265.22	32.77
265.436	63.49
265.652	-28.67
265.868	18.43
266.084	30.72
266.3	-45.06
266.516	10.24
266.732	2.05
266.948	59.39
267.164	14.34
267.38	28.67
267.596	40.96
267.812	61.44
268.028	65.54
268.244	-2.05
268.46	59.39
268.676	45.06
268.892	65.54
269.108	51.2
269.324	59.39
269.54	-14.34
269.756	43.01
269.972	-22.53
270.188	51.2
270.403	45.06
270.619	71.68
270.835	26.62
271.051	-16.38
271.267	73.73
271.483	18.43
271.698	61.44
271.914	69.63
272.13	28.67
272.346	126.97
272.562	38.91
272.777	-2.05
272.993	114.69
273.209	69.63
273.425	94.21
273.64	-12.29
273.856	28.67
274.072	38.91
274.287	40.96
274.503	47.1
274.719	-8.19
274.934	0
275.15	-28.67
275.366	55.3
275.581	61.44
275.797	28.67
276.012	36.86
276.228	-8.19
276.444	30.72
276.659	149.5
276.875	20.48
277.09	98.3
277.306	14.34
277.521	-8.19
277.737	22.53
277.952	14.34
278.168	-20.48
278.383	63.49
278.599	6.14
278.814	77.82
279.03	38.91
279.245	73.73
279.461	104.45
279.676	-16.38
279.892	26.62
280.107	-12.29
280.322	20.48
280.538	116.73
280.753	67.58
280.969	-6.14
281.184	-8.19
281.399	-10.24
281.615	34.82
281.83	-18.43
282.045	-49.15
282.26	2.05
282.476	40.96
282.691	24.58
282.906	8.19
283.122	102.4
283.337	-55.3
283.552	26.62
283.767	8.19
283.983	51.2
284.198	34.82
284.413	-43.01
284.628	16.38
284.843	24.58
285.058	67.58
285.274	28.67
285.489	69.63
285.704	59.39
285.919	-12.29
286.134	26.62
286.349	4.1
286.564	40.96
286.779	110.59
286.995	32.77
287.21	-20.48
287.425	40.96
287.64	86.01
287.855	49.15
288.07	57.34
288.285	49.15
288.5	77.82
288.715	86.01
288.93	-16.38
289.145	28.67
289.36	45.06
289.575	75.77
289.79	-6.14
290.004	38.91
290.219	57.34
290.434	45.06
290.649	49.15
290.864	36.86
291.079	47.1
291.294	-12.29
291.509	-16.38
291.724	90.11
291.938	24.58
292.153	114.69
292.368	36.86
292.583	124.93
292.798	63.49
293.012	69.63
293.227	47.1
293.442	49.15
293.657	69.63
293.871	86.01
294.086	32.77
294.301	20.48
294.516	63.49
294.73	112.64
294.945	40.96
295.16	79.87
295.374	24.58
295.589	67.58
295.804	30.72
296.018	40.96
296.233	75.77
296.447	116.73
296.662	16.38
296.877	65.54
297.091	36.86
297.306	28.67
297.52	12.29
297.735	51.2
297.949	55.3
298.164	-34.82
298.378	73.73
298.593	40.96
298.807	53.25
299.022	-30.72
299.236	55.3
299.451	98.3
299.665	14.34
299.88	16.38
300.094	43.01
300.309	47.1
300.523	63.49
300.737	-26.62
300.952	104.45
301.166	135.17
301.381	2.05
301.595	-2.05
301.809	34.82
302.024	57.34
302.238	-40.96
302.452	51.2
302.667	-73.73
302.881	92.16
303.095	-8.19
303.309	30.72
303.524	12.29
303.738	53.25
303.952	43.01
304.166	55.3
304.381	-16.38
304.595	55.3
304.809	40.96
305.023	118.78
305.237	34.82
305.452	30.72
305.666	71.68
305.88	90.11
306.094	53.25
306.308	14.34
306.522	34.82
306.736	38.91
306.95	16.38
307.164	38.91
307.379	45.06
307.593	73.73
307.807	75.77
308.021	98.3
308.235	69.63
308.449	10.24
308.663	4.1
308.877	96.25
309.091	55.3
309.305	12.29
309.519	55.3
309.733	53.25
309.947	94.21
310.161	-4.1
310.374	129.02
310.588	81.92
310.802	90.11
311.016	-12.29
311.23	53.25
311.444	20.48
311.658	34.82
311.872	63.49
312.085	90.11
312.299	71.68
312.513	47.1
312.727	4.1
312.941	36.86
313.154	14.34
313.368	149.5
313.582	88.06
313.796	102.4
314.009	-4.1
314.223	45.06
314.437	67.58
314.651	-10.24
314.864	14.34
315.078	22.53
315.292	81.92
315.505	4.1
315.719	22.53
315.933	77.82
316.146	92.16
316.36	-8.19
316.573	137.21
316.787	14.34
317.001	10.24
317.214	-14.34
317.428	28.67
317.641	53.25
317.855	36.86
318.068	-2.05
318.282	131.07
318.495	92.16
318.709	88.06
318.922	71.68
319.136	-34.82
319.349	77.82
319.563	18.43
319.776	79.87
319.99	-24.58
320.203	38.91
320.417	69.63
320.63	65.54
320.843	55.3
321.057	-20.48
321.27	38.91
321.483	51.2
321.697	96.25
321.91	16.38
322.124	38.91
322.337	26.62
322.55	36.86
322.763	-26.62
322.977	61.44
323.19	51.2
323.403	77.82
323.617	96.25
323.83	106.49
324.043	43.01
324.256	14.34
324.469	104.45
324.683	18.43
324.896	51.2
325.109	34.82
325.322	8.19
325.535	81.92
325.748	122.88
325.962	61.44
326.175	43.01
326.388	40.96
326.601	79.87
326.814	22.53
327.027	-38.91
327.24	26.62
327.453	28.67
327.666	86.01
327.879	65.54
328.092	-51.2
328.305	59.39
328.518	90.11
328.731	34.82
328.944	73.73
329.157	75.77
329.37	-6.14
329.583	83.97
329.796	94.21
330.009	6.14
330.222	118.78
330.435	88.06
330.648	116.73
330.861	36.86
331.073	71.68
331.286	-8.19
331.499	4.1
331.712	24.58
331.925	38.91
332.138	-10.24
332.35	59.39
332.563	40.96
332.776	151.55
332.989	22.53
333.202	8.19
333.414	55.3
333.627	-2.05
333.84	79.87
334.053	32.77
334.265	55.3
334.478	71.68
334.691	18.43
334.903	51.2
335.116	14.34
335.329	53.25
335.541	55.3
335.754	141.31
335.966	61.44
336.179	34.82
336.392	86.01
336.604	65.54
336.817	116.73
337.029	38.91
337.242	38.91
337.454	43.01
337.667	-53.25
337.88	122.88
338.092	12.29
338.305	71.68
338.517	49.15
338.729	83.97
338.942	36.86
339.154	-36.86
339.367	-20.48
339.579	59.39
339.792	12.29
340.004	71.68
340.217	2.05
340.429	30.72
340.641	-43.01
340.854	51.2
341.066	16.38
341.278	90.11
341.491	116.73
341.703	59.39
341.915	20.48
342.128	38.91
342.34	51.2
342.552	24.58
342.764	20.48
342.977	133.12
343.189	86.01
343.401	92.16
343.613	67.58
343.826	126.97
344.038	14.34
344.25	6.14
344.462	55.3
344.674	8.19
344.886	51.2
345.099	81.92
345.311	57.34
345.523	71.68
345.735	49.15
345.947	126.97
346.159	32.77
346.371	61.44
346.583	73.73
346.795	100.35
347.007	112.64
347.219	49.15
347.431	43.01
347.643	14.34
347.855	71.68
348.067	63.49
348.279	53.25
348.491	69.63
348.703	38.91
348.915	36.86
349.127	18.43
349.339	139.26
349.551	57.34
349.763	106.49
349.975	26.62
350.187	22.53
350.399	43.01
350.61	61.44
350.822	36.86
351.034	65.54
351.246	-14.34
351.458	-16.38
351.669	71.68
351.881	49.15
352.093	92.16
352.305	40.96
352.517	47.1
352.728	75.77
352.94	69.63
353.152	88.06
353.363	-16.38
353.575	30.72
353.787	47.1
353.999	92.16
354.21	112.64
354.422	63.49
354.633	69.63
354.845	90.11
355.057	96.25
355.268	47.1
355.48	22.53
355.692	-16.38
355.903	6.14
356.115	8.19
356.326	10.24
356.538	81.92
356.749	55.3
356.961	94.21
357.172	81.92
357.384	75.77
357.595	36.86
357.807	65.54
358.018	49.15
358.23	43.01
358.441	43.01
358.653	55.3
358.864	51.2
359.075	36.86
359.287	94.21
359.498	61.44
359.709	122.88
359.921	14.34
360.132	8.19
360.344	79.87
360.555	24.58
360.766	51.2
360.977	55.3
361.189	16.38
361.4	8.19
361.611	92.16
361.823	22.53
362.034	129.02
362.245	45.06
362.456	-16.38
362.667	51.2
362.879	-10.24
363.09	71.68
363.301	8.19
363.512	53.25
363.723	104.45
363.935	65.54
364.146	102.4
364.357	57.34
364.568	98.3
364.779	65.54
364.99	102.4
365.201	6.14
365.412	-10.24
365.623	-6.14
365.834	0
366.045	92.16
366.256	83.97
366.467	57.34
366.678	43.01
366.889	90.11
367.1	77.82
367.311	55.3
367.522	40.96
367.733	98.3
367.944	26.62
368.155	28.67
368.366	77.82
368.577	32.77
368.788	90.11
368.999	32.77
369.209	51.2
369.42	145.41
369.631	102.4
369.842	63.49
370.053	126.97
370.264	55.3
370.474	145.41
370.685	24.58
370.896	69.63
371.107	92.16
371.317	129.02
371.528	100.35
371.739	98.3
371.95	63.49
372.16	77.82
372.371	83.97
372.582	12.29
372.792	69.63
373.003	47.1
373.214	63.49
373.424	92.16
373.635	120.83
373.846	106.49
374.056	51.2
374.267	67.58
374.477	124.93
374.688	45.06
374.898	22.53
375.109	96.25
375.319	92.16
375.53	126.97
375.74	92.16
375.951	14.34
376.161	18.43
376.372	104.45
376.582	75.77
376.793	94.21
377.003	63.49
377.214	53.25
377.424	81.92
377.635	90.11
377.845	43.01
378.055	110.59
378.266	30.72
378.476	32.77
378.686	86.01
378.897	55.3
379.107	86.01
379.317	114.69
379.528	-22.53
379.738	47.1
379.948	-53.25
380.158	112.64
380.369	77.82
380.579	141.31
380.789	-4.1
380.999	75.77
381.21	40.96
381.42	86.01
381.63	20.48
381.84	75.77
382.05	0
382.261	112.64
382.471	43.01
382.681	83.97
382.891	51.2
383.101	102.4
383.311	-4.1
383.521	96.25
383.731	59.39
383.941	65.54
384.151	2.05
384.361	124.93
384.571	79.87
384.781	104.45
384.991	55.3
385.201	75.77
385.411	43.01
385.621	79.87
385.831	92.16
386.041	86.01
386.251	79.87
386.461	169.98
386.671	47.1
386.881	75.77
387.091	114.69
387.301	53.25
387.511	63.49
387.72	92.16
387.93	67.58
388.14	49.15
388.35	6.14
388.56	81.92
388.769	83.97
388.979	75.77
389.189	77.82
389.399	49.15
389.609	69.63
389.818	30.72
390.028	53.25
390.238	135.17
390.447	94.21
390.657	55.3
390.867	155.65
391.076	65.54
391.286	96.25
391.496	108.54
391.705	45.06
391.915	55.3
392.125	59.39
392.334	67.58
392.544	51.2
392.753	38.91
392.963	86.01
393.172	153.6
393.382	63.49
393.591	208.89
393.801	63.49
394.01	194.56
394.22	137.21
394.429	167.93
394.639	126.97
394.848	102.4
395.058	110.59
395.267	143.36
395.477	129.02
395.686	169.98
395.895	198.65
396.105	129.02
396.314	55.3
396.524	96.25
396.733	110.59
396.942	133.12
397.152	100.35
397.361	73.73
397.57	133.12
397.78	169.98
397.989	145.41
398.198	141.31
398.407	114.69
398.617	149.5
398.826	149.5
399.035	139.26
399.244	151.55
399.453	149.5
399.663	147.45
399.872	169.98
400.081	131.07
400.29	161.79
400.499	165.89
400.708	200.7
400.917	161.79
401.127	190.46
401.336	180.22
401.545	151.55
401.754	149.5
401.963	116.73
402.172	116.73
402.381	176.13
402.59	120.83
402.799	192.51
403.008	108.54
403.217	83.97
403.426	149.5
403.635	231.42
403.844	126.97
404.053	165.89
404.262	131.07
404.471	237.56
404.68	235.52
404.888	239.61
405.097	157.69
405.306	202.75
405.515	247.8
405.724	262.14
405.933	204.8
406.142	235.52
406.35	221.18
406.559	184.32
406.768	270.33
406.977	233.47
407.185	286.72
407.394	311.29
407.603	239.61
407.812	237.56
408.02	329.72
408.229	350.2
408.438	278.52
408.646	268.28
408.855	327.68
409.064	405.5
409.272	364.54
409.481	389.11
409.69	397.31
409.898	327.68
410.107	419.83
410.315	487.42
410.524	481.27
410.733	442.36
410.941	419.83
411.15	450.55
411.358	532.47
411.567	530.42
411.775	581.62
411.984	511.99
412.192	569.34
412.401	643.06
412.609	618.49
412.818	681.97
413.026	653.3
413.234	647.16
413.443	647.16
413.651	720.88
413.86	837.62
414.068	757.75
414.276	911.35
414.485	808.95
414.693	823.28
414.901	921.59
415.11	1023.98
415.318	972.79
415.526	985.07
415.734	1073.14
415.943	1093.62
416.151	1105.9
416.359	1146.86
416.567	1191.92
416.776	1087.47
416.984	1224.69
417.192	1339.37
417.4	1259.5
417.608	1284.08
417.817	1355.76
418.025	1497.07
418.233	1529.83
418.441	1464.3
418.649	1568.74
418.857	1656.81
419.065	1710.05
419.273	1669.09
419.481	1802.21
419.689	1869.8
419.897	1927.14
420.105	1966.05
420.313	2076.64
420.521	2078.69
420.729	2205.66
420.937	2183.13
421.145	2469.85
421.353	2437.08
421.561	2535.39
421.769	2668.5
421.977	2791.38
422.185	2750.42
422.393	2873.3
422.601	2940.88
422.809	2983.89
423.017	3100.62
423.224	3246.03
423.432	3301.33
423.64	3442.64
423.848	3581.9
424.056	3483.59
424.263	3753.93
424.471	3729.35
424.679	3819.46
424.887	4050.88
425.094	4171.71
425.302	4325.31
425.51	4347.84
425.718	4665.27
425.925	4685.75
426.133	4599.74
426.341	4954.04
426.548	5261.23
426.756	5068.72
426.964	5195.7
427.171	5550
427.379	5834.66
427.586	5711.78
427.794	5943.21
428.001	6254.5
428.209	6494.11
428.417	6363.04
428.624	7071.64
428.832	6961.05
429.039	6817.69
429.247	6809.5
429.454	7450.51
429.662	8071.04
429.869	7333.78
430.076	8132.48
430.284	7942.02
430.491	8253.31
430.699	8667
430.906	8685.44
431.114	8808.31
431.321	9166.71
431.528	9367.41
431.736	9848.68
431.943	10252.13
432.15	9967.46
432.358	9998.18
432.565	10737.5
432.772	10522.46
432.979	11085.65
433.187	11261.78
433.394	11550.54
433.601	12115.78
433.808	12109.64
434.016	12019.53
434.223	12621.63
434.43	13463.35
434.637	12891.96
434.844	13993.77
435.052	14376.74
435.259	13954.86
435.466	14167.85
435.673	13858.6
435.88	15144.73
436.087	15814.41
436.294	15685.39
436.501	15492.88
436.708	16002.83
436.915	16254.73
437.122	16885.5
437.329	17063.68
437.537	17452.79
437.743	17655.54
437.95	17778.42
438.157	18648.8
438.364	19039.97
438.571	18798.31
438.778	19263.19
438.985	20969.15
439.192	20203.21
439.399	20870.85
439.606	20315.85
439.813	21726.9
440.02	23123.62
440.227	22277.8
440.433	22189.74
440.64	22914.72
440.847	22974.11
441.054	23514.78
441.261	24821.38
441.467	24772.23
441.674	25140.86
441.881	25888.37
442.088	26107.51
442.294	25849.46
442.501	26535.53
442.708	27399.77
442.914	27854.42
443.121	29150.79
443.328	28331.6
443.534	30537.26
443.741	29587
443.948	29163.07
444.154	31596.06
444.361	31043.11
444.568	31583.77
444.774	31348.26
444.981	31628.83
445.187	32577.04
445.394	33877.5
445.6	33846.78
445.807	36808.14
446.013	35286.5
446.22	35823.07
446.426	37051.85
446.633	37547.46
446.839	38919.6
447.046	37238.22
447.252	39581.09
447.459	39073.2
447.665	39392.68
447.871	41086.35
448.078	42671.48
448.284	40719.76
448.491	41772.42
448.697	43347.31
448.903	43679.08
449.11	44365.15
449.316	43185.52
449.522	44408.15
449.728	45419.85
449.935	45905.22
450.141	45868.36
450.347	46769.46
450.553	45499.72
450.76	46245.18
450.966	47455.53
451.172	47093.04
451.378	48256.29
451.584	47238.45
451.791	48264.48
451.997	48440.6
452.203	48739.61
452.409	49132.82
452.615	48598.3
452.821	46699.83
453.027	46464.32
453.233	49093.91
453.44	46658.87
453.646	47453.48
453.852	48188.7
454.058	48563.48
454.264	46849.33
454.47	48020.77
454.676	47140.14
454.882	48375.07
455.088	44426.59
455.294	45391.18
455.5	45917.51
455.705	46347.58
455.911	44500.31
456.117	43539.82
456.323	42960.24
456.529	41225.61
456.735	42732.92
456.941	41002.38
457.147	40689.04
457.352	39544.23
457.558	39169.45
457.764	38645.17
457.97	38659.51
458.176	37791.17
458.381	37676.48
458.587	35984.86
458.793	35493.35
458.999	33893.88
459.204	36523.47
459.41	35313.13
459.616	32953.87
459.821	33250.82
460.027	32998.92
460.233	32542.22
460.438	31000.1
460.644	31104.55
460.85	29546.05
461.055	29275.71
461.261	29115.97
461.466	27203.17
461.672	26236.53
461.878	28434
462.083	26254.96
462.289	25661.05
462.494	25671.29
462.7	24391.31
462.905	23772.82
463.111	24555.15
463.316	24319.63
463.522	24073.87
463.727	24264.33
463.932	24247.95
464.138	23738.01
464.343	23705.24
464.549	22904.48
464.754	24059.54
464.959	23668.37
465.165	23428.76
465.37	22347.43
465.575	22044.34
465.781	22955.68
465.986	23017.12
466.191	22103.73
466.397	21544.63
466.602	20727.49
466.807	21483.19
467.012	21571.25
467.218	21292.73
