Data from USB4F104151__35__12-35-37-041.txt Node

Date: Fri Mar 14 12:35:37 EDT 2025
User: louis
Spectrometer: USB4F10415
Trigger mode: 4
Integration Time (sec): 2.000000E-2
Scans to average: 1
Electric dark correction enabled: true
Nonlinearity correction enabled: false
Boxcar width: 0
XAxis mode: Wavelengths
Number of Pixels in Spectrum: 3648
>>>>>Begin Spectral Data<<<<<
178.204	-76.63
178.424	-76.63
178.644	-76.63
178.864	-133.97
179.084	-99.16
179.304	7.34
179.524	11.43
179.744	54.44
179.964	-31.57
180.184	17.58
180.404	54.44
180.624	-11.09
180.844	50.35
181.064	-82.77
181.283	-33.62
181.503	-9.05
181.723	-27.48
181.943	-25.43
182.163	74.92
182.383	17.58
182.602	87.21
182.822	48.3
183.042	85.16
183.262	-37.72
183.482	11.43
183.701	-50
183.921	25.77
184.141	29.87
184.361	19.63
184.58	21.67
184.8	-52.05
185.02	5.29
185.239	44.2
185.459	-33.62
185.679	9.39
185.898	-54.1
186.118	-4.95
186.338	-31.57
186.557	48.3
186.777	-39.76
186.997	5.29
187.216	23.72
187.436	46.25
187.655	17.58
187.875	23.72
188.095	-41.81
188.314	44.2
188.534	95.4
188.753	33.96
188.973	29.87
189.192	23.72
189.412	17.58
189.631	19.63
189.851	13.48
190.07	72.87
190.29	-4.95
190.509	138.41
190.729	-25.43
190.948	52.39
191.168	142.5
191.387	66.73
191.607	-4.95
191.826	-0.85
192.045	48.3
192.265	-11.09
192.484	-31.57
192.704	56.49
192.923	15.53
193.142	33.96
193.362	-27.48
193.581	-31.57
193.8	-21.33
194.02	54.44
194.239	81.07
194.458	46.25
194.678	-21.33
194.897	44.2
195.116	81.07
195.335	3.24
195.555	46.25
195.774	-9.05
195.993	31.91
196.212	40.11
196.432	52.39
196.651	-19.29
196.87	25.77
197.089	72.87
197.308	21.67
197.528	62.63
197.747	17.58
197.966	15.53
198.185	44.2
198.404	-45.91
198.623	56.49
198.842	40.11
199.062	23.72
199.281	44.2
199.5	-17.24
199.719	19.63
199.938	-47.96
200.157	-4.95
200.376	99.5
200.595	54.44
200.814	-0.85
201.033	23.72
201.252	40.11
201.471	23.72
201.69	58.54
201.909	7.34
202.128	33.96
202.347	50.35
202.566	46.25
202.785	52.39
203.004	13.48
203.223	109.74
203.442	-4.95
203.661	3.24
203.879	-4.95
204.098	48.3
204.317	-45.91
204.536	40.11
204.755	44.2
204.974	-0.85
205.193	-58.2
205.411	-13.14
205.63	54.44
205.849	46.25
206.068	42.15
206.287	17.58
206.505	52.39
206.724	76.97
206.943	31.91
207.162	40.11
207.381	27.82
207.599	9.39
207.818	54.44
208.037	31.91
208.255	15.53
208.474	-25.43
208.693	21.67
208.911	42.15
209.13	48.3
209.349	-11.09
209.567	29.87
209.786	23.72
210.005	-19.29
210.223	70.83
210.442	-35.67
210.661	-4.95
210.879	44.2
211.098	17.58
211.316	87.21
211.535	97.45
211.753	-35.67
211.972	44.2
212.191	56.49
212.409	38.06
212.628	31.91
212.846	-13.14
213.065	31.91
213.283	38.06
213.502	-19.29
213.72	17.58
213.938	-17.24
214.157	-13.14
214.375	11.43
214.594	29.87
214.812	13.48
215.031	19.63
215.249	-43.86
215.467	29.87
215.686	23.72
215.904	29.87
216.122	33.96
216.341	27.82
216.559	62.63
216.778	66.73
216.996	5.29
217.214	-7
217.432	-29.52
217.651	-29.52
217.869	-62.29
218.087	21.67
218.306	33.96
218.524	-4.95
218.742	38.06
218.96	38.06
219.179	44.2
219.397	23.72
219.615	60.59
219.833	72.87
220.051	15.53
220.27	70.83
220.488	83.11
220.706	27.82
220.924	19.63
221.142	27.82
221.36	13.48
221.578	-25.43
221.796	79.02
222.015	7.34
222.233	-7
222.451	25.77
222.669	-50
222.887	58.54
223.105	1.19
223.323	-0.85
223.541	62.63
223.759	19.63
223.977	25.77
224.195	81.07
224.413	97.45
224.631	15.53
224.849	13.48
225.067	60.59
225.285	13.48
225.503	31.91
225.721	-27.48
225.939	5.29
226.157	50.35
226.375	81.07
226.592	29.87
226.81	-43.86
227.028	48.3
227.246	81.07
227.464	-7
227.682	40.11
227.9	50.35
228.117	13.48
228.335	36.01
228.553	5.29
228.771	3.24
228.989	38.06
229.206	130.22
229.424	-19.29
229.642	13.48
229.86	-35.67
230.077	33.96
230.295	1.19
230.513	40.11
230.731	107.69
230.948	-29.52
231.166	54.44
231.384	58.54
231.601	68.78
231.819	29.87
232.037	81.07
232.254	46.25
232.472	21.67
232.689	7.34
232.907	74.92
233.125	15.53
233.342	52.39
233.56	52.39
233.777	21.67
233.995	-27.48
234.213	95.4
234.43	15.53
234.648	-4.95
234.865	15.53
235.083	48.3
235.3	25.77
235.518	19.63
235.735	44.2
235.953	81.07
236.17	25.77
236.388	9.39
236.605	13.48
236.822	19.63
237.04	-0.85
237.257	70.83
237.475	54.44
237.692	72.87
237.909	-4.95
238.127	29.87
238.344	-15.19
238.562	56.49
238.779	-2.9
238.996	-47.96
239.214	15.53
239.431	54.44
239.648	-11.09
239.865	62.63
240.083	-4.95
240.3	33.96
240.517	-76.63
240.735	-9.05
240.952	99.5
241.169	97.45
241.386	87.21
241.603	21.67
241.821	36.01
242.038	-2.9
242.255	87.21
242.472	-0.85
242.689	27.82
242.907	70.83
243.124	33.96
243.341	27.82
243.558	60.59
243.775	19.63
243.992	-0.85
244.209	25.77
244.426	15.53
244.643	9.39
244.86	7.34
245.078	36.01
245.295	-37.72
245.512	27.82
245.729	48.3
245.946	62.63
246.163	101.55
246.38	-13.14
246.597	99.5
246.814	23.72
247.031	42.15
247.248	-15.19
247.464	21.67
247.681	27.82
247.898	25.77
248.115	33.96
248.332	46.25
248.549	-2.9
248.766	7.34
248.983	5.29
249.2	-23.38
249.417	-0.85
249.633	25.77
249.85	3.24
250.067	17.58
250.284	44.2
250.501	44.2
250.717	81.07
250.934	19.63
251.151	13.48
251.368	11.43
251.585	42.15
251.801	48.3
252.018	-11.09
252.235	27.82
252.451	-19.29
252.668	-47.96
252.885	50.35
253.102	11.43
253.318	25.77
253.535	-4.95
253.752	29.87
253.968	23.72
254.185	9.39
254.401	-27.48
254.618	21.67
254.835	70.83
255.051	36.01
255.268	64.68
255.484	85.16
255.701	23.72
255.917	89.26
256.134	-29.52
256.351	52.39
256.567	1.19
256.784	44.2
257	-50
257.217	48.3
257.433	81.07
257.65	7.34
257.866	50.35
258.082	52.39
258.299	5.29
258.515	70.83
258.732	44.2
258.948	-17.24
259.165	50.35
259.381	66.73
259.597	1.19
259.814	-11.09
260.03	15.53
260.246	72.87
260.463	-15.19
260.679	36.01
260.895	3.24
261.112	3.24
261.328	21.67
261.544	36.01
261.761	15.53
261.977	44.2
262.193	7.34
262.409	5.29
262.626	46.25
262.842	58.54
263.058	46.25
263.274	81.07
263.49	11.43
263.707	21.67
263.923	40.11
264.139	58.54
264.355	50.35
264.571	27.82
264.787	25.77
265.004	33.96
265.22	115.88
265.436	5.29
265.652	9.39
265.868	29.87
266.084	33.96
266.3	79.02
266.516	-2.9
266.732	33.96
266.948	-13.14
267.164	103.59
267.38	40.11
267.596	3.24
267.812	42.15
268.028	29.87
268.244	-19.29
268.46	33.96
268.676	7.34
268.892	60.59
269.108	33.96
269.324	11.43
269.54	19.63
269.756	48.3
269.972	-35.67
270.188	113.83
270.403	-74.58
270.619	-11.09
270.835	3.24
271.051	38.06
271.267	46.25
271.483	60.59
271.698	44.2
271.914	-19.29
272.13	-27.48
272.346	19.63
272.562	7.34
272.777	17.58
272.993	46.25
273.209	25.77
273.425	38.06
273.64	38.06
273.856	50.35
274.072	-13.14
274.287	5.29
274.503	-21.33
274.719	72.87
274.934	3.24
275.15	-35.67
275.366	68.78
275.581	-7
275.797	31.91
276.012	15.53
276.228	-25.43
276.444	7.34
276.659	-11.09
276.875	31.91
277.09	54.44
277.306	46.25
277.521	40.11
277.737	46.25
277.952	23.72
278.168	33.96
278.383	7.34
278.599	-21.33
278.814	19.63
279.03	-33.62
279.245	-2.9
279.461	-50
279.676	-15.19
279.892	-7
280.107	3.24
280.322	-15.19
280.538	19.63
280.753	-72.53
280.969	15.53
281.184	3.24
281.399	38.06
281.615	27.82
281.83	9.39
282.045	138.41
282.26	48.3
282.476	64.68
282.691	-7
282.906	-13.14
283.122	60.59
283.337	15.53
283.552	101.55
283.767	5.29
283.983	21.67
284.198	66.73
284.413	97.45
284.628	-7
284.843	74.92
285.058	58.54
285.274	48.3
285.489	-9.05
285.704	15.53
285.919	33.96
286.134	46.25
286.349	-56.15
286.564	-2.9
286.779	29.87
286.995	36.01
287.21	1.19
287.425	109.74
287.64	44.2
287.855	21.67
288.07	66.73
288.285	33.96
288.5	3.24
288.715	31.91
288.93	79.02
289.145	-4.95
289.36	44.2
289.575	21.67
289.79	15.53
290.004	3.24
290.219	66.73
290.434	9.39
290.649	29.87
290.864	109.74
291.079	27.82
291.294	111.78
291.509	17.58
291.724	-15.19
291.938	56.49
292.153	60.59
292.368	-56.15
292.583	21.67
292.798	52.39
293.012	21.67
293.227	36.01
293.442	46.25
293.657	-29.52
293.871	-11.09
294.086	33.96
294.301	5.29
294.516	-37.72
294.73	68.78
294.945	-74.58
295.16	-25.43
295.374	46.25
295.589	54.44
295.804	72.87
296.018	33.96
296.233	62.63
296.447	13.48
296.662	46.25
296.877	36.01
297.091	33.96
297.306	87.21
297.52	91.31
297.735	87.21
297.949	54.44
298.164	132.26
298.378	5.29
298.593	15.53
298.807	1.19
299.022	38.06
299.236	72.87
299.451	83.11
299.665	1.19
299.88	54.44
300.094	140.46
300.309	40.11
300.523	60.59
300.737	42.15
300.952	29.87
301.166	13.48
301.381	-13.14
301.595	31.91
301.809	70.83
302.024	-7
302.238	-17.24
302.452	-4.95
302.667	89.26
302.881	-31.57
303.095	25.77
303.309	11.43
303.524	-31.57
303.738	42.15
303.952	-11.09
304.166	40.11
304.381	44.2
304.595	38.06
304.809	-33.62
305.023	-2.9
305.237	54.44
305.452	-62.29
305.666	25.77
305.88	50.35
306.094	25.77
306.308	91.31
306.522	42.15
306.736	83.11
306.95	79.02
307.164	3.24
307.379	9.39
307.593	115.88
307.807	27.82
308.021	95.4
308.235	62.63
308.449	-31.57
308.663	13.48
308.877	144.55
309.091	11.43
309.305	36.01
309.519	-0.85
309.733	1.19
309.947	-64.34
310.161	27.82
310.374	52.39
310.588	25.77
310.802	-9.05
311.016	1.19
311.23	38.06
311.444	21.67
311.658	-11.09
311.872	38.06
312.085	56.49
312.299	15.53
312.513	9.39
312.727	62.63
312.941	25.77
313.154	64.68
313.368	68.78
313.582	19.63
313.796	-25.43
314.009	93.35
314.223	87.21
314.437	72.87
314.651	-13.14
314.864	38.06
315.078	62.63
315.292	44.2
315.505	-29.52
315.719	66.73
315.933	103.59
316.146	-43.86
316.36	58.54
316.573	76.97
316.787	113.83
317.001	56.49
317.214	-19.29
317.428	68.78
317.641	38.06
317.855	50.35
318.068	48.3
318.282	79.02
318.495	44.2
318.709	-2.9
318.922	44.2
319.136	44.2
319.349	25.77
319.563	36.01
319.776	56.49
319.99	54.44
320.203	70.83
320.417	52.39
320.63	66.73
320.843	50.35
321.057	27.82
321.27	-13.14
321.483	-9.05
321.697	7.34
321.91	111.78
322.124	54.44
322.337	44.2
322.55	42.15
322.763	-0.85
322.977	5.29
323.19	27.82
323.403	38.06
323.617	5.29
323.83	70.83
324.043	109.74
324.256	23.72
324.469	21.67
324.683	11.43
324.896	1.19
325.109	79.02
325.322	36.01
325.535	54.44
325.748	62.63
325.962	17.58
326.175	46.25
326.388	50.35
326.601	89.26
326.814	56.49
327.027	13.48
327.24	103.59
327.453	50.35
327.666	44.2
327.879	23.72
328.092	93.35
328.305	19.63
328.518	46.25
328.731	-19.29
328.944	72.87
329.157	15.53
329.37	89.26
329.583	70.83
329.796	152.74
330.009	1.19
330.222	-4.95
330.435	54.44
330.648	54.44
330.861	38.06
331.073	42.15
331.286	23.72
331.499	42.15
331.712	44.2
331.925	38.06
332.138	27.82
332.35	15.53
332.563	-9.05
332.776	52.39
332.989	25.77
333.202	87.21
333.414	5.29
333.627	91.31
333.84	66.73
334.053	54.44
334.265	54.44
334.478	83.11
334.691	95.4
334.903	-52.05
335.116	-47.96
335.329	-29.52
335.541	101.55
335.754	70.83
335.966	48.3
336.179	7.34
336.392	109.74
336.604	1.19
336.817	33.96
337.029	126.12
337.242	79.02
337.454	19.63
337.667	-11.09
337.88	15.53
338.092	3.24
338.305	-35.67
338.517	171.18
338.729	70.83
338.942	15.53
339.154	5.29
339.367	7.34
339.579	66.73
339.792	64.68
340.004	62.63
340.217	74.92
340.429	83.11
340.641	9.39
340.854	31.91
341.066	31.91
341.278	-37.72
341.491	3.24
341.703	-56.15
341.915	66.73
342.128	19.63
342.34	68.78
342.552	15.53
342.764	38.06
342.977	27.82
343.189	15.53
343.401	58.54
343.613	-4.95
343.826	64.68
344.038	64.68
344.25	19.63
344.462	11.43
344.674	3.24
344.886	46.25
345.099	44.2
345.311	3.24
345.523	31.91
345.735	-13.14
345.947	70.83
346.159	89.26
346.371	40.11
346.583	48.3
346.795	79.02
347.007	-15.19
347.219	15.53
347.431	-13.14
347.643	36.01
347.855	17.58
348.067	5.29
348.279	1.19
348.491	64.68
348.703	46.25
348.915	17.58
349.127	60.59
349.339	-27.48
349.551	13.48
349.763	85.16
349.975	56.49
350.187	48.3
350.399	68.78
350.61	15.53
350.822	23.72
351.034	97.45
351.246	62.63
351.458	7.34
351.669	89.26
351.881	7.34
352.093	36.01
352.305	132.26
352.517	62.63
352.728	9.39
352.94	56.49
353.152	31.91
353.363	74.92
353.575	-19.29
353.787	81.07
353.999	36.01
354.21	66.73
354.422	38.06
354.633	7.34
354.845	64.68
355.057	42.15
355.268	60.59
355.48	130.22
355.692	-0.85
355.903	54.44
356.115	-2.9
356.326	54.44
356.538	74.92
356.749	29.87
356.961	87.21
357.172	97.45
357.384	9.39
357.595	150.7
357.807	81.07
358.018	99.5
358.23	50.35
358.441	62.63
358.653	-13.14
358.864	66.73
359.075	-60.24
359.287	52.39
359.498	66.73
359.709	46.25
359.921	9.39
360.132	33.96
360.344	62.63
360.555	15.53
360.766	3.24
360.977	50.35
361.189	62.63
361.4	68.78
361.611	58.54
361.823	97.45
362.034	103.59
362.245	60.59
362.456	58.54
362.667	74.92
362.879	-37.72
363.09	13.48
363.301	56.49
363.512	13.48
363.723	81.07
363.935	64.68
364.146	27.82
364.357	48.3
364.568	54.44
364.779	-0.85
364.99	66.73
365.201	83.11
365.412	101.55
365.623	-25.43
365.834	46.25
366.045	72.87
366.256	23.72
366.467	19.63
366.678	23.72
366.889	74.92
367.1	-25.43
367.311	101.55
367.522	15.53
367.733	13.48
367.944	50.35
368.155	50.35
368.366	79.02
368.577	83.11
368.788	60.59
368.999	-15.19
369.209	56.49
369.42	95.4
369.631	173.22
369.842	56.49
370.053	62.63
370.264	105.64
370.474	52.39
370.685	72.87
370.896	27.82
371.107	89.26
371.317	85.16
371.528	50.35
371.739	19.63
371.95	85.16
372.16	93.35
372.371	-62.29
372.582	72.87
372.792	111.78
373.003	124.07
373.214	105.64
373.424	66.73
373.635	93.35
373.846	105.64
374.056	38.06
374.267	40.11
374.477	66.73
374.688	-29.52
374.898	46.25
375.109	42.15
375.319	64.68
375.53	91.31
375.74	29.87
375.951	23.72
376.161	-2.9
376.372	25.77
376.582	50.35
376.793	115.88
377.003	87.21
377.214	3.24
377.424	29.87
377.635	23.72
377.845	-39.76
378.055	93.35
378.266	54.44
378.476	95.4
378.686	33.96
378.897	11.43
379.107	33.96
379.317	38.06
379.528	62.63
379.738	156.84
379.948	44.2
380.158	83.11
380.369	72.87
380.579	95.4
380.789	-4.95
380.999	3.24
381.21	17.58
381.42	56.49
381.63	68.78
381.84	64.68
382.05	46.25
382.261	165.03
382.471	87.21
382.681	107.69
382.891	46.25
383.101	72.87
383.311	-9.05
383.521	46.25
383.731	113.83
383.941	152.74
384.151	115.88
384.361	81.07
384.571	101.55
384.781	72.87
384.991	19.63
385.201	91.31
385.411	74.92
385.621	-21.33
385.831	46.25
386.041	70.83
386.251	52.39
386.461	36.01
386.671	7.34
386.881	19.63
387.091	25.77
387.301	54.44
387.511	29.87
387.72	60.59
387.93	52.39
388.14	11.43
388.35	5.29
388.56	122.02
388.769	58.54
388.979	48.3
389.189	-4.95
389.399	48.3
389.609	58.54
389.818	17.58
390.028	62.63
390.238	81.07
390.447	97.45
390.657	85.16
390.867	68.78
391.076	23.72
391.286	126.12
391.496	23.72
391.705	36.01
391.915	101.55
392.125	95.4
392.334	91.31
392.544	117.93
392.753	97.45
392.963	79.02
393.172	60.59
393.382	95.4
393.591	36.01
393.801	50.35
394.01	132.26
394.22	101.55
394.429	122.02
394.639	66.73
394.848	81.07
395.058	40.11
395.267	70.83
395.477	74.92
395.686	56.49
395.895	113.83
396.105	93.35
396.314	60.59
396.524	105.64
396.733	117.93
396.942	101.55
397.152	83.11
397.361	142.5
397.57	93.35
397.78	158.89
397.989	105.64
398.198	134.31
398.407	93.35
398.617	111.78
398.826	126.12
399.035	126.12
399.244	138.41
399.453	165.03
399.663	122.02
399.872	148.65
400.081	124.07
400.29	197.8
400.499	136.36
400.708	173.22
400.917	97.45
401.127	142.5
401.336	70.83
401.545	158.89
401.754	126.12
401.963	193.7
402.172	144.55
402.381	115.88
402.59	126.12
402.799	224.42
403.008	128.17
403.217	222.38
403.426	208.04
403.635	119.98
403.844	218.28
404.053	171.18
404.262	193.7
404.471	128.17
404.68	191.66
404.888	140.46
405.097	193.7
405.306	201.9
405.515	238.76
405.724	218.28
405.933	242.85
406.142	205.99
406.35	222.38
406.559	216.23
406.768	271.53
406.977	287.91
407.185	285.86
407.394	185.51
407.603	230.57
407.812	369.83
408.02	398.5
408.229	232.62
408.438	328.87
408.646	341.16
408.855	310.44
409.064	222.38
409.272	394.4
409.481	371.88
409.69	384.16
409.898	410.79
410.107	410.79
410.315	451.75
410.524	433.32
410.733	402.6
410.941	398.5
411.15	459.94
411.358	410.79
411.567	482.47
411.775	470.18
411.984	513.19
412.192	574.63
412.401	613.54
412.609	529.57
412.818	674.98
413.026	654.5
413.234	728.22
413.443	713.89
413.651	654.5
413.86	812.19
414.068	740.51
414.276	885.92
414.485	728.22
414.693	820.38
414.901	984.22
415.11	949.4
415.318	998.56
415.526	1027.23
415.734	1010.84
415.943	1094.81
416.151	1092.76
416.359	1078.43
416.567	1111.19
416.776	1324.18
416.984	1229.98
417.192	1320.09
417.4	1264.79
417.608	1287.32
417.817	1406.1
418.025	1485.97
418.233	1514.64
418.441	1416.34
418.649	1584.27
418.857	1705.1
419.065	1713.3
419.273	1799.31
419.481	1873.04
419.689	1832.08
419.897	1985.68
420.105	1985.68
420.313	2081.93
420.521	2176.14
420.729	2178.19
420.937	2231.43
421.145	2389.13
421.353	2419.85
421.561	2595.97
421.769	2667.65
421.977	2651.27
422.185	2569.35
422.393	3011.71
422.601	2999.42
422.809	3058.81
423.017	3124.35
423.224	3155.07
423.432	3230.84
423.64	3249.27
423.848	3636.34
424.056	3419.25
424.263	3818.61
424.471	3755.12
424.679	3802.22
424.887	4082.8
425.094	4158.57
425.302	4246.63
425.51	4285.55
425.718	4562.02
425.925	4568.16
426.133	4840.54
426.341	4967.52
426.548	5217.37
426.756	5262.43
426.964	5188.7
427.171	5592.15
427.379	5796.95
427.586	5618.77
427.794	6073.42
428.001	6306.89
428.209	6587.46
428.417	6202.44
428.624	7021.63
428.832	6753.35
429.039	6802.5
429.247	6736.96
429.454	7656.5
429.662	7873.59
429.869	7470.14
430.076	7969.84
430.284	7996.46
430.491	8008.75
430.699	8643.62
430.906	8662.05
431.114	8641.57
431.321	8922.15
431.528	9241.63
431.736	9704.47
431.943	10294.29
432.15	9860.12
432.358	10218.51
432.565	10478.6
432.772	10634.25
432.979	11105.28
433.187	11191.3
433.394	11353.09
433.601	12155.89
433.808	12080.11
434.016	12047.35
434.223	12561.39
434.43	13427.68
434.637	12874.73
434.844	13827.03
435.052	13902.81
435.259	14093.27
435.466	14138.32
435.673	14095.32
435.88	14881.74
436.087	15723.45
436.294	15401.92
436.501	15248.32
436.708	15659.96
436.915	16114.61
437.122	16935.85
437.329	16776.11
437.537	17527.71
437.743	17599.39
437.95	17603.49
438.157	18301.84
438.364	19114.89
438.571	19118.98
438.778	18992.01
438.985	21152.62
439.192	20190.07
439.399	20652.91
439.606	20081.53
439.813	21629.79
440.02	22772.56
440.227	22313.81
440.433	22092.63
440.64	22659.92
440.847	22829.9
441.054	23106.38
441.261	24701.75
441.467	24429.37
441.674	24914.73
441.881	25670.43
442.088	25699.11
442.294	25598.76
442.501	25922.34
442.708	26503.96
442.914	27767.55
443.121	28951.28
443.328	28017.41
443.534	30116.58
443.741	29330.16
443.948	28973.81
444.154	30716.63
444.361	30857.94
444.568	30999.25
444.774	30804.69
444.981	31390.41
445.187	32383.68
445.394	33819.3
445.6	33440.43
445.807	36287.1
446.013	34747.03
446.22	35404.43
446.426	36868.73
446.633	36993.65
446.839	38720.09
447.046	36555.39
447.252	38642.27
447.459	38808.15
447.665	38589.02
447.871	40651.33
448.078	42228.26
448.284	40110.66
448.491	41644.59
448.697	42621.47
448.903	43360.79
449.11	43670.03
449.316	42719.77
449.522	43688.46
449.728	44734.98
449.935	45439.48
450.141	45343.22
450.347	46242.28
450.553	44667.39
450.76	45556.21
450.966	47018.46
451.172	46461.41
451.378	47720.91
451.584	46508.52
451.791	47405.53
451.997	47364.57
452.203	48372.17
452.409	48470.47
452.615	48273.87
452.821	46504.42
453.027	46221.8
453.233	48331.21
453.44	46391.78
453.646	46946.78
453.852	47174.11
454.058	48263.63
454.264	46844.38
454.47	47540.69
454.676	46633.44
454.882	47817.17
455.088	44014.09
455.294	44515.84
455.5	45210.1
455.705	45822.45
455.911	43520.53
456.117	42670.62
456.323	42154.54
456.529	40081.99
456.735	41800.24
456.941	40593.98
457.147	40125
457.352	38871.64
457.558	38427.23
457.764	38650.46
457.97	38054.5
458.176	37366.38
458.381	37151.35
458.587	35551.88
458.793	35455.63
458.999	33557.16
459.204	35490.45
459.41	35089.04
459.616	32430.78
459.821	32699.06
460.027	32723.64
460.233	31955.65
460.438	30321.37
460.644	30591.7
460.85	29082.35
461.055	28908.27
461.261	28488.44
461.466	26393.37
461.672	25774.88
461.878	27560.71
462.083	25701.15
462.289	25353
462.494	24904.49
462.7	23860.03
462.905	23399.24
463.111	24138.55
463.316	24632.11
463.522	23667.52
463.727	23688
463.932	23432.01
464.138	23380.81
464.343	23610.18
464.549	22598.48
464.754	23673.67
464.959	23296.84
465.165	23253.83
465.37	22262.61
465.575	21597.03
465.781	22635.35
465.986	22723.41
466.191	21816.16
466.397	21304.17
466.602	20149.11
466.807	21054.31
467.012	21314.41
467.218	21099.37
467.423	20800.37
467.628	20992.87
