Data from USB4F104151__43__12-35-55-799.txt Node

Date: Fri Mar 14 12:35:55 EDT 2025
User: louis
Spectrometer: USB4F10415
Trigger mode: 4
Integration Time (sec): 2.000000E-2
Scans to average: 1
Electric dark correction enabled: true
Nonlinearity correction enabled: false
Boxcar width: 0
XAxis mode: Wavelengths
Number of Pixels in Spectrum: 3648
>>>>>Begin Spectral Data<<<<<
178.204	-88.75
178.424	-88.75
178.644	-88.75
178.864	-96.94
179.084	-39.59
179.304	-10.92
179.524	-25.26
179.744	-6.83
179.964	11.61
180.184	42.32
180.404	17.75
180.624	21.84
180.844	42.32
181.064	-6.83
181.283	-39.59
181.503	-37.55
181.723	-8.87
181.943	-137.9
182.163	165.2
182.383	44.37
182.602	-17.07
182.822	11.61
183.042	9.56
183.262	17.75
183.482	54.61
183.701	30.04
183.921	60.76
184.141	-45.74
184.361	103.76
184.58	-21.16
184.8	17.75
185.02	68.95
185.239	150.87
185.459	44.37
185.679	66.9
185.898	83.28
186.118	46.42
186.338	-2.73
186.557	30.04
186.777	21.84
186.997	-21.16
187.216	3.41
187.436	56.66
187.655	62.8
187.875	7.51
188.095	36.18
188.314	38.23
188.534	36.18
188.753	77.14
188.973	-27.31
189.192	140.63
189.412	34.13
189.631	36.18
189.851	-51.88
190.07	-27.31
190.29	-53.93
190.509	5.46
190.729	-49.83
190.948	93.52
191.168	130.39
191.387	60.76
191.607	42.32
191.826	64.85
192.045	50.52
192.265	-49.83
192.484	3.41
192.704	-17.07
192.923	44.37
193.142	30.04
193.362	-6.83
193.581	52.56
193.8	-25.26
194.02	58.71
194.239	-29.35
194.458	-37.55
194.678	36.18
194.897	23.89
195.116	-6.83
195.335	46.42
195.555	81.24
195.774	1.37
195.993	36.18
196.212	15.7
196.432	3.41
196.651	-19.11
196.87	52.56
197.089	23.89
197.308	101.72
197.528	52.56
197.747	-29.35
197.966	71
198.185	73.04
198.404	7.51
198.623	32.08
198.842	36.18
199.062	25.94
199.281	54.61
199.5	27.99
199.719	62.8
199.938	101.72
200.157	89.43
200.376	9.56
200.595	23.89
200.814	-6.83
201.033	42.32
201.252	54.61
201.471	36.18
201.69	30.04
201.909	91.48
202.128	46.42
202.347	109.91
202.566	-29.35
202.785	17.75
203.004	-4.78
203.223	99.67
203.442	54.61
203.661	15.7
203.879	85.33
204.098	-6.83
204.317	-31.4
204.536	91.48
204.755	58.71
204.974	64.85
205.193	30.04
205.411	109.91
205.63	15.7
205.849	27.99
206.068	15.7
206.287	62.8
206.505	42.32
206.724	60.76
206.943	58.71
207.162	-98.99
207.381	-0.68
207.599	42.32
207.818	-35.5
208.037	58.71
208.255	79.19
208.474	1.37
208.693	44.37
208.911	13.65
209.13	3.41
209.349	75.09
209.567	71
209.786	83.28
210.005	-19.11
210.223	38.23
210.442	9.56
210.661	81.24
210.879	5.46
211.098	21.84
211.316	68.95
211.535	46.42
211.753	21.84
211.972	-17.07
212.191	27.99
212.409	-15.02
212.628	5.46
212.846	52.56
213.065	40.28
213.283	21.84
213.502	42.32
213.72	44.37
213.938	23.89
214.157	58.71
214.375	17.75
214.594	32.08
214.812	40.28
215.031	91.48
215.249	85.33
215.467	21.84
215.686	56.66
215.904	64.85
216.122	36.18
216.341	97.62
216.559	-4.78
216.778	23.89
216.996	40.28
217.214	3.41
217.432	32.08
217.651	25.94
217.869	-4.78
218.087	56.66
218.306	66.9
218.524	-0.68
218.742	50.52
218.96	23.89
219.179	48.47
219.397	17.75
219.615	48.47
219.833	71
220.051	-37.55
220.27	75.09
220.488	38.23
220.706	95.57
220.924	68.95
221.142	-12.97
221.36	-4.78
221.578	19.8
221.796	23.89
222.015	-2.73
222.233	46.42
222.451	56.66
222.669	68.95
222.887	15.7
223.105	-4.78
223.323	7.51
223.541	25.94
223.759	-41.64
223.977	5.46
224.195	73.04
224.413	52.56
224.631	1.37
224.849	60.76
225.067	60.76
225.285	46.42
225.503	60.76
225.721	1.37
225.939	48.47
226.157	25.94
226.375	85.33
226.592	38.23
226.81	5.46
227.028	48.47
227.246	34.13
227.464	15.7
227.682	19.8
227.9	52.56
228.117	36.18
228.335	36.18
228.553	19.8
228.771	46.42
228.989	68.95
229.206	-25.26
229.424	38.23
229.642	124.24
229.86	-35.5
230.077	81.24
230.295	50.52
230.513	42.32
230.731	13.65
230.948	25.94
231.166	97.62
231.384	19.8
231.601	15.7
231.819	32.08
232.037	38.23
232.254	9.56
232.472	32.08
232.689	23.89
232.907	97.62
233.125	-0.68
233.342	15.7
233.56	40.28
233.777	3.41
233.995	-23.21
234.213	95.57
234.43	52.56
234.648	-19.11
234.865	7.51
235.083	-21.16
235.3	3.41
235.518	-10.92
235.735	21.84
235.953	62.8
236.17	30.04
236.388	71
236.605	19.8
236.822	36.18
237.04	-6.83
237.257	-0.68
237.475	71
237.692	134.48
237.909	46.42
238.127	-8.87
238.344	17.75
238.562	7.51
238.779	60.76
238.996	-2.73
239.214	50.52
239.431	60.76
239.648	30.04
239.865	73.04
240.083	27.99
240.3	73.04
240.517	42.32
240.735	19.8
240.952	81.24
241.169	66.9
241.386	11.61
241.603	17.75
241.821	23.89
242.038	73.04
242.255	77.14
242.472	-0.68
242.689	30.04
242.907	11.61
243.124	-23.21
243.341	42.32
243.558	-51.88
243.775	73.04
243.992	44.37
244.209	-15.02
244.426	56.66
244.643	148.82
244.86	89.43
245.078	32.08
245.295	44.37
245.512	62.8
245.729	52.56
245.946	23.89
246.163	52.56
246.38	-66.22
246.597	83.28
246.814	95.57
247.031	15.7
247.248	34.13
247.464	-58.03
247.681	11.61
247.898	99.67
248.115	-15.02
248.332	7.51
248.549	66.9
248.766	79.19
248.983	68.95
249.2	52.56
249.417	97.62
249.633	25.94
249.85	54.61
250.067	17.75
250.284	48.47
250.501	15.7
250.717	1.37
250.934	-0.68
251.151	97.62
251.368	64.85
251.585	32.08
251.801	130.39
252.018	64.85
252.235	85.33
252.451	5.46
252.668	11.61
252.885	83.28
253.102	25.94
253.318	13.65
253.535	52.56
253.752	30.04
253.968	27.99
254.185	-6.83
254.401	32.08
254.618	77.14
254.835	27.99
255.051	3.41
255.268	66.9
255.484	-6.83
255.701	-10.92
255.917	89.43
256.134	17.75
256.351	42.32
256.567	-31.4
256.784	19.8
257	99.67
257.217	50.52
257.433	21.84
257.65	19.8
257.866	91.48
258.082	21.84
258.299	-10.92
258.515	-10.92
258.732	5.46
258.948	30.04
259.165	42.32
259.381	17.75
259.597	38.23
259.814	-12.97
260.03	64.85
260.246	-19.11
260.463	34.13
260.679	36.18
260.895	21.84
261.112	95.57
261.328	52.56
261.544	-29.35
261.761	114
261.977	30.04
262.193	-41.64
262.409	32.08
262.626	87.38
262.842	1.37
263.058	38.23
263.274	-35.5
263.49	5.46
263.707	83.28
263.923	46.42
264.139	7.51
264.355	101.72
264.571	62.8
264.787	-8.87
265.004	85.33
265.22	93.52
265.436	38.23
265.652	-19.11
265.868	21.84
266.084	38.23
266.3	34.13
266.516	68.95
266.732	48.47
266.948	161.11
267.164	11.61
267.38	42.32
267.596	87.38
267.812	71
268.028	19.8
268.244	71
268.46	81.24
268.676	27.99
268.892	73.04
269.108	17.75
269.324	3.41
269.54	15.7
269.756	99.67
269.972	-8.87
270.188	-10.92
270.403	27.99
270.619	9.56
270.835	50.52
271.051	38.23
271.267	48.47
271.483	40.28
271.698	109.91
271.914	-80.55
272.13	13.65
272.346	27.99
272.562	-10.92
272.777	44.37
272.993	-10.92
273.209	34.13
273.425	-19.11
273.64	64.85
273.856	30.04
274.072	66.9
274.287	38.23
274.503	-0.68
274.719	44.37
274.934	36.18
275.15	-33.45
275.366	38.23
275.581	-41.64
275.797	126.29
276.012	64.85
276.228	89.43
276.444	68.95
276.659	75.09
276.875	23.89
277.09	89.43
277.306	68.95
277.521	144.72
277.737	52.56
277.952	97.62
278.168	5.46
278.383	46.42
278.599	-31.4
278.814	58.71
279.03	11.61
279.245	60.76
279.461	89.43
279.676	101.72
279.892	1.37
280.107	-23.21
280.322	-15.02
280.538	32.08
280.753	60.76
280.969	-39.59
281.184	64.85
281.399	91.48
281.615	-19.11
281.83	58.71
282.045	-15.02
282.26	50.52
282.476	132.44
282.691	64.85
282.906	46.42
283.122	38.23
283.337	-12.97
283.552	15.7
283.767	-27.31
283.983	1.37
284.198	48.47
284.413	21.84
284.628	-51.88
284.843	91.48
285.058	21.84
285.274	66.9
285.489	-6.83
285.704	50.52
285.919	-4.78
286.134	52.56
286.349	23.89
286.564	73.04
286.779	7.51
286.995	15.7
287.21	5.46
287.425	36.18
287.64	-31.4
287.855	44.37
288.07	68.95
288.285	87.38
288.5	62.8
288.715	81.24
288.93	42.32
289.145	60.76
289.36	118.1
289.575	15.7
289.79	25.94
290.004	-17.07
290.219	66.9
290.434	11.61
290.649	36.18
290.864	83.28
291.079	30.04
291.294	5.46
291.509	46.42
291.724	32.08
291.938	-12.97
292.153	23.89
292.368	32.08
292.583	48.47
292.798	87.38
293.012	44.37
293.227	73.04
293.442	64.85
293.657	5.46
293.871	68.95
294.086	83.28
294.301	50.52
294.516	13.65
294.73	-25.26
294.945	75.09
295.16	30.04
295.374	99.67
295.589	161.11
295.804	32.08
296.018	-10.92
296.233	83.28
296.447	34.13
296.662	68.95
296.877	62.8
297.091	130.39
297.306	-29.35
297.52	25.94
297.735	-2.73
297.949	13.65
298.164	71
298.378	42.32
298.593	-15.02
298.807	-39.59
299.022	-10.92
299.236	21.84
299.451	91.48
299.665	23.89
299.88	54.61
300.094	46.42
300.309	11.61
300.523	15.7
300.737	60.76
300.952	83.28
301.166	81.24
301.381	42.32
301.595	34.13
301.809	21.84
302.024	79.19
302.238	46.42
302.452	105.81
302.667	-4.78
302.881	87.38
303.095	36.18
303.309	9.56
303.524	40.28
303.738	89.43
303.952	-17.07
304.166	21.84
304.381	52.56
304.595	68.95
304.809	54.61
305.023	19.8
305.237	23.89
305.452	23.89
305.666	103.76
305.88	111.96
306.094	60.76
306.308	38.23
306.522	15.7
306.736	64.85
306.95	40.28
307.164	71
307.379	48.47
307.593	109.91
307.807	93.52
308.021	48.47
308.235	89.43
308.449	42.32
308.663	52.56
308.877	171.35
309.091	101.72
309.305	95.57
309.519	36.18
309.733	114
309.947	-47.79
310.161	40.28
310.374	-6.83
310.588	101.72
310.802	-8.87
311.016	109.91
311.23	-17.07
311.444	1.37
311.658	-19.11
311.872	132.44
312.085	36.18
312.299	48.47
312.513	77.14
312.727	-21.16
312.941	7.51
313.154	38.23
313.368	97.62
313.582	50.52
313.796	77.14
314.009	48.47
314.223	101.72
314.437	73.04
314.651	32.08
314.864	7.51
315.078	13.65
315.292	25.94
315.505	5.46
315.719	21.84
315.933	-0.68
316.146	97.62
316.36	7.51
316.573	58.71
316.787	85.33
317.001	114
317.214	-0.68
317.428	15.7
317.641	-43.69
317.855	17.75
318.068	-31.4
318.282	46.42
318.495	93.52
318.709	40.28
318.922	-43.69
319.136	66.9
319.349	81.24
319.563	54.61
319.776	15.7
319.99	56.66
320.203	27.99
320.417	27.99
320.63	58.71
320.843	132.44
321.057	1.37
321.27	9.56
321.483	25.94
321.697	79.19
321.91	40.28
322.124	93.52
322.337	77.14
322.55	36.18
322.763	34.13
322.977	-33.45
323.19	-25.26
323.403	11.61
323.617	30.04
323.83	75.09
324.043	32.08
324.256	-6.83
324.469	11.61
324.683	42.32
324.896	-8.87
325.109	48.47
325.322	-47.79
325.535	75.09
325.748	48.47
325.962	87.38
326.175	-2.73
326.388	87.38
326.601	142.68
326.814	13.65
327.027	34.13
327.24	130.39
327.453	-2.73
327.666	50.52
327.879	36.18
328.092	87.38
328.305	15.7
328.518	97.62
328.731	-2.73
328.944	97.62
329.157	32.08
329.37	27.99
329.583	44.37
329.796	118.1
330.009	-12.97
330.222	130.39
330.435	42.32
330.648	13.65
330.861	17.75
331.073	93.52
331.286	77.14
331.499	54.61
331.712	-6.83
331.925	71
332.138	58.71
332.35	109.91
332.563	54.61
332.776	105.81
332.989	32.08
333.202	50.52
333.414	-8.87
333.627	68.95
333.84	11.61
334.053	99.67
334.265	73.04
334.478	40.28
334.691	66.9
334.903	75.09
335.116	9.56
335.329	62.8
335.541	81.24
335.754	79.19
335.966	-12.97
336.179	-31.4
336.392	95.57
336.604	54.61
336.817	83.28
337.029	118.1
337.242	-2.73
337.454	71
337.667	36.18
337.88	1.37
338.092	7.51
338.305	95.57
338.517	25.94
338.729	73.04
338.942	-0.68
339.154	23.89
339.367	21.84
339.579	81.24
339.792	38.23
340.004	25.94
340.217	34.13
340.429	50.52
340.641	3.41
340.854	44.37
341.066	73.04
341.278	9.56
341.491	89.43
341.703	93.52
341.915	68.95
342.128	56.66
342.34	30.04
342.552	58.71
342.764	95.57
342.977	34.13
343.189	38.23
343.401	-6.83
343.613	79.19
343.826	52.56
344.038	7.51
344.25	122.2
344.462	38.23
344.674	75.09
344.886	64.85
345.099	114
345.311	116.05
345.523	60.76
345.735	27.99
345.947	77.14
346.159	30.04
346.371	71
346.583	11.61
346.795	54.61
347.007	44.37
347.219	93.52
347.431	79.19
347.643	64.85
347.855	-2.73
348.067	75.09
348.279	52.56
348.491	73.04
348.703	-19.11
348.915	-15.02
349.127	19.8
349.339	-0.68
349.551	36.18
349.763	111.96
349.975	32.08
350.187	85.33
350.399	62.8
350.61	38.23
350.822	-19.11
351.034	101.72
351.246	50.52
351.458	-0.68
351.669	46.42
351.881	64.85
352.093	79.19
352.305	73.04
352.517	128.34
352.728	77.14
352.94	54.61
353.152	89.43
353.363	46.42
353.575	44.37
353.787	83.28
353.999	75.09
354.21	81.24
354.422	42.32
354.633	79.19
354.845	93.52
355.057	32.08
355.268	-0.68
355.48	60.76
355.692	32.08
355.903	56.66
356.115	79.19
356.326	3.41
356.538	87.38
356.749	62.8
356.961	118.1
357.172	101.72
357.384	9.56
357.595	126.29
357.807	50.52
358.018	11.61
358.23	79.19
358.441	81.24
358.653	83.28
358.864	36.18
359.075	21.84
359.287	79.19
359.498	101.72
359.709	54.61
359.921	58.71
360.132	30.04
360.344	101.72
360.555	50.52
360.766	42.32
360.977	25.94
361.189	75.09
361.4	66.9
361.611	85.33
361.823	38.23
362.034	71
362.245	30.04
362.456	9.56
362.667	87.38
362.879	89.43
363.09	103.76
363.301	40.28
363.512	21.84
363.723	128.34
363.935	30.04
364.146	79.19
364.357	66.9
364.568	83.28
364.779	66.9
364.99	36.18
365.201	21.84
365.412	21.84
365.623	11.61
365.834	46.42
366.045	101.72
366.256	136.53
366.467	-17.07
366.678	54.61
366.889	5.46
367.1	11.61
367.311	85.33
367.522	11.61
367.733	95.57
367.944	32.08
368.155	1.37
368.366	19.8
368.577	103.76
368.788	97.62
368.999	7.51
369.209	87.38
369.42	122.2
369.631	95.57
369.842	81.24
370.053	-6.83
370.264	105.81
370.474	44.37
370.685	114
370.896	73.04
371.107	87.38
371.317	60.76
371.528	25.94
371.739	130.39
371.95	38.23
372.16	111.96
372.371	3.41
372.582	36.18
372.792	114
373.003	83.28
373.214	68.95
373.424	62.8
373.635	11.61
373.846	68.95
374.056	73.04
374.267	120.15
374.477	109.91
374.688	91.48
374.898	73.04
375.109	36.18
375.319	103.76
375.53	83.28
375.74	50.52
375.951	120.15
376.161	58.71
376.372	105.81
376.582	91.48
376.793	38.23
377.003	54.61
377.214	50.52
377.424	60.76
377.635	71
377.845	23.89
378.055	114
378.266	36.18
378.476	32.08
378.686	5.46
378.897	89.43
379.107	101.72
379.317	79.19
379.528	64.85
379.738	83.28
379.948	27.99
380.158	105.81
380.369	75.09
380.579	103.76
380.789	30.04
380.999	54.61
381.21	159.06
381.42	93.52
381.63	34.13
381.84	54.61
382.05	77.14
382.261	64.85
382.471	81.24
382.681	111.96
382.891	126.29
383.101	44.37
383.311	50.52
383.521	60.76
383.731	77.14
383.941	97.62
384.151	30.04
384.361	85.33
384.571	109.91
384.781	122.2
384.991	101.72
385.201	75.09
385.411	128.34
385.621	79.19
385.831	71
386.041	25.94
386.251	97.62
386.461	54.61
386.671	-6.83
386.881	62.8
387.091	58.71
387.301	99.67
387.511	44.37
387.72	89.43
387.93	56.66
388.14	62.8
388.35	81.24
388.56	75.09
388.769	99.67
388.979	40.28
389.189	36.18
389.399	66.9
389.609	54.61
389.818	114
390.028	126.29
390.238	73.04
390.447	64.85
390.657	175.44
390.867	89.43
391.076	85.33
391.286	79.19
391.496	93.52
391.705	105.81
391.915	75.09
392.125	27.99
392.334	132.44
392.544	56.66
392.753	114
392.963	87.38
393.172	99.67
393.382	144.72
393.591	193.87
393.801	132.44
394.01	91.48
394.22	154.96
394.429	81.24
394.639	68.95
394.848	99.67
395.058	52.56
395.267	66.9
395.477	95.57
395.686	111.96
395.895	109.91
396.105	255.31
396.314	75.09
396.524	187.73
396.733	83.28
396.942	128.34
397.152	148.82
397.361	81.24
397.57	101.72
397.78	103.76
397.989	64.85
398.198	144.72
398.407	126.29
398.617	214.35
398.826	171.35
399.035	138.58
399.244	161.11
399.453	105.81
399.663	150.87
399.872	118.1
400.081	111.96
400.29	154.96
400.499	83.28
400.708	222.55
400.917	185.68
401.127	152.91
401.336	99.67
401.545	179.54
401.754	144.72
401.963	173.39
402.172	124.24
402.381	216.4
402.59	114
402.799	107.86
403.008	163.15
403.217	93.52
403.426	206.16
403.635	138.58
403.844	247.12
404.053	130.39
404.262	185.68
404.471	236.88
404.68	212.31
404.888	124.24
405.097	193.87
405.306	202.07
405.515	193.87
405.724	189.78
405.933	277.84
406.142	245.07
406.35	228.69
406.559	279.89
406.768	257.36
406.977	337.23
407.185	253.27
407.394	279.89
407.603	296.27
407.812	322.9
408.02	279.89
408.229	226.64
408.438	339.28
408.646	335.18
408.855	365.9
409.064	382.29
409.272	419.15
409.481	333.14
409.69	372.05
409.898	449.87
410.107	462.16
410.315	398.67
410.524	492.88
410.733	392.53
410.941	435.53
411.15	490.83
411.358	468.3
411.567	578.89
411.775	523.6
411.984	527.69
412.192	611.66
412.401	662.86
412.609	617.8
412.818	709.96
413.026	689.48
413.234	681.29
413.443	671.05
413.651	707.91
413.86	724.3
414.068	884.04
414.276	816.46
414.485	865.61
414.693	871.75
414.901	937.29
415.11	871.75
415.318	898.38
415.526	1015.11
415.734	1027.4
415.943	1082.69
416.151	1154.37
416.359	1148.23
416.567	1123.65
416.776	1154.37
416.984	1269.06
417.192	1250.63
417.4	1346.88
417.608	1244.48
417.817	1416.51
418.025	1408.32
418.233	1553.73
418.441	1463.62
418.649	1576.25
418.857	1809.72
419.065	1701.18
419.273	1801.53
419.481	1676.6
419.689	1912.12
419.897	1957.18
420.105	2004.28
420.313	2204.98
420.521	2125.11
420.729	2258.23
420.937	2278.71
421.145	2370.87
421.353	2477.36
421.561	2604.33
421.769	2673.96
421.977	2759.98
422.185	2770.22
422.393	2927.91
422.601	3073.32
422.809	3091.75
423.017	3038.5
423.224	3286.31
423.432	3372.32
423.64	3347.75
423.848	3687.71
424.056	3556.64
424.263	3767.58
424.471	3898.65
424.679	3874.07
424.887	4158.74
425.094	4222.23
425.302	4214.04
425.51	4470.03
425.718	4662.54
425.925	4545.81
426.133	4754.7
426.341	4930.83
426.548	5209.35
426.756	5215.49
426.964	5301.51
427.171	5633.28
427.379	5758.21
427.586	5911.8
427.794	5952.76
428.001	6257.91
428.209	6741.23
428.417	6511.86
428.624	6710.51
428.832	6915.31
429.039	6927.6
429.247	6821.1
429.454	7587.04
429.662	7967.96
429.869	7662.82
430.076	8117.47
430.284	7843.04
430.491	8139.99
430.699	8537.3
430.906	8631.51
431.114	8668.37
431.321	9209.03
431.528	9155.79
431.736	9833.66
431.943	10190.01
432.15	10024.12
432.358	9962.69
432.565	10722.48
432.772	10702
432.979	11048.11
433.187	11310.25
433.394	11326.63
433.601	12117.15
433.808	12266.65
434.016	12178.59
434.223	12709.01
434.43	13325.45
434.637	12885.14
434.844	14261.37
435.052	14138.49
435.259	14154.88
435.466	14140.54
435.673	13960.32
435.88	15236.2
436.087	15856.74
436.294	15834.21
436.501	15504.49
436.708	15670.37
436.915	16180.32
437.122	16925.78
437.329	16958.55
437.537	17478.73
437.743	17613.9
437.95	17607.75
438.157	18627.64
438.364	19354.67
438.571	19123.25
438.778	19203.12
438.985	21128.21
439.192	20294.69
439.399	20978.71
439.606	20284.45
439.813	21535.76
440.02	22772.73
440.227	22543.36
440.433	22670.33
440.64	22936.57
440.847	22862.84
441.054	23284.72
441.261	25011.16
441.467	24574.94
441.674	25392.08
441.881	26078.15
442.088	25883.59
442.294	25742.28
442.501	26430.4
442.708	26823.61
442.914	28144.55
443.121	29191.06
443.328	28236.71
443.534	30305.16
443.741	29682.58
443.948	28933.02
444.154	31132.54
444.361	30995.32
444.568	30876.54
444.774	31159.16
444.981	31826.8
445.187	32658.27
445.394	33964.88
445.6	33682.26
445.807	36662.05
446.013	35160.89
446.22	35535.67
446.426	36864.8
446.633	37411.61
446.839	38392.59
447.046	37360.41
447.252	39269.12
447.459	39279.36
447.665	39572.22
447.871	40624.87
448.078	42515.15
448.284	40356.59
448.491	41693.91
448.697	42980.04
448.903	43766.46
449.11	44034.74
449.316	43379.39
449.522	44198.58
449.728	45365.92
449.935	45861.53
450.141	45687.45
450.347	46779.02
450.553	45150.88
450.76	46015.13
450.966	47846.01
451.172	47100.55
451.378	47680.13
451.584	47288.96
451.791	48132.73
451.997	47972.99
452.203	49269.35
452.409	48806.51
452.615	48675.44
452.821	47035.02
453.027	46461.58
453.233	48654.96
453.44	46510.74
453.646	47286.92
453.852	47446.66
454.058	48497.27
454.264	47069.83
454.47	47860.35
454.676	47096.45
454.882	48370.29
455.088	44409.52
455.294	45228.71
455.5	46068.37
455.705	46215.83
455.911	44343.98
456.117	43946.68
456.323	42803.91
456.529	40786.66
456.735	42867.4
456.941	41241.31
457.147	40637.16
457.352	39596.79
457.558	39072.51
457.764	39437.05
457.97	38112.02
458.176	37690.13
458.381	37683.99
458.587	35767.09
458.793	35748.66
458.999	34464.58
459.204	36524.84
459.41	35719.99
459.616	32934.75
459.821	33280.86
460.027	33190.75
460.233	32451.43
460.438	30690.18
460.644	31146.87
460.85	29787.02
461.055	29256.6
461.261	29168.54
461.466	26719.17
461.672	26065.86
461.878	28015.53
462.083	26383.3
462.289	25807.82
462.494	25705.42
462.7	24161.25
462.905	23565.29
463.111	24464.35
463.316	24546.27
463.522	24167.4
463.727	24054.76
463.932	23999.46
464.138	23618.54
464.343	24144.87
464.549	23024.63
464.754	23860.2
464.959	23755.75
465.165	23466.99
465.37	22668.28
465.575	22156.29
465.781	22588.41
465.986	23030.77
466.191	21900.3
466.397	21617.68
466.602	20509.72
466.807	21388.3
467.012	21519.37
467.218	21474.32
467.423	21111.83
467.628	21201.94
467.833	22217.73
