Data from USB4F104151__90__12-37-06-991.txt Node

Date: Fri Mar 14 12:37:06 EDT 2025
User: louis
Spectrometer: USB4F10415
Trigger mode: 4
Integration Time (sec): 2.000000E-2
Scans to average: 1
Electric dark correction enabled: true
Nonlinearity correction enabled: false
Boxcar width: 0
XAxis mode: Wavelengths
Number of Pixels in Spectrum: 3648
>>>>>Begin Spectral Data<<<<<
178.204	-59.73
178.424	-59.73
178.644	-59.73
178.864	-67.92
179.084	-84.31
179.304	-51.54
179.524	24.23
179.744	-24.92
179.964	9.9
180.184	52.91
180.404	40.62
180.624	3.75
180.844	-14.68
181.064	-2.39
181.283	-31.06
181.503	13.99
181.723	-20.82
181.943	-24.92
182.163	73.39
182.383	-14.68
182.602	-16.73
182.822	67.24
183.042	42.67
183.262	-14.68
183.482	73.39
183.701	-33.11
183.921	-6.49
184.141	-49.49
184.361	-20.82
184.58	104.11
184.8	-49.49
185.02	69.29
185.239	69.29
185.459	67.24
185.679	116.39
185.898	-33.11
186.118	57
186.338	16.04
186.557	13.99
186.777	24.23
186.997	65.19
187.216	-59.73
187.436	30.38
187.655	24.23
187.875	57
188.095	-4.44
188.314	46.76
188.534	95.91
188.753	54.95
188.973	-2.39
189.192	-12.63
189.412	1.71
189.631	-24.92
189.851	-78.16
190.07	46.76
190.29	22.19
190.509	-24.92
190.729	16.04
190.948	3.75
191.168	87.72
191.387	110.25
191.607	20.14
191.826	89.77
192.045	75.43
192.265	36.52
192.484	18.09
192.704	26.28
192.923	71.34
193.142	52.91
193.362	5.8
193.581	52.91
193.8	11.95
194.02	-14.68
194.239	42.67
194.458	52.91
194.678	-4.44
194.897	46.76
195.116	102.06
195.335	63.15
195.555	7.85
195.774	48.81
195.993	110.25
196.212	28.33
196.432	-29.01
196.651	11.95
196.87	42.67
197.089	87.72
197.308	44.71
197.528	44.71
197.747	24.23
197.966	34.47
198.185	102.06
198.404	40.62
198.623	73.39
198.842	26.28
199.062	44.71
199.281	104.11
199.5	34.47
199.719	48.81
199.938	59.05
200.157	120.49
200.376	18.09
200.595	118.44
200.814	46.76
201.033	-43.35
201.252	67.24
201.471	9.9
201.69	97.96
201.909	71.34
202.128	108.2
202.347	-26.96
202.566	57
202.785	-78.16
203.004	75.43
203.223	138.92
203.442	-22.87
203.661	28.33
203.879	-10.58
204.098	40.62
204.317	36.52
204.536	22.19
204.755	93.87
204.974	71.34
205.193	-0.34
205.411	-18.77
205.63	54.95
205.849	36.52
206.068	20.14
206.287	42.67
206.505	7.85
206.724	32.43
206.943	-22.87
207.162	52.91
207.381	-8.53
207.599	34.47
207.818	16.04
208.037	13.99
208.255	32.43
208.474	9.9
208.693	-24.92
208.911	71.34
209.13	57
209.349	30.38
209.567	63.15
209.786	22.19
210.005	42.67
210.223	52.91
210.442	11.95
210.661	69.29
210.879	-0.34
211.098	20.14
211.316	30.38
211.535	22.19
211.753	36.52
211.972	48.81
212.191	-8.53
212.409	52.91
212.628	11.95
212.846	22.19
213.065	-26.96
213.283	38.57
213.502	40.62
213.72	28.33
213.938	-16.73
214.157	-16.73
214.375	-4.44
214.594	50.86
214.812	16.04
215.031	34.47
215.249	52.91
215.467	34.47
215.686	9.9
215.904	77.48
216.122	7.85
216.341	69.29
216.559	24.23
216.778	46.76
216.996	71.34
217.214	16.04
217.432	36.52
217.651	-12.63
217.869	32.43
218.087	52.91
218.306	67.24
218.524	102.06
218.742	-4.44
218.96	85.67
219.179	18.09
219.397	71.34
219.615	81.58
219.833	59.05
220.051	40.62
220.27	26.28
220.488	54.95
220.706	69.29
220.924	-6.49
221.142	89.77
221.36	-29.01
221.578	-33.11
221.796	28.33
222.015	116.39
222.233	67.24
222.451	11.95
222.669	57
222.887	57
223.105	-37.2
223.323	28.33
223.541	-41.3
223.759	-20.82
223.977	91.82
224.195	50.86
224.413	5.8
224.631	5.8
224.849	-2.39
225.067	48.81
225.285	75.43
225.503	-45.4
225.721	75.43
225.939	52.91
226.157	38.57
226.375	83.63
226.592	32.43
226.81	30.38
227.028	128.68
227.246	95.91
227.464	71.34
227.682	44.71
227.9	36.52
228.117	73.39
228.335	65.19
228.553	30.38
228.771	85.67
228.989	89.77
229.206	20.14
229.424	1.71
229.642	34.47
229.86	-0.34
230.077	-2.39
230.295	24.23
230.513	22.19
230.731	75.43
230.948	54.95
231.166	44.71
231.384	-0.34
231.601	-31.06
231.819	77.48
232.037	48.81
232.254	24.23
232.472	30.38
232.689	18.09
232.907	69.29
233.125	50.86
233.342	-8.53
233.56	59.05
233.777	13.99
233.995	36.52
234.213	48.81
234.43	42.67
234.648	13.99
234.865	-4.44
235.083	104.11
235.3	18.09
235.518	57
235.735	61.1
235.953	118.44
236.17	73.39
236.388	67.24
236.605	-26.96
236.822	69.29
237.04	42.67
237.257	102.06
237.475	65.19
237.692	13.99
237.909	-14.68
238.127	48.81
238.344	1.71
238.562	91.82
238.779	-0.34
238.996	22.19
239.214	108.2
239.431	13.99
239.648	65.19
239.865	65.19
240.083	7.85
240.3	-31.06
240.517	18.09
240.735	20.14
240.952	52.91
241.169	63.15
241.386	48.81
241.603	59.05
241.821	-24.92
242.038	26.28
242.255	44.71
242.472	-4.44
242.689	143.02
242.907	77.48
243.124	110.25
243.341	-14.68
243.558	22.19
243.775	-16.73
243.992	85.67
244.209	73.39
244.426	81.58
244.643	52.91
244.86	36.52
245.078	83.63
245.295	87.72
245.512	38.57
245.729	18.09
245.946	79.53
246.163	-0.34
246.38	52.91
246.597	77.48
246.814	63.15
247.031	11.95
247.248	75.43
247.464	-10.58
247.681	44.71
247.898	28.33
248.115	50.86
248.332	9.9
248.549	50.86
248.766	97.96
248.983	63.15
249.2	91.82
249.417	16.04
249.633	91.82
249.85	75.43
250.067	65.19
250.284	87.72
250.501	30.38
250.717	95.91
250.934	5.8
251.151	36.52
251.368	63.15
251.585	9.9
251.801	-22.87
252.018	28.33
252.235	63.15
252.451	-0.34
252.668	-18.77
252.885	114.34
253.102	63.15
253.318	30.38
253.535	38.57
253.752	7.85
253.968	-6.49
254.185	32.43
254.401	57
254.618	67.24
254.835	75.43
255.051	44.71
255.268	48.81
255.484	73.39
255.701	28.33
255.917	75.43
256.134	28.33
256.351	24.23
256.567	75.43
256.784	-55.64
257	36.52
257.217	50.86
257.433	57
257.65	30.38
257.866	13.99
258.082	34.47
258.299	97.96
258.515	63.15
258.732	36.52
258.948	48.81
259.165	-6.49
259.381	83.63
259.597	63.15
259.814	71.34
260.03	46.76
260.246	46.76
260.463	5.8
260.679	54.95
260.895	3.75
261.112	85.67
261.328	-12.63
261.544	59.05
261.761	46.76
261.977	38.57
262.193	-31.06
262.409	20.14
262.626	54.95
262.842	89.77
263.058	50.86
263.274	24.23
263.49	63.15
263.707	50.86
263.923	54.95
264.139	5.8
264.355	11.95
264.571	140.97
264.787	36.52
265.004	112.3
265.22	-51.54
265.436	42.67
265.652	65.19
265.868	40.62
266.084	-26.96
266.3	63.15
266.516	18.09
266.732	112.3
266.948	50.86
267.164	3.75
267.38	7.85
267.596	83.63
267.812	57
268.028	75.43
268.244	11.95
268.46	61.1
268.676	-41.3
268.892	52.91
269.108	-16.73
269.324	59.05
269.54	-16.73
269.756	63.15
269.972	30.38
270.188	69.29
270.403	-0.34
270.619	-41.3
270.835	91.82
271.051	32.43
271.267	30.38
271.483	-12.63
271.698	85.67
271.914	24.23
272.13	16.04
272.346	-16.73
272.562	9.9
272.777	7.85
272.993	26.28
273.209	-0.34
273.425	1.71
273.64	-61.78
273.856	59.05
274.072	-0.34
274.287	48.81
274.503	42.67
274.719	95.91
274.934	30.38
275.15	5.8
275.366	5.8
275.581	22.19
275.797	38.57
276.012	34.47
276.228	71.34
276.444	22.19
276.659	46.76
276.875	28.33
277.09	20.14
277.306	-29.01
277.521	63.15
277.737	42.67
277.952	89.77
278.168	89.77
278.383	81.58
278.599	32.43
278.814	52.91
279.03	11.95
279.245	116.39
279.461	40.62
279.676	61.1
279.892	13.99
280.107	42.67
280.322	-31.06
280.538	44.71
280.753	-8.53
280.969	46.76
281.184	54.95
281.399	81.58
281.615	50.86
281.83	-4.44
282.045	38.57
282.26	1.71
282.476	50.86
282.691	67.24
282.906	34.47
283.122	13.99
283.337	11.95
283.552	16.04
283.767	63.15
283.983	79.53
284.198	38.57
284.413	16.04
284.628	30.38
284.843	63.15
285.058	-16.73
285.274	50.86
285.489	16.04
285.704	5.8
285.919	-18.77
286.134	38.57
286.349	38.57
286.564	3.75
286.779	138.92
286.995	54.95
287.21	63.15
287.425	46.76
287.64	44.71
287.855	50.86
288.07	30.38
288.285	44.71
288.5	57
288.715	69.29
288.93	-33.11
289.145	-12.63
289.36	54.95
289.575	-39.25
289.79	110.25
290.004	102.06
290.219	116.39
290.434	110.25
290.649	52.91
290.864	61.1
291.079	26.28
291.294	42.67
291.509	11.95
291.724	69.29
291.938	83.63
292.153	30.38
292.368	67.24
292.583	-47.44
292.798	87.72
293.012	75.43
293.227	52.91
293.442	18.09
293.657	7.85
293.871	71.34
294.086	22.19
294.301	149.16
294.516	26.28
294.73	50.86
294.945	9.9
295.16	95.91
295.374	34.47
295.589	54.95
295.804	97.96
296.018	52.91
296.233	140.97
296.447	-33.11
296.662	69.29
296.877	61.1
297.091	7.85
297.306	38.57
297.52	26.28
297.735	44.71
297.949	65.19
298.164	42.67
298.378	13.99
298.593	44.71
298.807	-18.77
299.022	36.52
299.236	32.43
299.451	7.85
299.665	83.63
299.88	63.15
300.094	-35.16
300.309	52.91
300.523	126.63
300.737	65.19
300.952	57
301.166	13.99
301.381	16.04
301.595	-29.01
301.809	-20.82
302.024	7.85
302.238	3.75
302.452	30.38
302.667	36.52
302.881	63.15
303.095	24.23
303.309	-0.34
303.524	26.28
303.738	73.39
303.952	1.71
304.166	77.48
304.381	24.23
304.595	75.43
304.809	-51.54
305.023	75.43
305.237	26.28
305.452	7.85
305.666	87.72
305.88	22.19
306.094	85.67
306.308	38.57
306.522	124.58
306.736	112.3
306.95	32.43
307.164	-18.77
307.379	79.53
307.593	61.1
307.807	87.72
308.021	22.19
308.235	59.05
308.449	28.33
308.663	18.09
308.877	67.24
309.091	-8.53
309.305	102.06
309.519	-31.06
309.733	120.49
309.947	40.62
310.161	118.44
310.374	42.67
310.588	20.14
310.802	48.81
311.016	120.49
311.23	75.43
311.444	38.57
311.658	24.23
311.872	81.58
312.085	36.52
312.299	77.48
312.513	-2.39
312.727	44.71
312.941	1.71
313.154	67.24
313.368	32.43
313.582	116.39
313.796	73.39
314.009	-18.77
314.223	30.38
314.437	75.43
314.651	71.34
314.864	34.47
315.078	130.73
315.292	9.9
315.505	-2.39
315.719	20.14
315.933	73.39
316.146	132.78
316.36	65.19
316.573	79.53
316.787	42.67
317.001	-8.53
317.214	71.34
317.428	59.05
317.641	-4.44
317.855	24.23
318.068	46.76
318.282	40.62
318.495	18.09
318.709	73.39
318.922	73.39
319.136	38.57
319.349	26.28
319.563	42.67
319.776	13.99
319.99	89.77
320.203	69.29
320.417	87.72
320.63	91.82
320.843	104.11
321.057	38.57
321.27	40.62
321.483	95.91
321.697	104.11
321.91	79.53
322.124	28.33
322.337	59.05
322.55	18.09
322.763	63.15
322.977	24.23
323.19	-63.83
323.403	77.48
323.617	-0.34
323.83	67.24
324.043	151.21
324.256	81.58
324.469	-16.73
324.683	91.82
324.896	81.58
325.109	46.76
325.322	24.23
325.535	52.91
325.748	89.77
325.962	71.34
326.175	48.81
326.388	91.82
326.601	59.05
326.814	34.47
327.027	54.95
327.24	57
327.453	-43.35
327.666	44.71
327.879	61.1
328.092	40.62
328.305	7.85
328.518	71.34
328.731	46.76
328.944	63.15
329.157	89.77
329.37	16.04
329.583	7.85
329.796	-47.44
330.009	22.19
330.222	22.19
330.435	102.06
330.648	91.82
330.861	13.99
331.073	54.95
331.286	108.2
331.499	102.06
331.712	40.62
331.925	108.2
332.138	38.57
332.35	87.72
332.563	22.19
332.776	11.95
332.989	28.33
333.202	71.34
333.414	26.28
333.627	26.28
333.84	26.28
334.053	59.05
334.265	97.96
334.478	59.05
334.691	67.24
334.903	106.15
335.116	63.15
335.329	93.87
335.541	32.43
335.754	108.2
335.966	81.58
336.179	24.23
336.392	24.23
336.604	87.72
336.817	46.76
337.029	93.87
337.242	36.52
337.454	71.34
337.667	79.53
337.88	67.24
338.092	79.53
338.305	32.43
338.517	30.38
338.729	124.58
338.942	28.33
339.154	40.62
339.367	57
339.579	38.57
339.792	24.23
340.004	73.39
340.217	32.43
340.429	83.63
340.641	46.76
340.854	38.57
341.066	-12.63
341.278	75.43
341.491	104.11
341.703	34.47
341.915	-37.2
342.128	57
342.34	73.39
342.552	77.48
342.764	34.47
342.977	48.81
343.189	36.52
343.401	75.43
343.613	22.19
343.826	83.63
344.038	63.15
344.25	61.1
344.462	48.81
344.674	42.67
344.886	77.48
345.099	151.21
345.311	81.58
345.523	-10.58
345.735	48.81
345.947	71.34
346.159	38.57
346.371	85.67
346.583	48.81
346.795	120.49
347.007	46.76
347.219	48.81
347.431	32.43
347.643	120.49
347.855	71.34
348.067	32.43
348.279	16.04
348.491	20.14
348.703	28.33
348.915	36.52
349.127	7.85
349.339	42.67
349.551	63.15
349.763	122.54
349.975	-12.63
350.187	83.63
350.399	97.96
350.61	46.76
350.822	48.81
351.034	104.11
351.246	63.15
351.458	18.09
351.669	57
351.881	134.82
352.093	46.76
352.305	63.15
352.517	83.63
352.728	136.87
352.94	69.29
353.152	63.15
353.363	38.57
353.575	83.63
353.787	30.38
353.999	46.76
354.21	77.48
354.422	38.57
354.633	32.43
354.845	48.81
355.057	28.33
355.268	-8.53
355.48	44.71
355.692	79.53
355.903	24.23
356.115	65.19
356.326	11.95
356.538	120.49
356.749	36.52
356.961	177.83
357.172	61.1
357.384	36.52
357.595	118.44
357.807	71.34
358.018	16.04
358.23	48.81
358.441	87.72
358.653	91.82
358.864	36.52
359.075	87.72
359.287	24.23
359.498	71.34
359.709	77.48
359.921	54.95
360.132	48.81
360.344	69.29
360.555	67.24
360.766	11.95
360.977	-8.53
361.189	83.63
361.4	102.06
361.611	48.81
361.823	54.95
362.034	71.34
362.245	42.67
362.456	20.14
362.667	155.3
362.879	-18.77
363.09	44.71
363.301	67.24
363.512	102.06
363.723	24.23
363.935	52.91
364.146	69.29
364.357	38.57
364.568	122.54
364.779	63.15
364.99	95.91
365.201	26.28
365.412	136.87
365.623	5.8
365.834	18.09
366.045	81.58
366.256	46.76
366.467	114.34
366.678	91.82
366.889	38.57
367.1	1.71
367.311	61.1
367.522	77.48
367.733	46.76
367.944	83.63
368.155	24.23
368.366	79.53
368.577	87.72
368.788	79.53
368.999	-14.68
369.209	44.71
369.42	102.06
369.631	46.76
369.842	61.1
370.053	126.63
370.264	83.63
370.474	44.71
370.685	20.14
370.896	44.71
371.107	112.3
371.317	110.25
371.528	95.91
371.739	85.67
371.95	67.24
372.16	77.48
372.371	32.43
372.582	18.09
372.792	13.99
373.003	130.73
373.214	67.24
373.424	151.21
373.635	85.67
373.846	42.67
374.056	114.34
374.267	69.29
374.477	77.48
374.688	110.25
374.898	100.01
375.109	65.19
375.319	44.71
375.53	77.48
375.74	104.11
375.951	28.33
376.161	36.52
376.372	69.29
376.582	22.19
376.793	93.87
377.003	71.34
377.214	18.09
377.424	-20.82
377.635	75.43
377.845	69.29
378.055	112.3
378.266	57
378.476	112.3
378.686	147.11
378.897	112.3
379.107	102.06
379.317	108.2
379.528	13.99
379.738	61.1
379.948	38.57
380.158	116.39
380.369	54.95
380.579	69.29
380.789	97.96
380.999	77.48
381.21	93.87
381.42	79.53
381.63	83.63
381.84	138.92
382.05	91.82
382.261	57
382.471	112.3
382.681	57
382.891	128.68
383.101	85.67
383.311	79.53
383.521	81.58
383.731	67.24
383.941	102.06
384.151	77.48
384.361	63.15
384.571	124.58
384.781	87.72
384.991	110.25
385.201	73.39
385.411	44.71
385.621	91.82
385.831	34.47
386.041	79.53
386.251	22.19
386.461	73.39
386.671	61.1
386.881	85.67
387.091	65.19
387.301	102.06
387.511	44.71
387.72	52.91
387.93	52.91
388.14	67.24
388.35	116.39
388.56	93.87
388.769	44.71
388.979	89.77
389.189	50.86
389.399	67.24
389.609	57
389.818	114.34
390.028	124.58
390.238	100.01
390.447	100.01
390.657	124.58
390.867	89.77
391.076	120.49
391.286	95.91
391.496	46.76
391.705	52.91
391.915	50.86
392.125	132.78
392.334	91.82
392.544	73.39
392.753	36.52
392.963	16.04
393.172	108.2
393.382	95.91
393.591	169.64
393.801	52.91
394.01	114.34
394.22	106.15
394.429	110.25
394.639	116.39
394.848	38.57
395.058	91.82
395.267	112.3
395.477	89.77
395.686	167.59
395.895	93.87
396.105	161.45
396.314	143.02
396.524	124.58
396.733	81.58
396.942	134.82
397.152	54.95
397.361	91.82
397.57	163.5
397.78	102.06
397.989	128.68
398.198	145.06
398.407	138.92
398.617	63.15
398.826	102.06
399.035	104.11
399.244	128.68
399.453	173.74
399.663	243.37
399.872	149.16
400.081	91.82
400.29	161.45
400.499	122.54
400.708	147.11
400.917	169.64
401.127	151.21
401.336	204.46
401.545	114.34
401.754	183.98
401.963	241.32
402.172	138.92
402.381	163.5
402.59	149.16
402.799	179.88
403.008	188.07
403.217	171.69
403.426	147.11
403.635	138.92
403.844	157.35
404.053	206.5
404.262	147.11
404.471	183.98
404.68	159.4
404.888	198.31
405.097	165.54
405.306	136.87
405.515	200.36
405.724	220.84
405.933	272.04
406.142	216.74
406.35	216.74
406.559	251.56
406.768	329.38
406.977	364.2
407.185	243.37
407.394	267.94
407.603	200.36
407.812	247.46
408.02	276.13
408.229	274.09
408.438	317.09
408.646	241.32
408.855	294.57
409.064	366.25
409.272	351.91
409.481	329.38
409.69	370.34
409.898	337.57
410.107	452.26
410.315	347.81
410.524	372.39
410.733	333.48
410.941	429.73
411.15	487.08
411.358	450.21
411.567	509.6
411.775	536.23
411.984	515.75
412.192	624.29
412.401	593.57
412.609	624.29
412.818	609.95
413.026	675.49
413.234	652.96
413.443	595.62
413.651	700.06
413.86	679.58
414.068	812.7
414.276	706.21
414.485	763.55
414.693	667.3
414.901	872.09
415.11	902.81
415.318	824.99
415.526	927.39
415.734	1019.55
415.943	951.96
416.151	1013.4
416.359	990.88
416.567	1003.16
416.776	1175.19
416.984	1201.82
417.192	1203.86
417.4	1158.81
417.608	1398.42
417.817	1322.65
418.025	1400.47
418.233	1423
418.441	1461.91
418.649	1457.81
418.857	1638.03
419.065	1599.12
419.273	1617.55
419.481	1711.76
419.689	1873.55
419.897	1871.5
420.105	1947.28
420.313	1943.18
420.521	2162.31
420.729	2080.39
420.937	2217.61
421.145	2258.57
421.353	2344.58
421.561	2514.56
421.769	2430.6
421.977	2666.11
422.185	2580.1
422.393	2705.03
422.601	2760.32
422.809	2709.12
423.017	2877.05
423.224	2973.31
423.432	3151.48
423.64	3180.15
423.848	3518.07
424.056	3315.32
424.263	3507.83
424.471	3614.32
424.679	3675.76
424.887	3962.48
425.094	3948.14
425.302	3944.05
425.51	4204.14
425.718	4204.14
425.925	4234.86
426.133	4525.67
426.341	4783.71
426.548	4916.83
426.756	5000.8
426.964	5142.11
427.171	5142.11
427.379	5396.06
427.586	5496.41
427.794	5756.5
428.001	6037.07
428.209	6256.2
428.417	6200.91
428.624	6446.66
428.832	6497.86
429.039	6587.97
429.247	6561.35
429.454	7214.65
429.662	7677.49
429.869	6923.84
430.076	7663.16
430.284	7482.94
430.491	7851.57
430.699	8328.75
430.906	8203.82
431.114	8232.49
431.321	8693.29
431.528	8697.38
431.736	9299.48
431.943	9702.93
432.15	9330.2
432.358	9500.19
432.565	10210.83
432.772	10133.01
432.979	10647.05
433.187	10837.51
433.394	10903.04
433.601	11533.82
433.808	11658.74
434.016	11439.61
434.223	12074.48
434.43	12885.48
434.637	12430.83
434.844	13303.26
435.052	13532.64
435.259	13374.94
435.466	13618.65
435.673	13569.5
435.88	14419.41
436.087	15015.37
436.294	15017.41
436.501	14765.51
436.708	15056.32
436.915	15803.83
437.122	16307.63
437.329	16297.39
437.537	16799.15
437.743	17128.87
437.95	17071.53
438.157	17884.57
438.364	18517.39
438.571	18417.04
438.778	18511.25
438.985	19981.69
439.192	19154.31
439.399	20039.03
439.606	19651.97
439.813	20583.79
440.02	21955.93
440.227	21441.89
440.433	21134.7
440.64	21890.4
440.847	21810.53
441.054	22629.71
441.261	24040.76
441.467	23287.11
441.674	24257.85
441.881	25087.28
442.088	25185.58
442.294	24620.34
442.501	24997.17
442.708	25922.85
442.914	26756.37
443.121	27841.79
443.328	27452.68
443.534	29119.73
443.741	28112.13
443.948	27751.68
444.154	30020.83
444.361	30221.53
444.568	30153.95
444.774	30235.87
444.981	30395.61
445.187	31384.78
445.394	32603.32
445.6	32238.78
445.807	35243.15
446.013	33594.54
446.22	34432.16
446.426	35452.05
446.633	35923.08
446.839	37188.72
447.046	35579.02
447.252	37291.12
447.459	38022.25
447.665	37459.06
447.871	39208.02
448.078	41006.14
448.284	39210.07
448.491	40154.18
448.697	41641.01
448.903	42583.07
449.11	42548.26
449.316	41657.39
449.522	42791.97
449.728	43914.25
449.935	44135.43
450.141	43975.69
450.347	44844.03
450.553	43510.8
450.76	44571.65
450.966	45292.54
451.172	45057.02
451.378	46220.27
451.584	45556.72
451.791	46318.57
451.997	45939.69
452.203	46828.51
452.409	47522.77
452.615	46785.5
452.821	45480.95
453.027	44397.57
453.233	46844.9
453.44	45347.83
453.646	45728.75
453.852	46009.32
454.058	46388.2
454.264	44979.2
454.47	46074.86
454.676	44946.43
454.882	46664.67
455.088	42716.19
455.294	43246.61
455.5	44000.27
455.705	44184.58
455.911	42458.15
456.117	41780.27
456.323	41008.18
456.529	39253.08
456.735	40707.13
456.941	40025.16
457.147	39085.14
457.352	38114.41
457.558	37426.29
457.764	37809.26
457.97	36824.18
458.176	36535.42
458.381	35945.61
458.587	34342.05
458.793	34163.87
458.999	32543.93
459.204	34972.82
459.41	33883.3
459.616	31538.38
459.821	31675.59
460.027	31612.1
460.233	30702.81
460.438	29447.4
460.644	30020.83
460.85	28554.49
461.055	28269.82
461.261	28028.16
461.466	26230.04
461.672	25161
461.878	26690.84
462.083	24966.45
462.289	24339.77
462.494	24343.86
462.7	22990.16
462.905	22734.16
463.111	23815.49
463.316	23405.89
463.522	23020.88
463.727	23086.41
463.932	22875.47
464.138	22746.45
464.343	22936.91
464.549	22203.74
464.754	23031.12
464.959	22789.45
465.165	22705.49
465.37	21677.41
465.575	21026.15
465.781	21929.31
465.986	22009.18
466.191	21210.47
466.397	21161.32
466.602	19815.8
466.807	20659.57
467.012	20757.87
