Data from USB4F104151__5__12-34-58-125.txt Node

Date: Fri Mar 14 12:34:58 EDT 2025
User: louis
Spectrometer: USB4F10415
Trigger mode: 4
Integration Time (sec): 2.000000E-2
Scans to average: 1
Electric dark correction enabled: true
Nonlinearity correction enabled: false
Boxcar width: 0
XAxis mode: Wavelengths
Number of Pixels in Spectrum: 3648
>>>>>Begin Spectral Data<<<<<
178.204	-96.25
178.424	-96.25
178.644	-96.25
178.864	-59.39
179.084	24.58
179.304	8.19
179.524	20.48
179.744	-12.29
179.964	38.91
180.184	4.1
180.404	-8.19
180.624	-57.34
180.844	2.05
181.064	-53.25
181.283	10.24
181.503	-4.1
181.723	51.2
181.943	-36.86
182.163	73.73
182.383	40.96
182.602	59.39
182.822	8.19
183.042	90.11
183.262	75.77
183.482	8.19
183.701	0
183.921	77.82
184.141	36.86
184.361	57.34
184.58	51.2
184.8	67.58
185.02	4.1
185.239	30.72
185.459	22.53
185.679	59.39
185.898	-10.24
186.118	-6.14
186.338	69.63
186.557	0
186.777	69.63
186.997	38.91
187.216	-14.34
187.436	102.4
187.655	75.77
187.875	53.25
188.095	49.15
188.314	47.1
188.534	100.35
188.753	-43.01
188.973	30.72
189.192	172.03
189.412	51.2
189.631	53.25
189.851	-6.14
190.07	69.63
190.29	79.87
190.509	36.86
190.729	57.34
190.948	53.25
191.168	71.68
191.387	10.24
191.607	92.16
191.826	0
192.045	67.58
192.265	-32.77
192.484	-12.29
192.704	59.39
192.923	49.15
193.142	57.34
193.362	59.39
193.581	32.77
193.8	86.01
194.02	71.68
194.239	12.29
194.458	122.88
194.678	36.86
194.897	-71.68
195.116	10.24
195.335	69.63
195.555	-20.48
195.774	71.68
195.993	32.77
196.212	28.67
196.432	14.34
196.651	-10.24
196.87	-10.24
197.089	90.11
197.308	57.34
197.528	69.63
197.747	-53.25
197.966	61.44
198.185	83.97
198.404	49.15
198.623	59.39
198.842	49.15
199.062	-36.86
199.281	92.16
199.5	-8.19
199.719	73.73
199.938	-28.67
200.157	75.77
200.376	63.49
200.595	32.77
200.814	67.58
201.033	-36.86
201.252	-2.05
201.471	2.05
201.69	57.34
201.909	38.91
202.128	36.86
202.347	81.92
202.566	10.24
202.785	-57.34
203.004	-22.53
203.223	118.78
203.442	-10.24
203.661	4.1
203.879	51.2
204.098	-38.91
204.317	2.05
204.536	14.34
204.755	18.43
204.974	63.49
205.193	81.92
205.411	116.73
205.63	14.34
205.849	49.15
206.068	86.01
206.287	-6.14
206.505	32.77
206.724	67.58
206.943	-28.67
207.162	14.34
207.381	4.1
207.599	0
207.818	47.1
208.037	47.1
208.255	-32.77
208.474	43.01
208.693	16.38
208.911	61.44
209.13	55.3
209.349	49.15
209.567	-4.1
209.786	18.43
210.005	-10.24
210.223	65.54
210.442	-30.72
210.661	55.3
210.879	10.24
211.098	34.82
211.316	-59.39
211.535	83.97
211.753	4.1
211.972	0
212.191	94.21
212.409	86.01
212.628	81.92
212.846	26.62
213.065	34.82
213.283	100.35
213.502	-2.05
213.72	67.58
213.938	26.62
214.157	24.58
214.375	94.21
214.594	-22.53
214.812	14.34
215.031	75.77
215.249	-12.29
215.467	-8.19
215.686	12.29
215.904	53.25
216.122	86.01
216.341	16.38
216.559	18.43
216.778	55.3
216.996	81.92
217.214	79.87
217.432	20.48
217.651	18.43
217.869	65.54
218.087	10.24
218.306	47.1
218.524	14.34
218.742	-20.48
218.96	77.82
219.179	16.38
219.397	24.58
219.615	14.34
219.833	14.34
220.051	10.24
220.27	59.39
220.488	20.48
220.706	-24.58
220.924	59.39
221.142	55.3
221.36	-2.05
221.578	63.49
221.796	20.48
222.015	53.25
222.233	-38.91
222.451	79.87
222.669	-4.1
222.887	67.58
223.105	30.72
223.323	55.3
223.541	14.34
223.759	22.53
223.977	10.24
224.195	73.73
224.413	102.4
224.631	26.62
224.849	10.24
225.067	53.25
225.285	22.53
225.503	28.67
225.721	-38.91
225.939	108.54
226.157	24.58
226.375	135.17
226.592	-30.72
226.81	49.15
227.028	77.82
227.246	63.49
227.464	18.43
227.682	-40.96
227.9	30.72
228.117	36.86
228.335	-14.34
228.553	-4.1
228.771	79.87
228.989	10.24
229.206	57.34
229.424	90.11
229.642	-4.1
229.86	-32.77
230.077	94.21
230.295	71.68
230.513	59.39
230.731	59.39
230.948	112.64
231.166	104.45
231.384	63.49
231.601	79.87
231.819	63.49
232.037	-6.14
232.254	-8.19
232.472	71.68
232.689	32.77
232.907	2.05
233.125	16.38
233.342	55.3
233.56	0
233.777	-22.53
233.995	38.91
234.213	98.3
234.43	83.97
234.648	59.39
234.865	28.67
235.083	63.49
235.3	-22.53
235.518	8.19
235.735	69.63
235.953	6.14
236.17	75.77
236.388	20.48
236.605	24.58
236.822	40.96
237.04	98.3
237.257	18.43
237.475	-43.01
237.692	-34.82
237.909	-18.43
238.127	30.72
238.344	55.3
238.562	53.25
238.779	43.01
238.996	55.3
239.214	4.1
239.431	49.15
239.648	-22.53
239.865	32.77
240.083	67.58
240.3	79.87
240.517	-2.05
240.735	28.67
240.952	57.34
241.169	-4.1
241.386	65.54
241.603	73.73
241.821	30.72
242.038	-18.43
242.255	-26.62
242.472	61.44
242.689	2.05
242.907	0
243.124	22.53
243.341	18.43
243.558	81.92
243.775	16.38
243.992	-20.48
244.209	34.82
244.426	81.92
244.643	40.96
244.86	40.96
245.078	-20.48
245.295	0
245.512	45.06
245.729	0
245.946	-6.14
246.163	81.92
246.38	-38.91
246.597	-12.29
246.814	18.43
247.031	32.77
247.248	98.3
247.464	18.43
247.681	63.49
247.898	14.34
248.115	-12.29
248.332	26.62
248.549	38.91
248.766	88.06
248.983	49.15
249.2	69.63
249.417	122.88
249.633	6.14
249.85	30.72
250.067	18.43
250.284	122.88
250.501	36.86
250.717	141.31
250.934	-28.67
251.151	-4.1
251.368	59.39
251.585	108.54
251.801	8.19
252.018	30.72
252.235	114.69
252.451	-8.19
252.668	124.93
252.885	77.82
253.102	10.24
253.318	26.62
253.535	-22.53
253.752	18.43
253.968	22.53
254.185	55.3
254.401	-10.24
254.618	108.54
254.835	-6.14
255.051	71.68
255.268	14.34
255.484	59.39
255.701	51.2
255.917	51.2
256.134	106.49
256.351	36.86
256.567	20.48
256.784	20.48
257	10.24
257.217	8.19
257.433	12.29
257.65	14.34
257.866	55.3
258.082	14.34
258.299	55.3
258.515	26.62
258.732	14.34
258.948	40.96
259.165	2.05
259.381	-18.43
259.597	12.29
259.814	-8.19
260.03	-59.39
260.246	22.53
260.463	55.3
260.679	10.24
260.895	59.39
261.112	-22.53
261.328	-24.58
261.544	102.4
261.761	131.07
261.977	43.01
262.193	-24.58
262.409	43.01
262.626	-51.2
262.842	8.19
263.058	-20.48
263.274	112.64
263.49	61.44
263.707	24.58
263.923	-14.34
264.139	-12.29
264.355	90.11
264.571	98.3
264.787	-4.1
265.004	73.73
265.22	20.48
265.436	-6.14
265.652	73.73
265.868	106.49
266.084	30.72
266.3	22.53
266.516	-6.14
266.732	104.45
266.948	18.43
267.164	36.86
267.38	28.67
267.596	6.14
267.812	88.06
268.028	65.54
268.244	102.4
268.46	34.82
268.676	53.25
268.892	-4.1
269.108	51.2
269.324	-16.38
269.54	55.3
269.756	108.54
269.972	18.43
270.188	-14.34
270.403	40.96
270.619	90.11
270.835	34.82
271.051	92.16
271.267	61.44
271.483	38.91
271.698	53.25
271.914	51.2
272.13	8.19
272.346	10.24
272.562	36.86
272.777	61.44
272.993	51.2
273.209	65.54
273.425	14.34
273.64	22.53
273.856	30.72
274.072	55.3
274.287	16.38
274.503	-28.67
274.719	45.06
274.934	28.67
275.15	-30.72
275.366	-6.14
275.581	20.48
275.797	77.82
276.012	10.24
276.228	0
276.444	53.25
276.659	69.63
276.875	36.86
277.09	106.49
277.306	10.24
277.521	133.12
277.737	26.62
277.952	20.48
278.168	65.54
278.383	38.91
278.599	16.38
278.814	47.1
279.03	16.38
279.245	69.63
279.461	22.53
279.676	67.58
279.892	-2.05
280.107	6.14
280.322	-4.1
280.538	40.96
280.753	10.24
280.969	61.44
281.184	77.82
281.399	38.91
281.615	51.2
281.83	63.49
282.045	53.25
282.26	24.58
282.476	65.54
282.691	53.25
282.906	32.77
283.122	43.01
283.337	-24.58
283.552	43.01
283.767	34.82
283.983	90.11
284.198	-2.05
284.413	4.1
284.628	-14.34
284.843	-6.14
285.058	6.14
285.274	12.29
285.489	-24.58
285.704	73.73
285.919	67.58
286.134	-22.53
286.349	-22.53
286.564	98.3
286.779	36.86
286.995	26.62
287.21	30.72
287.425	36.86
287.64	49.15
287.855	6.14
288.07	18.43
288.285	22.53
288.5	-2.05
288.715	20.48
288.93	-6.14
289.145	40.96
289.36	26.62
289.575	38.91
289.79	36.86
290.004	79.87
290.219	32.77
290.434	55.3
290.649	32.77
290.864	75.77
291.079	-6.14
291.294	4.1
291.509	63.49
291.724	0
291.938	20.48
292.153	59.39
292.368	26.62
292.583	43.01
292.798	36.86
293.012	26.62
293.227	59.39
293.442	-22.53
293.657	69.63
293.871	92.16
294.086	-10.24
294.301	102.4
294.516	10.24
294.73	71.68
294.945	-2.05
295.16	-6.14
295.374	102.4
295.589	-8.19
295.804	-12.29
296.018	53.25
296.233	83.97
296.447	65.54
296.662	63.49
296.877	63.49
297.091	-22.53
297.306	88.06
297.52	28.67
297.735	40.96
297.949	-47.1
298.164	53.25
298.378	77.82
298.593	106.49
298.807	26.62
299.022	59.39
299.236	0
299.451	36.86
299.665	67.58
299.88	92.16
300.094	-14.34
300.309	65.54
300.523	-14.34
300.737	79.87
300.952	-38.91
301.166	-12.29
301.381	51.2
301.595	57.34
301.809	51.2
302.024	30.72
302.238	-6.14
302.452	67.58
302.667	51.2
302.881	65.54
303.095	18.43
303.309	53.25
303.524	45.06
303.738	4.1
303.952	0
304.166	133.12
304.381	-34.82
304.595	71.68
304.809	-38.91
305.023	40.96
305.237	32.77
305.452	86.01
305.666	26.62
305.88	57.34
306.094	51.2
306.308	-40.96
306.522	-26.62
306.736	108.54
306.95	59.39
307.164	67.58
307.379	-12.29
307.593	30.72
307.807	55.3
308.021	77.82
308.235	43.01
308.449	32.77
308.663	47.1
308.877	86.01
309.091	81.92
309.305	12.29
309.519	18.43
309.733	71.68
309.947	-6.14
310.161	100.35
310.374	57.34
310.588	124.93
310.802	-2.05
311.016	12.29
311.23	36.86
311.444	-43.01
311.658	34.82
311.872	151.55
312.085	86.01
312.299	83.97
312.513	94.21
312.727	26.62
312.941	45.06
313.154	61.44
313.368	63.49
313.582	51.2
313.796	16.38
314.009	45.06
314.223	59.39
314.437	98.3
314.651	-12.29
314.864	4.1
315.078	47.1
315.292	2.05
315.505	14.34
315.719	-2.05
315.933	2.05
316.146	-38.91
316.36	6.14
316.573	90.11
316.787	83.97
317.001	45.06
317.214	40.96
317.428	28.67
317.641	63.49
317.855	49.15
318.068	92.16
318.282	53.25
318.495	122.88
318.709	100.35
318.922	-26.62
319.136	24.58
319.349	53.25
319.563	55.3
319.776	65.54
319.99	86.01
320.203	26.62
320.417	43.01
320.63	-8.19
320.843	4.1
321.057	30.72
321.27	79.87
321.483	2.05
321.697	83.97
321.91	61.44
322.124	-8.19
322.337	45.06
322.55	67.58
322.763	79.87
322.977	30.72
323.19	36.86
323.403	14.34
323.617	24.58
323.83	88.06
324.043	-12.29
324.256	65.54
324.469	26.62
324.683	69.63
324.896	34.82
325.109	0
325.322	20.48
325.535	40.96
325.748	94.21
325.962	18.43
326.175	26.62
326.388	2.05
326.601	4.1
326.814	-2.05
327.027	55.3
327.24	86.01
327.453	40.96
327.666	43.01
327.879	73.73
328.092	26.62
328.305	122.88
328.518	22.53
328.731	34.82
328.944	53.25
329.157	81.92
329.37	32.77
329.583	120.83
329.796	34.82
330.009	2.05
330.222	94.21
330.435	36.86
330.648	6.14
330.861	104.45
331.073	18.43
331.286	51.2
331.499	100.35
331.712	-20.48
331.925	12.29
332.138	43.01
332.35	30.72
332.563	28.67
332.776	49.15
332.989	32.77
333.202	36.86
333.414	34.82
333.627	12.29
333.84	-32.77
334.053	90.11
334.265	69.63
334.478	98.3
334.691	10.24
334.903	86.01
335.116	26.62
335.329	51.2
335.541	53.25
335.754	45.06
335.966	32.77
336.179	32.77
336.392	49.15
336.604	10.24
336.817	12.29
337.029	32.77
337.242	73.73
337.454	12.29
337.667	106.49
337.88	90.11
338.092	67.58
338.305	79.87
338.517	26.62
338.729	73.73
338.942	108.54
339.154	12.29
339.367	-2.05
339.579	67.58
339.792	22.53
340.004	100.35
340.217	88.06
340.429	-6.14
340.641	-12.29
340.854	28.67
341.066	18.43
341.278	69.63
341.491	81.92
341.703	14.34
341.915	94.21
342.128	61.44
342.34	63.49
342.552	61.44
342.764	12.29
342.977	49.15
343.189	65.54
343.401	118.78
343.613	0
343.826	55.3
344.038	51.2
344.25	40.96
344.462	18.43
344.674	45.06
344.886	10.24
345.099	49.15
345.311	43.01
345.523	26.62
345.735	28.67
345.947	-18.43
346.159	10.24
346.371	34.82
346.583	34.82
346.795	53.25
347.007	-22.53
347.219	53.25
347.431	32.77
347.643	88.06
347.855	34.82
348.067	57.34
348.279	36.86
348.491	38.91
348.703	98.3
348.915	59.39
349.127	-12.29
349.339	26.62
349.551	47.1
349.763	55.3
349.975	92.16
350.187	114.69
350.399	55.3
350.61	-26.62
350.822	2.05
351.034	112.64
351.246	88.06
351.458	63.49
351.669	73.73
351.881	-16.38
352.093	8.19
352.305	14.34
352.517	53.25
352.728	96.25
352.94	49.15
353.152	98.3
353.363	8.19
353.575	20.48
353.787	53.25
353.999	43.01
354.21	98.3
354.422	73.73
354.633	20.48
354.845	34.82
355.057	26.62
355.268	18.43
355.48	63.49
355.692	22.53
355.903	59.39
356.115	18.43
356.326	12.29
356.538	43.01
356.749	96.25
356.961	45.06
357.172	55.3
357.384	36.86
357.595	104.45
357.807	73.73
358.018	6.14
358.23	40.96
358.441	53.25
358.653	45.06
358.864	69.63
359.075	-20.48
359.287	65.54
359.498	40.96
359.709	104.45
359.921	67.58
360.132	-16.38
360.344	118.78
360.555	47.1
360.766	45.06
360.977	32.77
361.189	53.25
361.4	49.15
361.611	55.3
361.823	45.06
362.034	90.11
362.245	-16.38
362.456	67.58
362.667	71.68
362.879	26.62
363.09	43.01
363.301	88.06
363.512	112.64
363.723	20.48
363.935	92.16
364.146	81.92
364.357	24.58
364.568	51.2
364.779	-12.29
364.99	71.68
365.201	51.2
365.412	94.21
365.623	-40.96
365.834	55.3
366.045	12.29
366.256	18.43
366.467	12.29
366.678	-4.1
366.889	61.44
367.1	53.25
367.311	96.25
367.522	49.15
367.733	79.87
367.944	92.16
368.155	2.05
368.366	71.68
368.577	94.21
368.788	24.58
368.999	75.77
369.209	96.25
369.42	110.59
369.631	79.87
369.842	53.25
370.053	10.24
370.264	65.54
370.474	40.96
370.685	38.91
370.896	49.15
371.107	32.77
371.317	30.72
371.528	10.24
371.739	20.48
371.95	81.92
372.16	79.87
372.371	20.48
372.582	10.24
372.792	2.05
373.003	-32.77
373.214	90.11
373.424	75.77
373.635	83.97
373.846	49.15
374.056	26.62
374.267	20.48
374.477	65.54
374.688	49.15
374.898	53.25
375.109	16.38
375.319	-14.34
375.53	122.88
375.74	98.3
375.951	69.63
376.161	92.16
376.372	53.25
376.582	38.91
376.793	94.21
377.003	63.49
377.214	55.3
377.424	53.25
377.635	75.77
377.845	-16.38
378.055	49.15
378.266	43.01
378.476	77.82
378.686	75.77
378.897	22.53
379.107	88.06
379.317	47.1
379.528	102.4
379.738	30.72
379.948	-47.1
380.158	69.63
380.369	61.44
380.579	135.17
380.789	0
380.999	47.1
381.21	61.44
381.42	118.78
381.63	0
381.84	24.58
382.05	51.2
382.261	90.11
382.471	71.68
382.681	40.96
382.891	45.06
383.101	67.58
383.311	-2.05
383.521	81.92
383.731	45.06
383.941	49.15
384.151	63.49
384.361	86.01
384.571	151.55
384.781	77.82
384.991	53.25
385.201	110.59
385.411	110.59
385.621	92.16
385.831	36.86
386.041	6.14
386.251	26.62
386.461	59.39
386.671	40.96
386.881	32.77
387.091	22.53
387.301	43.01
387.511	59.39
387.72	104.45
387.93	67.58
388.14	32.77
388.35	86.01
388.56	32.77
388.769	94.21
388.979	20.48
389.189	55.3
389.399	45.06
389.609	71.68
389.818	73.73
390.028	-14.34
390.238	108.54
390.447	0
390.657	55.3
390.867	-8.19
391.076	2.05
391.286	2.05
391.496	20.48
391.705	159.74
391.915	86.01
392.125	90.11
392.334	90.11
392.544	88.06
392.753	100.35
392.963	65.54
393.172	94.21
393.382	92.16
393.591	77.82
393.801	98.3
394.01	49.15
394.22	-2.05
394.429	0
394.639	61.44
394.848	16.38
395.058	83.97
395.267	112.64
395.477	-2.05
395.686	129.02
395.895	49.15
396.105	38.91
396.314	18.43
396.524	67.58
396.733	83.97
396.942	88.06
397.152	45.06
397.361	172.03
397.57	98.3
397.78	86.01
397.989	6.14
398.198	96.25
398.407	59.39
398.617	104.45
398.826	90.11
399.035	47.1
399.244	114.69
399.453	100.35
399.663	153.6
399.872	139.26
400.081	135.17
400.29	116.73
400.499	43.01
400.708	53.25
400.917	79.87
401.127	69.63
401.336	86.01
401.545	139.26
401.754	100.35
401.963	38.91
402.172	67.58
402.381	147.45
402.59	100.35
402.799	112.64
403.008	126.97
403.217	149.5
403.426	77.82
403.635	69.63
403.844	120.83
404.053	163.84
404.262	157.69
404.471	139.26
404.68	169.98
404.888	131.07
405.097	75.77
405.306	81.92
405.515	192.51
405.724	81.92
405.933	147.45
406.142	86.01
406.35	73.73
406.559	151.55
406.768	206.84
406.977	274.43
407.185	194.56
407.394	114.69
407.603	135.17
407.812	204.8
408.02	120.83
408.229	210.94
408.438	188.41
408.646	161.79
408.855	176.13
409.064	260.09
409.272	235.52
409.481	256
409.69	251.9
409.898	290.81
410.107	198.65
410.315	217.08
410.524	194.56
410.733	270.33
410.941	311.29
411.15	284.67
411.358	352.25
411.567	335.87
411.775	335.87
411.984	360.44
412.192	362.49
412.401	370.68
412.609	292.86
412.818	333.82
413.026	284.67
413.234	382.97
413.443	391.16
413.651	393.21
413.86	413.69
414.068	448.51
414.276	473.08
414.485	509.94
414.693	483.32
414.901	567.29
415.11	522.23
415.318	491.51
415.526	624.63
415.734	634.87
415.943	626.68
416.151	632.82
416.359	626.68
416.567	702.45
416.776	684.02
416.984	731.12
417.192	774.13
417.4	833.52
417.608	720.88
417.817	851.96
418.025	919.54
418.233	884.72
418.441	862.19
418.649	880.63
418.857	892.91
419.065	1023.98
419.273	901.11
419.481	1032.18
419.689	1036.27
419.897	1038.32
420.105	1189.87
420.313	1251.31
420.521	1175.53
420.729	1282.03
420.937	1333.23
421.145	1292.27
421.353	1302.51
421.561	1433.58
421.769	1409
421.977	1544.17
422.185	1589.22
422.393	1644.52
422.601	1730.53
422.809	1757.16
423.017	1656.81
423.224	1753.06
423.432	1877.99
423.64	1779.68
423.848	2000.87
424.056	2009.06
424.263	2117.6
424.471	2220
424.679	2191.33
424.887	2301.92
425.094	2381.79
425.302	2414.56
425.51	2478.04
425.718	2605.02
425.925	2586.58
426.133	2805.72
426.341	2914.26
426.548	2942.93
426.756	2848.72
426.964	2971.6
427.171	3278.8
427.379	3196.88
427.586	3229.65
427.794	3334.09
428.001	3438.54
428.209	3690.44
428.417	3688.39
428.624	3858.37
428.832	3858.37
429.039	3780.55
429.247	3753.93
429.454	4179.9
429.662	4460.48
429.869	4075.46
430.076	4495.29
430.284	4368.32
430.491	4536.25
430.699	4851.64
430.906	4792.25
431.114	4792.25
431.321	5050.29
431.528	5076.91
431.736	5455.79
431.943	5636.01
432.15	5638.06
432.358	5603.24
432.565	5863.33
432.772	5984.16
432.979	6207.39
433.187	6217.63
433.394	6340.51
433.601	6729.63
433.808	6774.68
434.016	6776.73
434.223	6981.53
434.43	7550.86
434.637	7260.05
434.844	7806.86
435.052	7843.72
435.259	7974.79
435.466	7876.49
435.673	7939.97
435.88	8431.49
436.087	8990.58
436.294	8583.04
436.501	8554.37
436.708	8789.88
436.915	9197.43
437.122	9344.88
437.329	9516.91
437.537	9676.65
437.743	9789.29
437.95	9877.35
438.157	10352.48
438.364	10823.51
438.571	10504.03
438.778	10706.78
438.985	11755.34
439.192	11128.66
439.399	11806.54
439.606	11419.47
439.813	12046.15
440.02	12773.18
440.227	12693.31
440.433	12427.07
440.64	12728.13
440.847	12691.26
441.054	13229.88
441.261	13930.28
441.467	13537.07
441.674	14143.27
441.881	14573.35
442.088	14411.56
442.294	14292.77
442.501	14688.03
442.708	14952.22
442.914	15716.11
443.121	16281.35
443.328	15689.49
443.534	16793.34
443.741	16355.08
443.948	16400.13
444.154	17508.08
444.361	17475.32
444.568	17495.8
444.774	17553.14
444.981	17698.55
445.187	18050.8
445.394	19101.4
445.6	18804.45
445.807	20481.74
446.013	19545.81
446.22	19941.07
446.426	20635.33
446.633	21042.88
446.839	21806.77
447.046	20514.5
447.252	22111.92
447.459	22130.35
447.665	21782.2
447.871	23201.44
448.078	23944.85
448.284	22521.51
448.491	23223.97
448.697	24592.01
448.903	24735.37
449.11	24813.19
449.316	24581.77
449.522	24860.29
449.728	25517.69
449.935	25783.93
450.141	25675.38
450.347	26594.92
450.553	25435.77
450.76	25900.66
450.966	26494.57
451.172	26449.52
451.378	27383.39
451.584	26529.39
451.791	27197.02
451.997	27213.41
452.203	27545.18
452.409	27471.45
452.615	27496.03
452.821	26357.36
453.027	25947.76
453.233	27491.93
453.44	26642.03
453.646	26955.36
453.852	27039.33
454.058	27305.57
454.264	26467.95
454.47	27227.74
454.676	26361.45
454.882	27313.76
455.088	24856.2
455.294	25374.33
455.5	25667.19
455.705	26125.94
455.911	25118.34
456.117	24270.48
456.323	24243.85
456.529	23031.46
456.735	23873.17
456.941	23348.89
457.147	22941.35
457.352	22351.53
457.558	21956.27
457.764	21769.91
457.97	21581.49
458.176	21096.13
458.381	21208.76
458.587	20084.43
458.793	20106.96
458.999	19109.6
459.204	20377.29
459.41	19826.39
459.616	18306.79
459.821	18573.03
460.027	18298.6
460.233	18054.89
460.438	17313.53
460.644	17393.4
460.85	16649.99
461.055	16267.02
461.261	16402.18
461.466	15068.95
461.672	14587.68
461.878	15619.86
462.083	14669.6
462.289	14241.57
462.494	14184.23
462.7	13463.35
462.905	13301.56
463.111	13618.99
463.316	13899.56
463.522	13459.25
463.727	13459.25
463.932	13418.29
464.138	13340.47
464.343	13449.01
464.549	12836.67
464.754	13444.91
464.959	13139.77
465.165	13172.53
465.37	12425.03
465.575	12482.37
465.781	12732.22
465.986	12652.35
466.191	12453.7
466.397	12175.17
466.602	11435.86
466.807	11913.03
467.012	12019.53
467.218	12040.01
467.423	11661.13
467.628	11896.65
467.833	12291.91
468.038	11773.77
468.244	11485.01
468.449	11925.32
468.654	11620.17
468.859	11679.57
