Data from USB4F104151__14__12-35-09-744.txt Node

Date: Fri Mar 14 12:35:09 EDT 2025
User: louis
Spectrometer: USB4F10415
Trigger mode: 4
Integration Time (sec): 2.000000E-2
Scans to average: 1
Electric dark correction enabled: true
Nonlinearity correction enabled: false
Boxcar width: 0
XAxis mode: Wavelengths
Number of Pixels in Spectrum: 3648
>>>>>Begin Spectral Data<<<<<
178.204	-17.24
178.424	-17.24
178.644	-17.24
178.864	-68.44
179.084	-56.15
179.304	-4.95
179.524	-15.19
179.744	-70.48
179.964	3.24
180.184	-43.86
180.404	-25.43
180.624	23.72
180.844	89.26
181.064	1.19
181.283	-19.29
181.503	23.72
181.723	38.06
181.943	-33.62
182.163	23.72
182.383	-2.9
182.602	58.54
182.822	54.44
183.042	15.53
183.262	21.67
183.482	15.53
183.701	50.35
183.921	-25.43
184.141	-27.48
184.361	111.78
184.58	19.63
184.8	-68.44
185.02	11.43
185.239	15.53
185.459	25.77
185.679	52.39
185.898	-17.24
186.118	-35.67
186.338	9.39
186.557	36.01
186.777	15.53
186.997	38.06
187.216	107.69
187.436	79.02
187.655	117.93
187.875	31.91
188.095	-0.85
188.314	72.87
188.534	89.26
188.753	31.91
188.973	36.01
189.192	58.54
189.412	-33.62
189.631	-60.24
189.851	7.34
190.07	40.11
190.29	-25.43
190.509	-27.48
190.729	38.06
190.948	36.01
191.168	97.45
191.387	-27.48
191.607	3.24
191.826	72.87
192.045	87.21
192.265	103.59
192.484	29.87
192.704	7.34
192.923	-45.91
193.142	85.16
193.362	50.35
193.581	40.11
193.8	23.72
194.02	27.82
194.239	-17.24
194.458	-33.62
194.678	-31.57
194.897	-37.72
195.116	15.53
195.335	-2.9
195.555	31.91
195.774	62.63
195.993	1.19
196.212	7.34
196.432	50.35
196.651	1.19
196.87	38.06
197.089	25.77
197.308	-19.29
197.528	72.87
197.747	-7
197.966	38.06
198.185	48.3
198.404	-13.14
198.623	101.55
198.842	62.63
199.062	52.39
199.281	27.82
199.5	-17.24
199.719	36.01
199.938	-33.62
200.157	40.11
200.376	62.63
200.595	81.07
200.814	-15.19
201.033	62.63
201.252	40.11
201.471	-25.43
201.69	103.59
201.909	-2.9
202.128	19.63
202.347	56.49
202.566	79.02
202.785	15.53
203.004	-52.05
203.223	17.58
203.442	29.87
203.661	-2.9
203.879	44.2
204.098	-27.48
204.317	-9.05
204.536	64.68
204.755	-9.05
204.974	27.82
205.193	25.77
205.411	31.91
205.63	19.63
205.849	5.29
206.068	21.67
206.287	23.72
206.505	1.19
206.724	-0.85
206.943	89.26
207.162	-11.09
207.381	17.58
207.599	48.3
207.818	27.82
208.037	46.25
208.255	-2.9
208.474	33.96
208.693	33.96
208.911	46.25
209.13	1.19
209.349	38.06
209.567	42.15
209.786	33.96
210.005	52.39
210.223	15.53
210.442	-50
210.661	107.69
210.879	-19.29
211.098	56.49
211.316	31.91
211.535	21.67
211.753	-19.29
211.972	-15.19
212.191	5.29
212.409	72.87
212.628	31.91
212.846	44.2
213.065	7.34
213.283	38.06
213.502	40.11
213.72	25.77
213.938	-7
214.157	9.39
214.375	17.58
214.594	42.15
214.812	52.39
215.031	136.36
215.249	76.97
215.467	-25.43
215.686	19.63
215.904	76.97
216.122	19.63
216.341	56.49
216.559	105.64
216.778	115.88
216.996	3.24
217.214	13.48
217.432	11.43
217.651	1.19
217.869	46.25
218.087	62.63
218.306	-47.96
218.524	29.87
218.742	48.3
218.96	72.87
219.179	-15.19
219.397	27.82
219.615	33.96
219.833	25.77
220.051	38.06
220.27	103.59
220.488	79.02
220.706	60.59
220.924	-0.85
221.142	54.44
221.36	66.73
221.578	93.35
221.796	11.43
222.015	40.11
222.233	1.19
222.451	-33.62
222.669	62.63
222.887	15.53
223.105	7.34
223.323	23.72
223.541	9.39
223.759	1.19
223.977	-9.05
224.195	19.63
224.413	31.91
224.631	81.07
224.849	25.77
225.067	89.26
225.285	21.67
225.503	93.35
225.721	-25.43
225.939	-0.85
226.157	-0.85
226.375	76.97
226.592	-17.24
226.81	40.11
227.028	21.67
227.246	13.48
227.464	9.39
227.682	48.3
227.9	48.3
228.117	36.01
228.335	-13.14
228.553	62.63
228.771	13.48
228.989	42.15
229.206	81.07
229.424	-41.81
229.642	33.96
229.86	44.2
230.077	21.67
230.295	97.45
230.513	15.53
230.731	97.45
230.948	62.63
231.166	40.11
231.384	-21.33
231.601	48.3
231.819	42.15
232.037	-21.33
232.254	70.83
232.472	103.59
232.689	60.59
232.907	3.24
233.125	-2.9
233.342	29.87
233.56	31.91
233.777	54.44
233.995	-15.19
234.213	13.48
234.43	60.59
234.648	21.67
234.865	87.21
235.083	25.77
235.3	33.96
235.518	-15.19
235.735	58.54
235.953	99.5
236.17	54.44
236.388	-13.14
236.605	-15.19
236.822	66.73
237.04	13.48
237.257	-4.95
237.475	40.11
237.692	15.53
237.909	-58.2
238.127	70.83
238.344	17.58
238.562	58.54
238.779	21.67
238.996	89.26
239.214	52.39
239.431	89.26
239.648	23.72
239.865	-29.52
240.083	52.39
240.3	54.44
240.517	79.02
240.735	109.74
240.952	76.97
241.169	-66.39
241.386	58.54
241.603	25.77
241.821	11.43
242.038	60.59
242.255	19.63
242.472	1.19
242.689	83.11
242.907	97.45
243.124	40.11
243.341	33.96
243.558	21.67
243.775	27.82
243.992	38.06
244.209	7.34
244.426	105.64
244.643	-31.57
244.86	7.34
245.078	95.4
245.295	13.48
245.512	11.43
245.729	79.02
245.946	-4.95
246.163	33.96
246.38	21.67
246.597	31.91
246.814	-47.96
247.031	-9.05
247.248	62.63
247.464	48.3
247.681	21.67
247.898	-7
248.115	17.58
248.332	17.58
248.549	29.87
248.766	56.49
248.983	-15.19
249.2	-0.85
249.417	117.93
249.633	9.39
249.85	50.35
250.067	31.91
250.284	97.45
250.501	62.63
250.717	9.39
250.934	31.91
251.151	-29.52
251.368	46.25
251.585	33.96
251.801	-23.38
252.018	9.39
252.235	70.83
252.451	44.2
252.668	29.87
252.885	44.2
253.102	44.2
253.318	-11.09
253.535	15.53
253.752	54.44
253.968	-43.86
254.185	25.77
254.401	-0.85
254.618	19.63
254.835	38.06
255.051	9.39
255.268	87.21
255.484	-9.05
255.701	46.25
255.917	42.15
256.134	13.48
256.351	101.55
256.567	-0.85
256.784	44.2
257	-2.9
257.217	31.91
257.433	54.44
257.65	40.11
257.866	-9.05
258.082	7.34
258.299	122.02
258.515	15.53
258.732	56.49
258.948	-11.09
259.165	31.91
259.381	9.39
259.597	38.06
259.814	29.87
260.03	42.15
260.246	31.91
260.463	62.63
260.679	83.11
260.895	-7
261.112	60.59
261.328	27.82
261.544	46.25
261.761	81.07
261.977	74.92
262.193	-15.19
262.409	7.34
262.626	54.44
262.842	-0.85
263.058	-50
263.274	79.02
263.49	-13.14
263.707	99.5
263.923	5.29
264.139	-9.05
264.355	60.59
264.571	54.44
264.787	31.91
265.004	-19.29
265.22	-4.95
265.436	13.48
265.652	11.43
265.868	15.53
266.084	38.06
266.3	-11.09
266.516	-29.52
266.732	85.16
266.948	38.06
267.164	52.39
267.38	58.54
267.596	48.3
267.812	70.83
268.028	74.92
268.244	31.91
268.46	5.29
268.676	25.77
268.892	5.29
269.108	-9.05
269.324	46.25
269.54	-58.2
269.756	25.77
269.972	31.91
270.188	46.25
270.403	5.29
270.619	31.91
270.835	11.43
271.051	31.91
271.267	50.35
271.483	46.25
271.698	42.15
271.914	79.02
272.13	27.82
272.346	58.54
272.562	66.73
272.777	29.87
272.993	68.78
273.209	38.06
273.425	-45.91
273.64	15.53
273.856	-11.09
274.072	62.63
274.287	-15.19
274.503	33.96
274.719	-0.85
274.934	-11.09
275.15	-47.96
275.366	23.72
275.581	-2.9
275.797	3.24
276.012	99.5
276.228	19.63
276.444	79.02
276.659	15.53
276.875	-39.76
277.09	60.59
277.306	21.67
277.521	27.82
277.737	54.44
277.952	40.11
278.168	52.39
278.383	113.83
278.599	-23.38
278.814	97.45
279.03	-29.52
279.245	115.88
279.461	50.35
279.676	72.87
279.892	-9.05
280.107	-7
280.322	9.39
280.538	19.63
280.753	-9.05
280.969	79.02
281.184	25.77
281.399	15.53
281.615	-21.33
281.83	23.72
282.045	25.77
282.26	-37.72
282.476	-0.85
282.691	-0.85
282.906	79.02
283.122	44.2
283.337	42.15
283.552	-17.24
283.767	72.87
283.983	-7
284.198	5.29
284.413	52.39
284.628	11.43
284.843	48.3
285.058	58.54
285.274	17.58
285.489	93.35
285.704	48.3
285.919	31.91
286.134	17.58
286.349	81.07
286.564	-29.52
286.779	115.88
286.995	15.53
287.21	11.43
287.425	15.53
287.64	23.72
287.855	56.49
288.07	54.44
288.285	11.43
288.5	36.01
288.715	-4.95
288.93	-9.05
289.145	-2.9
289.36	19.63
289.575	11.43
289.79	-23.38
290.004	40.11
290.219	21.67
290.434	15.53
290.649	-23.38
290.864	36.01
291.079	-19.29
291.294	15.53
291.509	29.87
291.724	74.92
291.938	-7
292.153	54.44
292.368	13.48
292.583	85.16
292.798	29.87
293.012	33.96
293.227	21.67
293.442	-0.85
293.657	21.67
293.871	7.34
294.086	33.96
294.301	19.63
294.516	31.91
294.73	13.48
294.945	-9.05
295.16	42.15
295.374	76.97
295.589	79.02
295.804	25.77
296.018	19.63
296.233	91.31
296.447	119.98
296.662	44.2
296.877	144.55
297.091	70.83
297.306	76.97
297.52	-23.38
297.735	60.59
297.949	27.82
298.164	13.48
298.378	58.54
298.593	-60.24
298.807	21.67
299.022	23.72
299.236	13.48
299.451	25.77
299.665	38.06
299.88	21.67
300.094	-15.19
300.309	31.91
300.523	95.4
300.737	48.3
300.952	42.15
301.166	-2.9
301.381	36.01
301.595	7.34
301.809	44.2
302.024	25.77
302.238	23.72
302.452	58.54
302.667	21.67
302.881	46.25
303.095	38.06
303.309	62.63
303.524	76.97
303.738	-15.19
303.952	40.11
304.166	-45.91
304.381	9.39
304.595	25.77
304.809	62.63
305.023	3.24
305.237	-9.05
305.452	-9.05
305.666	68.78
305.88	50.35
306.094	23.72
306.308	-11.09
306.522	25.77
306.736	29.87
306.95	3.24
307.164	21.67
307.379	21.67
307.593	46.25
307.807	-9.05
308.021	68.78
308.235	13.48
308.449	38.06
308.663	-29.52
308.877	70.83
309.091	-9.05
309.305	13.48
309.519	-17.24
309.733	17.58
309.947	7.34
310.161	62.63
310.374	15.53
310.588	48.3
310.802	70.83
311.016	60.59
311.23	-11.09
311.444	15.53
311.658	27.82
311.872	15.53
312.085	17.58
312.299	29.87
312.513	83.11
312.727	-29.52
312.941	11.43
313.154	-25.43
313.368	126.12
313.582	-21.33
313.796	33.96
314.009	9.39
314.223	-29.52
314.437	93.35
314.651	76.97
314.864	72.87
315.078	23.72
315.292	70.83
315.505	-27.48
315.719	91.31
315.933	70.83
316.146	72.87
316.36	-29.52
316.573	70.83
316.787	54.44
317.001	48.3
317.214	21.67
317.428	44.2
317.641	-9.05
317.855	91.31
318.068	87.21
318.282	87.21
318.495	105.64
318.709	29.87
318.922	-41.81
319.136	122.02
319.349	134.31
319.563	19.63
319.776	25.77
319.99	-11.09
320.203	97.45
320.417	19.63
320.63	52.39
320.843	83.11
321.057	9.39
321.27	74.92
321.483	3.24
321.697	93.35
321.91	9.39
322.124	79.02
322.337	3.24
322.55	46.25
322.763	87.21
322.977	79.02
323.19	11.43
323.403	-31.57
323.617	-9.05
323.83	-29.52
324.043	36.01
324.256	-33.62
324.469	7.34
324.683	107.69
324.896	-17.24
325.109	25.77
325.322	19.63
325.535	62.63
325.748	79.02
325.962	9.39
326.175	58.54
326.388	105.64
326.601	42.15
326.814	1.19
327.027	5.29
327.24	148.65
327.453	27.82
327.666	132.26
327.879	89.26
328.092	52.39
328.305	9.39
328.518	36.01
328.731	-11.09
328.944	54.44
329.157	62.63
329.37	1.19
329.583	-9.05
329.796	76.97
330.009	3.24
330.222	11.43
330.435	62.63
330.648	107.69
330.861	74.92
331.073	91.31
331.286	44.2
331.499	25.77
331.712	50.35
331.925	105.64
332.138	23.72
332.35	27.82
332.563	33.96
332.776	85.16
332.989	31.91
333.202	58.54
333.414	79.02
333.627	21.67
333.84	70.83
334.053	91.31
334.265	1.19
334.478	-25.43
334.691	5.29
334.903	52.39
335.116	-27.48
335.329	48.3
335.541	72.87
335.754	81.07
335.966	27.82
336.179	46.25
336.392	-4.95
336.604	81.07
336.817	87.21
337.029	36.01
337.242	72.87
337.454	117.93
337.667	36.01
337.88	50.35
338.092	-23.38
338.305	93.35
338.517	36.01
338.729	42.15
338.942	25.77
339.154	50.35
339.367	-47.96
339.579	-2.9
339.792	31.91
340.004	33.96
340.217	56.49
340.429	91.31
340.641	-0.85
340.854	-4.95
341.066	3.24
341.278	95.4
341.491	44.2
341.703	9.39
341.915	40.11
342.128	117.93
342.34	60.59
342.552	9.39
342.764	81.07
342.977	13.48
343.189	68.78
343.401	72.87
343.613	91.31
343.826	29.87
344.038	42.15
344.25	58.54
344.462	54.44
344.674	19.63
344.886	17.58
345.099	7.34
345.311	95.4
345.523	42.15
345.735	13.48
345.947	66.73
346.159	9.39
346.371	19.63
346.583	103.59
346.795	68.78
347.007	99.5
347.219	42.15
347.431	132.26
347.643	27.82
347.855	-11.09
348.067	46.25
348.279	56.49
348.491	48.3
348.703	5.29
348.915	70.83
349.127	44.2
349.339	52.39
349.551	-50
349.763	56.49
349.975	95.4
350.187	76.97
350.399	72.87
350.61	29.87
350.822	1.19
351.034	44.2
351.246	17.58
351.458	31.91
351.669	29.87
351.881	79.02
352.093	36.01
352.305	-15.19
352.517	91.31
352.728	85.16
352.94	11.43
353.152	64.68
353.363	15.53
353.575	42.15
353.787	103.59
353.999	27.82
354.21	154.79
354.422	-7
354.633	19.63
354.845	62.63
355.057	38.06
355.268	50.35
355.48	36.01
355.692	1.19
355.903	29.87
356.115	33.96
356.326	-4.95
356.538	93.35
356.749	56.49
356.961	56.49
357.172	29.87
357.384	9.39
357.595	36.01
357.807	85.16
358.018	27.82
358.23	66.73
358.441	115.88
358.653	21.67
358.864	50.35
359.075	29.87
359.287	-13.14
359.498	72.87
359.709	-2.9
359.921	19.63
360.132	23.72
360.344	105.64
360.555	11.43
360.766	60.59
360.977	38.06
361.189	50.35
361.4	23.72
361.611	29.87
361.823	-29.52
362.034	23.72
362.245	50.35
362.456	58.54
362.667	128.17
362.879	38.06
363.09	-2.9
363.301	21.67
363.512	81.07
363.723	56.49
363.935	40.11
364.146	29.87
364.357	83.11
364.568	56.49
364.779	66.73
364.99	64.68
365.201	-0.85
365.412	81.07
365.623	-4.95
365.834	95.4
366.045	-2.9
366.256	46.25
366.467	-41.81
366.678	48.3
366.889	44.2
367.1	15.53
367.311	64.68
367.522	62.63
367.733	33.96
367.944	160.94
368.155	33.96
368.366	-15.19
368.577	46.25
368.788	87.21
368.999	13.48
369.209	46.25
369.42	50.35
369.631	156.84
369.842	83.11
370.053	74.92
370.264	15.53
370.474	23.72
370.685	29.87
370.896	74.92
371.107	97.45
371.317	122.02
371.528	29.87
371.739	7.34
371.95	97.45
372.16	46.25
372.371	52.39
372.582	9.39
372.792	15.53
373.003	81.07
373.214	74.92
373.424	15.53
373.635	-11.09
373.846	124.07
374.056	13.48
374.267	29.87
374.477	130.22
374.688	-7
374.898	72.87
375.109	105.64
375.319	31.91
375.53	38.06
375.74	62.63
375.951	70.83
376.161	1.19
376.372	17.58
376.582	95.4
376.793	99.5
377.003	56.49
377.214	13.48
377.424	54.44
377.635	27.82
377.845	58.54
378.055	117.93
378.266	68.78
378.476	46.25
378.686	27.82
378.897	50.35
379.107	-13.14
379.317	62.63
379.528	76.97
379.738	97.45
379.948	21.67
380.158	105.64
380.369	56.49
380.579	95.4
380.789	97.45
380.999	23.72
381.21	97.45
381.42	95.4
381.63	-25.43
381.84	87.21
382.05	33.96
382.261	93.35
382.471	58.54
382.681	62.63
382.891	150.7
383.101	72.87
383.311	99.5
383.521	23.72
383.731	136.36
383.941	124.07
384.151	62.63
384.361	46.25
384.571	66.73
384.781	40.11
384.991	93.35
385.201	134.31
385.411	119.98
385.621	60.59
385.831	142.5
386.041	52.39
386.251	83.11
386.461	62.63
386.671	62.63
386.881	40.11
387.091	19.63
387.301	97.45
387.511	-17.24
387.72	33.96
387.93	81.07
388.14	62.63
388.35	134.31
388.56	54.44
388.769	11.43
388.979	52.39
389.189	87.21
389.399	60.59
389.609	154.79
389.818	89.26
390.028	27.82
390.238	107.69
390.447	36.01
390.657	11.43
390.867	27.82
391.076	36.01
391.286	81.07
391.496	31.91
391.705	44.2
391.915	136.36
392.125	79.02
392.334	66.73
392.544	52.39
392.753	154.79
392.963	165.03
393.172	126.12
393.382	7.34
393.591	56.49
393.801	76.97
394.01	130.22
394.22	72.87
394.429	95.4
394.639	29.87
394.848	87.21
395.058	119.98
395.267	193.7
395.477	103.59
395.686	97.45
395.895	134.31
396.105	199.85
396.314	81.07
396.524	103.59
396.733	99.5
396.942	124.07
397.152	144.55
397.361	162.98
397.57	81.07
397.78	146.6
397.989	169.13
398.198	162.98
398.407	148.65
398.617	140.46
398.826	105.64
399.035	140.46
399.244	81.07
399.453	130.22
399.663	171.18
399.872	89.26
400.081	140.46
400.29	140.46
400.499	171.18
400.708	169.13
400.917	115.88
401.127	212.14
401.336	197.8
401.545	140.46
401.754	187.56
401.963	134.31
402.172	158.89
402.381	103.59
402.59	160.94
402.799	185.51
403.008	167.08
403.217	154.79
403.426	205.99
403.635	158.89
403.844	177.32
404.053	158.89
404.262	183.46
404.471	210.09
404.68	222.38
404.888	216.23
405.097	228.52
405.306	195.75
405.515	201.9
405.724	183.46
405.933	234.66
406.142	212.14
406.35	220.33
406.559	253.09
406.768	179.37
406.977	226.47
407.185	281.77
407.394	271.53
407.603	212.14
407.812	273.57
408.02	238.76
408.229	300.2
408.438	259.24
408.646	339.11
408.855	345.25
409.064	365.73
409.272	406.69
409.481	369.83
409.69	371.88
409.898	355.49
410.107	267.43
410.315	412.84
410.524	394.4
410.733	451.75
410.941	343.21
411.15	429.22
411.358	521.38
411.567	607.39
411.775	566.43
411.984	548
412.192	533.67
412.401	660.64
412.609	709.79
412.818	593.06
413.026	603.3
413.234	640.16
413.443	679.07
413.651	713.89
413.86	722.08
414.068	752.8
414.276	754.85
414.485	806.05
414.693	885.92
414.901	898.2
415.11	943.26
415.318	971.93
415.526	965.79
415.734	922.78
415.943	1109.15
416.151	1039.51
416.359	1070.23
416.567	1178.78
416.776	1176.73
416.984	1340.57
417.192	1285.27
417.4	1232.02
417.608	1277.08
417.817	1326.23
418.025	1379.48
418.233	1578.13
418.441	1504.4
418.649	1670.29
418.857	1658
419.065	1692.82
419.273	1668.24
419.481	1883.28
419.689	1901.71
419.897	1930.38
420.105	2069.64
420.313	1983.63
420.521	2118.79
420.729	2165.9
420.937	2280.58
421.145	2243.72
421.353	2428.04
421.561	2501.76
421.769	2583.68
421.977	2714.75
422.185	2616.45
422.393	2843.78
422.601	2985.09
422.809	3052.67
423.017	2983.04
423.224	3105.92
423.432	3222.65
423.64	3216.51
423.848	3546.23
424.056	3474.55
424.263	3742.83
424.471	3800.18
424.679	3693.68
424.887	3951.73
425.094	4121.71
425.302	4144.24
425.51	4297.83
425.718	4326.5
425.925	4516.97
426.133	4717.67
426.341	4887.65
426.548	5096.54
426.756	5172.32
426.964	5229.66
427.171	5368.92
427.379	5657.68
427.586	5846.1
427.794	5950.54
428.001	6057.04
428.209	6579.27
428.417	6378.57
428.624	6792.26
428.832	6837.31
429.039	6728.77
429.247	6839.36
429.454	7406.65
429.662	8018.99
429.869	7291.96
430.076	7998.51
430.284	7611.45
430.491	8102.96
430.699	8313.9
430.906	8633.38
431.114	8707.11
431.321	8920.1
431.528	9161.76
431.736	9667.61
431.943	10148.88
432.15	9878.55
432.358	9980.95
432.565	10451.98
432.772	10499.08
432.979	11170.82
433.187	11076.61
433.394	11287.55
433.601	12039.15
433.808	11930.61
434.016	12002.29
434.223	12432.36
434.43	13153.25
434.637	12889.06
434.844	13769.69
435.052	14064.6
435.259	14017.49
435.466	13992.92
435.673	13978.58
435.88	14742.47
436.087	15537.09
436.294	15494.08
436.501	15262.66
436.708	15500.22
436.915	16186.29
437.122	16802.73
437.329	16620.46
437.537	17363.87
437.743	17445.79
437.95	17447.84
438.157	18383.76
438.364	18977.67
438.571	19035.02
438.778	18942.86
438.985	21046.12
439.192	19944.31
439.399	20499.31
439.606	20065.14
439.813	21369.7
440.02	22725.46
440.227	22213.46
440.433	21893.98
440.64	22594.39
440.847	22420.31
441.054	23233.35
441.261	24769.33
441.467	24529.72
441.674	24677.17
441.881	25652
442.088	25918.24
442.294	25160.49
442.501	26301.21
442.708	26667.8
442.914	27673.35
443.121	28646.13
443.328	27695.88
443.534	30153.44
443.741	29035.25
443.948	28936.95
444.154	30880.47
444.361	30747.35
444.568	31097.55
444.774	31034.07
444.981	31357.64
445.187	32309.95
445.394	33424.04
445.6	33512.11
445.807	36196.99
446.013	34974.36
446.22	35568.27
446.426	36637.31
446.633	37143.16
446.839	38347.36
447.046	36938.36
447.252	38912.6
447.459	39072.34
447.665	38750.81
447.871	40499.78
448.078	41777.71
448.284	40014.41
448.491	40837.69
448.697	43086.36
448.903	43328.02
449.11	43762.19
449.316	42803.74
449.522	44143.11
449.728	44814.85
449.935	45658.61
450.141	45287.93
450.347	46416.36
450.553	44927.49
450.76	45443.57
450.966	46836.19
451.172	46496.23
451.378	47737.3
451.584	47215.07
451.791	47538.65
451.997	47311.32
452.203	48607.68
452.409	48239.05
452.615	48425.42
452.821	46346.73
453.027	46363.11
453.233	48634.31
453.44	46698.98
453.646	47194.59
453.852	47344.09
454.058	48175.56
454.264	46973.41
454.47	47450.58
454.676	46418.41
454.882	48210.38
455.088	44134.92
455.294	44429.83
455.5	45439.48
455.705	46027.24
455.911	44165.64
456.117	43311.64
456.323	42500.64
456.529	40434.24
456.735	42082.86
456.941	41402.93
457.147	40428.1
457.352	39445.07
457.558	38824.54
457.764	39105.11
457.97	38179.43
458.176	37372.53
458.381	37696.11
458.587	35865.22
458.793	35662.47
458.999	33841.83
459.204	36016.77
459.41	35078.8
459.616	32955.06
459.821	33231.54
460.027	32799.41
460.233	32191.17
460.438	30448.35
460.644	30941.91
460.85	29582.06
461.055	28873.46
461.261	29287.15
461.466	26702.61
461.672	25803.55
461.878	27814.66
462.083	26069.79
462.289	25731.87
462.494	25309.99
462.7	23970.62
462.905	23466.82
463.111	24304.44
463.316	24357.69
463.522	23941.95
463.727	23966.52
463.932	23843.65
464.138	23747.39
464.343	23743.3
464.549	22870.86
464.754	23720.77
464.959	23341.89
465.165	23681.86
465.37	22422.36
465.575	21701.47
465.781	22803.28
465.986	22983.5
466.191	22053.72
466.397	21490.53
466.602	20403.06
466.807	21365.6
467.012	21461.86
467.218	21283.69
467.423	20968.3
