Data from USB4F104151__84__12-36-57-352.txt Node

Date: Fri Mar 14 12:36:57 EDT 2025
User: louis
Spectrometer: USB4F10415
Trigger mode: 4
Integration Time (sec): 2.000000E-2
Scans to average: 1
Electric dark correction enabled: true
Nonlinearity correction enabled: false
Boxcar width: 0
XAxis mode: Wavelengths
Number of Pixels in Spectrum: 3648
>>>>>Begin Spectral Data<<<<<
178.204	6.49
178.424	6.49
178.644	6.49
178.864	-46.76
179.084	-104.11
179.304	0.34
179.524	31.06
179.744	-22.19
179.964	-16.04
180.184	-104.11
180.404	0.34
180.624	-7.85
180.844	6.49
181.064	-16.04
181.283	49.49
181.503	33.11
181.723	45.4
181.943	-42.67
182.163	-11.95
182.383	6.49
182.602	24.92
182.822	115.03
183.042	45.4
183.262	-7.85
183.482	35.16
183.701	45.4
183.921	4.44
184.141	-34.47
184.361	65.88
184.58	29.01
184.8	43.35
185.02	35.16
185.239	61.78
185.459	125.27
185.679	92.5
185.898	16.73
186.118	82.26
186.338	26.96
186.557	37.2
186.777	33.11
186.997	98.64
187.216	-18.09
187.436	92.5
187.655	0.34
187.875	61.78
188.095	18.77
188.314	41.3
188.534	59.73
188.753	-3.75
188.973	22.87
189.192	10.58
189.412	106.84
189.631	14.68
189.851	24.92
190.07	49.49
190.29	-63.15
190.509	-5.8
190.729	41.3
190.948	115.03
191.168	2.39
191.387	65.88
191.607	78.16
191.826	45.4
192.045	63.83
192.265	47.44
192.484	47.44
192.704	57.68
192.923	18.77
193.142	92.5
193.362	59.73
193.581	12.63
193.8	12.63
194.02	69.97
194.239	4.44
194.458	29.01
194.678	12.63
194.897	51.54
195.116	12.63
195.335	18.77
195.555	67.92
195.774	-42.67
195.993	43.35
196.212	45.4
196.432	-59.05
196.651	49.49
196.87	-52.91
197.089	47.44
197.308	65.88
197.528	39.25
197.747	-3.75
197.966	33.11
198.185	-9.9
198.404	37.2
198.623	80.21
198.842	0.34
199.062	72.02
199.281	61.78
199.5	51.54
199.719	49.49
199.938	-9.9
200.157	16.73
200.376	55.64
200.595	63.83
200.814	24.92
201.033	-20.14
201.252	45.4
201.471	98.64
201.69	84.31
201.909	20.82
202.128	86.36
202.347	39.25
202.566	-5.8
202.785	-71.34
203.004	-22.19
203.223	63.83
203.442	4.44
203.661	41.3
203.879	26.96
204.098	-20.14
204.317	12.63
204.536	100.69
204.755	35.16
204.974	-3.75
205.193	26.96
205.411	86.36
205.63	10.58
205.849	98.64
206.068	47.44
206.287	20.82
206.505	-1.71
206.724	29.01
206.943	-28.33
207.162	8.53
207.381	-57
207.599	-28.33
207.818	55.64
208.037	20.82
208.255	37.2
208.474	65.88
208.693	51.54
208.911	115.03
209.13	61.78
209.349	84.31
209.567	76.12
209.786	69.97
210.005	20.82
210.223	12.63
210.442	86.36
210.661	104.79
210.879	22.87
211.098	37.2
211.316	35.16
211.535	63.83
211.753	86.36
211.972	-30.38
212.191	12.63
212.409	37.2
212.628	26.96
212.846	20.82
213.065	65.88
213.283	76.12
213.502	80.21
213.72	47.44
213.938	33.11
214.157	45.4
214.375	102.74
214.594	82.26
214.812	18.77
215.031	74.07
215.249	10.58
215.467	20.82
215.686	4.44
215.904	67.92
216.122	-40.62
216.341	61.78
216.559	43.35
216.778	45.4
216.996	10.58
217.214	-9.9
217.432	35.16
217.651	59.73
217.869	53.59
218.087	72.02
218.306	31.06
218.524	4.44
218.742	14.68
218.96	-1.71
219.179	47.44
219.397	29.01
219.615	63.83
219.833	57.68
220.051	-75.43
220.27	35.16
220.488	22.87
220.706	-7.85
220.924	16.73
221.142	61.78
221.36	-16.04
221.578	65.88
221.796	0.34
222.015	22.87
222.233	10.58
222.451	31.06
222.669	-1.71
222.887	96.6
223.105	14.68
223.323	82.26
223.541	45.4
223.759	80.21
223.977	24.92
224.195	119.12
224.413	33.11
224.631	65.88
224.849	86.36
225.067	55.64
225.285	-22.19
225.503	37.2
225.721	39.25
225.939	12.63
226.157	8.53
226.375	63.83
226.592	59.73
226.81	-5.8
227.028	125.27
227.246	35.16
227.464	0.34
227.682	43.35
227.9	4.44
228.117	88.4
228.335	4.44
228.553	59.73
228.771	4.44
228.989	16.73
229.206	57.68
229.424	41.3
229.642	31.06
229.86	-5.8
230.077	-11.95
230.295	110.93
230.513	31.06
230.731	51.54
230.948	88.4
231.166	-54.95
231.384	-59.05
231.601	61.78
231.819	33.11
232.037	18.77
232.254	6.49
232.472	65.88
232.689	53.59
232.907	24.92
233.125	84.31
233.342	67.92
233.56	-32.43
233.777	55.64
233.995	-20.14
234.213	22.87
234.43	31.06
234.648	98.64
234.865	37.2
235.083	-9.9
235.3	16.73
235.518	49.49
235.735	104.79
235.953	26.96
236.17	31.06
236.388	-5.8
236.605	-26.28
236.822	55.64
237.04	-1.71
237.257	14.68
237.475	86.36
237.692	72.02
237.909	63.83
238.127	35.16
238.344	31.06
238.562	37.2
238.779	41.3
238.996	-3.75
239.214	24.92
239.431	35.16
239.648	24.92
239.865	102.74
240.083	26.96
240.3	26.96
240.517	-36.52
240.735	22.87
240.952	-18.09
241.169	37.2
241.386	61.78
241.603	41.3
241.821	41.3
242.038	39.25
242.255	76.12
242.472	10.58
242.689	90.45
242.907	45.4
243.124	24.92
243.341	51.54
243.558	6.49
243.775	22.87
243.992	22.87
244.209	35.16
244.426	-16.04
244.643	-9.9
244.86	80.21
245.078	10.58
245.295	41.3
245.512	14.68
245.729	22.87
245.946	133.46
246.163	24.92
246.38	102.74
246.597	29.01
246.814	57.68
247.031	24.92
247.248	96.6
247.464	61.78
247.681	41.3
247.898	76.12
248.115	49.49
248.332	92.5
248.549	117.08
248.766	147.8
248.983	-18.09
249.2	65.88
249.417	-24.23
249.633	-5.8
249.85	67.92
250.067	10.58
250.284	12.63
250.501	35.16
250.717	53.59
250.934	33.11
251.151	47.44
251.368	74.07
251.585	82.26
251.801	57.68
252.018	88.4
252.235	74.07
252.451	47.44
252.668	33.11
252.885	80.21
253.102	65.88
253.318	18.77
253.535	51.54
253.752	-16.04
253.968	8.53
254.185	47.44
254.401	135.51
254.618	2.39
254.835	20.82
255.051	86.36
255.268	16.73
255.484	-16.04
255.701	90.45
255.917	12.63
256.134	55.64
256.351	55.64
256.567	65.88
256.784	2.39
257	-13.99
257.217	98.64
257.433	80.21
257.65	29.01
257.866	12.63
258.082	-3.75
258.299	82.26
258.515	20.82
258.732	53.59
258.948	-1.71
259.165	49.49
259.381	2.39
259.597	35.16
259.814	16.73
260.03	76.12
260.246	24.92
260.463	137.56
260.679	74.07
260.895	82.26
261.112	57.68
261.328	-22.19
261.544	47.44
261.761	67.92
261.977	35.16
262.193	33.11
262.409	108.88
262.626	51.54
262.842	4.44
263.058	80.21
263.274	31.06
263.49	88.4
263.707	51.54
263.923	90.45
264.139	80.21
264.355	61.78
264.571	86.36
264.787	33.11
265.004	47.44
265.22	37.2
265.436	33.11
265.652	-20.14
265.868	41.3
266.084	45.4
266.3	-26.28
266.516	80.21
266.732	10.58
266.948	59.73
267.164	53.59
267.38	57.68
267.596	49.49
267.812	-1.71
268.028	106.84
268.244	0.34
268.46	29.01
268.676	31.06
268.892	8.53
269.108	72.02
269.324	29.01
269.54	31.06
269.756	22.87
269.972	-11.95
270.188	12.63
270.403	18.77
270.619	35.16
270.835	92.5
271.051	82.26
271.267	24.92
271.483	4.44
271.698	133.46
271.914	78.16
272.13	-9.9
272.346	78.16
272.562	39.25
272.777	35.16
272.993	0.34
273.209	49.49
273.425	74.07
273.64	10.58
273.856	63.83
274.072	14.68
274.287	43.35
274.503	59.73
274.719	55.64
274.934	24.92
275.15	-54.95
275.366	59.73
275.581	16.73
275.797	24.92
276.012	90.45
276.228	51.54
276.444	86.36
276.659	39.25
276.875	94.55
277.09	61.78
277.306	24.92
277.521	78.16
277.737	26.96
277.952	2.39
278.168	29.01
278.383	61.78
278.599	45.4
278.814	49.49
279.03	29.01
279.245	53.59
279.461	59.73
279.676	94.55
279.892	55.64
280.107	88.4
280.322	24.92
280.538	72.02
280.753	-32.43
280.969	74.07
281.184	110.93
281.399	51.54
281.615	26.96
281.83	78.16
282.045	-3.75
282.26	65.88
282.476	0.34
282.691	14.68
282.906	4.44
283.122	72.02
283.337	0.34
283.552	39.25
283.767	47.44
283.983	63.83
284.198	-9.9
284.413	84.31
284.628	18.77
284.843	20.82
285.058	96.6
285.274	2.39
285.489	69.97
285.704	88.4
285.919	59.73
286.134	0.34
286.349	16.73
286.564	-22.19
286.779	59.73
286.995	63.83
287.21	76.12
287.425	24.92
287.64	59.73
287.855	76.12
288.07	76.12
288.285	31.06
288.5	43.35
288.715	65.88
288.93	-11.95
289.145	41.3
289.36	94.55
289.575	51.54
289.79	0.34
290.004	59.73
290.219	-5.8
290.434	80.21
290.649	29.01
290.864	22.87
291.079	76.12
291.294	39.25
291.509	47.44
291.724	6.49
291.938	51.54
292.153	-54.95
292.368	-32.43
292.583	170.32
292.798	53.59
293.012	4.44
293.227	63.83
293.442	90.45
293.657	-16.04
293.871	82.26
294.086	43.35
294.301	35.16
294.516	31.06
294.73	10.58
294.945	22.87
295.16	-13.99
295.374	67.92
295.589	86.36
295.804	2.39
296.018	31.06
296.233	84.31
296.447	37.2
296.662	-34.47
296.877	80.21
297.091	29.01
297.306	92.5
297.52	90.45
297.735	20.82
297.949	74.07
298.164	63.83
298.378	74.07
298.593	63.83
298.807	80.21
299.022	35.16
299.236	108.88
299.451	37.2
299.665	16.73
299.88	49.49
300.094	20.82
300.309	-48.81
300.523	39.25
300.737	55.64
300.952	84.31
301.166	160.08
301.381	-40.62
301.595	55.64
301.809	96.6
302.024	78.16
302.238	102.74
302.452	41.3
302.667	129.36
302.881	39.25
303.095	33.11
303.309	24.92
303.524	135.51
303.738	33.11
303.952	-13.99
304.166	59.73
304.381	6.49
304.595	80.21
304.809	-11.95
305.023	51.54
305.237	51.54
305.452	31.06
305.666	26.96
305.88	65.88
306.094	2.39
306.308	35.16
306.522	65.88
306.736	63.83
306.95	61.78
307.164	37.2
307.379	6.49
307.593	78.16
307.807	33.11
308.021	10.58
308.235	133.46
308.449	22.87
308.663	-46.76
308.877	61.78
309.091	59.73
309.305	90.45
309.519	24.92
309.733	117.08
309.947	24.92
310.161	100.69
310.374	14.68
310.588	80.21
310.802	4.44
311.016	67.92
311.23	53.59
311.444	29.01
311.658	45.4
311.872	-5.8
312.085	-28.33
312.299	106.84
312.513	49.49
312.727	72.02
312.941	72.02
313.154	112.98
313.368	86.36
313.582	74.07
313.796	-34.47
314.009	51.54
314.223	86.36
314.437	6.49
314.651	14.68
314.864	84.31
315.078	37.2
315.292	65.88
315.505	82.26
315.719	96.6
315.933	-7.85
316.146	72.02
316.36	31.06
316.573	125.27
316.787	2.39
317.001	31.06
317.214	-38.57
317.428	65.88
317.641	123.22
317.855	55.64
318.068	-11.95
318.282	94.55
318.495	90.45
318.709	55.64
318.922	76.12
319.136	139.6
319.349	98.64
319.563	4.44
319.776	10.58
319.99	45.4
320.203	33.11
320.417	53.59
320.63	18.77
320.843	2.39
321.057	6.49
321.27	2.39
321.483	43.35
321.697	96.6
321.91	78.16
322.124	88.4
322.337	106.84
322.55	47.44
322.763	18.77
322.977	22.87
323.19	4.44
323.403	61.78
323.617	127.32
323.83	65.88
324.043	4.44
324.256	63.83
324.469	6.49
324.683	141.65
324.896	51.54
325.109	-16.04
325.322	63.83
325.535	67.92
325.748	29.01
325.962	29.01
326.175	-5.8
326.388	63.83
326.601	55.64
326.814	-1.71
327.027	84.31
327.24	20.82
327.453	90.45
327.666	88.4
327.879	-7.85
328.092	78.16
328.305	80.21
328.518	24.92
328.731	51.54
328.944	24.92
329.157	-3.75
329.37	43.35
329.583	115.03
329.796	41.3
330.009	127.32
330.222	92.5
330.435	35.16
330.648	39.25
330.861	39.25
331.073	4.44
331.286	100.69
331.499	106.84
331.712	72.02
331.925	112.98
332.138	39.25
332.35	35.16
332.563	31.06
332.776	53.59
332.989	16.73
333.202	98.64
333.414	76.12
333.627	24.92
333.84	6.49
334.053	80.21
334.265	-44.71
334.478	10.58
334.691	78.16
334.903	94.55
335.116	10.58
335.329	39.25
335.541	26.96
335.754	0.34
335.966	53.59
336.179	61.78
336.392	-32.43
336.604	90.45
336.817	-34.47
337.029	59.73
337.242	31.06
337.454	0.34
337.667	76.12
337.88	69.97
338.092	33.11
338.305	37.2
338.517	84.31
338.729	96.6
338.942	37.2
339.154	29.01
339.367	-26.28
339.579	76.12
339.792	26.96
340.004	94.55
340.217	57.68
340.429	39.25
340.641	72.02
340.854	90.45
341.066	31.06
341.278	78.16
341.491	121.17
341.703	100.69
341.915	67.92
342.128	37.2
342.34	78.16
342.552	72.02
342.764	-44.71
342.977	51.54
343.189	0.34
343.401	43.35
343.613	-5.8
343.826	96.6
344.038	78.16
344.25	55.64
344.462	47.44
344.674	59.73
344.886	55.64
345.099	24.92
345.311	10.58
345.523	65.88
345.735	-13.99
345.947	110.93
346.159	65.88
346.371	18.77
346.583	80.21
346.795	121.17
347.007	63.83
347.219	31.06
347.431	131.41
347.643	151.89
347.855	12.63
348.067	119.12
348.279	20.82
348.491	84.31
348.703	43.35
348.915	35.16
349.127	57.68
349.339	92.5
349.551	53.59
349.763	16.73
349.975	74.07
350.187	-9.9
350.399	88.4
350.61	53.59
350.822	4.44
351.034	63.83
351.246	129.36
351.458	49.49
351.669	61.78
351.881	16.73
352.093	88.4
352.305	104.79
352.517	137.56
352.728	106.84
352.94	33.11
353.152	55.64
353.363	96.6
353.575	74.07
353.787	153.94
353.999	106.84
354.21	4.44
354.422	16.73
354.633	80.21
354.845	65.88
355.057	108.88
355.268	106.84
355.48	86.36
355.692	16.73
355.903	37.2
356.115	57.68
356.326	-28.33
356.538	117.08
356.749	22.87
356.961	86.36
357.172	14.68
357.384	61.78
357.595	80.21
357.807	8.53
358.018	33.11
358.23	82.26
358.441	76.12
358.653	67.92
358.864	123.22
359.075	33.11
359.287	74.07
359.498	88.4
359.709	18.77
359.921	61.78
360.132	10.58
360.344	76.12
360.555	39.25
360.766	67.92
360.977	24.92
361.189	80.21
361.4	65.88
361.611	125.27
361.823	43.35
362.034	49.49
362.245	96.6
362.456	14.68
362.667	31.06
362.879	29.01
363.09	18.77
363.301	78.16
363.512	131.41
363.723	74.07
363.935	76.12
364.146	88.4
364.357	39.25
364.568	127.32
364.779	47.44
364.99	78.16
365.201	61.78
365.412	53.59
365.623	86.36
365.834	88.4
366.045	14.68
366.256	53.59
366.467	26.96
366.678	80.21
366.889	55.64
367.1	96.6
367.311	90.45
367.522	72.02
367.733	72.02
367.944	43.35
368.155	39.25
368.366	76.12
368.577	143.7
368.788	74.07
368.999	100.69
369.209	4.44
369.42	121.17
369.631	117.08
369.842	72.02
370.053	41.3
370.264	100.69
370.474	108.88
370.685	24.92
370.896	88.4
371.107	10.58
371.317	63.83
371.528	74.07
371.739	78.16
371.95	31.06
372.16	98.64
372.371	26.96
372.582	61.78
372.792	59.73
373.003	102.74
373.214	16.73
373.424	-1.71
373.635	125.27
373.846	112.98
374.056	72.02
374.267	80.21
374.477	88.4
374.688	69.97
374.898	2.39
375.109	49.49
375.319	102.74
375.53	137.56
375.74	65.88
375.951	86.36
376.161	80.21
376.372	129.36
376.582	78.16
376.793	96.6
377.003	39.25
377.214	57.68
377.424	88.4
377.635	98.64
377.845	31.06
378.055	129.36
378.266	49.49
378.476	76.12
378.686	57.68
378.897	55.64
379.107	201.04
379.317	22.87
379.528	41.3
379.738	186.71
379.948	29.01
380.158	78.16
380.369	119.12
380.579	78.16
380.789	63.83
380.999	162.13
381.21	80.21
381.42	96.6
381.63	53.59
381.84	53.59
382.05	55.64
382.261	92.5
382.471	115.03
382.681	43.35
382.891	43.35
383.101	82.26
383.311	59.73
383.521	31.06
383.731	102.74
383.941	102.74
384.151	90.45
384.361	76.12
384.571	57.68
384.781	88.4
384.991	125.27
385.201	63.83
385.411	69.97
385.621	88.4
385.831	16.73
386.041	92.5
386.251	63.83
386.461	86.36
386.671	59.73
386.881	135.51
387.091	63.83
387.301	104.79
387.511	39.25
387.72	33.11
387.93	39.25
388.14	6.49
388.35	78.16
388.56	153.94
388.769	57.68
388.979	143.7
389.189	72.02
389.399	41.3
389.609	160.08
389.818	145.75
390.028	127.32
390.238	41.3
390.447	86.36
390.657	86.36
390.867	63.83
391.076	92.5
391.286	139.6
391.496	55.64
391.705	135.51
391.915	108.88
392.125	92.5
392.334	41.3
392.544	127.32
392.753	80.21
392.963	-24.23
393.172	94.55
393.382	22.87
393.591	117.08
393.801	82.26
394.01	166.23
394.22	90.45
394.429	127.32
394.639	76.12
394.848	125.27
395.058	82.26
395.267	104.79
395.477	53.59
395.686	88.4
395.895	147.8
396.105	155.99
396.314	147.8
396.524	94.55
396.733	106.84
396.942	158.03
397.152	137.56
397.361	37.2
397.57	45.4
397.78	31.06
397.989	125.27
398.198	164.18
398.407	86.36
398.617	108.88
398.826	94.55
399.035	166.23
399.244	131.41
399.453	229.71
399.663	121.17
399.872	137.56
400.081	131.41
400.29	102.74
400.499	127.32
400.708	123.22
400.917	149.84
401.127	117.08
401.336	90.45
401.545	108.88
401.754	139.6
401.963	207.19
402.172	106.84
402.381	110.93
402.59	139.6
402.799	160.08
403.008	139.6
403.217	139.6
403.426	67.92
403.635	168.27
403.844	198.99
404.053	127.32
404.262	209.23
404.471	225.62
404.68	203.09
404.888	198.99
405.097	192.85
405.306	211.28
405.515	139.6
405.724	137.56
405.933	158.03
406.142	213.33
406.35	168.27
406.559	149.84
406.768	211.28
406.977	242
407.185	231.76
407.394	170.32
407.603	158.03
407.812	319.82
408.02	215.38
408.229	219.47
408.438	256.34
408.646	260.43
408.855	274.77
409.064	311.63
409.272	276.82
409.481	340.3
409.69	336.21
409.898	274.77
410.107	424.27
410.315	375.12
410.524	407.89
410.733	432.46
410.941	420.17
411.15	481.61
411.358	375.12
411.567	493.9
411.775	452.94
411.984	467.28
412.192	545.1
412.401	498
412.609	620.88
412.818	579.92
413.026	491.85
413.234	598.35
413.443	651.6
413.651	661.84
413.86	686.41
414.068	670.03
414.276	817.48
414.485	721.23
414.693	733.51
414.901	772.43
415.11	819.53
415.318	878.92
415.526	844.1
415.734	883.02
415.943	926.02
416.151	1009.99
416.359	975.17
416.567	997.7
416.776	1061.19
416.984	1081.67
417.192	1161.54
417.4	1173.83
417.608	1141.06
417.817	1286.47
418.025	1229.12
418.233	1321.28
418.441	1245.51
418.649	1298.75
418.857	1425.73
419.065	1503.55
419.273	1571.13
419.481	1589.57
419.689	1626.43
419.897	1726.78
420.105	1808.7
420.313	1741.11
420.521	1872.18
420.729	1855.8
420.937	1970.49
421.145	2009.4
421.353	2050.36
421.561	2339.12
421.769	2251.06
421.977	2337.07
422.185	2388.27
422.393	2568.49
422.601	2591.02
422.809	2605.36
423.017	2763.05
423.224	2691.37
423.432	2748.72
423.64	2937.13
423.848	3103.01
424.056	3203.36
424.263	3361.06
424.471	3246.37
424.679	3377.44
424.887	3543.33
425.094	3615.01
425.302	3684.64
425.51	3795.23
425.718	3926.3
425.925	4083.99
426.133	4028.7
426.341	4311.32
426.548	4555.02
426.756	4522.26
426.964	4727.05
427.171	4847.88
427.379	5050.63
427.586	5142.79
427.794	5308.68
428.001	5562.62
428.209	5648.64
428.417	5648.64
428.624	5994.75
428.832	6193.4
429.039	5951.74
429.247	6088.95
429.454	6609.14
429.662	7051.5
429.869	6736.11
430.076	7031.02
430.284	6842.6
430.491	7205.1
430.699	7590.11
430.906	7534.82
431.114	7723.23
431.321	8009.95
431.528	8020.19
431.736	8550.61
431.943	9070.79
432.15	8644.82
432.358	8841.42
432.565	9306.31
432.772	9457.86
432.979	9705.67
433.187	9875.65
433.394	9959.61
433.601	10727.6
433.808	10870.96
434.016	10576.05
434.223	11116.72
434.43	11665.57
434.637	11534.5
434.844	12361.88
435.052	12511.38
435.259	12529.81
435.466	12435.61
435.673	12624.02
435.88	13131.92
436.087	14033.02
436.294	13981.82
436.501	13584.52
436.708	13822.08
436.915	14432.38
437.122	15038.58
437.329	14915.7
437.537	15614.06
437.743	15745.13
437.95	15769.7
438.157	16728.15
438.364	17014.87
438.571	16969.81
438.778	17166.42
438.985	18948.15
439.192	18190.4
439.399	18509.88
439.606	18212.93
439.813	19036.21
440.02	20090.91
440.227	19951.65
440.433	19830.82
440.64	20592.67
440.847	20330.53
441.054	20711.45
441.261	22208.51
441.467	21985.29
441.674	22411.26
441.881	22999.03
442.088	23039.99
442.294	22806.52
442.501	23402.48
442.708	24039.4
442.914	24958.94
443.121	25896.91
443.328	24944.6
443.534	27019.19
443.741	26171.33
443.948	25790.41
444.154	27842.48
444.361	27725.74
444.568	27795.37
444.774	27883.44
444.981	28010.41
445.187	29261.72
445.394	30156.68
445.6	29712.27
445.807	32589.67
446.013	31057.79
446.22	31778.67
446.426	33075.04
446.633	33316.7
446.839	34748.23
447.046	33496.92
447.252	34776.9
447.459	35190.59
447.665	35034.94
447.871	36214.57
448.078	37816.08
448.284	36290.35
448.491	36824.87
448.697	38598.41
448.903	39001.86
449.11	39522.04
449.316	38940.42
449.522	39399.16
449.728	40840.93
449.935	40906.47
450.141	40648.43
450.347	41633.5
450.553	40435.44
450.76	40963.81
450.966	41983.7
451.172	41750.23
451.378	42704.59
451.584	42325.71
451.791	43089.6
451.997	42958.53
452.203	43857.59
452.409	43691.71
452.615	43294.4
452.821	42084.05
453.027	41502.43
453.233	43278.02
453.44	42118.87
453.646	42819.27
453.852	42761.93
454.058	43519.68
454.264	41969.36
454.47	42942.15
454.676	42159.83
454.882	43495.1
455.088	39264
455.294	40222.45
455.5	40374
455.705	40750.82
455.911	39696.12
456.117	39087.87
456.323	38362.89
456.529	36370.22
456.735	38084.37
456.941	36962.08
457.147	36558.63
457.352	35403.58
457.558	34690.88
457.764	34916.16
457.97	34307.91
458.176	33718.1
458.381	33697.62
458.587	32104.3
458.793	32049
458.999	30033.8
459.204	32565.09
459.41	31373.17
459.616	29253.53
459.821	29255.57
460.027	29243.29
460.233	28665.76
460.438	27434.93
460.644	27664.3
460.85	26292.16
461.055	25915.34
461.261	25989.06
461.466	23771.11
461.672	23035.89
461.878	24764.38
462.083	23205.88
462.289	22614.01
462.494	22280.19
462.7	21561.36
462.905	21008.4
463.111	21418
463.316	21905.42
463.522	21159.95
463.727	21323.79
463.932	21704.71
464.138	21112.85
464.343	21487.63
464.549	20684.83
464.754	20932.63
464.959	21000.21
465.165	20813.85
465.37	19890.21
465.575	19329.07
465.781	20363.29
465.986	20344.86
466.191	19591.21
466.397	19228.72
466.602	18341.95
466.807	18958.39
467.012	18812.98
467.218	18776.12
467.423	18626.62
467.628	18739.26
467.833	19527.72
468.038	18862.13
468.244	18350.14
