Data from USB4F104151__3__12-34-47-306.txt Node

Date: Fri Mar 14 12:34:47 EDT 2025
User: louis
Spectrometer: USB4F10415
Trigger mode: 4
Integration Time (sec): 2.000000E-2
Scans to average: 1
Electric dark correction enabled: true
Nonlinearity correction enabled: false
Boxcar width: 0
XAxis mode: Wavelengths
Number of Pixels in Spectrum: 3648
>>>>>Begin Spectral Data<<<<<
178.204	-79.02
178.424	-79.02
178.644	-79.02
178.864	-27.82
179.084	-54.44
179.304	-29.87
179.524	-11.43
179.744	25.43
179.964	2.9
180.184	0.85
180.404	0.85
180.624	-3.24
180.844	15.19
181.064	-58.54
181.283	37.72
181.503	-9.39
181.723	29.52
181.943	-44.2
182.163	60.24
182.383	109.4
182.602	107.35
182.822	41.81
183.042	39.76
183.262	68.44
183.482	84.82
183.701	7
183.921	-60.59
184.141	9.05
184.361	17.24
184.58	123.73
184.8	62.29
185.02	-23.72
185.239	15.19
185.459	68.44
185.679	-9.39
185.898	2.9
186.118	88.92
186.338	82.77
186.557	68.44
186.777	-13.48
186.997	-5.29
187.216	19.29
187.436	52.05
187.655	37.72
187.875	84.82
188.095	72.53
188.314	27.48
188.534	27.48
188.753	-27.82
188.973	15.19
189.192	47.96
189.412	-54.44
189.631	29.52
189.851	54.1
190.07	31.57
190.29	148.31
190.509	-9.39
190.729	21.33
190.948	43.86
191.168	76.63
191.387	109.4
191.607	9.05
191.826	58.2
192.045	21.33
192.265	35.67
192.484	35.67
192.704	-11.43
192.923	17.24
193.142	80.72
193.362	31.57
193.581	78.68
193.8	138.07
194.02	80.72
194.239	66.39
194.458	136.02
194.678	50
194.897	43.86
195.116	41.81
195.335	-1.19
195.555	-13.48
195.774	93.01
195.993	39.76
196.212	37.72
196.432	15.19
196.651	105.3
196.87	0.85
197.089	113.49
197.308	-62.63
197.528	7
197.747	80.72
197.966	-13.48
198.185	29.52
198.404	-25.77
198.623	72.53
198.842	52.05
199.062	105.3
199.281	31.57
199.5	-13.48
199.719	-19.63
199.938	37.72
200.157	68.44
200.376	2.9
200.595	99.16
200.814	9.05
201.033	-29.87
201.252	25.43
201.471	21.33
201.69	62.29
201.909	133.97
202.128	15.19
202.347	-7.34
202.566	93.01
202.785	-60.59
203.004	21.33
203.223	66.39
203.442	19.29
203.661	62.29
203.879	72.53
204.098	31.57
204.317	17.24
204.536	125.78
204.755	4.95
204.974	43.86
205.193	54.1
205.411	45.91
205.63	17.24
205.849	64.34
206.068	-7.34
206.287	-11.43
206.505	74.58
206.724	56.15
206.943	39.76
207.162	41.81
207.381	43.86
207.599	152.4
207.818	7
208.037	56.15
208.255	70.48
208.474	27.48
208.693	37.72
208.911	-13.48
209.13	4.95
209.349	43.86
209.567	39.76
209.786	95.06
210.005	33.62
210.223	41.81
210.442	4.95
210.661	50
210.879	7
211.098	-1.19
211.316	7
211.535	50
211.753	-9.39
211.972	99.16
212.191	62.29
212.409	45.91
212.628	58.2
212.846	15.19
213.065	58.2
213.283	19.29
213.502	9.05
213.72	90.96
213.938	86.87
214.157	35.67
214.375	33.62
214.594	68.44
214.812	68.44
215.031	29.52
215.249	72.53
215.467	27.48
215.686	41.81
215.904	123.73
216.122	-56.49
216.341	80.72
216.559	88.92
216.778	39.76
216.996	103.25
217.214	93.01
217.432	23.38
217.651	-54.44
217.869	21.33
218.087	101.2
218.306	35.67
218.524	37.72
218.742	9.05
218.96	84.82
219.179	58.2
219.397	35.67
219.615	113.49
219.833	45.91
220.051	7
220.27	41.81
220.488	39.76
220.706	76.63
220.924	35.67
221.142	11.09
221.36	95.06
221.578	11.09
221.796	41.81
222.015	19.29
222.233	-21.67
222.451	144.21
222.669	58.2
222.887	2.9
223.105	33.62
223.323	39.76
223.541	107.35
223.759	50
223.977	37.72
224.195	13.14
224.413	82.77
224.631	86.87
224.849	19.29
225.067	54.1
225.285	50
225.503	107.35
225.721	27.48
225.939	66.39
226.157	41.81
226.375	37.72
226.592	-1.19
226.81	-15.53
227.028	17.24
227.246	103.25
227.464	37.72
227.682	19.29
227.9	41.81
228.117	99.16
228.335	13.14
228.553	119.64
228.771	0.85
228.989	17.24
229.206	-7.34
229.424	25.43
229.642	23.38
229.86	109.4
230.077	76.63
230.295	-54.44
230.513	127.83
230.731	109.4
230.948	29.52
231.166	84.82
231.384	41.81
231.601	52.05
231.819	64.34
232.037	-56.49
232.254	-52.39
232.472	115.54
232.689	-5.29
232.907	33.62
233.125	13.14
233.342	37.72
233.56	-13.48
233.777	56.15
233.995	-1.19
234.213	117.59
234.43	64.34
234.648	-17.58
234.865	13.14
235.083	37.72
235.3	-3.24
235.518	52.05
235.735	29.52
235.953	2.9
236.17	0.85
236.388	-9.39
236.605	-9.39
236.822	74.58
237.04	58.2
237.257	68.44
237.475	60.24
237.692	123.73
237.909	76.63
238.127	52.05
238.344	17.24
238.562	4.95
238.779	17.24
238.996	-68.78
239.214	82.77
239.431	39.76
239.648	7
239.865	60.24
240.083	58.2
240.3	58.2
240.517	-11.43
240.735	-83.11
240.952	117.59
241.169	50
241.386	82.77
241.603	-11.43
241.821	9.05
242.038	41.81
242.255	11.09
242.472	27.48
242.689	52.05
242.907	121.68
243.124	0.85
243.341	9.05
243.558	43.86
243.775	19.29
243.992	-9.39
244.209	47.96
244.426	121.68
244.643	76.63
244.86	9.05
245.078	37.72
245.295	33.62
245.512	101.2
245.729	45.91
245.946	4.95
246.163	41.81
246.38	21.33
246.597	-40.11
246.814	64.34
247.031	27.48
247.248	39.76
247.464	39.76
247.681	23.38
247.898	-13.48
248.115	29.52
248.332	9.05
248.549	56.15
248.766	103.25
248.983	101.2
249.2	17.24
249.417	84.82
249.633	4.95
249.85	103.25
250.067	23.38
250.284	68.44
250.501	33.62
250.717	105.3
250.934	31.57
251.151	111.44
251.368	0.85
251.585	72.53
251.801	52.05
252.018	27.48
252.235	68.44
252.451	-3.24
252.668	39.76
252.885	37.72
253.102	43.86
253.318	95.06
253.535	50
253.752	23.38
253.968	2.9
254.185	-7.34
254.401	29.52
254.618	64.34
254.835	-23.72
255.051	101.2
255.268	62.29
255.484	76.63
255.701	62.29
255.917	-1.19
256.134	103.25
256.351	68.44
256.567	31.57
256.784	90.96
257	27.48
257.217	47.96
257.433	-40.11
257.65	15.19
257.866	50
258.082	68.44
258.299	80.72
258.515	-70.83
258.732	41.81
258.948	-23.72
259.165	43.86
259.381	35.67
259.597	80.72
259.814	21.33
260.03	95.06
260.246	103.25
260.463	43.86
260.679	27.48
260.895	35.67
261.112	37.72
261.328	23.38
261.544	-23.72
261.761	164.69
261.977	29.52
262.193	-23.72
262.409	66.39
262.626	56.15
262.842	72.53
263.058	9.05
263.274	82.77
263.49	82.77
263.707	66.39
263.923	56.15
264.139	37.72
264.355	52.05
264.571	68.44
264.787	58.2
265.004	68.44
265.22	-5.29
265.436	-25.77
265.652	54.1
265.868	66.39
266.084	64.34
266.3	11.09
266.516	-40.11
266.732	70.48
266.948	45.91
267.164	60.24
267.38	-17.58
267.596	72.53
267.812	31.57
268.028	31.57
268.244	54.1
268.46	25.43
268.676	52.05
268.892	13.14
269.108	39.76
269.324	82.77
269.54	43.86
269.756	54.1
269.972	-1.19
270.188	72.53
270.403	13.14
270.619	99.16
270.835	50
271.051	4.95
271.267	13.14
271.483	82.77
271.698	9.05
271.914	68.44
272.13	9.05
272.346	29.52
272.562	64.34
272.777	52.05
272.993	88.92
273.209	17.24
273.425	152.4
273.64	-33.96
273.856	68.44
274.072	11.09
274.287	33.62
274.503	86.87
274.719	115.54
274.934	78.68
275.15	52.05
275.366	78.68
275.581	39.76
275.797	39.76
276.012	105.3
276.228	68.44
276.444	80.72
276.659	21.33
276.875	29.52
277.09	19.29
277.306	62.29
277.521	60.24
277.737	-33.96
277.952	84.82
278.168	74.58
278.383	2.9
278.599	-58.54
278.814	35.67
279.03	29.52
279.245	133.97
279.461	80.72
279.676	21.33
279.892	7
280.107	33.62
280.322	117.59
280.538	-19.63
280.753	4.95
280.969	76.63
281.184	-17.58
281.399	74.58
281.615	54.1
281.83	117.59
282.045	60.24
282.26	27.48
282.476	35.67
282.691	25.43
282.906	25.43
283.122	50
283.337	23.38
283.552	66.39
283.767	-17.58
283.983	41.81
284.198	-40.11
284.413	111.44
284.628	23.38
284.843	58.2
285.058	-23.72
285.274	0.85
285.489	41.81
285.704	78.68
285.919	13.14
286.134	72.53
286.349	62.29
286.564	19.29
286.779	23.38
286.995	35.67
287.21	29.52
287.425	-3.24
287.64	23.38
287.855	-3.24
288.07	11.09
288.285	127.83
288.5	11.09
288.715	90.96
288.93	119.64
289.145	23.38
289.36	47.96
289.575	23.38
289.79	142.16
290.004	103.25
290.219	127.83
290.434	39.76
290.649	-11.43
290.864	35.67
291.079	86.87
291.294	72.53
291.509	58.2
291.724	4.95
291.938	103.25
292.153	45.91
292.368	58.2
292.583	-5.29
292.798	74.58
293.012	60.24
293.227	27.48
293.442	31.57
293.657	27.48
293.871	156.5
294.086	80.72
294.301	70.48
294.516	41.81
294.73	-33.96
294.945	13.14
295.16	-3.24
295.374	47.96
295.589	84.82
295.804	-5.29
296.018	27.48
296.233	70.48
296.447	119.64
296.662	47.96
296.877	76.63
297.091	84.82
297.306	41.81
297.52	39.76
297.735	4.95
297.949	25.43
298.164	60.24
298.378	-1.19
298.593	64.34
298.807	-11.43
299.022	86.87
299.236	64.34
299.451	-33.96
299.665	-27.82
299.88	-31.91
300.094	47.96
300.309	62.29
300.523	56.15
300.737	11.09
300.952	111.44
301.166	35.67
301.381	27.48
301.595	127.83
301.809	66.39
302.024	23.38
302.238	39.76
302.452	45.91
302.667	39.76
302.881	107.35
303.095	13.14
303.309	31.57
303.524	66.39
303.738	80.72
303.952	-3.24
304.166	72.53
304.381	-33.96
304.595	138.07
304.809	25.43
305.023	68.44
305.237	60.24
305.452	74.58
305.666	74.58
305.88	86.87
306.094	52.05
306.308	95.06
306.522	125.78
306.736	31.57
306.95	33.62
307.164	39.76
307.379	105.3
307.593	11.09
307.807	7
308.021	90.96
308.235	66.39
308.449	7
308.663	41.81
308.877	62.29
309.091	2.9
309.305	76.63
309.519	21.33
309.733	4.95
309.947	23.38
310.161	62.29
310.374	31.57
310.588	41.81
310.802	54.1
311.016	68.44
311.23	31.57
311.444	-19.63
311.658	54.1
311.872	39.76
312.085	74.58
312.299	76.63
312.513	56.15
312.727	45.91
312.941	-19.63
313.154	60.24
313.368	37.72
313.582	21.33
313.796	86.87
314.009	19.29
314.223	60.24
314.437	97.11
314.651	70.48
314.864	-15.53
315.078	45.91
315.292	66.39
315.505	-31.91
315.719	101.2
315.933	54.1
316.146	41.81
316.36	86.87
316.573	31.57
316.787	74.58
317.001	76.63
317.214	15.19
317.428	-31.91
317.641	35.67
317.855	27.48
318.068	23.38
318.282	13.14
318.495	109.4
318.709	70.48
318.922	13.14
319.136	111.44
319.349	154.45
319.563	58.2
319.776	66.39
319.99	47.96
320.203	35.67
320.417	64.34
320.63	56.15
320.843	13.14
321.057	29.52
321.27	56.15
321.483	45.91
321.697	119.64
321.91	101.2
322.124	90.96
322.337	31.57
322.55	-9.39
322.763	23.38
322.977	52.05
323.19	17.24
323.403	86.87
323.617	113.49
323.83	68.44
324.043	60.24
324.256	70.48
324.469	25.43
324.683	21.33
324.896	31.57
325.109	80.72
325.322	47.96
325.535	103.25
325.748	107.35
325.962	72.53
326.175	-3.24
326.388	-5.29
326.601	52.05
326.814	-7.34
327.027	13.14
327.24	80.72
327.453	52.05
327.666	97.11
327.879	113.49
328.092	117.59
328.305	-1.19
328.518	17.24
328.731	60.24
328.944	19.29
329.157	19.29
329.37	80.72
329.583	45.91
329.796	95.06
330.009	97.11
330.222	72.53
330.435	78.68
330.648	129.88
330.861	105.3
331.073	47.96
331.286	-5.29
331.499	101.2
331.712	9.05
331.925	52.05
332.138	35.67
332.35	21.33
332.563	43.86
332.776	54.1
332.989	27.48
333.202	-27.82
333.414	107.35
333.627	27.48
333.84	78.68
334.053	41.81
334.265	7
334.478	56.15
334.691	62.29
334.903	78.68
335.116	54.1
335.329	76.63
335.541	101.2
335.754	103.25
335.966	80.72
336.179	62.29
336.392	64.34
336.604	47.96
336.817	21.33
337.029	60.24
337.242	64.34
337.454	107.35
337.667	93.01
337.88	58.2
338.092	47.96
338.305	78.68
338.517	70.48
338.729	111.44
338.942	25.43
339.154	72.53
339.367	62.29
339.579	74.58
339.792	45.91
340.004	82.77
340.217	45.91
340.429	117.59
340.641	23.38
340.854	37.72
341.066	115.54
341.278	50
341.491	37.72
341.703	37.72
341.915	17.24
342.128	127.83
342.34	23.38
342.552	72.53
342.764	2.9
342.977	23.38
343.189	70.48
343.401	58.2
343.613	-27.82
343.826	80.72
344.038	43.86
344.25	56.15
344.462	-29.87
344.674	43.86
344.886	23.38
345.099	13.14
345.311	64.34
345.523	-5.29
345.735	2.9
345.947	17.24
346.159	-5.29
346.371	25.43
346.583	125.78
346.795	54.1
347.007	31.57
347.219	17.24
347.431	115.54
347.643	-9.39
347.855	58.2
348.067	29.52
348.279	37.72
348.491	95.06
348.703	64.34
348.915	31.57
349.127	31.57
349.339	33.62
349.551	33.62
349.763	70.48
349.975	62.29
350.187	84.82
350.399	119.64
350.61	82.77
350.822	37.72
351.034	99.16
351.246	11.09
351.458	33.62
351.669	82.77
351.881	60.24
352.093	50
352.305	23.38
352.517	54.1
352.728	97.11
352.94	86.87
353.152	56.15
353.363	23.38
353.575	68.44
353.787	-15.53
353.999	47.96
354.21	99.16
354.422	43.86
354.633	62.29
354.845	-7.34
355.057	119.64
355.268	101.2
355.48	101.2
355.692	97.11
355.903	9.05
356.115	82.77
356.326	50
356.538	88.92
356.749	37.72
356.961	117.59
357.172	39.76
357.384	56.15
357.595	90.96
357.807	-3.24
358.018	58.2
358.23	37.72
358.441	31.57
358.653	9.05
358.864	64.34
359.075	33.62
359.287	123.73
359.498	90.96
359.709	82.77
359.921	72.53
360.132	27.48
360.344	90.96
360.555	2.9
360.766	117.59
360.977	25.43
361.189	131.92
361.4	-9.39
361.611	107.35
361.823	76.63
362.034	84.82
362.245	27.48
362.456	84.82
362.667	80.72
362.879	-1.19
363.09	105.3
363.301	56.15
363.512	31.57
363.723	54.1
363.935	19.29
364.146	56.15
364.357	43.86
364.568	107.35
364.779	-66.73
364.99	66.39
365.201	125.78
365.412	109.4
365.623	76.63
365.834	-27.82
366.045	-17.58
366.256	47.96
366.467	60.24
366.678	-1.19
366.889	35.67
367.1	4.95
367.311	58.2
367.522	21.33
367.733	23.38
367.944	111.44
368.155	11.09
368.366	86.87
368.577	68.44
368.788	95.06
368.999	39.76
369.209	76.63
369.42	19.29
369.631	111.44
369.842	97.11
370.053	99.16
370.264	142.16
370.474	-17.58
370.685	125.78
370.896	107.35
371.107	17.24
371.317	82.77
371.528	144.21
371.739	45.91
371.95	50
372.16	80.72
372.371	64.34
372.582	7
372.792	90.96
373.003	62.29
373.214	29.52
373.424	56.15
373.635	21.33
373.846	115.54
374.056	105.3
374.267	70.48
374.477	62.29
374.688	99.16
374.898	31.57
375.109	88.92
375.319	142.16
375.53	66.39
375.74	70.48
375.951	39.76
376.161	68.44
376.372	82.77
376.582	50
376.793	121.68
377.003	31.57
377.214	17.24
377.424	56.15
377.635	86.87
377.845	45.91
378.055	95.06
378.266	-5.29
378.476	86.87
378.686	74.58
378.897	113.49
379.107	152.4
379.317	11.09
379.528	15.19
379.738	74.58
379.948	45.91
380.158	76.63
380.369	70.48
380.579	123.73
380.789	-11.43
380.999	111.44
381.21	64.34
381.42	123.73
381.63	29.52
381.84	80.72
382.05	138.07
382.261	70.48
382.471	66.39
382.681	31.57
382.891	111.44
383.101	127.83
383.311	25.43
383.521	45.91
383.731	39.76
383.941	80.72
384.151	17.24
384.361	68.44
384.571	29.52
384.781	103.25
384.991	62.29
385.201	121.68
385.411	23.38
385.621	52.05
385.831	103.25
386.041	78.68
386.251	95.06
386.461	103.25
386.671	82.77
386.881	64.34
387.091	43.86
387.301	50
387.511	80.72
387.72	56.15
387.93	97.11
388.14	78.68
388.35	95.06
388.56	148.31
388.769	70.48
388.979	115.54
389.189	111.44
389.399	95.06
389.609	27.48
389.818	23.38
390.028	103.25
390.238	95.06
390.447	50
390.657	123.73
390.867	35.67
391.076	93.01
391.286	15.19
391.496	43.86
391.705	70.48
391.915	129.88
392.125	41.81
392.334	138.07
392.544	45.91
392.753	25.43
392.963	86.87
393.172	115.54
393.382	33.62
393.591	115.54
393.801	-3.24
394.01	193.36
394.22	107.35
394.429	150.36
394.639	41.81
394.848	35.67
395.058	84.82
395.267	195.41
395.477	80.72
395.686	109.4
395.895	72.53
396.105	107.35
396.314	84.82
396.524	2.9
396.733	58.2
396.942	170.83
397.152	84.82
397.361	82.77
397.57	68.44
397.78	84.82
397.989	88.92
398.198	105.3
398.407	129.88
398.617	129.88
398.826	121.68
399.035	60.24
399.244	88.92
399.453	136.02
399.663	88.92
399.872	43.86
400.081	80.72
400.29	160.59
400.499	72.53
400.708	168.79
400.917	93.01
401.127	88.92
401.336	99.16
401.545	150.36
401.754	117.59
401.963	136.02
402.172	101.2
402.381	72.53
402.59	146.26
402.799	123.73
403.008	117.59
403.217	93.01
403.426	107.35
403.635	72.53
403.844	123.73
404.053	185.17
404.262	113.49
404.471	195.41
404.68	129.88
404.888	131.92
405.097	174.93
405.306	146.26
405.515	217.94
405.724	164.69
405.933	164.69
406.142	250.71
406.35	150.36
406.559	97.11
406.768	222.03
406.977	199.51
407.185	195.41
407.394	299.86
407.603	234.32
407.812	185.17
408.02	185.17
408.229	277.33
408.438	248.66
408.646	226.13
408.855	234.32
409.064	254.8
409.272	205.65
409.481	293.71
409.69	230.23
409.898	330.58
410.107	277.33
410.315	281.43
410.524	277.33
410.733	306
410.941	322.38
411.15	303.95
411.358	316.24
411.567	379.73
411.775	342.86
411.984	412.5
412.192	400.21
412.401	377.68
412.609	445.26
412.818	471.89
413.026	533.33
413.234	537.42
413.443	406.35
413.651	539.47
413.86	389.97
414.068	535.37
414.276	668.49
414.485	570.19
414.693	564.04
414.901	701.26
415.11	707.4
415.318	584.52
415.526	629.58
415.734	645.96
415.943	658.25
416.151	762.7
416.359	639.82
416.567	846.66
416.776	869.19
416.984	871.24
417.192	852.81
417.4	926.54
417.608	928.58
417.817	1012.55
418.025	1078.08
418.233	1030.98
418.441	1014.6
418.649	1139.52
418.857	1217.35
419.065	1291.07
419.273	1215.3
419.481	1274.69
419.689	1430.34
419.897	1432.38
420.105	1422.14
420.313	1393.47
420.521	1471.29
420.729	1583.93
420.937	1542.97
421.145	1641.28
421.353	1688.38
421.561	1844.03
421.769	1874.74
421.977	1919.8
422.185	1913.66
422.393	2024.25
422.601	2202.42
422.809	2122.55
423.017	2020.15
423.224	2274.1
423.432	2220.85
423.64	2286.39
423.848	2411.31
424.056	2454.32
424.263	2728.75
424.471	2550.57
424.679	2671.4
424.887	2812.71
425.094	2943.78
425.302	2822.95
425.51	3115.81
425.718	3154.73
425.925	3138.34
426.133	3326.75
426.341	3490.59
426.548	3595.04
426.756	3531.55
426.964	3816.22
427.171	3871.51
427.379	4053.78
427.586	4059.93
427.794	4180.76
428.001	4154.13
428.209	4383.51
428.417	4467.47
428.624	4700.94
428.832	4741.9
429.039	4758.28
429.247	4688.65
429.454	5176.07
429.662	5655.3
429.869	5098.25
430.076	5749.5
430.284	5292.8
430.491	5520.13
430.699	5950.2
430.906	5870.33
431.114	5825.28
431.321	6353.65
431.528	6300.41
431.736	6707.95
431.943	7023.34
432.15	6920.94
432.358	6982.38
432.565	7246.57
432.772	7258.85
432.979	7535.33
433.187	7719.65
433.394	7723.74
433.601	8356.57
433.808	8450.77
434.016	8448.72
434.223	8680.14
434.43	9413.32
434.637	8891.09
434.844	9579.2
435.052	9790.14
435.259	9546.44
435.466	9718.47
435.673	9609.92
435.88	10175.16
436.087	10826.42
436.294	10943.15
436.501	10574.52
436.708	10853.04
436.915	11315.88
437.122	11623.08
437.329	11514.53
437.537	11887.26
437.743	12255.9
437.95	12253.85
438.157	12765.84
438.364	13320.84
438.571	13265.55
438.778	13204.11
438.985	14404.22
439.192	13937.28
439.399	14500.47
439.606	14131.84
439.813	14725.75
440.02	15583.85
440.227	15592.04
440.433	15159.92
440.64	15893.09
440.847	15751.78
441.054	16384.6
441.261	17234.51
441.467	16833.11
441.674	17500.75
441.881	17963.59
442.088	17986.11
442.294	17644.1
442.501	18303.55
442.708	18616.89
442.914	19153.46
443.121	20126.24
443.328	19460.65
443.534	21092.88
443.741	20582.94
443.948	20146.72
444.154	21760.52
444.361	21635.6
444.568	21754.38
444.774	21694.99
444.981	21998.09
445.187	22671.87
445.394	23357.94
445.6	23202.29
445.807	25405.91
446.013	24336.87
446.22	24906.2
446.426	25780.68
446.633	25987.53
446.839	27093.43
447.046	25897.42
447.252	27267.51
447.459	27460.02
447.665	27169.21
447.871	28500.39
448.078	29440.4
448.284	28199.34
448.491	29313.43
448.697	30210.44
448.903	30869.89
449.11	30912.89
449.316	30359.94
449.522	30781.82
449.728	31963.5
449.935	31865.2
450.141	31752.56
450.347	32446.82
450.553	31394.17
450.76	32223.59
450.966	33247.58
451.172	32637.28
451.378	33433.94
451.584	33106.27
451.791	33579.35
451.997	33534.29
452.203	34197.84
452.409	34574.66
452.615	33884.5
452.821	32665.95
453.027	32741.73
453.233	34289.99
453.44	32887.14
453.646	33421.66
453.852	33313.11
454.058	34060.62
454.264	33124.7
454.47	33689.94
454.676	33063.26
454.882	33888.59
455.088	31222.14
455.294	31418.74
455.5	32102.76
455.705	32639.33
455.911	31127.93
456.117	30704
456.323	29979.02
456.529	28250.53
456.735	29673.87
456.941	28903.84
457.147	28565.92
457.352	27713.97
457.558	27077.05
457.764	27441.59
457.97	26610.11
458.176	25999.82
458.381	26339.78
458.587	25074.13
458.793	24990.17
458.999	23507.44
459.204	25475.54
459.41	24465.89
459.616	23028.21
459.821	23054.84
460.027	23054.84
460.233	22643.2
460.438	21535.24
460.644	21588.49
460.85	20650.52
461.055	20548.12
461.261	20242.98
461.466	18686.52
461.672	18336.32
461.878	19624.49
462.083	18270.78
462.289	17539.66
462.494	17685.06
462.7	16820.82
462.905	16443.99
463.111	16988.75
463.316	17185.36
463.522	16915.03
463.727	16593.5
463.932	16349.79
464.138	16673.37
464.343	16503.39
464.549	16224.86
464.754	16605.78
464.959	16489.05
465.165	16372.32
465.37	15747.69
465.575	15180.4
465.781	15958.63
465.986	16204.38
466.191	15372.91
466.397	15159.92
466.602	14484.09
466.807	15153.77
467.012	14895.73
467.218	14779
467.423	14518.9
467.628	14662.26
467.833	15534.7
468.038	14801.52
468.244	14193.28
