Data from USB4F104151__65__12-36-35-314.txt Node

Date: Fri Mar 14 12:36:35 EDT 2025
User: louis
Spectrometer: USB4F10415
Trigger mode: 4
Integration Time (sec): 2.000000E-2
Scans to average: 1
Electric dark correction enabled: true
Nonlinearity correction enabled: false
Boxcar width: 0
XAxis mode: Wavelengths
Number of Pixels in Spectrum: 3648
>>>>>Begin Spectral Data<<<<<
178.204	-63.83
178.424	-63.83
178.644	-63.83
178.864	-41.3
179.084	-65.88
179.304	48.81
179.524	9.9
179.744	9.9
179.964	28.33
180.184	-0.34
180.404	-8.53
180.624	24.23
180.844	-18.77
181.064	-53.59
181.283	-12.63
181.503	1.71
181.723	-29.01
181.943	-8.53
182.163	42.67
182.383	-0.34
182.602	13.99
182.822	97.96
183.042	52.91
183.262	57
183.482	67.24
183.701	81.58
183.921	57
184.141	26.28
184.361	36.52
184.58	16.04
184.8	54.95
185.02	50.86
185.239	22.19
185.459	63.15
185.679	57
185.898	65.19
186.118	48.81
186.338	-14.68
186.557	89.77
186.777	9.9
186.997	-35.16
187.216	26.28
187.436	30.38
187.655	-29.01
187.875	81.58
188.095	54.95
188.314	20.14
188.534	69.29
188.753	63.15
188.973	40.62
189.192	52.91
189.412	50.86
189.631	32.43
189.851	-26.96
190.07	59.05
190.29	104.11
190.509	20.14
190.729	-0.34
190.948	83.63
191.168	114.34
191.387	20.14
191.607	36.52
191.826	87.72
192.045	36.52
192.265	18.09
192.484	26.28
192.704	11.95
192.923	-6.49
193.142	61.1
193.362	28.33
193.581	108.2
193.8	-6.49
194.02	-24.92
194.239	59.05
194.458	100.01
194.678	73.39
194.897	77.48
195.116	-29.01
195.335	108.2
195.555	69.29
195.774	40.62
195.993	97.96
196.212	63.15
196.432	3.75
196.651	75.43
196.87	5.8
197.089	151.21
197.308	100.01
197.528	65.19
197.747	75.43
197.966	11.95
198.185	22.19
198.404	26.28
198.623	61.1
198.842	34.47
199.062	38.57
199.281	69.29
199.5	63.15
199.719	18.09
199.938	116.39
200.157	48.81
200.376	30.38
200.595	7.85
200.814	22.19
201.033	26.28
201.252	69.29
201.471	59.05
201.69	-37.2
201.909	69.29
202.128	77.48
202.347	22.19
202.566	28.33
202.785	57
203.004	-29.01
203.223	69.29
203.442	61.1
203.661	50.86
203.879	38.57
204.098	34.47
204.317	57
204.536	54.95
204.755	100.01
204.974	46.76
205.193	61.1
205.411	77.48
205.63	9.9
205.849	52.91
206.068	5.8
206.287	20.14
206.505	50.86
206.724	18.09
206.943	61.1
207.162	-8.53
207.381	24.23
207.599	18.09
207.818	65.19
208.037	65.19
208.255	-2.39
208.474	30.38
208.693	61.1
208.911	63.15
209.13	95.91
209.349	126.63
209.567	110.25
209.786	83.63
210.005	79.53
210.223	106.15
210.442	9.9
210.661	34.47
210.879	20.14
211.098	-6.49
211.316	130.73
211.535	11.95
211.753	22.19
211.972	63.15
212.191	22.19
212.409	44.71
212.628	95.91
212.846	-39.25
213.065	67.24
213.283	77.48
213.502	38.57
213.72	-8.53
213.938	57
214.157	120.49
214.375	77.48
214.594	24.23
214.812	57
215.031	61.1
215.249	16.04
215.467	46.76
215.686	-53.59
215.904	65.19
216.122	61.1
216.341	120.49
216.559	112.3
216.778	118.44
216.996	65.19
217.214	50.86
217.432	28.33
217.651	7.85
217.869	73.39
218.087	-14.68
218.306	30.38
218.524	61.1
218.742	20.14
218.96	63.15
219.179	54.95
219.397	114.34
219.615	79.53
219.833	-10.58
220.051	-2.39
220.27	24.23
220.488	9.9
220.706	46.76
220.924	52.91
221.142	50.86
221.36	48.81
221.578	34.47
221.796	22.19
222.015	54.95
222.233	114.34
222.451	102.06
222.669	34.47
222.887	79.53
223.105	79.53
223.323	24.23
223.541	42.67
223.759	85.67
223.977	63.15
224.195	120.49
224.413	95.91
224.631	57
224.849	89.77
225.067	26.28
225.285	5.8
225.503	20.14
225.721	-14.68
225.939	20.14
226.157	28.33
226.375	132.78
226.592	18.09
226.81	-20.82
227.028	11.95
227.246	83.63
227.464	13.99
227.682	63.15
227.9	36.52
228.117	89.77
228.335	38.57
228.553	77.48
228.771	63.15
228.989	24.23
229.206	54.95
229.424	93.87
229.642	52.91
229.86	48.81
230.077	42.67
230.295	77.48
230.513	69.29
230.731	-0.34
230.948	-22.87
231.166	128.68
231.384	16.04
231.601	83.63
231.819	46.76
232.037	13.99
232.254	11.95
232.472	110.25
232.689	11.95
232.907	40.62
233.125	50.86
233.342	34.47
233.56	7.85
233.777	30.38
233.995	54.95
234.213	42.67
234.43	5.8
234.648	44.71
234.865	18.09
235.083	65.19
235.3	61.1
235.518	81.58
235.735	106.15
235.953	61.1
236.17	34.47
236.388	93.87
236.605	67.24
236.822	24.23
237.04	18.09
237.257	24.23
237.475	18.09
237.692	5.8
237.909	-16.73
238.127	44.71
238.344	65.19
238.562	67.24
238.779	18.09
238.996	54.95
239.214	116.39
239.431	38.57
239.648	67.24
239.865	28.33
240.083	50.86
240.3	50.86
240.517	-16.73
240.735	24.23
240.952	-14.68
241.169	34.47
241.386	54.95
241.603	11.95
241.821	-76.12
242.038	52.91
242.255	26.28
242.472	-14.68
242.689	48.81
242.907	61.1
243.124	-22.87
243.341	48.81
243.558	32.43
243.775	54.95
243.992	-8.53
244.209	52.91
244.426	114.34
244.643	69.29
244.86	36.52
245.078	-12.63
245.295	104.11
245.512	38.57
245.729	16.04
245.946	40.62
246.163	59.05
246.38	52.91
246.597	97.96
246.814	46.76
247.031	48.81
247.248	155.3
247.464	-8.53
247.681	50.86
247.898	108.2
248.115	97.96
248.332	-12.63
248.549	124.58
248.766	85.67
248.983	38.57
249.2	-35.16
249.417	124.58
249.633	32.43
249.85	24.23
250.067	48.81
250.284	50.86
250.501	122.54
250.717	61.1
250.934	-24.92
251.151	59.05
251.368	61.1
251.585	52.91
251.801	7.85
252.018	65.19
252.235	69.29
252.451	34.47
252.668	13.99
252.885	63.15
253.102	38.57
253.318	59.05
253.535	46.76
253.752	-8.53
253.968	69.29
254.185	73.39
254.401	69.29
254.618	132.78
254.835	32.43
255.051	73.39
255.268	104.11
255.484	-0.34
255.701	128.68
255.917	5.8
256.134	9.9
256.351	110.25
256.567	69.29
256.784	77.48
257	-14.68
257.217	61.1
257.433	124.58
257.65	69.29
257.866	59.05
258.082	-35.16
258.299	18.09
258.515	97.96
258.732	114.34
258.948	-33.11
259.165	59.05
259.381	3.75
259.597	73.39
259.814	38.57
260.03	63.15
260.246	77.48
260.463	-24.92
260.679	40.62
260.895	75.43
261.112	91.82
261.328	83.63
261.544	155.3
261.761	34.47
261.977	97.96
262.193	3.75
262.409	36.52
262.626	20.14
262.842	73.39
263.058	-57.68
263.274	-4.44
263.49	32.43
263.707	44.71
263.923	63.15
264.139	5.8
264.355	104.11
264.571	32.43
264.787	57
265.004	100.01
265.22	97.96
265.436	50.86
265.652	48.81
265.868	104.11
266.084	48.81
266.3	67.24
266.516	-10.58
266.732	36.52
266.948	61.1
267.164	67.24
267.38	106.15
267.596	71.34
267.812	97.96
268.028	40.62
268.244	95.91
268.46	40.62
268.676	26.28
268.892	67.24
269.108	26.28
269.324	75.43
269.54	1.71
269.756	50.86
269.972	-20.82
270.188	16.04
270.403	7.85
270.619	9.9
270.835	40.62
271.051	28.33
271.267	30.38
271.483	11.95
271.698	40.62
271.914	59.05
272.13	71.34
272.346	63.15
272.562	36.52
272.777	85.67
272.993	-4.44
273.209	9.9
273.425	28.33
273.64	-14.68
273.856	67.24
274.072	28.33
274.287	38.57
274.503	75.43
274.719	28.33
274.934	-2.39
275.15	-8.53
275.366	54.95
275.581	11.95
275.797	44.71
276.012	-49.49
276.228	3.75
276.444	104.11
276.659	130.73
276.875	95.91
277.09	16.04
277.306	57
277.521	63.15
277.737	59.05
277.952	130.73
278.168	18.09
278.383	102.06
278.599	77.48
278.814	52.91
279.03	73.39
279.245	36.52
279.461	18.09
279.676	100.01
279.892	77.48
280.107	42.67
280.322	18.09
280.538	91.82
280.753	97.96
280.969	-2.39
281.184	87.72
281.399	34.47
281.615	67.24
281.83	95.91
282.045	63.15
282.26	40.62
282.476	134.82
282.691	54.95
282.906	46.76
283.122	120.49
283.337	18.09
283.552	102.06
283.767	89.77
283.983	52.91
284.198	52.91
284.413	16.04
284.628	38.57
284.843	52.91
285.058	143.02
285.274	75.43
285.489	79.53
285.704	110.25
285.919	13.99
286.134	108.2
286.349	44.71
286.564	97.96
286.779	95.91
286.995	34.47
287.21	24.23
287.425	42.67
287.64	36.52
287.855	34.47
288.07	-14.68
288.285	75.43
288.5	63.15
288.715	67.24
288.93	61.1
289.145	42.67
289.36	22.19
289.575	108.2
289.79	9.9
290.004	20.14
290.219	126.63
290.434	116.39
290.649	93.87
290.864	-20.82
291.079	128.68
291.294	50.86
291.509	30.38
291.724	77.48
291.938	50.86
292.153	100.01
292.368	34.47
292.583	16.04
292.798	91.82
293.012	81.58
293.227	65.19
293.442	-6.49
293.657	75.43
293.871	69.29
294.086	5.8
294.301	87.72
294.516	24.23
294.73	26.28
294.945	1.71
295.16	136.87
295.374	71.34
295.589	83.63
295.804	36.52
296.018	130.73
296.233	81.58
296.447	-0.34
296.662	1.71
296.877	192.17
297.091	28.33
297.306	-16.73
297.52	-0.34
297.735	124.58
297.949	112.3
298.164	97.96
298.378	122.54
298.593	7.85
298.807	18.09
299.022	-16.73
299.236	57
299.451	85.67
299.665	30.38
299.88	24.23
300.094	79.53
300.309	91.82
300.523	69.29
300.737	73.39
300.952	38.57
301.166	165.54
301.381	61.1
301.595	52.91
301.809	30.38
302.024	36.52
302.238	52.91
302.452	46.76
302.667	77.48
302.881	50.86
303.095	65.19
303.309	93.87
303.524	16.04
303.738	134.82
303.952	-0.34
304.166	116.39
304.381	-12.63
304.595	116.39
304.809	-10.58
305.023	65.19
305.237	38.57
305.452	11.95
305.666	61.1
305.88	-6.49
306.094	157.35
306.308	118.44
306.522	93.87
306.736	91.82
306.95	11.95
307.164	5.8
307.379	108.2
307.593	69.29
307.807	114.34
308.021	91.82
308.235	26.28
308.449	13.99
308.663	190.12
308.877	89.77
309.091	89.77
309.305	91.82
309.519	-29.01
309.733	104.11
309.947	79.53
310.161	69.29
310.374	44.71
310.588	26.28
310.802	124.58
311.016	-33.11
311.23	26.28
311.444	110.25
311.658	48.81
311.872	65.19
312.085	52.91
312.299	110.25
312.513	106.15
312.727	91.82
312.941	22.19
313.154	1.71
313.368	63.15
313.582	87.72
313.796	71.34
314.009	52.91
314.223	36.52
314.437	102.06
314.651	63.15
314.864	65.19
315.078	46.76
315.292	57
315.505	36.52
315.719	79.53
315.933	7.85
316.146	89.77
316.36	34.47
316.573	138.92
316.787	100.01
317.001	67.24
317.214	61.1
317.428	110.25
317.641	20.14
317.855	97.96
318.068	71.34
318.282	22.19
318.495	85.67
318.709	97.96
318.922	114.34
319.136	95.91
319.349	40.62
319.563	22.19
319.776	140.97
319.99	69.29
320.203	59.05
320.417	147.11
320.63	48.81
320.843	81.58
321.057	44.71
321.27	36.52
321.483	61.1
321.697	106.15
321.91	52.91
322.124	65.19
322.337	34.47
322.55	11.95
322.763	3.75
322.977	32.43
323.19	11.95
323.403	13.99
323.617	32.43
323.83	85.67
324.043	50.86
324.256	69.29
324.469	22.19
324.683	112.3
324.896	5.8
325.109	73.39
325.322	3.75
325.535	85.67
325.748	132.78
325.962	3.75
326.175	42.67
326.388	59.05
326.601	63.15
326.814	54.95
327.027	71.34
327.24	122.54
327.453	-12.63
327.666	32.43
327.879	102.06
328.092	85.67
328.305	65.19
328.518	67.24
328.731	89.77
328.944	16.04
329.157	1.71
329.37	97.96
329.583	46.76
329.796	93.87
330.009	75.43
330.222	89.77
330.435	81.58
330.648	32.43
330.861	108.2
331.073	89.77
331.286	104.11
331.499	102.06
331.712	24.23
331.925	67.24
332.138	61.1
332.35	30.38
332.563	22.19
332.776	102.06
332.989	97.96
333.202	126.63
333.414	89.77
333.627	77.48
333.84	57
334.053	75.43
334.265	140.97
334.478	11.95
334.691	36.52
334.903	100.01
335.116	7.85
335.329	95.91
335.541	77.48
335.754	140.97
335.966	32.43
336.179	81.58
336.392	50.86
336.604	95.91
336.817	59.05
337.029	89.77
337.242	153.26
337.454	38.57
337.667	57
337.88	97.96
338.092	34.47
338.305	159.4
338.517	-4.44
338.729	130.73
338.942	11.95
339.154	40.62
339.367	-33.11
339.579	93.87
339.792	38.57
340.004	114.34
340.217	-24.92
340.429	44.71
340.641	32.43
340.854	42.67
341.066	-8.53
341.278	83.63
341.491	124.58
341.703	54.95
341.915	42.67
342.128	57
342.34	116.39
342.552	48.81
342.764	97.96
342.977	95.91
343.189	30.38
343.401	140.97
343.613	69.29
343.826	-0.34
344.038	50.86
344.25	24.23
344.462	36.52
344.674	69.29
344.886	28.33
345.099	54.95
345.311	138.92
345.523	83.63
345.735	16.04
345.947	79.53
346.159	59.05
346.371	34.47
346.583	7.85
346.795	97.96
347.007	106.15
347.219	120.49
347.431	67.24
347.643	126.63
347.855	102.06
348.067	18.09
348.279	16.04
348.491	85.67
348.703	59.05
348.915	132.78
349.127	30.38
349.339	34.47
349.551	50.86
349.763	87.72
349.975	69.29
350.187	132.78
350.399	93.87
350.61	59.05
350.822	120.49
351.034	120.49
351.246	95.91
351.458	50.86
351.669	54.95
351.881	136.87
352.093	40.62
352.305	13.99
352.517	48.81
352.728	32.43
352.94	42.67
353.152	85.67
353.363	5.8
353.575	65.19
353.787	28.33
353.999	44.71
354.21	104.11
354.422	95.91
354.633	126.63
354.845	73.39
355.057	46.76
355.268	95.91
355.48	38.57
355.692	36.52
355.903	81.58
356.115	91.82
356.326	36.52
356.538	91.82
356.749	91.82
356.961	81.58
357.172	38.57
357.384	3.75
357.595	67.24
357.807	75.43
358.018	52.91
358.23	26.28
358.441	126.63
358.653	169.64
358.864	32.43
359.075	20.14
359.287	18.09
359.498	95.91
359.709	77.48
359.921	106.15
360.132	71.34
360.344	52.91
360.555	106.15
360.766	138.92
360.977	112.3
361.189	196.26
361.4	85.67
361.611	59.05
361.823	128.68
362.034	83.63
362.245	122.54
362.456	83.63
362.667	38.57
362.879	40.62
363.09	104.11
363.301	145.06
363.512	102.06
363.723	89.77
363.935	89.77
364.146	97.96
364.357	102.06
364.568	75.43
364.779	89.77
364.99	69.29
365.201	126.63
365.412	112.3
365.623	110.25
365.834	32.43
366.045	114.34
366.256	143.02
366.467	81.58
366.678	143.02
366.889	104.11
367.1	95.91
367.311	57
367.522	83.63
367.733	116.39
367.944	81.58
368.155	26.28
368.366	106.15
368.577	124.58
368.788	147.11
368.999	46.76
369.209	104.11
369.42	61.1
369.631	112.3
369.842	112.3
370.053	5.8
370.264	65.19
370.474	69.29
370.685	102.06
370.896	79.53
371.107	71.34
371.317	108.2
371.528	89.77
371.739	81.58
371.95	54.95
372.16	93.87
372.371	63.15
372.582	102.06
372.792	138.92
373.003	93.87
373.214	59.05
373.424	65.19
373.635	85.67
373.846	91.82
374.056	147.11
374.267	87.72
374.477	79.53
374.688	114.34
374.898	24.23
375.109	40.62
375.319	110.25
375.53	132.78
375.74	52.91
375.951	67.24
376.161	118.44
376.372	71.34
376.582	112.3
376.793	95.91
377.003	46.76
377.214	75.43
377.424	95.91
377.635	126.63
377.845	54.95
378.055	79.53
378.266	-22.87
378.476	81.58
378.686	95.91
378.897	83.63
379.107	34.47
379.317	108.2
379.528	30.38
379.738	153.26
379.948	46.76
380.158	134.82
380.369	65.19
380.579	71.34
380.789	83.63
380.999	118.44
381.21	79.53
381.42	59.05
381.63	30.38
381.84	73.39
382.05	61.1
382.261	143.02
382.471	112.3
382.681	40.62
382.891	110.25
383.101	91.82
383.311	83.63
383.521	57
383.731	79.53
383.941	46.76
384.151	95.91
384.361	173.74
384.571	71.34
384.781	91.82
384.991	114.34
385.201	163.5
385.411	120.49
385.621	61.1
385.831	83.63
386.041	136.87
386.251	108.2
386.461	132.78
386.671	81.58
386.881	34.47
387.091	50.86
387.301	102.06
387.511	100.01
387.72	159.4
387.93	85.67
388.14	97.96
388.35	93.87
388.56	67.24
388.769	132.78
388.979	155.3
389.189	75.43
389.399	95.91
389.609	122.54
389.818	71.34
390.028	116.39
390.238	124.58
390.447	112.3
390.657	118.44
390.867	59.05
391.076	128.68
391.286	100.01
391.496	120.49
391.705	118.44
391.915	145.06
392.125	165.54
392.334	130.73
392.544	198.31
392.753	120.49
392.963	85.67
393.172	130.73
393.382	97.96
393.591	95.91
393.801	75.43
394.01	114.34
394.22	171.69
394.429	77.48
394.639	143.02
394.848	136.87
395.058	36.52
395.267	138.92
395.477	220.84
395.686	100.01
395.895	241.32
396.105	153.26
396.314	196.26
396.524	138.92
396.733	145.06
396.942	136.87
397.152	128.68
397.361	169.64
397.57	159.4
397.78	140.97
397.989	77.48
398.198	145.06
398.407	167.59
398.617	124.58
398.826	175.78
399.035	165.54
399.244	167.59
399.453	100.01
399.663	179.88
399.872	216.74
400.081	77.48
400.29	249.51
400.499	140.97
400.708	114.34
400.917	112.3
401.127	194.22
401.336	145.06
401.545	245.41
401.754	181.93
401.963	200.36
402.172	140.97
402.381	118.44
402.59	167.59
402.799	220.84
403.008	177.83
403.217	247.46
403.426	190.12
403.635	274.09
403.844	173.74
404.053	220.84
404.262	304.81
404.471	272.04
404.68	331.43
404.888	233.13
405.097	198.31
405.306	216.74
405.515	204.46
405.724	218.79
405.933	222.89
406.142	188.07
406.35	259.75
406.559	298.66
406.768	276.13
406.977	296.61
407.185	362.15
407.394	376.48
407.603	280.23
407.812	319.14
408.02	435.88
408.229	378.53
408.438	366.25
408.646	405.16
408.855	360.1
409.064	421.54
409.272	347.81
409.481	444.07
409.69	489.12
409.898	497.32
410.107	464.55
410.315	493.22
410.524	470.69
410.733	485.03
410.941	468.64
411.15	564.9
411.358	585.38
411.567	607.91
411.775	550.56
411.984	616.1
412.192	693.92
412.401	638.62
412.609	722.59
412.818	714.4
413.026	802.46
413.234	779.93
413.443	710.3
413.651	757.41
413.86	853.66
414.068	890.53
414.276	911
414.485	933.53
414.693	935.58
414.901	1044.12
415.11	1037.98
415.318	1044.12
415.526	1044.12
415.734	1119.9
415.943	1123.99
416.151	1255.06
416.359	1195.67
416.567	1298.07
416.776	1253.02
416.984	1453.72
417.192	1375.89
417.4	1480.34
417.608	1482.39
417.817	1556.11
418.025	1592.98
418.233	1697.42
418.441	1717.9
418.649	1779.34
418.857	1791.63
419.065	1996.43
419.273	1805.97
419.481	2031.24
419.689	2057.87
419.897	2240.14
420.105	2190.99
420.313	2236.04
420.521	2381.45
420.729	2416.26
420.937	2393.73
421.145	2539.14
421.353	2731.65
421.561	2858.62
421.769	2782.85
421.977	3044.99
422.185	2930.3
422.393	3194.49
422.601	3389.05
422.809	3401.33
423.017	3339.9
423.224	3599.99
423.432	3638.9
423.64	3772.02
423.848	4021.87
424.056	3913.33
424.263	4269.67
424.471	4308.58
424.679	4353.64
424.887	4634.21
425.094	4769.38
425.302	4722.27
425.51	4896.35
425.718	5033.57
425.925	5074.53
426.133	5209.69
426.341	5469.78
426.548	5709.4
426.756	5889.62
426.964	5746.26
427.171	6272.59
427.379	6381.13
427.586	6575.69
427.794	6725.19
428.001	6997.57
428.209	7321.15
428.417	7245.37
428.624	7562.81
428.832	7607.86
429.039	7693.88
429.247	7493.18
429.454	8252.97
429.662	8955.43
429.869	8427.05
430.076	8889.89
430.284	8691.24
430.491	9113.12
430.699	9618.97
430.906	9633.3
431.114	9762.33
431.321	10253.84
431.528	10460.68
431.736	10851.85
431.943	11478.52
432.15	11073.03
432.358	11261.44
432.565	11912.69
432.772	11877.88
432.979	12398.06
433.187	12707.3
433.394	12668.39
433.601	13608.41
433.808	13821.4
434.016	13784.54
434.223	14327.25
434.43	15158.72
434.637	14480.85
434.844	15635.9
435.052	15910.33
435.259	15977.91
435.466	15955.38
435.673	15672.76
435.88	16602.54
436.087	17665.44
436.294	17700.25
436.501	17016.23
436.708	17769.88
436.915	18283.92
437.122	19047.82
437.329	18879.88
437.537	19729.79
437.743	20112.76
437.95	19811.71
438.157	20768.11
438.364	21984.6
438.571	21562.72
438.778	21599.59
438.985	23694.66
439.192	22746.45
439.399	23358.79
439.606	23045.45
439.813	24528.18
440.02	25683.23
440.227	25365.8
440.433	24997.17
440.64	25840.93
440.847	26068.25
441.054	26172.7
441.261	28165.37
441.467	27706.63
441.674	28290.3
441.881	29428.97
442.088	29138.16
442.294	29039.86
442.501	30063.84
442.708	30739.67
442.914	31560.91
443.121	33072.31
443.328	32009.41
443.534	34020.52
443.741	33453.23
443.948	32838.84
444.154	35290.26
444.361	34856.09
444.568	35017.88
444.774	34991.25
444.981	36023.43
445.187	37012.6
445.394	37878.89
445.6	37819.5
445.807	41475.12
446.013	39480.4
446.22	40559.68
446.426	42267.69
446.633	42193.96
446.839	43486.23
447.046	41620.53
447.252	43883.53
447.459	44497.92
447.665	44096.52
447.871	45986.8
448.078	47643.6
448.284	45579.25
448.491	46705.63
448.697	48978.88
448.903	49378.23
449.11	49484.73
449.316	48741.31
449.522	49742.77
449.728	50946.98
449.935	51360.67
450.141	51653.53
450.347	51921.81
450.553	50885.54
450.76	51522.46
450.966	52984.71
451.172	52398.99
451.378	53867.38
451.584	52910.98
451.791	54201.2
451.997	53918.58
452.203	54956.9
452.409	54633.32
452.615	54459.24
452.821	52894.6
453.027	52192.14
453.233	55102.31
453.44	52640.65
453.646	53379.96
453.852	53746.55
454.058	54240.11
454.264	52609.93
454.47	53810.04
454.676	52329.36
454.882	54111.09
455.088	49470.39
455.294	50500.52
455.5	51280.8
455.705	51719.06
455.911	49918.9
456.117	48690.12
456.323	48190.41
456.529	45587.44
456.735	47506.39
456.941	46392.29
457.147	46298.09
457.352	44459.01
457.558	43998.22
457.764	43912.2
457.97	43117.59
458.176	42058.79
458.381	42079.27
458.587	40518.72
458.793	40191.05
458.999	38124.64
459.204	40920.12
459.41	40068.17
459.616	37084.28
459.821	37233.78
460.027	37145.72
460.233	36426.88
460.438	34782.36
460.644	34792.6
460.85	33408.17
461.055	33223.86
461.261	32705.72
461.466	30143.71
461.672	29213.93
461.878	31587.53
462.083	29478.12
462.289	29076.72
462.494	28714.23
462.7	27432.2
462.905	26613.01
463.111	27325.71
463.316	27479.3
463.522	27063.57
463.727	26699.03
463.932	27055.37
464.138	26959.12
464.343	27227.4
464.549	25748.77
464.754	26883.34
464.959	26961.17
465.165	26395.93
465.37	25118
465.575	24583.48
465.781	25570.6
465.986	25740.58
466.191	24812.85
466.397	24458.55
466.602	23072.07
