Data from USB4F104151__91__12-37-07-411.txt Node

Date: Fri Mar 14 12:37:07 EDT 2025
User: louis
Spectrometer: USB4F10415
Trigger mode: 4
Integration Time (sec): 2.000000E-2
Scans to average: 1
Electric dark correction enabled: true
Nonlinearity correction enabled: false
Boxcar width: 0
XAxis mode: Wavelengths
Number of Pixels in Spectrum: 3648
>>>>>Begin Spectral Data<<<<<
178.204	-72.7
178.424	-72.7
178.644	-72.7
178.864	-72.7
179.084	-95.23
179.304	-37.89
179.524	-21.5
179.744	-93.18
179.964	58.37
180.184	-23.55
180.404	13.31
180.624	37.89
180.844	39.94
181.064	-44.03
181.283	15.36
181.503	7.17
181.723	48.13
181.943	-31.74
182.163	80.89
182.383	-7.17
182.602	-9.22
182.822	39.94
183.042	23.55
183.262	11.26
183.482	9.22
183.701	-27.65
183.921	70.65
184.141	-15.36
184.361	35.84
184.58	44.03
184.8	-13.31
185.02	-54.27
185.239	37.89
185.459	21.5
185.679	105.47
185.898	-46.08
186.118	-27.65
186.338	-11.26
186.557	39.94
186.777	33.79
186.997	23.55
187.216	27.65
187.436	84.99
187.655	13.31
187.875	58.37
188.095	-11.26
188.314	15.36
188.534	39.94
188.753	74.75
188.973	15.36
189.192	5.12
189.412	76.8
189.631	21.5
189.851	11.26
190.07	44.03
190.29	13.31
190.509	21.5
190.729	54.27
190.948	54.27
191.168	140.29
191.387	56.32
191.607	58.37
191.826	52.22
192.045	1.02
192.265	64.51
192.484	-50.18
192.704	87.04
192.923	17.41
193.142	93.18
193.362	60.42
193.581	41.98
193.8	23.55
194.02	48.13
194.239	-37.89
194.458	52.22
194.678	68.61
194.897	-21.5
195.116	5.12
195.335	66.56
195.555	33.79
195.774	-23.55
195.993	27.65
196.212	25.6
196.432	50.18
196.651	-54.27
196.87	39.94
197.089	72.7
197.308	27.65
197.528	56.32
197.747	109.57
197.966	62.46
198.185	72.7
198.404	44.03
198.623	60.42
198.842	5.12
199.062	60.42
199.281	31.74
199.5	-58.37
199.719	39.94
199.938	33.79
200.157	58.37
200.376	17.41
200.595	13.31
200.814	9.22
201.033	-13.31
201.252	76.8
201.471	-23.55
201.69	41.98
201.909	21.5
202.128	-1.02
202.347	95.23
202.566	23.55
202.785	60.42
203.004	37.89
203.223	52.22
203.442	25.6
203.661	-54.27
203.879	25.6
204.098	74.75
204.317	76.8
204.536	-5.12
204.755	25.6
204.974	-31.74
205.193	11.26
205.411	84.99
205.63	15.36
205.849	89.09
206.068	52.22
206.287	29.7
206.505	-19.46
206.724	54.27
206.943	7.17
207.162	23.55
207.381	-5.12
207.599	56.32
207.818	17.41
208.037	-52.22
208.255	-21.5
208.474	-7.17
208.693	70.65
208.911	-11.26
209.13	54.27
209.349	54.27
209.567	-21.5
209.786	99.33
210.005	27.65
210.223	41.98
210.442	11.26
210.661	-46.08
210.879	60.42
211.098	62.46
211.316	11.26
211.535	5.12
211.753	-7.17
211.972	15.36
212.191	66.56
212.409	82.94
212.628	17.41
212.846	31.74
213.065	-41.98
213.283	84.99
213.502	5.12
213.72	17.41
213.938	93.18
214.157	1.02
214.375	1.02
214.594	52.22
214.812	23.55
215.031	74.75
215.249	50.18
215.467	19.46
215.686	60.42
215.904	64.51
216.122	27.65
216.341	62.46
216.559	50.18
216.778	19.46
216.996	9.22
217.214	68.61
217.432	11.26
217.651	60.42
217.869	-39.94
218.087	9.22
218.306	60.42
218.524	56.32
218.742	60.42
218.96	58.37
219.179	-17.41
219.397	3.07
219.615	107.52
219.833	31.74
220.051	23.55
220.27	58.37
220.488	1.02
220.706	13.31
220.924	78.85
221.142	-27.65
221.36	1.02
221.578	33.79
221.796	-7.17
222.015	-23.55
222.233	58.37
222.451	80.89
222.669	-5.12
222.887	89.09
223.105	33.79
223.323	31.74
223.541	9.22
223.759	13.31
223.977	21.5
224.195	80.89
224.413	19.46
224.631	25.6
224.849	-3.07
225.067	93.18
225.285	-39.94
225.503	23.55
225.721	-21.5
225.939	9.22
226.157	19.46
226.375	70.65
226.592	54.27
226.81	-9.22
227.028	7.17
227.246	72.7
227.464	7.17
227.682	56.32
227.9	11.26
228.117	117.76
228.335	-15.36
228.553	11.26
228.771	64.51
228.989	29.7
229.206	5.12
229.424	39.94
229.642	-52.22
229.86	-3.07
230.077	15.36
230.295	11.26
230.513	109.57
230.731	56.32
230.948	64.51
231.166	19.46
231.384	41.98
231.601	33.79
231.819	58.37
232.037	1.02
232.254	29.7
232.472	-23.55
232.689	54.27
232.907	148.48
233.125	35.84
233.342	56.32
233.56	23.55
233.777	48.13
233.995	62.46
234.213	76.8
234.43	7.17
234.648	50.18
234.865	72.7
235.083	-19.46
235.3	39.94
235.518	-21.5
235.735	37.89
235.953	-15.36
236.17	-21.5
236.388	70.65
236.605	44.03
236.822	-39.94
237.04	-23.55
237.257	17.41
237.475	-33.79
237.692	23.55
237.909	-9.22
238.127	58.37
238.344	-1.02
238.562	27.65
238.779	1.02
238.996	-1.02
239.214	15.36
239.431	21.5
239.648	64.51
239.865	-17.41
240.083	3.07
240.3	7.17
240.517	37.89
240.735	37.89
240.952	15.36
241.169	74.75
241.386	68.61
241.603	15.36
241.821	21.5
242.038	41.98
242.255	7.17
242.472	-37.89
242.689	140.29
242.907	62.46
243.124	5.12
243.341	23.55
243.558	-21.5
243.775	66.56
243.992	-46.08
244.209	50.18
244.426	111.61
244.643	70.65
244.86	70.65
245.078	41.98
245.295	62.46
245.512	50.18
245.729	-62.46
245.946	41.98
246.163	39.94
246.38	54.27
246.597	13.31
246.814	89.09
247.031	50.18
247.248	-44.03
247.464	68.61
247.681	9.22
247.898	109.57
248.115	33.79
248.332	9.22
248.549	37.89
248.766	76.8
248.983	17.41
249.2	58.37
249.417	70.65
249.633	-21.5
249.85	11.26
250.067	58.37
250.284	21.5
250.501	17.41
250.717	44.03
250.934	-44.03
251.151	27.65
251.368	33.79
251.585	89.09
251.801	15.36
252.018	82.94
252.235	-23.55
252.451	50.18
252.668	70.65
252.885	54.27
253.102	68.61
253.318	11.26
253.535	-56.32
253.752	31.74
253.968	11.26
254.185	-1.02
254.401	21.5
254.618	58.37
254.835	3.07
255.051	95.23
255.268	5.12
255.484	31.74
255.701	-17.41
255.917	27.65
256.134	19.46
256.351	78.85
256.567	-50.18
256.784	31.74
257	-27.65
257.217	25.6
257.433	13.31
257.65	50.18
257.866	-11.26
258.082	-27.65
258.299	19.46
258.515	13.31
258.732	-17.41
258.948	78.85
259.165	50.18
259.381	84.99
259.597	-11.26
259.814	74.75
260.03	7.17
260.246	74.75
260.463	46.08
260.679	109.57
260.895	41.98
261.112	29.7
261.328	-27.65
261.544	3.07
261.761	56.32
261.977	50.18
262.193	35.84
262.409	84.99
262.626	62.46
262.842	21.5
263.058	76.8
263.274	29.7
263.49	13.31
263.707	21.5
263.923	39.94
264.139	5.12
264.355	-13.31
264.571	58.37
264.787	62.46
265.004	93.18
265.22	74.75
265.436	39.94
265.652	99.33
265.868	-23.55
266.084	13.31
266.3	19.46
266.516	-5.12
266.732	113.66
266.948	7.17
267.164	-23.55
267.38	11.26
267.596	99.33
267.812	134.14
268.028	3.07
268.244	44.03
268.46	39.94
268.676	7.17
268.892	-15.36
269.108	-31.74
269.324	66.56
269.54	15.36
269.756	105.47
269.972	41.98
270.188	25.6
270.403	58.37
270.619	60.42
270.835	19.46
271.051	41.98
271.267	-1.02
271.483	68.61
271.698	-31.74
271.914	91.13
272.13	-19.46
272.346	80.89
272.562	60.42
272.777	-21.5
272.993	15.36
273.209	39.94
273.425	3.07
273.64	29.7
273.856	-3.07
274.072	50.18
274.287	-27.65
274.503	-23.55
274.719	15.36
274.934	-13.31
275.15	-29.7
275.366	-52.22
275.581	54.27
275.797	27.65
276.012	35.84
276.228	99.33
276.444	70.65
276.659	-9.22
276.875	15.36
277.09	33.79
277.306	60.42
277.521	17.41
277.737	3.07
277.952	82.94
278.168	58.37
278.383	54.27
278.599	23.55
278.814	87.04
279.03	21.5
279.245	-15.36
279.461	64.51
279.676	78.85
279.892	17.41
280.107	31.74
280.322	80.89
280.538	39.94
280.753	-41.98
280.969	91.13
281.184	29.7
281.399	21.5
281.615	7.17
281.83	35.84
282.045	-21.5
282.26	-5.12
282.476	35.84
282.691	44.03
282.906	31.74
283.122	-9.22
283.337	66.56
283.552	82.94
283.767	48.13
283.983	23.55
284.198	-19.46
284.413	-54.27
284.628	-3.07
284.843	82.94
285.058	44.03
285.274	-5.12
285.489	44.03
285.704	99.33
285.919	62.46
286.134	17.41
286.349	25.6
286.564	80.89
286.779	103.42
286.995	66.56
287.21	29.7
287.425	39.94
287.64	48.13
287.855	62.46
288.07	1.02
288.285	78.85
288.5	13.31
288.715	29.7
288.93	52.22
289.145	115.71
289.36	3.07
289.575	50.18
289.79	93.18
290.004	68.61
290.219	44.03
290.434	29.7
290.649	13.31
290.864	52.22
291.079	48.13
291.294	50.18
291.509	93.18
291.724	9.22
291.938	25.6
292.153	15.36
292.368	50.18
292.583	-7.17
292.798	72.7
293.012	39.94
293.227	58.37
293.442	25.6
293.657	84.99
293.871	103.42
294.086	48.13
294.301	107.52
294.516	17.41
294.73	50.18
294.945	27.65
295.16	48.13
295.374	48.13
295.589	33.79
295.804	37.89
296.018	39.94
296.233	27.65
296.447	29.7
296.662	15.36
296.877	5.12
297.091	76.8
297.306	48.13
297.52	19.46
297.735	31.74
297.949	84.99
298.164	84.99
298.378	52.22
298.593	19.46
298.807	68.61
299.022	21.5
299.236	9.22
299.451	9.22
299.665	17.41
299.88	33.79
300.094	52.22
300.309	76.8
300.523	39.94
300.737	35.84
300.952	44.03
301.166	25.6
301.381	7.17
301.595	62.46
301.809	5.12
302.024	50.18
302.238	-3.07
302.452	95.23
302.667	37.89
302.881	37.89
303.095	68.61
303.309	54.27
303.524	68.61
303.738	13.31
303.952	-5.12
304.166	54.27
304.381	-13.31
304.595	11.26
304.809	39.94
305.023	111.61
305.237	-13.31
305.452	50.18
305.666	-7.17
305.88	93.18
306.094	5.12
306.308	50.18
306.522	29.7
306.736	95.23
306.95	58.37
307.164	-1.02
307.379	-44.03
307.593	93.18
307.807	-11.26
308.021	44.03
308.235	93.18
308.449	13.31
308.663	91.13
308.877	56.32
309.091	140.29
309.305	23.55
309.519	25.6
309.733	62.46
309.947	29.7
310.161	80.89
310.374	66.56
310.588	74.75
310.802	17.41
311.016	29.7
311.23	25.6
311.444	31.74
311.658	-15.36
311.872	39.94
312.085	58.37
312.299	62.46
312.513	58.37
312.727	23.55
312.941	82.94
313.154	-9.22
313.368	29.7
313.582	19.46
313.796	80.89
314.009	33.79
314.223	84.99
314.437	23.55
314.651	58.37
314.864	31.74
315.078	27.65
315.292	23.55
315.505	58.37
315.719	-3.07
315.933	68.61
316.146	-7.17
316.36	113.66
316.573	29.7
316.787	74.75
317.001	46.08
317.214	-3.07
317.428	39.94
317.641	-21.5
317.855	72.7
318.068	-60.42
318.282	21.5
318.495	23.55
318.709	58.37
318.922	91.13
319.136	9.22
319.349	87.04
319.563	27.65
319.776	-11.26
319.99	68.61
320.203	54.27
320.417	46.08
320.63	5.12
320.843	56.32
321.057	93.18
321.27	15.36
321.483	41.98
321.697	-11.26
321.91	5.12
322.124	19.46
322.337	17.41
322.55	121.85
322.763	-3.07
322.977	19.46
323.19	-7.17
323.403	97.28
323.617	64.51
323.83	35.84
324.043	37.89
324.256	62.46
324.469	21.5
324.683	89.09
324.896	-31.74
325.109	-11.26
325.322	-11.26
325.535	39.94
325.748	95.23
325.962	56.32
326.175	35.84
326.388	99.33
326.601	60.42
326.814	93.18
327.027	70.65
327.24	70.65
327.453	25.6
327.666	11.26
327.879	46.08
328.092	48.13
328.305	33.79
328.518	15.36
328.731	-70.65
328.944	11.26
329.157	13.31
329.37	3.07
329.583	95.23
329.796	74.75
330.009	46.08
330.222	84.99
330.435	29.7
330.648	46.08
330.861	-1.02
331.073	41.98
331.286	70.65
331.499	48.13
331.712	19.46
331.925	54.27
332.138	95.23
332.35	99.33
332.563	35.84
332.776	93.18
332.989	68.61
333.202	17.41
333.414	-33.79
333.627	11.26
333.84	39.94
334.053	21.5
334.265	21.5
334.478	58.37
334.691	78.85
334.903	27.65
335.116	-5.12
335.329	31.74
335.541	93.18
335.754	48.13
335.966	103.42
336.179	46.08
336.392	13.31
336.604	91.13
336.817	13.31
337.029	144.38
337.242	33.79
337.454	150.53
337.667	60.42
337.88	-5.12
338.092	23.55
338.305	113.66
338.517	52.22
338.729	35.84
338.942	99.33
339.154	5.12
339.367	11.26
339.579	87.04
339.792	46.08
340.004	33.79
340.217	62.46
340.429	48.13
340.641	15.36
340.854	15.36
341.066	35.84
341.278	48.13
341.491	93.18
341.703	27.65
341.915	-21.5
342.128	-1.02
342.34	54.27
342.552	62.46
342.764	39.94
342.977	13.31
343.189	27.65
343.401	82.94
343.613	58.37
343.826	64.51
344.038	25.6
344.25	33.79
344.462	13.31
344.674	70.65
344.886	60.42
345.099	21.5
345.311	5.12
345.523	91.13
345.735	74.75
345.947	25.6
346.159	103.42
346.371	82.94
346.583	119.81
346.795	132.09
347.007	44.03
347.219	39.94
347.431	21.5
347.643	66.56
347.855	5.12
348.067	76.8
348.279	46.08
348.491	25.6
348.703	23.55
348.915	56.32
349.127	64.51
349.339	39.94
349.551	19.46
349.763	52.22
349.975	19.46
350.187	41.98
350.399	105.47
350.61	7.17
350.822	80.89
351.034	11.26
351.246	35.84
351.458	-5.12
351.669	13.31
351.881	111.61
352.093	95.23
352.305	64.51
352.517	37.89
352.728	50.18
352.94	23.55
353.152	91.13
353.363	54.27
353.575	15.36
353.787	52.22
353.999	52.22
354.21	44.03
354.422	21.5
354.633	27.65
354.845	21.5
355.057	33.79
355.268	60.42
355.48	44.03
355.692	9.22
355.903	37.89
356.115	123.9
356.326	11.26
356.538	91.13
356.749	56.32
356.961	89.09
357.172	62.46
357.384	21.5
357.595	125.95
357.807	84.99
358.018	7.17
358.23	70.65
358.441	93.18
358.653	60.42
358.864	54.27
359.075	5.12
359.287	54.27
359.498	56.32
359.709	60.42
359.921	56.32
360.132	72.7
360.344	74.75
360.555	82.94
360.766	72.7
360.977	23.55
361.189	66.56
361.4	-15.36
361.611	72.7
361.823	87.04
362.034	44.03
362.245	-25.6
362.456	52.22
362.667	101.37
362.879	56.32
363.09	44.03
363.301	66.56
363.512	13.31
363.723	89.09
363.935	5.12
364.146	115.71
364.357	37.89
364.568	19.46
364.779	9.22
364.99	89.09
365.201	39.94
365.412	142.33
365.623	-35.84
365.834	37.89
366.045	62.46
366.256	128
366.467	25.6
366.678	64.51
366.889	134.14
367.1	50.18
367.311	76.8
367.522	78.85
367.733	64.51
367.944	68.61
368.155	107.52
368.366	117.76
368.577	121.85
368.788	58.37
368.999	121.85
369.209	15.36
369.42	113.66
369.631	103.42
369.842	-9.22
370.053	7.17
370.264	91.13
370.474	-15.36
370.685	76.8
370.896	99.33
371.107	91.13
371.317	93.18
371.528	128
371.739	66.56
371.95	21.5
372.16	19.46
372.371	44.03
372.582	35.84
372.792	76.8
373.003	5.12
373.214	80.89
373.424	74.75
373.635	58.37
373.846	107.52
374.056	11.26
374.267	68.61
374.477	19.46
374.688	48.13
374.898	25.6
375.109	91.13
375.319	97.28
375.53	33.79
375.74	54.27
375.951	25.6
376.161	76.8
376.372	68.61
376.582	78.85
376.793	84.99
377.003	68.61
377.214	58.37
377.424	138.24
377.635	25.6
377.845	58.37
378.055	66.56
378.266	56.32
378.476	64.51
378.686	50.18
378.897	52.22
379.107	15.36
379.317	113.66
379.528	33.79
379.738	158.72
379.948	25.6
380.158	62.46
380.369	84.99
380.579	162.81
380.789	111.61
380.999	128
381.21	5.12
381.42	87.04
381.63	23.55
381.84	103.42
382.05	64.51
382.261	27.65
382.471	25.6
382.681	9.22
382.891	74.75
383.101	17.41
383.311	31.74
383.521	35.84
383.731	44.03
383.941	56.32
384.151	50.18
384.361	107.52
384.571	39.94
384.781	115.71
384.991	99.33
385.201	101.37
385.411	66.56
385.621	48.13
385.831	70.65
386.041	99.33
386.251	-25.6
386.461	93.18
386.671	5.12
386.881	58.37
387.091	66.56
387.301	109.57
387.511	11.26
387.72	74.75
387.93	13.31
388.14	27.65
388.35	97.28
388.56	78.85
388.769	105.47
388.979	19.46
389.189	33.79
389.399	-9.22
389.609	119.81
389.818	138.24
390.028	-5.12
390.238	84.99
390.447	27.65
390.657	121.85
390.867	107.52
391.076	54.27
391.286	76.8
391.496	113.66
391.705	41.98
391.915	162.81
392.125	39.94
392.334	29.7
392.544	84.99
392.753	48.13
392.963	68.61
393.172	125.95
393.382	3.07
393.591	171.01
393.801	54.27
394.01	101.37
394.22	52.22
394.429	103.42
394.639	91.13
394.848	132.09
395.058	78.85
395.267	111.61
395.477	91.13
395.686	187.39
395.895	105.47
396.105	150.53
396.314	93.18
396.524	58.37
396.733	29.7
396.942	150.53
397.152	78.85
397.361	138.24
397.57	76.8
397.78	84.99
397.989	60.42
398.198	209.92
398.407	140.29
398.617	113.66
398.826	128
399.035	128
399.244	125.95
399.453	70.65
399.663	76.8
399.872	107.52
400.081	113.66
400.29	183.29
400.499	76.8
400.708	111.61
400.917	158.72
401.127	164.86
401.336	142.33
401.545	148.48
401.754	156.67
401.963	162.81
402.172	201.72
402.381	99.33
402.59	142.33
402.799	179.2
403.008	203.77
403.217	146.43
403.426	197.63
403.635	109.57
403.844	130.05
404.053	179.2
404.262	185.34
404.471	160.77
404.68	205.82
404.888	150.53
405.097	109.57
405.306	197.63
405.515	168.96
405.724	166.91
405.933	185.34
406.142	257.02
406.35	136.19
406.559	230.4
406.768	179.2
406.977	297.98
407.185	289.79
407.394	281.6
407.603	201.72
407.812	304.12
408.02	320.51
408.229	279.55
408.438	257.02
408.646	250.88
408.855	314.36
409.064	263.16
409.272	340.99
409.481	340.99
409.69	283.64
409.898	338.94
410.107	381.95
410.315	386.04
410.524	420.86
410.733	437.24
410.941	369.66
411.15	459.77
411.358	445.43
411.567	551.93
411.775	494.58
411.984	576.5
412.192	541.69
412.401	564.22
412.609	556.02
412.818	758.77
413.026	660.47
413.234	691.19
413.443	631.8
413.651	721.91
413.86	670.71
414.068	719.86
414.276	748.53
414.485	787.44
414.693	906.23
414.901	850.93
415.11	889.84
415.318	889.84
415.526	879.6
415.734	863.22
415.943	975.86
416.151	1047.54
416.359	1051.63
416.567	1084.4
416.776	1115.12
416.984	1174.51
417.192	1207.28
417.4	1307.63
417.608	1276.91
417.817	1326.06
418.025	1350.64
418.233	1516.52
418.441	1362.92
418.649	1506.28
418.857	1635.3
419.065	1643.49
419.273	1586.15
419.481	1645.54
419.689	1817.57
419.897	1907.68
420.105	1928.16
420.313	1989.6
420.521	1911.78
420.729	2171.87
420.937	2077.66
421.145	2302.94
421.353	2235.36
421.561	2327.52
421.769	2438.11
421.977	2474.97
422.185	2558.94
422.393	2657.24
422.601	2796.5
422.809	2880.47
423.017	2919.38
423.224	2997.2
423.432	3126.22
423.64	3128.27
423.848	3455.95
424.056	3394.51
424.263	3632.07
424.471	3617.74
424.679	3627.98
424.887	3820.49
425.094	4012.99
425.302	3914.69
425.51	4162.5
425.718	4324.29
425.925	4381.63
426.133	4412.35
426.341	4678.58
426.548	4897.72
426.756	4955.06
426.964	5082.03
427.171	5264.3
427.379	5499.82
427.586	5436.33
427.794	5821.35
428.001	5995.43
428.209	6124.45
428.417	6058.92
428.624	6546.33
428.832	6562.72
429.039	6482.85
429.247	6513.56
429.454	7021.46
429.662	7533.45
429.869	7148.43
430.076	7689.1
430.284	7494.54
430.491	7791.5
430.699	8317.83
430.906	8233.86
431.114	8272.77
431.321	8739.71
431.528	8739.71
431.736	9304.95
431.943	9743.21
432.15	9431.92
432.358	9749.36
432.565	10068.84
432.772	10191.72
432.979	10586.97
433.187	10906.46
433.394	11090.77
433.601	11613.01
433.808	11432.79
434.016	11653.97
434.223	12034.89
434.43	12806.97
434.637	12540.74
434.844	13247.29
435.052	13474.61
435.259	13554.48
435.466	13527.86
435.673	13124.41
435.88	14398.24
436.087	15119.13
436.294	14928.67
436.501	14791.45
436.708	14994.2
436.915	15541.01
437.122	16165.64
437.329	16265.99
437.537	16843.52
437.743	16900.86
437.95	16931.58
438.157	17674.99
438.364	18410.22
438.571	18541.29
438.778	18436.84
438.985	19972.82
439.192	19313.37
439.399	20071.12
439.606	19428.06
439.813	20482.76
440.02	21775.03
440.227	21621.43
440.433	21330.62
440.64	21916.34
440.847	22016.69
441.054	22543.02
441.261	23722.65
441.467	23683.73
441.674	24042.13
441.881	24978.05
442.088	24953.48
442.294	24613.51
442.501	25123.46
442.708	25803.38
442.914	27185.76
443.121	27785.82
443.328	27103.84
443.534	29254.21
443.741	28172.88
443.948	27877.97
444.154	30192.18
444.361	30057.01
444.568	30116.4
444.774	30081.59
444.981	30261.81
445.187	31242.79
445.394	32537.1
445.6	31793.69
445.807	35267.05
446.013	33892.86
446.22	34691.57
446.426	35883.48
446.633	36243.93
446.839	37085.64
447.046	35312.1
447.252	37933.5
447.459	37589.44
447.665	37706.18
447.871	39657.89
448.078	41095.56
448.284	39072.17
448.491	40266.14
448.697	41634.18
448.903	42340.73
449.11	42656.12
449.316	41732.48
449.522	42512.76
449.728	43823.46
449.935	43872.61
450.141	43997.54
450.347	44927.31
450.553	43516.26
450.76	43888.99
450.966	45844.8
451.172	45134.16
451.378	46055.75
451.584	45390.16
451.791	46674.23
451.997	46131.52
452.203	46952.76
452.409	47108.4
452.615	46750.01
452.821	45191.5
453.027	44599.64
453.233	47087.92
453.44	45150.54
453.646	45791.56
453.852	45893.96
454.058	46672.18
454.264	44869.97
454.47	45896
454.676	45185.36
454.882	46694.71
455.088	42676.6
455.294	42910.07
455.5	44220.77
455.705	44220.77
455.911	42697.08
456.117	41816.45
456.323	40931.73
456.529	39029.16
456.735	41013.65
456.941	39784.86
457.147	39049.64
457.352	38058.43
457.558	37401.03
457.764	37466.56
457.97	36940.24
458.176	36583.89
458.381	36080.09
458.587	34417.14
458.793	34228.73
458.999	32348.69
459.204	34722.29
459.41	34058.74
459.616	31365.67
459.821	32086.55
460.027	32029.21
460.233	30829.1
460.438	29180.48
460.644	29966.9
460.85	28512.84
461.055	27742.81
461.261	28158.55
461.466	25850.49
461.672	24697.48
461.878	27058.79
462.083	25127.55
462.289	24576.65
462.494	24208.01
462.7	23298.72
462.905	22743.72
463.111	23683.73
463.316	23575.19
463.522	23157.41
463.727	22796.96
463.932	22813.35
464.138	22897.31
464.343	22719.14
464.549	22112.94
464.754	22909.6
464.959	22512.3
465.165	22622.89
465.37	21557.94
465.575	20976.32
465.781	22117.04
465.986	22059.7
466.191	21416.63
466.397	20896.45
466.602	19720.92
466.807	20859.59
467.012	20601.54
467.218	20396.74
467.423	20189.9
467.628	20406.98
467.833	21369.53
