Data from USB4F104151__9__12-34-59-625.txt Node

Date: Fri Mar 14 12:34:59 EDT 2025
User: louis
Spectrometer: USB4F10415
Trigger mode: 4
Integration Time (sec): 2.000000E-2
Scans to average: 1
Electric dark correction enabled: true
Nonlinearity correction enabled: false
Boxcar width: 0
XAxis mode: Wavelengths
Number of Pixels in Spectrum: 3648
>>>>>Begin Spectral Data<<<<<
178.204	-46.59
178.424	-46.59
178.644	-46.59
178.864	0.51
179.084	-34.3
179.304	33.28
179.524	2.56
179.744	-13.82
179.964	-7.68
180.184	-28.16
180.404	55.81
180.624	-38.4
180.844	-28.16
181.064	23.04
181.283	6.66
181.503	14.85
181.723	-19.97
181.943	23.04
182.163	88.57
182.383	-65.02
182.602	55.81
182.822	14.85
183.042	10.75
183.262	49.66
183.482	-22.02
183.701	6.66
183.921	74.24
184.141	61.95
184.361	49.66
184.58	-11.78
184.8	27.14
185.02	-28.16
185.239	84.48
185.459	31.23
185.679	74.24
185.898	2.56
186.118	102.91
186.338	-17.92
186.557	102.91
186.777	18.94
186.997	49.66
187.216	29.18
187.436	80.38
187.655	94.72
187.875	107.01
188.095	33.28
188.314	45.57
188.534	10.75
188.753	-34.3
188.973	64
189.192	86.53
189.412	104.96
189.631	57.86
189.851	49.66
190.07	121.34
190.29	68.09
190.509	10.75
190.729	70.14
190.948	29.18
191.168	117.25
191.387	14.85
191.607	98.81
191.826	37.38
192.045	25.09
192.265	-1.54
192.484	74.24
192.704	23.04
192.923	43.52
193.142	31.23
193.362	72.19
193.581	84.48
193.8	78.33
194.02	-38.4
194.239	-13.82
194.458	111.1
194.678	-15.87
194.897	14.85
195.116	0.51
195.335	-1.54
195.555	59.9
195.774	100.86
195.993	-65.02
196.212	64
196.432	57.86
196.651	41.47
196.87	45.57
197.089	78.33
197.308	4.61
197.528	-30.21
197.747	31.23
197.966	-24.06
198.185	96.77
198.404	123.39
198.623	16.9
198.842	74.24
199.062	104.96
199.281	98.81
199.5	41.47
199.719	8.7
199.938	41.47
200.157	18.94
200.376	64
200.595	49.66
200.814	76.29
201.033	20.99
201.252	14.85
201.471	80.38
201.69	76.29
201.909	70.14
202.128	68.09
202.347	64
202.566	29.18
202.785	20.99
203.004	12.8
203.223	55.81
203.442	4.61
203.661	33.28
203.879	43.52
204.098	16.9
204.317	18.94
204.536	76.29
204.755	37.38
204.974	94.72
205.193	33.28
205.411	76.29
205.63	66.05
205.849	90.62
206.068	2.56
206.287	76.29
206.505	0.51
206.724	6.66
206.943	76.29
207.162	10.75
207.381	23.04
207.599	111.1
207.818	61.95
208.037	64
208.255	-19.97
208.474	35.33
208.693	64
208.911	107.01
209.13	37.38
209.349	35.33
209.567	129.53
209.786	59.9
210.005	33.28
210.223	35.33
210.442	31.23
210.661	94.72
210.879	66.05
211.098	31.23
211.316	47.62
211.535	123.39
211.753	76.29
211.972	109.05
212.191	-13.82
212.409	29.18
212.628	-24.06
212.846	8.7
213.065	131.58
213.283	16.9
213.502	16.9
213.72	-30.21
213.938	47.62
214.157	14.85
214.375	-50.69
214.594	-13.82
214.812	4.61
215.031	41.47
215.249	31.23
215.467	35.33
215.686	14.85
215.904	76.29
216.122	0.51
216.341	57.86
216.559	74.24
216.778	35.33
216.996	72.19
217.214	35.33
217.432	125.44
217.651	8.7
217.869	18.94
218.087	92.67
218.306	-48.64
218.524	107.01
218.742	66.05
218.96	76.29
219.179	68.09
219.397	2.56
219.615	51.71
219.833	29.18
220.051	20.99
220.27	66.05
220.488	45.57
220.706	70.14
220.924	51.71
221.142	59.9
221.36	18.94
221.578	18.94
221.796	55.81
222.015	74.24
222.233	39.42
222.451	107.01
222.669	-46.59
222.887	74.24
223.105	14.85
223.323	25.09
223.541	23.04
223.759	104.96
223.977	55.81
224.195	43.52
224.413	80.38
224.631	78.33
224.849	-7.68
225.067	115.2
225.285	33.28
225.503	35.33
225.721	-75.26
225.939	70.14
226.157	37.38
226.375	160.25
226.592	145.92
226.81	-48.64
227.028	92.67
227.246	57.86
227.464	2.56
227.682	82.43
227.9	49.66
228.117	33.28
228.335	-34.3
228.553	-15.87
228.771	74.24
228.989	31.23
229.206	-13.82
229.424	129.53
229.642	20.99
229.86	104.96
230.077	43.52
230.295	57.86
230.513	29.18
230.731	8.7
230.948	125.44
231.166	72.19
231.384	86.53
231.601	33.28
231.819	29.18
232.037	80.38
232.254	-9.73
232.472	16.9
232.689	2.56
232.907	61.95
233.125	27.14
233.342	76.29
233.56	27.14
233.777	57.86
233.995	35.33
234.213	109.05
234.43	88.57
234.648	-15.87
234.865	2.56
235.083	16.9
235.3	-58.88
235.518	51.71
235.735	96.77
235.953	100.86
236.17	92.67
236.388	107.01
236.605	41.47
236.822	137.73
237.04	59.9
237.257	4.61
237.475	16.9
237.692	49.66
237.909	12.8
238.127	27.14
238.344	14.85
238.562	4.61
238.779	29.18
238.996	33.28
239.214	0.51
239.431	49.66
239.648	53.76
239.865	111.1
240.083	100.86
240.3	66.05
240.517	45.57
240.735	125.44
240.952	14.85
241.169	-7.68
241.386	51.71
241.603	33.28
241.821	49.66
242.038	70.14
242.255	117.25
242.472	18.94
242.689	139.77
242.907	82.43
243.124	131.58
243.341	25.09
243.558	0.51
243.775	80.38
243.992	94.72
244.209	41.47
244.426	107.01
244.643	107.01
244.86	0.51
245.078	55.81
245.295	8.7
245.512	-5.63
245.729	-24.06
245.946	131.58
246.163	-5.63
246.38	102.91
246.597	-46.59
246.814	39.42
247.031	29.18
247.248	45.57
247.464	70.14
247.681	49.66
247.898	20.99
248.115	37.38
248.332	74.24
248.549	96.77
248.766	33.28
248.983	49.66
249.2	31.23
249.417	43.52
249.633	39.42
249.85	49.66
250.067	-17.92
250.284	131.58
250.501	74.24
250.717	27.14
250.934	16.9
251.151	82.43
251.368	84.48
251.585	-19.97
251.801	14.85
252.018	18.94
252.235	33.28
252.451	68.09
252.668	47.62
252.885	88.57
253.102	41.47
253.318	-26.11
253.535	68.09
253.752	-7.68
253.968	55.81
254.185	-44.54
254.401	8.7
254.618	25.09
254.835	78.33
255.051	49.66
255.268	2.56
255.484	111.1
255.701	-15.87
255.917	61.95
256.134	47.62
256.351	47.62
256.567	-19.97
256.784	133.63
257	-30.21
257.217	57.86
257.433	59.9
257.65	76.29
257.866	117.25
258.082	125.44
258.299	37.38
258.515	53.76
258.732	-42.5
258.948	8.7
259.165	-9.73
259.381	61.95
259.597	41.47
259.814	35.33
260.03	53.76
260.246	55.81
260.463	49.66
260.679	16.9
260.895	39.42
261.112	35.33
261.328	29.18
261.544	70.14
261.761	102.91
261.977	39.42
262.193	-1.54
262.409	59.9
262.626	-5.63
262.842	29.18
263.058	35.33
263.274	35.33
263.49	43.52
263.707	98.81
263.923	107.01
264.139	16.9
264.355	35.33
264.571	0.51
264.787	20.99
265.004	61.95
265.22	25.09
265.436	8.7
265.652	76.29
265.868	49.66
266.084	-30.21
266.3	25.09
266.516	35.33
266.732	98.81
266.948	55.81
267.164	18.94
267.38	47.62
267.596	96.77
267.812	47.62
268.028	2.56
268.244	23.04
268.46	41.47
268.676	90.62
268.892	41.47
269.108	12.8
269.324	-54.78
269.54	6.66
269.756	27.14
269.972	12.8
270.188	96.77
270.403	12.8
270.619	55.81
270.835	61.95
271.051	45.57
271.267	31.23
271.483	90.62
271.698	29.18
271.914	-3.58
272.13	80.38
272.346	29.18
272.562	37.38
272.777	39.42
272.993	78.33
273.209	23.04
273.425	47.62
273.64	59.9
273.856	49.66
274.072	82.43
274.287	12.8
274.503	59.9
274.719	70.14
274.934	53.76
275.15	20.99
275.366	41.47
275.581	20.99
275.797	-3.58
276.012	23.04
276.228	119.29
276.444	39.42
276.659	20.99
276.875	35.33
277.09	80.38
277.306	39.42
277.521	51.71
277.737	-11.78
277.952	16.9
278.168	143.87
278.383	51.71
278.599	14.85
278.814	37.38
279.03	-50.69
279.245	115.2
279.461	23.04
279.676	12.8
279.892	-5.63
280.107	25.09
280.322	-22.02
280.538	51.71
280.753	20.99
280.969	90.62
281.184	88.57
281.399	113.15
281.615	113.15
281.83	6.66
282.045	-36.35
282.26	20.99
282.476	2.56
282.691	27.14
282.906	23.04
283.122	45.57
283.337	33.28
283.552	135.68
283.767	80.38
283.983	113.15
284.198	72.19
284.413	49.66
284.628	80.38
284.843	74.24
285.058	16.9
285.274	55.81
285.489	33.28
285.704	39.42
285.919	35.33
286.134	-36.35
286.349	-9.73
286.564	25.09
286.779	72.19
286.995	-3.58
287.21	61.95
287.425	78.33
287.64	-32.26
287.855	39.42
288.07	80.38
288.285	72.19
288.5	78.33
288.715	76.29
288.93	-19.97
289.145	107.01
289.36	98.81
289.575	57.86
289.79	57.86
290.004	16.9
290.219	86.53
290.434	12.8
290.649	98.81
290.864	47.62
291.079	6.66
291.294	61.95
291.509	98.81
291.724	88.57
291.938	43.52
292.153	84.48
292.368	10.75
292.583	100.86
292.798	98.81
293.012	39.42
293.227	-15.87
293.442	96.77
293.657	51.71
293.871	104.96
294.086	31.23
294.301	107.01
294.516	39.42
294.73	84.48
294.945	68.09
295.16	-13.82
295.374	80.38
295.589	25.09
295.804	61.95
296.018	68.09
296.233	2.56
296.447	33.28
296.662	4.61
296.877	37.38
297.091	35.33
297.306	33.28
297.52	68.09
297.735	47.62
297.949	72.19
298.164	49.66
298.378	55.81
298.593	31.23
298.807	45.57
299.022	35.33
299.236	70.14
299.451	4.61
299.665	37.38
299.88	45.57
300.094	47.62
300.309	12.8
300.523	51.71
300.737	78.33
300.952	-19.97
301.166	49.66
301.381	-34.3
301.595	10.75
301.809	29.18
302.024	74.24
302.238	61.95
302.452	96.77
302.667	10.75
302.881	55.81
303.095	43.52
303.309	51.71
303.524	49.66
303.738	64
303.952	53.76
304.166	64
304.381	-19.97
304.595	143.87
304.809	78.33
305.023	20.99
305.237	-44.54
305.452	25.09
305.666	49.66
305.88	29.18
306.094	55.81
306.308	14.85
306.522	35.33
306.736	90.62
306.95	150.01
307.164	23.04
307.379	4.61
307.593	78.33
307.807	57.86
308.021	64
308.235	64
308.449	98.81
308.663	20.99
308.877	102.91
309.091	35.33
309.305	74.24
309.519	29.18
309.733	-7.68
309.947	33.28
310.161	59.9
310.374	82.43
310.588	88.57
310.802	80.38
311.016	14.85
311.23	0.51
311.444	43.52
311.658	25.09
311.872	37.38
312.085	88.57
312.299	70.14
312.513	90.62
312.727	66.05
312.941	20.99
313.154	131.58
313.368	80.38
313.582	64
313.796	61.95
314.009	39.42
314.223	27.14
314.437	55.81
314.651	0.51
314.864	33.28
315.078	100.86
315.292	49.66
315.505	16.9
315.719	86.53
315.933	35.33
316.146	18.94
316.36	41.47
316.573	102.91
316.787	27.14
317.001	61.95
317.214	72.19
317.428	-28.16
317.641	16.9
317.855	-15.87
318.068	78.33
318.282	20.99
318.495	57.86
318.709	6.66
318.922	20.99
319.136	86.53
319.349	55.81
319.563	41.47
319.776	49.66
319.99	49.66
320.203	45.57
320.417	-3.58
320.63	84.48
320.843	16.9
321.057	43.52
321.27	84.48
321.483	49.66
321.697	94.72
321.91	-3.58
322.124	35.33
322.337	84.48
322.55	47.62
322.763	117.25
322.977	27.14
323.19	23.04
323.403	45.57
323.617	74.24
323.83	92.67
324.043	84.48
324.256	100.86
324.469	90.62
324.683	-15.87
324.896	20.99
325.109	-19.97
325.322	10.75
325.535	51.71
325.748	31.23
325.962	61.95
326.175	66.05
326.388	86.53
326.601	78.33
326.814	107.01
327.027	88.57
327.24	143.87
327.453	-3.58
327.666	104.96
327.879	43.52
328.092	70.14
328.305	45.57
328.518	-3.58
328.731	49.66
328.944	133.63
329.157	68.09
329.37	61.95
329.583	102.91
329.796	-3.58
330.009	86.53
330.222	18.94
330.435	29.18
330.648	82.43
330.861	35.33
331.073	-22.02
331.286	57.86
331.499	61.95
331.712	64
331.925	59.9
332.138	45.57
332.35	16.9
332.563	53.76
332.776	119.29
332.989	37.38
333.202	80.38
333.414	-19.97
333.627	49.66
333.84	82.43
334.053	84.48
334.265	51.71
334.478	76.29
334.691	68.09
334.903	25.09
335.116	-19.97
335.329	57.86
335.541	20.99
335.754	78.33
335.966	23.04
336.179	51.71
336.392	37.38
336.604	18.94
336.817	33.28
337.029	104.96
337.242	14.85
337.454	86.53
337.667	72.19
337.88	78.33
338.092	121.34
338.305	20.99
338.517	66.05
338.729	78.33
338.942	98.81
339.154	14.85
339.367	33.28
339.579	51.71
339.792	49.66
340.004	49.66
340.217	47.62
340.429	59.9
340.641	23.04
340.854	147.97
341.066	-3.58
341.278	154.11
341.491	25.09
341.703	57.86
341.915	35.33
342.128	74.24
342.34	121.34
342.552	35.33
342.764	29.18
342.977	45.57
343.189	76.29
343.401	49.66
343.613	41.47
343.826	51.71
344.038	6.66
344.25	61.95
344.462	-1.54
344.674	59.9
344.886	-44.54
345.099	70.14
345.311	-9.73
345.523	70.14
345.735	-22.02
345.947	-1.54
346.159	72.19
346.371	39.42
346.583	47.62
346.795	92.67
347.007	100.86
347.219	102.91
347.431	111.1
347.643	137.73
347.855	64
348.067	27.14
348.279	55.81
348.491	59.9
348.703	33.28
348.915	43.52
349.127	51.71
349.339	74.24
349.551	-19.97
349.763	119.29
349.975	41.47
350.187	59.9
350.399	20.99
350.61	8.7
350.822	66.05
351.034	47.62
351.246	39.42
351.458	41.47
351.669	33.28
351.881	18.94
352.093	53.76
352.305	66.05
352.517	33.28
352.728	61.95
352.94	12.8
353.152	53.76
353.363	98.81
353.575	59.9
353.787	84.48
353.999	4.61
354.21	127.49
354.422	86.53
354.633	92.67
354.845	18.94
355.057	135.68
355.268	68.09
355.48	51.71
355.692	53.76
355.903	31.23
356.115	12.8
356.326	-28.16
356.538	43.52
356.749	86.53
356.961	-5.63
357.172	64
357.384	53.76
357.595	94.72
357.807	51.71
358.018	70.14
358.23	51.71
358.441	80.38
358.653	113.15
358.864	55.81
359.075	-1.54
359.287	-1.54
359.498	92.67
359.709	68.09
359.921	74.24
360.132	135.68
360.344	78.33
360.555	92.67
360.766	74.24
360.977	45.57
361.189	53.76
361.4	-9.73
361.611	59.9
361.823	90.62
362.034	37.38
362.245	10.75
362.456	141.82
362.667	53.76
362.879	49.66
363.09	102.91
363.301	113.15
363.512	74.24
363.723	53.76
363.935	88.57
364.146	70.14
364.357	14.85
364.568	92.67
364.779	64
364.99	51.71
365.201	47.62
365.412	64
365.623	31.23
365.834	43.52
366.045	18.94
366.256	80.38
366.467	-7.68
366.678	59.9
366.889	4.61
367.1	135.68
367.311	27.14
367.522	92.67
367.733	74.24
367.944	14.85
368.155	51.71
368.366	-28.16
368.577	18.94
368.788	53.76
368.999	-3.58
369.209	51.71
369.42	57.86
369.631	43.52
369.842	125.44
370.053	25.09
370.264	51.71
370.474	57.86
370.685	49.66
370.896	74.24
371.107	119.29
371.317	35.33
371.528	55.81
371.739	86.53
371.95	43.52
372.16	37.38
372.371	45.57
372.582	43.52
372.792	20.99
373.003	96.77
373.214	88.57
373.424	74.24
373.635	39.42
373.846	129.53
374.056	59.9
374.267	20.99
374.477	35.33
374.688	74.24
374.898	80.38
375.109	117.25
375.319	47.62
375.53	82.43
375.74	27.14
375.951	102.91
376.161	41.47
376.372	100.86
376.582	23.04
376.793	96.77
377.003	-7.68
377.214	14.85
377.424	109.05
377.635	41.47
377.845	53.76
378.055	76.29
378.266	45.57
378.476	68.09
378.686	94.72
378.897	66.05
379.107	90.62
379.317	84.48
379.528	74.24
379.738	20.99
379.948	23.04
380.158	33.28
380.369	100.86
380.579	37.38
380.789	39.42
380.999	53.76
381.21	72.19
381.42	66.05
381.63	45.57
381.84	104.96
382.05	64
382.261	121.34
382.471	100.86
382.681	102.91
382.891	119.29
383.101	115.2
383.311	43.52
383.521	113.15
383.731	104.96
383.941	57.86
384.151	37.38
384.361	35.33
384.571	88.57
384.781	49.66
384.991	-22.02
385.201	125.44
385.411	55.81
385.621	115.2
385.831	68.09
386.041	-3.58
386.251	-15.87
386.461	29.18
386.671	53.76
386.881	51.71
387.091	96.77
387.301	12.8
387.511	-40.45
387.72	66.05
387.93	166.4
388.14	55.81
388.35	68.09
388.56	70.14
388.769	41.47
388.979	68.09
389.189	-52.74
389.399	55.81
389.609	45.57
389.818	35.33
390.028	37.38
390.238	57.86
390.447	78.33
390.657	86.53
390.867	53.76
391.076	57.86
391.286	39.42
391.496	111.1
391.705	-32.26
391.915	45.57
392.125	78.33
392.334	-13.82
392.544	141.82
392.753	49.66
392.963	119.29
393.172	49.66
393.382	-11.78
393.591	94.72
393.801	29.18
394.01	129.53
394.22	107.01
394.429	43.52
394.639	135.68
394.848	158.21
395.058	104.96
395.267	82.43
395.477	45.57
395.686	33.28
395.895	125.44
396.105	98.81
396.314	129.53
396.524	94.72
396.733	98.81
396.942	160.25
397.152	102.91
397.361	49.66
397.57	88.57
397.78	90.62
397.989	145.92
398.198	199.16
398.407	82.43
398.617	68.09
398.826	61.95
399.035	119.29
399.244	78.33
399.453	18.94
399.663	86.53
399.872	86.53
400.081	47.62
400.29	178.69
400.499	90.62
400.708	125.44
400.917	53.76
401.127	139.77
401.336	37.38
401.545	127.49
401.754	115.2
401.963	133.63
402.172	94.72
402.381	107.01
402.59	61.95
402.799	166.4
403.008	150.01
403.217	100.86
403.426	145.92
403.635	119.29
403.844	139.77
404.053	94.72
404.262	107.01
404.471	205.31
404.68	170.49
404.888	86.53
405.097	160.25
405.306	174.59
405.515	227.84
405.724	133.63
405.933	166.4
406.142	133.63
406.35	166.4
406.559	211.45
406.768	174.59
406.977	94.72
407.185	229.88
407.394	207.36
407.603	145.92
407.812	193.02
408.02	195.07
408.229	119.29
408.438	252.41
408.646	201.21
408.855	199.16
409.064	274.94
409.272	236.03
409.481	274.94
409.69	248.32
409.898	221.69
410.107	252.41
410.315	320
410.524	246.27
410.733	274.94
410.941	254.46
411.15	352.76
411.358	299.52
411.567	381.43
411.775	393.72
411.984	395.77
412.192	395.77
412.401	336.38
412.609	418.3
412.818	444.92
413.026	379.39
413.234	428.54
413.443	494.07
413.651	481.78
413.86	541.18
414.068	547.32
414.276	547.32
414.485	475.64
414.693	532.98
414.901	584.18
415.11	619
415.318	553.46
415.526	707.06
415.734	662.01
415.943	575.99
416.151	725.49
416.359	592.37
416.567	717.3
416.776	795.12
416.984	784.88
417.192	827.89
417.4	801.27
417.608	834.04
417.817	788.98
418.025	893.43
418.233	993.78
418.441	930.29
418.649	983.54
418.857	1042.93
419.065	1122.8
419.273	1051.12
419.481	1174
419.689	1098.22
419.897	1178.09
420.105	1182.19
420.313	1247.72
420.521	1247.72
420.729	1307.12
420.937	1415.66
421.145	1460.71
421.353	1448.43
421.561	1575.4
421.769	1604.07
421.977	1548.78
422.185	1559.02
422.393	1714.66
422.601	1745.38
422.809	1841.64
423.017	1855.97
423.224	1851.88
423.432	2052.58
423.64	1958.37
423.848	2169.31
424.056	2202.08
424.263	2376.16
424.471	2349.53
424.679	2279.9
424.887	2415.07
425.094	2535.9
425.302	2460.12
425.51	2566.62
425.718	2726.36
425.925	2681.3
426.133	2830.8
426.341	3004.88
426.548	3094.99
426.756	3099.09
426.964	3172.82
427.171	3299.79
427.379	3475.91
427.586	3463.63
427.794	3621.32
428.001	3776.97
428.209	3848.65
428.417	3828.17
428.624	4012.48
428.832	3989.96
429.039	3979.72
429.247	4166.08
429.454	4555.19
429.662	4716.98
429.869	4428.22
430.076	4776.38
430.284	4641.21
430.491	4800.95
430.699	5120.43
430.906	5167.54
431.114	5147.06
431.321	5329.33
431.528	5468.59
431.736	5839.27
431.943	6019.49
432.15	5886.37
432.358	6025.64
432.565	6291.87
432.772	6181.28
432.979	6597.02
433.187	6726.04
433.394	6674.84
433.601	7164.31
433.808	7104.92
434.016	7088.53
434.223	7324.05
434.43	7915.91
434.637	7823.75
434.844	8073.6
435.052	8407.42
435.259	8257.92
435.466	8307.07
435.673	8270.21
435.88	8892.79
436.087	9279.86
436.294	9437.55
436.501	9079.16
436.708	9425.26
436.915	9662.83
437.122	9957.74
437.329	10002.79
437.537	10367.33
437.743	10264.93
437.95	10346.85
438.157	11112.79
438.364	11254.1
438.571	11211.09
438.778	11106.65
438.985	12331.33
439.192	11974.99
439.399	12284.23
439.606	12130.63
439.813	12720.45
440.02	13330.74
440.227	13197.62
440.433	13119.8
440.64	13420.85
440.847	13545.78
441.054	13719.85
441.261	14680.35
441.467	14573.86
441.674	14928.16
441.881	15274.26
442.088	15216.92
442.294	15452.44
442.501	15644.95
442.708	15687.95
442.914	16521.48
443.121	17127.67
443.328	16658.69
443.534	17852.66
443.741	17387.77
443.948	17160.44
444.154	18399.46
444.361	18284.78
444.568	18518.25
444.774	18532.58
444.981	18866.4
445.187	19159.26
445.394	19822.8
445.6	19865.81
445.807	21579.96
446.013	20906.18
446.22	21143.74
446.426	22368.43
446.633	22233.26
446.839	22841.51
447.046	22171.82
447.252	23206.05
447.459	23378.08
447.665	23314.59
447.871	24569.99
448.078	25182.34
448.284	24164.5
448.491	24582.28
448.697	25755.77
448.903	26028.15
449.11	26155.12
449.316	25843.83
449.522	26325.1
449.728	26976.36
449.935	27183.2
450.141	27349.09
450.347	27953.24
450.553	26855.53
450.76	27093.09
450.966	27967.57
451.172	27480.16
451.378	28678.22
451.584	27893.85
451.791	28508.24
451.997	28467.28
452.203	29571.13
452.409	29315.14
452.615	28694.6
452.821	28086.36
453.027	27777.11
453.233	29034.56
453.44	27867.22
453.646	28414.03
453.852	28563.53
454.058	28891.21
454.264	28055.64
454.47	28403.79
454.676	28024.92
454.882	28719.18
455.088	26470.51
455.294	26886.25
455.5	27037.8
455.705	27301.98
455.911	26304.62
456.117	25710.71
456.323	25317.5
456.529	24101.01
456.735	25161.86
456.941	24742.02
457.147	24244.37
457.352	23429.27
457.558	23347.36
457.764	23404.7
457.97	23117.98
458.176	22388.91
458.381	22108.33
458.587	21117.12
458.793	21440.7
458.999	20187.34
459.204	21457.08
459.41	20822.21
459.616	19572.95
459.821	19681.49
460.027	19749.07
460.233	18993.37
460.438	18295.02
460.644	18305.26
460.85	17760.5
461.055	17387.77
461.261	17291.51
461.466	15876.37
461.672	15315.22
461.878	16541.96
462.083	15399.19
462.289	14891.29
462.494	14936.35
462.7	14424.36
462.905	13943.08
463.111	14723.36
463.316	14371.11
463.522	14145.83
463.727	14186.79
463.932	14065.96
464.138	14078.25
464.343	14100.78
464.549	13486.39
464.754	14098.73
464.959	13752.62
465.165	14094.63
465.37	13578.54
465.575	13029.69
465.781	13596.98
465.986	13381.94
466.191	12822.84
466.397	12763.45
466.602	12155.21
466.807	12708.16
467.012	12824.89
467.218	12671.29
467.423	12321.09
467.628	12392.77
467.833	13062.46
468.038	12577.09
