Data from USB4F104151__86__12-36-58-192.txt Node

Date: Fri Mar 14 12:36:58 EDT 2025
User: louis
Spectrometer: USB4F10415
Trigger mode: 4
Integration Time (sec): 2.000000E-2
Scans to average: 1
Electric dark correction enabled: true
Nonlinearity correction enabled: false
Boxcar width: 0
XAxis mode: Wavelengths
Number of Pixels in Spectrum: 3648
>>>>>Begin Spectral Data<<<<<
178.204	-122.02
178.424	-122.02
178.644	-122.02
178.864	-76.97
179.084	-52.39
179.304	-68.78
179.524	-54.44
179.744	-58.54
179.964	13.14
180.184	29.52
180.404	-17.58
180.624	-21.67
180.844	-62.63
181.064	9.05
181.283	86.87
181.503	13.14
181.723	131.92
181.943	-19.63
182.163	2.9
182.383	-48.3
182.602	47.96
182.822	-31.91
183.042	25.43
183.262	0.85
183.482	45.91
183.701	72.53
183.921	33.62
184.141	-3.24
184.361	62.29
184.58	27.48
184.8	37.72
185.02	-19.63
185.239	86.87
185.459	9.05
185.679	52.05
185.898	4.95
186.118	-83.11
186.338	31.57
186.557	-15.53
186.777	33.62
186.997	2.9
187.216	-11.43
187.436	31.57
187.655	2.9
187.875	0.85
188.095	54.1
188.314	4.95
188.534	88.92
188.753	43.86
188.973	-5.29
189.192	39.76
189.412	88.92
189.631	0.85
189.851	17.24
190.07	19.29
190.29	64.34
190.509	-31.91
190.729	-21.67
190.948	45.91
191.168	31.57
191.387	19.29
191.607	119.64
191.826	43.86
192.045	88.92
192.265	19.29
192.484	93.01
192.704	25.43
192.923	13.14
193.142	86.87
193.362	11.09
193.581	2.9
193.8	109.4
194.02	-31.91
194.239	19.29
194.458	111.44
194.678	-46.25
194.897	9.05
195.116	21.33
195.335	60.24
195.555	43.86
195.774	68.44
195.993	37.72
196.212	-68.78
196.432	29.52
196.651	60.24
196.87	-9.39
197.089	21.33
197.308	41.81
197.528	111.44
197.747	-38.06
197.966	111.44
198.185	33.62
198.404	-29.87
198.623	15.19
198.842	60.24
199.062	35.67
199.281	43.86
199.5	-5.29
199.719	-5.29
199.938	45.91
200.157	68.44
200.376	21.33
200.595	50
200.814	31.57
201.033	19.29
201.252	35.67
201.471	27.48
201.69	54.1
201.909	37.72
202.128	-3.24
202.347	15.19
202.566	60.24
202.785	25.43
203.004	-11.43
203.223	101.2
203.442	29.52
203.661	21.33
203.879	72.53
204.098	127.83
204.317	17.24
204.536	56.15
204.755	-3.24
204.974	27.48
205.193	0.85
205.411	80.72
205.63	62.29
205.849	9.05
206.068	-23.72
206.287	84.82
206.505	78.68
206.724	37.72
206.943	43.86
207.162	56.15
207.381	27.48
207.599	72.53
207.818	74.58
208.037	-27.82
208.255	35.67
208.474	-1.19
208.693	17.24
208.911	-17.58
209.13	-3.24
209.349	-3.24
209.567	-5.29
209.786	52.05
210.005	35.67
210.223	-19.63
210.442	-1.19
210.661	21.33
210.879	60.24
211.098	9.05
211.316	50
211.535	62.29
211.753	0.85
211.972	82.77
212.191	-19.63
212.409	21.33
212.628	7
212.846	41.81
213.065	37.72
213.283	29.52
213.502	68.44
213.72	35.67
213.938	60.24
214.157	-27.82
214.375	82.77
214.594	29.52
214.812	35.67
215.031	-7.34
215.249	109.4
215.467	93.01
215.686	9.05
215.904	35.67
216.122	21.33
216.341	105.3
216.559	39.76
216.778	43.86
216.996	-21.67
217.214	4.95
217.432	66.39
217.651	17.24
217.869	13.14
218.087	0.85
218.306	31.57
218.524	54.1
218.742	-21.67
218.96	2.9
219.179	127.83
219.397	50
219.615	41.81
219.833	-11.43
220.051	35.67
220.27	19.29
220.488	-23.72
220.706	31.57
220.924	21.33
221.142	43.86
221.36	-29.87
221.578	-11.43
221.796	56.15
222.015	-21.67
222.233	74.58
222.451	64.34
222.669	58.2
222.887	82.77
223.105	-68.78
223.323	-1.19
223.541	-15.53
223.759	76.63
223.977	19.29
224.195	133.97
224.413	33.62
224.631	4.95
224.849	72.53
225.067	58.2
225.285	17.24
225.503	52.05
225.721	-9.39
225.939	15.19
226.157	0.85
226.375	62.29
226.592	23.38
226.81	39.76
227.028	23.38
227.246	47.96
227.464	31.57
227.682	66.39
227.9	95.06
228.117	-27.82
228.335	37.72
228.553	15.19
228.771	56.15
228.989	2.9
229.206	50
229.424	74.58
229.642	23.38
229.86	88.92
230.077	-5.29
230.295	27.48
230.513	39.76
230.731	17.24
230.948	119.64
231.166	23.38
231.384	-27.82
231.601	113.49
231.819	-33.96
232.037	21.33
232.254	-56.49
232.472	29.52
232.689	56.15
232.907	52.05
233.125	-60.59
233.342	54.1
233.56	2.9
233.777	31.57
233.995	70.48
234.213	33.62
234.43	62.29
234.648	23.38
234.865	68.44
235.083	52.05
235.3	-38.06
235.518	146.26
235.735	50
235.953	-13.48
236.17	-1.19
236.388	47.96
236.605	15.19
236.822	43.86
237.04	-25.77
237.257	62.29
237.475	-1.19
237.692	99.16
237.909	31.57
238.127	64.34
238.344	2.9
238.562	15.19
238.779	-33.96
238.996	-19.63
239.214	-25.77
239.431	-7.34
239.648	7
239.865	39.76
240.083	70.48
240.3	4.95
240.517	13.14
240.735	29.52
240.952	50
241.169	33.62
241.386	-38.06
241.603	64.34
241.821	33.62
242.038	19.29
242.255	99.16
242.472	19.29
242.689	-42.15
242.907	90.96
243.124	-7.34
243.341	-27.82
243.558	19.29
243.775	13.14
243.992	-3.24
244.209	76.63
244.426	70.48
244.643	82.77
244.86	35.67
245.078	-17.58
245.295	78.68
245.512	-15.53
245.729	11.09
245.946	7
246.163	66.39
246.38	35.67
246.597	29.52
246.814	37.72
247.031	-7.34
247.248	0.85
247.464	39.76
247.681	39.76
247.898	2.9
248.115	47.96
248.332	11.09
248.549	7
248.766	131.92
248.983	0.85
249.2	84.82
249.417	2.9
249.633	0.85
249.85	97.11
250.067	37.72
250.284	88.92
250.501	25.43
250.717	35.67
250.934	4.95
251.151	78.68
251.368	41.81
251.585	-13.48
251.801	39.76
252.018	-13.48
252.235	27.48
252.451	45.91
252.668	62.29
252.885	66.39
253.102	15.19
253.318	60.24
253.535	43.86
253.752	-9.39
253.968	35.67
254.185	-1.19
254.401	11.09
254.618	-1.19
254.835	19.29
255.051	80.72
255.268	103.25
255.484	43.86
255.701	66.39
255.917	84.82
256.134	-42.15
256.351	84.82
256.567	-21.67
256.784	9.05
257	29.52
257.217	58.2
257.433	-1.19
257.65	-3.24
257.866	29.52
258.082	7
258.299	-17.58
258.515	82.77
258.732	45.91
258.948	23.38
259.165	9.05
259.381	17.24
259.597	11.09
259.814	62.29
260.03	17.24
260.246	54.1
260.463	21.33
260.679	11.09
260.895	9.05
261.112	19.29
261.328	33.62
261.544	4.95
261.761	56.15
261.977	-17.58
262.193	27.48
262.409	43.86
262.626	-9.39
262.842	58.2
263.058	15.19
263.274	9.05
263.49	45.91
263.707	19.29
263.923	43.86
264.139	-21.67
264.355	0.85
264.571	70.48
264.787	33.62
265.004	7
265.22	41.81
265.436	-17.58
265.652	76.63
265.868	37.72
266.084	-42.15
266.3	68.44
266.516	25.43
266.732	76.63
266.948	64.34
267.164	0.85
267.38	99.16
267.596	43.86
267.812	82.77
268.028	50
268.244	50
268.46	-17.58
268.676	13.14
268.892	86.87
269.108	25.43
269.324	35.67
269.54	-29.87
269.756	7
269.972	45.91
270.188	56.15
270.403	45.91
270.619	62.29
270.835	82.77
271.051	17.24
271.267	-36.01
271.483	50
271.698	-9.39
271.914	54.1
272.13	-25.77
272.346	74.58
272.562	35.67
272.777	43.86
272.993	45.91
273.209	9.05
273.425	47.96
273.64	-3.24
273.856	0.85
274.072	45.91
274.287	11.09
274.503	7
274.719	37.72
274.934	17.24
275.15	56.15
275.366	68.44
275.581	39.76
275.797	-11.43
276.012	17.24
276.228	39.76
276.444	-13.48
276.659	33.62
276.875	0.85
277.09	-13.48
277.306	52.05
277.521	60.24
277.737	-23.72
277.952	37.72
278.168	64.34
278.383	13.14
278.599	27.48
278.814	23.38
279.03	54.1
279.245	11.09
279.461	37.72
279.676	97.11
279.892	-29.87
280.107	64.34
280.322	-13.48
280.538	78.68
280.753	-23.72
280.969	43.86
281.184	19.29
281.399	27.48
281.615	45.91
281.83	138.07
282.045	43.86
282.26	-27.82
282.476	-29.87
282.691	35.67
282.906	0.85
283.122	23.38
283.337	15.19
283.552	-38.06
283.767	27.48
283.983	54.1
284.198	-23.72
284.413	54.1
284.628	39.76
284.843	19.29
285.058	35.67
285.274	58.2
285.489	29.52
285.704	64.34
285.919	33.62
286.134	0.85
286.349	29.52
286.564	-9.39
286.779	27.48
286.995	39.76
287.21	33.62
287.425	-23.72
287.64	35.67
287.855	45.91
288.07	0.85
288.285	76.63
288.5	21.33
288.715	123.73
288.93	21.33
289.145	21.33
289.36	25.43
289.575	58.2
289.79	-7.34
290.004	9.05
290.219	47.96
290.434	21.33
290.649	82.77
290.864	-15.53
291.079	-36.01
291.294	33.62
291.509	35.67
291.724	39.76
291.938	37.72
292.153	76.63
292.368	2.9
292.583	11.09
292.798	35.67
293.012	82.77
293.227	52.05
293.442	17.24
293.657	88.92
293.871	21.33
294.086	13.14
294.301	136.02
294.516	17.24
294.73	9.05
294.945	-29.87
295.16	25.43
295.374	103.25
295.589	58.2
295.804	39.76
296.018	-15.53
296.233	43.86
296.447	11.09
296.662	84.82
296.877	64.34
297.091	121.68
297.306	-5.29
297.52	43.86
297.735	4.95
297.949	97.11
298.164	58.2
298.378	62.29
298.593	33.62
298.807	-27.82
299.022	39.76
299.236	17.24
299.451	121.68
299.665	-5.29
299.88	-5.29
300.094	66.39
300.309	129.88
300.523	45.91
300.737	107.35
300.952	86.87
301.166	95.06
301.381	72.53
301.595	17.24
301.809	25.43
302.024	13.14
302.238	31.57
302.452	86.87
302.667	-36.01
302.881	35.67
303.095	45.91
303.309	27.48
303.524	23.38
303.738	9.05
303.952	15.19
304.166	113.49
304.381	0.85
304.595	93.01
304.809	97.11
305.023	-21.67
305.237	39.76
305.452	131.92
305.666	117.59
305.88	33.62
306.094	39.76
306.308	107.35
306.522	54.1
306.736	27.48
306.95	93.01
307.164	93.01
307.379	21.33
307.593	13.14
307.807	43.86
308.021	82.77
308.235	58.2
308.449	99.16
308.663	50
308.877	68.44
309.091	9.05
309.305	74.58
309.519	-52.39
309.733	35.67
309.947	74.58
310.161	109.4
310.374	58.2
310.588	33.62
310.802	54.1
311.016	70.48
311.23	62.29
311.444	101.2
311.658	29.52
311.872	136.02
312.085	27.48
312.299	74.58
312.513	109.4
312.727	25.43
312.941	43.86
313.154	50
313.368	11.09
313.582	17.24
313.796	109.4
314.009	50
314.223	31.57
314.437	127.83
314.651	43.86
314.864	54.1
315.078	60.24
315.292	-5.29
315.505	109.4
315.719	86.87
315.933	68.44
316.146	68.44
316.36	35.67
316.573	99.16
316.787	4.95
317.001	74.58
317.214	-21.67
317.428	64.34
317.641	-38.06
317.855	17.24
318.068	2.9
318.282	66.39
318.495	62.29
318.709	-21.67
318.922	56.15
319.136	70.48
319.349	2.9
319.563	17.24
319.776	29.52
319.99	-62.63
320.203	64.34
320.417	23.38
320.63	54.1
320.843	37.72
321.057	45.91
321.27	11.09
321.483	45.91
321.697	109.4
321.91	-31.91
322.124	11.09
322.337	37.72
322.55	-36.01
322.763	66.39
322.977	9.05
323.19	13.14
323.403	80.72
323.617	37.72
323.83	70.48
324.043	15.19
324.256	17.24
324.469	64.34
324.683	52.05
324.896	54.1
325.109	25.43
325.322	-13.48
325.535	84.82
325.748	9.05
325.962	21.33
326.175	50
326.388	35.67
326.601	88.92
326.814	66.39
327.027	56.15
327.24	60.24
327.453	-11.43
327.666	185.17
327.879	17.24
328.092	41.81
328.305	78.68
328.518	58.2
328.731	35.67
328.944	78.68
329.157	70.48
329.37	4.95
329.583	60.24
329.796	90.96
330.009	-70.83
330.222	37.72
330.435	70.48
330.648	11.09
330.861	29.52
331.073	76.63
331.286	45.91
331.499	54.1
331.712	-1.19
331.925	101.2
332.138	56.15
332.35	58.2
332.563	25.43
332.776	93.01
332.989	58.2
333.202	-15.53
333.414	-3.24
333.627	37.72
333.84	13.14
334.053	35.67
334.265	13.14
334.478	78.68
334.691	19.29
334.903	33.62
335.116	68.44
335.329	60.24
335.541	37.72
335.754	7
335.966	2.9
336.179	31.57
336.392	27.48
336.604	68.44
336.817	15.19
337.029	35.67
337.242	90.96
337.454	45.91
337.667	27.48
337.88	62.29
338.092	62.29
338.305	88.92
338.517	35.67
338.729	84.82
338.942	95.06
339.154	-13.48
339.367	80.72
339.579	-17.58
339.792	58.2
340.004	41.81
340.217	35.67
340.429	52.05
340.641	60.24
340.854	-15.53
341.066	60.24
341.278	68.44
341.491	113.49
341.703	27.48
341.915	50
342.128	84.82
342.34	93.01
342.552	39.76
342.764	31.57
342.977	60.24
343.189	43.86
343.401	99.16
343.613	0.85
343.826	4.95
344.038	11.09
344.25	23.38
344.462	62.29
344.674	80.72
344.886	-25.77
345.099	-1.19
345.311	11.09
345.523	60.24
345.735	62.29
345.947	99.16
346.159	97.11
346.371	107.35
346.583	4.95
346.795	25.43
347.007	95.06
347.219	41.81
347.431	45.91
347.643	95.06
347.855	56.15
348.067	74.58
348.279	17.24
348.491	37.72
348.703	39.76
348.915	47.96
349.127	23.38
349.339	-31.91
349.551	-40.11
349.763	84.82
349.975	95.06
350.187	64.34
350.399	45.91
350.61	70.48
350.822	60.24
351.034	74.58
351.246	64.34
351.458	125.78
351.669	23.38
351.881	33.62
352.093	72.53
352.305	37.72
352.517	50
352.728	74.58
352.94	66.39
353.152	52.05
353.363	41.81
353.575	29.52
353.787	76.63
353.999	-19.63
354.21	84.82
354.422	37.72
354.633	23.38
354.845	78.68
355.057	105.3
355.268	84.82
355.48	37.72
355.692	35.67
355.903	111.44
356.115	21.33
356.326	35.67
356.538	47.96
356.749	43.86
356.961	66.39
357.172	37.72
357.384	9.05
357.595	37.72
357.807	76.63
358.018	86.87
358.23	86.87
358.441	54.1
358.653	105.3
358.864	45.91
359.075	50
359.287	41.81
359.498	136.02
359.709	54.1
359.921	88.92
360.132	27.48
360.344	58.2
360.555	29.52
360.766	68.44
360.977	52.05
361.189	41.81
361.4	52.05
361.611	37.72
361.823	31.57
362.034	90.96
362.245	60.24
362.456	43.86
362.667	70.48
362.879	37.72
363.09	70.48
363.301	-11.43
363.512	70.48
363.723	47.96
363.935	33.62
364.146	93.01
364.357	90.96
364.568	25.43
364.779	66.39
364.99	47.96
365.201	-23.72
365.412	105.3
365.623	-3.24
365.834	9.05
366.045	4.95
366.256	80.72
366.467	9.05
366.678	131.92
366.889	105.3
367.1	41.81
367.311	113.49
367.522	29.52
367.733	54.1
367.944	88.92
368.155	84.82
368.366	105.3
368.577	84.82
368.788	74.58
368.999	41.81
369.209	-7.34
369.42	136.02
369.631	82.77
369.842	78.68
370.053	52.05
370.264	60.24
370.474	43.86
370.685	37.72
370.896	50
371.107	68.44
371.317	9.05
371.528	90.96
371.739	127.83
371.95	88.92
372.16	54.1
372.371	31.57
372.582	90.96
372.792	27.48
373.003	39.76
373.214	72.53
373.424	109.4
373.635	119.64
373.846	152.4
374.056	-40.11
374.267	62.29
374.477	119.64
374.688	60.24
374.898	31.57
375.109	140.12
375.319	60.24
375.53	60.24
375.74	-9.39
375.951	47.96
376.161	82.77
376.372	105.3
376.582	105.3
376.793	76.63
377.003	33.62
377.214	45.91
377.424	111.44
377.635	82.77
377.845	-19.63
378.055	56.15
378.266	-5.29
378.476	101.2
378.686	78.68
378.897	93.01
379.107	-5.29
379.317	33.62
379.528	60.24
379.738	99.16
379.948	-21.67
380.158	66.39
380.369	43.86
380.579	50
380.789	86.87
380.999	84.82
381.21	-58.54
381.42	146.26
381.63	13.14
381.84	-5.29
382.05	45.91
382.261	60.24
382.471	64.34
382.681	74.58
382.891	60.24
383.101	47.96
383.311	99.16
383.521	74.58
383.731	19.29
383.941	76.63
384.151	80.72
384.361	119.64
384.571	78.68
384.781	64.34
384.991	19.29
385.201	70.48
385.411	90.96
385.621	37.72
385.831	56.15
386.041	62.29
386.251	66.39
386.461	111.44
386.671	4.95
386.881	95.06
387.091	115.54
387.301	88.92
387.511	78.68
387.72	37.72
387.93	138.07
388.14	9.05
388.35	72.53
388.56	64.34
388.769	127.83
388.979	54.1
389.189	119.64
389.399	27.48
389.609	72.53
389.818	78.68
390.028	93.01
390.238	117.59
390.447	60.24
390.657	47.96
390.867	76.63
391.076	31.57
391.286	13.14
391.496	50
391.705	54.1
391.915	125.78
392.125	72.53
392.334	64.34
392.544	129.88
392.753	62.29
392.963	97.11
393.172	76.63
393.382	-5.29
393.591	176.98
393.801	68.44
394.01	113.49
394.22	95.06
394.429	68.44
394.639	35.67
394.848	129.88
395.058	88.92
395.267	123.73
395.477	127.83
395.686	121.68
395.895	113.49
396.105	125.78
396.314	129.88
396.524	101.2
396.733	95.06
396.942	127.83
397.152	101.2
397.361	68.44
397.57	101.2
397.78	119.64
397.989	152.4
398.198	107.35
398.407	140.12
398.617	86.87
398.826	101.2
399.035	144.21
399.244	154.45
399.453	86.87
399.663	136.02
399.872	150.36
400.081	27.48
400.29	64.34
400.499	84.82
400.708	156.5
400.917	88.92
401.127	191.31
401.336	95.06
401.545	156.5
401.754	109.4
401.963	107.35
402.172	70.48
402.381	140.12
402.59	138.07
402.799	164.69
403.008	99.16
403.217	107.35
403.426	154.45
403.635	205.65
403.844	242.51
404.053	215.89
404.262	119.64
404.471	146.26
404.68	211.79
404.888	174.93
405.097	113.49
405.306	152.4
405.515	226.13
405.724	181.07
405.933	187.22
406.142	150.36
406.35	213.84
406.559	187.22
406.768	164.69
406.977	258.9
407.185	271.19
407.394	203.6
407.603	207.7
407.812	195.41
408.02	260.95
408.229	242.51
408.438	262.99
408.646	262.99
408.855	324.43
409.064	314.19
409.272	217.94
409.481	383.82
409.69	287.57
409.898	346.96
410.107	332.62
410.315	369.49
410.524	437.07
410.733	430.93
410.941	361.3
411.15	453.45
411.358	471.89
411.567	516.94
411.775	500.56
411.984	478.03
412.192	553.8
412.401	539.47
412.609	584.52
412.818	660.3
413.026	521.04
413.234	629.58
413.443	576.33
413.651	615.24
413.86	693.07
414.068	707.4
414.276	791.37
414.485	729.93
414.693	801.61
414.901	801.61
415.11	756.55
415.318	844.62
415.526	834.38
415.734	938.82
415.943	867.14
416.151	1030.98
416.359	1037.13
416.567	1049.41
416.776	1143.62
416.984	1164.1
417.192	1051.46
417.4	1129.28
417.608	1143.62
417.817	1174.34
418.025	1241.92
418.233	1370.94
418.441	1420.1
418.649	1272.64
418.857	1512.25
419.065	1596.22
419.273	1538.88
419.481	1610.56
419.689	1565.5
419.897	1729.34
420.105	1839.93
420.313	1780.54
420.521	1923.9
420.729	1975.1
420.937	2028.34
421.145	2085.69
421.353	2194.23
421.561	2224.95
421.769	2239.28
421.977	2487.09
422.185	2450.22
422.393	2487.09
422.601	2765.61
422.809	2851.63
423.017	2661.16
423.224	2775.85
423.432	2855.72
423.64	2884.39
423.848	3234.6
424.056	3111.72
424.263	3361.57
424.471	3326.75
424.679	3468.06
424.887	3697.44
425.094	3775.26
425.302	3949.34
425.51	3939.1
425.718	4051.74
425.925	4104.98
426.133	4338.45
426.341	4498.19
426.548	4580.11
426.756	4672.27
426.964	4743.95
427.171	5081.86
427.379	5090.06
427.586	5270.28
427.794	5425.92
428.001	5636.86
428.209	6054.65
428.417	5751.55
428.624	6095.61
428.832	6327.03
429.039	6247.16
429.247	6206.2
429.454	6748.91
429.662	7322.34
429.869	6679.28
430.076	7361.25
430.284	6925.04
430.491	7336.68
430.699	7838.43
430.906	7885.53
431.114	7682.78
431.321	8159.96
431.528	8217.3
431.736	8743.63
431.943	9222.86
432.15	8970.96
432.358	9089.74
432.565	9669.31
432.772	9689.79
432.979	10164.92
433.187	10164.92
433.394	10367.67
433.601	11010.73
433.808	10908.33
434.016	10945.2
434.223	11610.79
434.43	12118.68
434.637	11883.17
434.844	12632.72
435.052	12958.35
435.259	12731.03
435.466	13032.08
435.673	13111.95
435.88	13613.7
436.087	14514.81
436.294	14576.25
436.501	14107.26
436.708	14248.57
436.915	14772.85
437.122	15682.15
437.329	15313.52
437.537	16274.01
437.743	16179.81
437.95	16034.4
438.157	17099.34
438.364	17461.83
438.571	17480.27
438.778	17723.97
438.985	19393.07
439.192	18510.39
439.399	18893.37
439.606	18473.53
439.813	19884.58
440.02	20711.96
440.227	20910.61
440.433	20177.44
440.64	20988.44
440.847	20824.6
441.054	21201.43
441.261	22751.74
441.467	22630.91
441.674	22919.67
441.881	23632.36
442.088	23652.84
442.294	23669.23
442.501	24031.72
442.708	24451.55
442.914	25696.72
443.121	26712.51
443.328	25821.64
443.534	27634.1
443.741	27124.15
443.948	26446.27
444.154	28799.39
444.361	28520.87
444.568	28744.09
444.774	28715.42
444.981	29276.57
445.187	30163.34
445.394	30878.08
445.6	30597.51
445.807	33722.71
446.013	31961.45
446.22	33124.7
446.426	34253.13
446.633	34150.73
446.839	35457.34
447.046	33829.2
447.252	36127.02
447.459	35797.3
447.665	36002.1
447.871	37611.8
448.078	39291.13
448.284	37443.87
448.491	38140.18
448.697	39786.74
448.903	40734.95
449.11	40237.3
449.316	39694.58
449.522	40800.49
449.728	41703.64
449.935	41855.19
450.141	41933.01
450.347	42727.63
450.553	41658.59
450.76	41937.11
450.966	43438.27
451.172	43188.42
451.378	44089.52
451.584	43321.54
451.791	44349.62
451.997	44091.57
452.203	45054.12
452.409	44708.01
452.615	44439.73
452.821	42940.61
453.027	42748.11
453.233	44787.88
453.44	43450.56
453.646	43802.81
453.852	43669.69
454.058	44599.47
454.264	42856.65
454.47	43790.52
454.676	43180.23
454.882	44222.64
455.088	40841.45
455.294	41122.02
455.5	41760.98
455.705	41957.59
455.911	40521.96
456.117	39586.04
456.323	39284.99
456.529	37134.62
456.735	38797.57
456.941	37880.08
457.147	37114.14
457.352	36012.34
457.558	35463.48
457.764	35938.61
457.97	34851.14
458.176	34492.74
458.381	34732.36
458.587	32704.87
458.793	32819.55
458.999	31283.58
459.204	33370.46
459.41	32295.27
459.616	29878.67
459.821	30222.73
460.027	29794.7
460.233	29518.23
460.438	28012.97
460.644	28303.78
460.85	27060.66
461.055	26937.79
461.261	26675.65
461.466	24506.85
461.672	23972.33
461.878	25362.9
462.083	24066.53
462.289	23466.48
462.494	23124.47
462.7	22276.61
462.905	21447.18
463.111	22180.35
463.316	22555.13
463.522	21662.22
463.727	21547.53
463.932	22034.95
464.138	21445.13
464.343	21848.58
464.549	20967.96
464.754	21479.95
464.959	21666.31
465.165	21428.75
465.37	20556.32
465.575	20177.44
465.781	21154.32
465.986	20783.64
466.191	20187.68
466.397	19888.68
466.602	18952.76
466.807	19360.3
467.012	19442.22
467.218	19302.96
467.423	19063.35
467.628	19212.85
467.833	19993.12
468.038	19268.14
468.244	18682.42
