Data from USB4F104151__31__12-35-35-441.txt Node

Date: Fri Mar 14 12:35:35 EDT 2025
User: louis
Spectrometer: USB4F10415
Trigger mode: 4
Integration Time (sec): 2.000000E-2
Scans to average: 1
Electric dark correction enabled: true
Nonlinearity correction enabled: false
Boxcar width: 0
XAxis mode: Wavelengths
Number of Pixels in Spectrum: 3648
>>>>>Begin Spectral Data<<<<<
178.204	-73.21
178.424	-73.21
178.644	-73.21
178.864	-136.7
179.084	-83.45
179.304	-65.02
179.524	37.38
179.744	-40.45
179.964	23.04
180.184	12.8
180.404	27.14
180.624	-7.68
180.844	57.86
181.064	-50.69
181.283	-1.54
181.503	-24.06
181.723	31.23
181.943	-5.63
182.163	96.77
182.383	29.18
182.602	4.61
182.822	6.66
183.042	6.66
183.262	-42.5
183.482	12.8
183.701	37.38
183.921	-48.64
184.141	4.61
184.361	-17.92
184.58	80.38
184.8	12.8
185.02	-56.83
185.239	80.38
185.459	-17.92
185.679	6.66
185.898	0.51
186.118	98.81
186.338	16.9
186.557	61.95
186.777	-30.21
186.997	86.53
187.216	78.33
187.436	-38.4
187.655	74.24
187.875	14.85
188.095	-32.26
188.314	104.96
188.534	35.33
188.753	6.66
188.973	-24.06
189.192	2.56
189.412	10.75
189.631	39.42
189.851	12.8
190.07	37.38
190.29	31.23
190.509	45.57
190.729	-54.78
190.948	43.52
191.168	45.57
191.387	49.66
191.607	16.9
191.826	27.14
192.045	-101.89
192.265	16.9
192.484	8.7
192.704	23.04
192.923	-19.97
193.142	86.53
193.362	-11.78
193.581	-9.73
193.8	61.95
194.02	88.57
194.239	-44.54
194.458	18.94
194.678	49.66
194.897	31.23
195.116	-11.78
195.335	61.95
195.555	78.33
195.774	74.24
195.993	8.7
196.212	66.05
196.432	49.66
196.651	27.14
196.87	25.09
197.089	16.9
197.308	20.99
197.528	29.18
197.747	49.66
197.966	41.47
198.185	96.77
198.404	20.99
198.623	43.52
198.842	0.51
199.062	80.38
199.281	4.61
199.5	20.99
199.719	16.9
199.938	-3.58
200.157	90.62
200.376	20.99
200.595	64
200.814	-9.73
201.033	31.23
201.252	41.47
201.471	35.33
201.69	41.47
201.909	-9.73
202.128	66.05
202.347	-17.92
202.566	29.18
202.785	-28.16
203.004	8.7
203.223	64
203.442	-36.35
203.661	-48.64
203.879	18.94
204.098	115.2
204.317	39.42
204.536	23.04
204.755	64
204.974	23.04
205.193	23.04
205.411	35.33
205.63	4.61
205.849	78.33
206.068	55.81
206.287	25.09
206.505	20.99
206.724	-52.74
206.943	16.9
207.162	-5.63
207.381	-7.68
207.599	-26.11
207.818	37.38
208.037	96.77
208.255	6.66
208.474	33.28
208.693	64
208.911	29.18
209.13	-42.5
209.349	-11.78
209.567	82.43
209.786	45.57
210.005	-5.63
210.223	64
210.442	-124.41
210.661	25.09
210.879	-17.92
211.098	-3.58
211.316	41.47
211.535	23.04
211.753	76.29
211.972	70.14
212.191	-5.63
212.409	-48.64
212.628	61.95
212.846	8.7
213.065	12.8
213.283	94.72
213.502	41.47
213.72	55.81
213.938	-17.92
214.157	-30.21
214.375	37.38
214.594	10.75
214.812	-46.59
215.031	45.57
215.249	-30.21
215.467	-5.63
215.686	47.62
215.904	78.33
216.122	-13.82
216.341	-13.82
216.559	8.7
216.778	51.71
216.996	59.9
217.214	6.66
217.432	4.61
217.651	-7.68
217.869	14.85
218.087	-5.63
218.306	-71.17
218.524	37.38
218.742	51.71
218.96	8.7
219.179	18.94
219.397	-19.97
219.615	51.71
219.833	27.14
220.051	6.66
220.27	80.38
220.488	51.71
220.706	2.56
220.924	25.09
221.142	-19.97
221.36	43.52
221.578	-22.02
221.796	20.99
222.015	-1.54
222.233	20.99
222.451	20.99
222.669	-73.21
222.887	76.29
223.105	35.33
223.323	6.66
223.541	-11.78
223.759	35.33
223.977	20.99
224.195	64
224.413	100.86
224.631	10.75
224.849	59.9
225.067	16.9
225.285	29.18
225.503	20.99
225.721	-24.06
225.939	23.04
226.157	-5.63
226.375	107.01
226.592	61.95
226.81	14.85
227.028	59.9
227.246	68.09
227.464	-3.58
227.682	39.42
227.9	90.62
228.117	35.33
228.335	18.94
228.553	-7.68
228.771	41.47
228.989	45.57
229.206	45.57
229.424	39.42
229.642	49.66
229.86	-9.73
230.077	78.33
230.295	14.85
230.513	4.61
230.731	-5.63
230.948	57.86
231.166	53.76
231.384	12.8
231.601	0.51
231.819	37.38
232.037	66.05
232.254	0.51
232.472	49.66
232.689	-62.98
232.907	-13.82
233.125	51.71
233.342	33.28
233.56	-28.16
233.777	23.04
233.995	-50.69
234.213	55.81
234.43	-22.02
234.648	76.29
234.865	37.38
235.083	111.1
235.3	23.04
235.518	23.04
235.735	119.29
235.953	80.38
236.17	64
236.388	41.47
236.605	59.9
236.822	47.62
237.04	111.1
237.257	20.99
237.475	51.71
237.692	80.38
237.909	55.81
238.127	37.38
238.344	94.72
238.562	29.18
238.779	-7.68
238.996	29.18
239.214	76.29
239.431	82.43
239.648	-7.68
239.865	0.51
240.083	25.09
240.3	-11.78
240.517	-7.68
240.735	-9.73
240.952	-24.06
241.169	-9.73
241.386	-26.11
241.603	-3.58
241.821	-38.4
242.038	55.81
242.255	29.18
242.472	41.47
242.689	-7.68
242.907	16.9
243.124	55.81
243.341	-26.11
243.558	45.57
243.775	59.9
243.992	43.52
244.209	-9.73
244.426	96.77
244.643	74.24
244.86	20.99
245.078	-11.78
245.295	29.18
245.512	-11.78
245.729	-19.97
245.946	37.38
246.163	74.24
246.38	23.04
246.597	94.72
246.814	10.75
247.031	-11.78
247.248	-17.92
247.464	23.04
247.681	39.42
247.898	66.05
248.115	31.23
248.332	2.56
248.549	41.47
248.766	96.77
248.983	18.94
249.2	10.75
249.417	41.47
249.633	-9.73
249.85	-22.02
250.067	41.47
250.284	74.24
250.501	57.86
250.717	4.61
250.934	12.8
251.151	49.66
251.368	-62.98
251.585	53.76
251.801	10.75
252.018	16.9
252.235	-13.82
252.451	29.18
252.668	-48.64
252.885	-13.82
253.102	-5.63
253.318	43.52
253.535	-5.63
253.752	-22.02
253.968	-67.07
254.185	-9.73
254.401	14.85
254.618	-1.54
254.835	-17.92
255.051	61.95
255.268	-17.92
255.484	-17.92
255.701	2.56
255.917	8.7
256.134	31.23
256.351	-5.63
256.567	-58.88
256.784	-11.78
257	2.56
257.217	31.23
257.433	16.9
257.65	-7.68
257.866	37.38
258.082	-22.02
258.299	43.52
258.515	104.96
258.732	39.42
258.948	23.04
259.165	0.51
259.381	14.85
259.597	29.18
259.814	25.09
260.03	51.71
260.246	6.66
260.463	47.62
260.679	25.09
260.895	-13.82
261.112	64
261.328	43.52
261.544	119.29
261.761	39.42
261.977	23.04
262.193	-79.36
262.409	72.19
262.626	119.29
262.842	47.62
263.058	82.43
263.274	127.49
263.49	49.66
263.707	61.95
263.923	39.42
264.139	70.14
264.355	37.38
264.571	16.9
264.787	-9.73
265.004	23.04
265.22	33.28
265.436	33.28
265.652	29.18
265.868	84.48
266.084	25.09
266.3	10.75
266.516	-54.78
266.732	33.28
266.948	-9.73
267.164	55.81
267.38	-5.63
267.596	43.52
267.812	45.57
268.028	78.33
268.244	-17.92
268.46	-11.78
268.676	-1.54
268.892	76.29
269.108	-50.69
269.324	-3.58
269.54	57.86
269.756	72.19
269.972	-9.73
270.188	53.76
270.403	-22.02
270.619	-58.88
270.835	43.52
271.051	27.14
271.267	47.62
271.483	37.38
271.698	86.53
271.914	-5.63
272.13	47.62
272.346	45.57
272.562	27.14
272.777	29.18
272.993	18.94
273.209	43.52
273.425	25.09
273.64	33.28
273.856	10.75
274.072	43.52
274.287	6.66
274.503	-5.63
274.719	27.14
274.934	47.62
275.15	-32.26
275.366	-5.63
275.581	-5.63
275.797	14.85
276.012	0.51
276.228	92.67
276.444	29.18
276.659	53.76
276.875	66.05
277.09	82.43
277.306	31.23
277.521	53.76
277.737	-19.97
277.952	84.48
278.168	49.66
278.383	20.99
278.599	6.66
278.814	-3.58
279.03	-50.69
279.245	59.9
279.461	14.85
279.676	96.77
279.892	39.42
280.107	-36.35
280.322	-13.82
280.538	10.75
280.753	98.81
280.969	59.9
281.184	-5.63
281.399	-5.63
281.615	16.9
281.83	23.04
282.045	49.66
282.26	55.81
282.476	84.48
282.691	2.56
282.906	29.18
283.122	23.04
283.337	18.94
283.552	49.66
283.767	-30.21
283.983	78.33
284.198	-9.73
284.413	76.29
284.628	61.95
284.843	78.33
285.058	-19.97
285.274	2.56
285.489	43.52
285.704	23.04
285.919	53.76
286.134	61.95
286.349	59.9
286.564	-34.3
286.779	100.86
286.995	4.61
287.21	27.14
287.425	-28.16
287.64	-13.82
287.855	102.91
288.07	10.75
288.285	109.05
288.5	20.99
288.715	109.05
288.93	6.66
289.145	25.09
289.36	-26.11
289.575	43.52
289.79	107.01
290.004	47.62
290.219	31.23
290.434	47.62
290.649	20.99
290.864	-5.63
291.079	14.85
291.294	4.61
291.509	59.9
291.724	59.9
291.938	31.23
292.153	2.56
292.368	6.66
292.583	61.95
292.798	61.95
293.012	35.33
293.227	-7.68
293.442	35.33
293.657	6.66
293.871	4.61
294.086	45.57
294.301	64
294.516	14.85
294.73	66.05
294.945	6.66
295.16	33.28
295.374	51.71
295.589	14.85
295.804	10.75
296.018	-1.54
296.233	70.14
296.447	72.19
296.662	16.9
296.877	123.39
297.091	31.23
297.306	8.7
297.52	14.85
297.735	102.91
297.949	-9.73
298.164	-36.35
298.378	111.1
298.593	-28.16
298.807	61.95
299.022	70.14
299.236	74.24
299.451	55.81
299.665	2.56
299.88	23.04
300.094	18.94
300.309	14.85
300.523	43.52
300.737	102.91
300.952	35.33
301.166	66.05
301.381	43.52
301.595	2.56
301.809	35.33
302.024	-30.21
302.238	-34.3
302.452	-1.54
302.667	-30.21
302.881	23.04
303.095	94.72
303.309	49.66
303.524	-46.59
303.738	59.9
303.952	16.9
304.166	29.18
304.381	-13.82
304.595	119.29
304.809	-26.11
305.023	-19.97
305.237	16.9
305.452	37.38
305.666	59.9
305.88	76.29
306.094	64
306.308	61.95
306.522	-1.54
306.736	37.38
306.95	2.56
307.164	64
307.379	-30.21
307.593	27.14
307.807	-7.68
308.021	80.38
308.235	23.04
308.449	16.9
308.663	-28.16
308.877	47.62
309.091	51.71
309.305	125.44
309.519	55.81
309.733	12.8
309.947	47.62
310.161	43.52
310.374	84.48
310.588	72.19
310.802	-7.68
311.016	41.47
311.23	53.76
311.444	55.81
311.658	-30.21
311.872	25.09
312.085	27.14
312.299	39.42
312.513	90.62
312.727	125.44
312.941	57.86
313.154	53.76
313.368	-24.06
313.582	27.14
313.796	37.38
314.009	45.57
314.223	10.75
314.437	51.71
314.651	-5.63
314.864	-40.45
315.078	53.76
315.292	66.05
315.505	23.04
315.719	-38.4
315.933	82.43
316.146	-5.63
316.36	72.19
316.573	82.43
316.787	53.76
317.001	37.38
317.214	-42.5
317.428	61.95
317.641	72.19
317.855	61.95
318.068	37.38
318.282	4.61
318.495	104.96
318.709	90.62
318.922	25.09
319.136	29.18
319.349	57.86
319.563	-24.06
319.776	16.9
319.99	43.52
320.203	12.8
320.417	23.04
320.63	14.85
320.843	78.33
321.057	107.01
321.27	57.86
321.483	-19.97
321.697	96.77
321.91	-36.35
322.124	25.09
322.337	18.94
322.55	33.28
322.763	-40.45
322.977	31.23
323.19	55.81
323.403	66.05
323.617	76.29
323.83	115.2
324.043	51.71
324.256	18.94
324.469	-1.54
324.683	121.34
324.896	39.42
325.109	57.86
325.322	59.9
325.535	0.51
325.748	45.57
325.962	8.7
326.175	45.57
326.388	78.33
326.601	35.33
326.814	-44.54
327.027	23.04
327.24	6.66
327.453	55.81
327.666	70.14
327.879	72.19
328.092	115.2
328.305	47.62
328.518	66.05
328.731	33.28
328.944	-13.82
329.157	86.53
329.37	-28.16
329.583	59.9
329.796	66.05
330.009	16.9
330.222	33.28
330.435	115.2
330.648	55.81
330.861	18.94
331.073	102.91
331.286	39.42
331.499	84.48
331.712	66.05
331.925	4.61
332.138	76.29
332.35	51.71
332.563	66.05
332.776	45.57
332.989	23.04
333.202	43.52
333.414	0.51
333.627	-19.97
333.84	20.99
334.053	49.66
334.265	33.28
334.478	55.81
334.691	98.81
334.903	61.95
335.116	18.94
335.329	39.42
335.541	82.43
335.754	109.05
335.966	49.66
336.179	74.24
336.392	-9.73
336.604	84.48
336.817	41.47
337.029	53.76
337.242	137.73
337.454	80.38
337.667	68.09
337.88	66.05
338.092	64
338.305	33.28
338.517	25.09
338.729	37.38
338.942	51.71
339.154	23.04
339.367	49.66
339.579	66.05
339.792	84.48
340.004	127.49
340.217	84.48
340.429	12.8
340.641	47.62
340.854	-19.97
341.066	0.51
341.278	23.04
341.491	80.38
341.703	90.62
341.915	47.62
342.128	-44.54
342.34	37.38
342.552	10.75
342.764	-11.78
342.977	23.04
343.189	6.66
343.401	64
343.613	86.53
343.826	37.38
344.038	49.66
344.25	121.34
344.462	121.34
344.674	29.18
344.886	-19.97
345.099	16.9
345.311	90.62
345.523	-5.63
345.735	27.14
345.947	53.76
346.159	47.62
346.371	-28.16
346.583	33.28
346.795	94.72
347.007	102.91
347.219	82.43
347.431	14.85
347.643	98.81
347.855	12.8
348.067	70.14
348.279	25.09
348.491	45.57
348.703	39.42
348.915	78.33
349.127	-9.73
349.339	-1.54
349.551	-1.54
349.763	53.76
349.975	23.04
350.187	92.67
350.399	20.99
350.61	39.42
350.822	6.66
351.034	33.28
351.246	27.14
351.458	-11.78
351.669	31.23
351.881	20.99
352.093	39.42
352.305	64
352.517	84.48
352.728	-19.97
352.94	53.76
353.152	57.86
353.363	4.61
353.575	45.57
353.787	31.23
353.999	70.14
354.21	72.19
354.422	84.48
354.633	107.01
354.845	45.57
355.057	84.48
355.268	64
355.48	29.18
355.692	80.38
355.903	23.04
356.115	72.19
356.326	66.05
356.538	16.9
356.749	16.9
356.961	76.29
357.172	35.33
357.384	39.42
357.595	61.95
357.807	64
358.018	23.04
358.23	109.05
358.441	82.43
358.653	80.38
358.864	35.33
359.075	-22.02
359.287	76.29
359.498	61.95
359.709	4.61
359.921	104.96
360.132	16.9
360.344	70.14
360.555	61.95
360.766	41.47
360.977	33.28
361.189	10.75
361.4	35.33
361.611	86.53
361.823	27.14
362.034	102.91
362.245	-34.3
362.456	76.29
362.667	64
362.879	12.8
363.09	131.58
363.301	55.81
363.512	8.7
363.723	4.61
363.935	16.9
364.146	4.61
364.357	61.95
364.568	20.99
364.779	41.47
364.99	72.19
365.201	14.85
365.412	61.95
365.623	78.33
365.834	86.53
366.045	41.47
366.256	8.7
366.467	37.38
366.678	29.18
366.889	37.38
367.1	-19.97
367.311	47.62
367.522	-19.97
367.733	88.57
367.944	109.05
368.155	47.62
368.366	43.52
368.577	6.66
368.788	12.8
368.999	-48.64
369.209	47.62
369.42	70.14
369.631	92.67
369.842	123.39
370.053	43.52
370.264	90.62
370.474	29.18
370.685	18.94
370.896	39.42
371.107	66.05
371.317	-38.4
371.528	43.52
371.739	61.95
371.95	66.05
372.16	109.05
372.371	53.76
372.582	88.57
372.792	84.48
373.003	10.75
373.214	72.19
373.424	59.9
373.635	2.56
373.846	29.18
374.056	23.04
374.267	92.67
374.477	-9.73
374.688	43.52
374.898	74.24
375.109	80.38
375.319	111.1
375.53	53.76
375.74	33.28
375.951	51.71
376.161	64
376.372	98.81
376.582	64
376.793	31.23
377.003	33.28
377.214	20.99
377.424	74.24
377.635	66.05
377.845	53.76
378.055	100.86
378.266	61.95
378.476	8.7
378.686	35.33
378.897	66.05
379.107	16.9
379.317	64
379.528	59.9
379.738	35.33
379.948	55.81
380.158	121.34
380.369	109.05
380.579	100.86
380.789	84.48
380.999	64
381.21	39.42
381.42	53.76
381.63	109.05
381.84	31.23
382.05	29.18
382.261	88.57
382.471	109.05
382.681	59.9
382.891	55.81
383.101	90.62
383.311	80.38
383.521	-44.54
383.731	131.58
383.941	107.01
384.151	-1.54
384.361	47.62
384.571	82.43
384.781	72.19
384.991	125.44
385.201	119.29
385.411	82.43
385.621	80.38
385.831	16.9
386.041	29.18
386.251	88.57
386.461	70.14
386.671	57.86
386.881	72.19
387.091	61.95
387.301	121.34
387.511	0.51
387.72	16.9
387.93	-19.97
388.14	57.86
388.35	76.29
388.56	135.68
388.769	94.72
388.979	131.58
389.189	41.47
389.399	-13.82
389.609	78.33
389.818	123.39
390.028	10.75
390.238	23.04
390.447	152.06
390.657	88.57
390.867	125.44
391.076	78.33
391.286	33.28
391.496	100.86
391.705	107.01
391.915	-3.58
392.125	84.48
392.334	100.86
392.544	154.11
392.753	125.44
392.963	64
393.172	121.34
393.382	145.92
393.591	164.35
393.801	166.4
394.01	123.39
394.22	72.19
394.429	113.15
394.639	123.39
394.848	92.67
395.058	61.95
395.267	37.38
395.477	102.91
395.686	102.91
395.895	129.53
396.105	168.45
396.314	96.77
396.524	158.21
396.733	59.9
396.942	121.34
397.152	117.25
397.361	102.91
397.57	127.49
397.78	150.01
397.989	100.86
398.198	213.5
398.407	125.44
398.617	186.88
398.826	160.25
399.035	184.83
399.244	100.86
399.453	145.92
399.663	139.77
399.872	141.82
400.081	166.4
400.29	162.3
400.499	135.68
400.708	139.77
400.917	143.87
401.127	90.62
401.336	133.63
401.545	229.88
401.754	164.35
401.963	121.34
402.172	121.34
402.381	121.34
402.59	178.69
402.799	135.68
403.008	158.21
403.217	162.3
403.426	107.01
403.635	137.73
403.844	141.82
404.053	100.86
404.262	143.87
404.471	141.82
404.68	141.82
404.888	156.16
405.097	115.2
405.306	182.78
405.515	180.73
405.724	221.69
405.933	274.94
406.142	109.05
406.35	248.32
406.559	209.4
406.768	287.23
406.977	246.27
407.185	287.23
407.394	301.56
407.603	215.55
407.812	264.7
408.02	313.85
408.229	309.76
408.438	238.08
408.646	186.88
408.855	324.09
409.064	320
409.272	346.62
409.481	375.29
409.69	397.82
409.898	373.24
410.107	418.3
410.315	367.1
410.524	424.44
410.733	414.2
410.941	465.4
411.15	471.54
411.358	469.5
411.567	520.7
411.775	518.65
411.984	522.74
412.192	604.66
412.401	643.57
412.609	473.59
412.818	670.2
413.026	594.42
413.234	655.86
413.443	748.02
413.651	641.53
413.86	770.55
414.068	715.25
414.276	819.7
414.485	778.74
414.693	975.35
414.901	930.29
415.11	932.34
415.318	938.48
415.526	946.67
415.734	1006.06
415.943	1071.6
416.151	1067.5
416.359	1087.98
416.567	1174
416.776	1251.82
416.984	1264.11
417.192	1374.7
417.4	1323.5
417.608	1294.83
417.817	1372.65
418.025	1403.37
418.233	1526.25
418.441	1468.91
418.649	1593.83
418.857	1726.95
419.065	1714.66
419.273	1688.04
419.481	1780.2
419.689	1903.07
419.897	2023.91
420.105	2042.34
420.313	2169.31
420.521	2214.37
420.729	2122.21
420.937	2273.76
421.145	2329.05
421.353	2408.92
421.561	2398.68
421.769	2724.31
421.977	2671.06
422.185	2779.61
422.393	2865.62
422.601	2965.97
422.809	3068.37
423.017	3068.37
423.224	3195.34
423.432	3275.21
423.64	3285.45
423.848	3596.75
424.056	3445.2
424.263	3791.3
424.471	3791.3
424.679	3951.04
424.887	4084.16
425.094	4202.94
425.302	4299.2
425.51	4311.49
425.718	4553.15
425.925	4596.15
426.133	4782.52
426.341	4979.12
426.548	5175.73
426.756	5093.81
426.964	5419.44
427.171	5595.56
427.379	5700.01
427.586	5890.47
427.794	6085.03
428.001	6275.49
428.209	6465.95
428.417	6306.21
428.624	6857.11
428.832	7074.2
429.039	6959.51
429.247	6818.2
429.454	7575.95
429.662	8034.69
429.869	7498.13
430.076	7987.59
430.284	7729.55
430.491	8081.8
430.699	8638.84
430.906	8565.12
431.114	8708.48
431.321	8917.37
431.528	9091.45
431.736	9689.45
431.943	10330.47
432.15	9916.78
432.358	10097
432.565	10639.71
432.772	10453.34
432.979	11209.04
433.187	11391.31
433.394	11297.11
433.601	12042.57
433.808	12132.68
434.016	12079.43
434.223	12529.98
434.43	13510.96
434.637	13041.98
434.844	13740.33
435.052	14125.35
435.259	14162.22
435.466	14379.3
435.673	14057.77
435.88	14833.95
436.087	15563.03
436.294	15733.01
436.501	15497.49
436.708	15685.9
436.915	16427.27
437.122	16744.7
437.329	16947.45
437.537	17254.65
437.743	17613.04
437.95	17606.9
438.157	18331.88
438.364	19155.16
438.571	19142.88
438.778	19300.57
438.985	20811.97
439.192	19892.43
439.399	20746.44
439.606	20218.06
439.813	21207.23
440.02	22882.47
440.227	21924.02
440.433	22091.95
440.64	23148.7
440.847	22716.58
441.054	23394.46
441.261	24699.02
441.467	24625.29
441.674	25018.5
441.881	25763.96
442.088	25866.36
442.294	25567.35
442.501	26601.58
442.708	27072.61
442.914	27994.2
443.121	29239.36
443.328	28325.97
443.534	30335.03
443.741	29526.08
443.948	29061.19
444.154	31066.15
444.361	30793.77
444.568	31105.06
444.774	30814.25
444.981	31311.91
445.187	32278.55
445.394	33564.67
445.6	33237
445.807	36415.44
446.013	34983.91
446.22	35377.12
446.426	36952.01
446.633	37337.03
446.839	38346.68
447.046	36863.95
447.252	39309.22
447.459	39106.48
447.665	38666.16
447.871	40484.76
448.078	42110.85
448.284	40058.78
448.491	41611.14
448.697	42934.13
448.903	43810.66
449.11	44132.19
449.316	43179.89
449.522	43913.06
449.728	45033.3
449.935	45379.4
450.141	45455.18
450.347	46268.22
450.553	44896.08
450.76	45672.26
450.966	47030.07
451.172	46632.76
451.378	47589.16
451.584	46880.56
451.791	47695.66
451.997	47824.68
452.203	48590.62
452.409	48373.53
452.615	48299.81
452.821	46102.34
453.027	46069.57
453.233	47925.03
453.44	46706.49
453.646	47154.99
453.852	47204.14
454.058	48357.15
454.264	46643
454.47	47562.54
454.676	46253.89
454.882	48078.63
455.088	44017.5
455.294	44355.42
455.5	45285.2
455.705	45774.66
455.911	43829.09
456.117	43183.98
456.323	42473.34
456.529	40370.07
456.735	42006.4
456.941	41015.18
457.147	40249.24
457.352	38760.37
457.558	38975.41
457.764	38373.3
457.97	37875.65
458.176	37162.95
458.381	37353.41
458.587	35545.06
458.793	35432.42
458.999	33722.37
459.204	36229.08
459.41	34985.96
459.616	32770.06
459.821	32600.08
460.027	32575.5
460.233	31633.44
460.438	30449.71
460.644	30767.15
460.85	29509.69
461.055	28794.95
461.261	28837.96
461.466	26681.45
461.672	25741.43
461.878	27975.77
462.083	25788.53
462.289	25096.32
462.494	25370.75
462.7	24027.28
462.905	23496.86
463.111	24393.87
463.316	24453.26
463.522	23396.51
463.727	23597.21
463.932	23695.51
464.138	23507.1
464.343	23349.4
464.549	22589.61
464.754	23632.02
464.959	23416.99
465.165	23378.08
465.37	22343.85
465.575	21631.16
465.781	22419.63
465.986	22685.86
466.191	21915.83
466.397	21264.57
466.602	20486.34
466.807	21145.79
467.012	21074.11
467.218	21113.02
467.423	20955.33
467.628	20996.29
467.833	21508.28
468.038	21014.72
