Data from USB4F104151__19__12-35-20-903.txt Node

Date: Fri Mar 14 12:35:20 EDT 2025
User: louis
Spectrometer: USB4F10415
Trigger mode: 4
Integration Time (sec): 2.000000E-2
Scans to average: 1
Electric dark correction enabled: true
Nonlinearity correction enabled: false
Boxcar width: 0
XAxis mode: Wavelengths
Number of Pixels in Spectrum: 3648
>>>>>Begin Spectral Data<<<<<
178.204	-29.18
178.424	-29.18
178.644	-29.18
178.864	-45.57
179.084	-25.09
179.304	1.54
179.524	-6.66
179.744	58.88
179.964	38.4
180.184	-8.7
180.404	-37.38
180.624	3.58
180.844	-18.94
181.064	-59.9
181.283	-33.28
181.503	26.11
181.723	36.35
181.943	-98.81
182.163	19.97
182.383	-4.61
182.602	40.45
182.822	-8.7
183.042	103.93
183.262	-92.67
183.482	69.12
183.701	11.78
183.921	-20.99
184.141	15.87
184.361	54.78
184.58	50.69
184.8	5.63
185.02	-2.56
185.239	110.08
185.459	-4.61
185.679	67.07
185.898	42.5
186.118	5.63
186.338	146.94
186.557	1.54
186.777	46.59
186.997	15.87
187.216	-23.04
187.436	110.08
187.655	38.4
187.875	26.11
188.095	-10.75
188.314	38.4
188.534	38.4
188.753	3.58
188.973	58.88
189.192	13.82
189.412	-14.85
189.631	50.69
189.851	7.68
190.07	19.97
190.29	-23.04
190.509	60.93
190.729	26.11
190.948	52.74
191.168	116.22
191.387	28.16
191.607	58.88
191.826	30.21
192.045	1.54
192.265	73.21
192.484	105.98
192.704	50.69
192.923	-53.76
193.142	15.87
193.362	58.88
193.581	60.93
193.8	-20.99
194.02	11.78
194.239	52.74
194.458	91.65
194.678	-43.52
194.897	56.83
195.116	11.78
195.335	26.11
195.555	-27.14
195.774	42.5
195.993	34.3
196.212	34.3
196.432	3.58
196.651	-35.33
196.87	65.02
197.089	40.45
197.308	19.97
197.528	38.4
197.747	22.02
197.966	46.59
198.185	38.4
198.404	1.54
198.623	69.12
198.842	85.5
199.062	-16.9
199.281	75.26
199.5	60.93
199.719	30.21
199.938	67.07
200.157	-10.75
200.376	48.64
200.595	65.02
200.814	62.98
201.033	-4.61
201.252	87.55
201.471	30.21
201.69	67.07
201.909	40.45
202.128	-23.04
202.347	54.78
202.566	60.93
202.785	36.35
203.004	11.78
203.223	15.87
203.442	114.17
203.661	19.97
203.879	105.98
204.098	79.36
204.317	5.63
204.536	26.11
204.755	89.6
204.974	13.82
205.193	-8.7
205.411	87.55
205.63	91.65
205.849	71.17
206.068	42.5
206.287	19.97
206.505	17.92
206.724	9.73
206.943	-6.66
207.162	-47.62
207.381	-4.61
207.599	22.02
207.818	46.59
208.037	3.58
208.255	-51.71
208.474	48.64
208.693	11.78
208.911	118.27
209.13	-16.9
209.349	52.74
209.567	5.63
209.786	44.54
210.005	7.68
210.223	11.78
210.442	-25.09
210.661	52.74
210.879	44.54
211.098	-45.57
211.316	46.59
211.535	3.58
211.753	54.78
211.972	7.68
212.191	-33.28
212.409	7.68
212.628	60.93
212.846	-2.56
213.065	46.59
213.283	81.41
213.502	67.07
213.72	5.63
213.938	50.69
214.157	22.02
214.375	52.74
214.594	65.02
214.812	7.68
215.031	36.35
215.249	15.87
215.467	17.92
215.686	50.69
215.904	97.79
216.122	36.35
216.341	42.5
216.559	-0.51
216.778	38.4
216.996	34.3
217.214	-53.76
217.432	40.45
217.651	32.26
217.869	-10.75
218.087	26.11
218.306	24.06
218.524	79.36
218.742	48.64
218.96	91.65
219.179	24.06
219.397	5.63
219.615	44.54
219.833	81.41
220.051	24.06
220.27	-10.75
220.488	52.74
220.706	-27.14
220.924	-23.04
221.142	-18.94
221.36	-41.47
221.578	71.17
221.796	-29.18
222.015	36.35
222.233	-12.8
222.451	56.83
222.669	44.54
222.887	126.46
223.105	58.88
223.323	40.45
223.541	60.93
223.759	24.06
223.977	19.97
224.195	28.16
224.413	46.59
224.631	36.35
224.849	58.88
225.067	44.54
225.285	26.11
225.503	60.93
225.721	1.54
225.939	-43.52
226.157	-10.75
226.375	48.64
226.592	44.54
226.81	75.26
227.028	65.02
227.246	36.35
227.464	-59.9
227.682	81.41
227.9	7.68
228.117	-10.75
228.335	5.63
228.553	13.82
228.771	-10.75
228.989	40.45
229.206	48.64
229.424	-8.7
229.642	50.69
229.86	89.6
230.077	60.93
230.295	24.06
230.513	9.73
230.731	65.02
230.948	22.02
231.166	124.41
231.384	17.92
231.601	11.78
231.819	36.35
232.037	-2.56
232.254	24.06
232.472	50.69
232.689	-4.61
232.907	65.02
233.125	28.16
233.342	-37.38
233.56	-23.04
233.777	42.5
233.995	1.54
234.213	73.21
234.43	32.26
234.648	38.4
234.865	-18.94
235.083	-31.23
235.3	85.5
235.518	110.08
235.735	-10.75
235.953	101.89
236.17	11.78
236.388	24.06
236.605	44.54
236.822	22.02
237.04	-14.85
237.257	71.17
237.475	38.4
237.692	-6.66
237.909	-27.14
238.127	19.97
238.344	38.4
238.562	62.98
238.779	26.11
238.996	50.69
239.214	34.3
239.431	11.78
239.648	-0.51
239.865	60.93
240.083	28.16
240.3	40.45
240.517	38.4
240.735	-23.04
240.952	105.98
241.169	36.35
241.386	34.3
241.603	36.35
241.821	-0.51
242.038	44.54
242.255	-16.9
242.472	-8.7
242.689	-27.14
242.907	17.92
243.124	24.06
243.341	93.69
243.558	38.4
243.775	77.31
243.992	3.58
244.209	65.02
244.426	60.93
244.643	97.79
244.86	38.4
245.078	-2.56
245.295	36.35
245.512	32.26
245.729	-14.85
245.946	26.11
246.163	-6.66
246.38	-2.56
246.597	-6.66
246.814	-16.9
247.031	24.06
247.248	58.88
247.464	32.26
247.681	52.74
247.898	151.04
248.115	22.02
248.332	38.4
248.549	124.41
248.766	85.5
248.983	75.26
249.2	-16.9
249.417	130.56
249.633	36.35
249.85	73.21
250.067	97.79
250.284	71.17
250.501	-35.33
250.717	79.36
250.934	-43.52
251.151	101.89
251.368	9.73
251.585	22.02
251.801	52.74
252.018	-2.56
252.235	9.73
252.451	13.82
252.668	13.82
252.885	17.92
253.102	-4.61
253.318	40.45
253.535	-0.51
253.752	32.26
253.968	34.3
254.185	9.73
254.401	-18.94
254.618	79.36
254.835	42.5
255.051	83.45
255.268	17.92
255.484	7.68
255.701	40.45
255.917	30.21
256.134	30.21
256.351	-12.8
256.567	11.78
256.784	17.92
257	-4.61
257.217	44.54
257.433	42.5
257.65	56.83
257.866	60.93
258.082	65.02
258.299	11.78
258.515	32.26
258.732	44.54
258.948	56.83
259.165	3.58
259.381	28.16
259.597	15.87
259.814	19.97
260.03	50.69
260.246	105.98
260.463	13.82
260.679	110.08
260.895	7.68
261.112	17.92
261.328	-51.71
261.544	48.64
261.761	118.27
261.977	-14.85
262.193	22.02
262.409	40.45
262.626	1.54
262.842	95.74
263.058	24.06
263.274	89.6
263.49	36.35
263.707	52.74
263.923	19.97
264.139	22.02
264.355	13.82
264.571	-20.99
264.787	-12.8
265.004	36.35
265.22	69.12
265.436	46.59
265.652	-0.51
265.868	71.17
266.084	108.03
266.3	34.3
266.516	-25.09
266.732	75.26
266.948	-8.7
267.164	7.68
267.38	-49.66
267.596	77.31
267.812	71.17
268.028	91.65
268.244	17.92
268.46	5.63
268.676	-23.04
268.892	93.69
269.108	26.11
269.324	32.26
269.54	11.78
269.756	65.02
269.972	46.59
270.188	19.97
270.403	24.06
270.619	-14.85
270.835	67.07
271.051	36.35
271.267	-51.71
271.483	103.93
271.698	-10.75
271.914	75.26
272.13	3.58
272.346	75.26
272.562	-6.66
272.777	71.17
272.993	9.73
273.209	73.21
273.425	19.97
273.64	34.3
273.856	67.07
274.072	48.64
274.287	3.58
274.503	13.82
274.719	99.84
274.934	50.69
275.15	36.35
275.366	-45.57
275.581	-23.04
275.797	36.35
276.012	28.16
276.228	38.4
276.444	46.59
276.659	101.89
276.875	46.59
277.09	-0.51
277.306	67.07
277.521	19.97
277.737	46.59
277.952	11.78
278.168	22.02
278.383	32.26
278.599	52.74
278.814	5.63
279.03	91.65
279.245	71.17
279.461	9.73
279.676	30.21
279.892	3.58
280.107	15.87
280.322	46.59
280.538	11.78
280.753	112.13
280.969	-6.66
281.184	32.26
281.399	19.97
281.615	-2.56
281.83	-41.47
282.045	-0.51
282.26	62.98
282.476	89.6
282.691	44.54
282.906	32.26
283.122	-14.85
283.337	24.06
283.552	81.41
283.767	52.74
283.983	50.69
284.198	-16.9
284.413	67.07
284.628	17.92
284.843	79.36
285.058	19.97
285.274	77.31
285.489	1.54
285.704	24.06
285.919	-25.09
286.134	93.69
286.349	58.88
286.564	83.45
286.779	73.21
286.995	11.78
287.21	38.4
287.425	-16.9
287.64	-8.7
287.855	9.73
288.07	24.06
288.285	73.21
288.5	79.36
288.715	77.31
288.93	93.69
289.145	-8.7
289.36	42.5
289.575	36.35
289.79	1.54
290.004	44.54
290.219	32.26
290.434	-39.42
290.649	9.73
290.864	56.83
291.079	26.11
291.294	79.36
291.509	44.54
291.724	34.3
291.938	-20.99
292.153	46.59
292.368	-33.28
292.583	19.97
292.798	48.64
293.012	42.5
293.227	22.02
293.442	22.02
293.657	38.4
293.871	65.02
294.086	50.69
294.301	128.51
294.516	-18.94
294.73	40.45
294.945	-6.66
295.16	5.63
295.374	65.02
295.589	75.26
295.804	-20.99
296.018	-12.8
296.233	15.87
296.447	-6.66
296.662	17.92
296.877	65.02
297.091	75.26
297.306	38.4
297.52	26.11
297.735	71.17
297.949	-43.52
298.164	95.74
298.378	34.3
298.593	71.17
298.807	26.11
299.022	58.88
299.236	-2.56
299.451	89.6
299.665	56.83
299.88	95.74
300.094	75.26
300.309	93.69
300.523	62.98
300.737	44.54
300.952	75.26
301.166	36.35
301.381	-23.04
301.595	54.78
301.809	42.5
302.024	1.54
302.238	1.54
302.452	13.82
302.667	-39.42
302.881	50.69
303.095	48.64
303.309	73.21
303.524	71.17
303.738	85.5
303.952	-14.85
304.166	-10.75
304.381	17.92
304.595	60.93
304.809	28.16
305.023	36.35
305.237	-6.66
305.452	-16.9
305.666	52.74
305.88	36.35
306.094	32.26
306.308	9.73
306.522	54.78
306.736	28.16
306.95	34.3
307.164	-6.66
307.379	38.4
307.593	1.54
307.807	19.97
308.021	77.31
308.235	81.41
308.449	-2.56
308.663	-18.94
308.877	89.6
309.091	15.87
309.305	42.5
309.519	-12.8
309.733	26.11
309.947	-78.33
310.161	42.5
310.374	83.45
310.588	58.88
310.802	7.68
311.016	44.54
311.23	30.21
311.444	5.63
311.658	42.5
311.872	56.83
312.085	-2.56
312.299	50.69
312.513	83.45
312.727	30.21
312.941	54.78
313.154	42.5
313.368	38.4
313.582	36.35
313.796	-2.56
314.009	52.74
314.223	62.98
314.437	73.21
314.651	-33.28
314.864	-39.42
315.078	-12.8
315.292	44.54
315.505	-0.51
315.719	138.75
315.933	85.5
316.146	28.16
316.36	-31.23
316.573	52.74
316.787	22.02
317.001	65.02
317.214	-14.85
317.428	91.65
317.641	17.92
317.855	24.06
318.068	52.74
318.282	7.68
318.495	65.02
318.709	44.54
318.922	71.17
319.136	62.98
319.349	79.36
319.563	52.74
319.776	50.69
319.99	38.4
320.203	40.45
320.417	-55.81
320.63	26.11
320.843	120.32
321.057	-18.94
321.27	34.3
321.483	19.97
321.697	138.75
321.91	103.93
322.124	75.26
322.337	38.4
322.55	62.98
322.763	83.45
322.977	71.17
323.19	-14.85
323.403	30.21
323.617	38.4
323.83	54.78
324.043	30.21
324.256	-14.85
324.469	-55.81
324.683	124.41
324.896	42.5
325.109	62.98
325.322	75.26
325.535	93.69
325.748	110.08
325.962	-10.75
326.175	48.64
326.388	36.35
326.601	157.18
326.814	30.21
327.027	34.3
327.24	34.3
327.453	-14.85
327.666	50.69
327.879	73.21
328.092	52.74
328.305	52.74
328.518	19.97
328.731	36.35
328.944	22.02
329.157	60.93
329.37	44.54
329.583	99.84
329.796	36.35
330.009	26.11
330.222	-14.85
330.435	118.27
330.648	22.02
330.861	44.54
331.073	60.93
331.286	73.21
331.499	114.17
331.712	77.31
331.925	9.73
332.138	54.78
332.35	65.02
332.563	11.78
332.776	-8.7
332.989	56.83
333.202	114.17
333.414	36.35
333.627	50.69
333.84	38.4
334.053	73.21
334.265	36.35
334.478	1.54
334.691	77.31
334.903	44.54
335.116	13.82
335.329	32.26
335.541	38.4
335.754	58.88
335.966	28.16
336.179	-10.75
336.392	54.78
336.604	46.59
336.817	101.89
337.029	69.12
337.242	34.3
337.454	112.13
337.667	52.74
337.88	101.89
338.092	110.08
338.305	30.21
338.517	28.16
338.729	91.65
338.942	54.78
339.154	69.12
339.367	17.92
339.579	32.26
339.792	60.93
340.004	93.69
340.217	116.22
340.429	75.26
340.641	34.3
340.854	56.83
341.066	93.69
341.278	15.87
341.491	42.5
341.703	105.98
341.915	48.64
342.128	56.83
342.34	99.84
342.552	52.74
342.764	-20.99
342.977	81.41
343.189	97.79
343.401	42.5
343.613	-8.7
343.826	13.82
344.038	36.35
344.25	58.88
344.462	17.92
344.674	62.98
344.886	11.78
345.099	-4.61
345.311	1.54
345.523	-0.51
345.735	83.45
345.947	22.02
346.159	91.65
346.371	87.55
346.583	30.21
346.795	122.37
347.007	-4.61
347.219	46.59
347.431	34.3
347.643	26.11
347.855	-2.56
348.067	89.6
348.279	9.73
348.491	67.07
348.703	130.56
348.915	3.58
349.127	9.73
349.339	17.92
349.551	44.54
349.763	81.41
349.975	-33.28
350.187	91.65
350.399	79.36
350.61	91.65
350.822	-10.75
351.034	56.83
351.246	73.21
351.458	91.65
351.669	46.59
351.881	91.65
352.093	46.59
352.305	32.26
352.517	89.6
352.728	110.08
352.94	58.88
353.152	19.97
353.363	38.4
353.575	44.54
353.787	97.79
353.999	91.65
354.21	157.18
354.422	99.84
354.633	71.17
354.845	114.17
355.057	-25.09
355.268	83.45
355.48	30.21
355.692	-0.51
355.903	79.36
356.115	-23.04
356.326	112.13
356.538	65.02
356.749	60.93
356.961	120.32
357.172	11.78
357.384	44.54
357.595	32.26
357.807	-8.7
358.018	73.21
358.23	40.45
358.441	200.19
358.653	44.54
358.864	42.5
359.075	24.06
359.287	-35.33
359.498	93.69
359.709	60.93
359.921	60.93
360.132	83.45
360.344	173.57
360.555	91.65
360.766	26.11
360.977	26.11
361.189	89.6
361.4	-8.7
361.611	77.31
361.823	67.07
362.034	62.98
362.245	-12.8
362.456	42.5
362.667	108.03
362.879	71.17
363.09	110.08
363.301	58.88
363.512	38.4
363.723	15.87
363.935	17.92
364.146	81.41
364.357	24.06
364.568	32.26
364.779	67.07
364.99	134.65
365.201	3.58
365.412	75.26
365.623	-23.04
365.834	95.74
366.045	32.26
366.256	71.17
366.467	60.93
366.678	52.74
366.889	17.92
367.1	40.45
367.311	-16.9
367.522	54.78
367.733	83.45
367.944	132.61
368.155	52.74
368.366	99.84
368.577	73.21
368.788	91.65
368.999	-29.18
369.209	110.08
369.42	153.09
369.631	116.22
369.842	124.41
370.053	83.45
370.264	118.27
370.474	54.78
370.685	85.5
370.896	77.31
371.107	3.58
371.317	114.17
371.528	56.83
371.739	42.5
371.95	26.11
372.16	105.98
372.371	28.16
372.582	99.84
372.792	69.12
373.003	38.4
373.214	85.5
373.424	34.3
373.635	77.31
373.846	118.27
374.056	62.98
374.267	97.79
374.477	95.74
374.688	3.58
374.898	42.5
375.109	34.3
375.319	60.93
375.53	134.65
375.74	56.83
375.951	42.5
376.161	40.45
376.372	97.79
376.582	97.79
376.793	48.64
377.003	69.12
377.214	34.3
377.424	54.78
377.635	89.6
377.845	24.06
378.055	99.84
378.266	-10.75
378.476	58.88
378.686	130.56
378.897	3.58
379.107	73.21
379.317	54.78
379.528	32.26
379.738	118.27
379.948	48.64
380.158	108.03
380.369	38.4
380.579	108.03
380.789	42.5
380.999	112.13
381.21	1.54
381.42	48.64
381.63	40.45
381.84	-16.9
382.05	112.13
382.261	38.4
382.471	-4.61
382.681	54.78
382.891	110.08
383.101	83.45
383.311	60.93
383.521	118.27
383.731	83.45
383.941	5.63
384.151	50.69
384.361	87.55
384.571	48.64
384.781	93.69
384.991	148.99
385.201	153.09
385.411	65.02
385.621	67.07
385.831	52.74
386.041	42.5
386.251	28.16
386.461	128.51
386.671	120.32
386.881	99.84
387.091	85.5
387.301	73.21
387.511	19.97
387.72	114.17
387.93	73.21
388.14	-0.51
388.35	7.68
388.56	71.17
388.769	19.97
388.979	114.17
389.189	73.21
389.399	85.5
389.609	42.5
389.818	110.08
390.028	38.4
390.238	48.64
390.447	79.36
390.657	65.02
390.867	87.55
391.076	69.12
391.286	142.85
391.496	56.83
391.705	26.11
391.915	93.69
392.125	69.12
392.334	95.74
392.544	52.74
392.753	120.32
392.963	105.98
393.172	71.17
393.382	108.03
393.591	81.41
393.801	62.98
394.01	157.18
394.22	77.31
394.429	99.84
394.639	122.37
394.848	87.55
395.058	73.21
395.267	140.8
395.477	110.08
395.686	138.75
395.895	155.13
396.105	189.95
396.314	58.88
396.524	110.08
396.733	69.12
396.942	99.84
397.152	155.13
397.361	112.13
397.57	103.93
397.78	83.45
397.989	118.27
398.198	130.56
398.407	144.89
398.617	120.32
398.826	142.85
399.035	171.52
399.244	196.09
399.453	194.05
399.663	257.53
399.872	192
400.081	95.74
400.29	132.61
400.499	177.66
400.708	189.95
400.917	192
401.127	171.52
401.336	146.94
401.545	212.48
401.754	198.14
401.963	151.04
402.172	148.99
402.381	173.57
402.59	73.21
402.799	73.21
403.008	241.15
403.217	224.76
403.426	185.85
403.635	105.98
403.844	220.67
404.053	157.18
404.262	187.9
404.471	259.58
404.68	286.2
404.888	208.38
405.097	228.86
405.306	155.13
405.515	222.72
405.724	222.72
405.933	263.68
406.142	228.86
406.35	278.01
406.559	300.54
406.768	228.86
406.977	226.81
407.185	361.98
407.394	376.31
407.603	251.39
407.812	349.69
408.02	300.54
408.229	302.59
408.438	235
408.646	269.82
408.855	351.74
409.064	347.64
409.272	361.98
409.481	439.8
409.69	398.84
409.898	443.9
410.107	484.86
410.315	472.57
410.524	466.42
410.733	443.9
410.941	452.09
411.15	507.38
411.358	634.36
411.567	482.81
411.775	613.88
411.984	646.65
412.192	646.65
412.401	599.54
412.609	710.13
412.818	703.99
413.026	665.08
413.234	744.95
413.443	691.7
413.651	796.15
413.86	769.52
414.068	927.22
414.276	880.11
414.485	865.78
414.693	929.27
414.901	978.42
415.11	953.84
415.318	1027.57
415.526	1084.91
415.734	1039.86
415.943	1197.55
416.151	1177.07
416.359	1193.45
416.567	1209.84
416.776	1263.08
416.984	1455.59
417.192	1416.68
417.4	1367.53
417.608	1332.72
417.817	1594.86
418.025	1555.94
418.233	1689.06
418.441	1537.51
418.649	1715.69
418.857	1832.42
419.065	1934.82
419.273	1887.72
419.481	1908.19
419.689	2072.03
419.897	2176.48
420.105	2162.14
420.313	2254.3
420.521	2223.58
420.729	2295.26
420.937	2500.06
421.145	2502.11
421.353	2770.39
421.561	2809.3
421.769	2790.87
421.977	3024.34
422.185	2889.17
422.393	3055.06
422.601	3356.11
422.809	3286.48
423.017	3419.6
423.224	3456.46
423.432	3507.66
423.64	3587.53
423.848	3925.44
424.056	3749.32
424.263	4142.53
424.471	4087.23
424.679	4257.22
424.887	4412.86
425.094	4595.13
425.302	4545.98
425.51	4715.96
425.718	4982.2
425.925	4937.14
426.133	5111.22
426.341	5496.24
426.548	5604.78
426.756	5780.9
426.964	5754.28
427.171	6063.52
427.379	6178.21
427.586	6395.29
427.794	6620.57
428.001	6876.57
428.209	6940.05
428.417	6929.81
428.624	7441.81
428.832	7277.97
429.039	7302.54
429.247	7433.61
429.454	8209.79
429.662	8684.92
429.869	8015.24
430.076	8646.01
430.284	8480.13
430.491	8746.36
430.699	9375.09
430.906	9354.61
431.114	9485.68
431.321	9987.43
431.528	10063.21
431.736	10583.39
431.943	11183.45
432.15	10827.1
432.358	11009.37
432.565	11564.37
432.772	11593.04
432.979	12035.4
433.187	12301.64
433.394	12082.5
433.601	13120.82
433.808	13159.74
434.016	13315.38
434.223	13532.47
434.43	14431.52
434.637	14249.25
434.844	14882.08
435.052	15326.49
435.259	15052.06
435.466	15332.63
435.673	15310.1
435.88	16426.25
436.087	17245.43
436.294	17202.43
436.501	16899.33
436.708	17097.98
436.915	17661.17
437.122	18515.17
437.329	18328.81
437.537	19053.79
437.743	19317.98
437.95	19385.56
438.157	20305.1
438.364	20835.52
438.571	20610.25
438.778	21066.94
438.985	22674.6
439.192	21912.75
439.399	22690.98
439.606	22211.76
439.813	23628.95
440.02	24835.21
440.227	24384.65
440.433	24050.83
440.64	25341.05
440.847	24843.4
441.054	25379.96
441.261	27018.34
441.467	26602.6
441.674	27331.68
441.881	28114
442.088	28609.61
442.294	27968.6
442.501	28673.1
442.708	29303.87
442.914	30260.27
443.121	31855.64
443.328	30858.28
443.534	33111.05
443.741	31994.9
443.948	31661.08
444.154	34077.69
444.361	33461.25
444.568	34083.83
444.774	33872.89
444.981	34147.32
445.187	35179.5
445.394	36492.24
445.6	36576.21
445.807	39908.26
446.013	38009.79
446.22	38986.67
446.426	40459.16
446.633	40393.62
446.839	41862.02
447.046	40219.55
447.252	42650.49
447.459	42404.73
447.665	42306.43
447.871	43750.24
448.078	46007.11
448.284	43703.14
448.491	44831.57
448.697	46969.65
448.903	47641.39
449.11	47665.96
449.316	47252.27
449.522	47833.89
449.728	48743.19
449.935	49468.17
450.141	49197.84
450.347	50488.06
450.553	48941.85
450.76	49629.96
450.966	51206.9
451.172	50508.54
451.378	51698.41
451.584	50905.85
451.791	52085.48
451.997	51833.58
452.203	52785.88
452.409	52839.13
452.615	52691.68
452.821	50379.52
453.027	50057.99
453.233	52529.89
453.44	50178.82
453.646	51045.11
453.852	51378.93
454.058	52284.13
454.264	50463.49
454.47	51583.72
454.676	50080.52
454.882	51878.63
455.088	47725.35
455.294	48431.9
455.5	48995.09
455.705	49820.42
455.911	47682.34
456.117	46916.4
456.323	46310.21
456.529	43686.76
456.735	45669.19
456.941	44553.05
457.147	43494.25
457.352	42560.37
457.558	42195.84
457.764	41743.24
457.97	41075.6
458.176	40233.88
458.381	40412.06
458.587	38173.63
458.793	38437.81
458.999	36256.73
459.204	39314.34
459.41	38120.38
459.616	35539.94
459.821	35576.8
460.027	35593.18
460.233	34563.06
460.438	32885.77
460.644	33330.18
460.85	31700
461.055	31202.34
461.261	31110.18
461.466	29060.16
461.672	27898.97
461.878	30243.89
462.083	27937.88
462.289	27464.8
462.494	27362.4
462.7	25844.85
462.905	25392.25
463.111	26426.48
463.316	26358.89
463.522	25781.37
463.727	25517.18
463.932	25607.29
464.138	25179.26
464.343	25574.52
464.549	24900.74
464.754	25754.74
464.959	25214.08
465.165	25255.04
465.37	24016.02
465.575	23667.86
465.781	24333.45
465.986	24978.56
466.191	24052.88
466.397	23063.71
466.602	21873.84
466.807	23086.24
467.012	22846.63
467.218	22781.09
467.423	22670.5
