Data from USB4F104151__41__12-35-55-099.txt Node

Date: Fri Mar 14 12:35:55 EDT 2025
User: louis
Spectrometer: USB4F10415
Trigger mode: 4
Integration Time (sec): 2.000000E-2
Scans to average: 1
Electric dark correction enabled: true
Nonlinearity correction enabled: false
Boxcar width: 0
XAxis mode: Wavelengths
Number of Pixels in Spectrum: 3648
>>>>>Begin Spectral Data<<<<<
178.204	-88.4
178.424	-88.4
178.644	-88.4
178.864	-61.78
179.084	-135.51
179.304	-2.39
179.524	-4.44
179.744	-69.97
179.964	11.95
180.184	11.95
180.404	-82.26
180.624	13.99
180.844	30.38
181.064	67.24
181.283	5.8
181.503	-20.82
181.723	38.57
181.943	22.19
182.163	61.1
182.383	44.71
182.602	91.82
182.822	54.95
183.042	-39.25
183.262	13.99
183.482	18.09
183.701	65.19
183.921	-39.25
184.141	-35.16
184.361	20.14
184.58	-26.96
184.8	30.38
185.02	44.71
185.239	32.43
185.459	3.75
185.679	48.81
185.898	32.43
186.118	79.53
186.338	50.86
186.557	81.58
186.777	9.9
186.997	65.19
187.216	52.91
187.436	59.05
187.655	52.91
187.875	26.28
188.095	11.95
188.314	75.43
188.534	69.29
188.753	59.05
188.973	132.78
189.192	71.34
189.412	-53.59
189.631	79.53
189.851	26.28
190.07	40.62
190.29	20.14
190.509	81.58
190.729	-6.49
190.948	67.24
191.168	153.26
191.387	30.38
191.607	-76.12
191.826	59.05
192.045	61.1
192.265	-8.53
192.484	9.9
192.704	46.76
192.923	16.04
193.142	118.44
193.362	-18.77
193.581	81.58
193.8	-4.44
194.02	13.99
194.239	-14.68
194.458	26.28
194.678	42.67
194.897	126.63
195.116	57
195.335	85.67
195.555	-37.2
195.774	42.67
195.993	32.43
196.212	26.28
196.432	-6.49
196.651	32.43
196.87	42.67
197.089	71.34
197.308	-31.06
197.528	87.72
197.747	-31.06
197.966	52.91
198.185	28.33
198.404	73.39
198.623	26.28
198.842	-6.49
199.062	36.52
199.281	85.67
199.5	18.09
199.719	54.95
199.938	24.23
200.157	75.43
200.376	-39.25
200.595	73.39
200.814	28.33
201.033	-26.96
201.252	36.52
201.471	24.23
201.69	38.57
201.909	104.11
202.128	69.29
202.347	-33.11
202.566	28.33
202.785	22.19
203.004	73.39
203.223	52.91
203.442	63.15
203.661	71.34
203.879	40.62
204.098	83.63
204.317	24.23
204.536	59.05
204.755	79.53
204.974	30.38
205.193	5.8
205.411	32.43
205.63	-6.49
205.849	48.81
206.068	9.9
206.287	1.71
206.505	20.14
206.724	46.76
206.943	48.81
207.162	-8.53
207.381	40.62
207.599	93.87
207.818	-2.39
208.037	46.76
208.255	69.29
208.474	-35.16
208.693	95.91
208.911	52.91
209.13	24.23
209.349	-33.11
209.567	-14.68
209.786	40.62
210.005	36.52
210.223	126.63
210.442	32.43
210.661	57
210.879	22.19
211.098	40.62
211.316	108.2
211.535	79.53
211.753	30.38
211.972	71.34
212.191	44.71
212.409	1.71
212.628	54.95
212.846	32.43
213.065	52.91
213.283	130.73
213.502	79.53
213.72	-31.06
213.938	65.19
214.157	52.91
214.375	36.52
214.594	32.43
214.812	34.47
215.031	20.14
215.249	1.71
215.467	42.67
215.686	30.38
215.904	91.82
216.122	54.95
216.341	91.82
216.559	34.47
216.778	75.43
216.996	30.38
217.214	22.19
217.432	52.91
217.651	-35.16
217.869	30.38
218.087	54.95
218.306	-67.92
218.524	65.19
218.742	63.15
218.96	145.06
219.179	-39.25
219.397	71.34
219.615	-2.39
219.833	67.24
220.051	42.67
220.27	44.71
220.488	-12.63
220.706	52.91
220.924	26.28
221.142	7.85
221.36	81.58
221.578	44.71
221.796	5.8
222.015	91.82
222.233	54.95
222.451	32.43
222.669	28.33
222.887	93.87
223.105	-12.63
223.323	-6.49
223.541	-24.92
223.759	40.62
223.977	1.71
224.195	42.67
224.413	22.19
224.631	108.2
224.849	34.47
225.067	36.52
225.285	38.57
225.503	50.86
225.721	1.71
225.939	73.39
226.157	38.57
226.375	143.02
226.592	63.15
226.81	46.76
227.028	-12.63
227.246	85.67
227.464	20.14
227.682	104.11
227.9	22.19
228.117	61.1
228.335	34.47
228.553	-12.63
228.771	9.9
228.989	34.47
229.206	22.19
229.424	26.28
229.642	5.8
229.86	38.57
230.077	57
230.295	40.62
230.513	87.72
230.731	22.19
230.948	95.91
231.166	16.04
231.384	16.04
231.601	30.38
231.819	40.62
232.037	36.52
232.254	67.24
232.472	-0.34
232.689	50.86
232.907	69.29
233.125	52.91
233.342	5.8
233.56	-10.58
233.777	42.67
233.995	65.19
234.213	89.77
234.43	59.05
234.648	1.71
234.865	54.95
235.083	-10.58
235.3	34.47
235.518	83.63
235.735	83.63
235.953	89.77
236.17	20.14
236.388	34.47
236.605	-6.49
236.822	26.28
237.04	34.47
237.257	52.91
237.475	18.09
237.692	44.71
237.909	48.81
238.127	71.34
238.344	22.19
238.562	28.33
238.779	-49.49
238.996	54.95
239.214	30.38
239.431	61.1
239.648	65.19
239.865	11.95
240.083	102.06
240.3	50.86
240.517	44.71
240.735	44.71
240.952	7.85
241.169	116.39
241.386	11.95
241.603	65.19
241.821	57
242.038	54.95
242.255	-10.58
242.472	-10.58
242.689	73.39
242.907	102.06
243.124	75.43
243.341	5.8
243.558	63.15
243.775	-24.92
243.992	18.09
244.209	75.43
244.426	20.14
244.643	44.71
244.86	67.24
245.078	11.95
245.295	36.52
245.512	11.95
245.729	-12.63
245.946	-6.49
246.163	40.62
246.38	-0.34
246.597	61.1
246.814	20.14
247.031	48.81
247.248	18.09
247.464	102.06
247.681	1.71
247.898	73.39
248.115	77.48
248.332	42.67
248.549	95.91
248.766	22.19
248.983	22.19
249.2	108.2
249.417	-2.39
249.633	-45.4
249.85	73.39
250.067	57
250.284	-4.44
250.501	36.52
250.717	106.15
250.934	26.28
251.151	79.53
251.368	-20.82
251.585	13.99
251.801	28.33
252.018	46.76
252.235	-6.49
252.451	59.05
252.668	61.1
252.885	13.99
253.102	71.34
253.318	38.57
253.535	50.86
253.752	-18.77
253.968	24.23
254.185	-4.44
254.401	44.71
254.618	104.11
254.835	7.85
255.051	42.67
255.268	40.62
255.484	26.28
255.701	48.81
255.917	89.77
256.134	28.33
256.351	36.52
256.567	-8.53
256.784	-14.68
257	-16.73
257.217	28.33
257.433	28.33
257.65	93.87
257.866	16.04
258.082	-18.77
258.299	24.23
258.515	57
258.732	24.23
258.948	87.72
259.165	-22.87
259.381	34.47
259.597	61.1
259.814	65.19
260.03	79.53
260.246	102.06
260.463	32.43
260.679	73.39
260.895	69.29
261.112	-31.06
261.328	44.71
261.544	9.9
261.761	134.82
261.977	38.57
262.193	-0.34
262.409	-8.53
262.626	52.91
262.842	95.91
263.058	-94.55
263.274	20.14
263.49	46.76
263.707	65.19
263.923	-29.01
264.139	5.8
264.355	59.05
264.571	63.15
264.787	83.63
265.004	71.34
265.22	-39.25
265.436	-6.49
265.652	61.1
265.868	89.77
266.084	54.95
266.3	48.81
266.516	3.75
266.732	93.87
266.948	18.09
267.164	69.29
267.38	-2.39
267.596	30.38
267.812	61.1
268.028	81.58
268.244	-2.39
268.46	16.04
268.676	59.05
268.892	22.19
269.108	9.9
269.324	-26.96
269.54	-2.39
269.756	100.01
269.972	18.09
270.188	71.34
270.403	20.14
270.619	18.09
270.835	42.67
271.051	18.09
271.267	36.52
271.483	54.95
271.698	140.97
271.914	57
272.13	30.38
272.346	28.33
272.562	9.9
272.777	79.53
272.993	24.23
273.209	52.91
273.425	-16.73
273.64	-4.44
273.856	52.91
274.072	22.19
274.287	-6.49
274.503	106.15
274.719	-65.88
274.934	18.09
275.15	28.33
275.366	30.38
275.581	-14.68
275.797	110.25
276.012	-2.39
276.228	59.05
276.444	38.57
276.659	5.8
276.875	-2.39
277.09	9.9
277.306	9.9
277.521	54.95
277.737	32.43
277.952	67.24
278.168	87.72
278.383	46.76
278.599	97.96
278.814	38.57
279.03	-0.34
279.245	136.87
279.461	-24.92
279.676	81.58
279.892	24.23
280.107	44.71
280.322	42.67
280.538	-4.44
280.753	18.09
280.969	63.15
281.184	42.67
281.399	11.95
281.615	48.81
281.83	100.01
282.045	3.75
282.26	48.81
282.476	46.76
282.691	40.62
282.906	34.47
283.122	11.95
283.337	65.19
283.552	-6.49
283.767	-14.68
283.983	59.05
284.198	-16.73
284.413	50.86
284.628	50.86
284.843	95.91
285.058	69.29
285.274	1.71
285.489	7.85
285.704	89.77
285.919	59.05
286.134	-22.87
286.349	57
286.564	38.57
286.779	104.11
286.995	48.81
287.21	-22.87
287.425	16.04
287.64	85.67
287.855	112.3
288.07	34.47
288.285	110.25
288.5	42.67
288.715	28.33
288.93	89.77
289.145	7.85
289.36	30.38
289.575	52.91
289.79	130.73
290.004	61.1
290.219	34.47
290.434	61.1
290.649	85.67
290.864	-16.73
291.079	1.71
291.294	36.52
291.509	50.86
291.724	32.43
291.938	28.33
292.153	165.54
292.368	13.99
292.583	13.99
292.798	63.15
293.012	36.52
293.227	44.71
293.442	42.67
293.657	30.38
293.871	73.39
294.086	36.52
294.301	59.05
294.516	5.8
294.73	7.85
294.945	40.62
295.16	-20.82
295.374	108.2
295.589	57
295.804	-37.2
296.018	24.23
296.233	110.25
296.447	95.91
296.662	30.38
296.877	100.01
297.091	54.95
297.306	65.19
297.52	20.14
297.735	79.53
297.949	26.28
298.164	22.19
298.378	54.95
298.593	42.67
298.807	20.14
299.022	38.57
299.236	38.57
299.451	93.87
299.665	79.53
299.88	-39.25
300.094	54.95
300.309	57
300.523	79.53
300.737	54.95
300.952	48.81
301.166	67.24
301.381	73.39
301.595	71.34
301.809	-6.49
302.024	30.38
302.238	46.76
302.452	61.1
302.667	61.1
302.881	95.91
303.095	22.19
303.309	73.39
303.524	20.14
303.738	-12.63
303.952	-8.53
304.166	50.86
304.381	5.8
304.595	95.91
304.809	71.34
305.023	79.53
305.237	134.82
305.452	48.81
305.666	85.67
305.88	1.71
306.094	54.95
306.308	118.44
306.522	22.19
306.736	42.67
306.95	59.05
307.164	26.28
307.379	100.01
307.593	57
307.807	42.67
308.021	61.1
308.235	11.95
308.449	40.62
308.663	91.82
308.877	138.92
309.091	13.99
309.305	71.34
309.519	67.24
309.733	79.53
309.947	13.99
310.161	65.19
310.374	13.99
310.588	106.15
310.802	63.15
311.016	28.33
311.23	46.76
311.444	22.19
311.658	44.71
311.872	50.86
312.085	57
312.299	149.16
312.513	75.43
312.727	63.15
312.941	79.53
313.154	71.34
313.368	65.19
313.582	1.71
313.796	24.23
314.009	73.39
314.223	22.19
314.437	42.67
314.651	79.53
314.864	85.67
315.078	59.05
315.292	5.8
315.505	-8.53
315.719	30.38
315.933	77.48
316.146	87.72
316.36	24.23
316.573	134.82
316.787	93.87
317.001	104.11
317.214	46.76
317.428	77.48
317.641	-2.39
317.855	67.24
318.068	85.67
318.282	38.57
318.495	110.25
318.709	91.82
318.922	34.47
319.136	132.78
319.349	65.19
319.563	120.49
319.776	30.38
319.99	112.3
320.203	48.81
320.417	75.43
320.63	11.95
320.843	44.71
321.057	20.14
321.27	89.77
321.483	13.99
321.697	157.35
321.91	71.34
322.124	28.33
322.337	83.63
322.55	48.81
322.763	65.19
322.977	5.8
323.19	3.75
323.403	77.48
323.617	83.63
323.83	108.2
324.043	34.47
324.256	20.14
324.469	34.47
324.683	-6.49
324.896	81.58
325.109	-6.49
325.322	63.15
325.535	54.95
325.748	52.91
325.962	63.15
326.175	40.62
326.388	85.67
326.601	81.58
326.814	50.86
327.027	91.82
327.24	-16.73
327.453	24.23
327.666	52.91
327.879	122.54
328.092	93.87
328.305	81.58
328.518	77.48
328.731	48.81
328.944	-22.87
329.157	-16.73
329.37	-0.34
329.583	71.34
329.796	87.72
330.009	48.81
330.222	61.1
330.435	67.24
330.648	32.43
330.861	44.71
331.073	93.87
331.286	63.15
331.499	61.1
331.712	9.9
331.925	124.58
332.138	89.77
332.35	83.63
332.563	52.91
332.776	97.96
332.989	7.85
333.202	50.86
333.414	36.52
333.627	65.19
333.84	100.01
334.053	5.8
334.265	-18.77
334.478	20.14
334.691	52.91
334.903	59.05
335.116	108.2
335.329	106.15
335.541	95.91
335.754	87.72
335.966	85.67
336.179	61.1
336.392	63.15
336.604	13.99
336.817	108.2
337.029	104.11
337.242	69.29
337.454	52.91
337.667	-16.73
337.88	93.87
338.092	-16.73
338.305	30.38
338.517	32.43
338.729	-18.77
338.942	108.2
339.154	26.28
339.367	50.86
339.579	69.29
339.792	36.52
340.004	87.72
340.217	54.95
340.429	89.77
340.641	-2.39
340.854	57
341.066	63.15
341.278	67.24
341.491	30.38
341.703	87.72
341.915	32.43
342.128	32.43
342.34	65.19
342.552	7.85
342.764	65.19
342.977	102.06
343.189	71.34
343.401	85.67
343.613	36.52
343.826	73.39
344.038	26.28
344.25	46.76
344.462	65.19
344.674	100.01
344.886	26.28
345.099	116.39
345.311	67.24
345.523	50.86
345.735	73.39
345.947	-26.96
346.159	77.48
346.371	91.82
346.583	32.43
346.795	138.92
347.007	18.09
347.219	108.2
347.431	26.28
347.643	63.15
347.855	7.85
348.067	54.95
348.279	5.8
348.491	73.39
348.703	71.34
348.915	73.39
349.127	-37.2
349.339	7.85
349.551	26.28
349.763	102.06
349.975	95.91
350.187	114.34
350.399	48.81
350.61	40.62
350.822	-26.96
351.034	5.8
351.246	79.53
351.458	165.54
351.669	63.15
351.881	48.81
352.093	87.72
352.305	124.58
352.517	61.1
352.728	77.48
352.94	71.34
353.152	73.39
353.363	1.71
353.575	108.2
353.787	54.95
353.999	26.28
354.21	54.95
354.422	-12.63
354.633	97.96
354.845	87.72
355.057	75.43
355.268	75.43
355.48	126.63
355.692	-72.02
355.903	77.48
356.115	50.86
356.326	89.77
356.538	112.3
356.749	28.33
356.961	165.54
357.172	61.1
357.384	108.2
357.595	126.63
357.807	63.15
358.018	42.67
358.23	97.96
358.441	145.06
358.653	28.33
358.864	108.2
359.075	44.71
359.287	3.75
359.498	100.01
359.709	95.91
359.921	85.67
360.132	50.86
360.344	83.63
360.555	83.63
360.766	93.87
360.977	79.53
361.189	83.63
361.4	77.48
361.611	91.82
361.823	52.91
362.034	73.39
362.245	-4.44
362.456	46.76
362.667	42.67
362.879	-33.11
363.09	13.99
363.301	120.49
363.512	22.19
363.723	114.34
363.935	97.96
364.146	95.91
364.357	67.24
364.568	104.11
364.779	46.76
364.99	22.19
365.201	36.52
365.412	85.67
365.623	87.72
365.834	110.25
366.045	30.38
366.256	61.1
366.467	87.72
366.678	3.75
366.889	46.76
367.1	52.91
367.311	-2.39
367.522	118.44
367.733	54.95
367.944	11.95
368.155	36.52
368.366	118.44
368.577	5.8
368.788	75.43
368.999	36.52
369.209	132.78
369.42	93.87
369.631	65.19
369.842	77.48
370.053	79.53
370.264	54.95
370.474	65.19
370.685	48.81
370.896	38.57
371.107	50.86
371.317	54.95
371.528	85.67
371.739	50.86
371.95	36.52
372.16	104.11
372.371	63.15
372.582	89.77
372.792	79.53
373.003	71.34
373.214	7.85
373.424	65.19
373.635	61.1
373.846	181.93
374.056	67.24
374.267	5.8
374.477	69.29
374.688	24.23
374.898	-6.49
375.109	93.87
375.319	106.15
375.53	3.75
375.74	34.47
375.951	75.43
376.161	67.24
376.372	126.63
376.582	48.81
376.793	50.86
377.003	126.63
377.214	75.43
377.424	173.74
377.635	83.63
377.845	93.87
378.055	106.15
378.266	54.95
378.476	36.52
378.686	73.39
378.897	67.24
379.107	69.29
379.317	61.1
379.528	-0.34
379.738	85.67
379.948	89.77
380.158	118.44
380.369	122.54
380.579	79.53
380.789	83.63
380.999	93.87
381.21	87.72
381.42	61.1
381.63	48.81
381.84	95.91
382.05	13.99
382.261	50.86
382.471	69.29
382.681	79.53
382.891	42.67
383.101	102.06
383.311	46.76
383.521	9.9
383.731	104.11
383.941	130.73
384.151	79.53
384.361	44.71
384.571	67.24
384.781	69.29
384.991	75.43
385.201	61.1
385.411	40.62
385.621	106.15
385.831	52.91
386.041	93.87
386.251	57
386.461	91.82
386.671	91.82
386.881	163.5
387.091	48.81
387.301	138.92
387.511	97.96
387.72	83.63
387.93	147.11
388.14	-6.49
388.35	120.49
388.56	132.78
388.769	159.4
388.979	-2.39
389.189	24.23
389.399	9.9
389.609	71.34
389.818	24.23
390.028	106.15
390.238	124.58
390.447	85.67
390.657	77.48
390.867	77.48
391.076	132.78
391.286	116.39
391.496	57
391.705	9.9
391.915	138.92
392.125	100.01
392.334	120.49
392.544	71.34
392.753	89.77
392.963	108.2
393.172	177.83
393.382	104.11
393.591	83.63
393.801	128.68
394.01	130.73
394.22	112.3
394.429	102.06
394.639	134.82
394.848	122.54
395.058	104.11
395.267	59.05
395.477	87.72
395.686	147.11
395.895	106.15
396.105	91.82
396.314	118.44
396.524	89.77
396.733	108.2
396.942	161.45
397.152	155.3
397.361	85.67
397.57	169.64
397.78	69.29
397.989	212.65
398.198	186.02
398.407	155.3
398.617	136.87
398.826	69.29
399.035	143.02
399.244	169.64
399.453	128.68
399.663	151.21
399.872	153.26
400.081	175.78
400.29	190.12
400.499	132.78
400.708	226.98
400.917	231.08
401.127	226.98
401.336	85.67
401.545	171.69
401.754	159.4
401.963	267.94
402.172	140.97
402.381	116.39
402.59	239.27
402.799	153.26
403.008	108.2
403.217	167.59
403.426	145.06
403.635	143.02
403.844	302.76
404.053	167.59
404.262	147.11
404.471	196.26
404.68	255.65
404.888	235.18
405.097	208.55
405.306	196.26
405.515	253.61
405.724	229.03
405.933	247.46
406.142	212.65
406.35	292.52
406.559	251.56
406.768	276.13
406.977	214.7
407.185	233.13
407.394	280.23
407.603	269.99
407.812	253.61
408.02	435.88
408.229	378.53
408.438	198.31
408.646	284.33
408.855	292.52
409.064	362.15
409.272	351.91
409.481	405.16
409.69	339.62
409.898	394.92
410.107	376.48
410.315	427.68
410.524	401.06
410.733	525.99
410.941	460.45
411.15	519.84
411.358	538.27
411.567	519.84
411.775	525.99
411.984	587.43
412.192	523.94
412.401	636.58
412.609	564.9
412.818	632.48
413.026	743.07
413.234	779.93
413.443	706.21
413.651	683.68
413.86	781.98
414.068	798.37
414.276	888.48
414.485	798.37
414.693	878.24
414.901	954.01
415.11	960.16
415.318	1031.83
415.526	997.02
415.734	1035.93
415.943	1066.65
416.151	1216.15
416.359	1107.61
416.567	1191.58
416.776	1234.58
416.984	1265.3
417.192	1326.74
417.4	1291.93
417.608	1277.59
417.817	1398.42
418.025	1406.61
418.233	1437.33
418.441	1466
418.649	1558.16
418.857	1713.81
419.065	1670.8
419.273	1736.34
419.481	1851.02
419.689	1926.8
419.897	1992.33
420.105	2104.97
420.313	2250.38
420.521	2158.22
420.729	2176.65
420.937	2287.24
421.145	2412.17
421.353	2379.4
421.561	2559.62
421.769	2610.82
421.977	2772.61
422.185	2737.79
422.393	2862.72
422.601	3133.05
422.809	3008.12
423.017	3116.67
423.224	3108.48
423.432	3374.71
423.64	3454.58
423.848	3706.48
424.056	3593.84
424.263	3858.03
424.471	3835.5
424.679	3925.61
424.887	4177.51
425.094	4257.39
425.302	4249.19
425.51	4492.9
425.718	4488.81
425.925	4511.33
426.133	4947.55
426.341	5056.09
426.548	5312.09
426.756	5269.08
426.964	5363.29
427.171	5795.41
427.379	5754.45
427.586	5867.09
427.794	6075.98
428.001	6260.3
428.209	6647.37
428.417	6422.09
428.624	6936.13
428.832	7142.97
429.039	6886.98
429.247	6997.57
429.454	7491.13
429.662	8076.85
429.869	7544.38
430.076	8085.04
430.284	7958.07
430.491	8314.41
430.699	8791.59
430.906	8459.82
431.114	8834.6
431.321	9031.2
431.528	9332.25
431.736	9973.27
431.943	10241.55
432.15	9874.96
432.358	10034.71
432.565	10624.52
432.772	10558.99
432.979	11257.34
433.187	11339.26
433.394	11503.1
433.601	12123.63
433.808	12293.62
434.016	12170.74
434.223	12580.33
434.43	13370.85
434.637	13196.77
434.844	13940.18
435.052	14312.91
435.259	14349.78
435.466	14349.78
435.673	14009.81
435.88	15060.42
436.087	15799.74
436.294	16055.73
436.501	15562.17
436.708	15818.17
436.915	16299.44
437.122	17073.57
437.329	17139.11
437.537	17628.57
437.743	17919.39
437.95	17761.69
438.157	18726.28
438.364	19344.77
438.571	19252.61
438.778	19492.23
438.985	21214.57
439.192	20145.53
439.399	21155.18
439.606	20481.39
439.813	21609.82
440.02	22824.27
440.227	22443.35
440.433	22449.49
440.64	23039.31
440.847	23276.87
441.054	23715.14
441.261	25113.9
441.467	24773.94
441.674	25214.25
441.881	26191.13
442.088	25742.63
442.294	25744.67
442.501	26576.15
442.708	27065.61
442.914	28187.9
443.121	29140.21
443.328	28542.2
443.534	30336.22
443.741	29175.02
443.948	29398.25
444.154	31313.1
444.361	31108.3
444.568	31376.59
444.774	31302.86
444.981	31706.31
445.187	32722.1
445.394	34047.14
445.6	33580.2
445.807	36777.08
446.013	35595.4
446.22	35894.41
446.426	37694.57
446.633	37803.11
446.839	38773.85
447.046	37506.16
447.252	39451.73
447.459	39582.8
447.665	39375.95
447.871	40854.59
448.078	42980.38
448.284	40934.46
448.491	41718.83
448.697	43451.41
448.903	43994.12
449.11	44153.86
449.316	43703.31
449.522	44239.88
449.728	45558.77
449.935	45847.54
450.141	45992.94
450.347	46980.06
450.553	45675.51
450.76	46554.08
450.966	47440.85
451.172	47238.11
451.378	48524.23
451.584	47399.9
451.791	48268.23
451.997	48272.33
452.203	48993.22
452.409	48755.65
452.615	48726.98
452.821	47346.65
453.027	46437.35
453.233	48991.17
453.44	47236.06
453.646	47713.23
453.852	47801.3
454.058	48899.01
454.264	46836.7
454.47	48237.51
454.676	47191
454.882	48638.92
455.088	44710.91
455.294	45280.25
455.5	45691.89
455.705	46377.96
455.911	44930.05
456.117	43744.27
456.323	43203.61
456.529	40817.72
456.735	43060.25
456.941	41823.28
457.147	40977.47
457.352	39857.23
457.558	39119.96
457.764	39541.84
457.97	38440.03
458.176	37811.31
458.381	38161.51
458.587	36191.36
458.793	36195.46
458.999	33930.4
459.204	36375.68
459.41	35576.97
459.616	33365.17
459.821	33254.58
460.027	33266.86
460.233	32410.81
460.438	30940.37
460.644	31624.39
460.85	29922.53
461.055	29283.56
461.261	29228.27
461.466	27428.1
461.672	26404.12
461.878	28187.9
462.083	26391.83
462.289	25816.35
462.494	25724.19
462.7	24503.6
462.905	23786.82
463.111	24692.02
463.316	24565.04
463.522	23821.63
463.727	24358.2
463.932	24288.57
464.138	23858.49
464.343	23938.37
464.549	23299.4
464.754	24038.72
464.959	23866.69
465.165	23782.72
465.37	22547.79
465.575	21917.02
465.781	22820.17
465.986	22867.28
466.191	22332.76
466.397	21699.94
466.602	20737.39
466.807	21364.07
467.012	21480.8
467.218	21423.46
467.423	21306.73
