Data from USB4F104151__42__12-35-55-459.txt Node

Date: Fri Mar 14 12:35:55 EDT 2025
User: louis
Spectrometer: USB4F10415
Trigger mode: 4
Integration Time (sec): 2.000000E-2
Scans to average: 1
Electric dark correction enabled: true
Nonlinearity correction enabled: false
Boxcar width: 0
XAxis mode: Wavelengths
Number of Pixels in Spectrum: 3648
>>>>>Begin Spectral Data<<<<<
178.204	-100.86
178.424	-100.86
178.644	-100.86
178.864	-78.33
179.084	-133.63
179.304	13.82
179.524	-8.7
179.744	15.87
179.964	17.92
180.184	-29.18
180.404	-8.7
180.624	-16.9
180.844	-25.09
181.064	3.58
181.283	-35.33
181.503	9.73
181.723	62.98
181.943	-43.52
182.163	89.6
182.383	48.64
182.602	-33.28
182.822	38.4
183.042	-41.47
183.262	69.12
183.482	-14.85
183.701	42.5
183.921	48.64
184.141	46.59
184.361	34.3
184.58	-45.57
184.8	-4.61
185.02	48.64
185.239	62.98
185.459	-8.7
185.679	46.59
185.898	-29.18
186.118	103.93
186.338	-29.18
186.557	77.31
186.777	34.3
186.997	-35.33
187.216	44.54
187.436	34.3
187.655	24.06
187.875	-14.85
188.095	30.21
188.314	32.26
188.534	69.12
188.753	26.11
188.973	38.4
189.192	118.27
189.412	-20.99
189.631	75.26
189.851	-8.7
190.07	83.45
190.29	26.11
190.509	52.74
190.729	13.82
190.948	75.26
191.168	187.9
191.387	44.54
191.607	77.31
191.826	-14.85
192.045	26.11
192.265	22.02
192.484	-70.14
192.704	3.58
192.923	44.54
193.142	42.5
193.362	58.88
193.581	99.84
193.8	-16.9
194.02	44.54
194.239	38.4
194.458	36.35
194.678	17.92
194.897	13.82
195.116	17.92
195.335	-51.71
195.555	46.59
195.774	56.83
195.993	34.3
196.212	42.5
196.432	5.63
196.651	-10.75
196.87	-0.51
197.089	9.73
197.308	-8.7
197.528	83.45
197.747	-6.66
197.966	-47.62
198.185	77.31
198.404	26.11
198.623	22.02
198.842	-16.9
199.062	85.5
199.281	34.3
199.5	91.65
199.719	-2.56
199.938	26.11
200.157	34.3
200.376	67.07
200.595	44.54
200.814	46.59
201.033	-6.66
201.252	-23.04
201.471	67.07
201.69	11.78
201.909	15.87
202.128	89.6
202.347	-29.18
202.566	32.26
202.785	-10.75
203.004	-6.66
203.223	56.83
203.442	-2.56
203.661	42.5
203.879	-4.61
204.098	-8.7
204.317	46.59
204.536	7.68
204.755	-20.99
204.974	50.69
205.193	-6.66
205.411	122.37
205.63	-41.47
205.849	9.73
206.068	46.59
206.287	5.63
206.505	110.08
206.724	38.4
206.943	-27.14
207.162	5.63
207.381	-20.99
207.599	42.5
207.818	7.68
208.037	-4.61
208.255	11.78
208.474	26.11
208.693	77.31
208.911	-27.14
209.13	36.35
209.349	32.26
209.567	32.26
209.786	40.45
210.005	17.92
210.223	56.83
210.442	-57.86
210.661	50.69
210.879	-45.57
211.098	-31.23
211.316	26.11
211.535	58.88
211.753	24.06
211.972	77.31
212.191	-14.85
212.409	36.35
212.628	38.4
212.846	36.35
213.065	17.92
213.283	26.11
213.502	-6.66
213.72	-2.56
213.938	-2.56
214.157	-25.09
214.375	42.5
214.594	42.5
214.812	58.88
215.031	101.89
215.249	44.54
215.467	69.12
215.686	-23.04
215.904	65.02
216.122	3.58
216.341	38.4
216.559	75.26
216.778	3.58
216.996	77.31
217.214	-6.66
217.432	-14.85
217.651	13.82
217.869	71.17
218.087	1.54
218.306	17.92
218.524	103.93
218.742	95.74
218.96	50.69
219.179	-82.43
219.397	56.83
219.615	67.07
219.833	50.69
220.051	15.87
220.27	77.31
220.488	52.74
220.706	-6.66
220.924	24.06
221.142	105.98
221.36	-0.51
221.578	-41.47
221.796	-66.05
222.015	-8.7
222.233	-16.9
222.451	-23.04
222.669	-6.66
222.887	24.06
223.105	62.98
223.323	32.26
223.541	-0.51
223.759	-55.81
223.977	36.35
224.195	81.41
224.413	-49.66
224.631	58.88
224.849	-4.61
225.067	85.5
225.285	114.17
225.503	17.92
225.721	-31.23
225.939	44.54
226.157	34.3
226.375	118.27
226.592	-39.42
226.81	34.3
227.028	58.88
227.246	34.3
227.464	105.98
227.682	50.69
227.9	19.97
228.117	34.3
228.335	3.58
228.553	1.54
228.771	83.45
228.989	-10.75
229.206	-45.57
229.424	46.59
229.642	52.74
229.86	9.73
230.077	9.73
230.295	52.74
230.513	42.5
230.731	105.98
230.948	9.73
231.166	62.98
231.384	-25.09
231.601	91.65
231.819	73.21
232.037	42.5
232.254	71.17
232.472	17.92
232.689	62.98
232.907	-0.51
233.125	11.78
233.342	17.92
233.56	7.68
233.777	22.02
233.995	48.64
234.213	69.12
234.43	40.45
234.648	-29.18
234.865	-23.04
235.083	36.35
235.3	-0.51
235.518	62.98
235.735	118.27
235.953	69.12
236.17	36.35
236.388	13.82
236.605	28.16
236.822	58.88
237.04	42.5
237.257	-6.66
237.475	32.26
237.692	56.83
237.909	50.69
238.127	-39.42
238.344	32.26
238.562	36.35
238.779	-31.23
238.996	81.41
239.214	54.78
239.431	79.36
239.648	-18.94
239.865	19.97
240.083	56.83
240.3	3.58
240.517	-31.23
240.735	1.54
240.952	15.87
241.169	28.16
241.386	50.69
241.603	75.26
241.821	7.68
242.038	17.92
242.255	-0.51
242.472	9.73
242.689	13.82
242.907	95.74
243.124	32.26
243.341	52.74
243.558	3.58
243.775	5.63
243.992	-18.94
244.209	60.93
244.426	65.02
244.643	69.12
244.86	-29.18
245.078	24.06
245.295	13.82
245.512	34.3
245.729	79.36
245.946	56.83
246.163	48.64
246.38	50.69
246.597	34.3
246.814	48.64
247.031	77.31
247.248	3.58
247.464	26.11
247.681	24.06
247.898	9.73
248.115	83.45
248.332	-2.56
248.549	54.78
248.766	112.13
248.983	103.93
249.2	3.58
249.417	69.12
249.633	24.06
249.85	40.45
250.067	32.26
250.284	38.4
250.501	87.55
250.717	65.02
250.934	-49.66
251.151	-18.94
251.368	-27.14
251.585	83.45
251.801	46.59
252.018	-49.66
252.235	75.26
252.451	17.92
252.668	13.82
252.885	52.74
253.102	13.82
253.318	60.93
253.535	34.3
253.752	-4.61
253.968	26.11
254.185	-35.33
254.401	77.31
254.618	46.59
254.835	40.45
255.051	7.68
255.268	34.3
255.484	54.78
255.701	38.4
255.917	62.98
256.134	24.06
256.351	9.73
256.567	-12.8
256.784	48.64
257	17.92
257.217	46.59
257.433	48.64
257.65	65.02
257.866	79.36
258.082	56.83
258.299	5.63
258.515	44.54
258.732	-6.66
258.948	-14.85
259.165	1.54
259.381	67.07
259.597	58.88
259.814	73.21
260.03	26.11
260.246	11.78
260.463	99.84
260.679	116.22
260.895	22.02
261.112	-2.56
261.328	-18.94
261.544	-31.23
261.761	99.84
261.977	108.03
262.193	-8.7
262.409	71.17
262.626	30.21
262.842	-18.94
263.058	19.97
263.274	58.88
263.49	40.45
263.707	69.12
263.923	38.4
264.139	5.63
264.355	42.5
264.571	32.26
264.787	67.07
265.004	11.78
265.22	46.59
265.436	48.64
265.652	-12.8
265.868	-14.85
266.084	-61.95
266.3	1.54
266.516	-16.9
266.732	26.11
266.948	65.02
267.164	38.4
267.38	-6.66
267.596	19.97
267.812	71.17
268.028	83.45
268.244	46.59
268.46	34.3
268.676	22.02
268.892	38.4
269.108	36.35
269.324	-72.19
269.54	-43.52
269.756	-16.9
269.972	-47.62
270.188	32.26
270.403	-27.14
270.619	85.5
270.835	42.5
271.051	15.87
271.267	5.63
271.483	5.63
271.698	62.98
271.914	11.78
272.13	93.69
272.346	-8.7
272.562	44.54
272.777	34.3
272.993	85.5
273.209	40.45
273.425	36.35
273.64	19.97
273.856	52.74
274.072	28.16
274.287	30.21
274.503	52.74
274.719	48.64
274.934	48.64
275.15	17.92
275.366	89.6
275.581	26.11
275.797	42.5
276.012	-35.33
276.228	40.45
276.444	28.16
276.659	17.92
276.875	-41.47
277.09	-23.04
277.306	22.02
277.521	34.3
277.737	79.36
277.952	-29.18
278.168	71.17
278.383	32.26
278.599	34.3
278.814	54.78
279.03	24.06
279.245	124.41
279.461	11.78
279.676	3.58
279.892	13.82
280.107	40.45
280.322	65.02
280.538	60.93
280.753	3.58
280.969	79.36
281.184	48.64
281.399	69.12
281.615	19.97
281.83	38.4
282.045	103.93
282.26	-57.86
282.476	24.06
282.691	1.54
282.906	-37.38
283.122	60.93
283.337	1.54
283.552	44.54
283.767	-18.94
283.983	71.17
284.198	-8.7
284.413	-16.9
284.628	62.98
284.843	52.74
285.058	15.87
285.274	1.54
285.489	24.06
285.704	118.27
285.919	60.93
286.134	67.07
286.349	13.82
286.564	1.54
286.779	38.4
286.995	79.36
287.21	-10.75
287.425	-6.66
287.64	19.97
287.855	50.69
288.07	26.11
288.285	97.79
288.5	-0.51
288.715	-4.61
288.93	5.63
289.145	13.82
289.36	-47.62
289.575	46.59
289.79	46.59
290.004	28.16
290.219	77.31
290.434	24.06
290.649	-0.51
290.864	3.58
291.079	50.69
291.294	15.87
291.509	89.6
291.724	-68.09
291.938	-53.76
292.153	42.5
292.368	26.11
292.583	91.65
292.798	67.07
293.012	54.78
293.227	32.26
293.442	140.8
293.657	67.07
293.871	48.64
294.086	-10.75
294.301	-2.56
294.516	11.78
294.73	38.4
294.945	7.68
295.16	22.02
295.374	77.31
295.589	-0.51
295.804	28.16
296.018	93.69
296.233	19.97
296.447	5.63
296.662	-23.04
296.877	24.06
297.091	36.35
297.306	73.21
297.52	26.11
297.735	69.12
297.949	15.87
298.164	-18.94
298.378	103.93
298.593	17.92
298.807	30.21
299.022	105.98
299.236	40.45
299.451	54.78
299.665	44.54
299.88	85.5
300.094	67.07
300.309	67.07
300.523	26.11
300.737	91.65
300.952	3.58
301.166	120.32
301.381	-0.51
301.595	71.17
301.809	1.54
302.024	9.73
302.238	69.12
302.452	108.03
302.667	42.5
302.881	50.69
303.095	30.21
303.309	62.98
303.524	36.35
303.738	-12.8
303.952	26.11
304.166	60.93
304.381	54.78
304.595	52.74
304.809	52.74
305.023	54.78
305.237	103.93
305.452	-14.85
305.666	-4.61
305.88	40.45
306.094	52.74
306.308	-2.56
306.522	19.97
306.736	1.54
306.95	13.82
307.164	87.55
307.379	-16.9
307.593	3.58
307.807	-6.66
308.021	62.98
308.235	81.41
308.449	-29.18
308.663	54.78
308.877	65.02
309.091	-25.09
309.305	65.02
309.519	7.68
309.733	79.36
309.947	-8.7
310.161	17.92
310.374	38.4
310.588	69.12
310.802	5.63
311.016	-14.85
311.23	71.17
311.444	-8.7
311.658	-18.94
311.872	36.35
312.085	42.5
312.299	85.5
312.513	7.68
312.727	44.54
312.941	-4.61
313.154	1.54
313.368	38.4
313.582	-51.71
313.796	5.63
314.009	54.78
314.223	-4.61
314.437	42.5
314.651	-14.85
314.864	32.26
315.078	42.5
315.292	-47.62
315.505	77.31
315.719	62.98
315.933	7.68
316.146	69.12
316.36	32.26
316.573	67.07
316.787	42.5
317.001	60.93
317.214	11.78
317.428	36.35
317.641	32.26
317.855	42.5
318.068	38.4
318.282	13.82
318.495	58.88
318.709	89.6
318.922	71.17
319.136	124.41
319.349	40.45
319.563	26.11
319.776	34.3
319.99	28.16
320.203	52.74
320.417	69.12
320.63	73.21
320.843	9.73
321.057	19.97
321.27	19.97
321.483	-2.56
321.697	65.02
321.91	46.59
322.124	11.78
322.337	-18.94
322.55	-64
322.763	42.5
322.977	32.26
323.19	54.78
323.403	38.4
323.617	11.78
323.83	65.02
324.043	24.06
324.256	60.93
324.469	-2.56
324.683	103.93
324.896	9.73
325.109	56.83
325.322	32.26
325.535	56.83
325.748	-2.56
325.962	48.64
326.175	79.36
326.388	69.12
326.601	-8.7
326.814	112.13
327.027	58.88
327.24	73.21
327.453	11.78
327.666	46.59
327.879	71.17
328.092	30.21
328.305	3.58
328.518	28.16
328.731	15.87
328.944	40.45
329.157	46.59
329.37	50.69
329.583	77.31
329.796	83.45
330.009	32.26
330.222	97.79
330.435	50.69
330.648	-39.42
330.861	15.87
331.073	60.93
331.286	36.35
331.499	62.98
331.712	17.92
331.925	9.73
332.138	65.02
332.35	120.32
332.563	58.88
332.776	30.21
332.989	-20.99
333.202	81.41
333.414	62.98
333.627	71.17
333.84	-29.18
334.053	62.98
334.265	-18.94
334.478	19.97
334.691	-51.71
334.903	103.93
335.116	36.35
335.329	-18.94
335.541	83.45
335.754	75.26
335.966	26.11
336.179	38.4
336.392	50.69
336.604	85.5
336.817	-6.66
337.029	11.78
337.242	15.87
337.454	26.11
337.667	38.4
337.88	83.45
338.092	97.79
338.305	62.98
338.517	62.98
338.729	24.06
338.942	73.21
339.154	-0.51
339.367	65.02
339.579	58.88
339.792	89.6
340.004	32.26
340.217	69.12
340.429	42.5
340.641	50.69
340.854	46.59
341.066	65.02
341.278	69.12
341.491	52.74
341.703	75.26
341.915	-49.66
342.128	54.78
342.34	17.92
342.552	-0.51
342.764	46.59
342.977	69.12
343.189	62.98
343.401	101.89
343.613	50.69
343.826	-2.56
344.038	7.68
344.25	34.3
344.462	48.64
344.674	87.55
344.886	22.02
345.099	5.63
345.311	22.02
345.523	13.82
345.735	24.06
345.947	26.11
346.159	48.64
346.371	11.78
346.583	91.65
346.795	-4.61
347.007	91.65
347.219	48.64
347.431	54.78
347.643	40.45
347.855	17.92
348.067	110.08
348.279	-4.61
348.491	71.17
348.703	46.59
348.915	15.87
349.127	-10.75
349.339	36.35
349.551	-27.14
349.763	54.78
349.975	34.3
350.187	110.08
350.399	50.69
350.61	42.5
350.822	42.5
351.034	81.41
351.246	79.36
351.458	122.37
351.669	93.69
351.881	69.12
352.093	128.51
352.305	50.69
352.517	67.07
352.728	75.26
352.94	69.12
353.152	40.45
353.363	75.26
353.575	9.73
353.787	71.17
353.999	1.54
354.21	19.97
354.422	1.54
354.633	1.54
354.845	44.54
355.057	60.93
355.268	36.35
355.48	42.5
355.692	-12.8
355.903	-6.66
356.115	-33.28
356.326	71.17
356.538	38.4
356.749	81.41
356.961	87.55
357.172	17.92
357.384	5.63
357.595	144.89
357.807	46.59
358.018	50.69
358.23	26.11
358.441	-12.8
358.653	11.78
358.864	-27.14
359.075	79.36
359.287	69.12
359.498	48.64
359.709	28.16
359.921	38.4
360.132	19.97
360.344	15.87
360.555	95.74
360.766	-27.14
360.977	54.78
361.189	69.12
361.4	36.35
361.611	65.02
361.823	9.73
362.034	38.4
362.245	71.17
362.456	50.69
362.667	73.21
362.879	73.21
363.09	142.85
363.301	146.94
363.512	40.45
363.723	144.89
363.935	-47.62
364.146	71.17
364.357	52.74
364.568	-8.7
364.779	15.87
364.99	36.35
365.201	5.63
365.412	22.02
365.623	40.45
365.834	77.31
366.045	1.54
366.256	60.93
366.467	99.84
366.678	-2.56
366.889	79.36
367.1	54.78
367.311	42.5
367.522	58.88
367.733	95.74
367.944	118.27
368.155	-33.28
368.366	89.6
368.577	38.4
368.788	46.59
368.999	30.21
369.209	52.74
369.42	144.89
369.631	73.21
369.842	48.64
370.053	56.83
370.264	40.45
370.474	17.92
370.685	-0.51
370.896	54.78
371.107	105.98
371.317	26.11
371.528	87.55
371.739	103.93
371.95	15.87
372.16	103.93
372.371	-25.09
372.582	71.17
372.792	44.54
373.003	52.74
373.214	46.59
373.424	32.26
373.635	48.64
373.846	108.03
374.056	110.08
374.267	126.46
374.477	-0.51
374.688	17.92
374.898	32.26
375.109	71.17
375.319	69.12
375.53	79.36
375.74	28.16
375.951	65.02
376.161	36.35
376.372	48.64
376.582	54.78
376.793	124.41
377.003	52.74
377.214	-2.56
377.424	56.83
377.635	105.98
377.845	60.93
378.055	93.69
378.266	13.82
378.476	40.45
378.686	-12.8
378.897	62.98
379.107	85.5
379.317	83.45
379.528	17.92
379.738	54.78
379.948	62.98
380.158	30.21
380.369	46.59
380.579	46.59
380.789	62.98
380.999	83.45
381.21	75.26
381.42	93.69
381.63	32.26
381.84	50.69
382.05	62.98
382.261	69.12
382.471	110.08
382.681	54.78
382.891	73.21
383.101	44.54
383.311	34.3
383.521	36.35
383.731	79.36
383.941	73.21
384.151	93.69
384.361	69.12
384.571	22.02
384.781	85.5
384.991	79.36
385.201	50.69
385.411	130.56
385.621	89.6
385.831	40.45
386.041	7.68
386.251	17.92
386.461	108.03
386.671	30.21
386.881	136.7
387.091	44.54
387.301	73.21
387.511	48.64
387.72	97.79
387.93	112.13
388.14	32.26
388.35	54.78
388.56	91.65
388.769	65.02
388.979	83.45
389.189	99.84
389.399	99.84
389.609	75.26
389.818	128.51
390.028	-6.66
390.238	81.41
390.447	79.36
390.657	146.94
390.867	116.22
391.076	26.11
391.286	148.99
391.496	108.03
391.705	71.17
391.915	69.12
392.125	103.93
392.334	101.89
392.544	132.61
392.753	54.78
392.963	42.5
393.172	46.59
393.382	40.45
393.591	134.65
393.801	97.79
394.01	42.5
394.22	62.98
394.429	128.51
394.639	42.5
394.848	77.31
395.058	83.45
395.267	116.22
395.477	83.45
395.686	99.84
395.895	112.13
396.105	89.6
396.314	-37.38
396.524	105.98
396.733	108.03
396.942	138.75
397.152	108.03
397.361	105.98
397.57	108.03
397.78	122.37
397.989	122.37
398.198	161.28
398.407	112.13
398.617	114.17
398.826	157.18
399.035	124.41
399.244	87.55
399.453	153.09
399.663	122.37
399.872	132.61
400.081	140.8
400.29	146.94
400.499	116.22
400.708	241.15
400.917	124.41
401.127	173.57
401.336	93.69
401.545	187.9
401.754	220.67
401.963	155.13
402.172	163.33
402.381	181.76
402.59	163.33
402.799	138.75
403.008	128.51
403.217	169.47
403.426	169.47
403.635	138.75
403.844	192
404.053	198.14
404.262	218.62
404.471	228.86
404.68	232.96
404.888	222.72
405.097	290.3
405.306	228.86
405.515	144.89
405.724	216.57
405.933	269.82
406.142	263.68
406.35	208.38
406.559	280.06
406.768	280.06
406.977	361.98
407.185	294.4
407.394	249.34
407.603	269.82
407.812	302.59
408.02	361.98
408.229	323.07
408.438	298.49
408.646	228.86
408.855	300.54
409.064	300.54
409.272	300.54
409.481	441.85
409.69	353.79
409.898	333.31
410.107	400.89
410.315	454.14
410.524	450.04
410.733	447.99
410.941	529.91
411.15	476.66
411.358	476.66
411.567	583.16
411.775	519.67
411.984	523.77
412.192	628.21
412.401	527.86
412.609	699.89
412.818	667.13
413.026	681.46
413.234	716.28
413.443	734.71
413.651	726.52
413.86	787.96
414.068	761.33
414.276	865.78
414.485	824.82
414.693	800.24
414.901	906.74
415.11	939.51
415.318	902.64
415.526	1005.04
415.734	1064.43
415.943	1015.28
416.151	1068.53
416.359	1080.82
416.567	1089.01
416.776	1234.41
416.984	1308.14
417.192	1338.86
417.4	1283.56
417.608	1310.19
417.817	1402.35
418.025	1400.3
418.233	1670.63
418.441	1469.93
418.649	1549.8
418.857	1682.92
419.065	1641.96
419.273	1766.89
419.481	1844.71
419.689	1973.73
419.897	1983.97
420.105	2084.32
420.313	2160.1
420.521	2151.9
420.729	2242.01
420.937	2282.97
421.145	2332.12
421.353	2450.91
421.561	2467.29
421.769	2579.93
421.977	2774.49
422.185	2727.38
422.393	2872.79
422.601	3173.84
422.809	2960.85
423.017	3022.29
423.224	3165.65
423.432	3317.2
423.64	3302.86
423.848	3583.43
424.056	3501.51
424.263	3712.46
424.471	3775.94
424.679	3917.25
424.887	4130.24
425.094	4216.26
425.302	4214.21
425.51	4457.92
425.718	4648.38
425.925	4523.45
426.133	4822.45
426.341	5115.31
426.548	5234.1
426.756	5232.05
426.964	5156.27
427.171	5553.58
427.379	5887.4
427.586	5791.14
427.794	6002.08
428.001	6321.57
428.209	6665.63
428.417	6383.01
428.624	7021.97
428.832	6911.38
429.039	6847.9
429.247	6882.71
429.454	7564.68
429.662	8074.63
429.869	7507.34
430.076	8154.5
430.284	7818.63
430.491	7955.85
430.699	8574.33
430.906	8578.43
431.114	8648.06
431.321	8996.21
431.528	9377.14
431.736	9743.72
431.943	10276.2
432.15	9784.68
432.358	10014.06
432.565	10655.07
432.772	10433.89
432.979	11138.39
433.187	11210.07
433.394	11443.54
433.601	12035.4
433.808	12399.94
434.016	12264.77
434.223	12563.78
434.43	13266.23
434.637	13061.43
434.844	13913.39
435.052	14386.47
435.259	14290.21
435.466	14298.41
435.673	13792.56
435.88	15058.2
436.087	15961.36
436.294	15850.77
436.501	15271.19
436.708	15836.43
436.915	16434.44
437.122	16815.36
437.329	17151.23
437.537	17628.4
437.743	17911.02
437.95	17665.27
438.157	18451.69
438.364	19023.07
438.571	19227.87
438.778	19430.62
438.985	21286.08
439.192	20331.72
439.399	20790.47
439.606	20065.49
439.813	21576.89
440.02	22619.3
440.227	22269.1
440.433	22185.13
440.64	22865.06
440.847	22658.21
441.054	23393.44
441.261	24902.79
441.467	24734.85
441.674	25347.2
441.881	25947.25
442.088	26068.08
442.294	26027.12
442.501	26299.5
442.708	26940.52
442.914	27862.1
443.121	28875.85
443.328	28365.9
443.534	30211.12
443.741	29520.96
443.948	28986.44
444.154	31267.87
444.361	30903.34
444.568	31200.29
444.774	31210.53
444.981	31527.97
445.187	32760.84
445.394	33993.72
445.6	33547.26
445.807	36479.96
446.013	35032.04
446.22	35763.17
446.426	37120.97
446.633	37276.62
446.839	38906.8
447.046	37080.01
447.252	39003.05
447.459	39314.34
447.665	39418.79
447.871	40872.85
448.078	42408.82
448.284	40479.64
448.491	41677.7
448.697	43383.66
448.903	43733.86
449.11	44098.4
449.316	43273.07
449.522	44182.37
449.728	45196.11
449.935	45904.71
450.141	45243.21
450.347	46652.22
450.553	45151.06
450.76	45476.68
450.966	47442.73
451.172	47029.04
451.378	48087.84
451.584	47346.48
451.791	48737.05
451.997	47819.56
452.203	49150.74
452.409	49072.92
452.615	48673.56
452.821	47151.92
453.027	46482.23
453.233	48667.42
453.44	46672.7
453.646	47618.86
453.852	47862.57
454.058	48816.92
454.264	46932.79
454.47	47514.41
454.676	46961.46
454.882	48012.07
455.088	44467.03
455.294	45052.75
455.5	45554.5
455.705	46426.94
455.911	44661.59
456.117	43764.58
456.323	42896.24
456.529	41044.88
456.735	42384.25
456.941	41261.96
457.147	40631.19
457.352	39713.7
457.558	38968.24
457.764	39150.51
457.97	38437.81
458.176	37788.61
458.381	37643.2
458.587	35636.19
458.793	35943.39
458.999	34198.52
459.204	36328.41
459.41	35564.51
459.616	33430.53
459.821	32994.31
460.027	32967.69
460.233	32265.24
460.438	30772.27
460.644	31020.07
460.85	29867.06
461.055	29178.95
461.261	29197.38
461.466	26846.31
461.672	26209.39
461.878	28003.41
462.083	26432.62
462.289	25830.52
462.494	25453.69
462.7	23993.49
462.905	23692.44
463.111	24452.23
463.316	24648.84
463.522	23970.96
463.727	24360.08
463.932	24220.81
464.138	24001.68
464.343	24013.97
464.549	23354.52
464.754	23798.93
464.959	23860.37
465.165	23604.38
465.37	22525.1
465.575	21744.82
465.781	22598.82
465.986	23026.85
466.191	22019.25
466.397	21839.03
466.602	20714.69
466.807	21382.33
467.012	21478.58
467.218	21454.01
467.423	21071.04
467.628	20919.49
