Data from USB4F104151__23__12-35-26-242.txt Node

Date: Fri Mar 14 12:35:26 EDT 2025
User: louis
Spectrometer: USB4F10415
Trigger mode: 4
Integration Time (sec): 2.000000E-2
Scans to average: 1
Electric dark correction enabled: true
Nonlinearity correction enabled: false
Boxcar width: 0
XAxis mode: Wavelengths
Number of Pixels in Spectrum: 3648
>>>>>Begin Spectral Data<<<<<
178.204	-61.44
178.424	-61.44
178.644	-61.44
178.864	-65.53
179.084	-124.93
179.304	-26.62
179.524	-26.62
179.744	-12.29
179.964	47.1
180.184	-59.39
180.404	-2.05
180.624	20.48
180.844	20.48
181.064	0
181.283	26.62
181.503	6.14
181.723	6.14
181.943	-22.53
182.163	36.86
182.383	-4.1
182.602	26.62
182.822	10.24
183.042	22.53
183.262	-36.86
183.482	20.48
183.701	28.67
183.921	6.14
184.141	65.54
184.361	-4.1
184.58	110.59
184.8	12.29
185.02	69.63
185.239	71.68
185.459	2.05
185.679	69.63
185.898	-30.72
186.118	57.34
186.338	-40.96
186.557	40.96
186.777	32.77
186.997	-36.86
187.216	-14.34
187.436	118.78
187.655	38.91
187.875	65.54
188.095	-2.05
188.314	38.91
188.534	55.3
188.753	108.54
188.973	20.48
189.192	-8.19
189.412	-20.48
189.631	24.58
189.851	16.38
190.07	4.1
190.29	61.44
190.509	57.34
190.729	-47.1
190.948	34.82
191.168	79.87
191.387	92.16
191.607	-43.01
191.826	-8.19
192.045	-14.34
192.265	45.06
192.484	24.58
192.704	92.16
192.923	51.2
193.142	108.54
193.362	-6.14
193.581	18.43
193.8	26.62
194.02	88.06
194.239	26.62
194.458	79.87
194.678	6.14
194.897	-2.05
195.116	61.44
195.335	139.26
195.555	94.21
195.774	34.82
195.993	32.77
196.212	40.96
196.432	-8.19
196.651	45.06
196.87	131.07
197.089	34.82
197.308	22.53
197.528	49.15
197.747	0
197.966	-14.34
198.185	36.86
198.404	38.91
198.623	129.02
198.842	22.53
199.062	59.39
199.281	36.86
199.5	-2.05
199.719	-55.3
199.938	49.15
200.157	38.91
200.376	12.29
200.595	22.53
200.814	88.06
201.033	102.4
201.252	55.3
201.471	12.29
201.69	-6.14
201.909	-4.1
202.128	-10.24
202.347	-30.72
202.566	-47.1
202.785	53.25
203.004	86.01
203.223	73.73
203.442	83.97
203.661	34.82
203.879	-10.24
204.098	-26.62
204.317	67.58
204.536	40.96
204.755	-14.34
204.974	32.77
205.193	65.54
205.411	16.38
205.63	49.15
205.849	-8.19
206.068	14.34
206.287	24.58
206.505	10.24
206.724	-53.25
206.943	18.43
207.162	51.2
207.381	30.72
207.599	-20.48
207.818	67.58
208.037	22.53
208.255	-4.1
208.474	47.1
208.693	20.48
208.911	2.05
209.13	-8.19
209.349	-2.05
209.567	18.43
209.786	59.39
210.005	51.2
210.223	38.91
210.442	53.25
210.661	49.15
210.879	83.97
211.098	73.73
211.316	-53.25
211.535	28.67
211.753	-71.68
211.972	86.01
212.191	77.82
212.409	12.29
212.628	0
212.846	-4.1
213.065	26.62
213.283	116.73
213.502	38.91
213.72	77.82
213.938	22.53
214.157	79.87
214.375	-49.15
214.594	-14.34
214.812	71.68
215.031	14.34
215.249	14.34
215.467	14.34
215.686	53.25
215.904	28.67
216.122	59.39
216.341	26.62
216.559	20.48
216.778	43.01
216.996	20.48
217.214	75.77
217.432	-14.34
217.651	38.91
217.869	22.53
218.087	75.77
218.306	36.86
218.524	-6.14
218.742	26.62
218.96	-10.24
219.179	-14.34
219.397	-4.1
219.615	22.53
219.833	-12.29
220.051	-12.29
220.27	36.86
220.488	30.72
220.706	-18.43
220.924	18.43
221.142	8.19
221.36	-14.34
221.578	45.06
221.796	49.15
222.015	26.62
222.233	61.44
222.451	53.25
222.669	18.43
222.887	-6.14
223.105	-6.14
223.323	14.34
223.541	88.06
223.759	32.77
223.977	18.43
224.195	55.3
224.413	96.25
224.631	0
224.849	71.68
225.067	24.58
225.285	67.58
225.503	0
225.721	14.34
225.939	73.73
226.157	65.54
226.375	90.11
226.592	-67.58
226.81	104.45
227.028	-34.82
227.246	67.58
227.464	32.77
227.682	63.49
227.9	53.25
228.117	30.72
228.335	-10.24
228.553	14.34
228.771	8.19
228.989	49.15
229.206	28.67
229.424	-18.43
229.642	8.19
229.86	-38.91
230.077	22.53
230.295	55.3
230.513	30.72
230.731	47.1
230.948	-6.14
231.166	59.39
231.384	71.68
231.601	20.48
231.819	57.34
232.037	-79.87
232.254	18.43
232.472	-8.19
232.689	71.68
232.907	49.15
233.125	20.48
233.342	14.34
233.56	-4.1
233.777	40.96
233.995	6.14
234.213	53.25
234.43	-12.29
234.648	65.54
234.865	18.43
235.083	77.82
235.3	-16.38
235.518	30.72
235.735	43.01
235.953	81.92
236.17	-12.29
236.388	34.82
236.605	16.38
236.822	98.3
237.04	36.86
237.257	8.19
237.475	-28.67
237.692	57.34
237.909	16.38
238.127	40.96
238.344	79.87
238.562	16.38
238.779	-67.58
238.996	-10.24
239.214	38.91
239.431	36.86
239.648	57.34
239.865	14.34
240.083	51.2
240.3	14.34
240.517	32.77
240.735	-20.48
240.952	-30.72
241.169	59.39
241.386	2.05
241.603	26.62
241.821	-63.49
242.038	20.48
242.255	30.72
242.472	75.77
242.689	36.86
242.907	100.35
243.124	94.21
243.341	28.67
243.558	-16.38
243.775	-26.62
243.992	-2.05
244.209	63.49
244.426	36.86
244.643	67.58
244.86	88.06
245.078	-2.05
245.295	20.48
245.512	22.53
245.729	55.3
245.946	-10.24
246.163	32.77
246.38	20.48
246.597	14.34
246.814	57.34
247.031	22.53
247.248	22.53
247.464	30.72
247.681	12.29
247.898	38.91
248.115	-14.34
248.332	-4.1
248.549	71.68
248.766	49.15
248.983	18.43
249.2	18.43
249.417	51.2
249.633	14.34
249.85	24.58
250.067	20.48
250.284	57.34
250.501	22.53
250.717	73.73
250.934	34.82
251.151	36.86
251.368	20.48
251.585	36.86
251.801	34.82
252.018	-6.14
252.235	61.44
252.451	57.34
252.668	26.62
252.885	-81.92
253.102	-4.1
253.318	30.72
253.535	28.67
253.752	-4.1
253.968	-49.15
254.185	67.58
254.401	-24.58
254.618	28.67
254.835	24.58
255.051	-6.14
255.268	49.15
255.484	32.77
255.701	43.01
255.917	-6.14
256.134	86.01
256.351	-4.1
256.567	88.06
256.784	61.44
257	-30.72
257.217	145.41
257.433	51.2
257.65	32.77
257.866	18.43
258.082	-22.53
258.299	47.1
258.515	28.67
258.732	-16.38
258.948	67.58
259.165	26.62
259.381	10.24
259.597	8.19
259.814	10.24
260.03	12.29
260.246	-45.06
260.463	63.49
260.679	86.01
260.895	34.82
261.112	40.96
261.328	28.67
261.544	40.96
261.761	2.05
261.977	36.86
262.193	2.05
262.409	12.29
262.626	6.14
262.842	67.58
263.058	10.24
263.274	2.05
263.49	47.1
263.707	88.06
263.923	16.38
264.139	30.72
264.355	83.97
264.571	73.73
264.787	18.43
265.004	-2.05
265.22	73.73
265.436	36.86
265.652	-10.24
265.868	69.63
266.084	2.05
266.3	69.63
266.516	-18.43
266.732	81.92
266.948	-38.91
267.164	12.29
267.38	79.87
267.596	53.25
267.812	88.06
268.028	32.77
268.244	28.67
268.46	-8.19
268.676	43.01
268.892	114.69
269.108	-6.14
269.324	53.25
269.54	-43.01
269.756	59.39
269.972	10.24
270.188	-34.82
270.403	24.58
270.619	22.53
270.835	-8.19
271.051	8.19
271.267	-18.43
271.483	24.58
271.698	24.58
271.914	57.34
272.13	18.43
272.346	-40.96
272.562	28.67
272.777	-14.34
272.993	55.3
273.209	61.44
273.425	-73.73
273.64	98.3
273.856	-18.43
274.072	55.3
274.287	-22.53
274.503	59.39
274.719	43.01
274.934	-36.86
275.15	28.67
275.366	61.44
275.581	-28.67
275.797	71.68
276.012	20.48
276.228	40.96
276.444	18.43
276.659	83.97
276.875	22.53
277.09	69.63
277.306	59.39
277.521	69.63
277.737	94.21
277.952	47.1
278.168	16.38
278.383	12.29
278.599	-14.34
278.814	43.01
279.03	-28.67
279.245	36.86
279.461	59.39
279.676	73.73
279.892	43.01
280.107	75.77
280.322	65.54
280.538	65.54
280.753	67.58
280.969	22.53
281.184	12.29
281.399	8.19
281.615	4.1
281.83	77.82
282.045	6.14
282.26	-45.06
282.476	-10.24
282.691	43.01
282.906	32.77
283.122	65.54
283.337	53.25
283.552	40.96
283.767	49.15
283.983	36.86
284.198	55.3
284.413	55.3
284.628	30.72
284.843	88.06
285.058	-28.67
285.274	45.06
285.489	57.34
285.704	92.16
285.919	18.43
286.134	22.53
286.349	-43.01
286.564	55.3
286.779	104.45
286.995	12.29
287.21	49.15
287.425	-2.05
287.64	30.72
287.855	79.87
288.07	67.58
288.285	34.82
288.5	-18.43
288.715	-8.19
288.93	-16.38
289.145	-8.19
289.36	102.4
289.575	51.2
289.79	12.29
290.004	102.4
290.219	47.1
290.434	4.1
290.649	77.82
290.864	-16.38
291.079	77.82
291.294	-32.77
291.509	26.62
291.724	2.05
291.938	8.19
292.153	22.53
292.368	79.87
292.583	22.53
292.798	36.86
293.012	-6.14
293.227	8.19
293.442	49.15
293.657	51.2
293.871	71.68
294.086	69.63
294.301	92.16
294.516	0
294.73	67.58
294.945	20.48
295.16	110.59
295.374	14.34
295.589	-8.19
295.804	22.53
296.018	43.01
296.233	6.14
296.447	126.97
296.662	2.05
296.877	4.1
297.091	-26.62
297.306	36.86
297.52	-12.29
297.735	104.45
297.949	32.77
298.164	-4.1
298.378	92.16
298.593	-55.3
298.807	40.96
299.022	-10.24
299.236	57.34
299.451	86.01
299.665	92.16
299.88	30.72
300.094	-8.19
300.309	20.48
300.523	30.72
300.737	34.82
300.952	32.77
301.166	63.49
301.381	32.77
301.595	69.63
301.809	10.24
302.024	10.24
302.238	40.96
302.452	20.48
302.667	28.67
302.881	40.96
303.095	14.34
303.309	55.3
303.524	-14.34
303.738	20.48
303.952	26.62
304.166	65.54
304.381	-16.38
304.595	122.88
304.809	83.97
305.023	36.86
305.237	55.3
305.452	32.77
305.666	-47.1
305.88	79.87
306.094	43.01
306.308	36.86
306.522	4.1
306.736	-22.53
306.95	4.1
307.164	28.67
307.379	-20.48
307.593	88.06
307.807	63.49
308.021	34.82
308.235	86.01
308.449	20.48
308.663	-14.34
308.877	114.69
309.091	-4.1
309.305	2.05
309.519	6.14
309.733	96.25
309.947	-38.91
310.161	79.87
310.374	10.24
310.588	98.3
310.802	18.43
311.016	6.14
311.23	-14.34
311.444	61.44
311.658	-47.1
311.872	92.16
312.085	-69.63
312.299	63.49
312.513	36.86
312.727	69.63
312.941	4.1
313.154	86.01
313.368	67.58
313.582	4.1
313.796	73.73
314.009	28.67
314.223	36.86
314.437	49.15
314.651	100.35
314.864	18.43
315.078	14.34
315.292	61.44
315.505	34.82
315.719	73.73
315.933	45.06
316.146	36.86
316.36	51.2
316.573	47.1
316.787	22.53
317.001	69.63
317.214	-24.58
317.428	77.82
317.641	36.86
317.855	86.01
318.068	110.59
318.282	10.24
318.495	71.68
318.709	67.58
318.922	28.67
319.136	-4.1
319.349	98.3
319.563	20.48
319.776	133.12
319.99	-2.05
320.203	65.54
320.417	12.29
320.63	79.87
320.843	133.12
321.057	73.73
321.27	-12.29
321.483	24.58
321.697	45.06
321.91	79.87
322.124	45.06
322.337	49.15
322.55	34.82
322.763	40.96
322.977	53.25
323.19	30.72
323.403	67.58
323.617	47.1
323.83	79.87
324.043	8.19
324.256	67.58
324.469	-8.19
324.683	26.62
324.896	-2.05
325.109	92.16
325.322	8.19
325.535	20.48
325.748	14.34
325.962	6.14
326.175	32.77
326.388	22.53
326.601	22.53
326.814	38.91
327.027	51.2
327.24	55.3
327.453	-36.86
327.666	30.72
327.879	51.2
328.092	-16.38
328.305	57.34
328.518	10.24
328.731	36.86
328.944	-10.24
329.157	4.1
329.37	34.82
329.583	112.64
329.796	114.69
330.009	32.77
330.222	106.49
330.435	34.82
330.648	77.82
330.861	4.1
331.073	47.1
331.286	-34.82
331.499	-16.38
331.712	24.58
331.925	16.38
332.138	18.43
332.35	47.1
332.563	94.21
332.776	57.34
332.989	77.82
333.202	28.67
333.414	-24.58
333.627	61.44
333.84	-2.05
334.053	77.82
334.265	67.58
334.478	92.16
334.691	133.12
334.903	8.19
335.116	36.86
335.329	16.38
335.541	65.54
335.754	40.96
335.966	55.3
336.179	69.63
336.392	-8.19
336.604	-34.82
336.817	59.39
337.029	-57.34
337.242	47.1
337.454	92.16
337.667	65.54
337.88	43.01
338.092	-14.34
338.305	10.24
338.517	-6.14
338.729	47.1
338.942	18.43
339.154	51.2
339.367	-6.14
339.579	45.06
339.792	92.16
340.004	45.06
340.217	6.14
340.429	28.67
340.641	-2.05
340.854	45.06
341.066	77.82
341.278	24.58
341.491	98.3
341.703	40.96
341.915	-24.58
342.128	18.43
342.34	55.3
342.552	32.77
342.764	40.96
342.977	104.45
343.189	53.25
343.401	61.44
343.613	-34.82
343.826	-14.34
344.038	22.53
344.25	55.3
344.462	96.25
344.674	24.58
344.886	69.63
345.099	116.73
345.311	-4.1
345.523	126.97
345.735	55.3
345.947	49.15
346.159	57.34
346.371	57.34
346.583	88.06
346.795	108.54
347.007	55.3
347.219	26.62
347.431	67.58
347.643	-2.05
347.855	-18.43
348.067	63.49
348.279	14.34
348.491	-4.1
348.703	61.44
348.915	-16.38
349.127	69.63
349.339	22.53
349.551	69.63
349.763	69.63
349.975	88.06
350.187	61.44
350.399	63.49
350.61	43.01
350.822	36.86
351.034	49.15
351.246	26.62
351.458	69.63
351.669	-28.67
351.881	-10.24
352.093	55.3
352.305	51.2
352.517	-34.82
352.728	43.01
352.94	32.77
353.152	110.59
353.363	118.78
353.575	63.49
353.787	53.25
353.999	38.91
354.21	63.49
354.422	-45.06
354.633	30.72
354.845	4.1
355.057	83.97
355.268	-43.01
355.48	90.11
355.692	57.34
355.903	51.2
356.115	94.21
356.326	40.96
356.538	100.35
356.749	53.25
356.961	51.2
357.172	12.29
357.384	47.1
357.595	124.93
357.807	71.68
358.018	16.38
358.23	57.34
358.441	124.93
358.653	112.64
358.864	59.39
359.075	65.54
359.287	26.62
359.498	59.39
359.709	73.73
359.921	112.64
360.132	131.07
360.344	45.06
360.555	-20.48
360.766	49.15
360.977	63.49
361.189	141.31
361.4	77.82
361.611	47.1
361.823	53.25
362.034	18.43
362.245	92.16
362.456	77.82
362.667	16.38
362.879	96.25
363.09	22.53
363.301	28.67
363.512	49.15
363.723	88.06
363.935	61.44
364.146	86.01
364.357	28.67
364.568	20.48
364.779	4.1
364.99	38.91
365.201	67.58
365.412	18.43
365.623	-18.43
365.834	53.25
366.045	59.39
366.256	88.06
366.467	61.44
366.678	57.34
366.889	-34.82
367.1	-14.34
367.311	4.1
367.522	43.01
367.733	22.53
367.944	18.43
368.155	57.34
368.366	8.19
368.577	38.91
368.788	51.2
368.999	28.67
369.209	106.49
369.42	75.77
369.631	98.3
369.842	49.15
370.053	69.63
370.264	51.2
370.474	10.24
370.685	61.44
370.896	67.58
371.107	116.73
371.317	79.87
371.528	36.86
371.739	77.82
371.95	61.44
372.16	71.68
372.371	36.86
372.582	-63.49
372.792	45.06
373.003	88.06
373.214	61.44
373.424	-28.67
373.635	28.67
373.846	104.45
374.056	40.96
374.267	65.54
374.477	73.73
374.688	83.97
374.898	77.82
375.109	43.01
375.319	0
375.53	77.82
375.74	22.53
375.951	88.06
376.161	73.73
376.372	75.77
376.582	24.58
376.793	79.87
377.003	83.97
377.214	34.82
377.424	28.67
377.635	108.54
377.845	45.06
378.055	92.16
378.266	45.06
378.476	114.69
378.686	75.77
378.897	53.25
379.107	32.77
379.317	22.53
379.528	18.43
379.738	22.53
379.948	16.38
380.158	92.16
380.369	32.77
380.579	14.34
380.789	40.96
380.999	-4.1
381.21	83.97
381.42	81.92
381.63	79.87
381.84	65.54
382.05	32.77
382.261	137.21
382.471	38.91
382.681	-36.86
382.891	122.88
383.101	59.39
383.311	34.82
383.521	51.2
383.731	110.59
383.941	34.82
384.151	61.44
384.361	69.63
384.571	-4.1
384.781	30.72
384.991	-57.34
385.201	75.77
385.411	45.06
385.621	51.2
385.831	18.43
386.041	55.3
386.251	77.82
386.461	77.82
386.671	40.96
386.881	77.82
387.091	10.24
387.301	124.93
387.511	57.34
387.72	126.97
387.93	63.49
388.14	28.67
388.35	147.45
388.56	112.64
388.769	20.48
388.979	83.97
389.189	38.91
389.399	131.07
389.609	104.45
389.818	81.92
390.028	112.64
390.238	98.3
390.447	4.1
390.657	8.19
390.867	102.4
391.076	92.16
391.286	124.93
391.496	90.11
391.705	51.2
391.915	92.16
392.125	57.34
392.334	69.63
392.544	137.21
392.753	155.65
392.963	96.25
393.172	86.01
393.382	45.06
393.591	53.25
393.801	30.72
394.01	167.93
394.22	63.49
394.429	120.83
394.639	63.49
394.848	51.2
395.058	10.24
395.267	94.21
395.477	131.07
395.686	120.83
395.895	90.11
396.105	141.31
396.314	165.89
396.524	96.25
396.733	81.92
396.942	110.59
397.152	92.16
397.361	98.3
397.57	67.58
397.78	16.38
397.989	145.41
398.198	157.69
398.407	79.87
398.617	51.2
398.826	100.35
399.035	53.25
399.244	135.17
399.453	86.01
399.663	71.68
399.872	75.77
400.081	163.84
400.29	118.78
400.499	38.91
400.708	116.73
400.917	135.17
401.127	112.64
401.336	133.12
401.545	219.13
401.754	124.93
401.963	151.55
402.172	141.31
402.381	94.21
402.59	65.54
402.799	141.31
403.008	192.51
403.217	169.98
403.426	165.89
403.635	108.54
403.844	210.94
404.053	118.78
404.262	131.07
404.471	145.41
404.68	124.93
404.888	120.83
405.097	196.61
405.306	217.08
405.515	180.22
405.724	124.93
405.933	182.27
406.142	237.56
406.35	260.09
406.559	133.12
406.768	192.51
406.977	227.32
407.185	241.66
407.394	294.91
407.603	190.46
407.812	231.42
408.02	264.19
408.229	282.62
408.438	325.63
408.646	352.25
408.855	286.72
409.064	313.34
409.272	286.72
409.481	303.1
409.69	313.34
409.898	342.01
410.107	378.87
410.315	380.92
410.524	280.57
410.733	368.63
410.941	376.83
411.15	413.69
411.358	428.03
411.567	495.61
411.775	440.31
411.984	479.22
412.192	471.03
412.401	493.56
412.609	565.24
412.818	634.87
413.026	593.91
413.234	645.11
413.443	526.33
413.651	651.25
413.86	598.01
414.068	667.64
414.276	704.5
414.485	751.6
414.693	720.89
414.901	735.22
415.11	741.36
415.318	786.42
415.526	862.19
415.734	995.31
415.943	913.39
416.151	997.36
416.359	1021.94
416.567	1026.03
416.776	1073.14
416.984	1103.86
417.192	1073.14
417.4	1097.71
417.608	1210.35
417.817	1196.01
418.025	1329.13
418.233	1333.23
418.441	1462.25
418.649	1325.04
418.857	1515.5
419.065	1488.87
419.273	1460.2
419.481	1484.78
419.689	1634.28
419.897	1746.92
420.105	1886.18
420.313	1763.3
420.521	1916.9
420.729	1869.8
420.937	1957.86
421.145	2041.82
421.353	2148.32
421.561	2179.04
421.769	2281.44
421.977	2332.64
422.185	2338.78
422.393	2506.71
422.601	2660.31
422.809	2650.07
423.017	2562.01
423.224	2809.81
423.432	2926.55
423.64	2897.88
423.848	3198.93
424.056	3114.96
424.263	3395.53
424.471	3370.96
424.679	3381.2
424.887	3616.71
425.094	3610.57
425.302	3688.39
425.51	3811.27
425.718	3915.72
425.925	4075.46
426.133	4020.16
426.341	4292.54
426.548	4534.2
426.756	4601.79
426.964	4804.53
427.171	4927.41
427.379	5021.62
427.586	5072.82
427.794	5240.75
428.001	5535.66
428.209	5773.22
428.417	5386.16
428.624	6111.14
428.832	6031.27
429.039	6123.43
429.247	6197.15
429.454	6541.21
429.662	7055.25
429.869	6610.84
430.076	7038.87
430.284	6750.1
430.491	7112.6
430.699	7573.39
430.906	7540.62
431.114	7569.29
431.321	7997.32
431.528	7974.79
431.736	8466.3
431.943	9045.88
432.15	8537.98
432.358	8810.36
432.565	9207.67
432.772	9414.51
432.979	9770.86
433.187	10010.47
433.394	9949.03
433.601	10575.71
433.808	10618.72
434.016	10602.33
434.223	10766.17
434.43	11698
434.637	11296.6
434.844	12279.62
435.052	12369.73
435.259	12437.31
435.466	12343.11
435.673	12312.39
435.88	13020.99
436.087	13575.98
436.294	13948.72
436.501	13307.7
436.708	13657.9
436.915	14057.26
437.122	14636.83
437.329	14622.5
437.537	15171.35
437.743	15433.49
437.95	15517.46
438.157	16133.9
438.364	16561.92
438.571	16647.94
438.778	16748.29
438.985	18378.47
439.192	17547
439.399	18351.85
439.606	17776.37
439.813	18632.42
440.02	20004.56
440.227	19441.37
440.433	19416.79
440.64	19900.11
440.847	19961.55
441.054	20403.91
441.261	21612.21
441.467	21401.27
441.674	21780.15
441.881	22621.86
442.088	22578.86
442.294	22261.42
442.501	22849.19
442.708	23658.13
442.914	23889.56
443.121	25192.06
443.328	24645.26
443.534	26293.87
443.741	25595.51
443.948	25427.58
444.154	27364.96
444.361	27045.48
444.568	26961.51
444.774	27180.64
444.981	27313.76
445.187	28542.54
445.394	29756.99
445.6	29011.53
445.807	32151.06
446.013	30832.17
446.22	31270.43
446.426	32169.49
446.633	32581.13
446.839	33568.26
447.046	32288.28
447.252	34002.43
447.459	34033.14
447.665	33641.98
447.871	35450.34
448.078	36922.83
448.284	35384.8
448.491	36113.88
448.697	37709.25
448.903	38323.64
449.11	38340.02
449.316	37397.96
449.522	38307.26
449.728	39660.96
449.935	39394.73
450.141	39685.54
450.347	40547.73
450.553	39316.9
450.76	40480.15
450.966	41160.08
451.172	40799.63
451.378	41819.52
451.584	40883.6
451.791	41870.72
451.997	41450.89
452.203	42550.65
452.409	42675.57
452.615	42075.52
452.821	40660.37
453.027	40392.09
453.233	42405.24
453.44	40734.1
453.646	41375.11
453.852	41770.37
454.058	42366.33
454.264	40895.89
454.47	41405.83
454.676	40744.34
454.882	41934.21
455.088	38798.77
455.294	39046.57
455.5	39779.74
455.705	40144.28
455.911	38510
456.117	37764.54
456.323	37162.44
456.529	35495.39
456.735	36767.18
456.941	35831.26
457.147	34934.25
457.352	34067.96
457.558	33684.99
457.764	33781.24
457.97	33213.96
458.176	32747.02
458.381	32814.6
458.587	31090.21
458.793	30725.68
458.999	29236.8
459.204	31493.66
459.41	30891.56
459.616	28581.45
459.821	28520.01
460.027	28434
460.233	27823.7
460.438	26594.92
460.644	27194.98
460.85	25579.13
461.055	25054.85
461.261	25327.23
461.466	23031.46
461.672	22634.15
461.878	24151.7
462.083	22640.29
462.289	22079.15
462.494	22017.71
462.7	21132.99
462.905	20321.99
463.111	21077.69
463.316	21219
463.522	20965.06
463.727	20580.04
463.932	20512.45
464.138	20666.05
464.343	20606.66
464.549	19775.19
464.754	20633.29
464.959	20481.74
465.165	20231.88
465.37	19390.17
465.575	18726.63
465.781	19597.01
465.986	19816.15
466.191	19099.36
466.397	18493.16
466.602	17813.23
466.807	18466.53
467.012	18444.01
467.218	18206.44
467.423	18226.92
467.628	18235.11
