Data from USB4F104151__80__12-36-54-853.txt Node

Date: Fri Mar 14 12:36:54 EDT 2025
User: louis
Spectrometer: USB4F10415
Trigger mode: 4
Integration Time (sec): 2.000000E-2
Scans to average: 1
Electric dark correction enabled: true
Nonlinearity correction enabled: false
Boxcar width: 0
XAxis mode: Wavelengths
Number of Pixels in Spectrum: 3648
>>>>>Begin Spectral Data<<<<<
178.204	-44.88
178.424	-44.88
178.644	-44.88
178.864	-96.08
179.084	-42.84
179.304	18.6
179.524	-14.17
179.744	34.99
179.964	-34.64
180.184	-20.31
180.404	34.99
180.624	28.84
180.844	0.17
181.064	-91.99
181.283	26.79
181.503	-3.93
181.723	20.65
181.943	20.65
182.163	49.32
182.383	14.51
182.602	32.94
182.822	12.46
183.042	49.32
183.262	69.8
183.482	4.27
183.701	32.94
183.921	39.08
184.141	-44.88
184.361	-14.17
184.58	10.41
184.8	43.18
185.02	28.84
185.239	45.23
185.459	-53.08
185.679	-10.07
185.898	12.46
186.118	88.23
186.338	-26.45
186.557	26.79
186.777	80.04
186.997	90.28
187.216	59.56
187.436	43.18
187.655	61.61
187.875	28.84
188.095	-18.26
188.314	18.6
188.534	102.57
188.753	-8.02
188.973	82.09
189.192	-3.93
189.412	80.04
189.631	63.66
189.851	4.27
190.07	106.67
190.29	-59.22
190.509	-24.4
190.729	55.47
190.948	-3.93
191.168	77.99
191.387	34.99
191.607	8.36
191.826	20.65
192.045	84.14
192.265	26.79
192.484	65.71
192.704	51.37
192.923	24.75
193.142	96.43
193.362	28.84
193.581	82.09
193.8	53.42
194.02	41.13
194.239	4.27
194.458	10.41
194.678	-8.02
194.897	-36.69
195.116	-8.02
195.335	69.8
195.555	43.18
195.774	37.03
195.993	71.85
196.212	57.51
196.432	69.8
196.651	-28.5
196.87	32.94
197.089	61.61
197.308	57.51
197.528	112.81
197.747	41.13
197.966	77.99
198.185	59.56
198.404	22.7
198.623	-40.79
198.842	43.18
199.062	2.22
199.281	37.03
199.5	4.27
199.719	45.23
199.938	6.31
200.157	41.13
200.376	6.31
200.595	69.8
200.814	55.47
201.033	-34.64
201.252	55.47
201.471	57.51
201.69	-5.97
201.909	32.94
202.128	34.99
202.347	69.8
202.566	82.09
202.785	-16.21
203.004	-57.17
203.223	67.75
203.442	24.75
203.661	-5.97
203.879	57.51
204.098	24.75
204.317	6.31
204.536	96.43
204.755	80.04
204.974	37.03
205.193	43.18
205.411	49.32
205.63	73.9
205.849	129.19
206.068	98.47
206.287	65.71
206.505	-16.21
206.724	71.85
206.943	55.47
207.162	28.84
207.381	-5.97
207.599	-8.02
207.818	30.89
208.037	30.89
208.255	18.6
208.474	12.46
208.693	39.08
208.911	55.47
209.13	104.62
209.349	26.79
209.567	75.95
209.786	47.27
210.005	-18.26
210.223	10.41
210.442	-34.64
210.661	53.42
210.879	0.17
211.098	49.32
211.316	80.04
211.535	51.37
211.753	63.66
211.972	69.8
212.191	2.22
212.409	14.51
212.628	-22.36
212.846	55.47
213.065	28.84
213.283	34.99
213.502	-71.51
213.72	102.57
213.938	75.95
214.157	39.08
214.375	77.99
214.594	10.41
214.812	49.32
215.031	32.94
215.249	-12.12
215.467	0.17
215.686	69.8
215.904	123.05
216.122	108.71
216.341	61.61
216.559	-40.79
216.778	73.9
216.996	47.27
217.214	65.71
217.432	-8.02
217.651	55.47
217.869	26.79
218.087	90.28
218.306	34.99
218.524	61.61
218.742	45.23
218.96	12.46
219.179	6.31
219.397	-24.4
219.615	80.04
219.833	-32.6
220.051	47.27
220.27	26.79
220.488	24.75
220.706	59.56
220.924	28.84
221.142	51.37
221.36	80.04
221.578	129.19
221.796	20.65
222.015	16.55
222.233	26.79
222.451	32.94
222.669	-8.02
222.887	102.57
223.105	39.08
223.323	32.94
223.541	49.32
223.759	30.89
223.977	71.85
224.195	34.99
224.413	82.09
224.631	20.65
224.849	69.8
225.067	71.85
225.285	12.46
225.503	20.65
225.721	-1.88
225.939	26.79
226.157	-3.93
226.375	90.28
226.592	45.23
226.81	82.09
227.028	26.79
227.246	57.51
227.464	-8.02
227.682	121
227.9	110.76
228.117	88.23
228.335	28.84
228.553	57.51
228.771	92.33
228.989	65.71
229.206	121
229.424	67.75
229.642	0.17
229.86	47.27
230.077	61.61
230.295	10.41
230.513	49.32
230.731	67.75
230.948	41.13
231.166	96.43
231.384	12.46
231.601	8.36
231.819	14.51
232.037	12.46
232.254	102.57
232.472	12.46
232.689	-1.88
232.907	14.51
233.125	32.94
233.342	71.85
233.56	8.36
233.777	61.61
233.995	14.51
234.213	65.71
234.43	102.57
234.648	98.47
234.865	73.9
235.083	106.67
235.3	37.03
235.518	75.95
235.735	37.03
235.953	39.08
236.17	41.13
236.388	6.31
236.605	94.38
236.822	71.85
237.04	55.47
237.257	65.71
237.475	-16.21
237.692	47.27
237.909	94.38
238.127	131.24
238.344	45.23
238.562	37.03
238.779	41.13
238.996	4.27
239.214	41.13
239.431	96.43
239.648	100.52
239.865	34.99
240.083	10.41
240.3	22.7
240.517	86.19
240.735	65.71
240.952	4.27
241.169	90.28
241.386	34.99
241.603	55.47
241.821	-5.97
242.038	73.9
242.255	127.14
242.472	20.65
242.689	39.08
242.907	32.94
243.124	-10.07
243.341	-46.93
243.558	73.9
243.775	22.7
243.992	-10.07
244.209	37.03
244.426	131.24
244.643	102.57
244.86	77.99
245.078	41.13
245.295	47.27
245.512	106.67
245.729	55.47
245.946	-44.88
246.163	57.51
246.38	59.56
246.597	61.61
246.814	47.27
247.031	18.6
247.248	-36.69
247.464	-34.64
247.681	34.99
247.898	59.56
248.115	4.27
248.332	-14.17
248.549	139.43
248.766	59.56
248.983	94.38
249.2	84.14
249.417	108.71
249.633	12.46
249.85	-32.6
250.067	-28.5
250.284	22.7
250.501	112.81
250.717	71.85
250.934	-26.45
251.151	6.31
251.368	73.9
251.585	69.8
251.801	-1.88
252.018	30.89
252.235	49.32
252.451	32.94
252.668	51.37
252.885	131.24
253.102	-18.26
253.318	39.08
253.535	-3.93
253.752	43.18
253.968	10.41
254.185	73.9
254.401	75.95
254.618	51.37
254.835	20.65
255.051	55.47
255.268	16.55
255.484	51.37
255.701	-22.36
255.917	16.55
256.134	16.55
256.351	47.27
256.567	37.03
256.784	96.43
257	24.75
257.217	18.6
257.433	47.27
257.65	20.65
257.866	80.04
258.082	-48.98
258.299	43.18
258.515	63.66
258.732	69.8
258.948	14.51
259.165	84.14
259.381	84.14
259.597	69.8
259.814	110.76
260.03	41.13
260.246	32.94
260.463	53.42
260.679	92.33
260.895	12.46
261.112	6.31
261.328	43.18
261.544	98.47
261.761	114.86
261.977	71.85
262.193	34.99
262.409	92.33
262.626	61.61
262.842	32.94
263.058	-3.93
263.274	63.66
263.49	28.84
263.707	45.23
263.923	39.08
264.139	34.99
264.355	88.23
264.571	-3.93
264.787	49.32
265.004	94.38
265.22	28.84
265.436	47.27
265.652	41.13
265.868	51.37
266.084	43.18
266.3	86.19
266.516	-26.45
266.732	59.56
266.948	-18.26
267.164	37.03
267.38	47.27
267.596	57.51
267.812	63.66
268.028	47.27
268.244	82.09
268.46	59.56
268.676	16.55
268.892	114.86
269.108	32.94
269.324	18.6
269.54	-61.27
269.756	30.89
269.972	2.22
270.188	71.85
270.403	2.22
270.619	34.99
270.835	22.7
271.051	43.18
271.267	96.43
271.483	26.79
271.698	90.28
271.914	2.22
272.13	34.99
272.346	65.71
272.562	67.75
272.777	80.04
272.993	39.08
273.209	28.84
273.425	20.65
273.64	59.56
273.856	-8.02
274.072	20.65
274.287	20.65
274.503	67.75
274.719	10.41
274.934	77.99
275.15	22.7
275.366	-3.93
275.581	39.08
275.797	28.84
276.012	102.57
276.228	4.27
276.444	-14.17
276.659	135.34
276.875	-12.12
277.09	86.19
277.306	43.18
277.521	94.38
277.737	28.84
277.952	147.62
278.168	8.36
278.383	-18.26
278.599	82.09
278.814	61.61
279.03	75.95
279.245	65.71
279.461	61.61
279.676	65.71
279.892	88.23
280.107	49.32
280.322	-8.02
280.538	88.23
280.753	43.18
280.969	168.1
281.184	41.13
281.399	147.62
281.615	-12.12
281.83	86.19
282.045	90.28
282.26	26.79
282.476	71.85
282.691	47.27
282.906	84.14
283.122	30.89
283.337	10.41
283.552	125.1
283.767	71.85
283.983	65.71
284.198	12.46
284.413	22.7
284.628	90.28
284.843	28.84
285.058	47.27
285.274	18.6
285.489	6.31
285.704	55.47
285.919	-30.55
286.134	67.75
286.349	-28.5
286.564	26.79
286.779	51.37
286.995	45.23
287.21	24.75
287.425	30.89
287.64	65.71
287.855	18.6
288.07	61.61
288.285	47.27
288.5	-5.97
288.715	96.43
288.93	67.75
289.145	45.23
289.36	10.41
289.575	51.37
289.79	26.79
290.004	2.22
290.219	47.27
290.434	34.99
290.649	53.42
290.864	-10.07
291.079	80.04
291.294	-18.26
291.509	14.51
291.724	65.71
291.938	61.61
292.153	-1.88
292.368	34.99
292.583	96.43
292.798	94.38
293.012	28.84
293.227	16.55
293.442	-14.17
293.657	104.62
293.871	51.37
294.086	65.71
294.301	32.94
294.516	98.47
294.73	63.66
294.945	57.51
295.16	73.9
295.374	92.33
295.589	71.85
295.804	10.41
296.018	86.19
296.233	118.95
296.447	108.71
296.662	-28.5
296.877	94.38
297.091	69.8
297.306	39.08
297.52	41.13
297.735	18.6
297.949	2.22
298.164	127.14
298.378	106.67
298.593	20.65
298.807	112.81
299.022	6.31
299.236	123.05
299.451	45.23
299.665	16.55
299.88	39.08
300.094	116.9
300.309	14.51
300.523	67.75
300.737	-1.88
300.952	63.66
301.166	34.99
301.381	34.99
301.595	-22.36
301.809	90.28
302.024	57.51
302.238	59.56
302.452	57.51
302.667	30.89
302.881	61.61
303.095	39.08
303.309	2.22
303.524	69.8
303.738	88.23
303.952	-8.02
304.166	75.95
304.381	0.17
304.595	151.72
304.809	88.23
305.023	39.08
305.237	2.22
305.452	69.8
305.666	77.99
305.88	53.42
306.094	96.43
306.308	37.03
306.522	0.17
306.736	20.65
306.95	51.37
307.164	71.85
307.379	30.89
307.593	90.28
307.807	67.75
308.021	100.52
308.235	86.19
308.449	108.71
308.663	30.89
308.877	145.58
309.091	47.27
309.305	65.71
309.519	55.47
309.733	75.95
309.947	110.76
310.161	49.32
310.374	47.27
310.588	73.9
310.802	34.99
311.016	8.36
311.23	45.23
311.444	34.99
311.658	-1.88
311.872	80.04
312.085	10.41
312.299	75.95
312.513	104.62
312.727	73.9
312.941	69.8
313.154	32.94
313.368	65.71
313.582	94.38
313.796	71.85
314.009	84.14
314.223	118.95
314.437	55.47
314.651	32.94
314.864	59.56
315.078	116.9
315.292	4.27
315.505	30.89
315.719	39.08
315.933	-14.17
316.146	39.08
316.36	6.31
316.573	41.13
316.787	63.66
317.001	71.85
317.214	28.84
317.428	53.42
317.641	84.14
317.855	82.09
318.068	96.43
318.282	-20.31
318.495	121
318.709	-14.17
318.922	10.41
319.136	69.8
319.349	8.36
319.563	49.32
319.776	104.62
319.99	0.17
320.203	116.9
320.417	71.85
320.63	65.71
320.843	67.75
321.057	12.46
321.27	125.1
321.483	10.41
321.697	47.27
321.91	16.55
322.124	106.67
322.337	65.71
322.55	-10.07
322.763	0.17
322.977	100.52
323.19	47.27
323.403	90.28
323.617	-16.21
323.83	61.61
324.043	108.71
324.256	59.56
324.469	37.03
324.683	102.57
324.896	90.28
325.109	63.66
325.322	98.47
325.535	73.9
325.748	63.66
325.962	30.89
326.175	59.56
326.388	47.27
326.601	26.79
326.814	98.47
327.027	100.52
327.24	143.53
327.453	20.65
327.666	6.31
327.879	94.38
328.092	96.43
328.305	84.14
328.518	55.47
328.731	84.14
328.944	24.75
329.157	65.71
329.37	69.8
329.583	75.95
329.796	116.9
330.009	71.85
330.222	-10.07
330.435	28.84
330.648	47.27
330.861	28.84
331.073	116.9
331.286	96.43
331.499	90.28
331.712	55.47
331.925	39.08
332.138	57.51
332.35	80.04
332.563	28.84
332.776	94.38
332.989	32.94
333.202	104.62
333.414	65.71
333.627	41.13
333.84	0.17
334.053	71.85
334.265	55.47
334.478	102.57
334.691	67.75
334.903	92.33
335.116	12.46
335.329	49.32
335.541	121
335.754	92.33
335.966	30.89
336.179	20.65
336.392	16.55
336.604	55.47
336.817	123.05
337.029	65.71
337.242	96.43
337.454	67.75
337.667	98.47
337.88	55.47
338.092	32.94
338.305	123.05
338.517	45.23
338.729	100.52
338.942	104.62
339.154	22.7
339.367	-12.12
339.579	112.81
339.792	-24.4
340.004	22.7
340.217	37.03
340.429	59.56
340.641	55.47
340.854	43.18
341.066	82.09
341.278	10.41
341.491	73.9
341.703	53.42
341.915	12.46
342.128	18.6
342.34	59.56
342.552	6.31
342.764	73.9
342.977	137.38
343.189	65.71
343.401	12.46
343.613	22.7
343.826	80.04
344.038	73.9
344.25	39.08
344.462	-1.88
344.674	86.19
344.886	86.19
345.099	57.51
345.311	24.75
345.523	65.71
345.735	98.47
345.947	102.57
346.159	12.46
346.371	108.71
346.583	14.51
346.795	110.76
347.007	10.41
347.219	34.99
347.431	-20.31
347.643	28.84
347.855	26.79
348.067	63.66
348.279	4.27
348.491	90.28
348.703	80.04
348.915	67.75
349.127	16.55
349.339	57.51
349.551	-5.97
349.763	45.23
349.975	39.08
350.187	80.04
350.399	90.28
350.61	94.38
350.822	34.99
351.034	116.9
351.246	92.33
351.458	39.08
351.669	16.55
351.881	110.76
352.093	18.6
352.305	159.91
352.517	67.75
352.728	96.43
352.94	114.86
353.152	182.44
353.363	47.27
353.575	106.67
353.787	63.66
353.999	32.94
354.21	104.62
354.422	45.23
354.633	41.13
354.845	118.95
355.057	28.84
355.268	41.13
355.48	-46.93
355.692	110.76
355.903	-8.02
356.115	123.05
356.326	63.66
356.538	129.19
356.749	53.42
356.961	26.79
357.172	90.28
357.384	73.9
357.595	127.14
357.807	94.38
358.018	16.55
358.23	39.08
358.441	98.47
358.653	28.84
358.864	39.08
359.075	30.89
359.287	110.76
359.498	123.05
359.709	39.08
359.921	94.38
360.132	49.32
360.344	90.28
360.555	92.33
360.766	34.99
360.977	59.56
361.189	88.23
361.4	-16.21
361.611	55.47
361.823	57.51
362.034	92.33
362.245	67.75
362.456	16.55
362.667	84.14
362.879	114.86
363.09	90.28
363.301	26.79
363.512	100.52
363.723	39.08
363.935	55.47
364.146	71.85
364.357	43.18
364.568	71.85
364.779	32.94
364.99	123.05
365.201	-20.31
365.412	30.89
365.623	65.71
365.834	129.19
366.045	141.48
366.256	88.23
366.467	59.56
366.678	133.29
366.889	77.99
367.1	73.9
367.311	110.76
367.522	30.89
367.733	94.38
367.944	112.81
368.155	39.08
368.366	34.99
368.577	73.9
368.788	30.89
368.999	30.89
369.209	106.67
369.42	67.75
369.631	75.95
369.842	73.9
370.053	80.04
370.264	39.08
370.474	16.55
370.685	45.23
370.896	6.31
371.107	108.71
371.317	106.67
371.528	53.42
371.739	47.27
371.95	100.52
372.16	67.75
372.371	-16.21
372.582	41.13
372.792	108.71
373.003	73.9
373.214	39.08
373.424	0.17
373.635	41.13
373.846	65.71
374.056	118.95
374.267	51.37
374.477	114.86
374.688	-28.5
374.898	43.18
375.109	94.38
375.319	37.03
375.53	108.71
375.74	51.37
375.951	82.09
376.161	139.43
376.372	77.99
376.582	73.9
376.793	135.34
377.003	80.04
377.214	96.43
377.424	100.52
377.635	65.71
377.845	77.99
378.055	59.56
378.266	-22.36
378.476	39.08
378.686	45.23
378.897	121
379.107	110.76
379.317	53.42
379.528	116.9
379.738	100.52
379.948	20.65
380.158	75.95
380.369	84.14
380.579	45.23
380.789	57.51
380.999	174.25
381.21	63.66
381.42	110.76
381.63	-38.74
381.84	100.52
382.05	-5.97
382.261	141.48
382.471	86.19
382.681	77.99
382.891	92.33
383.101	51.37
383.311	-3.93
383.521	77.99
383.731	90.28
383.941	135.34
384.151	59.56
384.361	16.55
384.571	14.51
384.781	59.56
384.991	121
385.201	137.38
385.411	77.99
385.621	77.99
385.831	61.61
386.041	98.47
386.251	57.51
386.461	98.47
386.671	73.9
386.881	90.28
387.091	-40.79
387.301	133.29
387.511	49.32
387.72	129.19
387.93	57.51
388.14	43.18
388.35	100.52
388.56	98.47
388.769	153.77
388.979	53.42
389.189	88.23
389.399	14.51
389.609	92.33
389.818	118.95
390.028	135.34
390.238	114.86
390.447	-8.02
390.657	63.66
390.867	41.13
391.076	45.23
391.286	114.86
391.496	61.61
391.705	110.76
391.915	80.04
392.125	110.76
392.334	131.24
392.544	139.43
392.753	80.04
392.963	55.47
393.172	65.71
393.382	106.67
393.591	112.81
393.801	75.95
394.01	110.76
394.22	180.39
394.429	88.23
394.639	104.62
394.848	98.47
395.058	125.1
395.267	22.7
395.477	168.1
395.686	94.38
395.895	57.51
396.105	196.78
396.314	149.67
396.524	155.82
396.733	141.48
396.942	102.57
397.152	194.73
397.361	184.49
397.57	112.81
397.78	100.52
397.989	217.26
398.198	159.91
398.407	110.76
398.617	102.57
398.826	131.24
399.035	159.91
399.244	110.76
399.453	129.19
399.663	223.4
399.872	170.15
400.081	155.82
400.29	204.97
400.499	155.82
400.708	161.96
400.917	161.96
401.127	178.34
401.336	190.63
401.545	184.49
401.754	145.58
401.963	231.59
402.172	73.9
402.381	151.72
402.59	141.48
402.799	88.23
403.008	192.68
403.217	198.82
403.426	184.49
403.635	164.01
403.844	227.5
404.053	207.02
404.262	194.73
404.471	170.15
404.68	188.58
404.888	170.15
405.097	223.4
405.306	192.68
405.515	266.41
405.724	184.49
405.933	254.12
406.142	272.55
406.35	293.03
406.559	190.63
406.768	266.41
406.977	217.26
407.185	293.03
407.394	342.18
407.603	297.13
407.812	258.21
408.02	311.46
408.229	350.37
408.438	299.17
408.646	293.03
408.855	311.46
409.064	344.23
409.272	362.66
409.481	360.61
409.69	295.08
409.898	420
410.107	450.72
410.315	325.8
410.524	374.95
410.733	420
410.941	420
411.15	442.53
411.358	491.68
411.567	600.23
411.775	516.26
411.984	602.27
412.192	583.84
412.401	522.4
412.609	596.13
412.818	639.14
413.026	577.7
413.234	616.61
413.443	637.09
413.651	620.71
413.86	659.62
414.068	794.78
414.276	817.31
414.485	827.55
414.693	841.89
414.901	835.74
415.11	825.5
415.318	882.85
415.526	897.18
415.734	991.39
415.943	989.34
416.151	983.2
416.359	1038.49
416.567	1036.44
416.776	1118.36
416.984	1222.81
417.192	1167.51
417.4	1194.14
417.608	1296.53
417.817	1368.21
418.025	1487
418.233	1476.76
418.441	1433.75
418.649	1538.2
418.857	1618.07
419.065	1562.77
419.273	1640.59
419.481	1671.31
419.689	1882.25
419.897	1984.65
420.105	1863.82
420.313	1880.21
420.521	2013.32
420.729	2082.95
420.937	2089.1
421.145	2195.59
421.353	2304.14
421.561	2359.43
421.769	2472.07
421.977	2586.76
422.185	2470.02
422.393	2705.54
422.601	2873.47
422.809	2816.13
423.017	2809.98
423.224	3080.32
423.432	3135.61
423.64	3055.74
423.848	3446.9
424.056	3371.13
424.263	3491.96
424.471	3580.02
424.679	3698.8
424.887	3801.2
425.094	4014.19
425.302	4073.58
425.51	4190.31
425.718	4264.04
425.925	4208.75
426.133	4450.41
426.341	4626.53
426.548	4833.38
426.756	4870.24
426.964	5095.52
427.171	5349.47
427.379	5402.71
427.586	5574.74
427.794	5724.24
428.001	5826.64
428.209	6176.84
428.417	6101.07
428.624	6625.35
428.832	6568.01
429.039	6488.14
429.247	6496.33
429.454	7143.49
429.662	7532.6
429.869	7110.72
430.076	7718.96
430.284	7573.56
430.491	7774.26
430.699	8288.3
430.906	8337.45
431.114	8331.31
431.321	8634.41
431.528	8828.96
431.736	9300
431.943	9838.61
432.15	9572.38
432.358	9498.65
432.565	10094.61
432.772	10123.28
432.979	10620.94
433.187	10627.08
433.394	10899.46
433.601	11626.49
433.808	11804.66
434.016	11409.4
434.223	12124.15
434.43	12597.23
434.637	12578.79
434.844	13039.59
435.052	13520.86
435.259	13447.13
435.466	13643.74
435.673	13340.64
435.88	14342.1
436.087	14952.39
436.294	15185.86
436.501	14882.76
436.708	15071.17
436.915	15706.04
437.122	16261.04
437.329	16242.61
437.537	16908.2
437.743	16832.43
437.95	16838.57
438.157	17735.58
438.364	18491.28
438.571	18155.41
438.778	18397.07
438.985	19988.35
439.192	19535.74
439.399	19994.49
439.606	19611.52
439.813	20539.25
440.02	22003.55
440.227	21380.96
440.433	21288.81
440.64	22034.27
440.847	21864.29
441.054	22294.36
441.261	23844.67
441.467	23682.88
441.674	24280.89
441.881	24670
442.088	24809.26
442.294	24528.69
442.501	25202.47
442.708	26027.81
442.914	26867.47
443.121	27877.12
443.328	27246.35
443.534	29327.08
443.741	28425.98
443.948	27950.85
444.154	30283.48
444.361	29763.3
444.568	30258.91
444.774	30140.13
444.981	30768.85
445.187	31700.68
445.394	32685.75
445.6	32274.11
445.807	35425.93
446.013	33896.1
446.22	34389.66
446.426	35956.36
446.633	36069
446.839	37604.97
447.046	35540.62
447.252	37949.03
447.459	37705.32
447.665	37813.87
447.871	39310.93
448.078	41256.5
448.284	39157.33
448.491	39997
448.697	42112.55
448.903	42915.36
449.11	42659.36
449.316	41680.43
449.522	42530.34
449.728	43712.02
449.935	43974.16
450.141	44209.67
450.347	44992
450.553	43976.2
450.76	44045.83
450.966	45721.07
451.172	45168.12
451.378	46593.51
451.584	45176.31
451.791	46495.21
451.997	46190.06
452.203	46872.03
452.409	47093.21
452.615	46859.74
452.821	45254.14
453.027	45096.44
453.233	47166.94
453.44	45438.45
453.646	46112.24
453.852	45784.56
454.058	46802.4
454.264	45291
454.47	46296.55
454.676	45327.86
454.882	46798.3
455.088	43015.71
455.294	43720.21
455.5	44389.89
455.705	44568.07
455.911	42667.55
456.117	42049.07
456.323	41428.53
456.529	39519.82
456.735	41121.34
456.941	39890.51
457.147	39411.28
457.352	37951.08
457.558	37473.9
457.764	37912.17
457.97	37127.8
458.176	36652.67
458.381	35956.36
458.587	34571.93
458.793	34858.65
458.999	32820.92
459.204	34680.47
459.41	34414.24
459.616	31583.94
459.821	31741.64
460.027	31397.58
460.233	31315.66
460.438	29357.8
460.644	30176.99
460.85	28610.29
461.055	28169.98
461.261	27930.37
461.466	26081.05
461.672	25360.17
461.878	26867.47
462.083	25376.55
462.289	24573.75
462.494	24504.12
462.7	23607.11
462.905	22822.73
463.111	23691.07
463.316	23643.97
463.522	23209.8
463.727	23461.7
463.932	23250.76
464.138	23037.77
464.343	23035.72
464.549	22493.01
464.754	23054.15
464.959	22921.04
465.165	22816.59
465.37	21464.93
465.575	21202.79
465.781	22124.38
465.986	22269.78
466.191	21753.69
466.397	20928.36
466.602	19951.48
466.807	20942.7
467.012	20823.92
