Data from USB4F104151__44__12-35-56-159.txt Node

Date: Fri Mar 14 12:35:56 EDT 2025
User: louis
Spectrometer: USB4F10415
Trigger mode: 4
Integration Time (sec): 2.000000E-2
Scans to average: 1
Electric dark correction enabled: true
Nonlinearity correction enabled: false
Boxcar width: 0
XAxis mode: Wavelengths
Number of Pixels in Spectrum: 3648
>>>>>Begin Spectral Data<<<<<
178.204	-90.45
178.424	-90.45
178.644	-90.45
178.864	-51.54
179.084	-86.36
179.304	22.19
179.524	28.33
179.744	-47.44
179.964	59.05
180.184	26.28
180.404	-8.53
180.624	52.91
180.844	18.09
181.064	-47.44
181.283	1.71
181.503	-57.68
181.723	-47.44
181.943	-10.58
182.163	32.43
182.383	11.95
182.602	-2.39
182.822	18.09
183.042	34.47
183.262	42.67
183.482	-18.77
183.701	13.99
183.921	-14.68
184.141	9.9
184.361	57
184.58	16.04
184.8	52.91
185.02	-45.4
185.239	54.95
185.459	9.9
185.679	22.19
185.898	-6.49
186.118	30.38
186.338	-55.64
186.557	-8.53
186.777	-49.49
186.997	-41.3
187.216	-22.87
187.436	46.76
187.655	-82.26
187.875	-20.82
188.095	18.09
188.314	1.71
188.534	-22.87
188.753	-14.68
188.973	102.06
189.192	13.99
189.412	26.28
189.631	13.99
189.851	-6.49
190.07	5.8
190.29	-88.4
190.509	-12.63
190.729	-18.77
190.948	59.05
191.168	110.25
191.387	54.95
191.607	52.91
191.826	46.76
192.045	22.19
192.265	-74.07
192.484	-6.49
192.704	9.9
192.923	-33.11
193.142	63.15
193.362	-51.54
193.581	42.67
193.8	22.19
194.02	-4.44
194.239	-8.53
194.458	-24.92
194.678	-22.87
194.897	-6.49
195.116	46.76
195.335	-29.01
195.555	-24.92
195.774	59.05
195.993	-14.68
196.212	22.19
196.432	-16.73
196.651	63.15
196.87	22.19
197.089	89.77
197.308	16.04
197.528	38.57
197.747	-31.06
197.966	30.38
198.185	-49.49
198.404	3.75
198.623	59.05
198.842	40.62
199.062	52.91
199.281	79.53
199.5	11.95
199.719	30.38
199.938	40.62
200.157	57
200.376	77.48
200.595	-33.11
200.814	91.82
201.033	52.91
201.252	67.24
201.471	22.19
201.69	9.9
201.909	-31.06
202.128	69.29
202.347	32.43
202.566	89.77
202.785	38.57
203.004	-18.77
203.223	40.62
203.442	77.48
203.661	85.67
203.879	54.95
204.098	-14.68
204.317	-31.06
204.536	46.76
204.755	-12.63
204.974	26.28
205.193	-4.44
205.411	-14.68
205.63	50.86
205.849	-0.34
206.068	-0.34
206.287	30.38
206.505	-12.63
206.724	52.91
206.943	26.28
207.162	9.9
207.381	-12.63
207.599	-10.58
207.818	30.38
208.037	67.24
208.255	57
208.474	28.33
208.693	-2.39
208.911	-0.34
209.13	26.28
209.349	30.38
209.567	-22.87
209.786	1.71
210.005	-2.39
210.223	-31.06
210.442	-12.63
210.661	3.75
210.879	3.75
211.098	-4.44
211.316	46.76
211.535	-8.53
211.753	-29.01
211.972	93.87
212.191	65.19
212.409	-41.3
212.628	-29.01
212.846	61.1
213.065	18.09
213.283	100.01
213.502	67.24
213.72	-31.06
213.938	36.52
214.157	-10.58
214.375	36.52
214.594	-2.39
214.812	1.71
215.031	-8.53
215.249	69.29
215.467	22.19
215.686	34.47
215.904	38.57
216.122	5.8
216.341	52.91
216.559	-12.63
216.778	-2.39
216.996	30.38
217.214	1.71
217.432	46.76
217.651	-61.78
217.869	42.67
218.087	20.14
218.306	28.33
218.524	11.95
218.742	-45.4
218.96	-18.77
219.179	38.57
219.397	46.76
219.615	20.14
219.833	59.05
220.051	-0.34
220.27	32.43
220.488	79.53
220.706	30.38
220.924	36.52
221.142	18.09
221.36	-41.3
221.578	3.75
221.796	22.19
222.015	-31.06
222.233	28.33
222.451	26.28
222.669	-18.77
222.887	69.29
223.105	-49.49
223.323	46.76
223.541	-59.73
223.759	22.19
223.977	69.29
224.195	112.3
224.413	34.47
224.631	36.52
224.849	1.71
225.067	16.04
225.285	20.14
225.503	20.14
225.721	-47.44
225.939	-6.49
226.157	61.1
226.375	59.05
226.592	-51.54
226.81	54.95
227.028	-22.87
227.246	81.58
227.464	36.52
227.682	46.76
227.9	-47.44
228.117	36.52
228.335	-69.97
228.553	32.43
228.771	-55.64
228.989	-6.49
229.206	-2.39
229.424	-18.77
229.642	32.43
229.86	13.99
230.077	13.99
230.295	22.19
230.513	13.99
230.731	11.95
230.948	-33.11
231.166	59.05
231.384	1.71
231.601	65.19
231.819	34.47
232.037	-55.64
232.254	-14.68
232.472	5.8
232.689	46.76
232.907	-22.87
233.125	-24.92
233.342	13.99
233.56	-33.11
233.777	-20.82
233.995	26.28
234.213	32.43
234.43	-2.39
234.648	77.48
234.865	7.85
235.083	59.05
235.3	-53.59
235.518	5.8
235.735	-0.34
235.953	32.43
236.17	-29.01
236.388	52.91
236.605	22.19
236.822	22.19
237.04	-51.54
237.257	16.04
237.475	48.81
237.692	77.48
237.909	-86.36
238.127	34.47
238.344	-35.16
238.562	85.67
238.779	-51.54
238.996	3.75
239.214	65.19
239.431	-18.77
239.648	5.8
239.865	36.52
240.083	44.71
240.3	32.43
240.517	-80.21
240.735	40.62
240.952	83.63
241.169	-24.92
241.386	3.75
241.603	-14.68
241.821	26.28
242.038	3.75
242.255	71.34
242.472	-2.39
242.689	-0.34
242.907	52.91
243.124	-10.58
243.341	18.09
243.558	-6.49
243.775	46.76
243.992	-61.78
244.209	57
244.426	93.87
244.643	46.76
244.86	-0.34
245.078	50.86
245.295	59.05
245.512	36.52
245.729	13.99
245.946	30.38
246.163	-26.96
246.38	24.23
246.597	-12.63
246.814	36.52
247.031	-16.73
247.248	18.09
247.464	-53.59
247.681	1.71
247.898	52.91
248.115	-24.92
248.332	-0.34
248.549	18.09
248.766	5.8
248.983	5.8
249.2	7.85
249.417	24.23
249.633	13.99
249.85	-10.58
250.067	-18.77
250.284	71.34
250.501	-35.16
250.717	16.04
250.934	3.75
251.151	50.86
251.368	30.38
251.585	34.47
251.801	-33.11
252.018	61.1
252.235	63.15
252.451	-20.82
252.668	-14.68
252.885	5.8
253.102	9.9
253.318	-24.92
253.535	-22.87
253.752	-59.73
253.968	67.24
254.185	1.71
254.401	-0.34
254.618	34.47
254.835	-63.83
255.051	61.1
255.268	42.67
255.484	16.04
255.701	-53.59
255.917	93.87
256.134	7.85
256.351	128.68
256.567	-53.59
256.784	13.99
257	-39.25
257.217	26.28
257.433	32.43
257.65	95.91
257.866	40.62
258.082	-26.96
258.299	26.28
258.515	52.91
258.732	-53.59
258.948	-29.01
259.165	18.09
259.381	24.23
259.597	16.04
259.814	95.91
260.03	22.19
260.246	1.71
260.463	36.52
260.679	69.29
260.895	95.91
261.112	34.47
261.328	-16.73
261.544	44.71
261.761	-2.39
261.977	-10.58
262.193	-16.73
262.409	9.9
262.626	26.28
262.842	85.67
263.058	54.95
263.274	46.76
263.49	-53.59
263.707	46.76
263.923	9.9
264.139	3.75
264.355	16.04
264.571	28.33
264.787	69.29
265.004	26.28
265.22	54.95
265.436	-10.58
265.652	-24.92
265.868	36.52
266.084	50.86
266.3	-63.83
266.516	-41.3
266.732	67.24
266.948	87.72
267.164	50.86
267.38	-8.53
267.596	-20.82
267.812	5.8
268.028	61.1
268.244	34.47
268.46	67.24
268.676	-22.87
268.892	-12.63
269.108	67.24
269.324	5.8
269.54	28.33
269.756	13.99
269.972	34.47
270.188	34.47
270.403	44.71
270.619	28.33
270.835	38.57
271.051	-22.87
271.267	32.43
271.483	7.85
271.698	-47.44
271.914	38.57
272.13	-43.35
272.346	40.62
272.562	-49.49
272.777	50.86
272.993	-12.63
273.209	40.62
273.425	-8.53
273.64	3.75
273.856	93.87
274.072	-37.2
274.287	-45.4
274.503	40.62
274.719	50.86
274.934	69.29
275.15	-57.68
275.366	38.57
275.581	40.62
275.797	30.38
276.012	-18.77
276.228	3.75
276.444	28.33
276.659	59.05
276.875	13.99
277.09	-92.5
277.306	-4.44
277.521	44.71
277.737	1.71
277.952	-39.25
278.168	24.23
278.383	22.19
278.599	-45.4
278.814	108.2
279.03	-29.01
279.245	42.67
279.461	11.95
279.676	100.01
279.892	3.75
280.107	-26.96
280.322	-22.87
280.538	52.91
280.753	36.52
280.969	42.67
281.184	16.04
281.399	-26.96
281.615	24.23
281.83	32.43
282.045	-4.44
282.26	-12.63
282.476	20.14
282.691	20.14
282.906	13.99
283.122	9.9
283.337	-88.4
283.552	24.23
283.767	13.99
283.983	7.85
284.198	-4.44
284.413	112.3
284.628	-47.44
284.843	30.38
285.058	-6.49
285.274	-10.58
285.489	-47.44
285.704	26.28
285.919	50.86
286.134	20.14
286.349	-16.73
286.564	20.14
286.779	-41.3
286.995	13.99
287.21	5.8
287.425	69.29
287.64	-26.96
287.855	54.95
288.07	40.62
288.285	57
288.5	-55.64
288.715	50.86
288.93	7.85
289.145	18.09
289.36	46.76
289.575	95.91
289.79	36.52
290.004	3.75
290.219	18.09
290.434	5.8
290.649	83.63
290.864	-35.16
291.079	18.09
291.294	-33.11
291.509	75.43
291.724	65.19
291.938	-24.92
292.153	83.63
292.368	13.99
292.583	-24.92
292.798	-47.44
293.012	-8.53
293.227	42.67
293.442	30.38
293.657	57
293.871	97.96
294.086	24.23
294.301	95.91
294.516	24.23
294.73	30.38
294.945	3.75
295.16	73.39
295.374	48.81
295.589	71.34
295.804	1.71
296.018	-12.63
296.233	9.9
296.447	3.75
296.662	-49.49
296.877	-24.92
297.091	85.67
297.306	-37.2
297.52	-2.39
297.735	87.72
297.949	40.62
298.164	11.95
298.378	-2.39
298.593	1.71
298.807	42.67
299.022	89.77
299.236	11.95
299.451	91.82
299.665	-16.73
299.88	7.85
300.094	61.1
300.309	48.81
300.523	9.9
300.737	110.25
300.952	52.91
301.166	83.63
301.381	54.95
301.595	34.47
301.809	26.28
302.024	44.71
302.238	44.71
302.452	28.33
302.667	-2.39
302.881	32.43
303.095	22.19
303.309	24.23
303.524	1.71
303.738	48.81
303.952	85.67
304.166	30.38
304.381	1.71
304.595	71.34
304.809	57
305.023	46.76
305.237	26.28
305.452	24.23
305.666	11.95
305.88	-4.44
306.094	50.86
306.308	61.1
306.522	87.72
306.736	18.09
306.95	13.99
307.164	11.95
307.379	1.71
307.593	18.09
307.807	63.15
308.021	-12.63
308.235	-49.49
308.449	108.2
308.663	42.67
308.877	-26.96
309.091	63.15
309.305	87.72
309.519	34.47
309.733	42.67
309.947	106.15
310.161	18.09
310.374	30.38
310.588	13.99
310.802	20.14
311.016	48.81
311.23	24.23
311.444	20.14
311.658	3.75
311.872	108.2
312.085	32.43
312.299	87.72
312.513	57
312.727	1.71
312.941	9.9
313.154	85.67
313.368	28.33
313.582	63.15
313.796	40.62
314.009	28.33
314.223	67.24
314.437	-2.39
314.651	93.87
314.864	61.1
315.078	34.47
315.292	7.85
315.505	-47.44
315.719	32.43
315.933	13.99
316.146	40.62
316.36	95.91
316.573	67.24
316.787	-8.53
317.001	20.14
317.214	13.99
317.428	46.76
317.641	-29.01
317.855	28.33
318.068	-39.25
318.282	16.04
318.495	44.71
318.709	65.19
318.922	18.09
319.136	44.71
319.349	16.04
319.563	-22.87
319.776	40.62
319.99	48.81
320.203	42.67
320.417	77.48
320.63	-6.49
320.843	112.3
321.057	69.29
321.27	63.15
321.483	13.99
321.697	65.19
321.91	-29.01
322.124	52.91
322.337	89.77
322.55	18.09
322.763	-0.34
322.977	71.34
323.19	-12.63
323.403	1.71
323.617	54.95
323.83	36.52
324.043	63.15
324.256	44.71
324.469	-35.16
324.683	-2.39
324.896	16.04
325.109	-72.02
325.322	-26.96
325.535	30.38
325.748	38.57
325.962	-6.49
326.175	36.52
326.388	42.67
326.601	52.91
326.814	61.1
327.027	9.9
327.24	16.04
327.453	-35.16
327.666	22.19
327.879	30.38
328.092	71.34
328.305	-14.68
328.518	-14.68
328.731	57
328.944	93.87
329.157	106.15
329.37	28.33
329.583	36.52
329.796	108.2
330.009	18.09
330.222	-18.77
330.435	75.43
330.648	-39.25
330.861	67.24
331.073	63.15
331.286	42.67
331.499	38.57
331.712	-22.87
331.925	-29.01
332.138	83.63
332.35	13.99
332.563	42.67
332.776	151.21
332.989	42.67
333.202	40.62
333.414	-18.77
333.627	-29.01
333.84	30.38
334.053	65.19
334.265	26.28
334.478	40.62
334.691	-12.63
334.903	-16.73
335.116	-2.39
335.329	28.33
335.541	28.33
335.754	59.05
335.966	5.8
336.179	9.9
336.392	-8.53
336.604	-8.53
336.817	34.47
337.029	97.96
337.242	13.99
337.454	69.29
337.667	32.43
337.88	59.05
338.092	11.95
338.305	28.33
338.517	-43.35
338.729	95.91
338.942	46.76
339.154	-12.63
339.367	-20.82
339.579	20.14
339.792	-51.54
340.004	87.72
340.217	16.04
340.429	63.15
340.641	-57.68
340.854	91.82
341.066	48.81
341.278	40.62
341.491	16.04
341.703	32.43
341.915	7.85
342.128	-33.11
342.34	42.67
342.552	46.76
342.764	-4.44
342.977	-10.58
343.189	126.63
343.401	-0.34
343.613	-16.73
343.826	106.15
344.038	-26.96
344.25	30.38
344.462	112.3
344.674	40.62
344.886	34.47
345.099	71.34
345.311	44.71
345.523	11.95
345.735	-6.49
345.947	52.91
346.159	-18.77
346.371	-69.97
346.583	50.86
346.795	59.05
347.007	20.14
347.219	26.28
347.431	-35.16
347.643	46.76
347.855	-0.34
348.067	54.95
348.279	-35.16
348.491	89.77
348.703	-41.3
348.915	63.15
349.127	63.15
349.339	104.11
349.551	108.2
349.763	26.28
349.975	79.53
350.187	67.24
350.399	24.23
350.61	11.95
350.822	-6.49
351.034	24.23
351.246	46.76
351.458	132.78
351.669	1.71
351.881	52.91
352.093	-2.39
352.305	42.67
352.517	22.19
352.728	52.91
352.94	-2.39
353.152	34.47
353.363	28.33
353.575	34.47
353.787	26.28
353.999	32.43
354.21	28.33
354.422	40.62
354.633	75.43
354.845	67.24
355.057	44.71
355.268	-35.16
355.48	36.52
355.692	40.62
355.903	7.85
356.115	34.47
356.326	9.9
356.538	89.77
356.749	63.15
356.961	63.15
357.172	59.05
357.384	61.1
357.595	95.91
357.807	116.39
358.018	-31.06
358.23	32.43
358.441	65.19
358.653	79.53
358.864	81.58
359.075	-6.49
359.287	26.28
359.498	89.77
359.709	40.62
359.921	24.23
360.132	-2.39
360.344	-12.63
360.555	13.99
360.766	13.99
360.977	11.95
361.189	-8.53
361.4	-10.58
361.611	32.43
361.823	48.81
362.034	-10.58
362.245	71.34
362.456	104.11
362.667	13.99
362.879	81.58
363.09	-16.73
363.301	106.15
363.512	32.43
363.723	5.8
363.935	128.68
364.146	-6.49
364.357	73.39
364.568	104.11
364.779	-22.87
364.99	44.71
365.201	-0.34
365.412	11.95
365.623	22.19
365.834	3.75
366.045	5.8
366.256	26.28
366.467	40.62
366.678	67.24
366.889	-12.63
367.1	-43.35
367.311	81.58
367.522	79.53
367.733	-24.92
367.944	134.82
368.155	9.9
368.366	79.53
368.577	42.67
368.788	48.81
368.999	77.48
369.209	73.39
369.42	52.91
369.631	75.43
369.842	24.23
370.053	38.57
370.264	50.86
370.474	-2.39
370.685	85.67
370.896	-14.68
371.107	79.53
371.317	-8.53
371.528	59.05
371.739	28.33
371.95	30.38
372.16	38.57
372.371	54.95
372.582	77.48
372.792	22.19
373.003	89.77
373.214	20.14
373.424	97.96
373.635	-10.58
373.846	77.48
374.056	38.57
374.267	59.05
374.477	28.33
374.688	67.24
374.898	79.53
375.109	28.33
375.319	7.85
375.53	116.39
375.74	110.25
375.951	48.81
376.161	13.99
376.372	50.86
376.582	22.19
376.793	38.57
377.003	28.33
377.214	44.71
377.424	69.29
377.635	128.68
377.845	85.67
378.055	71.34
378.266	69.29
378.476	7.85
378.686	81.58
378.897	36.52
379.107	20.14
379.317	100.01
379.528	-4.44
379.738	81.58
379.948	-16.73
380.158	42.67
380.369	42.67
380.579	-26.96
380.789	40.62
380.999	79.53
381.21	22.19
381.42	42.67
381.63	36.52
381.84	89.77
382.05	73.39
382.261	40.62
382.471	18.09
382.681	-14.68
382.891	124.58
383.101	143.02
383.311	52.91
383.521	20.14
383.731	75.43
383.941	89.77
384.151	44.71
384.361	59.05
384.571	-8.53
384.781	57
384.991	28.33
385.201	73.39
385.411	77.48
385.621	40.62
385.831	32.43
386.041	-24.92
386.251	59.05
386.461	61.1
386.671	11.95
386.881	20.14
387.091	102.06
387.301	61.1
387.511	54.95
387.72	52.91
387.93	44.71
388.14	3.75
388.35	81.58
388.56	112.3
388.769	75.43
388.979	63.15
389.189	34.47
389.399	52.91
389.609	46.76
389.818	26.28
390.028	52.91
390.238	28.33
390.447	9.9
390.657	71.34
390.867	140.97
391.076	73.39
391.286	20.14
391.496	71.34
391.705	118.44
391.915	40.62
392.125	93.87
392.334	-12.63
392.544	91.82
392.753	79.53
392.963	26.28
393.172	59.05
393.382	26.28
393.591	93.87
393.801	38.57
394.01	138.92
394.22	75.43
394.429	44.71
394.639	28.33
394.848	116.39
395.058	155.3
395.267	93.87
395.477	46.76
395.686	118.44
395.895	157.35
396.105	169.64
396.314	97.96
396.524	71.34
396.733	134.82
396.942	93.87
397.152	132.78
397.361	118.44
397.57	87.72
397.78	87.72
397.989	85.67
398.198	126.63
398.407	192.17
398.617	95.91
398.826	120.49
399.035	95.91
399.244	89.77
399.453	116.39
399.663	149.16
399.872	85.67
400.081	61.1
400.29	91.82
400.499	91.82
400.708	161.45
400.917	81.58
401.127	120.49
401.336	128.68
401.545	210.6
401.754	173.74
401.963	151.21
402.172	118.44
402.381	179.88
402.59	114.34
402.799	163.5
403.008	216.74
403.217	149.16
403.426	136.87
403.635	145.06
403.844	173.74
404.053	151.21
404.262	167.59
404.471	183.98
404.68	190.12
404.888	163.5
405.097	128.68
405.306	208.55
405.515	280.23
405.724	132.78
405.933	231.08
406.142	210.6
406.35	239.27
406.559	280.23
406.768	214.7
406.977	204.46
407.185	267.94
407.394	247.46
407.603	196.26
407.812	216.74
408.02	280.23
408.229	239.27
408.438	321.19
408.646	321.19
408.855	282.28
409.064	331.43
409.272	351.91
409.481	313
409.69	368.29
409.898	286.37
410.107	399.01
410.315	503.46
410.524	419.49
410.733	437.92
410.941	444.07
411.15	442.02
411.358	444.07
411.567	509.6
411.775	513.7
411.984	558.75
412.192	593.57
412.401	536.23
412.609	548.51
412.818	749.22
413.026	579.23
413.234	667.3
413.443	763.55
413.651	722.59
413.86	710.3
414.068	878.24
414.276	824.99
414.485	800.41
414.693	884.38
414.901	814.75
415.11	915.1
415.318	970.4
415.526	931.48
415.734	1009.31
415.943	1027.74
416.151	1083.03
416.359	1040.03
416.567	1101.47
416.776	1066.65
416.984	1283.74
417.192	1339.03
417.4	1275.54
417.608	1306.26
417.817	1371.8
418.025	1429.14
418.233	1494.68
418.441	1441.43
418.649	1629.84
418.857	1681.04
419.065	1742.48
419.273	1678.99
419.481	1805.97
419.689	1875.6
419.897	2025.1
420.105	1998.48
420.313	2068.11
420.521	2147.98
420.729	2061.96
420.937	2270.86
421.145	2350.73
421.353	2524.8
421.561	2633.35
421.769	2559.62
421.977	2838.14
422.185	2696.83
422.393	2942.59
422.601	3120.76
422.809	2930.3
423.017	3051.13
423.224	3288.7
423.432	3300.98
423.64	3448.44
423.848	3505.78
424.056	3479.16
424.263	3819.12
424.471	3733.11
424.679	3948.14
424.887	4060.78
425.094	4185.71
425.302	4195.95
425.51	4421.22
425.718	4630.12
425.925	4537.96
426.133	4798.05
426.341	4976.22
426.548	5099.1
426.756	5217.88
426.964	5346.91
427.171	5545.56
427.379	5768.79
427.586	5920.34
427.794	5975.63
428.001	6276.68
428.209	6637.13
428.417	6426.18
428.624	6977.09
428.832	7095.87
429.039	7024.19
429.247	6872.64
429.454	7538.23
429.662	8058.42
429.869	7571
430.076	8074.8
430.284	7845.43
430.491	8304.17
430.699	8496.68
430.906	8621.61
431.114	8824.36
431.321	8955.43
431.528	9195.04
431.736	9895.44
431.943	10434.06
432.15	10024.47
432.358	9989.65
432.565	10526.22
432.772	10536.46
432.979	11341.31
433.187	11181.57
433.394	11539.96
433.601	12258.8
433.808	12254.7
434.016	11902.45
434.223	12463.6
434.43	13356.51
434.637	13106.66
434.844	13964.76
435.052	14298.58
435.259	14151.12
435.466	14450.13
435.673	14134.74
435.88	15123.91
436.087	15801.79
436.294	15963.58
436.501	15443.39
436.708	15844.79
436.915	16123.32
437.122	17145.25
437.329	16981.42
437.537	17511.84
437.743	17917.34
437.95	17737.12
438.157	18515.34
438.364	19285.38
438.571	19172.74
438.778	19258.76
438.985	21030.25
439.192	20393.33
439.399	20835.69
439.606	20583.79
439.813	21435.75
440.02	23006.54
440.227	22654.29
440.433	21939.55
440.64	22811.98
440.847	22949.2
441.054	23520.58
441.261	24841.52
441.467	24560.95
441.674	25058.6
441.881	26041.63
442.088	26004.77
442.294	25847.07
442.501	26641.68
442.708	27264.27
442.914	28083.45
443.121	28970.22
443.328	27995.39
443.534	30299.36
443.741	29576.42
443.948	29396.2
444.154	30934.23
444.361	31014.1
444.568	31313.1
444.774	31124.69
444.981	31700.17
445.187	32341.18
445.394	33713.32
445.6	33307.82
445.807	36617.34
446.013	35333.26
446.22	35832.97
446.426	37309.55
446.633	37315.7
446.839	38614.11
447.046	37395.57
447.252	39486.54
447.459	39285.84
447.665	39351.38
447.871	41018.42
448.078	42724.38
448.284	40707.13
448.491	41751.6
448.697	43428.88
448.903	43981.84
449.11	44196.87
449.316	43471.89
449.522	43994.12
449.728	45181.95
449.935	46121.96
450.141	45962.22
450.347	46496.74
450.553	45194.23
450.76	46230.51
450.966	47213.53
451.172	46801.89
451.378	48167.88
451.584	47234.01
451.791	48344.01
451.997	48022.48
452.203	48696.26
452.409	48878.53
452.615	48620.48
452.821	47164.38
453.027	46509.03
453.233	48903.1
453.44	47350.74
453.646	47819.73
453.852	47764.43
454.058	48483.27
454.264	47123.42
454.47	48077.77
454.676	47039.45
454.882	48827.33
455.088	44651.52
455.294	45200.38
455.5	45917.17
455.705	46124.01
455.911	44567.55
456.117	43676.69
456.323	43226.14
456.529	41020.47
456.735	42734.62
456.941	41395.25
457.147	40795.2
457.352	39720.01
457.558	39291.99
457.764	39832.65
457.97	38773.85
458.176	37858.41
458.381	37645.42
458.587	35873.93
458.793	35904.65
458.999	34172.07
459.204	36658.3
459.41	35597.45
459.616	33023.15
459.821	33346.73
460.027	32947.38
460.233	32087.23
460.438	30868.69
460.644	31118.54
460.85	29717.73
461.055	29361.39
461.261	29342.95
461.466	26993.93
461.672	26037.53
461.878	28091.65
462.083	25840.93
462.289	25744.67
462.494	25484.58
462.7	24495.41
462.905	23770.43
463.111	24665.39
463.316	24538.42
463.522	24048.96
463.727	24249.66
463.932	24124.73
464.138	23747.9
464.343	23754.05
464.549	22943.05
464.754	23776.58
464.959	23551.3
465.165	23520.58
465.37	22498.64
465.575	22046.04
465.781	23096.65
465.986	22943.05
466.191	22291.8
466.397	21869.92
466.602	20768.11
466.807	21466.47
