Data from USB4F104151__47__12-36-06-538.txt Node

Date: Fri Mar 14 12:36:06 EDT 2025
User: louis
Spectrometer: USB4F10415
Trigger mode: 4
Integration Time (sec): 2.000000E-2
Scans to average: 1
Electric dark correction enabled: true
Nonlinearity correction enabled: false
Boxcar width: 0
XAxis mode: Wavelengths
Number of Pixels in Spectrum: 3648
>>>>>Begin Spectral Data<<<<<
178.204	-48.64
178.424	-48.64
178.644	-48.64
178.864	-50.69
179.084	-17.92
179.304	-7.68
179.524	35.33
179.744	-3.58
179.964	4.61
180.184	-3.58
180.404	-13.82
180.624	-62.98
180.844	-26.11
181.064	-28.16
181.283	45.57
181.503	20.99
181.723	39.42
181.943	-5.63
182.163	2.56
182.383	70.14
182.602	25.09
182.822	23.04
183.042	31.23
183.262	0.51
183.482	16.9
183.701	-5.63
183.921	25.09
184.141	-60.93
184.361	51.71
184.58	6.66
184.8	23.04
185.02	2.56
185.239	23.04
185.459	25.09
185.679	10.75
185.898	-58.88
186.118	43.52
186.338	20.99
186.557	-5.63
186.777	6.66
186.997	100.86
187.216	2.56
187.436	0.51
187.655	18.94
187.875	2.56
188.095	12.8
188.314	82.43
188.534	29.18
188.753	10.75
188.973	43.52
189.192	47.62
189.412	-15.87
189.631	37.38
189.851	-28.16
190.07	39.42
190.29	-32.26
190.509	-32.26
190.729	25.09
190.948	80.38
191.168	37.38
191.387	37.38
191.607	25.09
191.826	-56.83
192.045	-13.82
192.265	14.85
192.484	-28.16
192.704	-1.54
192.923	2.56
193.142	76.29
193.362	29.18
193.581	64
193.8	70.14
194.02	80.38
194.239	68.09
194.458	100.86
194.678	14.85
194.897	-19.97
195.116	-11.78
195.335	66.05
195.555	-32.26
195.774	16.9
195.993	20.99
196.212	-17.92
196.432	66.05
196.651	25.09
196.87	-7.68
197.089	90.62
197.308	53.76
197.528	74.24
197.747	2.56
197.966	23.04
198.185	8.7
198.404	-50.69
198.623	-15.87
198.842	-71.17
199.062	-15.87
199.281	-30.21
199.5	-24.06
199.719	43.52
199.938	82.43
200.157	64
200.376	88.57
200.595	14.85
200.814	39.42
201.033	2.56
201.252	-3.58
201.471	59.9
201.69	80.38
201.909	27.14
202.128	70.14
202.347	-9.73
202.566	-62.98
202.785	-13.82
203.004	-17.92
203.223	10.75
203.442	-30.21
203.661	78.33
203.879	53.76
204.098	25.09
204.317	-11.78
204.536	-46.59
204.755	84.48
204.974	39.42
205.193	35.33
205.411	18.94
205.63	-5.63
205.849	68.09
206.068	59.9
206.287	123.39
206.505	84.48
206.724	-15.87
206.943	33.28
207.162	25.09
207.381	-13.82
207.599	-7.68
207.818	-15.87
208.037	-17.92
208.255	8.7
208.474	25.09
208.693	33.28
208.911	-1.54
209.13	-5.63
209.349	-7.68
209.567	55.81
209.786	35.33
210.005	-36.35
210.223	6.66
210.442	-19.97
210.661	61.95
210.879	18.94
211.098	14.85
211.316	66.05
211.535	107.01
211.753	-50.69
211.972	-11.78
212.191	29.18
212.409	31.23
212.628	6.66
212.846	45.57
213.065	66.05
213.283	92.67
213.502	-3.58
213.72	78.33
213.938	33.28
214.157	35.33
214.375	45.57
214.594	39.42
214.812	25.09
215.031	37.38
215.249	18.94
215.467	86.53
215.686	-22.02
215.904	-9.73
216.122	80.38
216.341	18.94
216.559	72.19
216.778	57.86
216.996	51.71
217.214	23.04
217.432	-32.26
217.651	64
217.869	-9.73
218.087	16.9
218.306	135.68
218.524	29.18
218.742	-19.97
218.96	66.05
219.179	33.28
219.397	4.61
219.615	-15.87
219.833	66.05
220.051	-17.92
220.27	59.9
220.488	16.9
220.706	27.14
220.924	37.38
221.142	35.33
221.36	31.23
221.578	72.19
221.796	16.9
222.015	84.48
222.233	20.99
222.451	107.01
222.669	23.04
222.887	-9.73
223.105	37.38
223.323	80.38
223.541	18.94
223.759	76.29
223.977	35.33
224.195	66.05
224.413	86.53
224.631	18.94
224.849	51.71
225.067	6.66
225.285	53.76
225.503	-13.82
225.721	-32.26
225.939	64
226.157	10.75
226.375	92.67
226.592	-3.58
226.81	49.66
227.028	49.66
227.246	8.7
227.464	49.66
227.682	78.33
227.9	78.33
228.117	74.24
228.335	0.51
228.553	53.76
228.771	55.81
228.989	-7.68
229.206	-1.54
229.424	33.28
229.642	70.14
229.86	23.04
230.077	37.38
230.295	76.29
230.513	27.14
230.731	96.77
230.948	23.04
231.166	29.18
231.384	61.95
231.601	31.23
231.819	96.77
232.037	-11.78
232.254	31.23
232.472	-42.5
232.689	31.23
232.907	86.53
233.125	-46.59
233.342	-85.5
233.56	4.61
233.777	2.56
233.995	31.23
234.213	49.66
234.43	-3.58
234.648	18.94
234.865	-34.3
235.083	31.23
235.3	92.67
235.518	47.62
235.735	20.99
235.953	14.85
236.17	-3.58
236.388	-13.82
236.605	14.85
236.822	78.33
237.04	4.61
237.257	-7.68
237.475	-17.92
237.692	35.33
237.909	20.99
238.127	41.47
238.344	57.86
238.562	45.57
238.779	-42.5
238.996	16.9
239.214	20.99
239.431	43.52
239.648	27.14
239.865	41.47
240.083	25.09
240.3	12.8
240.517	-5.63
240.735	14.85
240.952	84.48
241.169	37.38
241.386	53.76
241.603	33.28
241.821	41.47
242.038	51.71
242.255	31.23
242.472	-58.88
242.689	68.09
242.907	109.05
243.124	29.18
243.341	82.43
243.558	14.85
243.775	51.71
243.992	70.14
244.209	59.9
244.426	35.33
244.643	51.71
244.86	-9.73
245.078	35.33
245.295	23.04
245.512	25.09
245.729	-28.16
245.946	12.8
246.163	0.51
246.38	-13.82
246.597	33.28
246.814	51.71
247.031	35.33
247.248	-22.02
247.464	64
247.681	18.94
247.898	-50.69
248.115	41.47
248.332	-13.82
248.549	31.23
248.766	12.8
248.983	86.53
249.2	0.51
249.417	107.01
249.633	45.57
249.85	47.62
250.067	-38.4
250.284	-5.63
250.501	53.76
250.717	49.66
250.934	-62.98
251.151	12.8
251.368	74.24
251.585	-73.21
251.801	-17.92
252.018	-30.21
252.235	-24.06
252.451	-17.92
252.668	-5.63
252.885	76.29
253.102	-13.82
253.318	64
253.535	-26.11
253.752	18.94
253.968	4.61
254.185	-52.74
254.401	-17.92
254.618	-5.63
254.835	8.7
255.051	115.2
255.268	-22.02
255.484	10.75
255.701	29.18
255.917	14.85
256.134	33.28
256.351	27.14
256.567	-11.78
256.784	72.19
257	39.42
257.217	41.47
257.433	35.33
257.65	57.86
257.866	25.09
258.082	10.75
258.299	68.09
258.515	20.99
258.732	14.85
258.948	-7.68
259.165	25.09
259.381	16.9
259.597	10.75
259.814	37.38
260.03	-1.54
260.246	2.56
260.463	23.04
260.679	100.86
260.895	-54.78
261.112	102.91
261.328	125.44
261.544	43.52
261.761	88.57
261.977	-9.73
262.193	0.51
262.409	-42.5
262.626	16.9
262.842	8.7
263.058	45.57
263.274	10.75
263.49	-5.63
263.707	45.57
263.923	39.42
264.139	25.09
264.355	59.9
264.571	4.61
264.787	64
265.004	61.95
265.22	10.75
265.436	-17.92
265.652	55.81
265.868	-19.97
266.084	-26.11
266.3	20.99
266.516	-17.92
266.732	23.04
266.948	39.42
267.164	27.14
267.38	49.66
267.596	59.9
267.812	20.99
268.028	82.43
268.244	-38.4
268.46	18.94
268.676	82.43
268.892	57.86
269.108	-50.69
269.324	-7.68
269.54	47.62
269.756	2.56
269.972	4.61
270.188	70.14
270.403	-19.97
270.619	47.62
270.835	8.7
271.051	57.86
271.267	-15.87
271.483	12.8
271.698	59.9
271.914	-17.92
272.13	57.86
272.346	0.51
272.562	0.51
272.777	-5.63
272.993	80.38
273.209	53.76
273.425	-46.59
273.64	94.72
273.856	47.62
274.072	55.81
274.287	4.61
274.503	29.18
274.719	-22.02
274.934	6.66
275.15	41.47
275.366	53.76
275.581	8.7
275.797	84.48
276.012	8.7
276.228	43.52
276.444	-3.58
276.659	135.68
276.875	76.29
277.09	-83.45
277.306	57.86
277.521	-50.69
277.737	39.42
277.952	49.66
278.168	-24.06
278.383	12.8
278.599	-3.58
278.814	4.61
279.03	43.52
279.245	55.81
279.461	-7.68
279.676	55.81
279.892	64
280.107	8.7
280.322	-1.54
280.538	-19.97
280.753	18.94
280.969	37.38
281.184	43.52
281.399	53.76
281.615	-9.73
281.83	6.66
282.045	86.53
282.26	-11.78
282.476	10.75
282.691	49.66
282.906	14.85
283.122	-22.02
283.337	20.99
283.552	64
283.767	-22.02
283.983	8.7
284.198	88.57
284.413	-40.45
284.628	-3.58
284.843	82.43
285.058	70.14
285.274	23.04
285.489	-91.65
285.704	39.42
285.919	47.62
286.134	-26.11
286.349	23.04
286.564	2.56
286.779	70.14
286.995	74.24
287.21	-28.16
287.425	64
287.64	16.9
287.855	51.71
288.07	-26.11
288.285	6.66
288.5	-5.63
288.715	55.81
288.93	-56.83
289.145	20.99
289.36	61.95
289.575	23.04
289.79	-38.4
290.004	41.47
290.219	49.66
290.434	-3.58
290.649	-1.54
290.864	86.53
291.079	27.14
291.294	31.23
291.509	64
291.724	16.9
291.938	20.99
292.153	64
292.368	57.86
292.583	18.94
292.798	-36.35
293.012	18.94
293.227	59.9
293.442	12.8
293.657	-17.92
293.871	-7.68
294.086	6.66
294.301	86.53
294.516	33.28
294.73	92.67
294.945	14.85
295.16	53.76
295.374	43.52
295.589	64
295.804	-19.97
296.018	49.66
296.233	98.81
296.447	29.18
296.662	49.66
296.877	45.57
297.091	20.99
297.306	-40.45
297.52	25.09
297.735	57.86
297.949	104.96
298.164	74.24
298.378	16.9
298.593	12.8
298.807	-40.45
299.022	41.47
299.236	-42.5
299.451	41.47
299.665	111.1
299.88	53.76
300.094	70.14
300.309	39.42
300.523	82.43
300.737	84.48
300.952	8.7
301.166	20.99
301.381	45.57
301.595	35.33
301.809	-9.73
302.024	76.29
302.238	20.99
302.452	6.66
302.667	27.14
302.881	78.33
303.095	72.19
303.309	98.81
303.524	-9.73
303.738	16.9
303.952	2.56
304.166	-7.68
304.381	-46.59
304.595	37.38
304.809	-15.87
305.023	80.38
305.237	23.04
305.452	-3.58
305.666	70.14
305.88	104.96
306.094	59.9
306.308	53.76
306.522	37.38
306.736	86.53
306.95	43.52
307.164	29.18
307.379	43.52
307.593	35.33
307.807	72.19
308.021	127.49
308.235	6.66
308.449	0.51
308.663	8.7
308.877	31.23
309.091	10.75
309.305	53.76
309.519	12.8
309.733	49.66
309.947	-54.78
310.161	98.81
310.374	78.33
310.588	16.9
310.802	-24.06
311.016	61.95
311.23	98.81
311.444	37.38
311.658	31.23
311.872	33.28
312.085	49.66
312.299	72.19
312.513	70.14
312.727	76.29
312.941	-7.68
313.154	64
313.368	-30.21
313.582	66.05
313.796	90.62
314.009	8.7
314.223	43.52
314.437	113.15
314.651	25.09
314.864	-3.58
315.078	53.76
315.292	23.04
315.505	59.9
315.719	-1.54
315.933	-7.68
316.146	-5.63
316.36	-9.73
316.573	-48.64
316.787	37.38
317.001	8.7
317.214	12.8
317.428	35.33
317.641	68.09
317.855	29.18
318.068	-17.92
318.282	20.99
318.495	78.33
318.709	-34.3
318.922	39.42
319.136	20.99
319.349	23.04
319.563	14.85
319.776	-11.78
319.99	16.9
320.203	51.71
320.417	43.52
320.63	8.7
320.843	115.2
321.057	25.09
321.27	117.25
321.483	-3.58
321.697	18.94
321.91	18.94
322.124	68.09
322.337	2.56
322.55	14.85
322.763	41.47
322.977	-3.58
323.19	10.75
323.403	64
323.617	39.42
323.83	94.72
324.043	10.75
324.256	6.66
324.469	10.75
324.683	29.18
324.896	4.61
325.109	78.33
325.322	-3.58
325.535	90.62
325.748	82.43
325.962	16.9
326.175	-7.68
326.388	59.9
326.601	84.48
326.814	18.94
327.027	47.62
327.24	31.23
327.453	-7.68
327.666	4.61
327.879	35.33
328.092	84.48
328.305	82.43
328.518	41.47
328.731	-28.16
328.944	84.48
329.157	18.94
329.37	-13.82
329.583	84.48
329.796	39.42
330.009	-50.69
330.222	6.66
330.435	41.47
330.648	23.04
330.861	29.18
331.073	31.23
331.286	74.24
331.499	68.09
331.712	47.62
331.925	-9.73
332.138	53.76
332.35	-34.3
332.563	-9.73
332.776	102.91
332.989	18.94
333.202	20.99
333.414	68.09
333.627	49.66
333.84	66.05
334.053	18.94
334.265	-17.92
334.478	8.7
334.691	-5.63
334.903	55.81
335.116	16.9
335.329	74.24
335.541	18.94
335.754	61.95
335.966	66.05
336.179	2.56
336.392	64
336.604	49.66
336.817	4.61
337.029	84.48
337.242	-22.02
337.454	6.66
337.667	6.66
337.88	45.57
338.092	4.61
338.305	20.99
338.517	14.85
338.729	113.15
338.942	78.33
339.154	-3.58
339.367	37.38
339.579	129.53
339.792	53.76
340.004	37.38
340.217	23.04
340.429	88.57
340.641	84.48
340.854	94.72
341.066	-1.54
341.278	61.95
341.491	64
341.703	-11.78
341.915	82.43
342.128	39.42
342.34	80.38
342.552	102.91
342.764	23.04
342.977	92.67
343.189	25.09
343.401	35.33
343.613	59.9
343.826	47.62
344.038	20.99
344.25	27.14
344.462	98.81
344.674	59.9
344.886	-34.3
345.099	33.28
345.311	84.48
345.523	47.62
345.735	55.81
345.947	53.76
346.159	72.19
346.371	39.42
346.583	41.47
346.795	70.14
347.007	29.18
347.219	20.99
347.431	12.8
347.643	84.48
347.855	64
348.067	47.62
348.279	10.75
348.491	41.47
348.703	84.48
348.915	23.04
349.127	111.1
349.339	33.28
349.551	-30.21
349.763	55.81
349.975	53.76
350.187	64
350.399	45.57
350.61	37.38
350.822	27.14
351.034	43.52
351.246	-5.63
351.458	74.24
351.669	90.62
351.881	102.91
352.093	102.91
352.305	-28.16
352.517	37.38
352.728	115.2
352.94	27.14
353.152	47.62
353.363	14.85
353.575	43.52
353.787	47.62
353.999	49.66
354.21	162.3
354.422	-24.06
354.633	-38.4
354.845	-77.31
355.057	10.75
355.268	115.2
355.48	-24.06
355.692	6.66
355.903	4.61
356.115	8.7
356.326	2.56
356.538	23.04
356.749	68.09
356.961	61.95
357.172	2.56
357.384	4.61
357.595	88.57
357.807	51.71
358.018	20.99
358.23	8.7
358.441	64
358.653	107.01
358.864	-40.45
359.075	43.52
359.287	25.09
359.498	47.62
359.709	18.94
359.921	68.09
360.132	35.33
360.344	6.66
360.555	70.14
360.766	55.81
360.977	20.99
361.189	111.1
361.4	-13.82
361.611	49.66
361.823	86.53
362.034	145.92
362.245	8.7
362.456	160.25
362.667	18.94
362.879	88.57
363.09	-5.63
363.301	82.43
363.512	37.38
363.723	6.66
363.935	61.95
364.146	104.96
364.357	10.75
364.568	31.23
364.779	-19.97
364.99	94.72
365.201	-11.78
365.412	74.24
365.623	-7.68
365.834	70.14
366.045	27.14
366.256	45.57
366.467	90.62
366.678	131.58
366.889	8.7
367.1	49.66
367.311	47.62
367.522	2.56
367.733	20.99
367.944	57.86
368.155	16.9
368.366	141.82
368.577	37.38
368.788	88.57
368.999	74.24
369.209	66.05
369.42	166.4
369.631	31.23
369.842	90.62
370.053	23.04
370.264	104.96
370.474	57.86
370.685	12.8
370.896	68.09
371.107	49.66
371.317	104.96
371.528	92.67
371.739	59.9
371.95	104.96
372.16	78.33
372.371	-3.58
372.582	37.38
372.792	61.95
373.003	84.48
373.214	23.04
373.424	25.09
373.635	12.8
373.846	111.1
374.056	72.19
374.267	31.23
374.477	80.38
374.688	6.66
374.898	-5.63
375.109	16.9
375.319	10.75
375.53	-36.35
375.74	-26.11
375.951	143.87
376.161	66.05
376.372	14.85
376.582	-36.35
376.793	53.76
377.003	37.38
377.214	68.09
377.424	96.77
377.635	66.05
377.845	35.33
378.055	49.66
378.266	49.66
378.476	68.09
378.686	47.62
378.897	109.05
379.107	29.18
379.317	94.72
379.528	6.66
379.738	66.05
379.948	107.01
380.158	100.86
380.369	-7.68
380.579	74.24
380.789	109.05
380.999	121.34
381.21	88.57
381.42	74.24
381.63	-32.26
381.84	70.14
382.05	47.62
382.261	39.42
382.471	57.86
382.681	0.51
382.891	129.53
383.101	72.19
383.311	27.14
383.521	29.18
383.731	88.57
383.941	47.62
384.151	51.71
384.361	41.47
384.571	18.94
384.781	49.66
384.991	76.29
385.201	113.15
385.411	27.14
385.621	51.71
385.831	57.86
386.041	-9.73
386.251	64
386.461	72.19
386.671	27.14
386.881	78.33
387.091	-30.21
387.301	59.9
387.511	-15.87
387.72	100.86
387.93	92.67
388.14	33.28
388.35	55.81
388.56	41.47
388.769	109.05
388.979	84.48
389.189	39.42
389.399	12.8
389.609	53.76
389.818	86.53
390.028	109.05
390.238	41.47
390.447	88.57
390.657	113.15
390.867	78.33
391.076	14.85
391.286	102.91
391.496	127.49
391.705	125.44
391.915	4.61
392.125	43.52
392.334	115.2
392.544	70.14
392.753	66.05
392.963	29.18
393.172	82.43
393.382	90.62
393.591	53.76
393.801	35.33
394.01	98.81
394.22	127.49
394.429	119.29
394.639	23.04
394.848	88.57
395.058	72.19
395.267	2.56
395.477	154.11
395.686	131.58
395.895	94.72
396.105	131.58
396.314	107.01
396.524	129.53
396.733	57.86
396.942	111.1
397.152	102.91
397.361	61.95
397.57	64
397.78	74.24
397.989	143.87
398.198	152.06
398.407	43.52
398.617	12.8
398.826	51.71
399.035	135.68
399.244	147.97
399.453	78.33
399.663	154.11
399.872	90.62
400.081	74.24
400.29	150.01
400.499	109.05
400.708	64
400.917	64
401.127	123.39
401.336	168.45
401.545	139.77
401.754	152.06
401.963	195.07
402.172	147.97
402.381	59.9
402.59	211.45
402.799	137.73
403.008	170.49
403.217	94.72
403.426	164.35
403.635	94.72
403.844	98.81
404.053	107.01
404.262	156.16
404.471	129.53
404.68	209.4
404.888	178.69
405.097	172.54
405.306	213.5
405.515	193.02
405.724	203.26
405.933	211.45
406.142	117.25
406.35	150.01
406.559	156.16
406.768	215.55
406.977	270.84
407.185	260.6
407.394	164.35
407.603	201.21
407.812	238.08
408.02	250.36
408.229	215.55
408.438	197.12
408.646	209.4
408.855	248.32
409.064	276.99
409.272	215.55
409.481	352.76
409.69	356.86
409.898	367.1
410.107	309.76
410.315	363
410.524	299.52
410.733	426.49
410.941	354.81
411.15	346.62
411.358	446.97
411.567	455.16
411.775	385.53
411.984	395.77
412.192	451.07
412.401	455.16
412.609	440.83
412.818	526.84
413.026	483.83
413.234	580.09
413.443	537.08
413.651	496.12
413.86	631.29
414.068	635.38
414.276	674.29
414.485	686.58
414.693	758.26
414.901	778.74
415.11	688.63
415.318	702.97
415.526	700.92
415.734	823.8
415.943	879.09
416.151	893.43
416.359	883.19
416.567	854.51
416.776	877.04
416.984	997.87
417.192	956.91
417.4	1040.88
417.608	1120.75
417.817	1071.6
418.025	1176.05
418.233	1241.58
418.441	1237.49
418.649	1196.53
418.857	1286.64
419.065	1417.71
419.273	1319.4
419.481	1505.77
419.689	1415.66
419.897	1468.91
420.105	1630.7
420.313	1642.98
420.521	1692.13
420.729	1673.7
420.937	1815.01
421.145	1862.12
421.353	1901.03
421.561	2036.19
421.769	2122.21
421.977	2171.36
422.185	2066.91
422.393	2265.57
422.601	2333.15
422.809	2353.63
423.017	2406.88
423.224	2451.93
423.432	2662.87
423.64	2712.02
423.848	2904.53
424.056	2718.17
424.263	3023.31
424.471	3011.03
424.679	2906.58
424.887	3142.1
425.094	3273.17
425.302	3371.47
425.51	3492.3
425.718	3604.94
425.925	3596.75
426.133	3713.48
426.341	3955.14
426.548	4102.59
426.756	4057.54
426.964	4131.26
427.171	4362.69
427.379	4616.63
427.586	4508.09
427.794	4682.17
428.001	4919.73
428.209	5183.92
428.417	5015.99
428.624	5370.29
428.832	5468.59
429.039	5448.11
429.247	5327.28
429.454	5843.37
429.662	6218.15
429.869	5859.75
430.076	6283.68
430.284	6238.62
430.491	6465.95
430.699	6775.19
430.906	6580.64
431.114	6945.17
431.321	7037.33
431.528	7256.47
431.736	7606.67
431.943	8133
432.15	7760.27
432.358	7924.1
432.565	8296.83
432.772	8257.92
432.979	8825.21
433.187	8913.27
433.394	9056.63
433.601	9529.71
433.808	9507.18
434.016	9488.75
434.223	9916.78
434.43	10594.65
434.637	10260.84
434.844	10959.19
435.052	10996.06
435.259	11252.05
435.466	11182.42
435.673	11030.87
435.88	11919.69
436.087	12429.63
436.294	12728.64
436.501	12048.71
436.708	12595.52
436.915	12945.72
437.122	13234.49
437.329	13113.66
437.537	13871.4
437.743	14086.44
437.95	13971.75
438.157	14639.39
438.364	15300.89
438.571	14981.4
438.778	14999.84
438.985	16505.09
439.192	15784.21
439.399	16533.76
439.606	16068.87
439.813	16916.73
440.02	18045.16
440.227	17633.52
440.433	17570.04
440.64	18049.26
440.847	17891.57
441.054	18505.96
441.261	19552.47
441.467	19415.26
441.674	19765.46
441.881	20447.43
442.088	20680.9
442.294	20267.21
442.501	20734.15
442.708	21182.65
442.914	22192.3
443.121	23001.25
443.328	22393
443.534	24412.3
443.741	23208.09
443.948	23394.46
444.154	24586.38
444.361	24819.85
444.568	24823.94
444.774	24770.69
444.981	25335.93
445.187	25913.46
445.394	26581.1
445.6	26431.6
445.807	29071.43
446.013	28022.87
446.22	28500.05
446.426	29476.93
446.633	29839.42
446.839	30634.03
447.046	29544.51
447.252	31410.21
447.459	30902.31
447.665	31107.11
447.871	32626.7
448.078	33892.35
448.284	32172.05
448.491	33331.2
448.697	34627.57
448.903	35082.22
449.11	35313.64
449.316	34836.46
449.522	35186.66
449.728	36468.69
449.935	36653.01
450.141	36618.19
450.347	37570.5
450.553	36274.13
450.76	36786.13
450.966	37959.61
451.172	37664.71
451.378	38444.98
451.584	37709.76
451.791	38903.73
451.997	38664.11
452.203	39270.31
452.409	39366.57
452.615	38983.6
452.821	37705.66
453.027	37603.27
453.233	39079.85
453.44	37846.97
453.646	38354.87
453.852	38614.96
454.058	39294.89
454.264	37826.49
454.47	38879.15
454.676	37652.42
454.882	39368.62
455.088	35803.1
455.294	36304.85
455.5	36657.1
455.705	37148.62
455.911	35586.02
456.117	34881.52
456.323	34328.56
456.529	32602.13
456.735	34195.45
456.941	33394.69
457.147	32909.32
457.352	31676.44
457.558	31535.13
457.764	31639.58
457.97	31191.08
458.176	30451.76
458.381	30119.99
458.587	28932.17
458.793	28797
458.999	27459.68
459.204	29431.87
459.41	28797
459.616	26634.35
459.821	26775.66
460.027	26806.37
460.233	26085.49
460.438	24664.2
460.644	24983.68
460.85	23851.16
461.055	23160.99
461.261	23546.01
461.466	21702.84
461.672	21346.49
461.878	22696.1
462.083	21059.77
462.289	20695.24
462.494	20492.49
462.7	19452.12
462.905	19261.66
463.111	19781.84
463.316	19984.59
463.522	19511.51
463.727	19486.93
463.932	19597.52
464.138	18997.47
464.343	19208.41
464.549	18415.85
464.754	19407.06
464.959	18960.61
465.165	19015.9
465.37	18065.64
465.575	17866.99
465.781	18534.63
465.986	18555.11
466.191	17957.1
466.397	17336.57
466.602	16777.47
466.807	17094.91
467.012	17408.25
467.218	17142.01
467.423	17178.87
467.628	17078.52
467.833	17783.02
468.038	17144.06
468.244	16615.68
468.449	17404.15
468.654	16668.93
