Data from USB4F104151__27__12-35-29-921.txt Node

Date: Fri Mar 14 12:35:29 EDT 2025
User: louis
Spectrometer: USB4F10415
Trigger mode: 4
Integration Time (sec): 2.000000E-2
Scans to average: 1
Electric dark correction enabled: true
Nonlinearity correction enabled: false
Boxcar width: 0
XAxis mode: Wavelengths
Number of Pixels in Spectrum: 3648
>>>>>Begin Spectral Data<<<<<
178.204	-138.24
178.424	-138.24
178.644	-138.24
178.864	-84.99
179.084	-37.89
179.304	33.79
179.524	27.65
179.744	7.17
179.964	93.18
180.184	-7.17
180.404	-7.17
180.624	-35.84
180.844	-29.7
181.064	-21.5
181.283	5.12
181.503	-1.02
181.723	-64.51
181.943	9.22
182.163	35.84
182.383	-37.89
182.602	54.27
182.822	54.27
183.042	31.74
183.262	19.46
183.482	-41.98
183.701	-39.94
183.921	39.94
184.141	37.89
184.361	15.36
184.58	23.55
184.8	60.42
185.02	-17.41
185.239	74.75
185.459	-15.36
185.679	64.51
185.898	-23.55
186.118	60.42
186.338	-13.31
186.557	62.46
186.777	84.99
186.997	9.22
187.216	5.12
187.436	68.61
187.655	54.27
187.875	78.85
188.095	46.08
188.314	68.61
188.534	70.65
188.753	27.65
188.973	-9.22
189.192	37.89
189.412	-7.17
189.631	31.74
189.851	-9.22
190.07	-5.12
190.29	35.84
190.509	27.65
190.729	52.22
190.948	23.55
191.168	121.85
191.387	48.13
191.607	41.98
191.826	54.27
192.045	25.6
192.265	93.18
192.484	-7.17
192.704	7.17
192.923	-13.31
193.142	70.65
193.362	9.22
193.581	80.89
193.8	41.98
194.02	54.27
194.239	48.13
194.458	46.08
194.678	56.32
194.897	9.22
195.116	-11.26
195.335	68.61
195.555	60.42
195.774	25.6
195.993	-7.17
196.212	-9.22
196.432	41.98
196.651	-54.27
196.87	7.17
197.089	74.75
197.308	68.61
197.528	13.31
197.747	37.89
197.966	-21.5
198.185	128
198.404	27.65
198.623	66.56
198.842	66.56
199.062	-9.22
199.281	113.66
199.5	33.79
199.719	31.74
199.938	29.7
200.157	9.22
200.376	50.18
200.595	19.46
200.814	72.7
201.033	-5.12
201.252	78.85
201.471	82.94
201.69	15.36
201.909	97.28
202.128	27.65
202.347	19.46
202.566	-33.79
202.785	31.74
203.004	29.7
203.223	56.32
203.442	89.09
203.661	15.36
203.879	95.23
204.098	39.94
204.317	87.04
204.536	111.61
204.755	33.79
204.974	25.6
205.193	105.47
205.411	117.76
205.63	-3.07
205.849	48.13
206.068	27.65
206.287	-11.26
206.505	68.61
206.724	41.98
206.943	29.7
207.162	27.65
207.381	25.6
207.599	62.46
207.818	48.13
208.037	31.74
208.255	27.65
208.474	91.13
208.693	89.09
208.911	17.41
209.13	35.84
209.349	138.24
209.567	-35.84
209.786	95.23
210.005	35.84
210.223	39.94
210.442	50.18
210.661	-7.17
210.879	66.56
211.098	-7.17
211.316	89.09
211.535	87.04
211.753	68.61
211.972	84.99
212.191	3.07
212.409	50.18
212.628	17.41
212.846	-44.03
213.065	-7.17
213.283	58.37
213.502	-76.8
213.72	25.6
213.938	31.74
214.157	68.61
214.375	5.12
214.594	56.32
214.812	56.32
215.031	-11.26
215.249	5.12
215.467	23.55
215.686	41.98
215.904	-1.02
216.122	13.31
216.341	-54.27
216.559	64.51
216.778	87.04
216.996	48.13
217.214	52.22
217.432	17.41
217.651	-41.98
217.869	76.8
218.087	7.17
218.306	105.47
218.524	52.22
218.742	41.98
218.96	11.26
219.179	107.52
219.397	56.32
219.615	97.28
219.833	91.13
220.051	-29.7
220.27	23.55
220.488	68.61
220.706	7.17
220.924	11.26
221.142	19.46
221.36	27.65
221.578	27.65
221.796	27.65
222.015	84.99
222.233	-3.07
222.451	99.33
222.669	1.02
222.887	-17.41
223.105	-5.12
223.323	33.79
223.541	29.7
223.759	76.8
223.977	13.31
224.195	54.27
224.413	74.75
224.631	15.36
224.849	-7.17
225.067	89.09
225.285	60.42
225.503	1.02
225.721	25.6
225.939	48.13
226.157	11.26
226.375	121.85
226.592	25.6
226.81	27.65
227.028	25.6
227.246	162.81
227.464	78.85
227.682	80.89
227.9	121.85
228.117	70.65
228.335	19.46
228.553	70.65
228.771	29.7
228.989	31.74
229.206	78.85
229.424	41.98
229.642	-31.74
229.86	23.55
230.077	87.04
230.295	64.51
230.513	64.51
230.731	19.46
230.948	84.99
231.166	109.57
231.384	5.12
231.601	35.84
231.819	-9.22
232.037	80.89
232.254	33.79
232.472	70.65
232.689	-5.12
232.907	80.89
233.125	-1.02
233.342	-1.02
233.56	50.18
233.777	66.56
233.995	5.12
234.213	58.37
234.43	66.56
234.648	-9.22
234.865	46.08
235.083	44.03
235.3	-46.08
235.518	44.03
235.735	60.42
235.953	78.85
236.17	84.99
236.388	25.6
236.605	62.46
236.822	62.46
237.04	-3.07
237.257	41.98
237.475	-1.02
237.692	68.61
237.909	13.31
238.127	66.56
238.344	13.31
238.562	72.7
238.779	-1.02
238.996	-7.17
239.214	-15.36
239.431	9.22
239.648	82.94
239.865	19.46
240.083	80.89
240.3	-50.18
240.517	5.12
240.735	64.51
240.952	58.37
241.169	41.98
241.386	70.65
241.603	15.36
241.821	41.98
242.038	46.08
242.255	82.94
242.472	93.18
242.689	-46.08
242.907	109.57
243.124	-1.02
243.341	41.98
243.558	3.07
243.775	7.17
243.992	-35.84
244.209	41.98
244.426	-21.5
244.643	-37.89
244.86	64.51
245.078	70.65
245.295	50.18
245.512	-7.17
245.729	25.6
245.946	64.51
246.163	23.55
246.38	48.13
246.597	44.03
246.814	5.12
247.031	1.02
247.248	64.51
247.464	64.51
247.681	84.99
247.898	37.89
248.115	23.55
248.332	17.41
248.549	68.61
248.766	64.51
248.983	60.42
249.2	1.02
249.417	89.09
249.633	50.18
249.85	9.22
250.067	7.17
250.284	56.32
250.501	21.5
250.717	23.55
250.934	66.56
251.151	33.79
251.368	46.08
251.585	74.75
251.801	-3.07
252.018	35.84
252.235	35.84
252.451	25.6
252.668	54.27
252.885	115.71
253.102	41.98
253.318	121.85
253.535	1.02
253.752	17.41
253.968	1.02
254.185	50.18
254.401	33.79
254.618	-11.26
254.835	-29.7
255.051	89.09
255.268	60.42
255.484	29.7
255.701	31.74
255.917	117.76
256.134	29.7
256.351	17.41
256.567	33.79
256.784	44.03
257	54.27
257.217	93.18
257.433	-11.26
257.65	3.07
257.866	76.8
258.082	-25.6
258.299	13.31
258.515	68.61
258.732	130.05
258.948	41.98
259.165	-23.55
259.381	31.74
259.597	-25.6
259.814	37.89
260.03	66.56
260.246	5.12
260.463	58.37
260.679	89.09
260.895	39.94
261.112	25.6
261.328	-7.17
261.544	84.99
261.761	140.29
261.977	107.52
262.193	37.89
262.409	46.08
262.626	56.32
262.842	39.94
263.058	27.65
263.274	76.8
263.49	93.18
263.707	44.03
263.923	39.94
264.139	62.46
264.355	70.65
264.571	23.55
264.787	99.33
265.004	70.65
265.22	48.13
265.436	-23.55
265.652	11.26
265.868	-1.02
266.084	95.23
266.3	23.55
266.516	-9.22
266.732	-35.84
266.948	31.74
267.164	-11.26
267.38	60.42
267.596	-15.36
267.812	58.37
268.028	72.7
268.244	37.89
268.46	25.6
268.676	76.8
268.892	3.07
269.108	-21.5
269.324	107.52
269.54	50.18
269.756	25.6
269.972	41.98
270.188	23.55
270.403	-3.07
270.619	-3.07
270.835	17.41
271.051	29.7
271.267	58.37
271.483	-3.07
271.698	125.95
271.914	52.22
272.13	48.13
272.346	35.84
272.562	87.04
272.777	17.41
272.993	-3.07
273.209	97.28
273.425	84.99
273.64	31.74
273.856	25.6
274.072	37.89
274.287	17.41
274.503	138.24
274.719	50.18
274.934	72.7
275.15	41.98
275.366	13.31
275.581	-19.46
275.797	50.18
276.012	13.31
276.228	29.7
276.444	41.98
276.659	56.32
276.875	29.7
277.09	62.46
277.306	33.79
277.521	74.75
277.737	62.46
277.952	-21.5
278.168	-3.07
278.383	93.18
278.599	46.08
278.814	70.65
279.03	11.26
279.245	44.03
279.461	-27.65
279.676	93.18
279.892	25.6
280.107	33.79
280.322	-9.22
280.538	48.13
280.753	-5.12
280.969	109.57
281.184	46.08
281.399	23.55
281.615	1.02
281.83	93.18
282.045	25.6
282.26	25.6
282.476	44.03
282.691	68.61
282.906	87.04
283.122	50.18
283.337	25.6
283.552	48.13
283.767	119.81
283.983	82.94
284.198	60.42
284.413	37.89
284.628	37.89
284.843	56.32
285.058	21.5
285.274	-5.12
285.489	74.75
285.704	50.18
285.919	99.33
286.134	39.94
286.349	21.5
286.564	60.42
286.779	54.27
286.995	52.22
287.21	70.65
287.425	80.89
287.64	-27.65
287.855	60.42
288.07	13.31
288.285	107.52
288.5	29.7
288.715	72.7
288.93	-21.5
289.145	56.32
289.36	19.46
289.575	39.94
289.79	-5.12
290.004	5.12
290.219	48.13
290.434	37.89
290.649	-1.02
290.864	33.79
291.079	7.17
291.294	115.71
291.509	48.13
291.724	99.33
291.938	-25.6
292.153	13.31
292.368	25.6
292.583	3.07
292.798	9.22
293.012	17.41
293.227	1.02
293.442	80.89
293.657	82.94
293.871	80.89
294.086	64.51
294.301	25.6
294.516	62.46
294.73	46.08
294.945	46.08
295.16	52.22
295.374	54.27
295.589	111.61
295.804	3.07
296.018	91.13
296.233	41.98
296.447	134.14
296.662	-15.36
296.877	19.46
297.091	54.27
297.306	74.75
297.52	23.55
297.735	60.42
297.949	54.27
298.164	97.28
298.378	93.18
298.593	31.74
298.807	-56.32
299.022	-19.46
299.236	33.79
299.451	3.07
299.665	17.41
299.88	-1.02
300.094	66.56
300.309	113.66
300.523	21.5
300.737	19.46
300.952	37.89
301.166	27.65
301.381	-29.7
301.595	17.41
301.809	54.27
302.024	-25.6
302.238	23.55
302.452	37.89
302.667	91.13
302.881	121.85
303.095	54.27
303.309	60.42
303.524	72.7
303.738	-7.17
303.952	50.18
304.166	99.33
304.381	-19.46
304.595	68.61
304.809	13.31
305.023	46.08
305.237	39.94
305.452	-7.17
305.666	80.89
305.88	70.65
306.094	15.36
306.308	50.18
306.522	66.56
306.736	80.89
306.95	76.8
307.164	1.02
307.379	21.5
307.593	80.89
307.807	76.8
308.021	66.56
308.235	1.02
308.449	-9.22
308.663	-41.98
308.877	91.13
309.091	68.61
309.305	78.85
309.519	87.04
309.733	84.99
309.947	-46.08
310.161	91.13
310.374	-41.98
310.588	52.22
310.802	3.07
311.016	68.61
311.23	9.22
311.444	29.7
311.658	54.27
311.872	66.56
312.085	70.65
312.299	27.65
312.513	70.65
312.727	89.09
312.941	31.74
313.154	17.41
313.368	21.5
313.582	123.9
313.796	41.98
314.009	50.18
314.223	3.07
314.437	-7.17
314.651	89.09
314.864	17.41
315.078	76.8
315.292	41.98
315.505	27.65
315.719	111.61
315.933	60.42
316.146	23.55
316.36	-15.36
316.573	95.23
316.787	15.36
317.001	84.99
317.214	9.22
317.428	68.61
317.641	44.03
317.855	60.42
318.068	68.61
318.282	37.89
318.495	46.08
318.709	15.36
318.922	31.74
319.136	140.29
319.349	64.51
319.563	80.89
319.776	60.42
319.99	33.79
320.203	-1.02
320.417	7.17
320.63	27.65
320.843	37.89
321.057	121.85
321.27	41.98
321.483	62.46
321.697	113.66
321.91	44.03
322.124	5.12
322.337	97.28
322.55	19.46
322.763	58.37
322.977	25.6
323.19	15.36
323.403	39.94
323.617	-9.22
323.83	56.32
324.043	31.74
324.256	-1.02
324.469	19.46
324.683	80.89
324.896	13.31
325.109	33.79
325.322	-35.84
325.535	48.13
325.748	54.27
325.962	1.02
326.175	5.12
326.388	52.22
326.601	97.28
326.814	31.74
327.027	37.89
327.24	103.42
327.453	23.55
327.666	166.91
327.879	68.61
328.092	54.27
328.305	-29.7
328.518	89.09
328.731	13.31
328.944	-31.74
329.157	80.89
329.37	25.6
329.583	66.56
329.796	111.61
330.009	27.65
330.222	41.98
330.435	80.89
330.648	62.46
330.861	23.55
331.073	56.32
331.286	-3.07
331.499	54.27
331.712	35.84
331.925	60.42
332.138	41.98
332.35	99.33
332.563	80.89
332.776	58.37
332.989	41.98
333.202	52.22
333.414	41.98
333.627	58.37
333.84	56.32
334.053	44.03
334.265	-68.61
334.478	60.42
334.691	15.36
334.903	68.61
335.116	25.6
335.329	68.61
335.541	29.7
335.754	68.61
335.966	-25.6
336.179	64.51
336.392	17.41
336.604	84.99
336.817	27.65
337.029	82.94
337.242	-25.6
337.454	68.61
337.667	52.22
337.88	74.75
338.092	33.79
338.305	87.04
338.517	-7.17
338.729	60.42
338.942	103.42
339.154	25.6
339.367	7.17
339.579	7.17
339.792	-11.26
340.004	46.08
340.217	62.46
340.429	103.42
340.641	-31.74
340.854	37.89
341.066	31.74
341.278	93.18
341.491	74.75
341.703	13.31
341.915	-23.55
342.128	103.42
342.34	-15.36
342.552	25.6
342.764	15.36
342.977	74.75
343.189	52.22
343.401	136.19
343.613	23.55
343.826	76.8
344.038	-5.12
344.25	19.46
344.462	60.42
344.674	70.65
344.886	60.42
345.099	-3.07
345.311	121.85
345.523	103.42
345.735	19.46
345.947	72.7
346.159	35.84
346.371	21.5
346.583	68.61
346.795	48.13
347.007	31.74
347.219	35.84
347.431	3.07
347.643	74.75
347.855	-29.7
348.067	-46.08
348.279	33.79
348.491	-1.02
348.703	54.27
348.915	60.42
349.127	125.95
349.339	84.99
349.551	-1.02
349.763	97.28
349.975	39.94
350.187	82.94
350.399	68.61
350.61	17.41
350.822	54.27
351.034	17.41
351.246	46.08
351.458	84.99
351.669	76.8
351.881	41.98
352.093	15.36
352.305	105.47
352.517	66.56
352.728	107.52
352.94	-19.46
353.152	101.37
353.363	19.46
353.575	46.08
353.787	54.27
353.999	66.56
354.21	62.46
354.422	50.18
354.633	-37.89
354.845	58.37
355.057	23.55
355.268	21.5
355.48	66.56
355.692	5.12
355.903	97.28
356.115	115.71
356.326	23.55
356.538	70.65
356.749	74.75
356.961	54.27
357.172	19.46
357.384	-13.31
357.595	84.99
357.807	130.05
358.018	41.98
358.23	33.79
358.441	74.75
358.653	95.23
358.864	-3.07
359.075	78.85
359.287	-7.17
359.498	76.8
359.709	-3.07
359.921	82.94
360.132	46.08
360.344	84.99
360.555	62.46
360.766	7.17
360.977	97.28
361.189	142.33
361.4	78.85
361.611	76.8
361.823	113.66
362.034	111.61
362.245	58.37
362.456	23.55
362.667	60.42
362.879	109.57
363.09	41.98
363.301	80.89
363.512	64.51
363.723	41.98
363.935	44.03
364.146	31.74
364.357	60.42
364.568	37.89
364.779	29.7
364.99	128
365.201	76.8
365.412	25.6
365.623	58.37
365.834	37.89
366.045	62.46
366.256	74.75
366.467	48.13
366.678	13.31
366.889	60.42
367.1	70.65
367.311	23.55
367.522	25.6
367.733	48.13
367.944	41.98
368.155	117.76
368.366	97.28
368.577	72.7
368.788	123.9
368.999	64.51
369.209	48.13
369.42	62.46
369.631	95.23
369.842	87.04
370.053	50.18
370.264	173.05
370.474	39.94
370.685	23.55
370.896	37.89
371.107	74.75
371.317	60.42
371.528	35.84
371.739	107.52
371.95	50.18
372.16	101.37
372.371	15.36
372.582	140.29
372.792	48.13
373.003	101.37
373.214	21.5
373.424	78.85
373.635	46.08
373.846	27.65
374.056	-1.02
374.267	1.02
374.477	46.08
374.688	31.74
374.898	62.46
375.109	15.36
375.319	89.09
375.53	89.09
375.74	15.36
375.951	74.75
376.161	72.7
376.372	15.36
376.582	113.66
376.793	39.94
377.003	68.61
377.214	89.09
377.424	101.37
377.635	58.37
377.845	23.55
378.055	25.6
378.266	25.6
378.476	44.03
378.686	17.41
378.897	37.89
379.107	58.37
379.317	111.61
379.528	50.18
379.738	31.74
379.948	31.74
380.158	87.04
380.369	31.74
380.579	99.33
380.789	52.22
380.999	33.79
381.21	109.57
381.42	158.72
381.63	52.22
381.84	84.99
382.05	87.04
382.261	74.75
382.471	46.08
382.681	76.8
382.891	44.03
383.101	72.7
383.311	37.89
383.521	115.71
383.731	87.04
383.941	99.33
384.151	37.89
384.361	-3.07
384.571	107.52
384.781	123.9
384.991	54.27
385.201	123.9
385.411	60.42
385.621	111.61
385.831	52.22
386.041	80.89
386.251	76.8
386.461	56.32
386.671	128
386.881	162.81
387.091	123.9
387.301	56.32
387.511	119.81
387.72	111.61
387.93	-1.02
388.14	156.67
388.35	97.28
388.56	35.84
388.769	54.27
388.979	19.46
389.189	13.31
389.399	7.17
389.609	87.04
389.818	134.14
390.028	125.95
390.238	109.57
390.447	39.94
390.657	93.18
390.867	48.13
391.076	128
391.286	82.94
391.496	31.74
391.705	50.18
391.915	123.9
392.125	44.03
392.334	39.94
392.544	144.38
392.753	76.8
392.963	15.36
393.172	91.13
393.382	50.18
393.591	97.28
393.801	66.56
394.01	89.09
394.22	107.52
394.429	107.52
394.639	109.57
394.848	70.65
395.058	54.27
395.267	64.51
395.477	136.19
395.686	52.22
395.895	72.7
396.105	119.81
396.314	27.65
396.524	132.09
396.733	121.85
396.942	183.29
397.152	130.05
397.361	193.53
397.57	78.85
397.78	166.91
397.989	148.48
398.198	162.81
398.407	132.09
398.617	76.8
398.826	111.61
399.035	109.57
399.244	181.25
399.453	140.29
399.663	132.09
399.872	150.53
400.081	89.09
400.29	130.05
400.499	107.52
400.708	195.58
400.917	87.04
401.127	113.66
401.336	105.47
401.545	187.39
401.754	156.67
401.963	99.33
402.172	191.49
402.381	89.09
402.59	140.29
402.799	191.49
403.008	166.91
403.217	91.13
403.426	158.72
403.635	144.38
403.844	179.2
404.053	105.47
404.262	181.25
404.471	136.19
404.68	209.92
404.888	146.43
405.097	252.92
405.306	136.19
405.515	205.82
405.724	181.25
405.933	171.01
406.142	181.25
406.35	218.11
406.559	197.63
406.768	130.05
406.977	240.64
407.185	314.36
407.394	179.2
407.603	189.44
407.812	263.16
408.02	257.02
408.229	308.22
408.438	279.55
408.646	242.68
408.855	191.49
409.064	340.99
409.272	283.64
409.481	293.88
409.69	349.18
409.898	336.89
410.107	277.5
410.315	392.19
410.524	271.36
410.733	381.95
410.941	431.1
411.15	400.38
411.358	443.39
411.567	486.39
411.775	455.67
411.984	486.39
412.192	508.92
412.401	447.48
412.609	570.36
412.818	539.64
413.026	639.99
413.234	498.68
413.443	594.93
413.651	588.79
413.86	644.09
414.068	693.24
414.276	764.92
414.485	674.81
414.693	699.38
414.901	801.78
415.11	762.87
415.318	781.3
415.526	771.06
415.734	805.88
415.943	871.41
416.151	963.57
416.359	850.93
416.567	918.51
416.776	1006.58
416.984	1061.87
417.192	973.81
417.4	1065.97
417.608	1121.26
417.817	1111.02
418.025	1131.5
418.233	1285.1
418.441	1238
418.649	1315.82
418.857	1446.89
419.065	1293.29
419.273	1387.5
419.481	1461.23
419.689	1569.77
419.897	1584.1
420.105	1645.54
420.313	1563.62
420.521	1737.7
420.729	1706.98
420.937	1700.84
421.145	2030.56
421.353	1946.59
421.561	2098.14
421.769	2077.66
421.977	2237.41
422.185	2155.49
422.393	2233.31
422.601	2444.25
422.809	2411.48
423.017	2431.96
423.224	2563.03
423.432	2657.24
423.64	2704.34
423.848	2870.23
424.056	2806.74
424.263	3138.51
424.471	3003.35
424.679	3097.55
424.887	3261.39
425.094	3470.28
425.302	3386.32
425.51	3578.83
425.718	3718.09
425.925	3701.7
426.133	3826.63
426.341	4010.95
426.548	4285.37
426.756	4176.83
426.964	4293.57
427.171	4504.51
427.379	4658.1
427.586	4682.68
427.794	4826.04
428.001	4991.92
428.209	5352.37
428.417	5088.18
428.624	5491.63
428.832	5639.08
429.039	5473.2
429.247	5493.68
429.454	6120.35
429.662	6618.01
429.869	5893.03
430.076	6425.5
430.284	6323.1
430.491	6681.5
430.699	6806.42
430.906	6792.09
431.114	7007.13
431.321	7285.65
431.528	7463.82
431.736	7820.17
431.943	8225.67
432.15	8041.35
432.358	8252.29
432.565	8653.69
432.772	8192.9
432.979	9018.23
433.187	9087.86
433.394	9083.77
433.601	9595.76
433.808	9677.68
434.016	9745.26
434.223	9911.14
434.43	10763.1
434.637	10378.08
434.844	11234.13
435.052	11324.24
435.259	11111.25
435.466	11252.56
435.673	11137.88
435.88	11869
436.087	12737.34
436.294	12813.12
436.501	12034.89
436.708	12682.05
436.915	13237.05
437.122	13658.93
437.329	13220.66
437.537	14019.37
437.743	14125.86
437.95	14340.9
438.157	14701.34
438.364	15350.55
438.571	15334.17
438.778	15526.68
438.985	16675.59
439.192	16102.15
439.399	16546.56
439.606	16274.18
439.813	16947.97
440.02	18131.69
440.227	17765.1
440.433	17718
440.64	18217.71
440.847	18127.6
441.054	18547.43
441.261	19862.22
441.467	19739.35
441.674	19894.99
441.881	20878.02
442.088	20400.84
442.294	20755.14
442.501	20892.35
442.708	21441.21
442.914	22549.16
443.121	23257.76
443.328	22385.32
443.534	24109.71
443.741	23618.2
443.948	23354.01
444.154	24664.71
444.361	24859.27
444.568	24687.24
444.774	25119.36
444.981	25338.49
445.187	25922.16
445.394	27277.92
445.6	27026.02
445.807	29209.15
446.013	28228.18
446.22	28605
446.426	29788.73
446.633	29626.94
446.839	31121.96
447.046	29239.87
447.252	31132.2
447.459	31607.33
447.665	31072.81
447.871	32539.15
448.078	34173.43
448.284	32250.39
448.491	32981.51
448.697	34460.15
448.903	34927.08
449.11	34978.28
449.316	34390.52
449.522	35197.41
449.728	36182.49
449.935	36592.08
450.141	36485.59
450.347	37126.6
450.553	35762.65
450.76	36616.66
450.966	37960.12
451.172	37165.51
451.378	38373.81
451.584	37863.87
451.791	38244.79
451.997	38062.52
452.203	38754.74
452.409	38826.42
452.615	38625.71
452.821	37523.91
453.027	37009.87
453.233	39023.02
453.44	37638.59
453.646	37775.81
453.852	37988.8
454.058	38611.38
454.264	37134.79
454.47	38308.28
454.676	37093.83
454.882	38558.13
455.088	35375.59
455.294	35828.19
455.5	36262.36
455.705	36399.57
455.911	35301.86
456.117	34935.27
456.323	34232.82
456.529	32213.52
456.735	33802.75
456.941	32758.28
457.147	31973.91
457.352	31074.85
457.558	31023.65
457.764	30951.98
457.97	30630.44
458.176	29504.06
458.381	29786.68
458.587	28207.7
458.793	27933.27
458.999	26804.84
459.204	28688.97
459.41	27748.95
459.616	26094.19
459.821	26229.36
460.027	25971.32
460.233	25528.95
460.438	24328.84
460.644	24590.98
460.85	23378.59
461.055	23433.88
461.261	23048.86
461.466	21068.48
461.672	20615.88
461.878	22065.84
462.083	20538.05
462.289	20271.82
462.494	20040.4
462.7	19440.34
462.905	18328.3
463.111	18936.54
463.316	19452.63
463.522	18852.58
463.727	19053.28
463.932	18803.43
464.138	18514.66
464.343	18797.28
464.549	18148.08
464.754	19102.43
464.959	18637.54
465.165	18686.69
465.37	17607.41
465.575	17224.44
465.781	18033.39
465.986	18023.15
466.191	17232.63
466.397	17083.13
466.602	16364.29
466.807	16794.37
467.012	17036.03
467.218	16788.22
467.423	16433.93
467.628	16474.88
467.833	17468.15
