Data from USB4F104151__66__12-36-35-734.txt Node

Date: Fri Mar 14 12:36:35 EDT 2025
User: louis
Spectrometer: USB4F10415
Trigger mode: 4
Integration Time (sec): 2.000000E-2
Scans to average: 1
Electric dark correction enabled: true
Nonlinearity correction enabled: false
Boxcar width: 0
XAxis mode: Wavelengths
Number of Pixels in Spectrum: 3648
>>>>>Begin Spectral Data<<<<<
178.204	-67.92
178.424	-67.92
178.644	-67.92
178.864	-86.36
179.084	-26.96
179.304	24.23
179.524	18.09
179.744	-24.92
179.964	13.99
180.184	30.38
180.404	-4.44
180.624	-2.39
180.844	38.57
181.064	-67.92
181.283	-37.2
181.503	-2.39
181.723	13.99
181.943	22.19
182.163	-22.87
182.383	65.19
182.602	42.67
182.822	77.48
183.042	46.76
183.262	18.09
183.482	-29.01
183.701	30.38
183.921	87.72
184.141	-10.58
184.361	-41.3
184.58	38.57
184.8	-6.49
185.02	-94.55
185.239	22.19
185.459	5.8
185.679	77.48
185.898	-31.06
186.118	87.72
186.338	57
186.557	13.99
186.777	67.24
186.997	-12.63
187.216	-53.59
187.436	130.73
187.655	83.63
187.875	26.28
188.095	30.38
188.314	110.25
188.534	-20.82
188.753	-39.25
188.973	65.19
189.192	34.47
189.412	77.48
189.631	106.15
189.851	26.28
190.07	52.91
190.29	-33.11
190.509	28.33
190.729	7.85
190.948	97.96
191.168	42.67
191.387	30.38
191.607	42.67
191.826	71.34
192.045	30.38
192.265	-57.68
192.484	42.67
192.704	83.63
192.923	-16.73
193.142	77.48
193.362	34.47
193.581	73.39
193.8	-16.73
194.02	20.14
194.239	57
194.458	40.62
194.678	42.67
194.897	11.95
195.116	30.38
195.335	112.3
195.555	54.95
195.774	38.57
195.993	112.3
196.212	108.2
196.432	-16.73
196.651	-4.44
196.87	57
197.089	48.81
197.308	24.23
197.528	65.19
197.747	-29.01
197.966	63.15
198.185	75.43
198.404	11.95
198.623	3.75
198.842	40.62
199.062	5.8
199.281	22.19
199.5	-10.58
199.719	102.06
199.938	18.09
200.157	57
200.376	9.9
200.595	77.48
200.814	-18.77
201.033	-14.68
201.252	18.09
201.471	-6.49
201.69	26.28
201.909	-10.58
202.128	71.34
202.347	16.04
202.566	-6.49
202.785	-16.73
203.004	-6.49
203.223	67.24
203.442	30.38
203.661	28.33
203.879	54.95
204.098	28.33
204.317	-51.54
204.536	22.19
204.755	5.8
204.974	28.33
205.193	63.15
205.411	73.39
205.63	79.53
205.849	79.53
206.068	59.05
206.287	-31.06
206.505	-18.77
206.724	3.75
206.943	50.86
207.162	-37.2
207.381	-8.53
207.599	36.52
207.818	22.19
208.037	73.39
208.255	95.91
208.474	85.67
208.693	46.76
208.911	11.95
209.13	13.99
209.349	20.14
209.567	28.33
209.786	57
210.005	97.96
210.223	42.67
210.442	42.67
210.661	124.58
210.879	44.71
211.098	73.39
211.316	18.09
211.535	61.1
211.753	-41.3
211.972	-37.2
212.191	9.9
212.409	67.24
212.628	67.24
212.846	-29.01
213.065	52.91
213.283	122.54
213.502	89.77
213.72	30.38
213.938	28.33
214.157	48.81
214.375	67.24
214.594	-41.3
214.812	-6.49
215.031	13.99
215.249	-4.44
215.467	73.39
215.686	-2.39
215.904	-2.39
216.122	-2.39
216.341	5.8
216.559	26.28
216.778	44.71
216.996	71.34
217.214	73.39
217.432	22.19
217.651	18.09
217.869	3.75
218.087	-24.92
218.306	3.75
218.524	147.11
218.742	24.23
218.96	63.15
219.179	22.19
219.397	36.52
219.615	63.15
219.833	3.75
220.051	-0.34
220.27	46.76
220.488	-0.34
220.706	118.44
220.924	-20.82
221.142	71.34
221.36	5.8
221.578	-20.82
221.796	11.95
222.015	79.53
222.233	63.15
222.451	48.81
222.669	-26.96
222.887	85.67
223.105	50.86
223.323	3.75
223.541	67.24
223.759	20.14
223.977	30.38
224.195	44.71
224.413	73.39
224.631	-10.58
224.849	3.75
225.067	91.82
225.285	-16.73
225.503	9.9
225.721	-12.63
225.939	9.9
226.157	54.95
226.375	89.77
226.592	42.67
226.81	59.05
227.028	48.81
227.246	28.33
227.464	-16.73
227.682	32.43
227.9	91.82
228.117	20.14
228.335	91.82
228.553	-65.88
228.771	32.43
228.989	34.47
229.206	44.71
229.424	38.57
229.642	9.9
229.86	-12.63
230.077	75.43
230.295	48.81
230.513	118.44
230.731	-8.53
230.948	63.15
231.166	85.67
231.384	28.33
231.601	5.8
231.819	69.29
232.037	30.38
232.254	16.04
232.472	89.77
232.689	5.8
232.907	3.75
233.125	-47.44
233.342	67.24
233.56	-41.3
233.777	32.43
233.995	40.62
234.213	153.26
234.43	95.91
234.648	104.11
234.865	24.23
235.083	50.86
235.3	38.57
235.518	11.95
235.735	110.25
235.953	-10.58
236.17	22.19
236.388	28.33
236.605	79.53
236.822	85.67
237.04	-26.96
237.257	42.67
237.475	40.62
237.692	102.06
237.909	16.04
238.127	63.15
238.344	18.09
238.562	71.34
238.779	54.95
238.996	46.76
239.214	-16.73
239.431	83.63
239.648	-16.73
239.865	69.29
240.083	112.3
240.3	-4.44
240.517	-26.96
240.735	-8.53
240.952	104.11
241.169	63.15
241.386	28.33
241.603	16.04
241.821	52.91
242.038	22.19
242.255	34.47
242.472	-8.53
242.689	57
242.907	44.71
243.124	-33.11
243.341	46.76
243.558	40.62
243.775	5.8
243.992	46.76
244.209	13.99
244.426	102.06
244.643	87.72
244.86	11.95
245.078	11.95
245.295	1.71
245.512	71.34
245.729	36.52
245.946	75.43
246.163	16.04
246.38	118.44
246.597	-4.44
246.814	11.95
247.031	83.63
247.248	143.02
247.464	1.71
247.681	-0.34
247.898	46.76
248.115	79.53
248.332	28.33
248.549	100.01
248.766	59.05
248.983	91.82
249.2	30.38
249.417	7.85
249.633	24.23
249.85	61.1
250.067	26.28
250.284	67.24
250.501	81.58
250.717	83.63
250.934	30.38
251.151	65.19
251.368	-14.68
251.585	57
251.801	38.57
252.018	52.91
252.235	61.1
252.451	-24.92
252.668	18.09
252.885	22.19
253.102	32.43
253.318	85.67
253.535	65.19
253.752	32.43
253.968	9.9
254.185	57
254.401	9.9
254.618	34.47
254.835	73.39
255.051	34.47
255.268	-16.73
255.484	-6.49
255.701	-4.44
255.917	59.05
256.134	-20.82
256.351	-0.34
256.567	-14.68
256.784	-29.01
257	-4.44
257.217	77.48
257.433	87.72
257.65	7.85
257.866	48.81
258.082	95.91
258.299	26.28
258.515	81.58
258.732	-16.73
258.948	-0.34
259.165	26.28
259.381	61.1
259.597	61.1
259.814	20.14
260.03	16.04
260.246	36.52
260.463	30.38
260.679	-16.73
260.895	-4.44
261.112	-0.34
261.328	13.99
261.544	52.91
261.761	9.9
261.977	13.99
262.193	-12.63
262.409	16.04
262.626	67.24
262.842	59.05
263.058	7.85
263.274	-12.63
263.49	26.28
263.707	5.8
263.923	57
264.139	-18.77
264.355	50.86
264.571	93.87
264.787	-22.87
265.004	1.71
265.22	91.82
265.436	73.39
265.652	38.57
265.868	50.86
266.084	-49.49
266.3	63.15
266.516	44.71
266.732	48.81
266.948	89.77
267.164	13.99
267.38	42.67
267.596	57
267.812	57
268.028	63.15
268.244	36.52
268.46	100.01
268.676	-29.01
268.892	69.29
269.108	59.05
269.324	3.75
269.54	13.99
269.756	-4.44
269.972	11.95
270.188	61.1
270.403	-14.68
270.619	22.19
270.835	34.47
271.051	1.71
271.267	89.77
271.483	-6.49
271.698	36.52
271.914	75.43
272.13	77.48
272.346	-24.92
272.562	112.3
272.777	36.52
272.993	65.19
273.209	34.47
273.425	-10.58
273.64	-2.39
273.856	20.14
274.072	54.95
274.287	54.95
274.503	44.71
274.719	11.95
274.934	-0.34
275.15	26.28
275.366	112.3
275.581	65.19
275.797	52.91
276.012	26.28
276.228	54.95
276.444	20.14
276.659	28.33
276.875	73.39
277.09	52.91
277.306	-6.49
277.521	54.95
277.737	73.39
277.952	91.82
278.168	54.95
278.383	69.29
278.599	20.14
278.814	9.9
279.03	89.77
279.245	57
279.461	44.71
279.676	24.23
279.892	20.14
280.107	57
280.322	54.95
280.538	57
280.753	54.95
280.969	97.96
281.184	16.04
281.399	30.38
281.615	7.85
281.83	44.71
282.045	-2.39
282.26	28.33
282.476	-41.3
282.691	46.76
282.906	-0.34
283.122	54.95
283.337	26.28
283.552	77.48
283.767	13.99
283.983	20.14
284.198	48.81
284.413	75.43
284.628	24.23
284.843	-10.58
285.058	3.75
285.274	-8.53
285.489	13.99
285.704	5.8
285.919	-12.63
286.134	147.11
286.349	9.9
286.564	83.63
286.779	32.43
286.995	95.91
287.21	-20.82
287.425	7.85
287.64	38.57
287.855	69.29
288.07	-4.44
288.285	77.48
288.5	36.52
288.715	79.53
288.93	-10.58
289.145	40.62
289.36	85.67
289.575	20.14
289.79	63.15
290.004	54.95
290.219	59.05
290.434	83.63
290.649	-72.02
290.864	3.75
291.079	65.19
291.294	30.38
291.509	9.9
291.724	50.86
291.938	-31.06
292.153	73.39
292.368	-8.53
292.583	79.53
292.798	13.99
293.012	100.01
293.227	54.95
293.442	63.15
293.657	42.67
293.871	-16.73
294.086	36.52
294.301	63.15
294.516	22.19
294.73	69.29
294.945	81.58
295.16	48.81
295.374	42.67
295.589	57
295.804	57
296.018	26.28
296.233	48.81
296.447	138.92
296.662	24.23
296.877	26.28
297.091	11.95
297.306	69.29
297.52	102.06
297.735	71.34
297.949	-51.54
298.164	110.25
298.378	42.67
298.593	61.1
298.807	46.76
299.022	69.29
299.236	32.43
299.451	44.71
299.665	85.67
299.88	42.67
300.094	18.09
300.309	24.23
300.523	5.8
300.737	69.29
300.952	30.38
301.166	57
301.381	54.95
301.595	57
301.809	1.71
302.024	48.81
302.238	57
302.452	52.91
302.667	59.05
302.881	89.77
303.095	22.19
303.309	61.1
303.524	40.62
303.738	63.15
303.952	-12.63
304.166	67.24
304.381	-12.63
304.595	147.11
304.809	38.57
305.023	97.96
305.237	79.53
305.452	85.67
305.666	83.63
305.88	149.16
306.094	20.14
306.308	38.57
306.522	3.75
306.736	69.29
306.95	-4.44
307.164	3.75
307.379	32.43
307.593	71.34
307.807	130.73
308.021	42.67
308.235	69.29
308.449	85.67
308.663	100.01
308.877	63.15
309.091	20.14
309.305	40.62
309.519	61.1
309.733	97.96
309.947	11.95
310.161	91.82
310.374	87.72
310.588	87.72
310.802	36.52
311.016	28.33
311.23	44.71
311.444	65.19
311.658	3.75
311.872	97.96
312.085	79.53
312.299	63.15
312.513	30.38
312.727	87.72
312.941	-49.49
313.154	54.95
313.368	50.86
313.582	-55.64
313.796	71.34
314.009	52.91
314.223	77.48
314.437	30.38
314.651	44.71
314.864	67.24
315.078	30.38
315.292	26.28
315.505	22.19
315.719	28.33
315.933	57
316.146	122.54
316.36	30.38
316.573	130.73
316.787	30.38
317.001	11.95
317.214	75.43
317.428	59.05
317.641	91.82
317.855	-4.44
318.068	61.1
318.282	71.34
318.495	167.59
318.709	95.91
318.922	24.23
319.136	63.15
319.349	75.43
319.563	38.57
319.776	42.67
319.99	3.75
320.203	36.52
320.417	20.14
320.63	61.1
320.843	32.43
321.057	16.04
321.27	-8.53
321.483	50.86
321.697	81.58
321.91	102.06
322.124	57
322.337	42.67
322.55	-12.63
322.763	-8.53
322.977	57
323.19	36.52
323.403	18.09
323.617	67.24
323.83	93.87
324.043	46.76
324.256	132.78
324.469	38.57
324.683	61.1
324.896	42.67
325.109	26.28
325.322	11.95
325.535	110.25
325.748	95.91
325.962	38.57
326.175	48.81
326.388	93.87
326.601	44.71
326.814	42.67
327.027	30.38
327.24	124.58
327.453	28.33
327.666	20.14
327.879	91.82
328.092	34.47
328.305	38.57
328.518	38.57
328.731	32.43
328.944	71.34
329.157	61.1
329.37	46.76
329.583	48.81
329.796	48.81
330.009	54.95
330.222	44.71
330.435	73.39
330.648	100.01
330.861	97.96
331.073	34.47
331.286	59.05
331.499	18.09
331.712	-18.77
331.925	52.91
332.138	48.81
332.35	161.45
332.563	85.67
332.776	-26.96
332.989	-4.44
333.202	1.71
333.414	116.39
333.627	46.76
333.84	104.11
334.053	-4.44
334.265	52.91
334.478	61.1
334.691	79.53
334.903	114.34
335.116	79.53
335.329	59.05
335.541	75.43
335.754	59.05
335.966	67.24
336.179	34.47
336.392	-2.39
336.604	36.52
336.817	130.73
337.029	75.43
337.242	-18.77
337.454	81.58
337.667	100.01
337.88	65.19
338.092	-0.34
338.305	42.67
338.517	-2.39
338.729	36.52
338.942	87.72
339.154	13.99
339.367	28.33
339.579	153.26
339.792	26.28
340.004	40.62
340.217	122.54
340.429	77.48
340.641	69.29
340.854	73.39
341.066	16.04
341.278	1.71
341.491	63.15
341.703	52.91
341.915	38.57
342.128	48.81
342.34	104.11
342.552	5.8
342.764	79.53
342.977	52.91
343.189	91.82
343.401	110.25
343.613	46.76
343.826	48.81
344.038	42.67
344.25	69.29
344.462	34.47
344.674	54.95
344.886	44.71
345.099	3.75
345.311	32.43
345.523	73.39
345.735	83.63
345.947	89.77
346.159	67.24
346.371	87.72
346.583	73.39
346.795	136.87
347.007	3.75
347.219	77.48
347.431	54.95
347.643	57
347.855	46.76
348.067	75.43
348.279	26.28
348.491	13.99
348.703	36.52
348.915	108.2
349.127	48.81
349.339	118.44
349.551	42.67
349.763	85.67
349.975	-4.44
350.187	126.63
350.399	36.52
350.61	63.15
350.822	-24.92
351.034	48.81
351.246	-14.68
351.458	77.48
351.669	112.3
351.881	118.44
352.093	-57.68
352.305	143.02
352.517	18.09
352.728	106.15
352.94	44.71
353.152	97.96
353.363	114.34
353.575	79.53
353.787	100.01
353.999	32.43
354.21	63.15
354.422	-33.11
354.633	59.05
354.845	7.85
355.057	-4.44
355.268	87.72
355.48	5.8
355.692	93.87
355.903	59.05
356.115	63.15
356.326	7.85
356.538	28.33
356.749	42.67
356.961	95.91
357.172	34.47
357.384	24.23
357.595	95.91
357.807	36.52
358.018	63.15
358.23	89.77
358.441	85.67
358.653	73.39
358.864	46.76
359.075	87.72
359.287	-0.34
359.498	110.25
359.709	18.09
359.921	30.38
360.132	46.76
360.344	118.44
360.555	65.19
360.766	87.72
360.977	57
361.189	77.48
361.4	38.57
361.611	48.81
361.823	42.67
362.034	63.15
362.245	40.62
362.456	16.04
362.667	42.67
362.879	71.34
363.09	42.67
363.301	34.47
363.512	120.49
363.723	116.39
363.935	36.52
364.146	136.87
364.357	130.73
364.568	85.67
364.779	95.91
364.99	138.92
365.201	34.47
365.412	87.72
365.623	24.23
365.834	63.15
366.045	42.67
366.256	63.15
366.467	116.39
366.678	9.9
366.889	11.95
367.1	69.29
367.311	91.82
367.522	-12.63
367.733	100.01
367.944	46.76
368.155	9.9
368.366	28.33
368.577	69.29
368.788	69.29
368.999	18.09
369.209	71.34
369.42	104.11
369.631	132.78
369.842	42.67
370.053	149.16
370.264	79.53
370.474	81.58
370.685	54.95
370.896	67.24
371.107	85.67
371.317	46.76
371.528	32.43
371.739	77.48
371.95	61.1
372.16	54.95
372.371	65.19
372.582	126.63
372.792	77.48
373.003	89.77
373.214	112.3
373.424	114.34
373.635	50.86
373.846	85.67
374.056	59.05
374.267	67.24
374.477	93.87
374.688	87.72
374.898	71.34
375.109	73.39
375.319	44.71
375.53	73.39
375.74	75.43
375.951	20.14
376.161	24.23
376.372	114.34
376.582	-2.39
376.793	87.72
377.003	5.8
377.214	71.34
377.424	106.15
377.635	87.72
377.845	22.19
378.055	71.34
378.266	63.15
378.476	32.43
378.686	77.48
378.897	100.01
379.107	63.15
379.317	93.87
379.528	138.92
379.738	102.06
379.948	28.33
380.158	140.97
380.369	26.28
380.579	24.23
380.789	44.71
380.999	116.39
381.21	54.95
381.42	61.1
381.63	30.38
381.84	44.71
382.05	30.38
382.261	81.58
382.471	67.24
382.681	87.72
382.891	112.3
383.101	159.4
383.311	34.47
383.521	106.15
383.731	65.19
383.941	63.15
384.151	95.91
384.361	87.72
384.571	124.58
384.781	38.57
384.991	100.01
385.201	100.01
385.411	16.04
385.621	100.01
385.831	79.53
386.041	63.15
386.251	95.91
386.461	112.3
386.671	89.77
386.881	9.9
387.091	22.19
387.301	89.77
387.511	93.87
387.72	128.68
387.93	69.29
388.14	91.82
388.35	42.67
388.56	153.26
388.769	65.19
388.979	36.52
389.189	114.34
389.399	61.1
389.609	79.53
389.818	44.71
390.028	61.1
390.238	120.49
390.447	26.28
390.657	79.53
390.867	57
391.076	157.35
391.286	67.24
391.496	118.44
391.705	104.11
391.915	108.2
392.125	73.39
392.334	138.92
392.544	138.92
392.753	73.39
392.963	54.95
393.172	75.43
393.382	169.64
393.591	75.43
393.801	112.3
394.01	87.72
394.22	108.2
394.429	100.01
394.639	126.63
394.848	97.96
395.058	130.73
395.267	153.26
395.477	54.95
395.686	194.22
395.895	171.69
396.105	116.39
396.314	153.26
396.524	83.63
396.733	116.39
396.942	136.87
397.152	134.82
397.361	48.81
397.57	147.11
397.78	140.97
397.989	108.2
398.198	200.36
398.407	143.02
398.617	122.54
398.826	167.59
399.035	218.79
399.244	167.59
399.453	114.34
399.663	89.77
399.872	104.11
400.081	173.74
400.29	188.07
400.499	194.22
400.708	143.02
400.917	181.93
401.127	91.82
401.336	167.59
401.545	140.97
401.754	272.04
401.963	169.64
402.172	140.97
402.381	126.63
402.59	204.46
402.799	177.83
403.008	155.3
403.217	216.74
403.426	210.6
403.635	157.35
403.844	157.35
404.053	97.96
404.262	243.37
404.471	134.82
404.68	218.79
404.888	245.41
405.097	222.89
405.306	173.74
405.515	214.7
405.724	253.61
405.933	239.27
406.142	231.08
406.35	196.26
406.559	302.76
406.768	204.46
406.977	263.85
407.185	251.56
407.394	224.94
407.603	267.94
407.812	351.91
408.02	353.96
408.229	319.14
408.438	339.62
408.646	280.23
408.855	341.67
409.064	366.25
409.272	347.81
409.481	470.69
409.69	331.43
409.898	304.81
410.107	466.6
410.315	466.6
410.524	427.68
410.733	554.66
410.941	431.78
411.15	605.86
411.358	544.42
411.567	640.67
411.775	568.99
411.984	532.13
412.192	581.28
412.401	599.71
412.609	722.59
412.818	751.26
413.026	718.5
413.234	755.36
413.443	644.77
413.651	753.31
413.86	792.22
414.068	880.29
414.276	847.52
414.485	849.57
414.693	915.1
414.901	1056.41
415.11	1058.46
415.318	984.73
415.526	1046.17
415.734	1044.12
415.943	1132.19
416.151	1150.62
416.359	1207.96
416.567	1277.59
416.776	1308.31
416.984	1400.47
417.192	1488.53
417.4	1433.24
417.608	1388.18
417.817	1476.24
418.025	1556.11
418.233	1742.48
418.441	1715.86
418.649	1685.14
418.857	1799.82
419.065	1828.49
419.273	1881.74
419.481	1865.36
419.689	2072.2
419.897	2231.94
420.105	2170.51
420.313	2272.9
420.521	2315.91
420.729	2422.41
420.937	2516.61
421.145	2526.85
421.353	2635.39
421.561	2780.8
421.769	2872.96
421.977	2928.25
422.185	3094.14
422.393	3151.48
422.601	3341.94
422.809	3356.28
423.017	3370.62
423.224	3413.62
423.432	3806.83
423.64	3714.67
423.848	4034.16
424.056	3821.17
424.263	4200.04
424.471	4249.19
424.679	4257.39
424.887	4601.44
425.094	4609.64
425.302	4652.64
425.51	4843.1
425.718	5017.18
425.925	5070.43
426.133	5305.95
426.341	5533.27
426.548	5781.07
426.756	5803.6
426.964	5824.08
427.171	6184.52
427.379	6340.17
427.586	6307.4
427.794	6583.88
428.001	6831.68
428.209	7286.33
428.417	7087.68
428.624	7579.19
428.832	7667.25
429.039	7611.96
429.247	7740.98
429.454	8365.61
429.662	8810.02
429.869	8459.82
430.076	8896.03
430.284	8584.74
430.491	8918.56
430.699	9621.02
430.906	9528.86
431.114	9682.45
431.321	10094.1
431.528	10307.09
431.736	10958.34
431.943	11417.08
432.15	11017.73
432.358	11144.7
432.565	11832.82
432.772	11812.34
432.979	12219.89
433.187	12613.1
433.394	12584.43
433.601	13815.26
433.808	13536.73
434.016	13585.88
434.223	13952.47
434.43	14943.69
434.637	14597.58
434.844	15832.51
435.052	15887.8
435.259	15941.05
435.466	15908.28
435.673	15803.83
435.88	16733.61
436.087	17620.38
436.294	17892.76
436.501	17173.92
436.708	17597.85
436.915	18148.76
437.122	18965.9
437.329	18969.99
437.537	19615.1
437.743	20051.32
437.95	19694.97
438.157	20788.59
438.364	21478.75
438.571	21335.4
438.778	21460.32
438.985	23715.14
439.192	22455.64
439.399	23143.75
439.606	22859.09
439.813	24065.34
440.02	25783.59
440.227	25562.4
440.433	25163.05
440.64	25896.22
440.847	25564.45
441.054	26131.74
441.261	28099.84
441.467	27864.32
441.674	28321.02
441.881	29277.42
442.088	29213.93
442.294	28955.89
442.501	29748.45
442.708	30428.38
442.914	31259.85
443.121	32611.51
443.328	32122.05
443.534	34059.43
443.741	33180.85
443.948	32910.52
444.154	35286.16
444.361	34700.44
444.568	35376.27
444.774	35200.15
444.981	35701.9
445.187	36334.72
445.394	37909.61
445.6	37590.13
445.807	41282.61
446.013	39418.96
446.22	40240.2
446.426	41968.68
446.633	41940.01
446.839	43209.75
447.046	41405.49
447.252	44137.48
447.459	44395.53
447.665	43875.34
447.871	45624.31
448.078	47576.02
448.284	45732.85
448.491	46693.35
448.697	48542.66
448.903	49288.12
449.11	48913.34
449.316	48638.92
449.522	49480.63
449.728	50586.53
449.935	51143.58
450.141	50856.87
450.347	52278.16
450.553	50736.04
450.76	50852.77
450.966	53123.97
451.172	52519.82
451.378	53576.57
451.584	52511.63
451.791	54010.74
451.997	53500.79
452.203	54678.38
452.409	54600.55
452.615	54117.23
452.821	52683.65
453.027	51712.92
453.233	54197.1
453.44	52603.78
453.646	52822.92
453.852	53412.73
454.058	54582.12
454.264	52560.78
454.47	53756.79
454.676	52575.11
454.882	54045.55
455.088	49783.73
455.294	50070.45
455.5	51071.9
455.705	51579.8
455.911	49648.57
456.117	48761.79
456.323	47887.31
456.529	45626.35
456.735	47866.83
456.941	46300.14
457.147	45454.33
457.352	44297.22
457.558	43748.37
457.764	44030.99
457.97	42822.69
458.176	42234.92
458.381	42523.68
458.587	39787.6
458.793	40152.13
458.999	38194.28
459.204	41024.57
459.41	39996.49
459.616	37049.46
459.821	36824.18
460.027	36922.49
460.233	35861.64
460.438	34462.88
460.644	35128.47
460.85	33184.94
461.055	32572.6
461.261	32472.25
461.466	30127.33
461.672	29406.44
461.878	31628.49
462.083	29435.11
462.289	28574.97
462.494	28230.91
462.7	27129.1
462.905	26623.25
463.111	27348.23
463.316	27694.34
463.522	26832.15
463.727	26922.26
463.932	26844.43
464.138	26584.34
464.343	26817.81
464.549	25605.41
464.754	26709.27
464.959	26324.25
465.165	26471.7
465.37	25300.26
465.575	24753.46
465.781	25406.76
465.986	26187.04
466.191	24995.12
466.397	24440.12
466.602	23172.43
466.807	23930.17
467.012	24005.95
467.218	23934.27
467.423	23252.3
