Data from USB4F104151__71__12-36-44-574.txt Node

Date: Fri Mar 14 12:36:44 EDT 2025
User: louis
Spectrometer: USB4F10415
Trigger mode: 4
Integration Time (sec): 2.000000E-2
Scans to average: 1
Electric dark correction enabled: true
Nonlinearity correction enabled: false
Boxcar width: 0
XAxis mode: Wavelengths
Number of Pixels in Spectrum: 3648
>>>>>Begin Spectral Data<<<<<
178.204	-78.68
178.424	-78.68
178.644	-78.68
178.864	-56.15
179.084	-90.96
179.304	-0.85
179.524	48.3
179.744	-19.29
179.964	17.58
180.184	-31.57
180.404	-21.33
180.624	-23.38
180.844	19.63
181.064	-31.57
181.283	13.48
181.503	13.48
181.723	15.53
181.943	1.19
182.163	58.54
182.383	-2.9
182.602	-0.85
182.822	54.44
183.042	60.59
183.262	5.29
183.482	50.35
183.701	25.77
183.921	31.91
184.141	3.24
184.361	89.26
184.58	25.77
184.8	-0.85
185.02	-2.9
185.239	52.39
185.459	-11.09
185.679	19.63
185.898	91.31
186.118	33.96
186.338	72.87
186.557	23.72
186.777	33.96
186.997	19.63
187.216	-4.95
187.436	60.59
187.655	19.63
187.875	15.53
188.095	11.43
188.314	-0.85
188.534	-2.9
188.753	11.43
188.973	66.73
189.192	-11.09
189.412	-47.96
189.631	99.5
189.851	15.53
190.07	64.68
190.29	-58.2
190.509	13.48
190.729	5.29
190.948	72.87
191.168	105.64
191.387	64.68
191.607	7.34
191.826	70.83
192.045	13.48
192.265	-9.05
192.484	-0.85
192.704	50.35
192.923	40.11
193.142	48.3
193.362	-2.9
193.581	58.54
193.8	52.39
194.02	-17.24
194.239	5.29
194.458	29.87
194.678	11.43
194.897	76.97
195.116	83.11
195.335	44.2
195.555	62.63
195.774	-37.72
195.993	17.58
196.212	1.19
196.432	83.11
196.651	44.2
196.87	50.35
197.089	103.59
197.308	-13.14
197.528	60.59
197.747	40.11
197.966	91.31
198.185	91.31
198.404	-21.33
198.623	44.2
198.842	62.63
199.062	54.44
199.281	23.72
199.5	89.26
199.719	107.69
199.938	-19.29
200.157	113.83
200.376	-41.81
200.595	91.31
200.814	62.63
201.033	42.15
201.252	11.43
201.471	132.26
201.69	58.54
201.909	-31.57
202.128	44.2
202.347	54.44
202.566	-4.95
202.785	115.88
203.004	29.87
203.223	31.91
203.442	56.49
203.661	-15.19
203.879	48.3
204.098	17.58
204.317	60.59
204.536	33.96
204.755	44.2
204.974	95.4
205.193	48.3
205.411	130.22
205.63	-37.72
205.849	-50
206.068	56.49
206.287	-37.72
206.505	40.11
206.724	85.16
206.943	9.39
207.162	68.78
207.381	124.07
207.599	62.63
207.818	-29.52
208.037	19.63
208.255	-54.1
208.474	21.67
208.693	27.82
208.911	33.96
209.13	19.63
209.349	58.54
209.567	42.15
209.786	9.39
210.005	79.02
210.223	103.59
210.442	-4.95
210.661	3.24
210.879	60.59
211.098	-9.05
211.316	46.25
211.535	66.73
211.753	29.87
211.972	-0.85
212.191	7.34
212.409	70.83
212.628	68.78
212.846	72.87
213.065	-4.95
213.283	87.21
213.502	27.82
213.72	31.91
213.938	29.87
214.157	48.3
214.375	27.82
214.594	-9.05
214.812	7.34
215.031	36.01
215.249	-39.76
215.467	50.35
215.686	68.78
215.904	72.87
216.122	46.25
216.341	66.73
216.559	31.91
216.778	87.21
216.996	105.64
217.214	-13.14
217.432	5.29
217.651	-15.19
217.869	19.63
218.087	81.07
218.306	13.48
218.524	54.44
218.742	60.59
218.96	33.96
219.179	113.83
219.397	40.11
219.615	79.02
219.833	134.31
220.051	62.63
220.27	25.77
220.488	54.44
220.706	9.39
220.924	36.01
221.142	3.24
221.36	5.29
221.578	85.16
221.796	1.19
222.015	64.68
222.233	40.11
222.451	33.96
222.669	29.87
222.887	7.34
223.105	-7
223.323	31.91
223.541	27.82
223.759	66.73
223.977	91.31
224.195	38.06
224.413	5.29
224.631	23.72
224.849	44.2
225.067	11.43
225.285	11.43
225.503	42.15
225.721	-7
225.939	33.96
226.157	54.44
226.375	85.16
226.592	5.29
226.81	48.3
227.028	-29.52
227.246	134.31
227.464	76.97
227.682	36.01
227.9	25.77
228.117	-37.72
228.335	23.72
228.553	-31.57
228.771	13.48
228.989	142.5
229.206	95.4
229.424	5.29
229.642	91.31
229.86	76.97
230.077	56.49
230.295	9.39
230.513	-35.67
230.731	25.77
230.948	36.01
231.166	93.35
231.384	42.15
231.601	42.15
231.819	70.83
232.037	44.2
232.254	11.43
232.472	109.74
232.689	85.16
232.907	31.91
233.125	29.87
233.342	23.72
233.56	17.58
233.777	64.68
233.995	-47.96
234.213	-2.9
234.43	95.4
234.648	-17.24
234.865	44.2
235.083	38.06
235.3	13.48
235.518	79.02
235.735	70.83
235.953	111.78
236.17	17.58
236.388	52.39
236.605	33.96
236.822	85.16
237.04	52.39
237.257	19.63
237.475	-66.39
237.692	109.74
237.909	23.72
238.127	115.88
238.344	74.92
238.562	17.58
238.779	-19.29
238.996	-21.33
239.214	42.15
239.431	33.96
239.648	-31.57
239.865	56.49
240.083	76.97
240.3	81.07
240.517	29.87
240.735	113.83
240.952	48.3
241.169	9.39
241.386	48.3
241.603	-4.95
241.821	1.19
242.038	95.4
242.255	93.35
242.472	-23.38
242.689	21.67
242.907	56.49
243.124	56.49
243.341	5.29
243.558	1.19
243.775	13.48
243.992	-2.9
244.209	-37.72
244.426	134.31
244.643	58.54
244.86	40.11
245.078	7.34
245.295	70.83
245.512	50.35
245.729	-58.2
245.946	62.63
246.163	70.83
246.38	97.45
246.597	33.96
246.814	74.92
247.031	50.35
247.248	31.91
247.464	76.97
247.681	54.44
247.898	1.19
248.115	11.43
248.332	13.48
248.549	52.39
248.766	29.87
248.983	101.55
249.2	111.78
249.417	23.72
249.633	-11.09
249.85	-19.29
250.067	46.25
250.284	23.72
250.501	72.87
250.717	113.83
250.934	46.25
251.151	36.01
251.368	66.73
251.585	81.07
251.801	-33.62
252.018	31.91
252.235	23.72
252.451	56.49
252.668	56.49
252.885	52.39
253.102	3.24
253.318	-0.85
253.535	-7
253.752	-9.05
253.968	19.63
254.185	19.63
254.401	17.58
254.618	97.45
254.835	38.06
255.051	81.07
255.268	31.91
255.484	103.59
255.701	-35.67
255.917	89.26
256.134	-21.33
256.351	38.06
256.567	5.29
256.784	56.49
257	25.77
257.217	142.5
257.433	13.48
257.65	54.44
257.866	83.11
258.082	31.91
258.299	5.29
258.515	60.59
258.732	52.39
258.948	81.07
259.165	33.96
259.381	50.35
259.597	50.35
259.814	130.22
260.03	46.25
260.246	83.11
260.463	-9.05
260.679	38.06
260.895	36.01
261.112	95.4
261.328	70.83
261.544	105.64
261.761	74.92
261.977	15.53
262.193	-7
262.409	36.01
262.626	40.11
262.842	7.34
263.058	1.19
263.274	81.07
263.49	19.63
263.707	85.16
263.923	56.49
264.139	64.68
264.355	97.45
264.571	89.26
264.787	27.82
265.004	33.96
265.22	25.77
265.436	144.55
265.652	54.44
265.868	85.16
266.084	29.87
266.3	29.87
266.516	15.53
266.732	-0.85
266.948	72.87
267.164	87.21
267.38	40.11
267.596	48.3
267.812	11.43
268.028	105.64
268.244	13.48
268.46	54.44
268.676	-9.05
268.892	70.83
269.108	74.92
269.324	11.43
269.54	21.67
269.756	85.16
269.972	-19.29
270.188	56.49
270.403	-0.85
270.619	-39.76
270.835	31.91
271.051	60.59
271.267	81.07
271.483	-15.19
271.698	85.16
271.914	93.35
272.13	66.73
272.346	46.25
272.562	-7
272.777	44.2
272.993	46.25
273.209	68.78
273.425	38.06
273.64	31.91
273.856	31.91
274.072	31.91
274.287	-64.34
274.503	15.53
274.719	66.73
274.934	122.02
275.15	56.49
275.366	60.59
275.581	21.67
275.797	50.35
276.012	9.39
276.228	122.02
276.444	19.63
276.659	76.97
276.875	38.06
277.09	11.43
277.306	7.34
277.521	33.96
277.737	13.48
277.952	64.68
278.168	91.31
278.383	99.5
278.599	7.34
278.814	99.5
279.03	60.59
279.245	99.5
279.461	1.19
279.676	-9.05
279.892	-29.52
280.107	-66.39
280.322	31.91
280.538	36.01
280.753	1.19
280.969	19.63
281.184	19.63
281.399	91.31
281.615	13.48
281.83	5.29
282.045	70.83
282.26	27.82
282.476	42.15
282.691	70.83
282.906	11.43
283.122	46.25
283.337	97.45
283.552	29.87
283.767	1.19
283.983	109.74
284.198	-23.38
284.413	46.25
284.628	19.63
284.843	91.31
285.058	13.48
285.274	7.34
285.489	-7
285.704	89.26
285.919	48.3
286.134	93.35
286.349	-31.57
286.564	3.24
286.779	68.78
286.995	27.82
287.21	17.58
287.425	29.87
287.64	29.87
287.855	7.34
288.07	-25.43
288.285	17.58
288.5	99.5
288.715	27.82
288.93	-33.62
289.145	31.91
289.36	36.01
289.575	72.87
289.79	93.35
290.004	74.92
290.219	54.44
290.434	66.73
290.649	-41.81
290.864	25.77
291.079	48.3
291.294	-0.85
291.509	58.54
291.724	9.39
291.938	42.15
292.153	58.54
292.368	99.5
292.583	29.87
292.798	48.3
293.012	68.78
293.227	60.59
293.442	62.63
293.657	46.25
293.871	72.87
294.086	21.67
294.301	85.16
294.516	50.35
294.73	1.19
294.945	72.87
295.16	50.35
295.374	40.11
295.589	130.22
295.804	56.49
296.018	95.4
296.233	5.29
296.447	105.64
296.662	48.3
296.877	31.91
297.091	97.45
297.306	66.73
297.52	31.91
297.735	107.69
297.949	31.91
298.164	115.88
298.378	91.31
298.593	29.87
298.807	13.48
299.022	97.45
299.236	44.2
299.451	-11.09
299.665	36.01
299.88	13.48
300.094	74.92
300.309	81.07
300.523	117.93
300.737	87.21
300.952	19.63
301.166	-11.09
301.381	-4.95
301.595	36.01
301.809	97.45
302.024	50.35
302.238	27.82
302.452	29.87
302.667	66.73
302.881	72.87
303.095	42.15
303.309	46.25
303.524	-21.33
303.738	48.3
303.952	79.02
304.166	87.21
304.381	17.58
304.595	31.91
304.809	7.34
305.023	66.73
305.237	60.59
305.452	66.73
305.666	62.63
305.88	122.02
306.094	46.25
306.308	66.73
306.522	76.97
306.736	19.63
306.95	54.44
307.164	64.68
307.379	3.24
307.593	72.87
307.807	56.49
308.021	95.4
308.235	81.07
308.449	31.91
308.663	31.91
308.877	134.31
309.091	76.97
309.305	56.49
309.519	9.39
309.733	66.73
309.947	-15.19
310.161	64.68
310.374	-17.24
310.588	62.63
310.802	50.35
311.016	-4.95
311.23	54.44
311.444	46.25
311.658	66.73
311.872	81.07
312.085	81.07
312.299	101.55
312.513	109.74
312.727	70.83
312.941	85.16
313.154	91.31
313.368	42.15
313.582	111.78
313.796	3.24
314.009	89.26
314.223	68.78
314.437	13.48
314.651	89.26
314.864	27.82
315.078	87.21
315.292	19.63
315.505	107.69
315.719	58.54
315.933	38.06
316.146	17.58
316.36	33.96
316.573	83.11
316.787	74.92
317.001	3.24
317.214	81.07
317.428	179.37
317.641	91.31
317.855	-2.9
318.068	74.92
318.282	107.69
318.495	33.96
318.709	76.97
318.922	-17.24
319.136	113.83
319.349	87.21
319.563	25.77
319.776	91.31
319.99	-39.76
320.203	62.63
320.417	52.39
320.63	74.92
320.843	3.24
321.057	89.26
321.27	48.3
321.483	42.15
321.697	124.07
321.91	40.11
322.124	160.94
322.337	25.77
322.55	62.63
322.763	1.19
322.977	103.59
323.19	113.83
323.403	117.93
323.617	87.21
323.83	66.73
324.043	54.44
324.256	46.25
324.469	-23.38
324.683	70.83
324.896	40.11
325.109	64.68
325.322	-23.38
325.535	103.59
325.748	117.93
325.962	99.5
326.175	101.55
326.388	38.06
326.601	29.87
326.814	76.97
327.027	48.3
327.24	93.35
327.453	-86.87
327.666	9.39
327.879	60.59
328.092	-9.05
328.305	76.97
328.518	72.87
328.731	36.01
328.944	85.16
329.157	83.11
329.37	79.02
329.583	25.77
329.796	62.63
330.009	19.63
330.222	46.25
330.435	83.11
330.648	40.11
330.861	23.72
331.073	70.83
331.286	56.49
331.499	107.69
331.712	66.73
331.925	76.97
332.138	17.58
332.35	58.54
332.563	79.02
332.776	25.77
332.989	87.21
333.202	-17.24
333.414	62.63
333.627	93.35
333.84	56.49
334.053	46.25
334.265	27.82
334.478	117.93
334.691	60.59
334.903	36.01
335.116	50.35
335.329	79.02
335.541	85.16
335.754	97.45
335.966	72.87
336.179	52.39
336.392	126.12
336.604	89.26
336.817	29.87
337.029	56.49
337.242	81.07
337.454	68.78
337.667	29.87
337.88	93.35
338.092	50.35
338.305	33.96
338.517	68.78
338.729	85.16
338.942	87.21
339.154	48.3
339.367	56.49
339.579	132.26
339.792	-21.33
340.004	76.97
340.217	68.78
340.429	89.26
340.641	97.45
340.854	42.15
341.066	72.87
341.278	150.7
341.491	115.88
341.703	66.73
341.915	64.68
342.128	83.11
342.34	81.07
342.552	36.01
342.764	27.82
342.977	83.11
343.189	89.26
343.401	46.25
343.613	-19.29
343.826	101.55
344.038	1.19
344.25	-15.19
344.462	72.87
344.674	23.72
344.886	64.68
345.099	132.26
345.311	107.69
345.523	70.83
345.735	52.39
345.947	115.88
346.159	33.96
346.371	87.21
346.583	97.45
346.795	36.01
347.007	-7
347.219	83.11
347.431	21.67
347.643	111.78
347.855	-2.9
348.067	66.73
348.279	134.31
348.491	42.15
348.703	31.91
348.915	44.2
349.127	54.44
349.339	27.82
349.551	76.97
349.763	68.78
349.975	42.15
350.187	60.59
350.399	126.12
350.61	93.35
350.822	83.11
351.034	68.78
351.246	87.21
351.458	85.16
351.669	99.5
351.881	48.3
352.093	76.97
352.305	-37.72
352.517	58.54
352.728	62.63
352.94	33.96
353.152	60.59
353.363	56.49
353.575	50.35
353.787	60.59
353.999	70.83
354.21	76.97
354.422	72.87
354.633	109.74
354.845	42.15
355.057	60.59
355.268	66.73
355.48	115.88
355.692	165.03
355.903	33.96
356.115	11.43
356.326	36.01
356.538	54.44
356.749	89.26
356.961	132.26
357.172	81.07
357.384	95.4
357.595	29.87
357.807	52.39
358.018	58.54
358.23	105.64
358.441	91.31
358.653	17.58
358.864	72.87
359.075	38.06
359.287	103.59
359.498	79.02
359.709	31.91
359.921	36.01
360.132	60.59
360.344	148.65
360.555	50.35
360.766	50.35
360.977	44.2
361.189	68.78
361.4	62.63
361.611	103.59
361.823	117.93
362.034	109.74
362.245	21.67
362.456	42.15
362.667	105.64
362.879	66.73
363.09	33.96
363.301	122.02
363.512	93.35
363.723	144.55
363.935	62.63
364.146	95.4
364.357	91.31
364.568	62.63
364.779	64.68
364.99	95.4
365.201	54.44
365.412	83.11
365.623	-33.62
365.834	64.68
366.045	60.59
366.256	89.26
366.467	89.26
366.678	74.92
366.889	17.58
367.1	107.69
367.311	99.5
367.522	72.87
367.733	81.07
367.944	46.25
368.155	21.67
368.366	56.49
368.577	124.07
368.788	138.41
368.999	56.49
369.209	109.74
369.42	85.16
369.631	115.88
369.842	42.15
370.053	109.74
370.264	68.78
370.474	17.58
370.685	5.29
370.896	50.35
371.107	126.12
371.317	23.72
371.528	87.21
371.739	107.69
371.95	146.6
372.16	115.88
372.371	50.35
372.582	66.73
372.792	46.25
373.003	62.63
373.214	19.63
373.424	140.46
373.635	25.77
373.846	46.25
374.056	42.15
374.267	81.07
374.477	42.15
374.688	29.87
374.898	13.48
375.109	33.96
375.319	85.16
375.53	103.59
375.74	46.25
375.951	25.77
376.161	60.59
376.372	76.97
376.582	87.21
376.793	103.59
377.003	9.39
377.214	122.02
377.424	130.22
377.635	72.87
377.845	56.49
378.055	99.5
378.266	36.01
378.476	5.29
378.686	46.25
378.897	117.93
379.107	50.35
379.317	103.59
379.528	42.15
379.738	54.44
379.948	87.21
380.158	19.63
380.369	50.35
380.579	79.02
380.789	169.13
380.999	64.68
381.21	99.5
381.42	76.97
381.63	31.91
381.84	72.87
382.05	23.72
382.261	132.26
382.471	128.17
382.681	33.96
382.891	128.17
383.101	74.92
383.311	83.11
383.521	74.92
383.731	23.72
383.941	40.11
384.151	103.59
384.361	56.49
384.571	5.29
384.781	66.73
384.991	36.01
385.201	105.64
385.411	115.88
385.621	136.36
385.831	146.6
386.041	79.02
386.251	99.5
386.461	169.13
386.671	72.87
386.881	70.83
387.091	93.35
387.301	33.96
387.511	140.46
387.72	113.83
387.93	93.35
388.14	83.11
388.35	42.15
388.56	46.25
388.769	52.39
388.979	40.11
389.189	95.4
389.399	42.15
389.609	146.6
389.818	195.75
390.028	38.06
390.238	148.65
390.447	11.43
390.657	15.53
390.867	76.97
391.076	76.97
391.286	134.31
391.496	126.12
391.705	42.15
391.915	140.46
392.125	132.26
392.334	99.5
392.544	150.7
392.753	109.74
392.963	15.53
393.172	79.02
393.382	97.45
393.591	132.26
393.801	66.73
394.01	83.11
394.22	56.49
394.429	105.64
394.639	183.46
394.848	70.83
395.058	25.77
395.267	56.49
395.477	162.98
395.686	136.36
395.895	93.35
396.105	81.07
396.314	154.79
396.524	111.78
396.733	60.59
396.942	109.74
397.152	158.89
397.361	156.84
397.57	152.74
397.78	40.11
397.989	181.42
398.198	179.37
398.407	130.22
398.617	165.03
398.826	152.74
399.035	81.07
399.244	68.78
399.453	158.89
399.663	138.41
399.872	142.5
400.081	91.31
400.29	148.65
400.499	144.55
400.708	189.61
400.917	138.41
401.127	152.74
401.336	193.7
401.545	173.22
401.754	167.08
401.963	220.33
402.172	85.16
402.381	177.32
402.59	89.26
402.799	171.18
403.008	210.09
403.217	156.84
403.426	195.75
403.635	154.79
403.844	181.42
404.053	205.99
404.262	144.55
404.471	255.14
404.68	130.22
404.888	199.85
405.097	171.18
405.306	195.75
405.515	255.14
405.724	265.38
405.933	275.62
406.142	236.71
406.35	298.15
406.559	253.09
406.768	255.14
406.977	355.49
407.185	294.05
407.394	300.2
407.603	308.39
407.812	324.77
408.02	339.11
408.229	369.83
408.438	298.15
408.646	324.77
408.855	322.73
409.064	367.78
409.272	330.92
409.481	410.79
409.69	371.88
409.898	449.7
410.107	343.21
410.315	435.36
410.524	474.28
410.733	492.71
410.941	414.88
411.15	464.04
411.358	562.34
411.567	631.97
411.775	470.18
411.984	570.53
412.192	541.86
412.401	654.5
412.609	713.89
412.818	584.87
413.026	629.92
413.234	740.51
413.443	701.6
413.651	748.7
413.86	736.42
414.068	787.61
414.276	834.72
414.485	830.62
414.693	869.53
414.901	992.41
415.11	904.35
415.318	1023.13
415.526	1041.56
415.734	1027.23
415.943	1035.42
416.151	1100.95
416.359	1039.51
416.567	1105.05
416.776	1244.31
416.984	1283.22
417.192	1391.77
417.4	1322.13
417.608	1295.51
417.817	1463.44
418.025	1414.29
418.233	1670.29
418.441	1508.5
418.649	1635.47
418.857	1727.63
419.065	1737.87
419.273	1713.3
419.481	1787.02
419.689	1836.17
419.897	2077.83
420.105	2118.79
420.313	2167.95
420.521	2079.88
420.729	2256.01
420.937	2417.8
421.145	2479.24
421.353	2591.88
421.561	2649.22
421.769	2700.42
421.977	2778.24
422.185	2743.42
422.393	2845.82
422.601	3099.77
422.809	3161.21
423.017	3183.74
423.224	3267.7
423.432	3433.59
423.64	3447.93
423.848	3677.3
424.056	3585.14
424.263	3892.34
424.471	3890.29
424.679	3964.01
424.887	4318.31
425.094	4271.21
425.302	4273.26
425.51	4498.53
425.718	4465.77
425.925	4703.33
426.133	4920.42
426.341	5117.02
426.548	5416.02
426.756	5293.15
426.964	5504.09
427.171	5672.02
427.379	5798.99
427.586	5958.74
427.794	6169.68
428.001	6444.1
428.209	6734.92
428.417	6612.04
428.624	7074.88
428.832	7150.65
429.039	7087.17
429.247	7169.09
429.454	7773.24
429.662	8322.09
429.869	7846.96
430.076	8199.21
430.284	8098.86
430.491	8514.6
430.699	8975.39
430.906	8928.29
431.114	9028.64
431.321	9378.84
431.528	9702.42
431.736	10142.74
431.943	10615.82
432.15	10443.79
432.358	10511.37
432.565	11031.55
432.772	10851.33
432.979	11461.63
433.187	11834.36
433.394	11811.83
433.601	12405.74
433.808	12905.45
434.016	12579.82
434.223	13251.55
434.43	14054.36
434.637	13710.3
434.844	14318.54
435.052	14887.88
435.259	14638.03
435.466	14797.77
435.673	14844.87
435.88	15786.94
436.087	16452.53
436.294	16536.49
436.501	16182.2
436.708	16497.58
436.915	17204.13
437.122	17724.32
437.329	17847.19
437.537	18488.21
437.743	18602.89
437.95	18373.52
438.157	19350.4
438.364	20071.29
438.571	19946.36
438.778	20177.78
438.985	22053.72
439.192	21171.05
439.399	21842.78
439.606	21326.69
439.813	22666.06
440.02	23919.42
440.227	23214.92
440.433	23184.2
440.64	24036.16
440.847	23933.76
441.054	24341.3
441.261	26077.98
441.467	25776.93
441.674	26721.04
441.881	27253.51
442.088	27323.15
442.294	27005.71
442.501	27489.03
442.708	28316.41
442.914	29367.02
443.121	30692.05
443.328	29823.72
443.534	31652.55
443.741	30939.86
443.948	30427.87
444.154	33168.05
444.361	32367.29
444.568	32764.6
444.774	32664.25
444.981	33424.04
445.187	34302.62
445.394	35844.74
445.6	35533.45
445.807	38480.48
446.013	36850.3
446.22	37493.36
446.426	39080.53
446.633	39156.31
446.839	40546.88
447.046	38718.04
447.252	41177.65
447.459	40829.5
447.665	40999.48
447.871	42787.36
448.078	44829.18
448.284	42916.38
448.491	43616.79
448.697	45179.39
448.903	45865.45
449.11	46432.74
449.316	45855.21
449.522	46547.43
449.728	47473.11
449.935	47962.57
450.141	47778.26
450.347	48806.34
450.553	47704.53
450.76	48206.28
450.966	49840.56
451.172	48912.83
451.378	50459.05
451.584	49138.11
451.791	50575.78
451.997	50448.81
452.203	51401.11
452.409	51243.42
452.615	51153.31
452.821	49181.12
453.027	48687.56
453.233	51206.56
453.44	49031.61
453.646	49635.77
453.852	50319.79
454.058	50997.66
454.264	49166.78
454.47	50457
454.676	49156.54
454.882	50950.56
455.088	46477.8
455.294	47319.51
455.5	47557.08
455.705	48513.48
455.911	46817.76
456.117	45613.55
456.323	45087.23
456.529	42879.52
456.735	44470.79
456.941	43710.99
457.147	42279.46
457.352	41585.2
457.558	40858.17
457.764	41126.46
457.97	40200.77
458.176	39510.61
458.381	39406.16
458.587	37448.3
458.793	37814.89
458.999	35728.01
459.204	38070.89
459.41	37030.52
459.616	34454.17
459.821	34984.6
460.027	34650.78
460.233	33774.25
460.438	32699.06
460.644	32979.64
460.85	30898.9
461.055	30909.14
461.261	30382.81
461.466	28330.75
461.672	27267.85
461.878	29547.24
462.083	27493.13
462.289	27077.39
462.494	26745.62
462.7	25219.88
462.905	24836.91
463.111	25725.73
463.316	25926.43
463.522	25262.89
463.727	25054
463.932	25275.18
464.138	25125.68
464.343	25152.3
464.549	24193.85
464.754	25058.09
464.959	25056.04
465.165	24533.81
465.37	23604.03
465.575	23182.15
465.781	23849.79
465.986	24189.75
466.191	22952.78
466.397	22817.61
466.602	21584.74
466.807	22455.12
467.012	22405.97
