Data from USB4F104151__81__12-36-55-192.txt Node

Date: Fri Mar 14 12:36:55 EDT 2025
User: louis
Spectrometer: USB4F10415
Trigger mode: 4
Integration Time (sec): 2.000000E-2
Scans to average: 1
Electric dark correction enabled: true
Nonlinearity correction enabled: false
Boxcar width: 0
XAxis mode: Wavelengths
Number of Pixels in Spectrum: 3648
>>>>>Begin Spectral Data<<<<<
178.204	-50.52
178.424	-50.52
178.644	-50.52
178.864	-73.04
179.084	-5.46
179.304	12.97
179.524	27.31
179.744	35.5
179.964	4.78
180.184	-11.61
180.404	8.87
180.624	-73.04
180.844	25.26
181.064	12.97
181.283	-13.65
181.503	-48.47
181.723	19.11
181.943	21.16
182.163	-1.37
182.383	-44.37
182.602	-32.08
182.822	10.92
183.042	60.07
183.262	-3.41
183.482	45.74
183.701	-17.75
183.921	84.65
184.141	62.12
184.361	121.51
184.58	64.17
184.8	49.83
185.02	10.92
185.239	84.65
185.459	62.12
185.679	37.55
185.898	29.35
186.118	109.23
186.338	31.4
186.557	80.55
186.777	23.21
186.997	45.74
187.216	86.7
187.436	31.4
187.655	-23.89
187.875	29.35
188.095	62.12
188.314	4.78
188.534	39.59
188.753	92.84
188.973	41.64
189.192	66.22
189.412	-27.99
189.631	-32.08
189.851	49.83
190.07	62.12
190.29	58.03
190.509	39.59
190.729	78.51
190.948	78.51
191.168	168.62
191.387	119.46
191.607	-17.75
191.826	96.94
192.045	62.12
192.265	33.45
192.484	39.59
192.704	76.46
192.923	53.93
193.142	55.98
193.362	15.02
193.581	90.79
193.8	12.97
194.02	43.69
194.239	31.4
194.458	53.93
194.678	25.26
194.897	4.78
195.116	76.46
195.335	31.4
195.555	8.87
195.774	152.23
195.993	62.12
196.212	37.55
196.432	51.88
196.651	45.74
196.87	33.45
197.089	119.46
197.308	21.16
197.528	45.74
197.747	-9.56
197.966	45.74
198.185	90.79
198.404	12.97
198.623	72.36
198.842	21.16
199.062	45.74
199.281	58.03
199.5	25.26
199.719	35.5
199.938	58.03
200.157	12.97
200.376	60.07
200.595	78.51
200.814	12.97
201.033	39.59
201.252	66.22
201.471	144.04
201.69	152.23
201.909	29.35
202.128	8.87
202.347	82.6
202.566	111.27
202.785	70.31
203.004	33.45
203.223	35.5
203.442	-25.94
203.661	58.03
203.879	55.98
204.098	82.6
204.317	68.27
204.536	66.22
204.755	-42.32
204.974	58.03
205.193	98.99
205.411	8.87
205.63	53.93
205.849	115.37
206.068	82.6
206.287	47.79
206.505	68.27
206.724	2.73
206.943	27.31
207.162	45.74
207.381	33.45
207.599	17.07
207.818	51.88
208.037	43.69
208.255	33.45
208.474	45.74
208.693	27.31
208.911	12.97
209.13	72.36
209.349	51.88
209.567	62.12
209.786	12.97
210.005	82.6
210.223	-5.46
210.442	17.07
210.661	76.46
210.879	72.36
211.098	39.59
211.316	94.89
211.535	70.31
211.753	21.16
211.972	101.03
212.191	84.65
212.409	193.19
212.628	111.27
212.846	76.46
213.065	21.16
213.283	135.85
213.502	-11.61
213.72	27.31
213.938	62.12
214.157	8.87
214.375	111.27
214.594	92.84
214.812	55.98
215.031	33.45
215.249	23.21
215.467	47.79
215.686	51.88
215.904	80.55
216.122	68.27
216.341	55.98
216.559	21.16
216.778	33.45
216.996	27.31
217.214	-36.18
217.432	53.93
217.651	43.69
217.869	55.98
218.087	19.11
218.306	-54.61
218.524	55.98
218.742	60.07
218.96	-5.46
219.179	23.21
219.397	41.64
219.615	58.03
219.833	49.83
220.051	25.26
220.27	131.75
220.488	66.22
220.706	12.97
220.924	66.22
221.142	66.22
221.36	70.31
221.578	101.03
221.796	62.12
222.015	-34.13
222.233	31.4
222.451	25.26
222.669	19.11
222.887	58.03
223.105	25.26
223.323	4.78
223.541	23.21
223.759	8.87
223.977	12.97
224.195	86.7
224.413	29.35
224.631	125.61
224.849	58.03
225.067	150.18
225.285	27.31
225.503	53.93
225.721	-34.13
225.939	47.79
226.157	62.12
226.375	45.74
226.592	-40.28
226.81	51.88
227.028	17.07
227.246	45.74
227.464	19.11
227.682	70.31
227.9	72.36
228.117	27.31
228.335	62.12
228.553	53.93
228.771	23.21
228.989	76.46
229.206	109.23
229.424	29.35
229.642	19.11
229.86	111.27
230.077	117.42
230.295	23.21
230.513	6.83
230.731	125.61
230.948	-40.28
231.166	25.26
231.384	58.03
231.601	58.03
231.819	41.64
232.037	33.45
232.254	2.73
232.472	55.98
232.689	70.31
232.907	82.6
233.125	45.74
233.342	43.69
233.56	94.89
233.777	53.93
233.995	-11.61
234.213	62.12
234.43	31.4
234.648	90.79
234.865	84.65
235.083	62.12
235.3	96.94
235.518	12.97
235.735	64.17
235.953	76.46
236.17	-19.8
236.388	-5.46
236.605	-3.41
236.822	72.36
237.04	82.6
237.257	33.45
237.475	25.26
237.692	84.65
237.909	6.83
238.127	68.27
238.344	58.03
238.562	70.31
238.779	82.6
238.996	101.03
239.214	51.88
239.431	96.94
239.648	74.41
239.865	111.27
240.083	131.75
240.3	33.45
240.517	0.68
240.735	101.03
240.952	51.88
241.169	41.64
241.386	74.41
241.603	55.98
241.821	-34.13
242.038	72.36
242.255	-42.32
242.472	35.5
242.689	80.55
242.907	92.84
243.124	12.97
243.341	19.11
243.558	29.35
243.775	39.59
243.992	-7.51
244.209	-3.41
244.426	66.22
244.643	78.51
244.86	4.78
245.078	90.79
245.295	76.46
245.512	115.37
245.729	-15.7
245.946	64.17
246.163	101.03
246.38	45.74
246.597	84.65
246.814	66.22
247.031	45.74
247.248	29.35
247.464	80.55
247.681	88.75
247.898	-32.08
248.115	62.12
248.332	58.03
248.549	17.07
248.766	98.99
248.983	-3.41
249.2	68.27
249.417	96.94
249.633	17.07
249.85	94.89
250.067	66.22
250.284	17.07
250.501	111.27
250.717	17.07
250.934	90.79
251.151	109.23
251.368	41.64
251.585	58.03
251.801	-13.65
252.018	51.88
252.235	78.51
252.451	4.78
252.668	45.74
252.885	45.74
253.102	109.23
253.318	-13.65
253.535	-11.61
253.752	6.83
253.968	27.31
254.185	2.73
254.401	35.5
254.618	101.03
254.835	70.31
255.051	53.93
255.268	51.88
255.484	66.22
255.701	70.31
255.917	-7.51
256.134	39.59
256.351	66.22
256.567	12.97
256.784	68.27
257	8.87
257.217	94.89
257.433	31.4
257.65	82.6
257.866	4.78
258.082	2.73
258.299	25.26
258.515	53.93
258.732	41.64
258.948	10.92
259.165	2.73
259.381	19.11
259.597	76.46
259.814	47.79
260.03	98.99
260.246	27.31
260.463	-1.37
260.679	84.65
260.895	23.21
261.112	58.03
261.328	25.26
261.544	0.68
261.761	80.55
261.977	107.18
262.193	-21.84
262.409	92.84
262.626	78.51
262.842	49.83
263.058	47.79
263.274	94.89
263.49	82.6
263.707	111.27
263.923	17.07
264.139	-44.37
264.355	-9.56
264.571	115.37
264.787	55.98
265.004	55.98
265.22	88.75
265.436	-42.32
265.652	43.69
265.868	66.22
266.084	37.55
266.3	135.85
266.516	0.68
266.732	82.6
266.948	101.03
267.164	41.64
267.38	58.03
267.596	72.36
267.812	33.45
268.028	33.45
268.244	53.93
268.46	43.69
268.676	15.02
268.892	70.31
269.108	21.16
269.324	78.51
269.54	101.03
269.756	-19.8
269.972	25.26
270.188	37.55
270.403	105.13
270.619	64.17
270.835	74.41
271.051	94.89
271.267	25.26
271.483	127.66
271.698	66.22
271.914	76.46
272.13	17.07
272.346	92.84
272.562	10.92
272.777	103.08
272.993	58.03
273.209	39.59
273.425	37.55
273.64	0.68
273.856	33.45
274.072	66.22
274.287	45.74
274.503	113.32
274.719	25.26
274.934	98.99
275.15	39.59
275.366	45.74
275.581	66.22
275.797	86.7
276.012	10.92
276.228	39.59
276.444	74.41
276.659	101.03
276.875	15.02
277.09	68.27
277.306	12.97
277.521	43.69
277.737	135.85
277.952	80.55
278.168	4.78
278.383	80.55
278.599	121.51
278.814	21.16
279.03	53.93
279.245	55.98
279.461	60.07
279.676	25.26
279.892	-19.8
280.107	41.64
280.322	41.64
280.538	0.68
280.753	96.94
280.969	107.18
281.184	-3.41
281.399	121.51
281.615	47.79
281.83	47.79
282.045	90.79
282.26	19.11
282.476	-36.18
282.691	19.11
282.906	43.69
283.122	39.59
283.337	45.74
283.552	72.36
283.767	6.83
283.983	96.94
284.198	80.55
284.413	23.21
284.628	10.92
284.843	19.11
285.058	27.31
285.274	84.65
285.489	49.83
285.704	96.94
285.919	60.07
286.134	-52.56
286.349	96.94
286.564	37.55
286.779	107.18
286.995	49.83
287.21	25.26
287.425	86.7
287.64	82.6
287.855	41.64
288.07	55.98
288.285	72.36
288.5	123.56
288.715	39.59
288.93	70.31
289.145	47.79
289.36	76.46
289.575	68.27
289.79	76.46
290.004	27.31
290.219	45.74
290.434	17.07
290.649	113.32
290.864	66.22
291.079	76.46
291.294	58.03
291.509	70.31
291.724	125.61
291.938	49.83
292.153	49.83
292.368	15.02
292.583	39.59
292.798	21.16
293.012	84.65
293.227	-3.41
293.442	27.31
293.657	66.22
293.871	53.93
294.086	64.17
294.301	141.99
294.516	72.36
294.73	84.65
294.945	37.55
295.16	29.35
295.374	8.87
295.589	53.93
295.804	-15.7
296.018	51.88
296.233	78.51
296.447	72.36
296.662	-15.7
296.877	51.88
297.091	49.83
297.306	103.08
297.52	31.4
297.735	103.08
297.949	80.55
298.164	60.07
298.378	45.74
298.593	-15.7
298.807	53.93
299.022	8.87
299.236	58.03
299.451	-3.41
299.665	94.89
299.88	53.93
300.094	101.03
300.309	43.69
300.523	123.56
300.737	23.21
300.952	-9.56
301.166	115.37
301.381	41.64
301.595	25.26
301.809	70.31
302.024	8.87
302.238	41.64
302.452	117.42
302.667	2.73
302.881	90.79
303.095	88.75
303.309	58.03
303.524	133.8
303.738	72.36
303.952	37.55
304.166	39.59
304.381	19.11
304.595	76.46
304.809	-21.84
305.023	53.93
305.237	76.46
305.452	88.75
305.666	76.46
305.88	105.13
306.094	127.66
306.308	107.18
306.522	64.17
306.736	150.18
306.95	66.22
307.164	62.12
307.379	66.22
307.593	117.42
307.807	-1.37
308.021	105.13
308.235	111.27
308.449	10.92
308.663	17.07
308.877	117.42
309.091	39.59
309.305	66.22
309.519	19.11
309.733	49.83
309.947	2.73
310.161	55.98
310.374	37.55
310.588	35.5
310.802	43.69
311.016	47.79
311.23	60.07
311.444	78.51
311.658	17.07
311.872	60.07
312.085	49.83
312.299	68.27
312.513	45.74
312.727	94.89
312.941	-13.65
313.154	51.88
313.368	119.46
313.582	101.03
313.796	25.26
314.009	60.07
314.223	78.51
314.437	72.36
314.651	119.46
314.864	51.88
315.078	68.27
315.292	8.87
315.505	125.61
315.719	68.27
315.933	62.12
316.146	68.27
316.36	51.88
316.573	43.69
316.787	45.74
317.001	68.27
317.214	58.03
317.428	78.51
317.641	0.68
317.855	53.93
318.068	23.21
318.282	119.46
318.495	86.7
318.709	62.12
318.922	109.23
319.136	84.65
319.349	4.78
319.563	55.98
319.776	72.36
319.99	27.31
320.203	47.79
320.417	98.99
320.63	29.35
320.843	101.03
321.057	72.36
321.27	64.17
321.483	17.07
321.697	47.79
321.91	86.7
322.124	15.02
322.337	35.5
322.55	53.93
322.763	107.18
322.977	45.74
323.19	43.69
323.403	60.07
323.617	111.27
323.83	166.57
324.043	58.03
324.256	62.12
324.469	35.5
324.683	70.31
324.896	-21.84
325.109	101.03
325.322	35.5
325.535	135.85
325.748	27.31
325.962	74.41
326.175	39.59
326.388	84.65
326.601	64.17
326.814	19.11
327.027	90.79
327.24	94.89
327.453	60.07
327.666	90.79
327.879	68.27
328.092	170.66
328.305	58.03
328.518	8.87
328.731	45.74
328.944	98.99
329.157	117.42
329.37	68.27
329.583	115.37
329.796	90.79
330.009	6.83
330.222	76.46
330.435	74.41
330.648	60.07
330.861	105.13
331.073	43.69
331.286	94.89
331.499	107.18
331.712	51.88
331.925	96.94
332.138	105.13
332.35	125.61
332.563	10.92
332.776	76.46
332.989	23.21
333.202	72.36
333.414	92.84
333.627	41.64
333.84	35.5
334.053	23.21
334.265	15.02
334.478	135.85
334.691	60.07
334.903	53.93
335.116	70.31
335.329	98.99
335.541	123.56
335.754	96.94
335.966	23.21
336.179	39.59
336.392	-15.7
336.604	76.46
336.817	111.27
337.029	115.37
337.242	74.41
337.454	80.55
337.667	88.75
337.88	19.11
338.092	43.69
338.305	58.03
338.517	62.12
338.729	10.92
338.942	70.31
339.154	29.35
339.367	43.69
339.579	92.84
339.792	70.31
340.004	160.42
340.217	45.74
340.429	109.23
340.641	72.36
340.854	92.84
341.066	8.87
341.278	45.74
341.491	88.75
341.703	78.51
341.915	39.59
342.128	146.09
342.34	98.99
342.552	49.83
342.764	105.13
342.977	62.12
343.189	64.17
343.401	74.41
343.613	25.26
343.826	74.41
344.038	25.26
344.25	113.32
344.462	86.7
344.674	98.99
344.886	29.35
345.099	55.98
345.311	101.03
345.523	35.5
345.735	8.87
345.947	47.79
346.159	72.36
346.371	55.98
346.583	21.16
346.795	170.66
347.007	101.03
347.219	25.26
347.431	113.32
347.643	27.31
347.855	146.09
348.067	90.79
348.279	33.45
348.491	27.31
348.703	135.85
348.915	51.88
349.127	29.35
349.339	131.75
349.551	64.17
349.763	37.55
349.975	88.75
350.187	115.37
350.399	80.55
350.61	78.51
350.822	41.64
351.034	109.23
351.246	43.69
351.458	86.7
351.669	94.89
351.881	182.95
352.093	37.55
352.305	103.08
352.517	123.56
352.728	41.64
352.94	137.9
353.152	76.46
353.363	98.99
353.575	92.84
353.787	94.89
353.999	137.9
354.21	76.46
354.422	31.4
354.633	82.6
354.845	101.03
355.057	43.69
355.268	72.36
355.48	55.98
355.692	90.79
355.903	35.5
356.115	62.12
356.326	88.75
356.538	88.75
356.749	92.84
356.961	150.18
357.172	49.83
357.384	41.64
357.595	70.31
357.807	-15.7
358.018	55.98
358.23	90.79
358.441	94.89
358.653	74.41
358.864	12.97
359.075	29.35
359.287	105.13
359.498	88.75
359.709	45.74
359.921	31.4
360.132	60.07
360.344	96.94
360.555	37.55
360.766	60.07
360.977	27.31
361.189	158.38
361.4	51.88
361.611	107.18
361.823	72.36
362.034	78.51
362.245	12.97
362.456	64.17
362.667	8.87
362.879	27.31
363.09	43.69
363.301	109.23
363.512	80.55
363.723	37.55
363.935	35.5
364.146	82.6
364.357	94.89
364.568	43.69
364.779	64.17
364.99	111.27
365.201	70.31
365.412	94.89
365.623	80.55
365.834	80.55
366.045	58.03
366.256	84.65
366.467	-36.18
366.678	86.7
366.889	23.21
367.1	64.17
367.311	121.51
367.522	60.07
367.733	43.69
367.944	119.46
368.155	29.35
368.366	103.08
368.577	137.9
368.788	86.7
368.999	53.93
369.209	144.04
369.42	94.89
369.631	158.38
369.842	76.46
370.053	76.46
370.264	125.61
370.474	37.55
370.685	19.11
370.896	60.07
371.107	66.22
371.317	70.31
371.528	39.59
371.739	41.64
371.95	90.79
372.16	86.7
372.371	80.55
372.582	154.28
372.792	92.84
373.003	131.75
373.214	135.85
373.424	62.12
373.635	8.87
373.846	98.99
374.056	127.66
374.267	47.79
374.477	96.94
374.688	90.79
374.898	94.89
375.109	84.65
375.319	115.37
375.53	68.27
375.74	103.08
375.951	80.55
376.161	68.27
376.372	117.42
376.582	88.75
376.793	74.41
377.003	74.41
377.214	94.89
377.424	152.23
377.635	70.31
377.845	64.17
378.055	103.08
378.266	-15.7
378.476	98.99
378.686	94.89
378.897	103.08
379.107	129.7
379.317	78.51
379.528	86.7
379.738	45.74
379.948	80.55
380.158	62.12
380.369	117.42
380.579	121.51
380.789	76.46
380.999	62.12
381.21	80.55
381.42	94.89
381.63	37.55
381.84	105.13
382.05	58.03
382.261	113.32
382.471	185
382.681	105.13
382.891	84.65
383.101	74.41
383.311	62.12
383.521	37.55
383.731	47.79
383.941	76.46
384.151	80.55
384.361	107.18
384.571	72.36
384.781	37.55
384.991	45.74
385.201	82.6
385.411	72.36
385.621	74.41
385.831	74.41
386.041	94.89
386.251	74.41
386.461	72.36
386.671	109.23
386.881	70.31
387.091	53.93
387.301	96.94
387.511	35.5
387.72	64.17
387.93	86.7
388.14	80.55
388.35	68.27
388.56	160.42
388.769	129.7
388.979	35.5
389.189	-40.28
389.399	121.51
389.609	64.17
389.818	98.99
390.028	98.99
390.238	107.18
390.447	76.46
390.657	111.27
390.867	96.94
391.076	92.84
391.286	131.75
391.496	53.93
391.705	250.53
391.915	94.89
392.125	96.94
392.334	117.42
392.544	148.14
392.753	103.08
392.963	49.83
393.172	92.84
393.382	70.31
393.591	92.84
393.801	139.94
394.01	133.8
394.22	68.27
394.429	121.51
394.639	76.46
394.848	92.84
395.058	58.03
395.267	82.6
395.477	105.13
395.686	86.7
395.895	141.99
396.105	189.1
396.314	133.8
396.524	156.33
396.733	154.28
396.942	176.81
397.152	92.84
397.361	103.08
397.57	139.94
397.78	158.38
397.989	150.18
398.198	168.62
398.407	107.18
398.617	144.04
398.826	113.32
399.035	137.9
399.244	70.31
399.453	90.79
399.663	174.76
399.872	51.88
400.081	162.47
400.29	131.75
400.499	107.18
400.708	209.58
400.917	131.75
401.127	43.69
401.336	131.75
401.545	209.58
401.754	158.38
401.963	158.38
402.172	178.86
402.381	94.89
402.59	127.66
402.799	162.47
403.008	76.46
403.217	137.9
403.426	123.56
403.635	133.8
403.844	217.77
404.053	135.85
404.262	158.38
404.471	256.68
404.68	234.15
404.888	260.77
405.097	277.16
405.306	219.82
405.515	246.44
405.724	193.19
405.933	160.42
406.142	277.16
406.35	230.06
406.559	207.53
406.768	266.92
406.977	252.58
407.185	291.49
407.394	283.3
407.603	205.48
407.812	311.97
408.02	316.07
408.229	217.77
408.438	314.02
408.646	324.26
408.855	303.78
409.064	275.11
409.272	332.45
409.481	402.08
409.69	340.65
409.898	322.21
410.107	445.09
410.315	344.74
410.524	443.04
410.733	486.05
410.941	451.24
411.15	506.53
411.358	465.57
411.567	445.09
411.775	512.67
411.984	551.59
412.192	565.92
412.401	547.49
412.609	594.59
412.818	662.18
413.026	627.36
413.234	678.56
413.443	658.08
413.651	678.56
413.86	674.46
414.068	748.19
414.276	725.66
414.485	774.81
414.693	957.08
414.901	787.1
415.11	832.16
415.318	817.82
415.526	928.41
415.734	905.88
415.943	987.8
416.151	1051.29
416.359	1129.11
416.567	1049.24
416.776	1055.39
416.984	1149.59
417.192	1254.04
417.4	1301.14
417.608	1268.38
417.817	1393.3
418.025	1350.29
418.233	1462.93
418.441	1475.22
418.649	1464.98
418.857	1624.72
419.065	1637.01
419.273	1632.91
419.481	1671.83
419.689	1815.18
419.897	1798.8
420.105	1813.13
420.313	1974.92
420.521	2075.27
420.729	2155.15
420.937	2083.47
421.145	2218.63
421.353	2417.29
421.561	2400.9
421.769	2398.85
421.977	2734.72
422.185	2529.92
422.393	2605.7
422.601	2835.07
422.809	2884.22
423.017	2927.23
423.224	3000.96
423.432	3191.42
423.64	3269.24
423.848	3390.07
424.056	3420.79
424.263	3482.23
424.471	3662.45
424.679	3508.85
424.887	3865.2
425.094	4022.89
425.302	4018.8
425.51	4086.38
425.718	4356.71
425.925	4268.65
426.133	4522.6
426.341	4723.3
426.548	4973.15
426.756	4999.77
426.964	5034.59
427.171	5337.69
427.379	5343.83
427.586	5472.86
427.794	5552.73
428.001	5888.59
428.209	6179.4
428.417	5890.64
428.624	6629.96
428.832	6654.53
429.039	6724.16
429.247	6527.56
429.454	7131.71
429.662	7627.32
429.869	7215.68
430.076	7684.66
430.284	7320.12
430.491	7901.75
430.699	8116.78
430.906	8278.57
431.114	8438.31
431.321	8624.68
431.528	8768.04
431.736	9411.1
431.943	9722.39
432.15	9407
432.358	9583.13
432.565	10078.74
432.772	10123.79
432.979	10557.96
433.187	10945.03
433.394	10850.82
433.601	11700.73
433.808	11567.61
434.016	11600.38
434.223	12104.18
434.43	12839.4
434.637	12415.47
434.844	13298.14
435.052	13537.76
435.259	13382.11
435.466	13726.17
435.673	13668.83
435.88	14358.99
436.087	14920.13
436.294	15331.78
436.501	15032.77
436.708	15090.12
436.915	15745.47
437.122	16370.1
437.329	16128.44
437.537	17029.54
437.743	17140.13
437.95	16880.04
438.157	17742.24
438.364	18393.49
438.571	18569.62
438.778	18368.91
438.985	20066.68
439.192	19364.23
439.399	19843.45
439.606	19280.26
439.813	20816.24
440.02	21641.57
440.227	21408.1
440.433	21361
440.64	22212.95
440.847	21799.26
441.054	22786.38
441.261	23904.57
441.467	23574.85
441.674	24408.37
441.881	25153.83
442.088	24777.01
442.294	24949.04
442.501	25274.66
442.708	26134.81
442.914	26910.99
443.121	27973.89
443.328	27455.75
443.534	29083.89
443.741	28715.25
443.948	28184.83
444.154	30261.47
444.361	29941.99
444.568	30111.97
444.774	30009.57
444.981	30492.89
445.187	31279.31
445.394	32538.81
445.6	32223.42
445.807	35487.89
446.013	33777.83
446.22	34459.8
446.426	35754.12
446.633	36028.55
446.839	37187.7
447.046	35960.97
447.252	37865.58
447.459	37767.27
447.665	37920.87
447.871	39299.15
448.078	41302.07
448.284	39479.38
448.491	40173.64
448.697	41865.26
448.903	42027.05
449.11	42459.17
449.316	41838.64
449.522	42407.97
449.728	44021.77
449.935	44201.99
450.141	43870.22
450.347	45111.29
450.553	43581.46
450.76	44337.16
450.966	45547.51
451.172	45416.44
451.378	46270.44
451.584	45373.43
451.791	46559.2
451.997	46127.08
452.203	47179.74
452.409	47534.04
452.615	46893.02
452.821	45258.74
453.027	44888.06
453.233	47413.21
453.44	45383.67
453.646	45950.96
453.852	46188.52
454.058	46727.14
454.264	45281.27
454.47	46387.17
454.676	45176.83
454.882	46561.25
455.088	42842.14
455.294	43462.68
455.5	44257.29
455.705	44615.68
455.911	42856.48
456.117	42098.73
456.323	41142.33
456.529	39553.1
456.735	41451.57
456.941	39747.66
457.147	39061.59
457.352	38205.54
457.558	37933.16
457.764	38064.23
457.97	37267.57
458.176	36479.1
458.381	36509.82
458.587	34662.55
458.793	34709.66
458.999	32798.9
459.204	35154.07
459.41	34072.74
459.616	31877.32
459.821	32039.11
460.027	31762.63
460.233	31228.11
460.438	29540.58
460.644	30091.49
460.85	28733.68
461.055	28162.3
461.261	28188.92
461.466	26452.25
461.672	25221.42
461.878	27226.38
462.083	25432.36
462.289	24783.15
462.494	24441.14
462.7	23345.48
462.905	22911.31
463.111	23732.54
463.316	23572.8
463.522	23384.39
463.727	23349.57
463.932	22913.36
464.138	22962.51
464.343	23175.5
464.549	22376.79
464.754	23161.16
464.959	23073.1
465.165	22970.7
465.37	21741.92
465.575	21416.29
465.781	22122.84
465.986	21866.84
466.191	21662.05
466.397	21274.98
466.602	19816.83
