Data from USB4F104151__92__12-37-07-871.txt Node

Date: Fri Mar 14 12:37:07 EDT 2025
User: louis
Spectrometer: USB4F10415
Trigger mode: 4
Integration Time (sec): 2.000000E-2
Scans to average: 1
Electric dark correction enabled: true
Nonlinearity correction enabled: false
Boxcar width: 0
XAxis mode: Wavelengths
Number of Pixels in Spectrum: 3648
>>>>>Begin Spectral Data<<<<<
178.204	-47.27
178.424	-47.27
178.644	-47.27
178.864	-77.99
179.084	-114.86
179.304	20.31
179.524	-53.42
179.744	-14.51
179.964	69.46
180.184	-30.89
180.404	32.6
180.624	48.98
180.844	-16.55
181.064	8.02
181.283	-4.27
181.503	-47.27
181.723	-12.46
181.943	-8.36
182.163	87.89
182.383	20.31
182.602	63.32
182.822	87.89
183.042	26.45
183.262	51.03
183.482	53.08
183.701	38.74
183.921	46.93
184.141	94.04
184.361	53.08
184.58	44.88
184.8	44.88
185.02	-0.17
185.239	61.27
185.459	46.93
185.679	53.08
185.898	77.65
186.118	69.46
186.338	145.24
186.557	48.98
186.777	98.13
186.997	46.93
187.216	65.36
187.436	106.32
187.655	98.13
187.875	44.88
188.095	61.27
188.314	26.45
188.534	71.51
188.753	30.55
188.973	53.08
189.192	28.5
189.412	5.97
189.631	48.98
189.851	20.31
190.07	83.8
190.29	30.55
190.509	85.84
190.729	46.93
190.948	44.88
191.168	114.52
191.387	-4.27
191.607	10.07
191.826	100.18
192.045	-22.7
192.265	96.08
192.484	67.41
192.704	-41.13
192.923	30.55
193.142	116.56
193.362	59.22
193.581	40.79
193.8	98.13
194.02	65.36
194.239	46.93
194.458	69.46
194.678	12.12
194.897	67.41
195.116	28.5
195.335	14.17
195.555	38.74
195.774	73.56
195.993	-18.6
196.212	87.89
196.432	69.46
196.651	28.5
196.87	69.46
197.089	59.22
197.308	100.18
197.528	-10.41
197.747	-18.6
197.966	38.74
198.185	67.41
198.404	3.93
198.623	87.89
198.842	67.41
199.062	108.37
199.281	87.89
199.5	-41.13
199.719	36.69
199.938	85.84
200.157	12.12
200.376	63.32
200.595	18.26
200.814	22.36
201.033	34.64
201.252	55.12
201.471	53.08
201.69	69.46
201.909	69.46
202.128	79.7
202.347	32.6
202.566	46.93
202.785	44.88
203.004	28.5
203.223	104.28
203.442	-4.27
203.661	12.12
203.879	26.45
204.098	34.64
204.317	36.69
204.536	44.88
204.755	8.02
204.974	85.84
205.193	16.21
205.411	87.89
205.63	8.02
205.849	81.75
206.068	48.98
206.287	26.45
206.505	98.13
206.724	79.7
206.943	12.12
207.162	1.88
207.381	20.31
207.599	61.27
207.818	83.8
208.037	10.07
208.255	108.37
208.474	81.75
208.693	12.12
208.911	69.46
209.13	42.84
209.349	48.98
209.567	89.94
209.786	110.42
210.005	55.12
210.223	18.26
210.442	30.55
210.661	57.17
210.879	75.6
211.098	10.07
211.316	32.6
211.535	124.76
211.753	110.42
211.972	38.74
212.191	77.65
212.409	87.89
212.628	73.56
212.846	53.08
213.065	-6.31
213.283	75.6
213.502	75.6
213.72	94.04
213.938	20.31
214.157	102.23
214.375	98.13
214.594	-4.27
214.812	-0.17
215.031	44.88
215.249	30.55
215.467	73.56
215.686	67.41
215.904	61.27
216.122	53.08
216.341	91.99
216.559	98.13
216.778	83.8
216.996	42.84
217.214	34.64
217.432	36.69
217.651	40.79
217.869	57.17
218.087	75.6
218.306	85.84
218.524	100.18
218.742	10.07
218.96	71.51
219.179	22.36
219.397	30.55
219.615	28.5
219.833	-0.17
220.051	61.27
220.27	94.04
220.488	59.22
220.706	57.17
220.924	-39.08
221.142	-12.46
221.36	16.21
221.578	112.47
221.796	100.18
222.015	51.03
222.233	32.6
222.451	126.8
222.669	81.75
222.887	83.8
223.105	-47.27
223.323	22.36
223.541	42.84
223.759	48.98
223.977	48.98
224.195	69.46
224.413	42.84
224.631	126.8
224.849	24.4
225.067	85.84
225.285	69.46
225.503	51.03
225.721	59.22
225.939	38.74
226.157	18.26
226.375	79.7
226.592	46.93
226.81	100.18
227.028	32.6
227.246	77.65
227.464	96.08
227.682	42.84
227.9	77.65
228.117	77.65
228.335	32.6
228.553	53.08
228.771	8.02
228.989	98.13
229.206	8.02
229.424	-2.22
229.642	8.02
229.86	28.5
230.077	77.65
230.295	71.51
230.513	73.56
230.731	102.23
230.948	96.08
231.166	63.32
231.384	87.89
231.601	51.03
231.819	102.23
232.037	75.6
232.254	-4.27
232.472	71.51
232.689	-0.17
232.907	38.74
233.125	53.08
233.342	-24.75
233.56	55.12
233.777	30.55
233.995	79.7
234.213	69.46
234.43	18.26
234.648	102.23
234.865	120.66
235.083	118.61
235.3	32.6
235.518	44.88
235.735	46.93
235.953	120.66
236.17	-14.51
236.388	71.51
236.605	44.88
236.822	73.56
237.04	69.46
237.257	53.08
237.475	22.36
237.692	91.99
237.909	30.55
238.127	69.46
238.344	79.7
238.562	22.36
238.779	12.12
238.996	10.07
239.214	30.55
239.431	55.12
239.648	22.36
239.865	96.08
240.083	42.84
240.3	63.32
240.517	28.5
240.735	132.95
240.952	48.98
241.169	69.46
241.386	14.17
241.603	16.21
241.821	38.74
242.038	128.85
242.255	71.51
242.472	36.69
242.689	48.98
242.907	75.6
243.124	36.69
243.341	30.55
243.558	51.03
243.775	-20.65
243.992	-20.65
244.209	87.89
244.426	67.41
244.643	59.22
244.86	57.17
245.078	91.99
245.295	98.13
245.512	44.88
245.729	67.41
245.946	85.84
246.163	81.75
246.38	83.8
246.597	5.97
246.814	65.36
247.031	51.03
247.248	120.66
247.464	126.8
247.681	59.22
247.898	223.06
248.115	75.6
248.332	-43.18
248.549	94.04
248.766	89.94
248.983	79.7
249.2	48.98
249.417	-8.36
249.633	-32.94
249.85	132.95
250.067	81.75
250.284	20.31
250.501	71.51
250.717	122.71
250.934	32.6
251.151	-30.89
251.368	75.6
251.585	169.81
251.801	-12.46
252.018	30.55
252.235	8.02
252.451	46.93
252.668	-12.46
252.885	-12.46
253.102	106.32
253.318	67.41
253.535	69.46
253.752	46.93
253.968	42.84
254.185	83.8
254.401	57.17
254.618	32.6
254.835	53.08
255.051	104.28
255.268	42.84
255.484	85.84
255.701	44.88
255.917	40.79
256.134	-18.6
256.351	141.14
256.567	38.74
256.784	91.99
257	75.6
257.217	79.7
257.433	83.8
257.65	57.17
257.866	106.32
258.082	20.31
258.299	124.76
258.515	98.13
258.732	110.42
258.948	3.93
259.165	139.09
259.381	75.6
259.597	20.31
259.814	16.21
260.03	-2.22
260.246	53.08
260.463	71.51
260.679	12.12
260.895	79.7
261.112	59.22
261.328	28.5
261.544	16.21
261.761	48.98
261.977	28.5
262.193	61.27
262.409	91.99
262.626	147.28
262.842	71.51
263.058	137.04
263.274	77.65
263.49	108.37
263.707	79.7
263.923	73.56
264.139	14.17
264.355	40.79
264.571	73.56
264.787	87.89
265.004	128.85
265.22	16.21
265.436	1.88
265.652	38.74
265.868	83.8
266.084	48.98
266.3	42.84
266.516	67.41
266.732	-18.6
266.948	59.22
267.164	130.9
267.38	112.47
267.596	28.5
267.812	130.9
268.028	36.69
268.244	24.4
268.46	96.08
268.676	-2.22
268.892	98.13
269.108	38.74
269.324	40.79
269.54	1.88
269.756	48.98
269.972	83.8
270.188	87.89
270.403	102.23
270.619	30.55
270.835	85.84
271.051	81.75
271.267	46.93
271.483	102.23
271.698	10.07
271.914	102.23
272.13	61.27
272.346	89.94
272.562	26.45
272.777	5.97
272.993	18.26
273.209	1.88
273.425	42.84
273.64	63.32
273.856	14.17
274.072	116.56
274.287	65.36
274.503	67.41
274.719	102.23
274.934	149.33
275.15	40.79
275.366	16.21
275.581	-4.27
275.797	53.08
276.012	94.04
276.228	5.97
276.444	63.32
276.659	89.94
276.875	69.46
277.09	63.32
277.306	8.02
277.521	53.08
277.737	89.94
277.952	81.75
278.168	34.64
278.383	59.22
278.599	73.56
278.814	81.75
279.03	91.99
279.245	55.12
279.461	51.03
279.676	100.18
279.892	55.12
280.107	-16.55
280.322	55.12
280.538	-16.55
280.753	24.4
280.969	77.65
281.184	3.93
281.399	69.46
281.615	61.27
281.83	18.26
282.045	124.76
282.26	65.36
282.476	75.6
282.691	110.42
282.906	-2.22
283.122	22.36
283.337	63.32
283.552	79.7
283.767	28.5
283.983	14.17
284.198	30.55
284.413	157.52
284.628	8.02
284.843	79.7
285.058	114.52
285.274	104.28
285.489	-16.55
285.704	-0.17
285.919	-10.41
286.134	42.84
286.349	-6.31
286.564	-12.46
286.779	169.81
286.995	59.22
287.21	-6.31
287.425	89.94
287.64	87.89
287.855	59.22
288.07	100.18
288.285	44.88
288.5	44.88
288.715	42.84
288.93	34.64
289.145	26.45
289.36	-20.65
289.575	59.22
289.79	48.98
290.004	61.27
290.219	75.6
290.434	26.45
290.649	87.89
290.864	118.61
291.079	55.12
291.294	55.12
291.509	34.64
291.724	20.31
291.938	55.12
292.153	75.6
292.368	10.07
292.583	46.93
292.798	3.93
293.012	94.04
293.227	44.88
293.442	59.22
293.657	124.76
293.871	38.74
294.086	71.51
294.301	102.23
294.516	65.36
294.73	89.94
294.945	69.46
295.16	112.47
295.374	114.52
295.589	85.84
295.804	81.75
296.018	16.21
296.233	112.47
296.447	94.04
296.662	51.03
296.877	128.85
297.091	75.6
297.306	10.07
297.52	91.99
297.735	40.79
297.949	40.79
298.164	96.08
298.378	75.6
298.593	-6.31
298.807	89.94
299.022	44.88
299.236	24.4
299.451	69.46
299.665	59.22
299.88	100.18
300.094	59.22
300.309	-20.65
300.523	81.75
300.737	40.79
300.952	51.03
301.166	67.41
301.381	155.47
301.595	110.42
301.809	22.36
302.024	89.94
302.238	38.74
302.452	59.22
302.667	32.6
302.881	104.28
303.095	75.6
303.309	83.8
303.524	57.17
303.738	-4.27
303.952	48.98
304.166	36.69
304.381	69.46
304.595	102.23
304.809	83.8
305.023	3.93
305.237	20.31
305.452	91.99
305.666	55.12
305.88	114.52
306.094	42.84
306.308	1.88
306.522	118.61
306.736	65.36
306.95	79.7
307.164	63.32
307.379	42.84
307.593	89.94
307.807	116.56
308.021	79.7
308.235	139.09
308.449	100.18
308.663	53.08
308.877	118.61
309.091	24.4
309.305	63.32
309.519	12.12
309.733	130.9
309.947	69.46
310.161	128.85
310.374	122.71
310.588	79.7
310.802	20.31
311.016	63.32
311.23	71.51
311.444	28.5
311.658	96.08
311.872	161.62
312.085	94.04
312.299	91.99
312.513	104.28
312.727	87.89
312.941	61.27
313.154	89.94
313.368	8.02
313.582	40.79
313.796	42.84
314.009	79.7
314.223	28.5
314.437	53.08
314.651	81.75
314.864	22.36
315.078	8.02
315.292	75.6
315.505	36.69
315.719	44.88
315.933	71.51
316.146	34.64
316.36	-18.6
316.573	98.13
316.787	18.26
317.001	83.8
317.214	20.31
317.428	71.51
317.641	18.26
317.855	106.32
318.068	132.95
318.282	75.6
318.495	96.08
318.709	130.9
318.922	42.84
319.136	108.37
319.349	20.31
319.563	40.79
319.776	51.03
319.99	-37.03
320.203	28.5
320.417	14.17
320.63	132.95
320.843	36.69
321.057	12.12
321.27	96.08
321.483	83.8
321.697	91.99
321.91	40.79
322.124	91.99
322.337	96.08
322.55	22.36
322.763	163.67
322.977	91.99
323.19	8.02
323.403	73.56
323.617	51.03
323.83	102.23
324.043	55.12
324.256	102.23
324.469	65.36
324.683	81.75
324.896	57.17
325.109	75.6
325.322	-20.65
325.535	83.8
325.748	40.79
325.962	36.69
326.175	91.99
326.388	91.99
326.601	124.76
326.814	69.46
327.027	53.08
327.24	89.94
327.453	73.56
327.666	44.88
327.879	42.84
328.092	46.93
328.305	59.22
328.518	-2.22
328.731	8.02
328.944	71.51
329.157	40.79
329.37	159.57
329.583	87.89
329.796	130.9
330.009	24.4
330.222	46.93
330.435	36.69
330.648	20.31
330.861	59.22
331.073	89.94
331.286	87.89
331.499	100.18
331.712	-6.31
331.925	63.32
332.138	55.12
332.35	61.27
332.563	36.69
332.776	44.88
332.989	34.64
333.202	114.52
333.414	71.51
333.627	16.21
333.84	57.17
334.053	28.5
334.265	83.8
334.478	85.84
334.691	112.47
334.903	87.89
335.116	44.88
335.329	83.8
335.541	100.18
335.754	91.99
335.966	87.89
336.179	73.56
336.392	132.95
336.604	77.65
336.817	69.46
337.029	65.36
337.242	96.08
337.454	71.51
337.667	79.7
337.88	159.57
338.092	16.21
338.305	79.7
338.517	-18.6
338.729	112.47
338.942	12.12
339.154	89.94
339.367	10.07
339.579	71.51
339.792	5.97
340.004	98.13
340.217	44.88
340.429	69.46
340.641	77.65
340.854	135
341.066	69.46
341.278	73.56
341.491	110.42
341.703	51.03
341.915	89.94
342.128	59.22
342.34	34.64
342.552	22.36
342.764	89.94
342.977	124.76
343.189	67.41
343.401	55.12
343.613	38.74
343.826	18.26
344.038	-43.18
344.25	110.42
344.462	85.84
344.674	89.94
344.886	98.13
345.099	81.75
345.311	53.08
345.523	12.12
345.735	73.56
345.947	77.65
346.159	81.75
346.371	10.07
346.583	102.23
346.795	155.47
347.007	36.69
347.219	106.32
347.431	1.88
347.643	12.12
347.855	73.56
348.067	20.31
348.279	53.08
348.491	100.18
348.703	46.93
348.915	48.98
349.127	91.99
349.339	91.99
349.551	81.75
349.763	51.03
349.975	116.56
350.187	102.23
350.399	132.95
350.61	65.36
350.822	12.12
351.034	24.4
351.246	-2.22
351.458	143.19
351.669	83.8
351.881	55.12
352.093	94.04
352.305	46.93
352.517	42.84
352.728	71.51
352.94	59.22
353.152	79.7
353.363	14.17
353.575	151.38
353.787	98.13
353.999	12.12
354.21	118.61
354.422	87.89
354.633	59.22
354.845	85.84
355.057	24.4
355.268	44.88
355.48	110.42
355.692	18.26
355.903	118.61
356.115	8.02
356.326	53.08
356.538	57.17
356.749	48.98
356.961	81.75
357.172	20.31
357.384	40.79
357.595	83.8
357.807	59.22
358.018	135
358.23	143.19
358.441	114.52
358.653	53.08
358.864	65.36
359.075	77.65
359.287	32.6
359.498	98.13
359.709	69.46
359.921	83.8
360.132	16.21
360.344	22.36
360.555	14.17
360.766	98.13
360.977	151.38
361.189	71.51
361.4	53.08
361.611	75.6
361.823	28.5
362.034	135
362.245	12.12
362.456	38.74
362.667	34.64
362.879	42.84
363.09	73.56
363.301	130.9
363.512	73.56
363.723	14.17
363.935	81.75
364.146	137.04
364.357	96.08
364.568	96.08
364.779	57.17
364.99	157.52
365.201	57.17
365.412	116.56
365.623	44.88
365.834	55.12
366.045	96.08
366.256	104.28
366.467	120.66
366.678	85.84
366.889	65.36
367.1	44.88
367.311	122.71
367.522	126.8
367.733	48.98
367.944	143.19
368.155	30.55
368.366	61.27
368.577	38.74
368.788	104.28
368.999	71.51
369.209	34.64
369.42	81.75
369.631	188.24
369.842	53.08
370.053	89.94
370.264	124.76
370.474	110.42
370.685	141.14
370.896	40.79
371.107	106.32
371.317	77.65
371.528	-8.36
371.739	182.1
371.95	132.95
372.16	69.46
372.371	24.4
372.582	98.13
372.792	42.84
373.003	98.13
373.214	81.75
373.424	102.23
373.635	100.18
373.846	118.61
374.056	75.6
374.267	208.72
374.477	98.13
374.688	94.04
374.898	85.84
375.109	122.71
375.319	112.47
375.53	71.51
375.74	147.28
375.951	26.45
376.161	75.6
376.372	108.37
376.582	71.51
376.793	83.8
377.003	69.46
377.214	110.42
377.424	-2.22
377.635	53.08
377.845	26.45
378.055	124.76
378.266	91.99
378.476	87.89
378.686	38.74
378.897	126.8
379.107	114.52
379.317	106.32
379.528	102.23
379.738	165.71
379.948	98.13
380.158	28.5
380.369	112.47
380.579	106.32
380.789	18.26
380.999	116.56
381.21	89.94
381.42	116.56
381.63	126.8
381.84	100.18
382.05	122.71
382.261	46.93
382.471	137.04
382.681	53.08
382.891	94.04
383.101	114.52
383.311	38.74
383.521	108.37
383.731	104.28
383.941	65.36
384.151	81.75
384.361	65.36
384.571	126.8
384.781	96.08
384.991	57.17
385.201	159.57
385.411	87.89
385.621	132.95
385.831	53.08
386.041	122.71
386.251	110.42
386.461	135
386.671	48.98
386.881	182.1
387.091	98.13
387.301	91.99
387.511	137.04
387.72	71.51
387.93	124.76
388.14	69.46
388.35	157.52
388.56	61.27
388.769	89.94
388.979	157.52
389.189	85.84
389.399	126.8
389.609	157.52
389.818	190.29
390.028	147.28
390.238	104.28
390.447	100.18
390.657	118.61
390.867	53.08
391.076	120.66
391.286	26.45
391.496	208.72
391.705	73.56
391.915	173.91
392.125	79.7
392.334	71.51
392.544	85.84
392.753	153.43
392.963	77.65
393.172	89.94
393.382	96.08
393.591	63.32
393.801	89.94
394.01	106.32
394.22	149.33
394.429	81.75
394.639	124.76
394.848	167.76
395.058	173.91
395.267	67.41
395.477	161.62
395.686	137.04
395.895	139.09
396.105	202.58
396.314	161.62
396.524	128.85
396.733	163.67
396.942	126.8
397.152	139.09
397.361	124.76
397.57	178
397.78	120.66
397.989	73.56
398.198	184.15
398.407	200.53
398.617	155.47
398.826	137.04
399.035	210.77
399.244	106.32
399.453	81.75
399.663	100.18
399.872	186.19
400.081	120.66
400.29	167.76
400.499	69.46
400.708	190.29
400.917	233.3
401.127	100.18
401.336	135
401.545	198.48
401.754	145.24
401.963	214.87
402.172	157.52
402.381	114.52
402.59	116.56
402.799	114.52
403.008	196.43
403.217	188.24
403.426	163.67
403.635	229.2
403.844	204.63
404.053	173.91
404.262	147.28
404.471	169.81
404.68	141.14
404.888	194.39
405.097	188.24
405.306	290.64
405.515	218.96
405.724	218.96
405.933	255.83
406.142	223.06
406.35	272.21
406.559	249.68
406.768	298.83
406.977	223.06
407.185	286.54
407.394	235.35
407.603	204.63
407.812	274.26
408.02	317.26
408.229	352.08
408.438	321.36
408.646	323.41
408.855	302.93
409.064	323.41
409.272	341.84
409.481	413.52
409.69	354.13
409.898	354.13
410.107	438.09
410.315	446.29
410.524	390.99
410.733	403.28
410.941	431.95
411.15	513.87
411.358	483.15
411.567	520.01
411.775	448.33
411.984	501.58
412.192	593.74
412.401	544.59
412.609	599.88
412.818	646.99
413.026	620.36
413.234	683.85
413.443	630.6
413.651	673.61
413.86	733
414.068	784.2
414.276	692.04
414.485	814.92
414.693	790.35
414.901	819.02
415.11	892.74
415.318	886.6
415.526	886.6
415.734	1019.72
415.943	1042.25
416.151	1050.44
416.359	1044.29
416.567	1079.11
416.776	1058.63
416.984	1148.74
417.192	1189.7
417.4	1308.48
417.608	1247.04
417.817	1249.09
418.025	1386.3
418.233	1476.41
418.441	1429.31
418.649	1517.37
418.857	1589.05
419.065	1646.4
419.273	1634.11
419.481	1752.89
419.689	1861.43
419.897	1832.76
420.105	1871.67
420.313	2051.89
420.521	2017.08
420.729	2131.76
420.937	2103.09
421.145	2234.16
421.353	2324.27
421.561	2445.1
421.769	2438.96
421.977	2572.08
422.185	2563.89
422.393	2737.96
422.601	2858.79
422.809	2823.98
423.017	2850.6
423.224	3039.01
423.432	3125.03
423.64	3325.73
423.848	3426.08
424.056	3272.48
424.263	3510.05
424.471	3698.46
424.679	3718.94
424.887	3946.27
425.094	3974.94
425.302	3913.5
425.51	4146.97
425.718	4251.41
425.925	4382.48
426.133	4517.65
426.341	4671.25
426.548	4892.43
426.756	4935.43
426.964	5009.16
427.171	5330.69
427.379	5453.57
427.586	5533.44
427.794	5621.5
428.001	6000.38
428.209	6303.48
428.417	6037.24
428.624	6727.41
428.832	6651.63
429.039	6545.14
429.247	6555.38
429.454	7194.34
429.662	7634.66
429.869	7177.96
430.076	7556.83
430.284	7474.92
430.491	7749.34
430.699	8185.56
430.906	7935.71
431.114	8232.66
431.321	8605.39
431.528	8765.14
431.736	9221.83
431.943	9856.7
432.15	9578.18
432.358	9633.47
432.565	10139.32
432.772	10243.77
432.979	10526.39
433.187	10974.89
433.394	10825.39
433.601	11486.89
433.808	11935.39
434.016	11536.04
434.223	12082.84
434.43	12883.6
434.637	12314.27
434.844	13371.02
435.052	13573.77
435.259	13518.47
435.466	13688.45
435.673	13248.14
435.88	14263.93
436.087	15083.12
436.294	15056.5
436.501	14689.91
436.708	15197.81
436.915	15627.88
437.122	16238.17
437.329	16256.61
437.537	16711.25
437.743	16981.59
437.95	16772.69
438.157	17739.33
438.364	18458.17
438.571	18298.43
438.778	18304.57
438.985	20217.38
439.192	19533.36
439.399	20205.09
439.606	19476.01
439.813	20553.24
440.02	22097.41
440.227	21655.05
440.433	21270.03
440.64	21841.42
440.847	21775.88
441.054	22615.55
441.261	23705.07
441.467	23291.38
441.674	24198.63
441.881	25089.49
442.088	24964.57
442.294	24681.95
442.501	25286.1
442.708	26164.68
442.914	27082.17
443.121	28081.58
443.328	27452.85
443.534	29240.73
443.741	28218.79
443.948	27811.24
444.154	30035.34
444.361	29773.2
444.568	30291.34
444.774	29855.12
444.981	30309.77
445.187	31364.47
445.394	32449.89
445.6	32464.23
445.807	35286.33
446.013	33766.74
446.22	34649.41
446.426	35611.96
446.633	35933.49
446.839	37106.98
447.046	35771.7
447.252	37913.87
447.459	37989.65
447.665	37666.07
447.871	39429.37
448.078	41514.2
448.284	39286.01
448.491	39709.94
448.697	41714.9
448.903	42585.29
449.11	42394.83
449.316	41585.88
449.522	42519.76
449.728	43586.75
449.935	43955.38
450.141	44068.02
450.347	44915.88
450.553	43427.01
450.76	44364.98
450.966	45784.22
451.172	44733.61
451.378	46027.93
451.584	45204.64
451.791	46453.9
451.997	46120.09
452.203	47125.64
452.409	47023.24
452.615	46781.58
452.821	45175.97
453.027	44926.12
453.233	46937.23
453.44	45282.47
453.646	46159
453.852	45612.19
454.058	46654.61
454.264	45835.42
454.47	46275.73
454.676	45194.4
454.882	46464.14
455.088	42847.43
455.294	43404.48
455.5	43955.38
455.705	44526.77
455.911	42855.62
456.117	41794.78
456.323	40924.39
456.529	38972.67
456.735	40879.33
456.941	40111.35
457.147	39224.57
457.352	38075.66
457.558	37971.22
457.764	37383.45
457.97	37131.55
458.176	35894.58
458.381	36181.29
458.587	34692.42
458.793	34436.42
458.999	32822.62
459.204	35128.64
459.41	33815.89
459.616	31679.86
459.821	32028.01
460.027	31757.68
460.233	30879.1
460.438	29744.53
460.644	29572.5
460.85	28450.21
461.055	28171.69
461.261	27913.64
461.466	26062.28
461.672	24956.38
461.878	26729.92
462.083	24933.85
462.289	24538.59
462.494	24571.36
462.7	23526.89
462.905	22562.3
463.111	23737.84
463.316	23713.26
463.522	23154.16
463.727	23062.01
463.932	22959.61
464.138	22683.13
464.343	22932.98
464.549	22377.98
464.754	22953.46
464.959	22621.69
465.165	22556.16
465.37	21812.74
465.575	21466.64
465.781	21970.44
465.986	22035.97
466.191	21245.46
466.397	20559.39
466.602	19758.63
