Data from USB4F104151__20__12-35-25-022.txt Node

Date: Fri Mar 14 12:35:25 EDT 2025
User: louis
Spectrometer: USB4F10415
Trigger mode: 4
Integration Time (sec): 2.000000E-2
Scans to average: 1
Electric dark correction enabled: true
Nonlinearity correction enabled: false
Boxcar width: 0
XAxis mode: Wavelengths
Number of Pixels in Spectrum: 3648
>>>>>Begin Spectral Data<<<<<
178.204	-115.71
178.424	-115.71
178.644	-115.71
178.864	-41.98
179.084	-115.71
179.304	-46.08
179.524	27.65
179.744	-44.03
179.964	60.42
180.184	37.89
180.404	-52.22
180.624	-35.84
180.844	7.17
181.064	17.41
181.283	70.65
181.503	-46.08
181.723	3.07
181.943	25.6
182.163	56.32
182.383	46.08
182.602	23.55
182.822	50.18
183.042	95.23
183.262	33.79
183.482	56.32
183.701	84.99
183.921	11.26
184.141	1.02
184.361	87.04
184.58	44.03
184.8	19.46
185.02	17.41
185.239	29.7
185.459	76.8
185.679	35.84
185.898	15.36
186.118	72.7
186.338	13.31
186.557	66.56
186.777	37.89
186.997	89.09
187.216	-11.26
187.436	80.89
187.655	29.7
187.875	29.7
188.095	29.7
188.314	62.46
188.534	39.94
188.753	46.08
188.973	-11.26
189.192	3.07
189.412	54.27
189.631	87.04
189.851	58.37
190.07	66.56
190.29	-5.12
190.509	29.7
190.729	21.5
190.948	17.41
191.168	117.76
191.387	29.7
191.607	-37.89
191.826	46.08
192.045	70.65
192.265	15.36
192.484	-29.7
192.704	-5.12
192.923	41.98
193.142	82.94
193.362	21.5
193.581	41.98
193.8	9.22
194.02	111.61
194.239	37.89
194.458	-1.02
194.678	66.56
194.897	103.42
195.116	3.07
195.335	68.61
195.555	66.56
195.774	23.55
195.993	41.98
196.212	52.22
196.432	-46.08
196.651	117.76
196.87	3.07
197.089	101.37
197.308	56.32
197.528	44.03
197.747	-1.02
197.966	-62.46
198.185	87.04
198.404	-60.42
198.623	128
198.842	52.22
199.062	132.09
199.281	70.65
199.5	19.46
199.719	35.84
199.938	31.74
200.157	89.09
200.376	9.22
200.595	58.37
200.814	-46.08
201.033	-3.07
201.252	-17.41
201.471	78.85
201.69	54.27
201.909	48.13
202.128	119.81
202.347	17.41
202.566	54.27
202.785	39.94
203.004	33.79
203.223	101.37
203.442	27.65
203.661	41.98
203.879	62.46
204.098	9.22
204.317	27.65
204.536	23.55
204.755	-5.12
204.974	64.51
205.193	19.46
205.411	91.13
205.63	-52.22
205.849	64.51
206.068	25.6
206.287	21.5
206.505	60.42
206.724	44.03
206.943	46.08
207.162	56.32
207.381	52.22
207.599	111.61
207.818	21.5
208.037	3.07
208.255	-29.7
208.474	15.36
208.693	76.8
208.911	70.65
209.13	97.28
209.349	-7.17
209.567	-9.22
209.786	105.47
210.005	41.98
210.223	76.8
210.442	58.37
210.661	52.22
210.879	27.65
211.098	9.22
211.316	46.08
211.535	39.94
211.753	29.7
211.972	25.6
212.191	7.17
212.409	76.8
212.628	27.65
212.846	17.41
213.065	62.46
213.283	64.51
213.502	33.79
213.72	-19.46
213.938	19.46
214.157	13.31
214.375	82.94
214.594	-5.12
214.812	70.65
215.031	103.42
215.249	3.07
215.467	68.61
215.686	9.22
215.904	89.09
216.122	95.23
216.341	70.65
216.559	21.5
216.778	119.81
216.996	21.5
217.214	50.18
217.432	15.36
217.651	-9.22
217.869	60.42
218.087	76.8
218.306	13.31
218.524	50.18
218.742	60.42
218.96	23.55
219.179	23.55
219.397	121.85
219.615	44.03
219.833	56.32
220.051	76.8
220.27	91.13
220.488	41.98
220.706	60.42
220.924	33.79
221.142	3.07
221.36	33.79
221.578	9.22
221.796	74.75
222.015	76.8
222.233	7.17
222.451	-5.12
222.669	27.65
222.887	46.08
223.105	-17.41
223.323	17.41
223.541	64.51
223.759	27.65
223.977	7.17
224.195	132.09
224.413	19.46
224.631	23.55
224.849	27.65
225.067	60.42
225.285	74.75
225.503	-27.65
225.721	48.13
225.939	9.22
226.157	50.18
226.375	99.33
226.592	13.31
226.81	9.22
227.028	97.28
227.246	95.23
227.464	62.46
227.682	78.85
227.9	25.6
228.117	44.03
228.335	52.22
228.553	76.8
228.771	37.89
228.989	58.37
229.206	7.17
229.424	-11.26
229.642	50.18
229.86	62.46
230.077	109.57
230.295	50.18
230.513	37.89
230.731	58.37
230.948	50.18
231.166	48.13
231.384	9.22
231.601	-5.12
231.819	60.42
232.037	80.89
232.254	44.03
232.472	31.74
232.689	-1.02
232.907	62.46
233.125	15.36
233.342	35.84
233.56	-23.55
233.777	72.7
233.995	31.74
234.213	89.09
234.43	17.41
234.648	78.85
234.865	64.51
235.083	78.85
235.3	13.31
235.518	39.94
235.735	95.23
235.953	89.09
236.17	35.84
236.388	46.08
236.605	97.28
236.822	50.18
237.04	31.74
237.257	39.94
237.475	50.18
237.692	70.65
237.909	82.94
238.127	-50.18
238.344	72.7
238.562	56.32
238.779	9.22
238.996	-21.5
239.214	82.94
239.431	31.74
239.648	1.02
239.865	58.37
240.083	107.52
240.3	72.7
240.517	23.55
240.735	103.42
240.952	-17.41
241.169	50.18
241.386	52.22
241.603	115.71
241.821	-7.17
242.038	109.57
242.255	-31.74
242.472	31.74
242.689	99.33
242.907	66.56
243.124	7.17
243.341	60.42
243.558	9.22
243.775	35.84
243.992	-1.02
244.209	15.36
244.426	58.37
244.643	29.7
244.86	-11.26
245.078	23.55
245.295	52.22
245.512	25.6
245.729	-1.02
245.946	-31.74
246.163	70.65
246.38	25.6
246.597	52.22
246.814	91.13
247.031	56.32
247.248	62.46
247.464	54.27
247.681	74.75
247.898	17.41
248.115	101.37
248.332	29.7
248.549	29.7
248.766	33.79
248.983	44.03
249.2	19.46
249.417	19.46
249.633	78.85
249.85	33.79
250.067	93.18
250.284	76.8
250.501	-35.84
250.717	84.99
250.934	66.56
251.151	48.13
251.368	-15.36
251.585	15.36
251.801	68.61
252.018	9.22
252.235	39.94
252.451	21.5
252.668	-11.26
252.885	19.46
253.102	46.08
253.318	7.17
253.535	23.55
253.752	56.32
253.968	84.99
254.185	3.07
254.401	54.27
254.618	101.37
254.835	23.55
255.051	5.12
255.268	17.41
255.484	15.36
255.701	7.17
255.917	50.18
256.134	9.22
256.351	87.04
256.567	19.46
256.784	48.13
257	33.79
257.217	99.33
257.433	41.98
257.65	-15.36
257.866	50.18
258.082	5.12
258.299	13.31
258.515	95.23
258.732	7.17
258.948	-9.22
259.165	60.42
259.381	93.18
259.597	56.32
259.814	-7.17
260.03	15.36
260.246	50.18
260.463	60.42
260.679	3.07
260.895	52.22
261.112	25.6
261.328	5.12
261.544	7.17
261.761	162.81
261.977	11.26
262.193	-3.07
262.409	60.42
262.626	66.56
262.842	62.46
263.058	-5.12
263.274	99.33
263.49	27.65
263.707	17.41
263.923	68.61
264.139	13.31
264.355	39.94
264.571	91.13
264.787	103.42
265.004	3.07
265.22	-13.31
265.436	66.56
265.652	74.75
265.868	76.8
266.084	-31.74
266.3	84.99
266.516	21.5
266.732	62.46
266.948	60.42
267.164	1.02
267.38	46.08
267.596	109.57
267.812	93.18
268.028	93.18
268.244	44.03
268.46	66.56
268.676	-25.6
268.892	154.62
269.108	-1.02
269.324	33.79
269.54	-15.36
269.756	76.8
269.972	46.08
270.188	-5.12
270.403	-1.02
270.619	37.89
270.835	3.07
271.051	68.61
271.267	-19.46
271.483	33.79
271.698	80.89
271.914	35.84
272.13	44.03
272.346	46.08
272.562	46.08
272.777	115.71
272.993	17.41
273.209	35.84
273.425	125.95
273.64	15.36
273.856	87.04
274.072	101.37
274.287	113.66
274.503	89.09
274.719	35.84
274.934	19.46
275.15	-9.22
275.366	74.75
275.581	54.27
275.797	48.13
276.012	-9.22
276.228	46.08
276.444	99.33
276.659	115.71
276.875	89.09
277.09	50.18
277.306	89.09
277.521	62.46
277.737	-35.84
277.952	82.94
278.168	58.37
278.383	93.18
278.599	39.94
278.814	68.61
279.03	72.7
279.245	-7.17
279.461	50.18
279.676	3.07
279.892	50.18
280.107	60.42
280.322	68.61
280.538	103.42
280.753	41.98
280.969	21.5
281.184	29.7
281.399	19.46
281.615	66.56
281.83	41.98
282.045	-5.12
282.26	82.94
282.476	13.31
282.691	50.18
282.906	35.84
283.122	52.22
283.337	70.65
283.552	60.42
283.767	93.18
283.983	-7.17
284.198	76.8
284.413	121.85
284.628	56.32
284.843	-11.26
285.058	39.94
285.274	-5.12
285.489	72.7
285.704	39.94
285.919	62.46
286.134	89.09
286.349	23.55
286.564	35.84
286.779	7.17
286.995	82.94
287.21	-1.02
287.425	11.26
287.64	80.89
287.855	99.33
288.07	-29.7
288.285	70.65
288.5	66.56
288.715	46.08
288.93	66.56
289.145	9.22
289.36	46.08
289.575	119.81
289.79	74.75
290.004	56.32
290.219	64.51
290.434	39.94
290.649	37.89
290.864	95.23
291.079	105.47
291.294	111.61
291.509	84.99
291.724	13.31
291.938	97.28
292.153	78.85
292.368	15.36
292.583	29.7
292.798	78.85
293.012	107.52
293.227	84.99
293.442	66.56
293.657	74.75
293.871	50.18
294.086	93.18
294.301	97.28
294.516	29.7
294.73	23.55
294.945	-15.36
295.16	60.42
295.374	76.8
295.589	134.14
295.804	105.47
296.018	50.18
296.233	54.27
296.447	41.98
296.662	58.37
296.877	48.13
297.091	111.61
297.306	91.13
297.52	35.84
297.735	70.65
297.949	21.5
298.164	64.51
298.378	99.33
298.593	70.65
298.807	-11.26
299.022	89.09
299.236	41.98
299.451	-3.07
299.665	93.18
299.88	72.7
300.094	-56.32
300.309	7.17
300.523	-5.12
300.737	-23.55
300.952	76.8
301.166	60.42
301.381	17.41
301.595	56.32
301.809	48.13
302.024	74.75
302.238	-19.46
302.452	35.84
302.667	15.36
302.881	132.09
303.095	107.52
303.309	-1.02
303.524	19.46
303.738	46.08
303.952	31.74
304.166	93.18
304.381	91.13
304.595	27.65
304.809	37.89
305.023	46.08
305.237	-13.31
305.452	37.89
305.666	103.42
305.88	125.95
306.094	25.6
306.308	68.61
306.522	7.17
306.736	11.26
306.95	56.32
307.164	52.22
307.379	44.03
307.593	56.32
307.807	84.99
308.021	50.18
308.235	29.7
308.449	29.7
308.663	7.17
308.877	189.44
309.091	113.66
309.305	52.22
309.519	56.32
309.733	46.08
309.947	-13.31
310.161	33.79
310.374	84.99
310.588	60.42
310.802	58.37
311.016	52.22
311.23	99.33
311.444	66.56
311.658	17.41
311.872	91.13
312.085	87.04
312.299	111.61
312.513	91.13
312.727	37.89
312.941	95.23
313.154	82.94
313.368	35.84
313.582	46.08
313.796	27.65
314.009	82.94
314.223	113.66
314.437	119.81
314.651	29.7
314.864	84.99
315.078	44.03
315.292	19.46
315.505	5.12
315.719	54.27
315.933	93.18
316.146	84.99
316.36	58.37
316.573	109.57
316.787	68.61
317.001	72.7
317.214	11.26
317.428	105.47
317.641	37.89
317.855	35.84
318.068	84.99
318.282	52.22
318.495	89.09
318.709	62.46
318.922	-56.32
319.136	95.23
319.349	62.46
319.563	103.42
319.776	91.13
319.99	89.09
320.203	80.89
320.417	74.75
320.63	54.27
320.843	52.22
321.057	-7.17
321.27	78.85
321.483	74.75
321.697	82.94
321.91	35.84
322.124	27.65
322.337	132.09
322.55	89.09
322.763	21.5
322.977	-15.36
323.19	31.74
323.403	44.03
323.617	-1.02
323.83	64.51
324.043	-11.26
324.256	44.03
324.469	-3.07
324.683	101.37
324.896	62.46
325.109	54.27
325.322	-5.12
325.535	27.65
325.748	46.08
325.962	76.8
326.175	138.24
326.388	97.28
326.601	29.7
326.814	64.51
327.027	60.42
327.24	23.55
327.453	44.03
327.666	64.51
327.879	66.56
328.092	62.46
328.305	64.51
328.518	128
328.731	25.6
328.944	97.28
329.157	82.94
329.37	64.51
329.583	62.46
329.796	101.37
330.009	64.51
330.222	113.66
330.435	9.22
330.648	154.62
330.861	37.89
331.073	39.94
331.286	105.47
331.499	-9.22
331.712	58.37
331.925	56.32
332.138	109.57
332.35	48.13
332.563	76.8
332.776	54.27
332.989	31.74
333.202	70.65
333.414	62.46
333.627	25.6
333.84	62.46
334.053	37.89
334.265	44.03
334.478	89.09
334.691	76.8
334.903	44.03
335.116	35.84
335.329	70.65
335.541	107.52
335.754	140.29
335.966	37.89
336.179	78.85
336.392	17.41
336.604	93.18
336.817	37.89
337.029	93.18
337.242	37.89
337.454	62.46
337.667	37.89
337.88	84.99
338.092	64.51
338.305	121.85
338.517	74.75
338.729	72.7
338.942	80.89
339.154	37.89
339.367	76.8
339.579	60.42
339.792	-27.65
340.004	13.31
340.217	58.37
340.429	17.41
340.641	-11.26
340.854	58.37
341.066	5.12
341.278	44.03
341.491	91.13
341.703	54.27
341.915	56.32
342.128	70.65
342.34	31.74
342.552	5.12
342.764	48.13
342.977	54.27
343.189	29.7
343.401	46.08
343.613	11.26
343.826	84.99
344.038	41.98
344.25	103.42
344.462	44.03
344.674	-3.07
344.886	68.61
345.099	46.08
345.311	50.18
345.523	29.7
345.735	35.84
345.947	-7.17
346.159	62.46
346.371	52.22
346.583	60.42
346.795	60.42
347.007	80.89
347.219	17.41
347.431	64.51
347.643	93.18
347.855	99.33
348.067	56.32
348.279	9.22
348.491	111.61
348.703	48.13
348.915	74.75
349.127	-13.31
349.339	113.66
349.551	21.5
349.763	107.52
349.975	64.51
350.187	56.32
350.399	-11.26
350.61	111.61
350.822	148.48
351.034	33.79
351.246	48.13
351.458	54.27
351.669	105.47
351.881	123.9
352.093	109.57
352.305	60.42
352.517	78.85
352.728	58.37
352.94	37.89
353.152	60.42
353.363	105.47
353.575	66.56
353.787	33.79
353.999	56.32
354.21	80.89
354.422	123.9
354.633	62.46
354.845	72.7
355.057	68.61
355.268	7.17
355.48	150.53
355.692	21.5
355.903	99.33
356.115	46.08
356.326	74.75
356.538	-17.41
356.749	25.6
356.961	84.99
357.172	84.99
357.384	58.37
357.595	140.29
357.807	64.51
358.018	15.36
358.23	35.84
358.441	25.6
358.653	130.05
358.864	93.18
359.075	3.07
359.287	64.51
359.498	19.46
359.709	93.18
359.921	140.29
360.132	31.74
360.344	56.32
360.555	35.84
360.766	35.84
360.977	15.36
361.189	60.42
361.4	54.27
361.611	46.08
361.823	121.85
362.034	54.27
362.245	17.41
362.456	66.56
362.667	66.56
362.879	72.7
363.09	80.89
363.301	101.37
363.512	89.09
363.723	35.84
363.935	15.36
364.146	68.61
364.357	-56.32
364.568	72.7
364.779	119.81
364.99	97.28
365.201	72.7
365.412	125.95
365.623	33.79
365.834	68.61
366.045	103.42
366.256	82.94
366.467	48.13
366.678	76.8
366.889	41.98
367.1	74.75
367.311	41.98
367.522	105.47
367.733	54.27
367.944	52.22
368.155	91.13
368.366	76.8
368.577	72.7
368.788	132.09
368.999	9.22
369.209	99.33
369.42	74.75
369.631	117.76
369.842	-11.26
370.053	103.42
370.264	64.51
370.474	105.47
370.685	80.89
370.896	117.76
371.107	58.37
371.317	58.37
371.528	91.13
371.739	84.99
371.95	76.8
372.16	113.66
372.371	99.33
372.582	76.8
372.792	15.36
373.003	19.46
373.214	74.75
373.424	74.75
373.635	82.94
373.846	62.46
374.056	39.94
374.267	78.85
374.477	93.18
374.688	89.09
374.898	7.17
375.109	82.94
375.319	44.03
375.53	132.09
375.74	103.42
375.951	19.46
376.161	68.61
376.372	123.9
376.582	25.6
376.793	84.99
377.003	62.46
377.214	62.46
377.424	56.32
377.635	-23.55
377.845	80.89
378.055	70.65
378.266	62.46
378.476	46.08
378.686	72.7
378.897	-5.12
379.107	68.61
379.317	66.56
379.528	58.37
379.738	78.85
379.948	-37.89
380.158	152.57
380.369	11.26
380.579	52.22
380.789	7.17
380.999	111.61
381.21	58.37
381.42	46.08
381.63	25.6
381.84	107.52
382.05	54.27
382.261	132.09
382.471	117.76
382.681	101.37
382.891	132.09
383.101	52.22
383.311	103.42
383.521	1.02
383.731	52.22
383.941	105.47
384.151	62.46
384.361	142.33
384.571	31.74
384.781	48.13
384.991	101.37
385.201	101.37
385.411	128
385.621	89.09
385.831	99.33
386.041	125.95
386.251	48.13
386.461	130.05
386.671	97.28
386.881	138.24
387.091	82.94
387.301	150.53
387.511	101.37
387.72	74.75
387.93	146.43
388.14	33.79
388.35	93.18
388.56	74.75
388.769	87.04
388.979	105.47
389.189	50.18
389.399	105.47
389.609	82.94
389.818	136.19
390.028	119.81
390.238	115.71
390.447	76.8
390.657	87.04
390.867	134.14
391.076	50.18
391.286	52.22
391.496	140.29
391.705	56.32
391.915	136.19
392.125	105.47
392.334	60.42
392.544	123.9
392.753	50.18
392.963	39.94
393.172	74.75
393.382	101.37
393.591	152.57
393.801	160.77
394.01	166.91
394.22	101.37
394.429	138.24
394.639	93.18
394.848	136.19
395.058	103.42
395.267	97.28
395.477	50.18
395.686	148.48
395.895	216.06
396.105	136.19
396.314	142.33
396.524	115.71
396.733	111.61
396.942	179.2
397.152	125.95
397.361	132.09
397.57	87.04
397.78	95.23
397.989	134.14
398.198	209.92
398.407	156.67
398.617	105.47
398.826	201.72
399.035	144.38
399.244	162.81
399.453	80.89
399.663	134.14
399.872	89.09
400.081	103.42
400.29	152.57
400.499	148.48
400.708	113.66
400.917	123.9
401.127	93.18
401.336	181.25
401.545	175.1
401.754	173.05
401.963	54.27
402.172	177.15
402.381	226.3
402.59	109.57
402.799	166.91
403.008	119.81
403.217	162.81
403.426	166.91
403.635	138.24
403.844	175.1
404.053	168.96
404.262	138.24
404.471	207.87
404.68	201.72
404.888	168.96
405.097	185.34
405.306	193.53
405.515	183.29
405.724	205.82
405.933	193.53
406.142	177.15
406.35	234.49
406.559	242.68
406.768	175.1
406.977	201.72
407.185	300.03
407.394	273.4
407.603	238.59
407.812	297.98
408.02	263.16
408.229	214.01
408.438	238.59
408.646	226.3
408.855	332.79
409.064	289.79
409.272	285.69
409.481	279.55
409.69	402.43
409.898	291.84
410.107	330.75
410.315	388.09
410.524	369.66
410.733	392.19
410.941	381.95
411.15	441.34
411.358	515.06
411.567	490.49
411.775	441.34
411.984	476.15
412.192	588.79
412.401	510.97
412.609	515.06
412.818	551.93
413.026	613.37
413.234	609.27
413.443	637.94
413.651	721.91
413.86	631.8
414.068	789.49
414.276	783.35
414.485	781.3
414.693	805.88
414.901	848.88
415.11	941.04
415.318	865.27
415.526	895.99
415.734	930.8
415.943	949.23
416.151	955.38
416.359	1000.43
416.567	1068.02
416.776	1010.67
416.984	1080.3
417.192	1166.32
417.4	1076.21
417.608	1078.26
417.817	1201.13
418.025	1319.92
418.233	1342.44
418.441	1285.1
418.649	1481.71
418.857	1485.8
419.065	1520.62
419.273	1467.37
419.481	1614.82
419.689	1782.76
419.897	1780.71
420.105	1842.15
420.313	1756.13
420.521	1944.55
420.729	1938.4
420.937	1977.31
421.145	1977.31
421.353	2155.49
421.561	2288.61
421.769	2442.2
421.977	2395.1
422.185	2386.91
422.393	2415.58
422.601	2642.9
422.809	2638.81
423.017	2786.26
423.224	2819.03
423.432	2921.43
423.64	2837.46
423.848	3253.2
424.056	3066.83
424.263	3230.67
424.471	3419.08
424.679	3527.63
424.887	3470.28
425.094	3773.38
425.302	3785.67
425.51	3871.68
425.718	4064.19
425.925	4002.75
426.133	4066.24
426.341	4264.89
426.548	4604.86
426.756	4613.05
426.964	4688.82
427.171	4991.92
427.379	5077.94
427.586	5166
427.794	5247.92
428.001	5524.4
428.209	5741.48
428.417	5677.99
428.624	6144.93
428.832	6136.74
429.039	6187.94
429.247	6103.97
429.454	6579.1
429.662	7070.61
429.869	6597.53
430.076	7050.13
430.284	6845.34
430.491	7211.92
430.699	7553.93
430.906	7707.53
431.114	7496.59
431.321	7947.14
431.528	8266.63
431.736	8719.23
431.943	8981.37
432.15	8682.36
432.358	8737.66
432.565	9247.6
432.772	9276.27
432.979	9845.61
433.187	9960.3
433.394	9818.99
433.601	10660.7
433.808	10605.41
434.016	10623.84
434.223	11170.65
434.43	11635.53
434.637	11625.29
434.844	12301.12
435.052	12446.53
435.259	12434.24
435.466	12399.43
435.673	12180.29
435.88	13269.81
436.087	13691.7
436.294	13937.45
436.501	13609.78
436.708	13634.35
436.915	14385.96
437.122	15035.16
437.329	14949.15
437.537	15319.83
437.743	15375.13
437.95	15551.25
438.157	16298.76
438.364	16589.57
438.571	16814.85
438.778	16984.83
438.985	18541.29
439.192	17599.22
439.399	18258.67
439.606	17992.43
439.813	18760.42
440.02	20095.69
440.227	19725.01
440.433	19536.6
440.64	20105.93
440.847	20073.17
441.054	20595.4
441.261	22098.61
441.467	21476.02
441.674	21619.38
441.881	22612.65
442.088	22661.8
442.294	22637.22
442.501	23050.91
442.708	23771.8
442.914	24267.41
443.121	25559.67
443.328	24937.09
443.534	26393.2
443.741	25772.66
443.948	25098.88
444.154	27333.21
444.361	26819.17
444.568	27208.29
444.774	27495
444.981	27578.97
445.187	28406.35
445.394	29676.09
445.6	29346.37
445.807	32522.77
446.013	30949.93
446.22	30994.98
446.426	32565.78
446.633	32778.76
446.839	33741.31
447.046	32545.3
447.252	34241.01
447.459	33976.83
447.665	34198.01
447.871	36352.47
448.078	37398.98
448.284	35643.87
448.491	36407.76
448.697	37986.75
448.903	38320.57
449.11	38457.78
449.316	37917.12
449.522	38621.62
449.728	39606.69
449.935	39893.41
450.141	39758.24
450.347	41294.22
450.553	39657.89
450.76	40042.91
450.966	41406.86
451.172	40835.47
451.378	42101.12
451.584	40743.31
451.791	41728.39
451.997	42015.1
452.203	42895.73
452.409	42783.09
452.615	42424.7
452.821	41058.7
453.027	40817.04
453.233	42350.97
453.44	40991.12
453.646	41904.51
453.852	41693.57
454.058	42500.47
454.264	41193.87
454.47	41677.19
454.676	40786.32
454.882	42527.1
455.088	38689.2
455.294	39547.3
455.5	40079.77
455.705	40593.81
455.911	38918.57
456.117	37810.62
456.323	37403.08
456.529	35580.39
456.735	37073.35
456.941	36092.38
457.147	35598.82
457.352	34335.22
457.558	34025.98
457.764	34077.18
457.97	33364.48
458.176	32780.81
458.381	33157.64
458.587	31457.82
458.793	31328.8
458.999	29850.17
459.204	31978.01
459.41	30859.82
459.616	28912.2
459.821	28994.12
460.027	28891.72
460.233	28215.89
460.438	26888.81
460.644	26944.1
460.85	25821.81
461.055	25475.71
461.261	25367.16
461.466	23556.76
461.672	22778.53
461.878	24328.84
462.083	22645.41
462.289	22432.43
462.494	22045.36
462.7	21125.82
462.905	20601.54
463.111	21140.16
463.316	21174.97
463.522	21168.83
463.727	21187.26
463.932	21050.05
464.138	20445.9
464.343	20697.8
464.549	20081.36
464.754	20992.7
464.959	20366.03
465.165	20832.96
465.37	19634.9
465.575	18887.39
465.781	19618.52
465.986	19743.44
466.191	19294.94
466.397	18873.06
466.602	17918.7
466.807	18479.85
467.012	18617.06
467.218	18399.98
467.423	18485.99
