Data from USB4F104151__7__12-34-58-865.txt Node

Date: Fri Mar 14 12:34:58 EDT 2025
User: louis
Spectrometer: USB4F10415
Trigger mode: 4
Integration Time (sec): 2.000000E-2
Scans to average: 1
Electric dark correction enabled: true
Nonlinearity correction enabled: false
Boxcar width: 0
XAxis mode: Wavelengths
Number of Pixels in Spectrum: 3648
>>>>>Begin Spectral Data<<<<<
178.204	-92.33
178.424	-92.33
178.644	-92.33
178.864	-71.85
179.084	-96.43
179.304	-47.27
179.524	61.27
179.744	-57.51
179.964	71.51
180.184	16.21
180.404	-20.65
180.624	34.64
180.844	55.12
181.064	-24.75
181.283	1.88
181.503	-75.95
181.723	-14.51
181.943	-90.28
182.163	-30.89
182.383	-39.08
182.602	59.22
182.822	96.08
183.042	57.17
183.262	30.55
183.482	-2.22
183.701	-12.46
183.921	48.98
184.141	-0.17
184.361	81.75
184.58	32.6
184.8	-24.75
185.02	-4.27
185.239	12.12
185.459	-10.41
185.679	-8.36
185.898	12.12
186.118	-12.46
186.338	-57.51
186.557	96.08
186.777	-32.94
186.997	-20.65
187.216	69.46
187.436	-8.36
187.655	-24.75
187.875	-4.27
188.095	-51.37
188.314	42.84
188.534	14.17
188.753	57.17
188.973	20.31
189.192	65.36
189.412	63.32
189.631	48.98
189.851	-24.75
190.07	14.17
190.29	-12.46
190.509	83.8
190.729	3.93
190.948	69.46
191.168	98.13
191.387	-0.17
191.607	-61.61
191.826	71.51
192.045	38.74
192.265	-63.66
192.484	26.45
192.704	3.93
192.923	-55.47
193.142	3.93
193.362	40.79
193.581	24.4
193.8	87.89
194.02	40.79
194.239	-30.89
194.458	34.64
194.678	20.31
194.897	12.12
195.116	32.6
195.335	28.5
195.555	48.98
195.774	24.4
195.993	3.93
196.212	-47.27
196.432	38.74
196.651	-12.46
196.87	3.93
197.089	110.42
197.308	16.21
197.528	-14.51
197.747	-2.22
197.966	34.64
198.185	38.74
198.404	59.22
198.623	-0.17
198.842	32.6
199.062	-14.51
199.281	14.17
199.5	87.89
199.719	34.64
199.938	5.97
200.157	122.71
200.376	44.88
200.595	5.97
200.814	18.26
201.033	32.6
201.252	20.31
201.471	-8.36
201.69	34.64
201.909	-22.7
202.128	63.32
202.347	-41.13
202.566	22.36
202.785	-34.99
203.004	10.07
203.223	-12.46
203.442	-96.43
203.661	-43.18
203.879	10.07
204.098	-22.7
204.317	-51.37
204.536	61.27
204.755	-0.17
204.974	1.88
205.193	51.03
205.411	10.07
205.63	75.6
205.849	12.12
206.068	8.02
206.287	20.31
206.505	69.46
206.724	-8.36
206.943	-39.08
207.162	30.55
207.381	-10.41
207.599	-2.22
207.818	38.74
208.037	26.45
208.255	38.74
208.474	94.04
208.693	-20.65
208.911	-37.03
209.13	18.26
209.349	81.75
209.567	65.36
209.786	30.55
210.005	36.69
210.223	14.17
210.442	-59.56
210.661	69.46
210.879	14.17
211.098	-8.36
211.316	-34.99
211.535	1.88
211.753	-8.36
211.972	57.17
212.191	-28.84
212.409	5.97
212.628	81.75
212.846	10.07
213.065	26.45
213.283	83.8
213.502	-4.27
213.72	44.88
213.938	34.64
214.157	38.74
214.375	20.31
214.594	-2.22
214.812	91.99
215.031	51.03
215.249	-30.89
215.467	53.08
215.686	-8.36
215.904	30.55
216.122	24.4
216.341	57.17
216.559	67.41
216.778	51.03
216.996	3.93
217.214	32.6
217.432	8.02
217.651	-18.6
217.869	8.02
218.087	-10.41
218.306	-67.75
218.524	-45.23
218.742	-41.13
218.96	32.6
219.179	94.04
219.397	34.64
219.615	34.64
219.833	1.88
220.051	116.56
220.27	135
220.488	48.98
220.706	3.93
220.924	36.69
221.142	-67.75
221.36	-10.41
221.578	28.5
221.796	-57.51
222.015	42.84
222.233	67.41
222.451	24.4
222.669	87.89
222.887	-30.89
223.105	-18.6
223.323	-18.6
223.541	-45.23
223.759	24.4
223.977	-2.22
224.195	48.98
224.413	3.93
224.631	14.17
224.849	26.45
225.067	61.27
225.285	-59.56
225.503	-2.22
225.721	36.69
225.939	-16.55
226.157	18.26
226.375	102.23
226.592	-71.85
226.81	38.74
227.028	-34.99
227.246	81.75
227.464	16.21
227.682	34.64
227.9	-30.89
228.117	-8.36
228.335	28.5
228.553	-90.28
228.771	-37.03
228.989	77.65
229.206	-61.61
229.424	24.4
229.642	-12.46
229.86	3.93
230.077	32.6
230.295	55.12
230.513	-0.17
230.731	1.88
230.948	-14.51
231.166	-32.94
231.384	12.12
231.601	44.88
231.819	-4.27
232.037	24.4
232.254	26.45
232.472	14.17
232.689	-4.27
232.907	28.5
233.125	42.84
233.342	-59.56
233.56	36.69
233.777	40.79
233.995	-39.08
234.213	8.02
234.43	14.17
234.648	-24.75
234.865	8.02
235.083	-22.7
235.3	1.88
235.518	1.88
235.735	120.66
235.953	77.65
236.17	48.98
236.388	24.4
236.605	-6.31
236.822	57.17
237.04	-4.27
237.257	14.17
237.475	-53.42
237.692	16.21
237.909	14.17
238.127	63.32
238.344	36.69
238.562	81.75
238.779	-14.51
238.996	16.21
239.214	18.26
239.431	-2.22
239.648	-67.75
239.865	20.31
240.083	32.6
240.3	71.51
240.517	-6.31
240.735	-4.27
240.952	48.98
241.169	-26.79
241.386	44.88
241.603	28.5
241.821	-59.56
242.038	102.23
242.255	18.26
242.472	24.4
242.689	-0.17
242.907	67.41
243.124	32.6
243.341	-18.6
243.558	8.02
243.775	1.88
243.992	69.46
244.209	26.45
244.426	1.88
244.643	128.85
244.86	30.55
245.078	44.88
245.295	24.4
245.512	79.7
245.729	-24.75
245.946	42.84
246.163	38.74
246.38	51.03
246.597	5.97
246.814	1.88
247.031	-45.23
247.248	-18.6
247.464	-32.94
247.681	22.36
247.898	22.36
248.115	106.32
248.332	77.65
248.549	34.64
248.766	-0.17
248.983	-86.19
249.2	22.36
249.417	51.03
249.633	63.32
249.85	10.07
250.067	65.36
250.284	30.55
250.501	5.97
250.717	14.17
250.934	-39.08
251.151	-22.7
251.368	38.74
251.585	3.93
251.801	12.12
252.018	-24.75
252.235	18.26
252.451	-10.41
252.668	3.93
252.885	59.22
253.102	65.36
253.318	32.6
253.535	14.17
253.752	-73.9
253.968	-24.75
254.185	65.36
254.401	51.03
254.618	-20.65
254.835	24.4
255.051	65.36
255.268	30.55
255.484	38.74
255.701	16.21
255.917	-57.51
256.134	12.12
256.351	79.7
256.567	14.17
256.784	63.32
257	-51.37
257.217	40.79
257.433	12.12
257.65	100.18
257.866	61.27
258.082	-118.95
258.299	40.79
258.515	83.8
258.732	18.26
258.948	-41.13
259.165	26.45
259.381	-43.18
259.597	-0.17
259.814	18.26
260.03	5.97
260.246	26.45
260.463	14.17
260.679	77.65
260.895	65.36
261.112	71.51
261.328	-22.7
261.544	-24.75
261.761	55.12
261.977	-18.6
262.193	-4.27
262.409	26.45
262.626	24.4
262.842	112.47
263.058	-0.17
263.274	30.55
263.49	-26.79
263.707	38.74
263.923	14.17
264.139	-45.23
264.355	18.26
264.571	26.45
264.787	61.27
265.004	71.51
265.22	-8.36
265.436	-39.08
265.652	-8.36
265.868	-8.36
266.084	-14.51
266.3	-20.65
266.516	24.4
266.732	3.93
266.948	3.93
267.164	-63.66
267.38	12.12
267.596	-26.79
267.812	18.26
268.028	1.88
268.244	-67.75
268.46	10.07
268.676	-26.79
268.892	3.93
269.108	-12.46
269.324	-6.31
269.54	1.88
269.756	71.51
269.972	8.02
270.188	8.02
270.403	-69.8
270.619	-30.89
270.835	46.93
271.051	24.4
271.267	-39.08
271.483	3.93
271.698	-14.51
271.914	3.93
272.13	-47.27
272.346	81.75
272.562	-20.65
272.777	61.27
272.993	55.12
273.209	22.36
273.425	69.46
273.64	-18.6
273.856	57.17
274.072	8.02
274.287	-28.84
274.503	34.64
274.719	26.45
274.934	-16.55
275.15	-14.51
275.366	1.88
275.581	-14.51
275.797	40.79
276.012	22.36
276.228	55.12
276.444	-2.22
276.659	24.4
276.875	5.97
277.09	96.08
277.306	-18.6
277.521	14.17
277.737	18.26
277.952	-47.27
278.168	61.27
278.383	67.41
278.599	36.69
278.814	71.51
279.03	51.03
279.245	81.75
279.461	40.79
279.676	-24.75
279.892	-43.18
280.107	38.74
280.322	-39.08
280.538	-30.89
280.753	55.12
280.969	-4.27
281.184	28.5
281.399	3.93
281.615	48.98
281.83	48.98
282.045	-61.61
282.26	38.74
282.476	38.74
282.691	59.22
282.906	24.4
283.122	40.79
283.337	73.56
283.552	24.4
283.767	1.88
283.983	87.89
284.198	-41.13
284.413	59.22
284.628	-18.6
284.843	120.66
285.058	12.12
285.274	-49.32
285.489	-10.41
285.704	61.27
285.919	18.26
286.134	20.31
286.349	-32.94
286.564	73.56
286.779	51.03
286.995	-14.51
287.21	-49.32
287.425	30.55
287.64	10.07
287.855	-39.08
288.07	-30.89
288.285	24.4
288.5	73.56
288.715	79.7
288.93	-30.89
289.145	16.21
289.36	-28.84
289.575	40.79
289.79	-0.17
290.004	40.79
290.219	32.6
290.434	8.02
290.649	46.93
290.864	30.55
291.079	-14.51
291.294	24.4
291.509	-41.13
291.724	-6.31
291.938	20.31
292.153	65.36
292.368	1.88
292.583	20.31
292.798	36.69
293.012	36.69
293.227	28.5
293.442	18.26
293.657	-47.27
293.871	20.31
294.086	1.88
294.301	73.56
294.516	-12.46
294.73	26.45
294.945	83.8
295.16	1.88
295.374	14.17
295.589	46.93
295.804	79.7
296.018	14.17
296.233	114.52
296.447	48.98
296.662	22.36
296.877	10.07
297.091	32.6
297.306	-8.36
297.52	-73.9
297.735	44.88
297.949	-24.75
298.164	104.28
298.378	77.65
298.593	71.51
298.807	-53.42
299.022	24.4
299.236	5.97
299.451	75.6
299.665	22.36
299.88	79.7
300.094	-75.95
300.309	-6.31
300.523	44.88
300.737	16.21
300.952	57.17
301.166	63.32
301.381	-4.27
301.595	38.74
301.809	51.03
302.024	-24.75
302.238	1.88
302.452	67.41
302.667	32.6
302.881	48.98
303.095	-6.31
303.309	-18.6
303.524	8.02
303.738	73.56
303.952	14.17
304.166	-8.36
304.381	-69.8
304.595	34.64
304.809	-61.61
305.023	-86.19
305.237	-77.99
305.452	-41.13
305.666	57.17
305.88	10.07
306.094	18.26
306.308	-12.46
306.522	36.69
306.736	-0.17
306.95	36.69
307.164	53.08
307.379	63.32
307.593	65.36
307.807	71.51
308.021	14.17
308.235	55.12
308.449	57.17
308.663	28.5
308.877	8.02
309.091	40.79
309.305	67.41
309.519	-26.79
309.733	14.17
309.947	38.74
310.161	-16.55
310.374	22.36
310.588	-4.27
310.802	10.07
311.016	-0.17
311.23	12.12
311.444	53.08
311.658	30.55
311.872	61.27
312.085	-37.03
312.299	53.08
312.513	79.7
312.727	36.69
312.941	85.84
313.154	77.65
313.368	-45.23
313.582	-20.65
313.796	55.12
314.009	10.07
314.223	-0.17
314.437	89.94
314.651	-18.6
314.864	55.12
315.078	-55.47
315.292	55.12
315.505	18.26
315.719	-8.36
315.933	1.88
316.146	8.02
316.36	-34.99
316.573	-26.79
316.787	71.51
317.001	14.17
317.214	-37.03
317.428	28.5
317.641	-57.51
317.855	-12.46
318.068	38.74
318.282	34.64
318.495	40.79
318.709	18.26
318.922	36.69
319.136	65.36
319.349	26.45
319.563	81.75
319.776	18.26
319.99	-16.55
320.203	79.7
320.417	-26.79
320.63	-8.36
320.843	61.27
321.057	18.26
321.27	-4.27
321.483	79.7
321.697	61.27
321.91	57.17
322.124	-10.41
322.337	24.4
322.55	51.03
322.763	-26.79
322.977	38.74
323.19	14.17
323.403	-37.03
323.617	-8.36
323.83	38.74
324.043	-77.99
324.256	46.93
324.469	28.5
324.683	-20.65
324.896	59.22
325.109	40.79
325.322	-30.89
325.535	-6.31
325.748	53.08
325.962	32.6
326.175	67.41
326.388	38.74
326.601	73.56
326.814	-34.99
327.027	8.02
327.24	10.07
327.453	51.03
327.666	67.41
327.879	-12.46
328.092	61.27
328.305	12.12
328.518	-18.6
328.731	-16.55
328.944	18.26
329.157	57.17
329.37	53.08
329.583	65.36
329.796	-8.36
330.009	-18.6
330.222	85.84
330.435	57.17
330.648	32.6
330.861	18.26
331.073	30.55
331.286	-30.89
331.499	-30.89
331.712	-41.13
331.925	24.4
332.138	-6.31
332.35	51.03
332.563	48.98
332.776	91.99
332.989	8.02
333.202	48.98
333.414	53.08
333.627	8.02
333.84	20.31
334.053	51.03
334.265	1.88
334.478	-32.94
334.691	36.69
334.903	28.5
335.116	28.5
335.329	-18.6
335.541	-2.22
335.754	108.37
335.966	63.32
336.179	-32.94
336.392	-69.8
336.604	55.12
336.817	73.56
337.029	67.41
337.242	-32.94
337.454	73.56
337.667	-26.79
337.88	73.56
338.092	55.12
338.305	34.64
338.517	69.46
338.729	-16.55
338.942	77.65
339.154	-12.46
339.367	-28.84
339.579	14.17
339.792	14.17
340.004	14.17
340.217	20.31
340.429	22.36
340.641	30.55
340.854	-57.51
341.066	28.5
341.278	-6.31
341.491	40.79
341.703	-26.79
341.915	5.97
342.128	91.99
342.34	73.56
342.552	-16.55
342.764	63.32
342.977	12.12
343.189	-2.22
343.401	132.95
343.613	-45.23
343.826	26.45
344.038	-8.36
344.25	73.56
344.462	-16.55
344.674	-4.27
344.886	30.55
345.099	59.22
345.311	51.03
345.523	-20.65
345.735	26.45
345.947	83.8
346.159	63.32
346.371	65.36
346.583	34.64
346.795	85.84
347.007	55.12
347.219	-41.13
347.431	5.97
347.643	102.23
347.855	61.27
348.067	57.17
348.279	42.84
348.491	40.79
348.703	34.64
348.915	-18.6
349.127	36.69
349.339	-0.17
349.551	38.74
349.763	65.36
349.975	-59.56
350.187	55.12
350.399	-28.84
350.61	20.31
350.822	-0.17
351.034	79.7
351.246	51.03
351.458	-16.55
351.669	16.21
351.881	73.56
352.093	18.26
352.305	42.84
352.517	135
352.728	69.46
352.94	85.84
353.152	46.93
353.363	-59.56
353.575	67.41
353.787	-6.31
353.999	16.21
354.21	53.08
354.422	-34.99
354.633	-26.79
354.845	65.36
355.057	89.94
355.268	77.65
355.48	34.64
355.692	67.41
355.903	14.17
356.115	-18.6
356.326	22.36
356.538	79.7
356.749	20.31
356.961	71.51
357.172	26.45
357.384	59.22
357.595	42.84
357.807	38.74
358.018	-2.22
358.23	75.6
358.441	1.88
358.653	106.32
358.864	-28.84
359.075	-18.6
359.287	-24.75
359.498	110.42
359.709	53.08
359.921	48.98
360.132	34.64
360.344	120.66
360.555	16.21
360.766	51.03
360.977	38.74
361.189	28.5
361.4	30.55
361.611	48.98
361.823	65.36
362.034	38.74
362.245	-26.79
362.456	55.12
362.667	48.98
362.879	1.88
363.09	12.12
363.301	67.41
363.512	57.17
363.723	-55.47
363.935	-18.6
364.146	30.55
364.357	-20.65
364.568	100.18
364.779	14.17
364.99	114.52
365.201	34.64
365.412	161.62
365.623	-4.27
365.834	22.36
366.045	34.64
366.256	46.93
366.467	-43.18
366.678	16.21
366.889	28.5
367.1	57.17
367.311	-18.6
367.522	75.6
367.733	-32.94
367.944	36.69
368.155	3.93
368.366	28.5
368.577	20.31
368.788	24.4
368.999	-32.94
369.209	-0.17
369.42	91.99
369.631	69.46
369.842	69.46
370.053	-8.36
370.264	63.32
370.474	32.6
370.685	48.98
370.896	14.17
371.107	51.03
371.317	75.6
371.528	63.32
371.739	63.32
371.95	94.04
372.16	-10.41
372.371	-90.28
372.582	-6.31
372.792	18.26
373.003	-8.36
373.214	26.45
373.424	36.69
373.635	18.26
373.846	81.75
374.056	69.46
374.267	32.6
374.477	24.4
374.688	42.84
374.898	83.8
375.109	-4.27
375.319	16.21
375.53	42.84
375.74	-45.23
375.951	-16.55
376.161	22.36
376.372	114.52
376.582	-26.79
376.793	42.84
377.003	14.17
377.214	81.75
377.424	10.07
377.635	63.32
377.845	5.97
378.055	69.46
378.266	40.79
378.476	28.5
378.686	61.27
378.897	16.21
379.107	40.79
379.317	14.17
379.528	51.03
379.738	-20.65
379.948	-34.99
380.158	42.84
380.369	38.74
380.579	42.84
380.789	38.74
380.999	3.93
381.21	69.46
381.42	91.99
381.63	26.45
381.84	1.88
382.05	44.88
382.261	79.7
382.471	63.32
382.681	32.6
382.891	30.55
383.101	16.21
383.311	46.93
383.521	-12.46
383.731	22.36
383.941	89.94
384.151	14.17
384.361	-16.55
384.571	96.08
384.781	36.69
384.991	106.32
385.201	59.22
385.411	61.27
385.621	32.6
385.831	61.27
386.041	24.4
386.251	-39.08
386.461	-32.94
386.671	46.93
386.881	96.08
387.091	61.27
387.301	63.32
387.511	24.4
387.72	8.02
387.93	65.36
388.14	57.17
388.35	1.88
388.56	46.93
388.769	3.93
388.979	67.41
389.189	63.32
389.399	46.93
389.609	26.45
389.818	-18.6
390.028	-8.36
390.238	126.8
390.447	5.97
390.657	57.17
390.867	132.95
391.076	48.98
391.286	40.79
391.496	44.88
391.705	53.08
391.915	22.36
392.125	40.79
392.334	-24.75
392.544	69.46
392.753	59.22
392.963	22.36
393.172	53.08
393.382	10.07
393.591	34.64
393.801	57.17
394.01	53.08
394.22	81.75
394.429	-2.22
394.639	34.64
394.848	65.36
395.058	26.45
395.267	3.93
395.477	46.93
395.686	-6.31
395.895	110.42
396.105	57.17
396.314	63.32
396.524	28.5
396.733	36.69
396.942	91.99
397.152	24.4
397.361	73.56
397.57	145.24
397.78	102.23
397.989	57.17
398.198	186.19
398.407	63.32
398.617	83.8
398.826	36.69
399.035	73.56
399.244	112.47
399.453	81.75
399.663	55.12
399.872	112.47
400.081	51.03
400.29	79.7
400.499	83.8
400.708	118.61
400.917	98.13
401.127	89.94
401.336	-14.51
401.545	94.04
401.754	108.37
401.963	75.6
402.172	83.8
402.381	91.99
402.59	126.8
402.799	96.08
403.008	73.56
403.217	122.71
403.426	89.94
403.635	63.32
403.844	34.64
404.053	22.36
404.262	137.04
404.471	55.12
404.68	126.8
404.888	147.28
405.097	57.17
405.306	98.13
405.515	165.71
405.724	155.47
405.933	112.47
406.142	67.41
406.35	124.76
406.559	147.28
406.768	214.87
406.977	106.32
407.185	126.8
407.394	106.32
407.603	149.33
407.812	149.33
408.02	190.29
408.229	163.67
408.438	294.74
408.646	85.84
408.855	202.58
409.064	253.78
409.272	180.05
409.481	182.1
409.69	167.76
409.898	173.91
410.107	221.01
410.315	261.97
410.524	266.07
410.733	315.22
410.941	200.53
411.15	245.59
411.358	366.42
411.567	278.35
411.775	290.64
411.984	231.25
412.192	352.08
412.401	329.55
412.609	272.21
412.818	460.62
413.026	405.33
413.234	327.5
413.443	395.09
413.651	376.66
413.86	423.76
414.068	493.39
414.276	493.39
414.485	479.05
414.693	513.87
414.901	503.63
415.11	501.58
415.318	524.11
415.526	614.22
415.734	499.53
415.943	581.45
416.151	698.19
416.359	624.46
416.567	608.08
416.776	614.22
416.984	743.24
417.192	749.39
417.4	726.86
417.608	642.89
417.817	847.69
418.025	827.21
418.233	917.32
418.441	833.35
418.649	868.17
418.857	997.19
419.065	1001.29
419.273	1077.06
419.481	968.52
419.689	1060.68
419.897	1150.79
420.105	1165.12
420.313	1226.56
420.521	1273.67
420.729	1314.63
420.937	1257.28
421.145	1357.63
421.353	1390.4
421.561	1417.02
421.769	1492.8
421.977	1621.82
422.185	1539.9
422.393	1681.21
422.601	1709.88
422.809	1763.13
423.017	1701.69
423.224	1830.71
423.432	2008.89
423.64	1931.06
423.848	2182.96
424.056	2012.98
424.263	2178.87
424.471	2172.72
424.679	2217.78
424.887	2297.65
425.094	2375.47
425.302	2426.67
425.51	2500.4
425.718	2391.86
425.925	2606.89
426.133	2674.48
426.341	2770.73
426.548	2971.43
426.756	3004.2
426.964	3043.11
427.171	3249.96
427.379	3209
427.586	3331.87
427.794	3397.41
428.001	3548.96
428.209	3729.18
428.417	3690.27
428.624	3929.88
428.832	3772.19
429.039	3878.68
429.247	3823.39
429.454	4224.79
429.662	4732.69
429.869	4364.05
430.076	4552.46
430.284	4519.7
430.491	4667.15
430.699	4861.71
430.906	4890.38
431.114	5052.17
431.321	5148.42
431.528	5244.68
431.736	5721.85
431.943	5789.44
432.15	5641.98
432.358	5656.32
432.565	6000.38
432.772	5981.95
432.979	6362.87
433.187	6475.51
433.394	6659.82
433.601	7026.41
433.808	7079.66
434.016	6932.2
434.223	7149.29
434.43	7696.1
434.637	7290.6
434.844	7902.94
435.052	8062.68
435.259	8036.06
435.466	8009.44
435.673	7798.49
435.88	8560.34
436.087	8910.54
436.294	8935.12
436.501	8705.74
436.708	8943.31
436.915	9410.25
437.122	9649.86
437.329	9637.57
437.537	9998.01
437.743	10143.42
437.95	10030.78
438.157	10458.81
438.364	10874.54
438.571	10819.25
438.778	11024.05
438.985	11787.94
439.192	11464.36
439.399	11726.5
439.606	11722.4
439.813	12164.76
440.02	12955.28
440.227	12760.72
440.433	12691.09
440.64	12965.52
440.847	12701.33
441.054	13342.35
441.261	14192.25
441.467	14057.09
441.674	14210.68
441.881	14724.72
442.088	14554.74
442.294	14771.83
442.501	15040.11
442.708	15476.33
442.914	15910.5
443.121	16555.61
443.328	16246.37
443.534	17276.49
443.741	16703.06
443.948	16733.78
444.154	17823.3
444.361	17847.88
444.568	17708.62
444.774	17755.72
444.981	18081.35
445.187	18306.62
445.394	19168.82
445.6	18964.02
445.807	20968.98
446.013	20035.11
446.22	20373.02
446.426	20968.98
446.633	21241.36
446.839	21939.72
447.046	21007.89
447.252	22382.08
447.459	22351.36
447.665	22408.7
447.871	23303.67
448.078	24458.72
448.284	23117.3
448.491	23735.79
448.697	24860.12
448.903	25396.69
449.11	25155.03
449.316	24921.56
449.522	25273.81
449.728	26035.66
449.935	26142.15
450.141	26287.56
450.347	26850.75
450.553	26129.86
450.76	26219.97
450.966	26885.56
451.172	26783.16
451.378	27610.54
451.584	27106.74
451.791	27583.92
451.997	27536.82
452.203	27977.13
452.409	28386.72
452.615	27866.54
452.821	26959.29
453.027	26727.87
453.233	28274.09
453.44	27051.45
453.646	27495.86
453.852	27499.95
454.058	27735.47
454.264	26903.99
454.47	27686.32
454.676	27133.37
454.882	27932.08
455.088	25404.88
455.294	25638.35
455.5	26215.88
455.705	26455.49
455.911	25458.13
456.117	24964.57
456.323	24692.19
456.529	23449.07
456.735	24454.62
456.941	23809.51
457.147	23223.79
457.352	22386.18
457.558	22486.53
457.764	22396.42
457.97	21904.9
458.176	21804.55
458.381	21509.65
458.587	20393.5
458.793	20350.49
458.999	19605.03
459.204	20817.43
459.41	20026.92
459.616	18716.22
459.821	19002.93
460.027	18687.54
460.233	18304.57
460.438	17421.9
460.644	17716.81
460.85	16758.36
461.055	16473.69
461.261	16830.04
461.466	15482.47
461.672	14947.95
461.878	16035.42
462.083	14874.23
462.289	14601.85
462.494	14472.82
462.7	13819.52
462.905	13346.44
463.111	13919.87
463.316	14059.13
463.522	13622.92
463.727	13696.64
463.932	13610.63
464.138	13340.3
464.343	13497.99
464.549	13110.93
464.754	13606.53
464.959	13473.42
465.165	13242
465.37	12639.89
465.575	12549.78
465.781	12897.94
465.986	13354.63
466.191	12803.73
466.397	12250.78
466.602	11658.92
466.807	12230.3
467.012	12373.66
467.218	12252.83
467.423	12060.32
467.628	12023.45
