Data from USB4F104151__15__12-35-19-243.txt Node

Date: Fri Mar 14 12:35:19 EDT 2025
User: louis
Spectrometer: USB4F10415
Trigger mode: 4
Integration Time (sec): 2.000000E-2
Scans to average: 1
Electric dark correction enabled: true
Nonlinearity correction enabled: false
Boxcar width: 0
XAxis mode: Wavelengths
Number of Pixels in Spectrum: 3648
>>>>>Begin Spectral Data<<<<<
178.204	-129.88
178.424	-129.88
178.644	-129.88
178.864	-138.07
179.084	-45.91
179.304	-52.05
179.524	36.01
179.744	-54.1
179.964	56.49
180.184	29.87
180.404	-45.91
180.624	9.39
180.844	46.25
181.064	-80.72
181.283	-0.85
181.503	19.63
181.723	36.01
181.943	29.87
182.163	33.96
182.383	-33.62
182.602	50.35
182.822	-39.76
183.042	-33.62
183.262	-29.52
183.482	-23.38
183.701	-50
183.921	-23.38
184.141	3.24
184.361	-13.14
184.58	-15.19
184.8	46.25
185.02	46.25
185.239	-13.14
185.459	50.35
185.679	42.15
185.898	-21.33
186.118	38.06
186.338	3.24
186.557	-31.57
186.777	-0.85
186.997	3.24
187.216	-23.38
187.436	44.2
187.655	46.25
187.875	119.98
188.095	54.44
188.314	-21.33
188.534	-4.95
188.753	5.29
188.973	42.15
189.192	15.53
189.412	19.63
189.631	46.25
189.851	25.77
190.07	46.25
190.29	15.53
190.509	40.11
190.729	46.25
190.948	50.35
191.168	115.88
191.387	25.77
191.607	-43.86
191.826	19.63
192.045	3.24
192.265	52.39
192.484	79.02
192.704	38.06
192.923	-15.19
193.142	93.35
193.362	-9.05
193.581	33.96
193.8	1.19
194.02	-2.9
194.239	19.63
194.458	54.44
194.678	66.73
194.897	21.67
195.116	19.63
195.335	79.02
195.555	23.72
195.774	42.15
195.993	3.24
196.212	-0.85
196.432	-35.67
196.651	31.91
196.87	-9.05
197.089	87.21
197.308	-19.29
197.528	76.97
197.747	-7
197.966	27.82
198.185	31.91
198.404	56.49
198.623	81.07
198.842	-17.24
199.062	74.92
199.281	64.68
199.5	-2.9
199.719	31.91
199.938	74.92
200.157	33.96
200.376	54.44
200.595	-29.52
200.814	76.97
201.033	9.39
201.252	117.93
201.471	-11.09
201.69	33.96
201.909	25.77
202.128	62.63
202.347	56.49
202.566	3.24
202.785	-11.09
203.004	60.59
203.223	95.4
203.442	17.58
203.661	-35.67
203.879	-23.38
204.098	91.31
204.317	-41.81
204.536	-4.95
204.755	89.26
204.974	70.83
205.193	-39.76
205.411	42.15
205.63	-7
205.849	-23.38
206.068	33.96
206.287	-9.05
206.505	-23.38
206.724	-33.62
206.943	66.73
207.162	42.15
207.381	5.29
207.599	54.44
207.818	-62.29
208.037	5.29
208.255	27.82
208.474	1.19
208.693	7.34
208.911	7.34
209.13	11.43
209.349	38.06
209.567	79.02
209.786	58.54
210.005	-4.95
210.223	-47.96
210.442	-33.62
210.661	19.63
210.879	62.63
211.098	1.19
211.316	21.67
211.535	42.15
211.753	81.07
211.972	36.01
212.191	-23.38
212.409	15.53
212.628	56.49
212.846	56.49
213.065	72.87
213.283	50.35
213.502	3.24
213.72	-7
213.938	19.63
214.157	-11.09
214.375	117.93
214.594	13.48
214.812	31.91
215.031	9.39
215.249	36.01
215.467	-9.05
215.686	-33.62
215.904	36.01
216.122	66.73
216.341	27.82
216.559	19.63
216.778	70.83
216.996	21.67
217.214	99.5
217.432	-60.24
217.651	-4.95
217.869	5.29
218.087	27.82
218.306	-37.72
218.524	11.43
218.742	5.29
218.96	93.35
219.179	-11.09
219.397	-27.48
219.615	-0.85
219.833	17.58
220.051	31.91
220.27	11.43
220.488	50.35
220.706	-25.43
220.924	-43.86
221.142	74.92
221.36	-15.19
221.578	83.11
221.796	9.39
222.015	58.54
222.233	85.16
222.451	44.2
222.669	25.77
222.887	33.96
223.105	-9.05
223.323	119.98
223.541	13.48
223.759	17.58
223.977	62.63
224.195	42.15
224.413	13.48
224.631	36.01
224.849	-11.09
225.067	64.68
225.285	1.19
225.503	-37.72
225.721	-64.34
225.939	17.58
226.157	25.77
226.375	83.11
226.592	-37.72
226.81	-33.62
227.028	130.22
227.246	83.11
227.464	-23.38
227.682	31.91
227.9	25.77
228.117	60.59
228.335	-47.96
228.553	70.83
228.771	1.19
228.989	68.78
229.206	-11.09
229.424	-7
229.642	38.06
229.86	-9.05
230.077	-9.05
230.295	17.58
230.513	52.39
230.731	31.91
230.948	27.82
231.166	136.36
231.384	-2.9
231.601	-17.24
231.819	83.11
232.037	15.53
232.254	19.63
232.472	54.44
232.689	81.07
232.907	-11.09
233.125	-62.29
233.342	11.43
233.56	42.15
233.777	44.2
233.995	-43.86
234.213	70.83
234.43	85.16
234.648	17.58
234.865	40.11
235.083	25.77
235.3	-11.09
235.518	-31.57
235.735	70.83
235.953	-13.14
236.17	-21.33
236.388	48.3
236.605	5.29
236.822	50.35
237.04	68.78
237.257	89.26
237.475	-64.34
237.692	44.2
237.909	17.58
238.127	91.31
238.344	64.68
238.562	97.45
238.779	13.48
238.996	-0.85
239.214	29.87
239.431	25.77
239.648	11.43
239.865	52.39
240.083	-56.15
240.3	81.07
240.517	33.96
240.735	-13.14
240.952	91.31
241.169	44.2
241.386	-25.43
241.603	-19.29
241.821	-4.95
242.038	70.83
242.255	29.87
242.472	33.96
242.689	23.72
242.907	72.87
243.124	5.29
243.341	58.54
243.558	-17.24
243.775	42.15
243.992	-62.29
244.209	107.69
244.426	87.21
244.643	56.49
244.86	56.49
245.078	52.39
245.295	-27.48
245.512	62.63
245.729	-62.29
245.946	52.39
246.163	46.25
246.38	9.39
246.597	97.45
246.814	40.11
247.031	19.63
247.248	42.15
247.464	23.72
247.681	52.39
247.898	89.26
248.115	56.49
248.332	5.29
248.549	58.54
248.766	79.02
248.983	54.44
249.2	56.49
249.417	60.59
249.633	27.82
249.85	-7
250.067	70.83
250.284	76.97
250.501	33.96
250.717	31.91
250.934	-31.57
251.151	111.78
251.368	87.21
251.585	1.19
251.801	-11.09
252.018	7.34
252.235	40.11
252.451	-45.91
252.668	21.67
252.885	38.06
253.102	13.48
253.318	52.39
253.535	-27.48
253.752	-9.05
253.968	17.58
254.185	29.87
254.401	42.15
254.618	56.49
254.835	64.68
255.051	150.7
255.268	44.2
255.484	36.01
255.701	11.43
255.917	40.11
256.134	-29.52
256.351	38.06
256.567	-23.38
256.784	119.98
257	-11.09
257.217	89.26
257.433	60.59
257.65	46.25
257.866	31.91
258.082	-37.72
258.299	36.01
258.515	40.11
258.732	-17.24
258.948	27.82
259.165	64.68
259.381	9.39
259.597	-15.19
259.814	27.82
260.03	11.43
260.246	99.5
260.463	91.31
260.679	42.15
260.895	38.06
261.112	115.88
261.328	9.39
261.544	165.03
261.761	1.19
261.977	-15.19
262.193	42.15
262.409	-62.29
262.626	72.87
262.842	122.02
263.058	-35.67
263.274	3.24
263.49	36.01
263.707	27.82
263.923	-2.9
264.139	3.24
264.355	3.24
264.571	-7
264.787	-11.09
265.004	-15.19
265.22	56.49
265.436	-43.86
265.652	29.87
265.868	21.67
266.084	15.53
266.3	-15.19
266.516	1.19
266.732	21.67
266.948	31.91
267.164	23.72
267.38	44.2
267.596	-23.38
267.812	119.98
268.028	62.63
268.244	29.87
268.46	3.24
268.676	25.77
268.892	74.92
269.108	99.5
269.324	3.24
269.54	31.91
269.756	74.92
269.972	-7
270.188	74.92
270.403	3.24
270.619	-15.19
270.835	21.67
271.051	48.3
271.267	-11.09
271.483	58.54
271.698	58.54
271.914	25.77
272.13	21.67
272.346	-43.86
272.562	-15.19
272.777	46.25
272.993	70.83
273.209	46.25
273.425	50.35
273.64	-17.24
273.856	91.31
274.072	29.87
274.287	-15.19
274.503	33.96
274.719	60.59
274.934	17.58
275.15	-19.29
275.366	3.24
275.581	25.77
275.797	105.64
276.012	9.39
276.228	128.17
276.444	-13.14
276.659	5.29
276.875	60.59
277.09	42.15
277.306	44.2
277.521	70.83
277.737	-41.81
277.952	36.01
278.168	-33.62
278.383	-60.24
278.599	19.63
278.814	107.69
279.03	107.69
279.245	50.35
279.461	72.87
279.676	27.82
279.892	13.48
280.107	27.82
280.322	56.49
280.538	64.68
280.753	9.39
280.969	58.54
281.184	3.24
281.399	7.34
281.615	-31.57
281.83	60.59
282.045	-13.14
282.26	64.68
282.476	-50
282.691	97.45
282.906	-25.43
283.122	-21.33
283.337	11.43
283.552	46.25
283.767	-2.9
283.983	54.44
284.198	-39.76
284.413	54.44
284.628	-43.86
284.843	58.54
285.058	19.63
285.274	7.34
285.489	56.49
285.704	85.16
285.919	38.06
286.134	3.24
286.349	97.45
286.564	15.53
286.779	99.5
286.995	91.31
287.21	52.39
287.425	40.11
287.64	7.34
287.855	66.73
288.07	33.96
288.285	122.02
288.5	-9.05
288.715	3.24
288.93	17.58
289.145	103.59
289.36	46.25
289.575	66.73
289.79	99.5
290.004	-33.62
290.219	64.68
290.434	-11.09
290.649	-41.81
290.864	56.49
291.079	-9.05
291.294	9.39
291.509	23.72
291.724	-19.29
291.938	66.73
292.153	-7
292.368	38.06
292.583	19.63
292.798	66.73
293.012	33.96
293.227	15.53
293.442	-4.95
293.657	87.21
293.871	68.78
294.086	101.55
294.301	58.54
294.516	-19.29
294.73	48.3
294.945	38.06
295.16	70.83
295.374	1.19
295.589	105.64
295.804	-17.24
296.018	11.43
296.233	23.72
296.447	44.2
296.662	27.82
296.877	23.72
297.091	33.96
297.306	31.91
297.52	74.92
297.735	23.72
297.949	91.31
298.164	13.48
298.378	-4.95
298.593	-13.14
298.807	5.29
299.022	107.69
299.236	29.87
299.451	-29.52
299.665	64.68
299.88	101.55
300.094	-0.85
300.309	85.16
300.523	58.54
300.737	66.73
300.952	38.06
301.166	46.25
301.381	9.39
301.595	136.36
301.809	66.73
302.024	29.87
302.238	19.63
302.452	60.59
302.667	54.44
302.881	44.2
303.095	19.63
303.309	-2.9
303.524	54.44
303.738	-68.44
303.952	-37.72
304.166	-4.95
304.381	46.25
304.595	76.97
304.809	60.59
305.023	13.48
305.237	-15.19
305.452	36.01
305.666	-25.43
305.88	140.46
306.094	62.63
306.308	17.58
306.522	31.91
306.736	-33.62
306.95	15.53
307.164	17.58
307.379	-2.9
307.593	113.83
307.807	-25.43
308.021	-9.05
308.235	52.39
308.449	29.87
308.663	27.82
308.877	36.01
309.091	15.53
309.305	56.49
309.519	25.77
309.733	58.54
309.947	31.91
310.161	68.78
310.374	87.21
310.588	99.5
310.802	-0.85
311.016	-0.85
311.23	21.67
311.444	17.58
311.658	9.39
311.872	101.55
312.085	76.97
312.299	44.2
312.513	25.77
312.727	99.5
312.941	-45.91
313.154	62.63
313.368	76.97
313.582	109.74
313.796	54.44
314.009	48.3
314.223	97.45
314.437	-11.09
314.651	56.49
314.864	42.15
315.078	81.07
315.292	83.11
315.505	46.25
315.719	-0.85
315.933	44.2
316.146	-21.33
316.36	54.44
316.573	103.59
316.787	40.11
317.001	25.77
317.214	40.11
317.428	60.59
317.641	128.17
317.855	58.54
318.068	101.55
318.282	31.91
318.495	93.35
318.709	103.59
318.922	42.15
319.136	136.36
319.349	64.68
319.563	93.35
319.776	52.39
319.99	5.29
320.203	46.25
320.417	33.96
320.63	-27.48
320.843	21.67
321.057	46.25
321.27	-43.86
321.483	52.39
321.697	93.35
321.91	33.96
322.124	15.53
322.337	83.11
322.55	-23.38
322.763	52.39
322.977	46.25
323.19	33.96
323.403	9.39
323.617	5.29
323.83	36.01
324.043	1.19
324.256	60.59
324.469	36.01
324.683	95.4
324.896	40.11
325.109	83.11
325.322	9.39
325.535	109.74
325.748	13.48
325.962	13.48
326.175	25.77
326.388	64.68
326.601	33.96
326.814	42.15
327.027	46.25
327.24	31.91
327.453	-0.85
327.666	46.25
327.879	56.49
328.092	83.11
328.305	15.53
328.518	48.3
328.731	44.2
328.944	42.15
329.157	42.15
329.37	9.39
329.583	138.41
329.796	193.7
330.009	91.31
330.222	-23.38
330.435	-11.09
330.648	7.34
330.861	-4.95
331.073	33.96
331.286	15.53
331.499	107.69
331.712	52.39
331.925	56.49
332.138	36.01
332.35	81.07
332.563	83.11
332.776	87.21
332.989	9.39
333.202	46.25
333.414	27.82
333.627	48.3
333.84	48.3
334.053	7.34
334.265	72.87
334.478	74.92
334.691	36.01
334.903	105.64
335.116	50.35
335.329	54.44
335.541	36.01
335.754	74.92
335.966	52.39
336.179	13.48
336.392	74.92
336.604	-17.24
336.817	62.63
337.029	64.68
337.242	52.39
337.454	56.49
337.667	66.73
337.88	101.55
338.092	99.5
338.305	11.43
338.517	70.83
338.729	23.72
338.942	42.15
339.154	3.24
339.367	36.01
339.579	9.39
339.792	-0.85
340.004	83.11
340.217	-7
340.429	52.39
340.641	5.29
340.854	83.11
341.066	38.06
341.278	21.67
341.491	11.43
341.703	-17.24
341.915	48.3
342.128	117.93
342.34	72.87
342.552	25.77
342.764	85.16
342.977	64.68
343.189	11.43
343.401	31.91
343.613	-4.95
343.826	91.31
344.038	33.96
344.25	13.48
344.462	-11.09
344.674	13.48
344.886	87.21
345.099	89.26
345.311	144.55
345.523	17.58
345.735	36.01
345.947	62.63
346.159	13.48
346.371	-13.14
346.583	79.02
346.795	119.98
347.007	124.07
347.219	132.26
347.431	109.74
347.643	76.97
347.855	9.39
348.067	85.16
348.279	5.29
348.491	46.25
348.703	58.54
348.915	27.82
349.127	9.39
349.339	-13.14
349.551	-15.19
349.763	87.21
349.975	50.35
350.187	64.68
350.399	21.67
350.61	81.07
350.822	-13.14
351.034	7.34
351.246	19.63
351.458	9.39
351.669	7.34
351.881	9.39
352.093	97.45
352.305	33.96
352.517	79.02
352.728	33.96
352.94	19.63
353.152	64.68
353.363	50.35
353.575	68.78
353.787	97.45
353.999	40.11
354.21	115.88
354.422	111.78
354.633	23.72
354.845	91.31
355.057	44.2
355.268	36.01
355.48	83.11
355.692	64.68
355.903	-31.57
356.115	15.53
356.326	25.77
356.538	95.4
356.749	3.24
356.961	83.11
357.172	107.69
357.384	15.53
357.595	62.63
357.807	83.11
358.018	25.77
358.23	48.3
358.441	72.87
358.653	70.83
358.864	128.17
359.075	74.92
359.287	56.49
359.498	68.78
359.709	19.63
359.921	31.91
360.132	44.2
360.344	40.11
360.555	36.01
360.766	44.2
360.977	54.44
361.189	122.02
361.4	11.43
361.611	70.83
361.823	132.26
362.034	97.45
362.245	72.87
362.456	46.25
362.667	119.98
362.879	91.31
363.09	-31.57
363.301	56.49
363.512	17.58
363.723	52.39
363.935	119.98
364.146	105.64
364.357	70.83
364.568	70.83
364.779	66.73
364.99	76.97
365.201	62.63
365.412	15.53
365.623	46.25
365.834	-2.9
366.045	105.64
366.256	3.24
366.467	29.87
366.678	54.44
366.889	64.68
367.1	79.02
367.311	70.83
367.522	70.83
367.733	83.11
367.944	107.69
368.155	56.49
368.366	128.17
368.577	64.68
368.788	81.07
368.999	23.72
369.209	111.78
369.42	117.93
369.631	99.5
369.842	38.06
370.053	115.88
370.264	62.63
370.474	58.54
370.685	48.3
370.896	33.96
371.107	134.31
371.317	64.68
371.528	33.96
371.739	29.87
371.95	81.07
372.16	87.21
372.371	27.82
372.582	44.2
372.792	89.26
373.003	119.98
373.214	21.67
373.424	105.64
373.635	31.91
373.846	21.67
374.056	38.06
374.267	66.73
374.477	23.72
374.688	117.93
374.898	21.67
375.109	124.07
375.319	107.69
375.53	48.3
375.74	85.16
375.951	79.02
376.161	11.43
376.372	134.31
376.582	72.87
376.793	7.34
377.003	9.39
377.214	68.78
377.424	70.83
377.635	83.11
377.845	50.35
378.055	87.21
378.266	60.59
378.476	83.11
378.686	105.64
378.897	-9.05
379.107	91.31
379.317	62.63
379.528	83.11
379.738	109.74
379.948	52.39
380.158	156.84
380.369	11.43
380.579	124.07
380.789	54.44
380.999	31.91
381.21	48.3
381.42	68.78
381.63	48.3
381.84	33.96
382.05	109.74
382.261	66.73
382.471	87.21
382.681	48.3
382.891	-9.05
383.101	38.06
383.311	7.34
383.521	25.77
383.731	91.31
383.941	56.49
384.151	50.35
384.361	138.41
384.571	48.3
384.781	167.08
384.991	148.65
385.201	171.18
385.411	11.43
385.621	79.02
385.831	136.36
386.041	105.64
386.251	54.44
386.461	68.78
386.671	179.37
386.881	83.11
387.091	115.88
387.301	167.08
387.511	83.11
387.72	25.77
387.93	156.84
388.14	17.58
388.35	107.69
388.56	167.08
388.769	83.11
388.979	134.31
389.189	134.31
389.399	11.43
389.609	105.64
389.818	87.21
390.028	97.45
390.238	42.15
390.447	122.02
390.657	70.83
390.867	83.11
391.076	83.11
391.286	95.4
391.496	50.35
391.705	13.48
391.915	165.03
392.125	23.72
392.334	115.88
392.544	81.07
392.753	62.63
392.963	158.89
393.172	42.15
393.382	126.12
393.591	99.5
393.801	58.54
394.01	142.5
394.22	66.73
394.429	56.49
394.639	95.4
394.848	111.78
395.058	66.73
395.267	105.64
395.477	113.83
395.686	44.2
395.895	136.36
396.105	195.75
396.314	136.36
396.524	29.87
396.733	109.74
396.942	162.98
397.152	189.61
397.361	195.75
397.57	85.16
397.78	111.78
397.989	79.02
398.198	162.98
398.407	169.13
398.617	113.83
398.826	132.26
399.035	148.65
399.244	109.74
399.453	199.85
399.663	66.73
399.872	191.66
400.081	113.83
400.29	167.08
400.499	226.47
400.708	138.41
400.917	146.6
401.127	72.87
401.336	162.98
401.545	160.94
401.754	205.99
401.963	181.42
402.172	158.89
402.381	142.5
402.59	232.62
402.799	224.42
403.008	126.12
403.217	205.99
403.426	203.94
403.635	140.46
403.844	203.94
404.053	187.56
404.262	134.31
404.471	230.57
404.68	126.12
404.888	224.42
405.097	226.47
405.306	181.42
405.515	224.42
405.724	185.51
405.933	222.38
406.142	238.76
406.35	222.38
406.559	267.43
406.768	320.68
406.977	261.29
407.185	335.01
407.394	332.97
407.603	238.76
407.812	326.82
408.02	349.35
408.229	318.63
408.438	349.35
408.646	236.71
408.855	292.01
409.064	373.92
409.272	330.92
409.481	341.16
409.69	335.01
409.898	414.88
410.107	412.84
410.315	408.74
410.524	416.93
410.733	496.8
410.941	513.19
411.15	529.57
411.358	490.66
411.567	556.19
411.775	609.44
411.984	550.05
412.192	691.36
412.401	574.63
412.609	666.78
412.818	670.88
413.026	724.13
413.234	687.26
413.443	806.05
413.651	791.71
413.86	740.51
414.068	765.09
414.276	832.67
414.485	842.91
414.693	916.64
414.901	1047.71
415.11	1160.34
415.318	1019.04
415.526	986.27
415.734	1084.57
415.943	1137.82
416.151	1131.67
416.359	1229.98
416.567	1227.93
416.776	1305.75
416.984	1369.24
417.192	1479.83
417.4	1361.05
417.608	1404.05
417.817	1541.27
418.025	1602.71
418.233	1608.85
418.441	1586.32
418.649	1688.72
418.857	1817.74
419.065	1815.69
419.273	1891.47
419.481	1852.56
419.689	1977.48
419.897	2210.95
420.105	2262.15
420.313	2221.19
420.521	2182.28
420.729	2219.14
420.937	2337.93
421.145	2509.96
421.353	2645.12
421.561	2729.09
421.769	2849.92
421.977	2921.6
422.185	2845.82
422.393	3169.4
422.601	3298.42
422.809	3386.49
423.017	3146.87
423.224	3478.65
423.432	3472.5
423.64	3581.04
423.848	3896.43
424.056	3837.04
424.263	4138.09
424.471	3955.82
424.679	4054.12
424.887	4414.57
425.094	4344.94
425.302	4645.99
425.51	4682.85
425.718	4914.27
425.925	4938.85
426.133	5059.68
426.341	5133.4
426.548	5653.59
426.756	5807.19
426.964	5596.25
427.171	6167.63
427.379	6124.62
427.586	6384.71
427.794	6239.31
428.001	6806.59
428.209	7001.15
428.417	6874.18
428.624	7398.46
428.832	7453.75
429.039	7398.46
429.247	7314.49
429.454	8057.9
429.662	8588.33
429.869	8164.4
430.076	8668.2
430.284	8283.18
430.491	8561.7
430.699	9376.8
430.906	9481.24
431.114	9573.4
431.321	9778.2
431.528	9974.8
431.736	10460.17
431.943	10992.64
432.15	10834.95
432.358	10714.12
432.565	11516.92
432.772	11328.51
432.979	11871.22
433.187	12213.23
433.394	12305.39
433.601	13132.77
433.808	13112.29
434.016	13126.63
434.223	13474.78
434.43	14543.82
434.637	14310.35
434.844	15080.39
435.052	15211.46
435.259	15309.76
435.466	15350.72
435.673	15248.32
435.88	16284.59
436.087	17316.77
436.294	17245.09
436.501	16384.94
436.708	16890.79
436.915	17611.68
437.122	18379.67
437.329	18234.26
437.537	18891.66
437.743	19293.06
437.95	18869.13
438.157	19786.62
438.364	20435.83
438.571	20609.9
438.778	20759.41
438.985	22838.09
439.192	21848.93
439.399	22317.91
439.606	21891.93
439.813	23327.56
440.02	24654.64
440.227	24122.17
440.433	23810.88
440.64	24898.35
440.847	25021.23
441.054	25221.93
441.261	26909.46
441.467	26745.62
441.674	27437.83
441.881	27775.75
442.088	27974.4
442.294	27775.75
442.501	28685.04
442.708	28914.42
442.914	29911.78
443.121	31365.84
443.328	30847.7
443.534	32578.23
443.741	32092.86
443.948	31439.56
444.154	33565.35
444.361	33346.22
444.568	33735.34
444.774	33796.77
444.981	34407.07
445.187	35230.35
445.394	36467.33
445.6	35811.98
445.807	39297.62
446.013	37743.21
446.22	38638.17
446.426	40110.66
446.633	40174.15
446.839	41962.03
447.046	39909.96
447.252	42199.59
447.459	42224.17
447.665	42232.36
447.871	43717.14
448.078	46045.68
448.284	43422.23
448.491	44681.73
448.697	46264.81
448.903	47176.15
449.11	47456.73
449.316	46696.93
449.522	47761.87
449.728	48368.07
449.935	49136.06
450.141	48970.18
450.347	50012.59
450.553	48458.18
450.76	49158.59
450.966	50968.99
451.172	49899.95
451.378	51595.67
451.584	50657.7
451.791	51685.78
451.997	51548.57
452.203	51898.77
452.409	52625.8
452.615	52447.63
452.821	50059.69
453.027	49668.53
453.233	52275.6
453.44	50166.19
453.646	50895.27
453.852	51235.23
454.058	51712.41
454.264	50162.09
454.47	51231.13
454.676	50026.93
454.882	51632.53
455.088	47309.27
455.294	47966.67
455.5	48587.21
455.705	49068.48
455.911	47403.48
456.117	46389.73
456.323	45828.59
456.529	43639.31
456.735	45363.7
456.941	44139.02
457.147	43278.87
457.352	41730.61
457.558	41222.71
457.764	41859.63
457.97	40753.72
458.176	40086.09
458.381	39965.26
458.587	38214.24
458.793	37978.73
458.999	36244.1
459.204	38857.31
459.41	37718.64
459.616	35656.33
459.821	35164.82
460.027	34724.5
460.233	34200.22
460.438	32690.87
460.644	33325.74
460.85	31668.94
461.055	31204.05
461.261	31290.06
461.466	28838.64
461.672	27616.01
461.878	29766.37
462.083	27994.88
462.289	27175.69
462.494	26960.66
462.7	25701.15
462.905	24900.4
463.111	26137.37
463.316	26028.83
463.522	25539.36
463.727	25441.06
463.932	25434.92
464.138	25373.48
464.343	25312.04
464.549	24572.72
464.754	25467.69
464.959	25203.5
465.165	25031.47
465.37	23966.52
465.575	23493.44
465.781	24189.75
465.986	24136.51
466.191	23522.12
466.397	23100.23
