Data from USB4F104151__96__12-37-12-410.txt Node

Date: Fri Mar 14 12:37:12 EDT 2025
User: louis
Spectrometer: USB4F10415
Trigger mode: 4
Integration Time (sec): 2.000000E-2
Scans to average: 1
Electric dark correction enabled: true
Nonlinearity correction enabled: false
Boxcar width: 0
XAxis mode: Wavelengths
Number of Pixels in Spectrum: 3648
>>>>>Begin Spectral Data<<<<<
178.204	-137.38
178.424	-137.38
178.644	-137.38
178.864	-125.1
179.084	-73.9
179.304	-47.27
179.524	-34.99
179.744	8.02
179.964	63.32
180.184	79.7
180.404	-18.6
180.624	28.5
180.844	-10.41
181.064	-14.51
181.283	32.6
181.503	-75.95
181.723	-10.41
181.943	-26.79
182.163	22.36
182.383	-20.65
182.602	-26.79
182.822	122.71
183.042	8.02
183.262	-47.27
183.482	22.36
183.701	-43.18
183.921	18.26
184.141	-86.19
184.361	-18.6
184.58	40.79
184.8	-0.17
185.02	-2.22
185.239	3.93
185.459	-39.08
185.679	42.84
185.898	-28.84
186.118	-18.6
186.338	16.21
186.557	-10.41
186.777	44.88
186.997	-26.79
187.216	-0.17
187.436	1.88
187.655	16.21
187.875	40.79
188.095	18.26
188.314	20.31
188.534	61.27
188.753	-88.23
188.973	-47.27
189.192	16.21
189.412	16.21
189.631	-32.94
189.851	55.12
190.07	67.41
190.29	14.17
190.509	34.64
190.729	-10.41
190.948	53.08
191.168	73.56
191.387	12.12
191.607	12.12
191.826	-6.31
192.045	-24.75
192.265	-92.33
192.484	-45.23
192.704	77.65
192.923	-41.13
193.142	-12.46
193.362	16.21
193.581	20.31
193.8	-20.65
194.02	-24.75
194.239	1.88
194.458	-4.27
194.678	-45.23
194.897	-4.27
195.116	-57.51
195.335	-4.27
195.555	-22.7
195.774	-14.51
195.993	26.45
196.212	3.93
196.432	-45.23
196.651	10.07
196.87	-0.17
197.089	1.88
197.308	-55.47
197.528	14.17
197.747	8.02
197.966	-22.7
198.185	-16.55
198.404	-0.17
198.623	-53.42
198.842	8.02
199.062	-41.13
199.281	40.79
199.5	16.21
199.719	8.02
199.938	46.93
200.157	-0.17
200.376	1.88
200.595	-67.75
200.814	12.12
201.033	46.93
201.252	-43.18
201.471	16.21
201.69	16.21
201.909	-32.94
202.128	-16.55
202.347	106.32
202.566	28.5
202.785	10.07
203.004	-57.51
203.223	-12.46
203.442	-8.36
203.661	-65.71
203.879	42.84
204.098	-47.27
204.317	-71.85
204.536	12.12
204.755	8.02
204.974	46.93
205.193	-61.61
205.411	67.41
205.63	-43.18
205.849	-8.36
206.068	-6.31
206.287	-0.17
206.505	-28.84
206.724	44.88
206.943	1.88
207.162	-16.55
207.381	24.4
207.599	8.02
207.818	36.69
208.037	-0.17
208.255	-51.37
208.474	-37.03
208.693	46.93
208.911	-10.41
209.13	-71.85
209.349	8.02
209.567	-20.65
209.786	51.03
210.005	8.02
210.223	-24.75
210.442	-24.75
210.661	-28.84
210.879	57.17
211.098	18.26
211.316	65.36
211.535	-69.8
211.753	-61.61
211.972	38.74
212.191	-6.31
212.409	-10.41
212.628	40.79
212.846	5.97
213.065	-10.41
213.283	-49.32
213.502	-20.65
213.72	16.21
213.938	22.36
214.157	44.88
214.375	24.4
214.594	-2.22
214.812	3.93
215.031	94.04
215.249	34.64
215.467	40.79
215.686	-28.84
215.904	42.84
216.122	-10.41
216.341	26.45
216.559	3.93
216.778	18.26
216.996	-51.37
217.214	-18.6
217.432	-82.09
217.651	10.07
217.869	-18.6
218.087	18.26
218.306	34.64
218.524	-20.65
218.742	24.4
218.96	10.07
219.179	-12.46
219.397	12.12
219.615	-0.17
219.833	-37.03
220.051	-63.66
220.27	10.07
220.488	-6.31
220.706	8.02
220.924	30.55
221.142	-49.32
221.36	-53.42
221.578	22.36
221.796	-20.65
222.015	-22.7
222.233	-4.27
222.451	-12.46
222.669	-4.27
222.887	-67.75
223.105	-43.18
223.323	38.74
223.541	-49.32
223.759	8.02
223.977	-6.31
224.195	51.03
224.413	20.31
224.631	38.74
224.849	71.51
225.067	22.36
225.285	-16.55
225.503	-67.75
225.721	-63.66
225.939	51.03
226.157	24.4
226.375	12.12
226.592	-75.95
226.81	63.32
227.028	-10.41
227.246	34.64
227.464	-28.84
227.682	30.55
227.9	36.69
228.117	83.8
228.335	-12.46
228.553	8.02
228.771	14.17
228.989	104.28
229.206	-22.7
229.424	-34.99
229.642	-24.75
229.86	-6.31
230.077	24.4
230.295	26.45
230.513	3.93
230.731	-24.75
230.948	14.17
231.166	-28.84
231.384	-8.36
231.601	8.02
231.819	-0.17
232.037	1.88
232.254	-82.09
232.472	5.97
232.689	16.21
232.907	-18.6
233.125	1.88
233.342	12.12
233.56	-6.31
233.777	8.02
233.995	30.55
234.213	63.32
234.43	36.69
234.648	1.88
234.865	-32.94
235.083	44.88
235.3	-28.84
235.518	-4.27
235.735	20.31
235.953	32.6
236.17	38.74
236.388	-8.36
236.605	-22.7
236.822	-28.84
237.04	69.46
237.257	-26.79
237.475	-20.65
237.692	-26.79
237.909	3.93
238.127	44.88
238.344	28.5
238.562	-30.89
238.779	-65.71
238.996	-10.41
239.214	14.17
239.431	40.79
239.648	12.12
239.865	-24.75
240.083	-28.84
240.3	18.26
240.517	-65.71
240.735	-2.22
240.952	26.45
241.169	73.56
241.386	34.64
241.603	-8.36
241.821	26.45
242.038	-22.7
242.255	38.74
242.472	-8.36
242.689	-20.65
242.907	44.88
243.124	-65.71
243.341	81.75
243.558	-34.99
243.775	-0.17
243.992	20.31
244.209	30.55
244.426	89.94
244.643	3.93
244.86	-12.46
245.078	-0.17
245.295	-63.66
245.512	40.79
245.729	-6.31
245.946	14.17
246.163	5.97
246.38	14.17
246.597	-45.23
246.814	-18.6
247.031	-47.27
247.248	-18.6
247.464	14.17
247.681	-43.18
247.898	12.12
248.115	96.08
248.332	-39.08
248.549	3.93
248.766	69.46
248.983	44.88
249.2	42.84
249.417	14.17
249.633	-2.22
249.85	34.64
250.067	-6.31
250.284	-61.61
250.501	59.22
250.717	44.88
250.934	-22.7
251.151	-26.79
251.368	42.84
251.585	-24.75
251.801	-18.6
252.018	1.88
252.235	-32.94
252.451	-0.17
252.668	-65.71
252.885	51.03
253.102	34.64
253.318	18.26
253.535	-37.03
253.752	24.4
253.968	59.22
254.185	42.84
254.401	48.98
254.618	-102.57
254.835	3.93
255.051	-6.31
255.268	12.12
255.484	69.46
255.701	16.21
255.917	-10.41
256.134	28.5
256.351	-8.36
256.567	-45.23
256.784	3.93
257	-32.94
257.217	22.36
257.433	14.17
257.65	24.4
257.866	-0.17
258.082	-22.7
258.299	26.45
258.515	57.17
258.732	-32.94
258.948	-2.22
259.165	-77.99
259.381	30.55
259.597	-49.32
259.814	-22.7
260.03	16.21
260.246	-34.99
260.463	32.6
260.679	-14.51
260.895	5.97
261.112	-6.31
261.328	-10.41
261.544	42.84
261.761	10.07
261.977	71.51
262.193	-12.46
262.409	10.07
262.626	73.56
262.842	16.21
263.058	-18.6
263.274	96.08
263.49	14.17
263.707	98.13
263.923	-22.7
264.139	-18.6
264.355	3.93
264.571	-18.6
264.787	-6.31
265.004	28.5
265.22	59.22
265.436	-57.51
265.652	-20.65
265.868	22.36
266.084	32.6
266.3	-28.84
266.516	22.36
266.732	24.4
266.948	10.07
267.164	5.97
267.38	-32.94
267.596	32.6
267.812	48.98
268.028	-8.36
268.244	8.02
268.46	-22.7
268.676	-49.32
268.892	28.5
269.108	14.17
269.324	122.71
269.54	-4.27
269.756	22.36
269.972	-49.32
270.188	8.02
270.403	-16.55
270.619	5.97
270.835	-8.36
271.051	8.02
271.267	36.69
271.483	-22.7
271.698	5.97
271.914	-108.71
272.13	-39.08
272.346	32.6
272.562	-14.51
272.777	38.74
272.993	-45.23
273.209	28.5
273.425	-22.7
273.64	20.31
273.856	51.03
274.072	-10.41
274.287	14.17
274.503	-4.27
274.719	34.64
274.934	20.31
275.15	40.79
275.366	24.4
275.581	-75.95
275.797	-24.75
276.012	-14.51
276.228	20.31
276.444	-2.22
276.659	40.79
276.875	12.12
277.09	-34.99
277.306	-30.89
277.521	81.75
277.737	51.03
277.952	-39.08
278.168	75.6
278.383	-0.17
278.599	-0.17
278.814	12.12
279.03	51.03
279.245	16.21
279.461	48.98
279.676	32.6
279.892	10.07
280.107	32.6
280.322	-2.22
280.538	75.6
280.753	34.64
280.969	-22.7
281.184	-24.75
281.399	48.98
281.615	26.45
281.83	-37.03
282.045	-16.55
282.26	-6.31
282.476	-45.23
282.691	20.31
282.906	18.26
283.122	-4.27
283.337	-65.71
283.552	71.51
283.767	-57.51
283.983	73.56
284.198	10.07
284.413	98.13
284.628	-41.13
284.843	57.17
285.058	46.93
285.274	-6.31
285.489	-32.94
285.704	36.69
285.919	32.6
286.134	22.36
286.349	-16.55
286.564	1.88
286.779	71.51
286.995	-98.47
287.21	-14.51
287.425	57.17
287.64	-20.65
287.855	-34.99
288.07	30.55
288.285	65.36
288.5	-12.46
288.715	-12.46
288.93	14.17
289.145	71.51
289.36	26.45
289.575	-2.22
289.79	-10.41
290.004	-14.51
290.219	87.89
290.434	-8.36
290.649	5.97
290.864	8.02
291.079	30.55
291.294	38.74
291.509	-16.55
291.724	1.88
291.938	-39.08
292.153	-2.22
292.368	3.93
292.583	63.32
292.798	30.55
293.012	48.98
293.227	14.17
293.442	1.88
293.657	16.21
293.871	-0.17
294.086	3.93
294.301	53.08
294.516	28.5
294.73	102.23
294.945	-41.13
295.16	-47.27
295.374	20.31
295.589	14.17
295.804	-6.31
296.018	8.02
296.233	30.55
296.447	3.93
296.662	-2.22
296.877	51.03
297.091	-14.51
297.306	14.17
297.52	36.69
297.735	-14.51
297.949	-34.99
298.164	59.22
298.378	-75.95
298.593	42.84
298.807	36.69
299.022	-6.31
299.236	32.6
299.451	30.55
299.665	32.6
299.88	8.02
300.094	-24.75
300.309	77.65
300.523	-20.65
300.737	30.55
300.952	53.08
301.166	5.97
301.381	-6.31
301.595	-41.13
301.809	-24.75
302.024	38.74
302.238	-6.31
302.452	32.6
302.667	-18.6
302.881	-28.84
303.095	-18.6
303.309	42.84
303.524	-18.6
303.738	8.02
303.952	-14.51
304.166	-49.32
304.381	26.45
304.595	-4.27
304.809	-4.27
305.023	-0.17
305.237	-24.75
305.452	3.93
305.666	-0.17
305.88	10.07
306.094	5.97
306.308	81.75
306.522	-34.99
306.736	14.17
306.95	94.04
307.164	-2.22
307.379	32.6
307.593	98.13
307.807	30.55
308.021	-18.6
308.235	-4.27
308.449	-45.23
308.663	-14.51
308.877	44.88
309.091	30.55
309.305	30.55
309.519	-34.99
309.733	34.64
309.947	-51.37
310.161	12.12
310.374	18.26
310.588	24.4
310.802	-22.7
311.016	18.26
311.23	77.65
311.444	-34.99
311.658	-39.08
311.872	98.13
312.085	-28.84
312.299	63.32
312.513	18.26
312.727	24.4
312.941	-30.89
313.154	36.69
313.368	128.85
313.582	30.55
313.796	38.74
314.009	22.36
314.223	-20.65
314.437	12.12
314.651	3.93
314.864	16.21
315.078	-4.27
315.292	48.98
315.505	-73.9
315.719	83.8
315.933	-32.94
316.146	77.65
316.36	-16.55
316.573	79.7
316.787	-12.46
317.001	32.6
317.214	55.12
317.428	12.12
317.641	-82.09
317.855	3.93
318.068	-10.41
318.282	-6.31
318.495	55.12
318.709	-2.22
318.922	61.27
319.136	24.4
319.349	-41.13
319.563	3.93
319.776	-0.17
319.99	-20.65
320.203	-16.55
320.417	67.41
320.63	5.97
320.843	-49.32
321.057	18.26
321.27	28.5
321.483	24.4
321.697	40.79
321.91	-14.51
322.124	94.04
322.337	10.07
322.55	-14.51
322.763	-28.84
322.977	48.98
323.19	-18.6
323.403	8.02
323.617	20.31
323.83	14.17
324.043	-28.84
324.256	-28.84
324.469	14.17
324.683	63.32
324.896	-0.17
325.109	34.64
325.322	-39.08
325.535	61.27
325.748	128.85
325.962	5.97
326.175	3.93
326.388	26.45
326.601	44.88
326.814	73.56
327.027	24.4
327.24	59.22
327.453	-30.89
327.666	73.56
327.879	-67.75
328.092	30.55
328.305	51.03
328.518	22.36
328.731	-30.89
328.944	51.03
329.157	18.26
329.37	73.56
329.583	104.28
329.796	42.84
330.009	-32.94
330.222	53.08
330.435	85.84
330.648	63.32
330.861	8.02
331.073	32.6
331.286	32.6
331.499	-8.36
331.712	-14.51
331.925	-16.55
332.138	5.97
332.35	-53.42
332.563	-39.08
332.776	-8.36
332.989	-8.36
333.202	38.74
333.414	-4.27
333.627	-14.51
333.84	-8.36
334.053	48.98
334.265	10.07
334.478	3.93
334.691	69.46
334.903	-32.94
335.116	53.08
335.329	48.98
335.541	26.45
335.754	-2.22
335.966	32.6
336.179	20.31
336.392	32.6
336.604	46.93
336.817	116.56
337.029	46.93
337.242	-39.08
337.454	26.45
337.667	46.93
337.88	-6.31
338.092	5.97
338.305	63.32
338.517	26.45
338.729	-20.65
338.942	53.08
339.154	42.84
339.367	38.74
339.579	-26.79
339.792	-8.36
340.004	26.45
340.217	26.45
340.429	34.64
340.641	-4.27
340.854	38.74
341.066	-2.22
341.278	89.94
341.491	55.12
341.703	36.69
341.915	71.51
342.128	-37.03
342.34	48.98
342.552	51.03
342.764	-14.51
342.977	-45.23
343.189	-28.84
343.401	20.31
343.613	8.02
343.826	40.79
344.038	61.27
344.25	42.84
344.462	22.36
344.674	-22.7
344.886	48.98
345.099	18.26
345.311	46.93
345.523	8.02
345.735	-18.6
345.947	5.97
346.159	98.13
346.371	-0.17
346.583	73.56
346.795	16.21
347.007	-37.03
347.219	38.74
347.431	38.74
347.643	42.84
347.855	-32.94
348.067	-14.51
348.279	8.02
348.491	-20.65
348.703	-22.7
348.915	32.6
349.127	-39.08
349.339	5.97
349.551	59.22
349.763	65.36
349.975	-10.41
350.187	57.17
350.399	24.4
350.61	96.08
350.822	-43.18
351.034	48.98
351.246	24.4
351.458	36.69
351.669	79.7
351.881	36.69
352.093	-0.17
352.305	89.94
352.517	-30.89
352.728	-2.22
352.94	34.64
353.152	28.5
353.363	20.31
353.575	5.97
353.787	14.17
353.999	36.69
354.21	26.45
354.422	14.17
354.633	5.97
354.845	-41.13
355.057	-18.6
355.268	-12.46
355.48	24.4
355.692	87.89
355.903	28.5
356.115	12.12
356.326	81.75
356.538	38.74
356.749	-22.7
356.961	59.22
357.172	-22.7
357.384	-0.17
357.595	32.6
357.807	65.36
358.018	40.79
358.23	34.64
358.441	8.02
358.653	57.17
358.864	-14.51
359.075	63.32
359.287	20.31
359.498	46.93
359.709	-0.17
359.921	40.79
360.132	46.93
360.344	-37.03
360.555	59.22
360.766	57.17
360.977	32.6
361.189	81.75
361.4	75.6
361.611	57.17
361.823	26.45
362.034	-30.89
362.245	53.08
362.456	-12.46
362.667	59.22
362.879	-2.22
363.09	26.45
363.301	104.28
363.512	46.93
363.723	-6.31
363.935	1.88
364.146	94.04
364.357	-12.46
364.568	26.45
364.779	8.02
364.99	24.4
365.201	20.31
365.412	44.88
365.623	-24.75
365.834	38.74
366.045	12.12
366.256	44.88
366.467	-61.61
366.678	57.17
366.889	-34.99
367.1	20.31
367.311	61.27
367.522	38.74
367.733	-12.46
367.944	114.52
368.155	20.31
368.366	81.75
368.577	12.12
368.788	81.75
368.999	42.84
369.209	44.88
369.42	42.84
369.631	42.84
369.842	24.4
370.053	67.41
370.264	71.51
370.474	1.88
370.685	48.98
370.896	65.36
371.107	34.64
371.317	57.17
371.528	12.12
371.739	75.6
371.95	91.99
372.16	30.55
372.371	-45.23
372.582	65.36
372.792	87.89
373.003	32.6
373.214	32.6
373.424	48.98
373.635	34.64
373.846	75.6
374.056	26.45
374.267	48.98
374.477	42.84
374.688	59.22
374.898	-12.46
375.109	73.56
375.319	40.79
375.53	71.51
375.74	59.22
375.951	112.47
376.161	22.36
376.372	46.93
376.582	69.46
376.793	26.45
377.003	42.84
377.214	57.17
377.424	48.98
377.635	-39.08
377.845	71.51
378.055	137.04
378.266	-43.18
378.476	102.23
378.686	61.27
378.897	42.84
379.107	30.55
379.317	10.07
379.528	34.64
379.738	-41.13
379.948	28.5
380.158	-0.17
380.369	-2.22
380.579	65.36
380.789	65.36
380.999	96.08
381.21	8.02
381.42	61.27
381.63	12.12
381.84	38.74
382.05	79.7
382.261	71.51
382.471	81.75
382.681	85.84
382.891	3.93
383.101	40.79
383.311	-18.6
383.521	-0.17
383.731	46.93
383.941	120.66
384.151	-14.51
384.361	38.74
384.571	20.31
384.781	10.07
384.991	91.99
385.201	85.84
385.411	81.75
385.621	5.97
385.831	36.69
386.041	137.04
386.251	100.18
386.461	44.88
386.671	85.84
386.881	38.74
387.091	32.6
387.301	75.6
387.511	-4.27
387.72	16.21
387.93	100.18
388.14	-32.94
388.35	18.26
388.56	69.46
388.769	-10.41
388.979	30.55
389.189	10.07
389.399	42.84
389.609	8.02
389.818	61.27
390.028	55.12
390.238	24.4
390.447	71.51
390.657	94.04
390.867	36.69
391.076	77.65
391.286	-6.31
391.496	1.88
391.705	-6.31
391.915	73.56
392.125	55.12
392.334	61.27
392.544	108.37
392.753	55.12
392.963	65.36
393.172	67.41
393.382	73.56
393.591	143.19
393.801	89.94
394.01	69.46
394.22	98.13
394.429	153.43
394.639	46.93
394.848	71.51
395.058	135
395.267	81.75
395.477	61.27
395.686	10.07
395.895	132.95
396.105	141.14
396.314	132.95
396.524	114.52
396.733	120.66
396.942	98.13
397.152	57.17
397.361	96.08
397.57	32.6
397.78	38.74
397.989	77.65
398.198	147.28
398.407	61.27
398.617	100.18
398.826	91.99
399.035	108.37
399.244	151.38
399.453	126.8
399.663	137.04
399.872	120.66
400.081	91.99
400.29	116.56
400.499	75.6
400.708	233.3
400.917	118.61
401.127	165.71
401.336	122.71
401.545	122.71
401.754	165.71
401.963	200.53
402.172	124.76
402.381	89.94
402.59	143.19
402.799	155.47
403.008	184.15
403.217	145.24
403.426	186.19
403.635	118.61
403.844	145.24
404.053	116.56
404.262	163.67
404.471	141.14
404.68	200.53
404.888	192.34
405.097	155.47
405.306	182.1
405.515	184.15
405.724	227.15
405.933	208.72
406.142	137.04
406.35	161.62
406.559	235.35
406.768	210.77
406.977	264.02
407.185	229.2
407.394	218.96
407.603	221.01
407.812	221.01
408.02	227.15
408.229	206.67
408.438	204.63
408.646	352.08
408.855	284.5
409.064	315.22
409.272	304.98
409.481	419.66
409.69	329.55
409.898	364.37
410.107	442.19
410.315	448.33
410.524	382.8
410.733	368.46
410.941	444.24
411.15	393.04
411.358	450.38
411.567	573.26
411.775	431.95
411.984	544.59
412.192	591.69
412.401	544.59
412.609	614.22
412.818	646.99
413.026	651.08
413.234	763.72
413.443	714.57
413.651	712.52
413.86	733
414.068	808.78
414.276	763.72
414.485	866.12
414.693	915.27
414.901	862.02
415.11	880.46
415.318	866.12
415.526	982.85
415.734	1038.15
415.943	1032.01
416.151	1054.53
416.359	1118.02
416.567	1156.93
416.776	1277.76
416.984	1130.31
417.192	1251.14
417.4	1267.52
417.608	1292.1
417.817	1361.73
418.025	1476.41
418.233	1525.57
418.441	1500.99
418.649	1677.12
418.857	1732.41
419.065	1822.52
419.273	1705.79
419.481	1744.7
419.689	1961.78
419.897	2105.14
420.105	2088.76
420.313	2053.94
420.521	2068.28
420.729	2172.72
420.937	2342.71
421.145	2447.15
421.353	2445.1
421.561	2682.67
421.769	2578.22
421.977	2668.33
422.185	2840.36
422.393	2993.96
422.601	3069.73
422.809	3190.56
423.017	3143.46
423.224	3317.54
423.432	3440.42
423.64	3424.03
423.848	3665.69
424.056	3606.3
424.263	3919.64
424.471	3911.45
424.679	3905.31
424.887	3999.51
425.094	4237.08
425.302	4327.19
425.51	4388.63
425.718	4570.9
425.925	4685.58
426.133	4912.91
426.341	5123.85
426.548	5222.15
426.756	5316.36
426.964	5369.6
427.171	5652.22
427.379	5930.75
427.586	6106.87
427.794	6160.12
428.001	6444.79
428.209	6919.92
428.417	6586.1
428.624	7036.65
428.832	6967.02
429.039	7132.9
429.247	7184.1
429.454	7837.41
429.662	8189.66
429.869	7847.65
430.076	8177.37
430.284	7978.72
430.491	8457.94
430.699	8892.11
430.906	8939.21
431.114	9201.35
431.321	9402.05
431.528	9672.39
431.736	10061.5
431.943	10512.05
432.15	10063.55
432.358	10473.14
432.565	11054.76
432.772	10948.27
432.979	11710.11
433.187	11863.71
433.394	11835.04
433.601	12760.72
433.808	12775.06
434.016	12445.34
434.223	13127.31
434.43	14001.79
434.637	13610.63
434.844	14462.58
435.052	14829.17
435.259	14823.03
435.466	14909.04
435.673	14861.94
435.88	15668.84
436.087	16545.37
436.294	16621.14
436.501	15910.5
436.708	16543.32
436.915	17112.66
437.122	17819.21
437.329	17897.03
437.537	18320.96
437.743	18617.91
437.95	18306.62
438.157	19578.41
438.364	20151.84
438.571	20215.33
438.778	20176.42
438.985	21939.72
439.192	21235.22
439.399	21792.26
439.606	21421.58
439.813	22722.04
440.02	24286.69
440.227	23567.85
440.433	23248.37
440.64	24126.95
440.847	23834.09
441.054	24303.07
441.261	26193.35
441.467	25986.5
441.674	26461.63
441.881	27237.81
442.088	27235.77
442.294	27014.59
442.501	27837.87
442.708	28183.98
442.914	29578.64
443.121	30422.41
443.328	30051.72
443.534	31860.08
443.741	31024.51
443.948	30563.71
444.154	32857.44
444.361	32521.57
444.568	32548.2
444.774	33064.28
444.981	33652.05
445.187	34028.88
445.394	35654.97
445.6	35194.17
445.807	38688.01
446.013	36930.85
446.22	37874.96
446.426	38905.09
446.633	39535.87
446.839	40707.3
447.046	39243.01
447.252	41497.82
447.459	41456.86
447.665	41370.85
447.871	42980.55
448.078	44846.25
448.284	42886.34
448.491	43891.9
448.697	45681.82
448.903	46210.2
449.11	46718.09
449.316	45808.79
449.522	46746.76
449.728	47549.57
449.935	48493.68
450.141	47815.8
450.347	49267.81
450.553	48012.41
450.76	48616.56
450.966	49818.72
451.172	49077.35
451.378	50642
451.584	49693.79
451.791	50904.14
451.997	50299.99
452.203	51131.47
452.409	51438.66
452.615	51227.72
452.821	49708.13
453.027	49079.4
453.233	51471.43
453.44	49644.64
453.646	49972.31
453.852	50414.68
454.058	51143.75
454.264	49126.5
454.47	50775.12
454.676	49257.57
454.882	51213.38
455.088	46871.69
455.294	47459.46
455.5	48309.36
455.705	48559.22
455.911	46892.17
456.117	45986.97
456.323	45130.92
456.529	43082.95
456.735	45008.04
456.941	43676.86
457.147	42718.41
457.352	41819.35
457.558	40996.07
457.764	41448.67
457.97	40563.95
458.176	39965.94
458.381	39861.49
458.587	37954.83
458.793	37784.85
458.999	36017.46
459.204	38518.03
459.41	37440.79
459.616	34889.02
459.821	35087.68
460.027	34809.15
460.233	34047.31
460.438	32284.01
460.644	32888.16
460.85	31356.28
461.055	30971.26
461.261	30971.26
461.466	28317.09
461.672	27721.13
461.878	29609.36
462.083	27637.17
462.289	27256.25
462.494	26961.34
462.7	25771.47
462.905	24876.51
463.111	26004.94
463.316	25877.96
463.522	25341.39
463.727	25667.02
463.932	25425.36
464.138	25329.11
464.343	25267.67
464.549	24438.24
464.754	25447.89
464.959	25214.42
465.165	24956.38
465.37	23719.4
465.575	23160.31
465.781	24337.89
465.986	24231.4
466.191	23805.42
