Data from USB4F104151__83__12-36-55-912.txt Node

Date: Fri Mar 14 12:36:55 EDT 2025
User: louis
Spectrometer: USB4F10415
Trigger mode: 4
Integration Time (sec): 2.000000E-2
Scans to average: 1
Electric dark correction enabled: true
Nonlinearity correction enabled: false
Boxcar width: 0
XAxis mode: Wavelengths
Number of Pixels in Spectrum: 3648
>>>>>Begin Spectral Data<<<<<
178.204	-84.14
178.424	-84.14
178.644	-84.14
178.864	-118.95
179.084	-112.81
179.304	-67.75
179.524	3.93
179.744	-0.17
179.964	26.45
180.184	-4.27
180.404	32.6
180.624	-4.27
180.844	42.84
181.064	-61.61
181.283	-53.42
181.503	73.56
181.723	12.12
181.943	-45.23
182.163	14.17
182.383	85.84
182.602	5.97
182.822	3.93
183.042	53.08
183.262	53.08
183.482	48.98
183.701	51.03
183.921	-18.6
184.141	-53.42
184.361	51.03
184.58	-51.37
184.8	-18.6
185.02	-0.17
185.239	46.93
185.459	18.26
185.679	75.6
185.898	18.26
186.118	59.22
186.338	-57.51
186.557	26.45
186.777	-2.22
186.997	3.93
187.216	-20.65
187.436	-4.27
187.655	22.36
187.875	122.71
188.095	-6.31
188.314	81.75
188.534	89.94
188.753	26.45
188.973	34.64
189.192	40.79
189.412	46.93
189.631	77.65
189.851	12.12
190.07	-10.41
190.29	1.88
190.509	-24.75
190.729	30.55
190.948	65.36
191.168	98.13
191.387	67.41
191.607	-16.55
191.826	18.26
192.045	5.97
192.265	26.45
192.484	36.69
192.704	-28.84
192.923	-37.03
193.142	5.97
193.362	12.12
193.581	1.88
193.8	26.45
194.02	18.26
194.239	24.4
194.458	42.84
194.678	-26.79
194.897	18.26
195.116	28.5
195.335	36.69
195.555	-2.22
195.774	5.97
195.993	22.36
196.212	-20.65
196.432	-20.65
196.651	-59.56
196.87	-4.27
197.089	42.84
197.308	89.94
197.528	22.36
197.747	8.02
197.966	28.5
198.185	145.24
198.404	3.93
198.623	-14.51
198.842	30.55
199.062	14.17
199.281	51.03
199.5	26.45
199.719	46.93
199.938	40.79
200.157	1.88
200.376	-34.99
200.595	32.6
200.814	32.6
201.033	40.79
201.252	61.27
201.471	-8.36
201.69	20.31
201.909	108.37
202.128	96.08
202.347	-10.41
202.566	-4.27
202.785	-8.36
203.004	71.51
203.223	5.97
203.442	51.03
203.661	57.17
203.879	-24.75
204.098	98.13
204.317	38.74
204.536	67.41
204.755	51.03
204.974	5.97
205.193	-12.46
205.411	38.74
205.63	16.21
205.849	-4.27
206.068	-20.65
206.287	-4.27
206.505	65.36
206.724	14.17
206.943	116.56
207.162	3.93
207.381	55.12
207.599	3.93
207.818	16.21
208.037	18.26
208.255	20.31
208.474	-14.51
208.693	30.55
208.911	-18.6
209.13	26.45
209.349	53.08
209.567	59.22
209.786	-30.89
210.005	-39.08
210.223	10.07
210.442	1.88
210.661	1.88
210.879	3.93
211.098	24.4
211.316	-18.6
211.535	91.99
211.753	-0.17
211.972	36.69
212.191	-14.51
212.409	55.12
212.628	73.56
212.846	57.17
213.065	96.08
213.283	89.94
213.502	53.08
213.72	53.08
213.938	30.55
214.157	38.74
214.375	-26.79
214.594	24.4
214.812	-30.89
215.031	14.17
215.249	59.22
215.467	10.07
215.686	-65.71
215.904	-12.46
216.122	20.31
216.341	96.08
216.559	73.56
216.778	20.31
216.996	40.79
217.214	77.65
217.432	63.32
217.651	-2.22
217.869	51.03
218.087	-4.27
218.306	24.4
218.524	-12.46
218.742	18.26
218.96	75.6
219.179	46.93
219.397	81.75
219.615	67.41
219.833	63.32
220.051	-8.36
220.27	32.6
220.488	42.84
220.706	10.07
220.924	-6.31
221.142	44.88
221.36	12.12
221.578	46.93
221.796	-49.32
222.015	51.03
222.233	12.12
222.451	96.08
222.669	-4.27
222.887	94.04
223.105	24.4
223.323	28.5
223.541	-4.27
223.759	26.45
223.977	16.21
224.195	57.17
224.413	55.12
224.631	71.51
224.849	8.02
225.067	16.21
225.285	-4.27
225.503	-20.65
225.721	-80.04
225.939	1.88
226.157	44.88
226.375	87.89
226.592	46.93
226.81	1.88
227.028	69.46
227.246	57.17
227.464	-75.95
227.682	-12.46
227.9	-22.7
228.117	-22.7
228.335	108.37
228.553	34.64
228.771	79.7
228.989	-30.89
229.206	94.04
229.424	38.74
229.642	-0.17
229.86	-34.99
230.077	12.12
230.295	42.84
230.513	-18.6
230.731	57.17
230.948	-8.36
231.166	75.6
231.384	-43.18
231.601	12.12
231.819	69.46
232.037	48.98
232.254	1.88
232.472	1.88
232.689	36.69
232.907	-12.46
233.125	24.4
233.342	-47.27
233.56	22.36
233.777	30.55
233.995	14.17
234.213	16.21
234.43	-10.41
234.648	-8.36
234.865	-45.23
235.083	14.17
235.3	14.17
235.518	38.74
235.735	22.36
235.953	14.17
236.17	3.93
236.388	51.03
236.605	26.45
236.822	-10.41
237.04	40.79
237.257	3.93
237.475	-2.22
237.692	-4.27
237.909	-2.22
238.127	-77.99
238.344	51.03
238.562	10.07
238.779	77.65
238.996	14.17
239.214	38.74
239.431	1.88
239.648	-53.42
239.865	75.6
240.083	44.88
240.3	38.74
240.517	-45.23
240.735	38.74
240.952	34.64
241.169	-6.31
241.386	51.03
241.603	16.21
241.821	16.21
242.038	106.32
242.255	30.55
242.472	26.45
242.689	59.22
242.907	87.89
243.124	-6.31
243.341	69.46
243.558	-8.36
243.775	67.41
243.992	-22.7
244.209	1.88
244.426	3.93
244.643	-8.36
244.86	79.7
245.078	14.17
245.295	83.8
245.512	1.88
245.729	67.41
245.946	3.93
246.163	-28.84
246.38	81.75
246.597	-12.46
246.814	20.31
247.031	-37.03
247.248	55.12
247.464	14.17
247.681	36.69
247.898	-26.79
248.115	53.08
248.332	73.56
248.549	120.66
248.766	57.17
248.983	55.12
249.2	14.17
249.417	104.28
249.633	-63.66
249.85	114.52
250.067	18.26
250.284	12.12
250.501	5.97
250.717	53.08
250.934	40.79
251.151	55.12
251.368	22.36
251.585	-0.17
251.801	-16.55
252.018	-6.31
252.235	57.17
252.451	-16.55
252.668	16.21
252.885	104.28
253.102	16.21
253.318	38.74
253.535	8.02
253.752	46.93
253.968	48.98
254.185	-10.41
254.401	28.5
254.618	34.64
254.835	59.22
255.051	48.98
255.268	57.17
255.484	26.45
255.701	-32.94
255.917	73.56
256.134	8.02
256.351	-28.84
256.567	57.17
256.784	5.97
257	-47.27
257.217	34.64
257.433	85.84
257.65	46.93
257.866	65.36
258.082	106.32
258.299	16.21
258.515	48.98
258.732	-18.6
258.948	5.97
259.165	-2.22
259.381	51.03
259.597	51.03
259.814	22.36
260.03	89.94
260.246	14.17
260.463	12.12
260.679	5.97
260.895	-0.17
261.112	-34.99
261.328	-26.79
261.544	-0.17
261.761	108.37
261.977	-59.56
262.193	10.07
262.409	16.21
262.626	5.97
262.842	53.08
263.058	-18.6
263.274	75.6
263.49	48.98
263.707	38.74
263.923	24.4
264.139	-12.46
264.355	22.36
264.571	53.08
264.787	-39.08
265.004	81.75
265.22	59.22
265.436	38.74
265.652	44.88
265.868	48.98
266.084	-14.51
266.3	51.03
266.516	51.03
266.732	51.03
266.948	22.36
267.164	75.6
267.38	38.74
267.596	89.94
267.812	28.5
268.028	51.03
268.244	14.17
268.46	-2.22
268.676	10.07
268.892	22.36
269.108	22.36
269.324	28.5
269.54	81.75
269.756	14.17
269.972	20.31
270.188	85.84
270.403	-28.84
270.619	-10.41
270.835	100.18
271.051	55.12
271.267	-4.27
271.483	22.36
271.698	-2.22
271.914	69.46
272.13	3.93
272.346	-6.31
272.562	10.07
272.777	73.56
272.993	18.26
273.209	-8.36
273.425	48.98
273.64	30.55
273.856	30.55
274.072	36.69
274.287	-22.7
274.503	34.64
274.719	20.31
274.934	18.26
275.15	-37.03
275.366	61.27
275.581	1.88
275.797	-0.17
276.012	42.84
276.228	-34.99
276.444	-20.65
276.659	61.27
276.875	34.64
277.09	-18.6
277.306	141.14
277.521	-4.27
277.737	61.27
277.952	94.04
278.168	-59.56
278.383	22.36
278.599	5.97
278.814	1.88
279.03	10.07
279.245	94.04
279.461	20.31
279.676	28.5
279.892	44.88
280.107	36.69
280.322	51.03
280.538	122.71
280.753	104.28
280.969	98.13
281.184	16.21
281.399	18.26
281.615	-6.31
281.83	65.36
282.045	112.47
282.26	28.5
282.476	24.4
282.691	44.88
282.906	-43.18
283.122	85.84
283.337	36.69
283.552	122.71
283.767	48.98
283.983	94.04
284.198	65.36
284.413	-22.7
284.628	14.17
284.843	79.7
285.058	38.74
285.274	1.88
285.489	-2.22
285.704	38.74
285.919	57.17
286.134	-10.41
286.349	12.12
286.564	24.4
286.779	-20.65
286.995	5.97
287.21	-34.99
287.425	44.88
287.64	59.22
287.855	104.28
288.07	-24.75
288.285	22.36
288.5	83.8
288.715	89.94
288.93	79.7
289.145	20.31
289.36	10.07
289.575	63.32
289.79	8.02
290.004	-26.79
290.219	36.69
290.434	10.07
290.649	85.84
290.864	73.56
291.079	12.12
291.294	32.6
291.509	16.21
291.724	20.31
291.938	10.07
292.153	22.36
292.368	30.55
292.583	28.5
292.798	-6.31
293.012	51.03
293.227	8.02
293.442	63.32
293.657	18.26
293.871	112.47
294.086	-20.65
294.301	96.08
294.516	-0.17
294.73	10.07
294.945	71.51
295.16	67.41
295.374	46.93
295.589	77.65
295.804	63.32
296.018	-14.51
296.233	106.32
296.447	12.12
296.662	12.12
296.877	53.08
297.091	87.89
297.306	-30.89
297.52	-18.6
297.735	48.98
297.949	-47.27
298.164	42.84
298.378	55.12
298.593	89.94
298.807	63.32
299.022	102.23
299.236	-28.84
299.451	51.03
299.665	-18.6
299.88	116.56
300.094	67.41
300.309	34.64
300.523	-4.27
300.737	3.93
300.952	116.56
301.166	28.5
301.381	38.74
301.595	-47.27
301.809	38.74
302.024	3.93
302.238	20.31
302.452	46.93
302.667	-14.51
302.881	32.6
303.095	100.18
303.309	-10.41
303.524	34.64
303.738	-22.7
303.952	16.21
304.166	22.36
304.381	30.55
304.595	16.21
304.809	28.5
305.023	32.6
305.237	8.02
305.452	26.45
305.666	32.6
305.88	32.6
306.094	57.17
306.308	-45.23
306.522	104.28
306.736	14.17
306.95	34.64
307.164	12.12
307.379	28.5
307.593	67.41
307.807	14.17
308.021	20.31
308.235	30.55
308.449	63.32
308.663	137.04
308.877	24.4
309.091	106.32
309.305	-28.84
309.519	28.5
309.733	53.08
309.947	20.31
310.161	16.21
310.374	85.84
310.588	61.27
310.802	-2.22
311.016	-12.46
311.23	3.93
311.444	100.18
311.658	112.47
311.872	14.17
312.085	24.4
312.299	24.4
312.513	73.56
312.727	1.88
312.941	67.41
313.154	87.89
313.368	26.45
313.582	34.64
313.796	12.12
314.009	26.45
314.223	87.89
314.437	12.12
314.651	55.12
314.864	79.7
315.078	-6.31
315.292	-47.27
315.505	51.03
315.719	34.64
315.933	91.99
316.146	14.17
316.36	34.64
316.573	65.36
316.787	38.74
317.001	63.32
317.214	-20.65
317.428	100.18
317.641	-16.55
317.855	38.74
318.068	67.41
318.282	10.07
318.495	57.17
318.709	34.64
318.922	1.88
319.136	104.28
319.349	141.14
319.563	94.04
319.776	44.88
319.99	96.08
320.203	83.8
320.417	108.37
320.63	55.12
320.843	139.09
321.057	22.36
321.27	30.55
321.483	40.79
321.697	48.98
321.91	46.93
322.124	57.17
322.337	34.64
322.55	73.56
322.763	30.55
322.977	46.93
323.19	5.97
323.403	94.04
323.617	-4.27
323.83	61.27
324.043	24.4
324.256	48.98
324.469	44.88
324.683	112.47
324.896	28.5
325.109	42.84
325.322	-10.41
325.535	96.08
325.748	61.27
325.962	-18.6
326.175	91.99
326.388	73.56
326.601	118.61
326.814	30.55
327.027	26.45
327.24	73.56
327.453	14.17
327.666	57.17
327.879	-28.84
328.092	91.99
328.305	24.4
328.518	40.79
328.731	61.27
328.944	46.93
329.157	48.98
329.37	85.84
329.583	79.7
329.796	87.89
330.009	24.4
330.222	61.27
330.435	51.03
330.648	40.79
330.861	30.55
331.073	32.6
331.286	48.98
331.499	83.8
331.712	24.4
331.925	59.22
332.138	96.08
332.35	40.79
332.563	51.03
332.776	69.46
332.989	14.17
333.202	55.12
333.414	122.71
333.627	46.93
333.84	40.79
334.053	46.93
334.265	61.27
334.478	42.84
334.691	63.32
334.903	30.55
335.116	5.97
335.329	-57.51
335.541	53.08
335.754	48.98
335.966	51.03
336.179	73.56
336.392	108.37
336.604	46.93
336.817	89.94
337.029	130.9
337.242	1.88
337.454	87.89
337.667	26.45
337.88	61.27
338.092	32.6
338.305	69.46
338.517	22.36
338.729	87.89
338.942	89.94
339.154	30.55
339.367	53.08
339.579	5.97
339.792	12.12
340.004	51.03
340.217	71.51
340.429	24.4
340.641	12.12
340.854	67.41
341.066	61.27
341.278	94.04
341.491	83.8
341.703	-10.41
341.915	71.51
342.128	137.04
342.34	40.79
342.552	30.55
342.764	32.6
342.977	10.07
343.189	57.17
343.401	61.27
343.613	-20.65
343.826	26.45
344.038	104.28
344.25	32.6
344.462	-67.75
344.674	65.36
344.886	5.97
345.099	87.89
345.311	-2.22
345.523	8.02
345.735	51.03
345.947	100.18
346.159	48.98
346.371	67.41
346.583	30.55
346.795	38.74
347.007	40.79
347.219	104.28
347.431	89.94
347.643	83.8
347.855	73.56
348.067	46.93
348.279	-4.27
348.491	-51.37
348.703	61.27
348.915	65.36
349.127	26.45
349.339	-2.22
349.551	48.98
349.763	51.03
349.975	36.69
350.187	55.12
350.399	34.64
350.61	63.32
350.822	61.27
351.034	63.32
351.246	36.69
351.458	59.22
351.669	3.93
351.881	85.84
352.093	36.69
352.305	89.94
352.517	40.79
352.728	87.89
352.94	40.79
353.152	71.51
353.363	85.84
353.575	116.56
353.787	83.8
353.999	75.6
354.21	28.5
354.422	-4.27
354.633	59.22
354.845	20.31
355.057	8.02
355.268	63.32
355.48	57.17
355.692	48.98
355.903	51.03
356.115	40.79
356.326	-4.27
356.538	59.22
356.749	87.89
356.961	75.6
357.172	57.17
357.384	51.03
357.595	26.45
357.807	44.88
358.018	16.21
358.23	20.31
358.441	51.03
358.653	57.17
358.864	55.12
359.075	73.56
359.287	46.93
359.498	42.84
359.709	22.36
359.921	128.85
360.132	20.31
360.344	53.08
360.555	46.93
360.766	100.18
360.977	46.93
361.189	32.6
361.4	-8.36
361.611	122.71
361.823	46.93
362.034	63.32
362.245	-0.17
362.456	106.32
362.667	91.99
362.879	-8.36
363.09	38.74
363.301	24.4
363.512	57.17
363.723	40.79
363.935	-16.55
364.146	40.79
364.357	8.02
364.568	55.12
364.779	79.7
364.99	26.45
365.201	71.51
365.412	135
365.623	22.36
365.834	71.51
366.045	26.45
366.256	24.4
366.467	110.42
366.678	46.93
366.889	71.51
367.1	69.46
367.311	65.36
367.522	28.5
367.733	128.85
367.944	69.46
368.155	94.04
368.366	71.51
368.577	106.32
368.788	120.66
368.999	38.74
369.209	139.09
369.42	79.7
369.631	112.47
369.842	79.7
370.053	61.27
370.264	112.47
370.474	-2.22
370.685	77.65
370.896	40.79
371.107	108.37
371.317	32.6
371.528	8.02
371.739	5.97
371.95	16.21
372.16	59.22
372.371	8.02
372.582	-2.22
372.792	30.55
373.003	73.56
373.214	63.32
373.424	40.79
373.635	83.8
373.846	26.45
374.056	12.12
374.267	87.89
374.477	75.6
374.688	34.64
374.898	63.32
375.109	85.84
375.319	-4.27
375.53	14.17
375.74	104.28
375.951	20.31
376.161	94.04
376.372	81.75
376.582	59.22
376.793	40.79
377.003	89.94
377.214	51.03
377.424	59.22
377.635	69.46
377.845	14.17
378.055	75.6
378.266	-20.65
378.476	36.69
378.686	-12.46
378.897	77.65
379.107	79.7
379.317	48.98
379.528	73.56
379.738	32.6
379.948	120.66
380.158	18.26
380.369	44.88
380.579	53.08
380.789	24.4
380.999	94.04
381.21	67.41
381.42	116.56
381.63	18.26
381.84	120.66
382.05	67.41
382.261	36.69
382.471	38.74
382.681	55.12
382.891	73.56
383.101	106.32
383.311	48.98
383.521	59.22
383.731	-4.27
383.941	71.51
384.151	96.08
384.361	85.84
384.571	-0.17
384.781	87.89
384.991	94.04
385.201	100.18
385.411	-4.27
385.621	28.5
385.831	22.36
386.041	73.56
386.251	118.61
386.461	22.36
386.671	24.4
386.881	81.75
387.091	44.88
387.301	44.88
387.511	59.22
387.72	55.12
387.93	65.36
388.14	55.12
388.35	65.36
388.56	81.75
388.769	122.71
388.979	120.66
389.189	75.6
389.399	94.04
389.609	59.22
389.818	120.66
390.028	112.47
390.238	128.85
390.447	110.42
390.657	55.12
390.867	65.36
391.076	61.27
391.286	71.51
391.496	77.65
391.705	98.13
391.915	110.42
392.125	42.84
392.334	18.26
392.544	57.17
392.753	132.95
392.963	104.28
393.172	85.84
393.382	57.17
393.591	104.28
393.801	83.8
394.01	120.66
394.22	91.99
394.429	79.7
394.639	83.8
394.848	108.37
395.058	26.45
395.267	51.03
395.477	91.99
395.686	112.47
395.895	171.86
396.105	116.56
396.314	139.09
396.524	118.61
396.733	143.19
396.942	155.47
397.152	188.24
397.361	108.37
397.57	128.85
397.78	79.7
397.989	94.04
398.198	210.77
398.407	180.05
398.617	143.19
398.826	69.46
399.035	124.76
399.244	77.65
399.453	120.66
399.663	167.76
399.872	67.41
400.081	98.13
400.29	91.99
400.499	75.6
400.708	120.66
400.917	169.81
401.127	122.71
401.336	85.84
401.545	147.28
401.754	200.53
401.963	237.39
402.172	104.28
402.381	128.85
402.59	110.42
402.799	145.24
403.008	223.06
403.217	147.28
403.426	149.33
403.635	98.13
403.844	118.61
404.053	204.63
404.262	169.81
404.471	173.91
404.68	171.86
404.888	143.19
405.097	141.14
405.306	188.24
405.515	184.15
405.724	173.91
405.933	206.67
406.142	135
406.35	225.11
406.559	225.11
406.768	173.91
406.977	200.53
407.185	304.98
407.394	200.53
407.603	161.62
407.812	229.2
408.02	364.37
408.229	274.26
408.438	339.79
408.646	194.39
408.855	294.74
409.064	268.11
409.272	325.46
409.481	280.4
409.69	366.42
409.898	352.08
410.107	411.47
410.315	343.89
410.524	407.38
410.733	479.05
410.941	423.76
411.15	395.09
411.358	407.38
411.567	470.86
411.775	399.18
411.984	442.19
412.192	526.16
412.401	591.69
412.609	653.13
412.818	548.68
413.026	554.83
413.234	585.55
413.443	671.56
413.651	653.13
413.86	696.14
414.068	769.87
414.276	802.63
414.485	771.91
414.693	759.63
414.901	892.74
415.11	788.3
415.318	849.74
415.526	821.06
415.734	966.47
415.943	968.52
416.151	1107.78
416.359	993.09
416.567	1091.4
416.776	1079.11
416.984	1171.27
417.192	1173.32
417.4	1261.38
417.608	1167.17
417.817	1195.84
418.025	1222.47
418.233	1365.82
418.441	1337.15
418.649	1505.09
418.857	1521.47
419.065	1580.86
419.273	1539.9
419.481	1564.48
419.689	1773.37
419.897	1748.79
420.105	1847.1
420.313	1929.02
420.521	1869.62
420.729	1935.16
420.937	2072.37
421.145	2201.4
421.353	2191.16
421.561	2240.31
421.769	2338.61
421.977	2451.25
422.185	2512.69
422.393	2557.74
422.601	2709.29
422.809	2592.56
423.017	2805.55
423.224	2936.62
423.432	2899.75
423.64	3086.12
423.848	3305.25
424.056	3270.44
424.263	3368.74
424.471	3403.55
424.679	3538.72
424.887	3788.57
425.094	3766.04
425.302	3684.13
425.51	3948.31
425.718	4097.81
425.925	4163.35
426.133	4327.19
426.341	4583.18
426.548	4671.25
426.756	4781.84
426.964	4775.69
427.171	4966.15
427.379	5099.27
427.586	5322.5
427.794	5347.08
428.001	5672.7
428.209	6035.19
428.417	6004.47
428.624	6323.96
428.832	6170.36
429.039	6180.6
429.247	6276.85
429.454	6835.95
429.662	7349.99
429.869	7034.6
430.076	7370.47
430.284	7112.42
430.491	7386.85
430.699	7870.17
430.906	7851.74
431.114	7937.76
431.321	8158.94
431.528	8447.7
431.736	8976.08
431.943	9643.71
432.15	9242.31
432.358	9316.04
432.565	9715.39
432.772	9742.02
432.979	10206.91
433.187	10380.98
433.394	10585.78
433.601	11087.53
433.808	11249.32
434.016	11185.83
434.223	11622.05
434.43	12365.46
434.637	11933.34
434.844	12754.58
435.052	13035.15
435.259	13022.86
435.466	13160.08
435.673	12852.88
435.88	13858.43
436.087	14632.57
436.294	14530.17
436.501	14296.7
436.708	14573.17
436.915	14933.62
437.122	15513.19
437.329	15658.6
437.537	16346.72
437.743	16531.03
437.95	16291.42
438.157	17090.13
438.364	17405.52
438.571	17702.47
438.778	17870.4
438.985	19465.77
439.192	18675.26
439.399	19250.74
439.606	18648.63
439.813	19963.43
440.02	21214.74
440.227	20968.98
440.433	20708.89
440.64	21222.93
440.847	21026.32
441.054	22054.4
441.261	22799.87
441.467	22672.89
441.674	23100.92
441.881	24167.91
442.088	24102.37
442.294	23907.82
442.501	24141.28
442.708	24919.51
442.914	25855.43
443.121	26891.71
443.328	26336.71
443.534	28284.33
443.741	27440.56
443.948	27106.74
444.154	29003.16
444.361	28951.96
444.568	29062.55
444.774	29423
444.981	29474.2
445.187	30127.5
445.394	31595.89
445.6	31145.34
445.807	34035.02
446.013	32671.07
446.22	33322.33
446.426	35108.16
446.633	34796.87
446.839	36134.19
447.046	34858.31
447.252	36633.89
447.459	36404.52
447.665	36359.47
447.871	37580.06
448.078	39345.4
448.284	37514.52
448.491	38864.13
448.697	39800.05
448.903	40809.7
449.11	41172.19
449.316	40645.87
449.522	40973.54
449.728	42126.55
449.935	42398.93
450.141	42493.13
450.347	43570.36
450.553	42165.46
450.76	42552.52
450.966	44006.58
451.172	43701.43
451.378	44911.78
451.584	43527.36
451.791	44717.23
451.997	44680.36
452.203	45517.98
452.409	45479.07
452.615	45401.25
452.821	43963.57
453.027	43214.02
453.233	45290.66
453.44	43685.05
453.646	44356.78
453.852	44043.45
454.058	44995.75
454.264	43252.93
454.47	44614.83
454.676	43457.73
454.882	45245.6
455.088	41276.64
455.294	41868.5
455.5	42149.07
455.705	42534.09
455.911	41303.26
456.117	40254.7
456.323	39531.77
456.529	37774.61
456.735	39417.08
456.941	38296.84
457.147	37883.16
457.352	36683.05
457.558	36330.79
457.764	35945.78
457.97	35499.32
458.176	35034.43
458.381	34766.15
458.587	33072.48
458.793	33097.05
458.999	31257.98
459.204	33865.04
459.41	32652.64
459.616	30471.56
459.821	30666.11
460.027	30459.27
460.233	29887.89
460.438	28302.76
460.644	29015.45
460.85	27758
461.055	27178.42
461.261	26615.23
461.466	24806.87
461.672	24434.14
461.878	25994.7
462.083	24010.21
462.289	23799.27
462.494	23533.04
462.7	22803.96
462.905	21868.04
463.111	22595.07
463.316	22558.21
463.522	21911.05
463.727	22232.58
463.932	22287.87
464.138	22224.39
464.343	22195.71
464.549	21534.22
464.754	22277.63
464.959	21839.37
465.165	21872.14
465.37	20862.49
465.575	20569.63
465.781	21100.05
465.986	21351.95
466.191	20416.03
466.397	20452.89
466.602	19033.65
466.807	19959.33
467.012	19742.25
467.218	19682.86
