Data from USB4F104151__57__12-36-25-536.txt Node

Date: Fri Mar 14 12:36:25 EDT 2025
User: louis
Spectrometer: USB4F10415
Trigger mode: 4
Integration Time (sec): 2.000000E-2
Scans to average: 1
Electric dark correction enabled: true
Nonlinearity correction enabled: false
Boxcar width: 0
XAxis mode: Wavelengths
Number of Pixels in Spectrum: 3648
>>>>>Begin Spectral Data<<<<<
178.204	-107.86
178.424	-107.86
178.644	-107.86
178.864	-50.52
179.084	-66.9
179.304	15.02
179.524	-58.71
179.744	-21.85
179.964	19.11
180.184	23.21
180.404	25.26
180.624	62.12
180.844	10.92
181.064	-77.14
181.283	0.68
181.503	-44.37
181.723	45.74
181.943	-27.99
182.163	51.88
182.383	-7.51
182.602	70.31
182.822	70.31
183.042	37.55
183.262	51.88
183.482	55.98
183.701	-19.8
183.921	0.68
184.141	43.69
184.361	68.27
184.58	0.68
184.8	92.84
185.02	19.11
185.239	-23.89
185.459	45.74
185.679	39.59
185.898	-23.89
186.118	31.4
186.338	-3.41
186.557	84.65
186.777	8.87
186.997	21.16
187.216	-36.18
187.436	115.37
187.655	33.45
187.875	-7.51
188.095	31.4
188.314	74.41
188.534	15.02
188.753	49.83
188.973	45.74
189.192	-7.51
189.412	98.99
189.631	21.16
189.851	74.41
190.07	115.37
190.29	-25.94
190.509	60.07
190.729	86.7
190.948	29.35
191.168	150.18
191.387	6.83
191.607	39.59
191.826	-19.8
192.045	-32.08
192.265	-25.94
192.484	103.08
192.704	94.89
192.923	2.73
193.142	70.31
193.362	68.27
193.581	64.17
193.8	107.18
194.02	80.55
194.239	90.79
194.458	-27.99
194.678	-27.99
194.897	27.31
195.116	-32.08
195.335	-3.41
195.555	10.92
195.774	70.31
195.993	31.4
196.212	62.12
196.432	15.02
196.651	39.59
196.87	58.03
197.089	78.51
197.308	64.17
197.528	33.45
197.747	-36.18
197.966	29.35
198.185	-1.37
198.404	60.07
198.623	70.31
198.842	60.07
199.062	119.46
199.281	35.5
199.5	-7.51
199.719	8.87
199.938	86.7
200.157	49.83
200.376	21.16
200.595	64.17
200.814	62.12
201.033	8.87
201.252	70.31
201.471	23.21
201.69	68.27
201.909	88.75
202.128	64.17
202.347	-17.75
202.566	-36.18
202.785	-5.46
203.004	0.68
203.223	49.83
203.442	64.17
203.661	31.4
203.879	8.87
204.098	-36.18
204.317	-21.85
204.536	31.4
204.755	-46.42
204.974	119.46
205.193	68.27
205.411	98.99
205.63	21.16
205.849	-30.04
206.068	37.55
206.287	58.03
206.505	41.64
206.724	27.31
206.943	17.07
207.162	25.26
207.381	23.21
207.599	47.79
207.818	10.92
208.037	12.97
208.255	-13.65
208.474	43.69
208.693	-36.18
208.911	43.69
209.13	31.4
209.349	60.07
209.567	68.27
209.786	37.55
210.005	80.55
210.223	80.55
210.442	45.74
210.661	-15.7
210.879	-15.7
211.098	29.35
211.316	17.07
211.535	37.55
211.753	51.88
211.972	62.12
212.191	-5.46
212.409	101.03
212.628	84.65
212.846	62.12
213.065	12.97
213.283	101.03
213.502	43.69
213.72	31.4
213.938	-7.51
214.157	82.6
214.375	68.27
214.594	21.16
214.812	66.22
215.031	-7.51
215.249	64.17
215.467	84.65
215.686	45.74
215.904	45.74
216.122	72.36
216.341	35.5
216.559	53.93
216.778	27.31
216.996	2.73
217.214	55.98
217.432	60.07
217.651	115.37
217.869	45.74
218.087	33.45
218.306	-11.61
218.524	29.35
218.742	-1.37
218.96	55.98
219.179	25.26
219.397	64.17
219.615	117.42
219.833	45.74
220.051	72.36
220.27	60.07
220.488	29.35
220.706	74.41
220.924	19.11
221.142	-56.66
221.36	23.21
221.578	103.08
221.796	107.18
222.015	39.59
222.233	-17.75
222.451	86.7
222.669	35.5
222.887	6.83
223.105	21.16
223.323	-15.7
223.541	-21.85
223.759	41.64
223.977	25.26
224.195	70.31
224.413	51.88
224.631	66.22
224.849	74.41
225.067	60.07
225.285	76.46
225.503	23.21
225.721	0.68
225.939	39.59
226.157	-17.75
226.375	53.93
226.592	47.79
226.81	-46.42
227.028	41.64
227.246	119.46
227.464	92.84
227.682	60.07
227.9	107.18
228.117	15.02
228.335	15.02
228.553	17.07
228.771	84.65
228.989	-7.51
229.206	45.74
229.424	21.16
229.642	76.46
229.86	-17.75
230.077	27.31
230.295	90.79
230.513	27.31
230.731	37.55
230.948	-1.37
231.166	74.41
231.384	-40.28
231.601	58.03
231.819	113.32
232.037	-58.71
232.254	41.64
232.472	66.22
232.689	15.02
232.907	55.98
233.125	21.16
233.342	119.46
233.56	41.64
233.777	51.88
233.995	31.4
234.213	105.13
234.43	53.93
234.648	21.16
234.865	-34.13
235.083	86.7
235.3	43.69
235.518	119.46
235.735	76.46
235.953	96.94
236.17	94.89
236.388	66.22
236.605	62.12
236.822	15.02
237.04	150.18
237.257	33.45
237.475	-15.7
237.692	86.7
237.909	-38.23
238.127	23.21
238.344	-44.37
238.562	70.31
238.779	55.98
238.996	58.03
239.214	-21.85
239.431	119.46
239.648	29.35
239.865	41.64
240.083	12.97
240.3	27.31
240.517	0.68
240.735	41.64
240.952	53.93
241.169	33.45
241.386	111.27
241.603	31.4
241.821	-7.51
242.038	51.88
242.255	47.79
242.472	6.83
242.689	33.45
242.907	35.5
243.124	68.27
243.341	111.27
243.558	-5.46
243.775	33.45
243.992	10.92
244.209	84.65
244.426	10.92
244.643	43.69
244.86	23.21
245.078	37.55
245.295	90.79
245.512	10.92
245.729	41.64
245.946	41.64
246.163	90.79
246.38	60.07
246.597	-1.37
246.814	154.28
247.031	29.35
247.248	111.27
247.464	23.21
247.681	131.75
247.898	45.74
248.115	29.35
248.332	-30.04
248.549	58.03
248.766	62.12
248.983	45.74
249.2	35.5
249.417	43.69
249.633	55.98
249.85	66.22
250.067	39.59
250.284	86.7
250.501	105.13
250.717	15.02
250.934	25.26
251.151	33.45
251.368	45.74
251.585	82.6
251.801	72.36
252.018	47.79
252.235	119.46
252.451	90.79
252.668	49.83
252.885	80.55
253.102	58.03
253.318	23.21
253.535	17.07
253.752	78.51
253.968	-23.89
254.185	60.07
254.401	107.18
254.618	84.65
254.835	-1.37
255.051	27.31
255.268	17.07
255.484	29.35
255.701	10.92
255.917	58.03
256.134	12.97
256.351	41.64
256.567	27.31
256.784	133.8
257	-9.56
257.217	41.64
257.433	111.27
257.65	101.03
257.866	66.22
258.082	21.16
258.299	80.55
258.515	64.17
258.732	51.88
258.948	53.93
259.165	76.46
259.381	78.51
259.597	35.5
259.814	49.83
260.03	78.51
260.246	76.46
260.463	55.98
260.679	94.89
260.895	45.74
261.112	101.03
261.328	-7.51
261.544	6.83
261.761	80.55
261.977	101.03
262.193	6.83
262.409	43.69
262.626	31.4
262.842	74.41
263.058	-17.75
263.274	41.64
263.49	21.16
263.707	90.79
263.923	19.11
264.139	70.31
264.355	41.64
264.571	72.36
264.787	47.79
265.004	105.13
265.22	15.02
265.436	86.7
265.652	68.27
265.868	51.88
266.084	80.55
266.3	29.35
266.516	2.73
266.732	86.7
266.948	51.88
267.164	64.17
267.38	90.79
267.596	62.12
267.812	92.84
268.028	66.22
268.244	94.89
268.46	-11.61
268.676	66.22
268.892	45.74
269.108	-5.46
269.324	-15.7
269.54	12.97
269.756	51.88
269.972	39.59
270.188	29.35
270.403	-27.99
270.619	70.31
270.835	70.31
271.051	17.07
271.267	98.99
271.483	58.03
271.698	64.17
271.914	-7.51
272.13	82.6
272.346	43.69
272.562	-19.8
272.777	133.8
272.993	53.93
273.209	76.46
273.425	78.51
273.64	39.59
273.856	29.35
274.072	29.35
274.287	-5.46
274.503	-42.32
274.719	58.03
274.934	-23.89
275.15	117.42
275.366	29.35
275.581	72.36
275.797	37.55
276.012	39.59
276.228	49.83
276.444	51.88
276.659	15.02
276.875	-7.51
277.09	64.17
277.306	53.93
277.521	17.07
277.737	12.97
277.952	74.41
278.168	33.45
278.383	94.89
278.599	35.5
278.814	123.56
279.03	-36.18
279.245	78.51
279.461	76.46
279.676	35.5
279.892	49.83
280.107	-17.75
280.322	27.31
280.538	82.6
280.753	17.07
280.969	47.79
281.184	10.92
281.399	10.92
281.615	35.5
281.83	60.07
282.045	49.83
282.26	88.75
282.476	60.07
282.691	39.59
282.906	53.93
283.122	123.56
283.337	-40.28
283.552	123.56
283.767	25.26
283.983	68.27
284.198	29.35
284.413	45.74
284.628	88.75
284.843	39.59
285.058	-11.61
285.274	60.07
285.489	51.88
285.704	-17.75
285.919	101.03
286.134	10.92
286.349	2.73
286.564	86.7
286.779	90.79
286.995	123.56
287.21	-5.46
287.425	117.42
287.64	78.51
287.855	33.45
288.07	19.11
288.285	78.51
288.5	41.64
288.715	6.83
288.93	17.07
289.145	47.79
289.36	47.79
289.575	53.93
289.79	103.08
290.004	53.93
290.219	10.92
290.434	8.87
290.649	60.07
290.864	105.13
291.079	43.69
291.294	146.09
291.509	19.11
291.724	35.5
291.938	21.16
292.153	76.46
292.368	35.5
292.583	78.51
292.798	74.41
293.012	82.6
293.227	64.17
293.442	10.92
293.657	49.83
293.871	119.46
294.086	33.45
294.301	94.89
294.516	21.16
294.73	35.5
294.945	-3.41
295.16	19.11
295.374	33.45
295.589	88.75
295.804	96.94
296.018	19.11
296.233	58.03
296.447	8.87
296.662	-23.89
296.877	76.46
297.091	78.51
297.306	-1.37
297.52	94.89
297.735	58.03
297.949	82.6
298.164	88.75
298.378	64.17
298.593	-40.28
298.807	41.64
299.022	152.23
299.236	78.51
299.451	-5.46
299.665	29.35
299.88	6.83
300.094	41.64
300.309	62.12
300.523	80.55
300.737	185
300.952	41.64
301.166	68.27
301.381	21.16
301.595	-21.85
301.809	19.11
302.024	-9.56
302.238	-17.75
302.452	66.22
302.667	58.03
302.881	90.79
303.095	131.75
303.309	60.07
303.524	-13.65
303.738	125.61
303.952	86.7
304.166	98.99
304.381	-7.51
304.595	27.31
304.809	-9.56
305.023	10.92
305.237	80.55
305.452	84.65
305.666	51.88
305.88	29.35
306.094	68.27
306.308	137.9
306.522	19.11
306.736	41.64
306.95	-5.46
307.164	45.74
307.379	78.51
307.593	47.79
307.807	92.84
308.021	80.55
308.235	39.59
308.449	6.83
308.663	37.55
308.877	84.65
309.091	84.65
309.305	66.22
309.519	35.5
309.733	33.45
309.947	119.46
310.161	29.35
310.374	119.46
310.588	78.51
310.802	-5.46
311.016	90.79
311.23	35.5
311.444	23.21
311.658	70.31
311.872	55.98
312.085	19.11
312.299	174.76
312.513	94.89
312.727	2.73
312.941	29.35
313.154	68.27
313.368	35.5
313.582	62.12
313.796	90.79
314.009	31.4
314.223	68.27
314.437	64.17
314.651	51.88
314.864	43.69
315.078	-9.56
315.292	64.17
315.505	39.59
315.719	21.16
315.933	41.64
316.146	12.97
316.36	51.88
316.573	78.51
316.787	82.6
317.001	88.75
317.214	51.88
317.428	66.22
317.641	58.03
317.855	43.69
318.068	45.74
318.282	31.4
318.495	43.69
318.709	62.12
318.922	135.85
319.136	66.22
319.349	51.88
319.563	35.5
319.776	76.46
319.99	0.68
320.203	55.98
320.417	68.27
320.63	64.17
320.843	68.27
321.057	0.68
321.27	82.6
321.483	25.26
321.697	98.99
321.91	119.46
322.124	141.99
322.337	96.94
322.55	43.69
322.763	53.93
322.977	96.94
323.19	39.59
323.403	47.79
323.617	-56.66
323.83	60.07
324.043	-40.28
324.256	111.27
324.469	-27.99
324.683	82.6
324.896	33.45
325.109	23.21
325.322	15.02
325.535	105.13
325.748	12.97
325.962	33.45
326.175	47.79
326.388	86.7
326.601	80.55
326.814	90.79
327.027	107.18
327.24	12.97
327.453	15.02
327.666	0.68
327.879	33.45
328.092	27.31
328.305	49.83
328.518	139.94
328.731	-3.41
328.944	19.11
329.157	105.13
329.37	4.78
329.583	60.07
329.796	109.22
330.009	21.16
330.222	197.29
330.435	66.22
330.648	60.07
330.861	82.6
331.073	62.12
331.286	-25.94
331.499	70.31
331.712	121.51
331.925	-3.41
332.138	74.41
332.35	92.84
332.563	-3.41
332.776	70.31
332.989	23.21
333.202	2.73
333.414	148.14
333.627	19.11
333.84	43.69
334.053	55.98
334.265	74.41
334.478	82.6
334.691	45.74
334.903	21.16
335.116	41.64
335.329	84.65
335.541	78.51
335.754	115.37
335.966	76.46
336.179	29.35
336.392	19.11
336.604	35.5
336.817	117.42
337.029	101.03
337.242	39.59
337.454	33.45
337.667	113.32
337.88	62.12
338.092	41.64
338.305	64.17
338.517	-9.56
338.729	88.75
338.942	101.03
339.154	-13.65
339.367	-15.7
339.579	107.18
339.792	43.69
340.004	109.22
340.217	64.17
340.429	123.56
340.641	21.16
340.854	4.78
341.066	21.16
341.278	68.27
341.491	127.66
341.703	51.88
341.915	-23.89
342.128	113.32
342.34	33.45
342.552	39.59
342.764	47.79
342.977	19.11
343.189	47.79
343.401	10.92
343.613	17.07
343.826	8.87
344.038	51.88
344.25	47.79
344.462	25.26
344.674	27.31
344.886	-9.56
345.099	98.99
345.311	19.11
345.523	94.89
345.735	70.31
345.947	62.12
346.159	82.6
346.371	103.08
346.583	2.73
346.795	119.46
347.007	105.13
347.219	74.41
347.431	55.98
347.643	107.18
347.855	33.45
348.067	70.31
348.279	58.03
348.491	31.4
348.703	76.46
348.915	-1.37
349.127	10.92
349.339	-19.8
349.551	68.27
349.763	37.55
349.975	47.79
350.187	121.51
350.399	127.66
350.61	37.55
350.822	33.45
351.034	68.27
351.246	15.02
351.458	133.8
351.669	55.98
351.881	72.36
352.093	27.31
352.305	53.93
352.517	19.11
352.728	96.94
352.94	47.79
353.152	-46.42
353.363	33.45
353.575	66.22
353.787	115.37
353.999	76.46
354.21	86.7
354.422	62.12
354.633	27.31
354.845	84.65
355.057	19.11
355.268	72.36
355.48	-7.51
355.692	78.51
355.903	25.26
356.115	86.7
356.326	2.73
356.538	139.94
356.749	55.98
356.961	78.51
357.172	60.07
357.384	33.45
357.595	107.18
357.807	47.79
358.018	41.64
358.23	21.16
358.441	162.47
358.653	84.65
358.864	82.6
359.075	27.31
359.287	23.21
359.498	51.88
359.709	25.26
359.921	98.99
360.132	39.59
360.344	111.27
360.555	76.46
360.766	98.99
360.977	76.46
361.189	90.79
361.4	33.45
361.611	35.5
361.823	62.12
362.034	68.27
362.245	-3.41
362.456	64.17
362.667	84.65
362.879	25.26
363.09	60.07
363.301	107.18
363.512	125.61
363.723	70.31
363.935	70.31
364.146	70.31
364.357	25.26
364.568	86.7
364.779	-9.56
364.99	68.27
365.201	39.59
365.412	53.93
365.623	90.79
365.834	68.27
366.045	51.88
366.256	49.83
366.467	43.69
366.678	90.79
366.889	135.85
367.1	96.94
367.311	117.42
367.522	41.64
367.733	82.6
367.944	37.55
368.155	35.5
368.366	25.26
368.577	105.13
368.788	94.89
368.999	90.79
369.209	109.22
369.42	144.04
369.631	84.65
369.842	92.84
370.053	88.75
370.264	4.78
370.474	33.45
370.685	55.98
370.896	98.99
371.107	43.69
371.317	82.6
371.528	72.36
371.739	35.5
371.95	117.42
372.16	45.74
372.371	47.79
372.582	82.6
372.792	51.88
373.003	62.12
373.214	21.16
373.424	43.69
373.635	76.46
373.846	55.98
374.056	107.18
374.267	176.81
374.477	62.12
374.688	82.6
374.898	98.99
375.109	35.5
375.319	47.79
375.53	90.79
375.74	121.51
375.951	8.87
376.161	115.37
376.372	80.55
376.582	47.79
376.793	68.27
377.003	51.88
377.214	84.65
377.424	144.04
377.635	131.75
377.845	103.08
378.055	94.89
378.266	98.99
378.476	72.36
378.686	129.7
378.897	92.84
379.107	129.7
379.317	64.17
379.528	19.11
379.738	152.23
379.948	41.64
380.158	12.97
380.369	94.89
380.579	10.92
380.789	31.4
380.999	47.79
381.21	96.94
381.42	82.6
381.63	90.79
381.84	58.03
382.05	113.32
382.261	74.41
382.471	82.6
382.681	64.17
382.891	133.8
383.101	53.93
383.311	78.51
383.521	78.51
383.731	21.16
383.941	152.23
384.151	90.79
384.361	70.31
384.571	103.08
384.781	74.41
384.991	168.62
385.201	144.04
385.411	74.41
385.621	82.6
385.831	-13.65
386.041	64.17
386.251	141.99
386.461	55.98
386.671	105.13
386.881	123.56
387.091	27.31
387.301	39.59
387.511	125.61
387.72	98.99
387.93	172.71
388.14	76.46
388.35	158.38
388.56	158.38
388.769	148.14
388.979	123.56
389.189	41.64
389.399	101.03
389.609	64.17
389.818	117.42
390.028	146.09
390.238	84.65
390.447	21.16
390.657	84.65
390.867	60.07
391.076	68.27
391.286	58.03
391.496	49.83
391.705	92.84
391.915	47.79
392.125	117.42
392.334	150.18
392.544	113.32
392.753	98.99
392.963	105.13
393.172	86.7
393.382	86.7
393.591	133.8
393.801	86.7
394.01	103.08
394.22	115.37
394.429	119.46
394.639	139.94
394.848	49.83
395.058	133.8
395.267	141.99
395.477	137.9
395.686	105.13
395.895	162.47
396.105	176.81
396.314	168.62
396.524	137.9
396.733	133.8
396.942	158.38
397.152	154.28
397.361	133.8
397.57	178.86
397.78	180.9
397.989	94.89
398.198	197.29
398.407	162.47
398.617	150.18
398.826	154.28
399.035	238.25
399.244	80.55
399.453	125.61
399.663	115.37
399.872	148.14
400.081	146.09
400.29	150.18
400.499	238.25
400.708	199.34
400.917	139.94
401.127	139.94
401.336	170.66
401.545	236.2
401.754	189.1
401.963	228.01
402.172	217.77
402.381	189.1
402.59	193.19
402.799	176.81
403.008	123.56
403.217	195.24
403.426	170.66
403.635	137.9
403.844	195.24
404.053	187.05
404.262	234.15
404.471	203.43
404.68	248.49
404.888	230.06
405.097	221.86
405.306	219.82
405.515	193.19
405.724	324.26
405.933	217.77
406.142	252.58
406.35	277.16
406.559	279.21
406.768	258.73
406.977	344.74
407.185	314.02
407.394	320.17
407.603	318.12
407.812	340.65
408.02	332.45
408.229	340.65
408.438	309.93
408.646	397.99
408.855	371.36
409.064	330.41
409.272	400.04
409.481	432.8
409.69	449.19
409.898	428.71
410.107	420.52
410.315	430.76
410.524	490.15
410.733	461.48
410.941	484
411.15	547.49
411.358	500.39
411.567	598.69
411.775	570.02
411.984	629.41
412.192	643.74
412.401	711.33
412.609	670.37
412.818	701.09
413.026	699.04
413.234	723.62
413.443	783.01
413.651	830.11
413.86	819.87
414.068	887.45
414.276	934.56
414.485	926.36
414.693	979.61
414.901	934.56
415.11	1114.78
415.318	971.42
415.526	1022.62
415.734	1182.36
415.943	1069.72
416.151	1182.36
416.359	1329.81
416.567	1190.55
416.776	1227.42
416.984	1448.6
417.192	1358.49
417.4	1409.69
417.608	1438.36
417.817	1536.66
418.025	1569.43
418.233	1757.84
418.441	1587.86
418.649	1755.79
418.857	1866.38
419.065	1911.44
419.273	1895.05
419.481	1991.31
419.689	2144.91
419.897	2118.28
420.105	2243.21
420.313	2370.18
420.521	2198.15
420.729	2368.13
420.937	2441.86
421.145	2577.03
421.353	2720.39
421.561	2839.17
421.769	2984.57
421.977	2904.7
422.185	3076.73
422.393	3097.21
422.601	3306.1
422.809	3383.93
423.017	3539.57
423.224	3476.09
423.432	3629.68
423.64	3717.75
423.848	4053.61
424.056	3850.86
424.263	4078.19
424.471	4203.11
424.679	4293.23
424.887	4608.61
425.094	4696.67
425.302	4711.01
425.51	4909.66
425.718	5020.25
425.925	5149.28
426.133	5218.91
426.341	5526.1
426.548	5845.59
426.756	5814.87
426.964	5804.63
427.171	6308.43
427.379	6365.77
427.586	6451.78
427.794	6568.52
428.001	7010.88
428.209	7148.09
428.417	7250.49
428.624	7688.76
428.832	7641.65
429.039	7795.25
429.247	7692.85
429.454	8555.05
429.662	9085.47
429.869	8509.99
430.076	8944.16
430.284	8802.85
430.491	9124.38
430.699	9804.31
430.906	9486.87
431.114	9769.49
431.321	9937.43
431.528	10109.46
431.736	10865.16
431.943	11530.75
432.15	11098.63
432.358	11315.71
432.565	11819.51
432.772	11860.47
432.979	12487.15
433.187	12698.09
433.394	12777.96
433.601	13398.49
433.808	13636.06
434.016	13502.94
434.223	13996.5
434.43	15129.03
434.637	14682.57
434.844	15520.19
435.052	16071.09
435.259	15839.67
435.466	15743.42
435.673	15681.98
435.88	16972.2
436.087	17523.1
436.294	17605.02
436.501	17201.57
436.708	17445.28
436.915	18256.28
437.122	19188.1
437.329	19102.09
437.537	19771.77
437.743	20154.74
437.95	19988.86
438.157	20861.29
438.364	21293.41
438.571	21371.24
438.778	21711.2
438.985	23910.72
439.192	22542.67
439.399	23478.6
439.606	22954.32
439.813	24287.54
440.02	25710.88
440.227	25184.55
440.433	25141.55
440.64	25829.66
440.847	25813.28
441.054	26220.83
441.261	28000.51
441.467	27529.48
441.674	28391.67
441.881	29579.5
442.088	29012.21
442.294	28664.05
442.501	29743.33
442.708	30400.73
442.914	31670.47
443.121	32915.64
443.328	31860.93
443.534	34500.76
443.741	33523.88
443.948	32764.09
444.154	35448.97
444.361	35629.19
444.568	35205.27
444.774	35299.47
444.981	35977.35
445.187	37097.59
445.394	38350.95
445.6	37847.15
445.807	41125.94
446.013	39931.98
446.22	40220.74
446.426	42436.64
446.633	42393.64
446.839	43554.83
447.046	42223.65
447.252	44474.37
447.459	44249.1
447.665	44279.82
447.871	46360.55
448.078	48211.92
448.284	45860.85
448.491	46796.77
448.697	48578.5
448.903	49569.72
449.11	49733.56
449.316	48990.14
449.522	50141.1
449.728	51191.71
449.935	51419.03
450.141	51830.68
450.347	52514.7
450.553	51199.9
450.76	51642.26
450.966	53362.56
451.172	52912
451.378	54316.91
451.584	53354.36
451.791	54046.58
451.997	54155.12
452.203	55279.46
452.409	55238.5
452.615	54753.13
452.821	53024.64
453.027	52371.34
453.233	54683.5
453.44	52815.75
453.646	53626.74
453.852	54026.1
454.058	54611.82
454.264	52420.49
454.47	54181.74
454.676	53014.4
454.882	54919.01
455.088	49987.5
455.294	50503.59
455.5	51707.8
455.705	52064.14
455.911	50358.19
456.117	49113.02
456.323	48766.91
456.529	45836.27
456.735	47984.59
456.941	46874.59
457.147	46196.71
457.352	44736.51
457.558	44242.95
457.764	44201.99
457.97	43794.45
458.176	42676.26
458.381	42436.64
458.587	40769.6
458.793	40609.85
458.999	38527.07
459.204	41162.81
459.41	40284.23
459.616	37339.25
459.821	37199.99
460.027	37455.98
460.233	36341.89
460.438	34777.24
460.644	35225.75
460.85	33718.44
461.055	33235.12
461.261	32911.54
461.466	30619.86
461.672	29841.64
461.878	31701.19
462.083	29634.79
462.289	29114.61
462.494	28834.03
462.7	27619.59
462.905	26816.79
463.111	27715.84
463.316	28207.36
463.522	27291.91
463.727	27375.88
463.932	27519.24
464.138	27279.63
464.343	27013.39
464.549	26069.28
464.754	27511.05
464.959	26837.27
465.165	26884.37
465.37	25626.92
465.575	24781.1
465.781	26079.52
465.986	26261.79
466.191	25141.55
466.397	24922.41
