Data from USB4F104151__51__12-36-07-878.txt Node

Date: Fri Mar 14 12:36:07 EDT 2025
User: louis
Spectrometer: USB4F10415
Trigger mode: 4
Integration Time (sec): 2.000000E-2
Scans to average: 1
Electric dark correction enabled: true
Nonlinearity correction enabled: false
Boxcar width: 0
XAxis mode: Wavelengths
Number of Pixels in Spectrum: 3648
>>>>>Begin Spectral Data<<<<<
178.204	-77.14
178.424	-77.14
178.644	-77.14
178.864	-17.75
179.084	-64.85
179.304	23.21
179.524	64.17
179.744	31.4
179.964	2.73
180.184	35.5
180.404	-50.52
180.624	-79.19
180.844	39.59
181.064	-32.08
181.283	-44.37
181.503	-34.13
181.723	43.69
181.943	12.97
182.163	-7.51
182.383	-5.46
182.602	17.07
182.822	21.16
183.042	31.4
183.262	-9.56
183.482	51.88
183.701	60.07
183.921	-44.37
184.141	82.6
184.361	103.08
184.58	15.02
184.8	74.41
185.02	35.5
185.239	62.12
185.459	10.92
185.679	43.69
185.898	-42.32
186.118	31.4
186.338	53.93
186.557	72.36
186.777	-1.37
186.997	27.31
187.216	84.65
187.436	72.36
187.655	43.69
187.875	47.79
188.095	35.5
188.314	21.16
188.534	15.02
188.753	21.16
188.973	45.74
189.192	62.12
189.412	84.65
189.631	74.41
189.851	41.64
190.07	29.35
190.29	-3.41
190.509	39.59
190.729	-9.56
190.948	53.93
191.168	15.02
191.387	60.07
191.607	27.31
191.826	31.4
192.045	35.5
192.265	-7.51
192.484	-7.51
192.704	-9.56
192.923	-9.56
193.142	51.88
193.362	-9.56
193.581	107.18
193.8	-1.37
194.02	74.41
194.239	96.94
194.458	72.36
194.678	41.64
194.897	17.07
195.116	45.74
195.335	-1.37
195.555	33.45
195.774	43.69
195.993	64.17
196.212	-11.61
196.432	-9.56
196.651	33.45
196.87	-23.89
197.089	144.04
197.308	6.83
197.528	29.35
197.747	41.64
197.966	66.22
198.185	31.4
198.404	37.55
198.623	72.36
198.842	4.78
199.062	-13.65
199.281	31.4
199.5	27.31
199.719	72.36
199.938	35.5
200.157	53.93
200.376	119.46
200.595	66.22
200.814	84.65
201.033	-54.61
201.252	109.23
201.471	76.46
201.69	17.07
201.909	29.35
202.128	2.73
202.347	49.83
202.566	33.45
202.785	66.22
203.004	-52.56
203.223	105.13
203.442	43.69
203.661	-21.85
203.879	39.59
204.098	-21.85
204.317	43.69
204.536	70.31
204.755	12.97
204.974	62.12
205.193	49.83
205.411	170.66
205.63	-5.46
205.849	37.55
206.068	33.45
206.287	21.16
206.505	60.07
206.724	39.59
206.943	-30.04
207.162	39.59
207.381	25.26
207.599	68.27
207.818	37.55
208.037	66.22
208.255	-5.46
208.474	64.17
208.693	60.07
208.911	-3.41
209.13	43.69
209.349	90.79
209.567	35.5
209.786	35.5
210.005	39.59
210.223	47.79
210.442	49.83
210.661	33.45
210.879	45.74
211.098	-27.99
211.316	-7.51
211.535	31.4
211.753	35.5
211.972	41.64
212.191	15.02
212.409	64.17
212.628	23.21
212.846	53.93
213.065	76.46
213.283	70.31
213.502	72.36
213.72	17.07
213.938	33.45
214.157	66.22
214.375	96.94
214.594	-9.56
214.812	60.07
215.031	29.35
215.249	35.5
215.467	162.47
215.686	8.87
215.904	45.74
216.122	49.83
216.341	-9.56
216.559	41.64
216.778	6.83
216.996	66.22
217.214	-5.46
217.432	45.74
217.651	72.36
217.869	58.03
218.087	58.03
218.306	10.92
218.524	55.98
218.742	-44.37
218.96	19.11
219.179	92.84
219.397	55.98
219.615	43.69
219.833	-27.99
220.051	15.02
220.27	58.03
220.488	70.31
220.706	70.31
220.924	-9.56
221.142	115.37
221.36	-13.65
221.578	41.64
221.796	70.31
222.015	25.26
222.233	-5.46
222.451	92.84
222.669	2.73
222.887	27.31
223.105	17.07
223.323	-17.75
223.541	70.31
223.759	129.7
223.977	43.69
224.195	80.55
224.413	12.97
224.631	15.02
224.849	62.12
225.067	152.23
225.285	8.87
225.503	12.97
225.721	64.17
225.939	111.27
226.157	-40.28
226.375	101.03
226.592	-34.13
226.81	-13.65
227.028	37.55
227.246	66.22
227.464	55.98
227.682	25.26
227.9	17.07
228.117	49.83
228.335	8.87
228.553	74.41
228.771	25.26
228.989	58.03
229.206	-17.75
229.424	49.83
229.642	80.55
229.86	-1.37
230.077	60.07
230.295	84.65
230.513	-48.47
230.731	25.26
230.948	82.6
231.166	80.55
231.384	4.78
231.601	47.79
231.819	76.46
232.037	74.41
232.254	62.12
232.472	70.31
232.689	6.83
232.907	39.59
233.125	23.21
233.342	-36.18
233.56	66.22
233.777	55.98
233.995	37.55
234.213	64.17
234.43	6.83
234.648	-1.37
234.865	-9.56
235.083	76.46
235.3	25.26
235.518	6.83
235.735	115.37
235.953	55.98
236.17	33.45
236.388	6.83
236.605	19.11
236.822	96.94
237.04	43.69
237.257	105.13
237.475	-42.32
237.692	37.55
237.909	41.64
238.127	64.17
238.344	6.83
238.562	53.93
238.779	-46.42
238.996	-36.18
239.214	133.8
239.431	25.26
239.648	-21.85
239.865	8.87
240.083	146.09
240.3	60.07
240.517	51.88
240.735	-21.85
240.952	105.13
241.169	78.51
241.386	35.5
241.603	49.83
241.821	10.92
242.038	8.87
242.255	-5.46
242.472	25.26
242.689	29.35
242.907	-13.65
243.124	29.35
243.341	-9.56
243.558	88.75
243.775	39.59
243.992	60.07
244.209	78.51
244.426	39.59
244.643	33.45
244.86	78.51
245.078	-23.89
245.295	86.7
245.512	49.83
245.729	-38.23
245.946	39.59
246.163	-5.46
246.38	98.99
246.597	39.59
246.814	60.07
247.031	82.6
247.248	37.55
247.464	10.92
247.681	15.02
247.898	49.83
248.115	148.14
248.332	39.59
248.549	74.41
248.766	80.55
248.983	72.36
249.2	25.26
249.417	98.99
249.633	17.07
249.85	66.22
250.067	31.4
250.284	12.97
250.501	25.26
250.717	45.74
250.934	43.69
251.151	17.07
251.368	51.88
251.585	39.59
251.801	39.59
252.018	-15.7
252.235	55.98
252.451	39.59
252.668	39.59
252.885	72.36
253.102	21.16
253.318	121.51
253.535	92.84
253.752	109.23
253.968	31.4
254.185	10.92
254.401	35.5
254.618	74.41
254.835	41.64
255.051	74.41
255.268	25.26
255.484	6.83
255.701	-23.89
255.917	68.27
256.134	-34.13
256.351	21.16
256.567	23.21
256.784	-19.8
257	35.5
257.217	-13.65
257.433	82.6
257.65	74.41
257.866	19.11
258.082	-44.37
258.299	19.11
258.515	39.59
258.732	-11.61
258.948	68.27
259.165	43.69
259.381	29.35
259.597	-3.41
259.814	43.69
260.03	-40.28
260.246	29.35
260.463	-60.76
260.679	45.74
260.895	-15.7
261.112	15.02
261.328	37.55
261.544	-9.56
261.761	49.83
261.977	25.26
262.193	82.6
262.409	23.21
262.626	49.83
262.842	2.73
263.058	31.4
263.274	76.46
263.49	12.97
263.707	98.99
263.923	37.55
264.139	49.83
264.355	-5.46
264.571	121.51
264.787	107.18
265.004	74.41
265.22	49.83
265.436	88.75
265.652	39.59
265.868	78.51
266.084	39.59
266.3	86.7
266.516	-11.61
266.732	80.55
266.948	35.5
267.164	21.16
267.38	113.32
267.596	49.83
267.812	0.68
268.028	51.88
268.244	27.31
268.46	82.6
268.676	17.07
268.892	27.31
269.108	-40.28
269.324	27.31
269.54	-25.94
269.756	39.59
269.972	43.69
270.188	109.23
270.403	-3.41
270.619	-5.46
270.835	19.11
271.051	64.17
271.267	21.16
271.483	6.83
271.698	133.8
271.914	74.41
272.13	72.36
272.346	15.02
272.562	53.93
272.777	58.03
272.993	-9.56
273.209	-19.8
273.425	-1.37
273.64	-7.51
273.856	51.88
274.072	0.68
274.287	41.64
274.503	74.41
274.719	94.89
274.934	70.31
275.15	-13.65
275.366	19.11
275.581	-3.41
275.797	82.6
276.012	-1.37
276.228	80.55
276.444	15.02
276.659	72.36
276.875	6.83
277.09	55.98
277.306	17.07
277.521	45.74
277.737	64.17
277.952	23.21
278.168	109.23
278.383	23.21
278.599	51.88
278.814	96.94
279.03	43.69
279.245	41.64
279.461	80.55
279.676	47.79
279.892	-46.42
280.107	-36.18
280.322	-89.43
280.538	33.45
280.753	68.27
280.969	-3.41
281.184	103.08
281.399	10.92
281.615	105.13
281.83	25.26
282.045	6.83
282.26	70.31
282.476	96.94
282.691	-32.08
282.906	27.31
283.122	31.4
283.337	-23.89
283.552	29.35
283.767	2.73
283.983	94.89
284.198	2.73
284.413	115.37
284.628	55.98
284.843	39.59
285.058	80.55
285.274	27.31
285.489	49.83
285.704	115.37
285.919	6.83
286.134	72.36
286.349	66.22
286.564	66.22
286.779	123.56
286.995	10.92
287.21	-5.46
287.425	53.93
287.64	-7.51
287.855	78.51
288.07	27.31
288.285	74.41
288.5	55.98
288.715	19.11
288.93	0.68
289.145	49.83
289.36	66.22
289.575	96.94
289.79	66.22
290.004	45.74
290.219	15.02
290.434	-34.13
290.649	-25.94
290.864	74.41
291.079	72.36
291.294	27.31
291.509	86.7
291.724	66.22
291.938	80.55
292.153	12.97
292.368	55.98
292.583	33.45
292.798	47.79
293.012	49.83
293.227	41.64
293.442	66.22
293.657	-17.75
293.871	39.59
294.086	0.68
294.301	88.75
294.516	45.74
294.73	49.83
294.945	6.83
295.16	117.42
295.374	37.55
295.589	82.6
295.804	19.11
296.018	103.08
296.233	17.07
296.447	53.93
296.662	-11.61
296.877	68.27
297.091	80.55
297.306	27.31
297.52	21.16
297.735	70.31
297.949	51.88
298.164	45.74
298.378	66.22
298.593	-17.75
298.807	23.21
299.022	62.12
299.236	125.61
299.451	86.7
299.665	-27.99
299.88	21.16
300.094	37.55
300.309	64.17
300.523	37.55
300.737	80.55
300.952	37.55
301.166	29.35
301.381	10.92
301.595	78.51
301.809	-27.99
302.024	62.12
302.238	6.83
302.452	-13.65
302.667	-15.7
302.881	49.83
303.095	49.83
303.309	27.31
303.524	66.22
303.738	17.07
303.952	96.94
304.166	84.65
304.381	51.88
304.595	41.64
304.809	39.59
305.023	55.98
305.237	96.94
305.452	45.74
305.666	47.79
305.88	43.69
306.094	25.26
306.308	82.6
306.522	25.26
306.736	53.93
306.95	82.6
307.164	29.35
307.379	-9.56
307.593	105.13
307.807	74.41
308.021	21.16
308.235	62.12
308.449	-32.08
308.663	35.5
308.877	55.98
309.091	74.41
309.305	117.42
309.519	23.21
309.733	39.59
309.947	-34.13
310.161	-7.51
310.374	27.31
310.588	55.98
310.802	33.45
311.016	8.87
311.23	92.84
311.444	53.93
311.658	68.27
311.872	39.59
312.085	35.5
312.299	88.75
312.513	72.36
312.727	-11.61
312.941	72.36
313.154	58.03
313.368	74.41
313.582	109.23
313.796	12.97
314.009	96.94
314.223	107.18
314.437	62.12
314.651	53.93
314.864	47.79
315.078	8.87
315.292	8.87
315.505	55.98
315.719	-1.37
315.933	51.88
316.146	23.21
316.36	31.4
316.573	51.88
316.787	-3.41
317.001	76.46
317.214	-34.13
317.428	39.59
317.641	12.97
317.855	29.35
318.068	21.16
318.282	6.83
318.495	76.46
318.709	43.69
318.922	55.98
319.136	58.03
319.349	10.92
319.563	12.97
319.776	12.97
319.99	-34.13
320.203	117.42
320.417	113.32
320.63	10.92
320.843	62.12
321.057	68.27
321.27	64.17
321.483	37.55
321.697	101.03
321.91	51.88
322.124	45.74
322.337	35.5
322.55	2.73
322.763	70.31
322.977	-17.75
323.19	10.92
323.403	64.17
323.617	47.79
323.83	37.55
324.043	49.83
324.256	103.08
324.469	62.12
324.683	6.83
324.896	43.69
325.109	-1.37
325.322	-64.85
325.535	41.64
325.748	37.55
325.962	66.22
326.175	80.55
326.388	49.83
326.601	84.65
326.814	113.32
327.027	29.35
327.24	51.88
327.453	10.92
327.666	60.07
327.879	86.7
328.092	41.64
328.305	-1.37
328.518	-1.37
328.731	49.83
328.944	-38.23
329.157	51.88
329.37	-36.18
329.583	96.94
329.796	80.55
330.009	-44.37
330.222	49.83
330.435	66.22
330.648	37.55
330.861	109.23
331.073	62.12
331.286	88.75
331.499	43.69
331.712	-3.41
331.925	31.4
332.138	148.14
332.35	86.7
332.563	49.83
332.776	105.13
332.989	10.92
333.202	27.31
333.414	33.45
333.627	53.93
333.84	21.16
334.053	70.31
334.265	45.74
334.478	51.88
334.691	103.08
334.903	78.51
335.116	-1.37
335.329	80.55
335.541	70.31
335.754	80.55
335.966	55.98
336.179	29.35
336.392	27.31
336.604	37.55
336.817	107.18
337.029	127.66
337.242	25.26
337.454	86.7
337.667	19.11
337.88	47.79
338.092	21.16
338.305	37.55
338.517	35.5
338.729	21.16
338.942	135.85
339.154	21.16
339.367	31.4
339.579	58.03
339.792	53.93
340.004	119.46
340.217	-13.65
340.429	68.27
340.641	64.17
340.854	-13.65
341.066	33.45
341.278	62.12
341.491	45.74
341.703	72.36
341.915	72.36
342.128	17.07
342.34	113.32
342.552	51.88
342.764	10.92
342.977	31.4
343.189	84.65
343.401	47.79
343.613	37.55
343.826	4.78
344.038	72.36
344.25	12.97
344.462	23.21
344.674	92.84
344.886	19.11
345.099	82.6
345.311	62.12
345.523	23.21
345.735	90.79
345.947	39.59
346.159	94.89
346.371	17.07
346.583	-7.51
346.795	103.08
347.007	47.79
347.219	39.59
347.431	66.22
347.643	84.65
347.855	33.45
348.067	107.18
348.279	-17.75
348.491	-19.8
348.703	35.5
348.915	62.12
349.127	-15.7
349.339	62.12
349.551	74.41
349.763	49.83
349.975	23.21
350.187	39.59
350.399	29.35
350.61	19.11
350.822	49.83
351.034	29.35
351.246	101.03
351.458	35.5
351.669	49.83
351.881	39.59
352.093	27.31
352.305	82.6
352.517	-3.41
352.728	103.08
352.94	70.31
353.152	33.45
353.363	68.27
353.575	82.6
353.787	29.35
353.999	96.94
354.21	15.02
354.422	-3.41
354.633	27.31
354.845	47.79
355.057	135.85
355.268	60.07
355.48	10.92
355.692	58.03
355.903	74.41
356.115	15.02
356.326	-7.51
356.538	111.27
356.749	41.64
356.961	125.61
357.172	111.27
357.384	4.78
357.595	76.46
357.807	33.45
358.018	17.07
358.23	12.97
358.441	53.93
358.653	37.55
358.864	21.16
359.075	80.55
359.287	27.31
359.498	35.5
359.709	88.75
359.921	64.17
360.132	23.21
360.344	60.07
360.555	60.07
360.766	70.31
360.977	-30.04
361.189	64.17
361.4	25.26
361.611	64.17
361.823	82.6
362.034	60.07
362.245	-13.65
362.456	10.92
362.667	19.11
362.879	101.03
363.09	105.13
363.301	55.98
363.512	21.16
363.723	82.6
363.935	33.45
364.146	101.03
364.357	82.6
364.568	2.73
364.779	45.74
364.99	45.74
365.201	-9.56
365.412	92.84
365.623	21.16
365.834	17.07
366.045	60.07
366.256	152.23
366.467	-62.8
366.678	27.31
366.889	70.31
367.1	58.03
367.311	0.68
367.522	88.75
367.733	60.07
367.944	86.7
368.155	55.98
368.366	125.61
368.577	66.22
368.788	64.17
368.999	2.73
369.209	111.27
369.42	117.42
369.631	168.62
369.842	49.83
370.053	96.94
370.264	86.7
370.474	88.75
370.685	-7.51
370.896	62.12
371.107	103.08
371.317	35.5
371.528	60.07
371.739	55.98
371.95	47.79
372.16	135.85
372.371	86.7
372.582	111.27
372.792	68.27
373.003	62.12
373.214	70.31
373.424	70.31
373.635	31.4
373.846	49.83
374.056	92.84
374.267	113.32
374.477	58.03
374.688	45.74
374.898	41.64
375.109	82.6
375.319	62.12
375.53	88.75
375.74	31.4
375.951	74.41
376.161	88.75
376.372	133.8
376.582	35.5
376.793	62.12
377.003	12.97
377.214	68.27
377.424	115.37
377.635	133.8
377.845	123.56
378.055	107.18
378.266	78.51
378.476	4.78
378.686	66.22
378.897	92.84
379.107	37.55
379.317	90.79
379.528	27.31
379.738	51.88
379.948	6.83
380.158	162.47
380.369	70.31
380.579	78.51
380.789	33.45
380.999	78.51
381.21	25.26
381.42	39.59
381.63	94.89
381.84	-50.52
382.05	84.65
382.261	109.23
382.471	146.09
382.681	10.92
382.891	113.32
383.101	37.55
383.311	70.31
383.521	35.5
383.731	27.31
383.941	17.07
384.151	-9.56
384.361	10.92
384.571	17.07
384.781	82.6
384.991	62.12
385.201	119.46
385.411	64.17
385.621	109.23
385.831	15.02
386.041	94.89
386.251	47.79
386.461	113.32
386.671	78.51
386.881	33.45
387.091	111.27
387.301	94.89
387.511	19.11
387.72	129.7
387.93	80.55
388.14	27.31
388.35	-9.56
388.56	113.32
388.769	84.65
388.979	96.94
389.189	105.13
389.399	178.86
389.609	101.03
389.818	86.7
390.028	141.99
390.238	31.4
390.447	58.03
390.657	84.65
390.867	35.5
391.076	86.7
391.286	88.75
391.496	53.93
391.705	41.64
391.915	187.05
392.125	92.84
392.334	94.89
392.544	51.88
392.753	78.51
392.963	29.35
393.172	105.13
393.382	0.68
393.591	121.51
393.801	92.84
394.01	80.55
394.22	119.46
394.429	78.51
394.639	74.41
394.848	62.12
395.058	51.88
395.267	150.18
395.477	82.6
395.686	154.28
395.895	98.99
396.105	182.95
396.314	103.08
396.524	111.27
396.733	55.98
396.942	166.57
397.152	129.7
397.361	111.27
397.57	144.04
397.78	58.03
397.989	178.86
398.198	117.42
398.407	109.23
398.617	111.27
398.826	107.18
399.035	53.93
399.244	117.42
399.453	123.56
399.663	39.59
399.872	160.42
400.081	96.94
400.29	180.9
400.499	98.99
400.708	82.6
400.917	158.38
401.127	121.51
401.336	144.04
401.545	98.99
401.754	193.19
401.963	170.66
402.172	92.84
402.381	115.37
402.59	150.18
402.799	131.75
403.008	230.06
403.217	135.85
403.426	178.86
403.635	152.23
403.844	172.71
404.053	182.95
404.262	129.7
404.471	223.91
404.68	137.9
404.888	68.27
405.097	135.85
405.306	236.2
405.515	185
405.724	166.57
405.933	205.48
406.142	203.43
406.35	215.72
406.559	246.44
406.768	236.2
406.977	246.44
407.185	207.53
407.394	236.2
407.603	250.53
407.812	258.73
408.02	236.2
408.229	252.58
408.438	285.35
408.646	252.58
408.855	254.63
409.064	322.21
409.272	262.82
409.481	305.83
409.69	309.93
409.898	316.07
410.107	352.93
410.315	307.88
410.524	348.84
410.733	395.94
410.941	389.8
411.15	412.32
411.358	369.32
411.567	481.96
411.775	484
411.984	465.57
412.192	469.67
412.401	467.62
412.609	543.39
412.818	537.25
413.026	451.24
413.234	535.2
413.443	565.92
413.651	613.03
413.86	637.6
414.068	619.17
414.276	647.84
414.485	606.88
414.693	670.37
414.901	764.57
415.11	811.68
415.318	791.2
415.526	869.02
415.734	836.25
415.943	817.82
416.151	797.34
416.359	823.97
416.567	924.32
416.776	969.37
416.984	991.9
417.192	1030.81
417.4	1053.34
417.608	1041.05
417.817	1141.4
418.025	1186.46
418.233	1213.08
418.441	1223.32
418.649	1344.15
418.857	1344.15
419.065	1385.11
419.273	1366.68
419.481	1530.52
419.689	1561.23
419.897	1544.85
420.105	1645.2
420.313	1708.69
420.521	1626.77
420.729	1684.11
420.937	1776.27
421.145	1813.13
421.353	1931.92
421.561	2048.65
421.769	2048.65
421.977	2310.79
422.185	2036.36
422.393	2327.18
422.601	2329.22
422.809	2282.12
423.017	2405
423.224	2544.26
423.432	2687.62
423.64	2660.99
423.848	2892.41
424.056	2736.77
424.263	3035.77
424.471	3060.35
424.679	3164.79
424.887	3199.61
425.094	3234.43
425.302	3369.59
425.51	3461.75
425.718	3455.61
425.925	3566.2
426.133	3756.66
426.341	4070
426.548	4078.19
426.756	4026.99
426.964	4244.07
427.171	4450.92
427.379	4491.88
427.586	4692.58
427.794	4727.39
428.001	4932.19
428.209	5274.2
428.417	5044.83
428.624	5372.5
428.832	5374.55
429.039	5378.65
429.247	5548.63
429.454	5849.68
429.662	6269.51
429.869	5724.76
430.076	6214.22
430.284	6138.44
430.491	6427.21
430.699	6750.79
430.906	6826.56
431.114	6801.99
431.321	7057.98
431.528	7182.91
431.736	7739.96
431.943	8079.92
432.15	7848.5
432.358	7897.65
432.565	8299.05
432.772	8198.7
432.979	8749.61
433.187	8845.86
433.394	9101.86
433.601	9638.42
433.808	9462.3
434.016	9261.6
434.223	9966.1
434.43	10514.95
434.637	10306.06
434.844	11024.9
435.052	11219.46
435.259	11078.15
435.466	11088.39
435.673	10928.64
435.88	11780.6
436.087	12222.96
436.294	12741.1
436.501	12022.26
436.708	12366.32
436.915	12530.16
437.122	13398.49
437.329	13281.76
437.537	13767.13
437.743	13963.73
437.95	13883.86
438.157	14543.31
438.364	15098.31
438.571	15139.27
438.778	15036.87
438.985	16738.73
439.192	15870.39
439.399	16482.74
439.606	15980.98
439.813	17136.04
440.02	17940.89
440.227	17688.99
440.433	17316.26
440.64	18018.71
440.847	18031
441.054	18215.32
441.261	19734.91
441.467	19171.72
441.674	19849.6
441.881	20660.59
442.088	20103.54
442.294	20349.3
442.501	20629.87
442.708	21246.31
442.914	21872.99
443.121	23243.08
443.328	22301.01
443.534	24125.75
443.741	23169.35
443.948	22718.8
444.154	24967.47
444.361	24723.76
444.568	24717.62
444.774	24637.75
444.981	25100.59
445.187	25583.91
445.394	27060.49
445.6	26435.86
445.807	28944.62
446.013	28160.25
446.22	28344.57
446.426	29538.54
446.633	29821.16
446.839	30738.65
447.046	29231.34
447.252	30824.66
447.459	31176.91
447.665	30808.28
447.871	32309.44
448.078	33861.8
448.284	32084.16
448.491	32977.08
448.697	34293.92
448.903	35098.77
449.11	35033.24
449.316	34754.71
449.522	35123.35
449.728	36245.63
449.935	36692.09
450.141	36593.79
450.347	37263.47
450.553	36137.09
450.76	36325.5
450.966	38010.98
451.172	37525.61
451.378	38514.78
451.584	37699.69
451.791	39006.3
451.997	38666.33
452.203	39194.71
452.409	39297.11
452.615	38959.19
452.821	37648.49
453.027	37242.99
453.233	39073.88
453.44	37668.97
453.646	37924.97
453.852	38334.56
454.058	38821.98
454.264	37378.16
454.47	38580.32
454.676	37417.07
454.882	39219.28
455.088	35664.01
455.294	36116.61
455.5	36696.19
455.705	36735.1
455.911	35960.97
456.117	34795.67
456.323	34480.28
456.529	32743.61
456.735	34119.84
456.941	33194.16
457.147	32694.46
457.352	31426.76
457.558	31422.67
457.764	31529.16
457.97	30740.69
458.176	30359.77
458.381	30322.91
458.587	28907.76
458.793	28651.77
458.999	27445.51
459.204	29028.59
459.41	28434.68
459.616	26548.5
459.821	26554.65
460.027	26620.18
460.233	25907.49
460.438	24758.58
460.644	25092.4
460.85	24029.5
461.055	23411.01
461.261	23230.79
461.466	21711.2
461.672	21135.72
461.878	22546.77
462.083	21107.05
462.289	20846.96
462.494	20650.35
462.7	19704.19
462.905	19020.17
463.111	19618.18
463.316	19480.96
463.522	19220.87
463.727	19427.71
463.932	19071.37
464.138	18928.01
464.343	19198.34
464.549	18542.99
464.754	19190.15
464.959	19044.74
465.165	19083.66
465.37	18000.28
465.575	17445.28
465.781	18526.61
465.986	18602.38
466.191	17979.8
466.397	17482.14
466.602	16552.37
466.807	17158.56
467.012	17295.78
467.218	17359.27
467.423	16931.24
