Data from USB4F104151__32__12-35-35-801.txt Node

Date: Fri Mar 14 12:35:35 EDT 2025
User: louis
Spectrometer: USB4F10415
Trigger mode: 4
Integration Time (sec): 2.000000E-2
Scans to average: 1
Electric dark correction enabled: true
Nonlinearity correction enabled: false
Boxcar width: 0
XAxis mode: Wavelengths
Number of Pixels in Spectrum: 3648
>>>>>Begin Spectral Data<<<<<
178.204	-99.33
178.424	-99.33
178.644	-99.33
178.864	-64.51
179.084	21.5
179.304	-62.46
179.524	48.13
179.744	5.12
179.964	23.55
180.184	-23.55
180.404	27.65
180.624	13.31
180.844	-15.36
181.064	-21.5
181.283	-11.26
181.503	-1.02
181.723	17.41
181.943	-29.7
182.163	117.76
182.383	-35.84
182.602	91.13
182.822	-23.55
183.042	91.13
183.262	66.56
183.482	-19.46
183.701	33.79
183.921	-5.12
184.141	54.27
184.361	-7.17
184.58	15.36
184.8	31.74
185.02	1.02
185.239	74.75
185.459	93.18
185.679	66.56
185.898	-31.74
186.118	50.18
186.338	54.27
186.557	56.32
186.777	-5.12
186.997	-1.02
187.216	76.8
187.436	128
187.655	72.7
187.875	-7.17
188.095	-19.46
188.314	54.27
188.534	17.41
188.753	13.31
188.973	-31.74
189.192	82.94
189.412	-3.07
189.631	21.5
189.851	37.89
190.07	60.42
190.29	-3.07
190.509	48.13
190.729	-9.22
190.948	21.5
191.168	144.38
191.387	17.41
191.607	13.31
191.826	46.08
192.045	64.51
192.265	-1.02
192.484	58.37
192.704	17.41
192.923	7.17
193.142	109.57
193.362	82.94
193.581	41.98
193.8	72.7
194.02	7.17
194.239	21.5
194.458	41.98
194.678	68.61
194.897	41.98
195.116	74.75
195.335	21.5
195.555	-31.74
195.774	-7.17
195.993	39.94
196.212	70.65
196.432	27.65
196.651	23.55
196.87	21.5
197.089	52.22
197.308	76.8
197.528	60.42
197.747	11.26
197.966	109.57
198.185	74.75
198.404	31.74
198.623	91.13
198.842	3.07
199.062	35.84
199.281	29.7
199.5	23.55
199.719	29.7
199.938	31.74
200.157	-31.74
200.376	15.36
200.595	23.55
200.814	52.22
201.033	39.94
201.252	52.22
201.471	60.42
201.69	31.74
201.909	60.42
202.128	15.36
202.347	130.05
202.566	68.61
202.785	31.74
203.004	7.17
203.223	160.77
203.442	76.8
203.661	41.98
203.879	-13.31
204.098	11.26
204.317	-5.12
204.536	39.94
204.755	15.36
204.974	60.42
205.193	62.46
205.411	132.09
205.63	9.22
205.849	25.6
206.068	70.65
206.287	-19.46
206.505	97.28
206.724	-19.46
206.943	27.65
207.162	23.55
207.381	97.28
207.599	5.12
207.818	35.84
208.037	21.5
208.255	39.94
208.474	11.26
208.693	41.98
208.911	-3.07
209.13	82.94
209.349	17.41
209.567	-27.65
209.786	103.42
210.005	46.08
210.223	97.28
210.442	-64.51
210.661	39.94
210.879	-27.65
211.098	-31.74
211.316	27.65
211.535	91.13
211.753	60.42
211.972	74.75
212.191	-31.74
212.409	125.95
212.628	27.65
212.846	21.5
213.065	19.46
213.283	91.13
213.502	1.02
213.72	13.31
213.938	29.7
214.157	68.61
214.375	113.66
214.594	54.27
214.812	-60.42
215.031	23.55
215.249	15.36
215.467	54.27
215.686	-11.26
215.904	103.42
216.122	-27.65
216.341	84.99
216.559	15.36
216.778	27.65
216.996	107.52
217.214	46.08
217.432	125.95
217.651	89.09
217.869	37.89
218.087	130.05
218.306	99.33
218.524	95.23
218.742	3.07
218.96	13.31
219.179	-1.02
219.397	58.37
219.615	107.52
219.833	103.42
220.051	31.74
220.27	78.85
220.488	64.51
220.706	33.79
220.924	-19.46
221.142	60.42
221.36	54.27
221.578	78.85
221.796	39.94
222.015	97.28
222.233	54.27
222.451	37.89
222.669	-17.41
222.887	74.75
223.105	13.31
223.323	54.27
223.541	-35.84
223.759	66.56
223.977	-27.65
224.195	35.84
224.413	27.65
224.631	50.18
224.849	64.51
225.067	37.89
225.285	62.46
225.503	66.56
225.721	-56.32
225.939	13.31
226.157	95.23
226.375	97.28
226.592	78.85
226.81	17.41
227.028	15.36
227.246	70.65
227.464	33.79
227.682	44.03
227.9	103.42
228.117	91.13
228.335	66.56
228.553	21.5
228.771	109.57
228.989	-33.79
229.206	13.31
229.424	58.37
229.642	50.18
229.86	-33.79
230.077	72.7
230.295	50.18
230.513	115.71
230.731	103.42
230.948	97.28
231.166	19.46
231.384	62.46
231.601	62.46
231.819	91.13
232.037	7.17
232.254	54.27
232.472	9.22
232.689	15.36
232.907	74.75
233.125	1.02
233.342	33.79
233.56	-7.17
233.777	25.6
233.995	-13.31
234.213	136.19
234.43	125.95
234.648	54.27
234.865	-29.7
235.083	-33.79
235.3	62.46
235.518	-13.31
235.735	78.85
235.953	44.03
236.17	41.98
236.388	21.5
236.605	35.84
236.822	60.42
237.04	60.42
237.257	76.8
237.475	-31.74
237.692	46.08
237.909	58.37
238.127	11.26
238.344	74.75
238.562	140.29
238.779	31.74
238.996	56.32
239.214	82.94
239.431	62.46
239.648	-3.07
239.865	62.46
240.083	11.26
240.3	97.28
240.517	74.75
240.735	17.41
240.952	-17.41
241.169	33.79
241.386	70.65
241.603	3.07
241.821	13.31
242.038	37.89
242.255	44.03
242.472	9.22
242.689	41.98
242.907	19.46
243.124	68.61
243.341	-7.17
243.558	48.13
243.775	-3.07
243.992	25.6
244.209	148.48
244.426	84.99
244.643	103.42
244.86	15.36
245.078	25.6
245.295	80.89
245.512	46.08
245.729	37.89
245.946	119.81
246.163	5.12
246.38	70.65
246.597	13.31
246.814	13.31
247.031	41.98
247.248	76.8
247.464	31.74
247.681	31.74
247.898	-64.51
248.115	48.13
248.332	19.46
248.549	31.74
248.766	72.7
248.983	107.52
249.2	103.42
249.417	37.89
249.633	3.07
249.85	5.12
250.067	99.33
250.284	66.56
250.501	80.89
250.717	76.8
250.934	3.07
251.151	44.03
251.368	84.99
251.585	91.13
251.801	54.27
252.018	11.26
252.235	25.6
252.451	35.84
252.668	-15.36
252.885	-39.94
253.102	66.56
253.318	39.94
253.535	21.5
253.752	29.7
253.968	37.89
254.185	23.55
254.401	54.27
254.618	15.36
254.835	33.79
255.051	78.85
255.268	21.5
255.484	37.89
255.701	-1.02
255.917	78.85
256.134	35.84
256.351	54.27
256.567	39.94
256.784	-62.46
257	29.7
257.217	3.07
257.433	50.18
257.65	60.42
257.866	74.75
258.082	29.7
258.299	-9.22
258.515	115.71
258.732	99.33
258.948	113.66
259.165	29.7
259.381	21.5
259.597	125.95
259.814	-25.6
260.03	68.61
260.246	101.37
260.463	101.37
260.679	84.99
260.895	35.84
261.112	52.22
261.328	76.8
261.544	21.5
261.761	123.9
261.977	74.75
262.193	11.26
262.409	3.07
262.626	78.85
262.842	39.94
263.058	19.46
263.274	68.61
263.49	37.89
263.707	68.61
263.923	82.94
264.139	5.12
264.355	21.5
264.571	50.18
264.787	9.22
265.004	105.47
265.22	9.22
265.436	-3.07
265.652	82.94
265.868	37.89
266.084	31.74
266.3	111.61
266.516	115.71
266.732	-9.22
266.948	74.75
267.164	29.7
267.38	95.23
267.596	44.03
267.812	111.61
268.028	9.22
268.244	37.89
268.46	60.42
268.676	60.42
268.892	140.29
269.108	58.37
269.324	99.33
269.54	29.7
269.756	78.85
269.972	5.12
270.188	15.36
270.403	52.22
270.619	80.89
270.835	23.55
271.051	37.89
271.267	39.94
271.483	99.33
271.698	72.7
271.914	66.56
272.13	39.94
272.346	52.22
272.562	35.84
272.777	31.74
272.993	82.94
273.209	1.02
273.425	95.23
273.64	87.04
273.856	58.37
274.072	25.6
274.287	84.99
274.503	121.85
274.719	52.22
274.934	-25.6
275.15	-3.07
275.366	68.61
275.581	115.71
275.797	64.51
276.012	56.32
276.228	7.17
276.444	29.7
276.659	48.13
276.875	7.17
277.09	46.08
277.306	-1.02
277.521	66.56
277.737	50.18
277.952	91.13
278.168	27.65
278.383	-1.02
278.599	7.17
278.814	97.28
279.03	7.17
279.245	56.32
279.461	35.84
279.676	-1.02
279.892	54.27
280.107	23.55
280.322	68.61
280.538	37.89
280.753	37.89
280.969	52.22
281.184	68.61
281.399	-17.41
281.615	107.52
281.83	-66.56
282.045	66.56
282.26	80.89
282.476	64.51
282.691	101.37
282.906	70.65
283.122	-25.6
283.337	62.46
283.552	89.09
283.767	25.6
283.983	46.08
284.198	84.99
284.413	105.47
284.628	-39.94
284.843	101.37
285.058	48.13
285.274	15.36
285.489	-11.26
285.704	70.65
285.919	21.5
286.134	33.79
286.349	84.99
286.564	27.65
286.779	93.18
286.995	144.38
287.21	-31.74
287.425	99.33
287.64	33.79
287.855	62.46
288.07	33.79
288.285	72.7
288.5	78.85
288.715	60.42
288.93	33.79
289.145	138.24
289.36	76.8
289.575	72.7
289.79	62.46
290.004	84.99
290.219	82.94
290.434	-3.07
290.649	-19.46
290.864	148.48
291.079	35.84
291.294	74.75
291.509	-21.5
291.724	64.51
291.938	93.18
292.153	78.85
292.368	58.37
292.583	-9.22
292.798	76.8
293.012	11.26
293.227	99.33
293.442	31.74
293.657	52.22
293.871	58.37
294.086	-48.13
294.301	35.84
294.516	21.5
294.73	31.74
294.945	39.94
295.16	48.13
295.374	50.18
295.589	58.37
295.804	87.04
296.018	52.22
296.233	66.56
296.447	50.18
296.662	5.12
296.877	39.94
297.091	146.43
297.306	70.65
297.52	-33.79
297.735	113.66
297.949	-29.7
298.164	101.37
298.378	25.6
298.593	56.32
298.807	52.22
299.022	74.75
299.236	103.42
299.451	74.75
299.665	80.89
299.88	62.46
300.094	105.47
300.309	-29.7
300.523	21.5
300.737	9.22
300.952	132.09
301.166	62.46
301.381	19.46
301.595	72.7
301.809	44.03
302.024	56.32
302.238	19.46
302.452	107.52
302.667	-9.22
302.881	123.9
303.095	91.13
303.309	70.65
303.524	-11.26
303.738	109.57
303.952	-66.56
304.166	41.98
304.381	-5.12
304.595	41.98
304.809	68.61
305.023	89.09
305.237	19.46
305.452	-5.12
305.666	74.75
305.88	70.65
306.094	37.89
306.308	37.89
306.522	103.42
306.736	95.23
306.95	-29.7
307.164	50.18
307.379	46.08
307.593	37.89
307.807	52.22
308.021	23.55
308.235	13.31
308.449	31.74
308.663	-15.36
308.877	35.84
309.091	37.89
309.305	72.7
309.519	41.98
309.733	97.28
309.947	29.7
310.161	13.31
310.374	29.7
310.588	140.29
310.802	21.5
311.016	97.28
311.23	80.89
311.444	56.32
311.658	62.46
311.872	93.18
312.085	60.42
312.299	54.27
312.513	17.41
312.727	37.89
312.941	37.89
313.154	19.46
313.368	17.41
313.582	46.08
313.796	103.42
314.009	-1.02
314.223	132.09
314.437	80.89
314.651	119.81
314.864	89.09
315.078	39.94
315.292	-9.22
315.505	52.22
315.719	70.65
315.933	44.03
316.146	103.42
316.36	31.74
316.573	52.22
316.787	103.42
317.001	166.91
317.214	23.55
317.428	46.08
317.641	52.22
317.855	95.23
318.068	66.56
318.282	39.94
318.495	140.29
318.709	54.27
318.922	70.65
319.136	60.42
319.349	66.56
319.563	13.31
319.776	-46.08
319.99	48.13
320.203	-21.5
320.417	21.5
320.63	72.7
320.843	72.7
321.057	72.7
321.27	74.75
321.483	1.02
321.697	-13.31
321.91	91.13
322.124	70.65
322.337	72.7
322.55	13.31
322.763	41.98
322.977	82.94
323.19	56.32
323.403	89.09
323.617	52.22
323.83	21.5
324.043	-7.17
324.256	62.46
324.469	56.32
324.683	50.18
324.896	-21.5
325.109	1.02
325.322	64.51
325.535	44.03
325.748	-7.17
325.962	68.61
326.175	39.94
326.388	113.66
326.601	54.27
326.814	48.13
327.027	-1.02
327.24	121.85
327.453	60.42
327.666	82.94
327.879	105.47
328.092	68.61
328.305	58.37
328.518	103.42
328.731	76.8
328.944	58.37
329.157	62.46
329.37	76.8
329.583	54.27
329.796	93.18
330.009	48.13
330.222	58.37
330.435	64.51
330.648	74.75
330.861	148.48
331.073	105.47
331.286	78.85
331.499	25.6
331.712	62.46
331.925	93.18
332.138	50.18
332.35	78.85
332.563	9.22
332.776	52.22
332.989	19.46
333.202	-17.41
333.414	52.22
333.627	62.46
333.84	52.22
334.053	105.47
334.265	56.32
334.478	41.98
334.691	41.98
334.903	58.37
335.116	39.94
335.329	60.42
335.541	66.56
335.754	97.28
335.966	31.74
336.179	35.84
336.392	33.79
336.604	50.18
336.817	15.36
337.029	54.27
337.242	39.94
337.454	107.52
337.667	41.98
337.88	93.18
338.092	158.72
338.305	87.04
338.517	-13.31
338.729	119.81
338.942	66.56
339.154	39.94
339.367	31.74
339.579	72.7
339.792	-9.22
340.004	130.05
340.217	-7.17
340.429	35.84
340.641	27.65
340.854	62.46
341.066	-1.02
341.278	25.6
341.491	74.75
341.703	68.61
341.915	72.7
342.128	56.32
342.34	78.85
342.552	89.09
342.764	48.13
342.977	11.26
343.189	140.29
343.401	105.47
343.613	60.42
343.826	64.51
344.038	13.31
344.25	101.37
344.462	97.28
344.674	64.51
344.886	31.74
345.099	13.31
345.311	7.17
345.523	113.66
345.735	7.17
345.947	17.41
346.159	33.79
346.371	103.42
346.583	44.03
346.795	125.95
347.007	76.8
347.219	101.37
347.431	107.52
347.643	52.22
347.855	17.41
348.067	-7.17
348.279	121.85
348.491	27.65
348.703	84.99
348.915	58.37
349.127	50.18
349.339	11.26
349.551	46.08
349.763	123.9
349.975	37.89
350.187	93.18
350.399	54.27
350.61	89.09
350.822	52.22
351.034	68.61
351.246	95.23
351.458	54.27
351.669	97.28
351.881	9.22
352.093	25.6
352.305	19.46
352.517	70.65
352.728	70.65
352.94	54.27
353.152	101.37
353.363	-1.02
353.575	54.27
353.787	74.75
353.999	62.46
354.21	41.98
354.422	58.37
354.633	33.79
354.845	89.09
355.057	82.94
355.268	27.65
355.48	25.6
355.692	76.8
355.903	117.76
356.115	48.13
356.326	66.56
356.538	125.95
356.749	37.89
356.961	58.37
357.172	56.32
357.384	87.04
357.595	117.76
357.807	48.13
358.018	23.55
358.23	101.37
358.441	144.38
358.653	99.33
358.864	117.76
359.075	95.23
359.287	101.37
359.498	148.48
359.709	117.76
359.921	48.13
360.132	39.94
360.344	48.13
360.555	66.56
360.766	66.56
360.977	78.85
361.189	74.75
361.4	105.47
361.611	58.37
361.823	160.77
362.034	62.46
362.245	76.8
362.456	152.57
362.667	-17.41
362.879	-13.31
363.09	46.08
363.301	35.84
363.512	74.75
363.723	84.99
363.935	44.03
364.146	97.28
364.357	46.08
364.568	31.74
364.779	29.7
364.99	70.65
365.201	109.57
365.412	82.94
365.623	76.8
365.834	76.8
366.045	93.18
366.256	111.61
366.467	35.84
366.678	95.23
366.889	78.85
367.1	128
367.311	113.66
367.522	89.09
367.733	29.7
367.944	33.79
368.155	33.79
368.366	35.84
368.577	46.08
368.788	123.9
368.999	82.94
369.209	66.56
369.42	105.47
369.631	50.18
369.842	15.36
370.053	113.66
370.264	148.48
370.474	13.31
370.685	25.6
370.896	72.7
371.107	130.05
371.317	23.55
371.528	111.61
371.739	95.23
371.95	113.66
372.16	56.32
372.371	11.26
372.582	74.75
372.792	46.08
373.003	111.61
373.214	70.65
373.424	101.37
373.635	136.19
373.846	144.38
374.056	25.6
374.267	56.32
374.477	9.22
374.688	99.33
374.898	-33.79
375.109	111.61
375.319	99.33
375.53	78.85
375.74	101.37
375.951	35.84
376.161	154.62
376.372	138.24
376.582	15.36
376.793	164.86
377.003	46.08
377.214	72.7
377.424	115.71
377.635	25.6
377.845	19.46
378.055	115.71
378.266	74.75
378.476	95.23
378.686	107.52
378.897	72.7
379.107	95.23
379.317	148.48
379.528	148.48
379.738	60.42
379.948	35.84
380.158	144.38
380.369	58.37
380.579	107.52
380.789	82.94
380.999	82.94
381.21	103.42
381.42	82.94
381.63	91.13
381.84	66.56
382.05	39.94
382.261	125.95
382.471	78.85
382.681	64.51
382.891	31.74
383.101	37.89
383.311	70.65
383.521	99.33
383.731	52.22
383.941	50.18
384.151	44.03
384.361	37.89
384.571	50.18
384.781	117.76
384.991	78.85
385.201	62.46
385.411	21.5
385.621	111.61
385.831	66.56
386.041	156.67
386.251	140.29
386.461	89.09
386.671	144.38
386.881	93.18
387.091	48.13
387.301	111.61
387.511	46.08
387.72	183.29
387.93	76.8
388.14	70.65
388.35	37.89
388.56	109.57
388.769	44.03
388.979	82.94
389.189	21.5
389.399	109.57
389.609	113.66
389.818	121.85
390.028	58.37
390.238	175.1
390.447	60.42
390.657	37.89
390.867	152.57
391.076	68.61
391.286	56.32
391.496	132.09
391.705	119.81
391.915	132.09
392.125	130.05
392.334	78.85
392.544	56.32
392.753	154.62
392.963	72.7
393.172	111.61
393.382	89.09
393.591	136.19
393.801	48.13
394.01	142.33
394.22	99.33
394.429	89.09
394.639	70.65
394.848	189.44
395.058	132.09
395.267	66.56
395.477	101.37
395.686	162.81
395.895	152.57
396.105	164.86
396.314	138.24
396.524	166.91
396.733	99.33
396.942	195.58
397.152	117.76
397.361	214.01
397.57	168.96
397.78	123.9
397.989	93.18
398.198	164.86
398.407	211.96
398.617	156.67
398.826	216.06
399.035	123.9
399.244	216.06
399.453	191.49
399.663	107.52
399.872	193.53
400.081	136.19
400.29	224.25
400.499	113.66
400.708	248.83
400.917	87.04
401.127	193.53
401.336	177.15
401.545	201.72
401.754	193.53
401.963	216.06
402.172	191.49
402.381	199.68
402.59	203.77
402.799	160.77
403.008	132.09
403.217	138.24
403.426	144.38
403.635	185.34
403.844	228.35
404.053	164.86
404.262	209.92
404.471	189.44
404.68	242.68
404.888	238.59
405.097	191.49
405.306	160.77
405.515	146.43
405.724	226.3
405.933	199.68
406.142	328.7
406.35	224.25
406.559	283.64
406.768	228.35
406.977	338.94
407.185	252.92
407.394	273.4
407.603	259.07
407.812	283.64
408.02	336.89
408.229	340.99
408.438	336.89
408.646	316.41
408.855	336.89
409.064	353.27
409.272	375.8
409.481	383.99
409.69	349.18
409.898	388.09
410.107	408.57
410.315	472.06
410.524	465.91
410.733	414.71
410.941	418.81
411.15	492.54
411.358	590.84
411.567	523.26
411.775	553.98
411.984	558.07
412.192	572.41
412.401	656.37
412.609	685.05
412.818	691.19
413.026	627.7
413.234	736.24
413.443	629.75
413.651	683
413.86	803.83
414.068	869.36
414.276	795.64
414.485	871.41
414.693	797.68
414.901	912.37
415.11	977.91
415.318	943.09
415.526	928.75
415.734	1014.77
415.943	1129.45
416.151	1162.22
416.359	1131.5
416.567	1215.47
416.776	1217.52
416.984	1291.24
417.192	1225.71
417.4	1354.73
417.608	1350.64
417.817	1412.07
418.025	1518.57
418.233	1545.19
418.441	1545.19
418.649	1561.58
418.857	1694.69
419.065	1797.09
419.273	1700.84
419.481	1758.18
419.689	1889.25
419.897	1956.83
420.105	2063.33
420.313	2100.19
420.521	2036.7
420.729	2149.34
420.937	2323.42
421.145	2403.29
421.353	2536.41
421.561	2452.44
421.769	2636.76
421.977	2698.2
422.185	2700.25
422.393	2866.13
422.601	2939.86
422.809	3085.26
423.017	3097.55
423.224	3322.83
423.432	3204.05
423.64	3314.64
423.848	3681.22
424.056	3587.02
424.263	3808.2
424.471	3804.1
424.679	3840.97
424.887	4045.76
425.094	4178.88
425.302	4182.98
425.51	4500.41
425.718	4621.24
425.925	4537.27
426.133	4815.8
426.341	4936.63
426.548	5227.44
426.756	5039.03
426.964	5258.16
427.171	5561.26
427.379	5639.08
427.586	5723.05
427.794	5880.74
428.001	6314.91
428.209	6689.69
428.417	6335.39
428.624	6855.58
428.832	6935.45
429.039	6914.97
429.247	6980.5
429.454	7365.52
429.662	8047.49
429.869	7744.39
430.076	8020.87
430.284	7861.13
430.491	8209.28
430.699	8487.81
430.906	8602.49
431.114	8762.23
431.321	8944.5
431.528	9438.06
431.736	9649
431.943	10320.74
432.15	9898.86
432.358	10316.64
432.565	10697.56
432.772	10675.04
432.979	11180.89
433.187	11299.67
433.394	11307.86
433.601	12045.13
433.808	12125
434.016	11899.72
434.223	12618.56
434.43	13368.12
434.637	13245.24
434.844	14013.23
435.052	14017.32
435.259	14109.48
435.466	14213.93
435.673	14127.91
435.88	14994.2
436.087	15799.05
436.294	15956.75
436.501	15512.34
436.708	15676.18
436.915	16263.94
437.122	17052.41
437.329	17199.87
437.537	17443.57
437.743	17703.67
437.95	17652.47
438.157	18551.52
438.364	19186.4
438.571	19163.87
438.778	19116.76
438.985	20982.46
439.192	19968.72
439.399	20703.94
439.606	20351.69
439.813	21582.52
440.02	22629.03
440.227	22569.64
440.433	22381.23
440.64	22901.41
440.847	22932.13
441.054	23245.47
441.261	24879.75
441.467	24564.36
441.674	25012.87
441.881	25723.51
442.088	25858.68
442.294	25696.89
442.501	26243.7
442.708	27126.37
442.914	27640.41
443.121	29082.18
443.328	28254.8
443.534	30323.25
443.741	29420.1
443.948	28793.42
444.154	31330.85
444.361	30816.81
444.568	30978.6
444.774	30935.59
444.981	31537.69
445.187	32115.22
445.394	34109.94
445.6	33268.23
445.807	36606.42
446.013	35060.2
446.22	35424.74
446.426	36803.02
446.633	37341.64
446.839	38562.23
447.046	36647.38
447.252	38834.61
447.459	39086.51
447.665	38676.91
447.871	40319.38
448.078	42056.06
448.284	40378.78
448.491	41157
448.697	42910.07
448.903	43530.6
449.11	43934.05
449.316	42934.64
449.522	43952.48
449.728	45271.37
449.935	45242.7
450.141	45175.12
450.347	46244.16
450.553	44755.29
450.76	45373.77
450.966	47024.43
451.172	46604.6
451.378	47640.87
451.584	46348.6
451.791	47933.73
451.997	47890.73
452.203	48560.41
452.409	48257.31
452.615	48007.46
452.821	47012.15
453.027	46055.75
453.233	48398.62
453.44	46874.93
453.646	47470.89
453.852	47200.56
454.058	48138.53
454.264	46545.21
454.47	47620.39
454.676	46344.51
454.882	48285.98
455.088	43792.74
455.294	44388.7
455.5	45379.92
455.705	45660.49
455.911	44235.1
456.117	43463.02
456.323	42656.12
456.529	40546.71
456.735	41982.34
456.941	41197.96
457.147	40118.68
457.352	39289.26
457.558	38644.15
457.764	38871.47
457.97	37716.42
458.176	36868.56
458.381	37353.93
458.587	35699.17
458.793	35420.64
458.999	33749.5
459.204	36170.2
459.41	35088.87
459.616	32705.04
459.821	32793.1
460.027	32713.23
460.233	31676.96
460.438	30323.25
460.644	30722.6
460.85	29237.83
461.055	28703.31
461.261	28910.15
461.466	26962.53
461.672	26073.71
461.878	28013.14
462.083	25821.81
462.289	25475.71
462.494	25221.76
462.7	24050.32
462.905	23356.06
463.111	24375.95
463.316	24226.45
463.522	23591.58
463.727	23997.07
463.932	23634.58
464.138	23460.51
464.343	23487.13
464.549	22694.57
464.754	23540.38
464.959	23407.26
465.165	23462.55
465.37	22182.57
465.575	21508.79
465.781	22512.3
465.986	22741.67
466.191	22014.64
466.397	21355.19
466.602	20361.93
466.807	21209.79
