Data from USB4F104151__37__12-35-46-040.txt Node

Date: Fri Mar 14 12:35:46 EDT 2025
User: louis
Spectrometer: USB4F10415
Trigger mode: 4
Integration Time (sec): 2.000000E-2
Scans to average: 1
Electric dark correction enabled: true
Nonlinearity correction enabled: false
Boxcar width: 0
XAxis mode: Wavelengths
Number of Pixels in Spectrum: 3648
>>>>>Begin Spectral Data<<<<<
178.204	-95.74
178.424	-95.74
178.644	-95.74
178.864	-87.55
179.084	-134.65
179.304	23.04
179.524	-56.83
179.744	-13.82
179.964	6.66
180.184	-3.58
180.404	68.09
180.624	16.9
180.844	-22.02
181.064	-15.87
181.283	18.94
181.503	-42.5
181.723	20.99
181.943	10.75
182.163	80.38
182.383	61.95
182.602	31.23
182.822	53.76
183.042	74.24
183.262	0.51
183.482	29.18
183.701	10.75
183.921	55.81
184.141	-17.92
184.361	80.38
184.58	27.14
184.8	6.66
185.02	-56.83
185.239	74.24
185.459	18.94
185.679	37.38
185.898	-9.73
186.118	33.28
186.338	-15.87
186.557	37.38
186.777	-28.16
186.997	70.14
187.216	-11.78
187.436	55.81
187.655	16.9
187.875	41.47
188.095	-17.92
188.314	68.09
188.534	43.52
188.753	-36.35
188.973	31.23
189.192	18.94
189.412	49.66
189.631	-11.78
189.851	6.66
190.07	27.14
190.29	-3.58
190.509	31.23
190.729	33.28
190.948	27.14
191.168	102.91
191.387	37.38
191.607	-48.64
191.826	-22.02
192.045	12.8
192.265	-58.88
192.484	64
192.704	0.51
192.923	-40.45
193.142	31.23
193.362	-42.5
193.581	74.24
193.8	43.52
194.02	-1.54
194.239	49.66
194.458	61.95
194.678	-22.02
194.897	-3.58
195.116	10.75
195.335	59.9
195.555	51.71
195.774	-34.3
195.993	29.18
196.212	-5.63
196.432	10.75
196.651	88.57
196.87	55.81
197.089	31.23
197.308	88.57
197.528	68.09
197.747	-65.02
197.966	14.85
198.185	45.57
198.404	-44.54
198.623	-13.82
198.842	10.75
199.062	88.57
199.281	74.24
199.5	35.33
199.719	66.05
199.938	12.8
200.157	43.52
200.376	18.94
200.595	111.1
200.814	8.7
201.033	74.24
201.252	39.42
201.471	49.66
201.69	78.33
201.909	-1.54
202.128	68.09
202.347	-22.02
202.566	-17.92
202.785	-13.82
203.004	-46.59
203.223	107.01
203.442	12.8
203.661	47.62
203.879	-9.73
204.098	31.23
204.317	12.8
204.536	10.75
204.755	-11.78
204.974	29.18
205.193	57.86
205.411	70.14
205.63	-5.63
205.849	14.85
206.068	2.56
206.287	55.81
206.505	61.95
206.724	20.99
206.943	35.33
207.162	51.71
207.381	8.7
207.599	10.75
207.818	-13.82
208.037	16.9
208.255	41.47
208.474	23.04
208.693	125.44
208.911	-3.58
209.13	-13.82
209.349	51.71
209.567	78.33
209.786	-17.92
210.005	0.51
210.223	27.14
210.442	-60.93
210.661	0.51
210.879	84.48
211.098	-36.35
211.316	29.18
211.535	27.14
211.753	-62.98
211.972	82.43
212.191	27.14
212.409	-28.16
212.628	68.09
212.846	64
213.065	78.33
213.283	29.18
213.502	53.76
213.72	18.94
213.938	16.9
214.157	90.62
214.375	-19.97
214.594	-1.54
214.812	61.95
215.031	-28.16
215.249	-30.21
215.467	-46.59
215.686	43.52
215.904	61.95
216.122	-3.58
216.341	-13.82
216.559	27.14
216.778	-7.68
216.996	74.24
217.214	-42.5
217.432	39.42
217.651	25.09
217.869	16.9
218.087	35.33
218.306	49.66
218.524	-13.82
218.742	-3.58
218.96	4.61
219.179	43.52
219.397	-19.97
219.615	-11.78
219.833	14.85
220.051	98.81
220.27	6.66
220.488	92.67
220.706	20.99
220.924	-30.21
221.142	64
221.36	39.42
221.578	31.23
221.796	14.85
222.015	45.57
222.233	0.51
222.451	33.28
222.669	53.76
222.887	66.05
223.105	43.52
223.323	53.76
223.541	-26.11
223.759	70.14
223.977	-32.26
224.195	84.48
224.413	31.23
224.631	12.8
224.849	66.05
225.067	68.09
225.285	-7.68
225.503	33.28
225.721	-42.5
225.939	-42.5
226.157	27.14
226.375	64
226.592	-50.69
226.81	25.09
227.028	74.24
227.246	72.19
227.464	53.76
227.682	-36.35
227.9	35.33
228.117	55.81
228.335	-5.63
228.553	94.72
228.771	43.52
228.989	133.63
229.206	104.96
229.424	23.04
229.642	43.52
229.86	6.66
230.077	29.18
230.295	18.94
230.513	61.95
230.731	35.33
230.948	51.71
231.166	31.23
231.384	6.66
231.601	18.94
231.819	-36.35
232.037	94.72
232.254	-56.83
232.472	-54.78
232.689	72.19
232.907	-58.88
233.125	53.76
233.342	-42.5
233.56	49.66
233.777	-13.82
233.995	-40.45
234.213	47.62
234.43	68.09
234.648	4.61
234.865	23.04
235.083	27.14
235.3	-15.87
235.518	33.28
235.735	-7.68
235.953	16.9
236.17	-19.97
236.388	25.09
236.605	-7.68
236.822	25.09
237.04	25.09
237.257	-7.68
237.475	47.62
237.692	80.38
237.909	66.05
238.127	6.66
238.344	47.62
238.562	23.04
238.779	-9.73
238.996	41.47
239.214	-3.58
239.431	49.66
239.648	-13.82
239.865	20.99
240.083	2.56
240.3	53.76
240.517	-24.06
240.735	-3.58
240.952	72.19
241.169	18.94
241.386	51.71
241.603	55.81
241.821	-5.63
242.038	27.14
242.255	39.42
242.472	-1.54
242.689	25.09
242.907	78.33
243.124	-1.54
243.341	-15.87
243.558	55.81
243.775	-13.82
243.992	-30.21
244.209	-22.02
244.426	-50.69
244.643	25.09
244.86	-67.07
245.078	84.48
245.295	18.94
245.512	66.05
245.729	18.94
245.946	-9.73
246.163	6.66
246.38	14.85
246.597	10.75
246.814	25.09
247.031	-54.78
247.248	49.66
247.464	-38.4
247.681	-36.35
247.898	-1.54
248.115	61.95
248.332	-44.54
248.549	45.57
248.766	98.81
248.983	49.66
249.2	72.19
249.417	-17.92
249.633	-30.21
249.85	55.81
250.067	16.9
250.284	90.62
250.501	25.09
250.717	98.81
250.934	-5.63
251.151	10.75
251.368	4.61
251.585	35.33
251.801	27.14
252.018	-7.68
252.235	33.28
252.451	10.75
252.668	47.62
252.885	-3.58
253.102	-52.74
253.318	-36.35
253.535	10.75
253.752	43.52
253.968	16.9
254.185	-36.35
254.401	68.09
254.618	-26.11
254.835	29.18
255.051	59.9
255.268	31.23
255.484	18.94
255.701	2.56
255.917	-11.78
256.134	37.38
256.351	29.18
256.567	-42.5
256.784	70.14
257	12.8
257.217	-9.73
257.433	43.52
257.65	82.43
257.866	43.52
258.082	2.56
258.299	-48.64
258.515	-7.68
258.732	-11.78
258.948	29.18
259.165	90.62
259.381	25.09
259.597	43.52
259.814	-15.87
260.03	23.04
260.246	20.99
260.463	74.24
260.679	66.05
260.895	-7.68
261.112	102.91
261.328	16.9
261.544	-7.68
261.761	31.23
261.977	-17.92
262.193	-9.73
262.409	35.33
262.626	84.48
262.842	47.62
263.058	-1.54
263.274	20.99
263.49	51.71
263.707	57.86
263.923	4.61
264.139	27.14
264.355	6.66
264.571	84.48
264.787	88.57
265.004	-1.54
265.22	20.99
265.436	-11.78
265.652	41.47
265.868	31.23
266.084	-17.92
266.3	12.8
266.516	51.71
266.732	43.52
266.948	53.76
267.164	57.86
267.38	31.23
267.596	29.18
267.812	20.99
268.028	35.33
268.244	12.8
268.46	61.95
268.676	-5.63
268.892	14.85
269.108	-30.21
269.324	49.66
269.54	18.94
269.756	20.99
269.972	10.75
270.188	-5.63
270.403	4.61
270.619	45.57
270.835	31.23
271.051	33.28
271.267	72.19
271.483	55.81
271.698	27.14
271.914	174.59
272.13	-19.97
272.346	121.34
272.562	-52.74
272.777	78.33
272.993	25.09
273.209	53.76
273.425	45.57
273.64	-95.74
273.856	76.29
274.072	45.57
274.287	35.33
274.503	107.01
274.719	39.42
274.934	2.56
275.15	-79.36
275.366	59.9
275.581	-1.54
275.797	16.9
276.012	-5.63
276.228	107.01
276.444	18.94
276.659	-7.68
276.875	55.81
277.09	6.66
277.306	66.05
277.521	70.14
277.737	-7.68
277.952	-7.68
278.168	-3.58
278.383	66.05
278.599	-3.58
278.814	51.71
279.03	27.14
279.245	61.95
279.461	6.66
279.676	78.33
279.892	98.81
280.107	49.66
280.322	68.09
280.538	-30.21
280.753	-60.93
280.969	35.33
281.184	31.23
281.399	33.28
281.615	57.86
281.83	80.38
282.045	-44.54
282.26	51.71
282.476	33.28
282.691	92.67
282.906	35.33
283.122	8.7
283.337	33.28
283.552	47.62
283.767	14.85
283.983	51.71
284.198	37.38
284.413	14.85
284.628	-22.02
284.843	57.86
285.058	41.47
285.274	-11.78
285.489	2.56
285.704	43.52
285.919	25.09
286.134	31.23
286.349	8.7
286.564	0.51
286.779	14.85
286.995	53.76
287.21	23.04
287.425	12.8
287.64	-30.21
287.855	27.14
288.07	41.47
288.285	39.42
288.5	72.19
288.715	29.18
288.93	33.28
289.145	64
289.36	43.52
289.575	-32.26
289.79	92.67
290.004	74.24
290.219	37.38
290.434	51.71
290.649	-7.68
290.864	90.62
291.079	-19.97
291.294	37.38
291.509	10.75
291.724	25.09
291.938	39.42
292.153	39.42
292.368	-11.78
292.583	6.66
292.798	98.81
293.012	25.09
293.227	14.85
293.442	-40.45
293.657	64
293.871	64
294.086	127.49
294.301	41.47
294.516	51.71
294.73	0.51
294.945	29.18
295.16	23.04
295.374	84.48
295.589	2.56
295.804	41.47
296.018	-11.78
296.233	92.67
296.447	12.8
296.662	64
296.877	61.95
297.091	-17.92
297.306	86.53
297.52	-3.58
297.735	59.9
297.949	76.29
298.164	84.48
298.378	14.85
298.593	68.09
298.807	78.33
299.022	59.9
299.236	-30.21
299.451	55.81
299.665	49.66
299.88	53.76
300.094	18.94
300.309	-3.58
300.523	55.81
300.737	18.94
300.952	0.51
301.166	-40.45
301.381	-34.3
301.595	25.09
301.809	25.09
302.024	31.23
302.238	-17.92
302.452	55.81
302.667	-44.54
302.881	23.04
303.095	12.8
303.309	61.95
303.524	-32.26
303.738	18.94
303.952	-13.82
304.166	74.24
304.381	-30.21
304.595	70.14
304.809	47.62
305.023	20.99
305.237	12.8
305.452	61.95
305.666	76.29
305.88	16.9
306.094	49.66
306.308	8.7
306.522	2.56
306.736	72.19
306.95	33.28
307.164	-28.16
307.379	-3.58
307.593	-7.68
307.807	41.47
308.021	29.18
308.235	72.19
308.449	12.8
308.663	-11.78
308.877	6.66
309.091	66.05
309.305	-3.58
309.519	70.14
309.733	-15.87
309.947	12.8
310.161	84.48
310.374	14.85
310.588	23.04
310.802	43.52
311.016	39.42
311.23	64
311.444	6.66
311.658	43.52
311.872	86.53
312.085	72.19
312.299	61.95
312.513	33.28
312.727	53.76
312.941	8.7
313.154	-15.87
313.368	92.67
313.582	70.14
313.796	59.9
314.009	94.72
314.223	-38.4
314.437	51.71
314.651	78.33
314.864	39.42
315.078	6.66
315.292	-9.73
315.505	-58.88
315.719	29.18
315.933	-34.3
316.146	23.04
316.36	121.34
316.573	43.52
316.787	27.14
317.001	-3.58
317.214	27.14
317.428	-9.73
317.641	39.42
317.855	25.09
318.068	23.04
318.282	-34.3
318.495	14.85
318.709	33.28
318.922	18.94
319.136	12.8
319.349	35.33
319.563	-36.35
319.776	59.9
319.99	4.61
320.203	8.7
320.417	98.81
320.63	14.85
320.843	45.57
321.057	45.57
321.27	70.14
321.483	98.81
321.697	31.23
321.91	-13.82
322.124	107.01
322.337	53.76
322.55	-36.35
322.763	61.95
322.977	70.14
323.19	-26.11
323.403	31.23
323.617	35.33
323.83	98.81
324.043	29.18
324.256	-22.02
324.469	20.99
324.683	51.71
324.896	-19.97
325.109	43.52
325.322	-75.26
325.535	16.9
325.748	27.14
325.962	-30.21
326.175	84.48
326.388	18.94
326.601	64
326.814	23.04
327.027	78.33
327.24	29.18
327.453	-26.11
327.666	23.04
327.879	80.38
328.092	31.23
328.305	68.09
328.518	29.18
328.731	57.86
328.944	27.14
329.157	-3.58
329.37	-54.78
329.583	35.33
329.796	2.56
330.009	-3.58
330.222	33.28
330.435	92.67
330.648	16.9
330.861	43.52
331.073	-44.54
331.286	-56.83
331.499	8.7
331.712	55.81
331.925	4.61
332.138	57.86
332.35	10.75
332.563	107.01
332.776	84.48
332.989	-28.16
333.202	78.33
333.414	25.09
333.627	37.38
333.84	25.09
334.053	18.94
334.265	10.75
334.478	-17.92
334.691	41.47
334.903	80.38
335.116	12.8
335.329	-7.68
335.541	23.04
335.754	61.95
335.966	47.62
336.179	29.18
336.392	82.43
336.604	-38.4
336.817	88.57
337.029	57.86
337.242	-28.16
337.454	-32.26
337.667	23.04
337.88	12.8
338.092	10.75
338.305	27.14
338.517	-40.45
338.729	94.72
338.942	84.48
339.154	-15.87
339.367	-19.97
339.579	35.33
339.792	57.86
340.004	43.52
340.217	109.05
340.429	20.99
340.641	55.81
340.854	51.71
341.066	0.51
341.278	86.53
341.491	45.57
341.703	35.33
341.915	-13.82
342.128	78.33
342.34	27.14
342.552	27.14
342.764	-34.3
342.977	45.57
343.189	-62.98
343.401	51.71
343.613	33.28
343.826	68.09
344.038	-42.5
344.25	51.71
344.462	10.75
344.674	-11.78
344.886	-3.58
345.099	-30.21
345.311	35.33
345.523	23.04
345.735	-19.97
345.947	66.05
346.159	47.62
346.371	14.85
346.583	-9.73
346.795	18.94
347.007	25.09
347.219	78.33
347.431	2.56
347.643	74.24
347.855	43.52
348.067	14.85
348.279	4.61
348.491	0.51
348.703	2.56
348.915	100.86
349.127	31.23
349.339	121.34
349.551	59.9
349.763	80.38
349.975	33.28
350.187	70.14
350.399	68.09
350.61	18.94
350.822	51.71
351.034	72.19
351.246	68.09
351.458	18.94
351.669	92.67
351.881	35.33
352.093	94.72
352.305	96.77
352.517	18.94
352.728	82.43
352.94	25.09
353.152	53.76
353.363	-30.21
353.575	33.28
353.787	76.29
353.999	25.09
354.21	49.66
354.422	-7.68
354.633	29.18
354.845	-9.73
355.057	-15.87
355.268	66.05
355.48	29.18
355.692	-11.78
355.903	20.99
356.115	-11.78
356.326	-17.92
356.538	123.39
356.749	57.86
356.961	18.94
357.172	-101.89
357.384	61.95
357.595	37.38
357.807	41.47
358.018	45.57
358.23	20.99
358.441	59.9
358.653	111.1
358.864	-52.74
359.075	31.23
359.287	-13.82
359.498	57.86
359.709	49.66
359.921	94.72
360.132	20.99
360.344	4.61
360.555	74.24
360.766	51.71
360.977	94.72
361.189	107.01
361.4	135.68
361.611	68.09
361.823	100.86
362.034	53.76
362.245	16.9
362.456	39.42
362.667	39.42
362.879	-38.4
363.09	29.18
363.301	10.75
363.512	94.72
363.723	47.62
363.935	14.85
364.146	53.76
364.357	51.71
364.568	-11.78
364.779	51.71
364.99	59.9
365.201	49.66
365.412	86.53
365.623	20.99
365.834	90.62
366.045	18.94
366.256	16.9
366.467	43.52
366.678	61.95
366.889	55.81
367.1	88.57
367.311	27.14
367.522	-26.11
367.733	74.24
367.944	70.14
368.155	47.62
368.366	18.94
368.577	27.14
368.788	94.72
368.999	96.77
369.209	90.62
369.42	16.9
369.631	94.72
369.842	59.9
370.053	14.85
370.264	98.81
370.474	4.61
370.685	102.91
370.896	18.94
371.107	49.66
371.317	55.81
371.528	55.81
371.739	16.9
371.95	76.29
372.16	88.57
372.371	8.7
372.582	53.76
372.792	27.14
373.003	74.24
373.214	12.8
373.424	68.09
373.635	-3.58
373.846	-13.82
374.056	25.09
374.267	35.33
374.477	29.18
374.688	64
374.898	4.61
375.109	31.23
375.319	64
375.53	43.52
375.74	12.8
375.951	-48.64
376.161	41.47
376.372	27.14
376.582	-28.16
376.793	55.81
377.003	47.62
377.214	-7.68
377.424	82.43
377.635	29.18
377.845	72.19
378.055	6.66
378.266	2.56
378.476	92.67
378.686	78.33
378.897	35.33
379.107	33.28
379.317	20.99
379.528	39.42
379.738	64
379.948	37.38
380.158	35.33
380.369	90.62
380.579	-3.58
380.789	35.33
380.999	-5.63
381.21	72.19
381.42	96.77
381.63	135.68
381.84	76.29
382.05	14.85
382.261	98.81
382.471	41.47
382.681	-1.54
382.891	131.58
383.101	84.48
383.311	39.42
383.521	55.81
383.731	57.86
383.941	59.9
384.151	18.94
384.361	82.43
384.571	-1.54
384.781	51.71
384.991	86.53
385.201	51.71
385.411	70.14
385.621	96.77
385.831	-24.06
386.041	82.43
386.251	25.09
386.461	66.05
386.671	57.86
386.881	72.19
387.091	4.61
387.301	66.05
387.511	43.52
387.72	-7.68
387.93	74.24
388.14	2.56
388.35	-22.02
388.56	39.42
388.769	102.91
388.979	35.33
389.189	6.66
389.399	51.71
389.609	49.66
389.818	111.1
390.028	57.86
390.238	92.67
390.447	20.99
390.657	45.57
390.867	74.24
391.076	74.24
391.286	45.57
391.496	41.47
391.705	-34.3
391.915	156.16
392.125	115.2
392.334	53.76
392.544	27.14
392.753	135.68
392.963	94.72
393.172	72.19
393.382	35.33
393.591	59.9
393.801	66.05
394.01	143.87
394.22	96.77
394.429	70.14
394.639	18.94
394.848	35.33
395.058	107.01
395.267	94.72
395.477	90.62
395.686	92.67
395.895	109.05
396.105	121.34
396.314	74.24
396.524	117.25
396.733	66.05
396.942	84.48
397.152	107.01
397.361	158.21
397.57	113.15
397.78	104.96
397.989	102.91
398.198	182.78
398.407	92.67
398.617	76.29
398.826	123.39
399.035	162.3
399.244	55.81
399.453	129.53
399.663	72.19
399.872	113.15
400.081	102.91
400.29	166.4
400.499	66.05
400.708	41.47
400.917	80.38
401.127	64
401.336	145.92
401.545	152.06
401.754	133.63
401.963	98.81
402.172	180.73
402.381	121.34
402.59	82.43
402.799	74.24
403.008	102.91
403.217	104.96
403.426	193.02
403.635	84.48
403.844	100.86
404.053	109.05
404.262	53.76
404.471	209.4
404.68	193.02
404.888	45.57
405.097	188.93
405.306	158.21
405.515	166.4
405.724	96.77
405.933	102.91
406.142	90.62
406.35	135.68
406.559	160.25
406.768	111.1
406.977	186.88
407.185	240.12
407.394	231.93
407.603	141.82
407.812	231.93
408.02	242.17
408.229	188.93
408.438	211.45
408.646	231.93
408.855	176.64
409.064	236.03
409.272	262.65
409.481	281.08
409.69	250.36
409.898	248.32
410.107	289.28
410.315	358.91
410.524	285.18
410.733	266.75
410.941	326.14
411.15	340.47
411.358	301.56
411.567	340.47
411.775	301.56
411.984	358.91
412.192	440.83
412.401	403.96
412.609	344.57
412.818	412.15
413.026	582.14
413.234	502.26
413.443	455.16
413.651	500.22
413.86	479.74
414.068	553.46
414.276	594.42
414.485	539.13
414.693	631.29
414.901	571.9
415.11	608.76
415.318	635.38
415.526	643.57
415.734	717.3
415.943	741.88
416.151	813.56
416.359	729.59
416.567	801.27
416.776	754.16
416.984	821.75
417.192	883.19
417.4	893.43
417.608	872.95
417.817	948.72
418.025	1092.08
418.233	1085.94
418.441	973.3
418.649	1118.7
418.857	1130.99
419.065	1151.47
419.273	1069.55
419.481	1223.15
419.689	1210.86
419.897	1339.88
420.105	1370.6
420.313	1423.85
420.521	1518.06
420.729	1487.34
420.937	1559.02
421.145	1599.98
421.353	1694.18
421.561	1735.14
421.769	1765.86
421.977	1921.51
422.185	1718.76
422.393	1909.22
422.601	2097.63
422.809	2075.1
423.017	2179.55
423.224	2220.51
423.432	2271.71
423.64	2185.69
423.848	2572.76
424.056	2390.49
424.263	2615.77
424.471	2679.26
424.679	2568.66
424.887	2722.26
425.094	2836.95
425.302	2714.07
425.51	3002.83
425.718	2957.78
425.925	3156.43
426.133	3119.57
426.341	3305.93
426.548	3533.26
426.756	3609.03
426.964	3596.75
427.171	3809.73
427.379	3965.38
427.586	3840.45
427.794	4022.72
428.001	4174.27
428.209	4497.85
428.417	4288.96
428.624	4749.75
428.832	4753.85
429.039	4745.66
429.247	4663.74
429.454	4940.21
429.662	5470.64
429.869	5015.99
430.076	5441.96
430.284	5206.45
430.491	5681.58
430.699	5779.88
430.906	5867.94
431.114	5769.64
431.321	6267.3
431.528	6138.27
431.736	6654.36
431.943	6867.35
432.15	6832.54
432.358	6676.89
432.565	7043.48
432.772	6953.37
432.979	7399.82
433.187	7690.63
433.394	7557.52
433.601	8206.72
433.808	8167.81
434.016	8243.59
434.223	8386.94
434.43	9062.77
434.637	8814.97
434.844	9447.79
435.052	9597.29
435.259	9302.39
435.466	9603.44
435.673	9357.68
435.88	9947.5
436.087	10760.54
436.294	10586.46
436.501	10410.34
436.708	10627.42
436.915	10871.13
437.122	11417.94
437.329	11243.86
437.537	11766.09
437.743	11780.43
437.95	11768.14
438.157	12726.59
438.364	12988.73
438.571	12702.01
438.778	12663.1
438.985	14199.08
439.192	13504.82
439.399	13842.73
439.606	13682.99
439.813	14438.69
440.02	15438.1
440.227	14977.31
440.433	14872.86
440.64	15259.93
440.847	15331.61
441.054	15921.42
441.261	16646.4
441.467	16396.55
441.674	16830.72
441.881	17608.95
442.088	17193.21
442.294	17111.29
442.501	17690.87
442.708	18182.38
442.914	18868.45
443.121	19523.8
443.328	19089.63
443.534	20193.48
443.741	19683.54
443.948	19384.54
444.154	20791.49
444.361	20674.76
444.568	21033.15
444.774	20775.11
444.981	21061.82
445.187	21991.6
445.394	22728.87
445.6	22345.9
445.807	24684.68
446.013	23472.28
446.22	23931.03
446.426	24598.66
446.633	24981.63
446.839	25956.47
447.046	24801.41
447.252	26214.51
447.459	26073.2
447.665	25864.31
447.871	27258.98
448.078	28399.69
448.284	27166.82
448.491	27766.87
448.697	28663.88
448.903	29466.69
449.11	29550.65
449.316	28868.68
449.522	29571.13
449.728	30261.3
449.935	30648.36
450.141	30253.11
450.347	31211.56
450.553	30117.94
450.76	30599.21
450.966	31608.86
451.172	30793.77
451.378	31666.2
451.584	31184.93
451.791	32174.1
451.997	31975.45
452.203	32555.02
452.409	32241.68
452.615	32452.62
452.821	31029.29
453.027	30720.04
453.233	32569.36
453.44	31205.41
453.646	31361.06
453.852	31502.37
454.058	31782.94
454.264	31131.68
454.47	31615.01
454.676	31164.45
454.882	31957.02
455.088	29268.03
455.294	29651
455.5	30021.69
455.705	30476.33
455.911	29184.07
456.117	28895.3
456.323	28305.49
456.529	26882.15
456.735	27830.36
456.941	27215.97
457.147	26660.97
457.352	25970.8
457.558	25815.16
457.764	25630.84
457.97	25077.89
458.176	24821.89
458.381	24891.52
458.587	23507.1
458.793	23779.48
458.999	22075.57
459.204	24062.1
459.41	23146.65
459.616	21665.97
459.821	21412.03
460.027	21573.81
460.233	20934.85
460.438	19955.92
460.644	20592.84
460.85	19169.5
461.055	18860.26
461.261	18790.63
461.466	17707.25
461.672	16922.88
461.878	18063.6
462.083	17105.15
462.289	17023.23
462.494	16619.78
462.7	15683.86
462.905	15165.72
463.111	15706.38
463.316	15915.28
463.522	15517.97
463.727	15690
463.932	15407.38
464.138	15198.49
464.343	15368.47
464.549	14967.07
464.754	15593.75
464.959	15421.72
465.165	15372.57
465.37	14688.54
465.575	14317.86
465.781	14602.53
465.986	14971.16
466.191	14117.16
466.397	13963.56
466.602	13510.96
466.807	13883.69
467.012	13781.29
467.218	13752.62
467.423	13721.9
467.628	13627.7
467.833	14307.62
