Data from USB4F104151__17__12-35-20-123.txt Node

Date: Fri Mar 14 12:35:20 EDT 2025
User: louis
Spectrometer: USB4F10415
Trigger mode: 4
Integration Time (sec): 2.000000E-2
Scans to average: 1
Electric dark correction enabled: true
Nonlinearity correction enabled: false
Boxcar width: 0
XAxis mode: Wavelengths
Number of Pixels in Spectrum: 3648
>>>>>Begin Spectral Data<<<<<
178.204	-84.65
178.424	-84.65
178.644	-84.65
178.864	-88.75
179.084	-78.51
179.304	-10.92
179.524	-58.03
179.744	9.56
179.964	32.08
180.184	-8.87
180.404	21.85
180.624	-15.02
180.844	9.56
181.064	5.46
181.283	25.94
181.503	-15.02
181.723	3.41
181.943	38.23
182.163	40.28
182.383	-4.78
182.602	89.43
182.822	185.68
183.042	89.43
183.262	-0.68
183.482	48.47
183.701	27.99
183.921	85.33
184.141	44.37
184.361	36.18
184.58	48.47
184.8	38.23
185.02	93.52
185.239	95.57
185.459	91.48
185.679	97.62
185.898	87.38
186.118	87.38
186.338	36.18
186.557	81.24
186.777	1.37
186.997	105.81
187.216	44.37
187.436	58.71
187.655	11.61
187.875	122.2
188.095	11.61
188.314	105.81
188.534	-2.73
188.753	40.28
188.973	40.28
189.192	-8.87
189.412	50.52
189.631	23.89
189.851	-17.07
190.07	58.71
190.29	42.32
190.509	66.9
190.729	171.35
190.948	52.56
191.168	101.72
191.387	60.76
191.607	118.1
191.826	36.18
192.045	25.94
192.265	-15.02
192.484	111.96
192.704	99.67
192.923	44.37
193.142	73.04
193.362	97.62
193.581	60.76
193.8	25.94
194.02	138.58
194.239	15.7
194.458	27.99
194.678	89.43
194.897	66.9
195.116	-8.87
195.335	97.62
195.555	140.63
195.774	-10.92
195.993	122.2
196.212	118.1
196.432	40.28
196.651	73.04
196.87	15.7
197.089	79.19
197.308	58.71
197.528	3.41
197.747	68.95
197.966	54.61
198.185	71
198.404	13.65
198.623	89.43
198.842	91.48
199.062	97.62
199.281	-15.02
199.5	40.28
199.719	-6.83
199.938	46.42
200.157	103.76
200.376	71
200.595	23.89
200.814	32.08
201.033	99.67
201.252	-17.07
201.471	62.8
201.69	25.94
201.909	101.72
202.128	89.43
202.347	50.52
202.566	36.18
202.785	11.61
203.004	58.71
203.223	77.14
203.442	17.75
203.661	91.48
203.879	38.23
204.098	89.43
204.317	42.32
204.536	48.47
204.755	1.37
204.974	19.8
205.193	-12.97
205.411	27.99
205.63	77.14
205.849	66.9
206.068	44.37
206.287	40.28
206.505	95.57
206.724	71
206.943	81.24
207.162	15.7
207.381	13.65
207.599	62.8
207.818	77.14
208.037	56.66
208.255	-41.64
208.474	52.56
208.693	7.51
208.911	-10.92
209.13	44.37
209.349	62.8
209.567	40.28
209.786	132.44
210.005	19.8
210.223	36.18
210.442	42.32
210.661	44.37
210.879	58.71
211.098	130.39
211.316	99.67
211.535	97.62
211.753	93.52
211.972	60.76
212.191	46.42
212.409	62.8
212.628	36.18
212.846	3.41
213.065	56.66
213.283	56.66
213.502	-15.02
213.72	77.14
213.938	11.61
214.157	56.66
214.375	1.37
214.594	1.37
214.812	87.38
215.031	1.37
215.249	11.61
215.467	38.23
215.686	44.37
215.904	126.29
216.122	73.04
216.341	68.95
216.559	111.96
216.778	58.71
216.996	46.42
217.214	71
217.432	15.7
217.651	60.76
217.869	25.94
218.087	-4.78
218.306	134.48
218.524	19.8
218.742	87.38
218.96	159.06
219.179	-0.68
219.397	48.47
219.615	81.24
219.833	64.85
220.051	32.08
220.27	62.8
220.488	30.04
220.706	62.8
220.924	1.37
221.142	25.94
221.36	111.96
221.578	-8.87
221.796	62.8
222.015	50.52
222.233	7.51
222.451	73.04
222.669	111.96
222.887	15.7
223.105	32.08
223.323	-0.68
223.541	-62.12
223.759	134.48
223.977	27.99
224.195	101.72
224.413	62.8
224.631	50.52
224.849	1.37
225.067	46.42
225.285	48.47
225.503	97.62
225.721	50.52
225.939	95.57
226.157	11.61
226.375	120.15
226.592	-4.78
226.81	75.09
227.028	30.04
227.246	71
227.464	30.04
227.682	30.04
227.9	101.72
228.117	79.19
228.335	21.85
228.553	42.32
228.771	58.71
228.989	120.15
229.206	54.61
229.424	81.24
229.642	62.8
229.86	42.32
230.077	75.09
230.295	11.61
230.513	46.42
230.731	77.14
230.948	85.33
231.166	93.52
231.384	7.51
231.601	66.9
231.819	48.47
232.037	32.08
232.254	3.41
232.472	56.66
232.689	25.94
232.907	109.91
233.125	21.85
233.342	60.76
233.56	77.14
233.777	62.8
233.995	107.86
234.213	40.28
234.43	36.18
234.648	68.95
234.865	81.24
235.083	21.85
235.3	58.71
235.518	64.85
235.735	97.62
235.953	99.67
236.17	83.28
236.388	87.38
236.605	75.09
236.822	93.52
237.04	83.28
237.257	50.52
237.475	21.85
237.692	99.67
237.909	89.43
238.127	-12.97
238.344	89.43
238.562	83.28
238.779	44.37
238.996	15.7
239.214	-27.31
239.431	126.29
239.648	62.8
239.865	58.71
240.083	60.76
240.3	42.32
240.517	5.46
240.735	56.66
240.952	114
241.169	42.32
241.386	91.48
241.603	46.42
241.821	3.41
242.038	15.7
242.255	68.95
242.472	50.52
242.689	103.76
242.907	60.76
243.124	124.24
243.341	64.85
243.558	52.56
243.775	-19.11
243.992	95.57
244.209	48.47
244.426	130.39
244.643	-4.78
244.86	36.18
245.078	48.47
245.295	27.99
245.512	89.43
245.729	46.42
245.946	56.66
246.163	19.8
246.38	17.75
246.597	15.7
246.814	109.91
247.031	52.56
247.248	44.37
247.464	50.52
247.681	-10.92
247.898	62.8
248.115	44.37
248.332	40.28
248.549	154.96
248.766	116.05
248.983	21.85
249.2	144.72
249.417	79.19
249.633	111.96
249.85	19.8
250.067	5.46
250.284	62.8
250.501	34.13
250.717	126.29
250.934	-2.73
251.151	83.28
251.368	50.52
251.585	38.23
251.801	85.33
252.018	75.09
252.235	-19.11
252.451	79.19
252.668	-0.68
252.885	40.28
253.102	9.56
253.318	48.47
253.535	50.52
253.752	-29.35
253.968	64.85
254.185	89.43
254.401	87.38
254.618	-17.07
254.835	7.51
255.051	148.82
255.268	58.71
255.484	97.62
255.701	93.52
255.917	-37.55
256.134	30.04
256.351	66.9
256.567	107.86
256.784	107.86
257	32.08
257.217	118.1
257.433	36.18
257.65	54.61
257.866	79.19
258.082	34.13
258.299	25.94
258.515	23.89
258.732	15.7
258.948	81.24
259.165	21.85
259.381	54.61
259.597	54.61
259.814	120.15
260.03	34.13
260.246	17.75
260.463	140.63
260.679	-23.21
260.895	77.14
261.112	21.85
261.328	71
261.544	79.19
261.761	66.9
261.977	23.89
262.193	17.75
262.409	64.85
262.626	11.61
262.842	48.47
263.058	-4.78
263.274	91.48
263.49	34.13
263.707	62.8
263.923	34.13
264.139	52.56
264.355	-2.73
264.571	85.33
264.787	30.04
265.004	124.24
265.22	103.76
265.436	83.28
265.652	107.86
265.868	32.08
266.084	154.96
266.3	91.48
266.516	50.52
266.732	-15.02
266.948	101.72
267.164	54.61
267.38	118.1
267.596	58.71
267.812	40.28
268.028	62.8
268.244	17.75
268.46	159.06
268.676	9.56
268.892	-0.68
269.108	83.28
269.324	73.04
269.54	13.65
269.756	34.13
269.972	13.65
270.188	89.43
270.403	38.23
270.619	48.47
270.835	-15.02
271.051	7.51
271.267	58.71
271.483	7.51
271.698	11.61
271.914	58.71
272.13	54.61
272.346	101.72
272.562	40.28
272.777	73.04
272.993	17.75
273.209	-8.87
273.425	103.76
273.64	58.71
273.856	97.62
274.072	44.37
274.287	91.48
274.503	85.33
274.719	38.23
274.934	9.56
275.15	75.09
275.366	-43.69
275.581	30.04
275.797	73.04
276.012	83.28
276.228	52.56
276.444	19.8
276.659	118.1
276.875	-31.4
277.09	46.42
277.306	83.28
277.521	71
277.737	66.9
277.952	66.9
278.168	38.23
278.383	42.32
278.599	13.65
278.814	9.56
279.03	36.18
279.245	48.47
279.461	19.8
279.676	64.85
279.892	38.23
280.107	30.04
280.322	15.7
280.538	62.8
280.753	36.18
280.969	66.9
281.184	19.8
281.399	58.71
281.615	97.62
281.83	87.38
282.045	27.99
282.26	-23.21
282.476	66.9
282.691	89.43
282.906	56.66
283.122	30.04
283.337	56.66
283.552	56.66
283.767	44.37
283.983	130.39
284.198	50.52
284.413	48.47
284.628	50.52
284.843	58.71
285.058	56.66
285.274	32.08
285.489	44.37
285.704	64.85
285.919	56.66
286.134	85.33
286.349	9.56
286.564	79.19
286.779	68.95
286.995	73.04
287.21	38.23
287.425	46.42
287.64	52.56
287.855	116.05
288.07	-2.73
288.285	85.33
288.5	71
288.715	68.95
288.93	19.8
289.145	32.08
289.36	111.96
289.575	93.52
289.79	130.39
290.004	27.99
290.219	154.96
290.434	56.66
290.649	77.14
290.864	62.8
291.079	73.04
291.294	109.91
291.509	77.14
291.724	97.62
291.938	9.56
292.153	71
292.368	32.08
292.583	105.81
292.798	58.71
293.012	126.29
293.227	50.52
293.442	60.76
293.657	109.91
293.871	79.19
294.086	1.37
294.301	111.96
294.516	105.81
294.73	81.24
294.945	87.38
295.16	128.34
295.374	62.8
295.589	114
295.804	-12.97
296.018	46.42
296.233	42.32
296.447	81.24
296.662	95.57
296.877	95.57
297.091	66.9
297.306	58.71
297.52	81.24
297.735	60.76
297.949	32.08
298.164	97.62
298.378	50.52
298.593	75.09
298.807	42.32
299.022	58.71
299.236	120.15
299.451	81.24
299.665	66.9
299.88	58.71
300.094	73.04
300.309	1.37
300.523	79.19
300.737	42.32
300.952	75.09
301.166	34.13
301.381	-33.45
301.595	114
301.809	87.38
302.024	9.56
302.238	60.76
302.452	118.1
302.667	60.76
302.881	73.04
303.095	120.15
303.309	85.33
303.524	130.39
303.738	111.96
303.952	62.8
304.166	93.52
304.381	46.42
304.595	77.14
304.809	89.43
305.023	66.9
305.237	93.52
305.452	50.52
305.666	30.04
305.88	66.9
306.094	36.18
306.308	89.43
306.522	144.72
306.736	95.57
306.95	60.76
307.164	77.14
307.379	101.72
307.593	56.66
307.807	152.91
308.021	126.29
308.235	95.57
308.449	34.13
308.663	120.15
308.877	173.39
309.091	58.71
309.305	54.61
309.519	40.28
309.733	56.66
309.947	50.52
310.161	109.91
310.374	79.19
310.588	116.05
310.802	77.14
311.016	83.28
311.23	21.85
311.444	58.71
311.658	17.75
311.872	62.8
312.085	103.76
312.299	17.75
312.513	79.19
312.727	48.47
312.941	54.61
313.154	89.43
313.368	71
313.582	75.09
313.796	79.19
314.009	40.28
314.223	71
314.437	52.56
314.651	19.8
314.864	99.67
315.078	66.9
315.292	25.94
315.505	50.52
315.719	62.8
315.933	85.33
316.146	73.04
316.36	77.14
316.573	140.63
316.787	71
317.001	54.61
317.214	-19.11
317.428	79.19
317.641	19.8
317.855	7.51
318.068	38.23
318.282	122.2
318.495	116.05
318.709	75.09
318.922	1.37
319.136	103.76
319.349	101.72
319.563	66.9
319.776	5.46
319.99	64.85
320.203	101.72
320.417	3.41
320.63	62.8
320.843	85.33
321.057	124.24
321.27	148.82
321.483	79.19
321.697	30.04
321.91	30.04
322.124	52.56
322.337	122.2
322.55	95.57
322.763	54.61
322.977	54.61
323.19	40.28
323.403	71
323.617	21.85
323.83	105.81
324.043	40.28
324.256	109.91
324.469	101.72
324.683	71
324.896	93.52
325.109	91.48
325.322	-2.73
325.535	128.34
325.748	36.18
325.962	91.48
326.175	75.09
326.388	118.1
326.601	19.8
326.814	73.04
327.027	77.14
327.24	68.95
327.453	81.24
327.666	7.51
327.879	93.52
328.092	118.1
328.305	124.24
328.518	15.7
328.731	46.42
328.944	79.19
329.157	15.7
329.37	97.62
329.583	132.44
329.796	130.39
330.009	27.99
330.222	81.24
330.435	64.85
330.648	-17.07
330.861	126.29
331.073	107.86
331.286	93.52
331.499	34.13
331.712	44.37
331.925	105.81
332.138	64.85
332.35	81.24
332.563	85.33
332.776	58.71
332.989	83.28
333.202	66.9
333.414	105.81
333.627	138.58
333.84	42.32
334.053	105.81
334.265	138.58
334.478	93.52
334.691	97.62
334.903	73.04
335.116	42.32
335.329	32.08
335.541	114
335.754	124.24
335.966	62.8
336.179	60.76
336.392	54.61
336.604	75.09
336.817	97.62
337.029	64.85
337.242	109.91
337.454	30.04
337.667	99.67
337.88	132.44
338.092	81.24
338.305	95.57
338.517	79.19
338.729	105.81
338.942	44.37
339.154	64.85
339.367	85.33
339.579	75.09
339.792	13.65
340.004	60.76
340.217	73.04
340.429	93.52
340.641	101.72
340.854	83.28
341.066	50.52
341.278	83.28
341.491	75.09
341.703	52.56
341.915	75.09
342.128	77.14
342.34	181.59
342.552	56.66
342.764	21.85
342.977	58.71
343.189	83.28
343.401	81.24
343.613	81.24
343.826	38.23
344.038	32.08
344.25	77.14
344.462	42.32
344.674	83.28
344.886	91.48
345.099	50.52
345.311	122.2
345.523	23.89
345.735	-0.68
345.947	93.52
346.159	52.56
346.371	109.91
346.583	81.24
346.795	138.58
347.007	77.14
347.219	85.33
347.431	50.52
347.643	99.67
347.855	103.76
348.067	120.15
348.279	38.23
348.491	95.57
348.703	58.71
348.915	34.13
349.127	85.33
349.339	111.96
349.551	95.57
349.763	118.1
349.975	81.24
350.187	126.29
350.399	19.8
350.61	99.67
350.822	27.99
351.034	79.19
351.246	85.33
351.458	71
351.669	105.81
351.881	103.76
352.093	91.48
352.305	40.28
352.517	85.33
352.728	116.05
352.94	120.15
353.152	3.41
353.363	68.95
353.575	50.52
353.787	118.1
353.999	81.24
354.21	124.24
354.422	148.82
354.633	40.28
354.845	54.61
355.057	124.24
355.268	95.57
355.48	85.33
355.692	60.76
355.903	138.58
356.115	50.52
356.326	60.76
356.538	89.43
356.749	60.76
356.961	89.43
357.172	101.72
357.384	124.24
357.595	116.05
357.807	122.2
358.018	75.09
358.23	99.67
358.441	89.43
358.653	111.96
358.864	77.14
359.075	46.42
359.287	103.76
359.498	95.57
359.709	91.48
359.921	42.32
360.132	128.34
360.344	134.48
360.555	60.76
360.766	71
360.977	38.23
361.189	34.13
361.4	124.24
361.611	142.68
361.823	66.9
362.034	91.48
362.245	42.32
362.456	105.81
362.667	136.53
362.879	109.91
363.09	99.67
363.301	105.81
363.512	128.34
363.723	79.19
363.935	114
364.146	144.72
364.357	91.48
364.568	71
364.779	99.67
364.99	134.48
365.201	7.51
365.412	134.48
365.623	50.52
365.834	81.24
366.045	95.57
366.256	95.57
366.467	68.95
366.678	142.68
366.889	64.85
367.1	101.72
367.311	87.38
367.522	32.08
367.733	146.77
367.944	130.39
368.155	46.42
368.366	101.72
368.577	144.72
368.788	87.38
368.999	81.24
369.209	32.08
369.42	36.18
369.631	95.57
369.842	85.33
370.053	81.24
370.264	109.91
370.474	60.76
370.685	103.76
370.896	95.57
371.107	56.66
371.317	73.04
371.528	58.71
371.739	50.52
371.95	68.95
372.16	126.29
372.371	58.71
372.582	89.43
372.792	114
373.003	134.48
373.214	130.39
373.424	103.76
373.635	97.62
373.846	118.1
374.056	54.61
374.267	60.76
374.477	109.91
374.688	34.13
374.898	1.37
375.109	89.43
375.319	142.68
375.53	138.58
375.74	109.91
375.951	91.48
376.161	66.9
376.372	140.63
376.582	107.86
376.793	99.67
377.003	68.95
377.214	85.33
377.424	99.67
377.635	89.43
377.845	91.48
378.055	132.44
378.266	71
378.476	144.72
378.686	134.48
378.897	124.24
379.107	75.09
379.317	111.96
379.528	93.52
379.738	148.82
379.948	138.58
380.158	150.87
380.369	81.24
380.579	134.48
380.789	66.9
380.999	97.62
381.21	81.24
381.42	157.01
381.63	132.44
381.84	87.38
382.05	77.14
382.261	132.44
382.471	111.96
382.681	101.72
382.891	154.96
383.101	103.76
383.311	48.47
383.521	66.9
383.731	66.9
383.941	152.91
384.151	124.24
384.361	77.14
384.571	124.24
384.781	40.28
384.991	116.05
385.201	32.08
385.411	118.1
385.621	93.52
385.831	138.58
386.041	111.96
386.251	54.61
386.461	142.68
386.671	44.37
386.881	97.62
387.091	56.66
387.301	87.38
387.511	114
387.72	107.86
387.93	105.81
388.14	103.76
388.35	99.67
388.56	64.85
388.769	107.86
388.979	79.19
389.189	126.29
389.399	79.19
389.609	114
389.818	56.66
390.028	124.24
390.238	66.9
390.447	58.71
390.657	142.68
390.867	101.72
391.076	60.76
391.286	85.33
391.496	66.9
391.705	165.2
391.915	167.25
392.125	107.86
392.334	91.48
392.544	134.48
392.753	142.68
392.963	103.76
393.172	122.2
393.382	77.14
393.591	132.44
393.801	109.91
394.01	132.44
394.22	87.38
394.429	91.48
394.639	93.52
394.848	107.86
395.058	87.38
395.267	152.91
395.477	204.11
395.686	255.31
395.895	120.15
396.105	165.2
396.314	230.74
396.524	165.2
396.733	122.2
396.942	159.06
397.152	148.82
397.361	206.16
397.57	130.39
397.78	216.4
397.989	126.29
398.198	144.72
398.407	197.97
398.617	142.68
398.826	99.67
399.035	187.73
399.244	197.97
399.453	124.24
399.663	181.59
399.872	132.44
400.081	179.54
400.29	238.93
400.499	138.58
400.708	195.92
400.917	154.96
401.127	154.96
401.336	218.45
401.545	245.07
401.754	189.78
401.963	159.06
402.172	218.45
402.381	140.63
402.59	159.06
402.799	138.58
403.008	179.54
403.217	261.46
403.426	255.31
403.635	247.12
403.844	255.31
404.053	181.59
404.262	238.93
404.471	277.84
404.68	210.26
404.888	200.02
405.097	236.88
405.306	345.42
405.515	189.78
405.724	226.64
405.933	216.4
406.142	288.08
406.35	312.66
406.559	286.03
406.768	322.9
406.977	337.23
407.185	302.42
407.394	273.75
407.603	343.38
407.812	288.08
408.02	413.01
408.229	269.65
408.438	310.61
408.646	390.48
408.855	376.14
409.064	367.95
409.272	394.58
409.481	406.86
409.69	406.86
409.898	449.87
410.107	499.02
410.315	494.93
410.524	523.6
410.733	550.22
410.941	435.53
411.15	492.88
411.358	503.12
411.567	582.99
411.775	605.52
411.984	638.28
412.192	603.47
412.401	656.72
412.609	687.43
412.818	744.78
413.026	752.97
413.234	666.96
413.443	724.3
413.651	705.87
413.86	812.36
414.068	875.85
414.276	861.51
414.485	927.05
414.693	949.57
414.901	1006.92
415.11	1049.93
415.318	1033.54
415.526	1219.91
415.734	1125.7
415.943	1105.22
416.151	1121.6
416.359	1205.57
416.567	1242.43
416.776	1330.5
416.984	1369.41
417.192	1398.08
417.4	1480
417.608	1453.38
417.817	1473.85
418.025	1541.44
418.233	1649.98
418.441	1594.68
418.649	1754.43
418.857	1854.78
419.065	1946.94
419.273	1930.55
419.481	1989.94
419.689	2229.56
419.897	2047.29
420.105	2280.75
420.313	2159.92
420.521	2336.05
420.729	2319.67
420.937	2503.98
421.145	2647.34
421.353	2688.3
421.561	2706.73
421.769	2800.94
421.977	2927.91
422.185	2948.39
422.393	3157.29
422.601	3243.3
422.809	3333.41
423.017	3269.92
423.224	3374.37
423.432	3579.17
423.64	3626.27
423.848	3867.93
424.056	3786.01
424.263	4105.49
424.471	4017.43
424.679	4162.84
424.887	4384.02
425.094	4513.04
425.302	4611.34
425.51	4795.66
425.718	4889.87
425.925	4926.73
426.133	5291.27
426.341	5522.69
426.548	5547.26
426.756	5590.27
426.964	5682.43
427.171	6155.51
427.379	6100.22
427.586	6325.49
427.794	6552.82
428.001	6778.09
428.209	7052.52
428.417	7032.04
428.624	7650.53
428.832	7507.17
429.039	7619.81
429.247	7484.64
429.454	8293.59
429.662	8740.05
429.869	8318.17
430.076	8862.93
430.284	8428.76
430.491	8752.34
430.699	9239.75
430.906	9262.28
431.114	9274.57
431.321	9864.38
431.528	9977.02
431.736	10611.89
431.943	11027.63
432.15	10884.27
432.358	10992.81
432.565	11388.07
432.772	11599.01
432.979	12047.52
433.187	12268.7
433.394	12424.34
433.601	12993.68
433.808	13003.92
434.016	13106.32
434.223	13638.79
434.43	14419.07
434.637	14310.52
434.844	15113.33
435.052	15637.61
435.259	15285.36
435.466	15672.42
435.673	15481.96
435.88	16227.42
436.087	17355.85
436.294	17247.31
436.501	16725.08
436.708	16985.17
436.915	17654.86
437.122	18293.82
437.329	18295.87
437.537	18938.93
437.743	19369.01
437.95	19115.06
438.157	19977.25
438.364	20923.41
438.571	20474.91
438.778	21036.05
438.985	22721.53
439.192	21965.83
439.399	22494.21
439.606	21918.73
439.813	23297.01
440.02	24888.28
440.227	24288.23
440.433	23942.12
440.64	25195.48
440.847	24994.78
441.054	25289.68
441.261	26938.3
441.467	26672.06
441.674	27390.9
441.881	28152.74
442.088	28224.42
442.294	27792.3
442.501	28773.28
442.708	29197.21
442.914	30270.34
443.121	31505.27
443.328	30632.83
443.534	32772.96
443.741	31982.45
443.948	31976.3
444.154	33856.34
444.361	33903.44
444.568	33317.72
444.774	33989.45
444.981	34175.82
445.187	35341.11
445.394	36651.81
445.6	35783.48
445.807	39449.34
446.013	37997.33
446.22	38966.02
446.426	39992.05
446.633	40100.59
446.839	41726.68
447.046	40387.31
447.252	42181.33
447.459	42504.91
447.665	42195.67
447.871	44153.52
448.078	45843.1
448.284	43891.38
448.491	44559.02
448.697	46439.06
448.903	47319.68
449.11	47524.48
449.316	46613.13
449.522	47485.57
449.728	48319.09
449.935	48749.17
450.141	48945.77
450.347	49986.14
450.553	48749.17
450.76	49302.12
450.966	50518.61
451.172	50137.69
451.378	51546.69
451.584	50586.19
451.791	51720.77
451.997	51288.65
452.203	52443.7
452.409	52103.74
452.615	52064.83
452.821	50426.45
453.027	49936.99
453.233	52310.58
453.44	50528.85
453.646	50610.77
453.852	51128.91
454.058	52087.35
454.264	50604.63
454.47	51458.63
454.676	50379.35
454.882	51810.88
455.088	47280.77
455.294	48149.11
455.5	49052.26
455.705	49283.69
455.911	47530.62
456.117	46742.16
456.323	46189.2
456.529	43291.33
456.735	45210.28
456.941	44042.93
457.147	43365.06
457.352	42134.23
457.558	41614.04
457.764	42072.79
457.97	41001.7
458.176	40385.26
458.381	40383.21
458.587	38146.83
458.793	38155.02
458.999	36336.43
459.204	38869.76
459.41	38304.52
459.616	35386.17
459.821	35550.01
460.027	35101.5
460.233	34411.34
460.438	32543.59
460.644	33168.22
460.85	31775.6
461.055	31277.94
461.261	31466.36
461.466	28775.33
461.672	27956.14
461.878	29864.85
462.083	28083.11
462.289	27040.7
462.494	27198.39
462.7	25787.34
462.905	25064.41
463.111	25916.36
463.316	26280.9
463.522	25826.25
463.727	25893.83
463.932	25770.96
464.138	25535.44
464.343	25293.78
464.549	24572.89
464.754	25629.65
464.959	25148.37
465.165	25275.35
465.37	23989.22
465.575	23444.46
465.781	24611.81
465.986	24597.47
466.191	23540.72
466.397	22744.06
466.602	21945.35
466.807	22854.65
