Data from USB4F104151__64__11-37-26-701.txt Node

Date: Fri Mar 14 11:37:26 EDT 2025
User: louis
Spectrometer: USB4F10415
Trigger mode: 4
Integration Time (sec): 2.000000E-2
Scans to average: 1
Electric dark correction enabled: true
Nonlinearity correction enabled: false
Boxcar width: 0
XAxis mode: Wavelengths
Number of Pixels in Spectrum: 3648
>>>>>Begin Spectral Data<<<<<
178.204	-32.43
178.424	-32.43
178.644	-32.43
178.864	-67.24
179.084	-79.53
179.304	8.53
179.524	57.68
179.744	14.68
179.964	43.35
180.184	-34.47
180.404	57.68
180.624	-13.99
180.844	0.34
181.064	-28.33
181.283	-36.52
181.503	-77.48
181.723	8.53
181.943	-9.9
182.163	6.49
182.383	-22.19
182.602	51.54
182.822	8.53
183.042	-13.99
183.262	49.49
183.482	-118.44
183.701	-9.9
183.921	39.25
184.141	-42.67
184.361	43.35
184.58	37.2
184.8	31.06
185.02	69.97
185.239	98.64
185.459	37.2
185.679	-18.09
185.898	0.34
186.118	-5.8
186.338	-18.09
186.557	51.54
186.777	39.25
186.997	2.39
187.216	-28.33
187.436	78.16
187.655	88.4
187.875	37.2
188.095	-46.76
188.314	24.92
188.534	-7.85
188.753	39.25
188.973	33.11
189.192	106.84
189.412	33.11
189.631	18.77
189.851	14.68
190.07	8.53
190.29	24.92
190.509	86.36
190.729	16.73
190.948	39.25
191.168	49.49
191.387	-65.19
191.607	16.73
191.826	8.53
192.045	55.64
192.265	37.2
192.484	-11.95
192.704	78.16
192.923	-7.85
193.142	100.69
193.362	45.4
193.581	22.87
193.8	94.55
194.02	45.4
194.239	-32.43
194.458	-5.8
194.678	-11.95
194.897	4.44
195.116	63.83
195.335	-11.95
195.555	33.11
195.774	72.02
195.993	-1.71
196.212	-1.71
196.432	55.64
196.651	14.68
196.87	12.63
197.089	33.11
197.308	39.25
197.528	-1.71
197.747	47.44
197.966	55.64
198.185	31.06
198.404	41.3
198.623	4.44
198.842	-9.9
199.062	20.82
199.281	39.25
199.5	16.73
199.719	20.82
199.938	-9.9
200.157	59.73
200.376	-59.05
200.595	18.77
200.814	-75.43
201.033	8.53
201.252	22.87
201.471	-9.9
201.69	10.58
201.909	-26.28
202.128	29.01
202.347	-9.9
202.566	16.73
202.785	41.3
203.004	-1.71
203.223	55.64
203.442	-20.14
203.661	-42.67
203.879	-9.9
204.098	-5.8
204.317	0.34
204.536	84.31
204.755	31.06
204.974	18.77
205.193	35.16
205.411	18.77
205.63	-48.81
205.849	92.5
206.068	57.68
206.287	-5.8
206.505	47.44
206.724	-34.47
206.943	12.63
207.162	0.34
207.381	82.26
207.599	47.44
207.818	-48.81
208.037	59.73
208.255	-16.04
208.474	33.11
208.693	6.49
208.911	-1.71
209.13	37.2
209.349	6.49
209.567	-9.9
209.786	55.64
210.005	4.44
210.223	12.63
210.442	8.53
210.661	-7.85
210.879	72.02
211.098	84.31
211.316	-3.75
211.535	8.53
211.753	41.3
211.972	37.2
212.191	-16.04
212.409	-42.67
212.628	24.92
212.846	-13.99
213.065	33.11
213.283	102.74
213.502	0.34
213.72	49.49
213.938	-59.05
214.157	94.55
214.375	6.49
214.594	0.34
214.812	55.64
215.031	57.68
215.249	-44.71
215.467	51.54
215.686	57.68
215.904	12.63
216.122	26.96
216.341	90.45
216.559	33.11
216.778	24.92
216.996	0.34
217.214	-5.8
217.432	37.2
217.651	41.3
217.869	-79.53
218.087	-46.76
218.306	-30.38
218.524	45.4
218.742	-38.57
218.96	43.35
219.179	20.82
219.397	-9.9
219.615	8.53
219.833	-26.28
220.051	90.45
220.27	22.87
220.488	-7.85
220.706	10.58
220.924	47.44
221.142	74.07
221.36	33.11
221.578	33.11
221.796	18.77
222.015	55.64
222.233	-48.81
222.451	55.64
222.669	2.39
222.887	39.25
223.105	-122.54
223.323	-9.9
223.541	-7.85
223.759	86.36
223.977	55.64
224.195	8.53
224.413	-9.9
224.631	57.68
224.849	29.01
225.067	65.88
225.285	94.55
225.503	29.01
225.721	-57
225.939	14.68
226.157	-20.14
226.375	86.36
226.592	-9.9
226.81	-20.14
227.028	8.53
227.246	-42.67
227.464	33.11
227.682	6.49
227.9	16.73
228.117	24.92
228.335	-13.99
228.553	78.16
228.771	-1.71
228.989	-20.14
229.206	26.96
229.424	-93.87
229.642	4.44
229.86	98.64
230.077	86.36
230.295	88.4
230.513	-7.85
230.731	-1.71
230.948	37.2
231.166	26.96
231.384	26.96
231.601	-50.86
231.819	29.01
232.037	-20.14
232.254	-9.9
232.472	37.2
232.689	-18.09
232.907	39.25
233.125	51.54
233.342	49.49
233.56	4.44
233.777	43.35
233.995	22.87
234.213	162.13
234.43	-13.99
234.648	69.97
234.865	78.16
235.083	-3.75
235.3	-63.15
235.518	29.01
235.735	12.63
235.953	33.11
236.17	24.92
236.388	-42.67
236.605	-24.23
236.822	8.53
237.04	55.64
237.257	26.96
237.475	16.73
237.692	69.97
237.909	-50.86
238.127	41.3
238.344	-26.28
238.562	88.4
238.779	35.16
238.996	-85.67
239.214	-50.86
239.431	47.44
239.648	-18.09
239.865	33.11
240.083	-54.95
240.3	49.49
240.517	41.3
240.735	0.34
240.952	69.97
241.169	37.2
241.386	35.16
241.603	-61.1
241.821	24.92
242.038	31.06
242.255	80.21
242.472	-32.43
242.689	-3.75
242.907	45.4
243.124	-44.71
243.341	59.73
243.558	-22.19
243.775	10.58
243.992	-26.28
244.209	26.96
244.426	24.92
244.643	96.6
244.86	43.35
245.078	51.54
245.295	14.68
245.512	-16.04
245.729	41.3
245.946	-22.19
246.163	33.11
246.38	-1.71
246.597	45.4
246.814	24.92
247.031	112.98
247.248	69.97
247.464	12.63
247.681	78.16
247.898	47.44
248.115	82.26
248.332	-24.23
248.549	12.63
248.766	-75.43
248.983	-1.71
249.2	22.87
249.417	-11.95
249.633	6.49
249.85	82.26
250.067	-44.71
250.284	53.59
250.501	-7.85
250.717	41.3
250.934	-3.75
251.151	26.96
251.368	-9.9
251.585	57.68
251.801	12.63
252.018	0.34
252.235	0.34
252.451	-26.28
252.668	-1.71
252.885	86.36
253.102	6.49
253.318	117.08
253.535	10.58
253.752	-11.95
253.968	31.06
254.185	31.06
254.401	45.4
254.618	12.63
254.835	-40.62
255.051	37.2
255.268	37.2
255.484	78.16
255.701	98.64
255.917	22.87
256.134	90.45
256.351	24.92
256.567	-34.47
256.784	45.4
257	20.82
257.217	16.73
257.433	55.64
257.65	94.55
257.866	106.84
258.082	-5.8
258.299	-32.43
258.515	0.34
258.732	22.87
258.948	57.68
259.165	-9.9
259.381	29.01
259.597	41.3
259.814	-3.75
260.03	18.77
260.246	-7.85
260.463	6.49
260.679	-11.95
260.895	43.35
261.112	18.77
261.328	-30.38
261.544	67.92
261.761	47.44
261.977	31.06
262.193	51.54
262.409	51.54
262.626	37.2
262.842	86.36
263.058	-13.99
263.274	10.58
263.49	29.01
263.707	84.31
263.923	4.44
264.139	-13.99
264.355	-9.9
264.571	-44.71
264.787	-20.14
265.004	84.31
265.22	20.82
265.436	24.92
265.652	16.73
265.868	10.58
266.084	-57
266.3	18.77
266.516	-11.95
266.732	12.63
266.948	-22.19
267.164	59.73
267.38	-57
267.596	-11.95
267.812	18.77
268.028	-65.19
268.244	-26.28
268.46	49.49
268.676	12.63
268.892	63.83
269.108	2.39
269.324	8.53
269.54	72.02
269.756	102.74
269.972	35.16
270.188	-20.14
270.403	-42.67
270.619	57.68
270.835	65.88
271.051	6.49
271.267	2.39
271.483	12.63
271.698	51.54
271.914	47.44
272.13	24.92
272.346	-13.99
272.562	18.77
272.777	43.35
272.993	63.83
273.209	49.49
273.425	33.11
273.64	53.59
273.856	29.01
274.072	-3.75
274.287	22.87
274.503	57.68
274.719	26.96
274.934	61.78
275.15	39.25
275.366	43.35
275.581	4.44
275.797	10.58
276.012	24.92
276.228	47.44
276.444	41.3
276.659	106.84
276.875	-36.52
277.09	90.45
277.306	2.39
277.521	-7.85
277.737	67.92
277.952	102.74
278.168	61.78
278.383	43.35
278.599	-28.33
278.814	69.97
279.03	29.01
279.245	20.82
279.461	45.4
279.676	65.88
279.892	51.54
280.107	33.11
280.322	53.59
280.538	47.44
280.753	-7.85
280.969	-1.71
281.184	-16.04
281.399	37.2
281.615	-48.81
281.83	51.54
282.045	51.54
282.26	-42.67
282.476	0.34
282.691	29.01
282.906	26.96
283.122	74.07
283.337	-18.09
283.552	61.78
283.767	53.59
283.983	41.3
284.198	84.31
284.413	-48.81
284.628	10.58
284.843	47.44
285.058	18.77
285.274	108.88
285.489	-1.71
285.704	35.16
285.919	33.11
286.134	12.63
286.349	16.73
286.564	-5.8
286.779	-73.39
286.995	6.49
287.21	31.06
287.425	104.79
287.64	39.25
287.855	29.01
288.07	16.73
288.285	69.97
288.5	72.02
288.715	-11.95
288.93	76.12
289.145	-7.85
289.36	41.3
289.575	20.82
289.79	0.34
290.004	8.53
290.219	26.96
290.434	10.58
290.649	14.68
290.864	-9.9
291.079	-16.04
291.294	4.44
291.509	4.44
291.724	24.92
291.938	-9.9
292.153	-16.04
292.368	45.4
292.583	20.82
292.798	6.49
293.012	102.74
293.227	-1.71
293.442	82.26
293.657	55.64
293.871	43.35
294.086	37.2
294.301	92.5
294.516	-54.95
294.73	78.16
294.945	-36.52
295.16	33.11
295.374	57.68
295.589	-38.57
295.804	-5.8
296.018	29.01
296.233	33.11
296.447	96.6
296.662	-30.38
296.877	59.73
297.091	63.83
297.306	33.11
297.52	-16.04
297.735	22.87
297.949	53.59
298.164	47.44
298.378	-16.04
298.593	33.11
298.807	16.73
299.022	-34.47
299.236	37.2
299.451	41.3
299.665	18.77
299.88	-36.52
300.094	69.97
300.309	24.92
300.523	35.16
300.737	55.64
300.952	-7.85
301.166	8.53
301.381	0.34
301.595	26.96
301.809	37.2
302.024	26.96
302.238	12.63
302.452	31.06
302.667	22.87
302.881	121.17
303.095	55.64
303.309	80.21
303.524	33.11
303.738	26.96
303.952	59.73
304.166	65.88
304.381	-42.67
304.595	41.3
304.809	53.59
305.023	-1.71
305.237	37.2
305.452	18.77
305.666	29.01
305.88	31.06
306.094	82.26
306.308	26.96
306.522	26.96
306.736	74.07
306.95	80.21
307.164	123.22
307.379	82.26
307.593	49.49
307.807	65.88
308.021	41.3
308.235	43.35
308.449	51.54
308.663	16.73
308.877	45.4
309.091	-40.62
309.305	49.49
309.519	-7.85
309.733	61.78
309.947	61.78
310.161	51.54
310.374	115.03
310.588	-34.47
310.802	33.11
311.016	-1.71
311.23	72.02
311.444	-9.9
311.658	61.78
311.872	41.3
312.085	26.96
312.299	16.73
312.513	37.2
312.727	88.4
312.941	24.92
313.154	-32.43
313.368	72.02
313.582	49.49
313.796	63.83
314.009	67.92
314.223	12.63
314.437	-32.43
314.651	-3.75
314.864	88.4
315.078	-32.43
315.292	8.53
315.505	-36.52
315.719	31.06
315.933	-40.62
316.146	6.49
316.36	82.26
316.573	47.44
316.787	26.96
317.001	76.12
317.214	26.96
317.428	14.68
317.641	49.49
317.855	59.73
318.068	37.2
318.282	61.78
318.495	106.84
318.709	90.45
318.922	61.78
319.136	37.2
319.349	-24.23
319.563	4.44
319.776	22.87
319.99	-7.85
320.203	14.68
320.417	41.3
320.63	45.4
320.843	96.6
321.057	63.83
321.27	61.78
321.483	-38.57
321.697	67.92
321.91	39.25
322.124	33.11
322.337	4.44
322.55	18.77
322.763	84.31
322.977	39.25
323.19	-16.04
323.403	65.88
323.617	47.44
323.83	-20.14
324.043	-11.95
324.256	49.49
324.469	53.59
324.683	16.73
324.896	-30.38
325.109	-1.71
325.322	0.34
325.535	33.11
325.748	41.3
325.962	41.3
326.175	59.73
326.388	0.34
326.601	59.73
326.814	16.73
327.027	-22.19
327.24	-3.75
327.453	57.68
327.666	4.44
327.879	74.07
328.092	61.78
328.305	43.35
328.518	26.96
328.731	33.11
328.944	41.3
329.157	-18.09
329.37	10.58
329.583	-3.75
329.796	-13.99
330.009	82.26
330.222	20.82
330.435	-34.47
330.648	-48.81
330.861	22.87
331.073	4.44
331.286	2.39
331.499	102.74
331.712	35.16
331.925	53.59
332.138	-57
332.35	88.4
332.563	22.87
332.776	35.16
332.989	53.59
333.202	57.68
333.414	80.21
333.627	14.68
333.84	20.82
334.053	80.21
334.265	-26.28
334.478	-38.57
334.691	74.07
334.903	98.64
335.116	6.49
335.329	-1.71
335.541	-18.09
335.754	-26.28
335.966	-1.71
336.179	65.88
336.392	57.68
336.604	4.44
336.817	39.25
337.029	94.55
337.242	14.68
337.454	31.06
337.667	82.26
337.88	80.21
338.092	41.3
338.305	65.88
338.517	20.82
338.729	8.53
338.942	98.64
339.154	55.64
339.367	10.58
339.579	24.92
339.792	12.63
340.004	102.74
340.217	-44.71
340.429	31.06
340.641	2.39
340.854	69.97
341.066	33.11
341.278	129.36
341.491	63.83
341.703	35.16
341.915	-65.19
342.128	147.8
342.34	33.11
342.552	57.68
342.764	-1.71
342.977	55.64
343.189	59.73
343.401	88.4
343.613	6.49
343.826	69.97
344.038	49.49
344.25	-9.9
344.462	-40.62
344.674	37.2
344.886	59.73
345.099	55.64
345.311	-7.85
345.523	-22.19
345.735	14.68
345.947	53.59
346.159	4.44
346.371	0.34
346.583	41.3
346.795	47.44
347.007	-13.99
347.219	53.59
347.431	49.49
347.643	47.44
347.855	35.16
348.067	100.69
348.279	8.53
348.491	82.26
348.703	35.16
348.915	39.25
349.127	61.78
349.339	51.54
349.551	24.92
349.763	6.49
349.975	-73.39
350.187	61.78
350.399	90.45
350.61	49.49
350.822	57.68
351.034	49.49
351.246	22.87
351.458	63.83
351.669	78.16
351.881	55.64
352.093	57.68
352.305	-11.95
352.517	6.49
352.728	63.83
352.94	0.34
353.152	20.82
353.363	39.25
353.575	35.16
353.787	-11.95
353.999	29.01
354.21	80.21
354.422	61.78
354.633	55.64
354.845	-69.29
355.057	67.92
355.268	33.11
355.48	80.21
355.692	2.39
355.903	59.73
356.115	-20.14
356.326	33.11
356.538	104.79
356.749	-7.85
356.961	-40.62
357.172	26.96
357.384	53.59
357.595	82.26
357.807	47.44
358.018	41.3
358.23	49.49
358.441	12.63
358.653	102.74
358.864	61.78
359.075	6.49
359.287	-20.14
359.498	86.36
359.709	47.44
359.921	61.78
360.132	20.82
360.344	74.07
360.555	98.64
360.766	10.58
360.977	98.64
361.189	26.96
361.4	22.87
361.611	76.12
361.823	33.11
362.034	57.68
362.245	86.36
362.456	39.25
362.667	8.53
362.879	41.3
363.09	65.88
363.301	45.4
363.512	20.82
363.723	-22.19
363.935	-3.75
364.146	4.44
364.357	20.82
364.568	-26.28
364.779	0.34
364.99	26.96
365.201	63.83
365.412	49.49
365.623	10.58
365.834	55.64
366.045	47.44
366.256	106.84
366.467	53.59
366.678	55.64
366.889	41.3
367.1	123.22
367.311	74.07
367.522	12.63
367.733	51.54
367.944	45.4
368.155	-34.47
368.366	106.84
368.577	-46.76
368.788	100.69
368.999	26.96
369.209	10.58
369.42	106.84
369.631	53.59
369.842	51.54
370.053	59.73
370.264	45.4
370.474	110.93
370.685	14.68
370.896	-9.9
371.107	45.4
371.317	49.49
371.528	69.97
371.739	61.78
371.95	24.92
372.16	35.16
372.371	72.02
372.582	16.73
372.792	69.97
373.003	104.79
373.214	53.59
373.424	74.07
373.635	22.87
373.846	102.74
374.056	-13.99
374.267	-9.9
374.477	55.64
374.688	8.53
374.898	57.68
375.109	-1.71
375.319	74.07
375.53	100.69
375.74	80.21
375.951	102.74
376.161	35.16
376.372	33.11
376.582	47.44
376.793	112.98
377.003	-32.43
377.214	24.92
377.424	31.06
377.635	10.58
377.845	53.59
378.055	55.64
378.266	53.59
378.476	18.77
378.686	8.53
378.897	86.36
379.107	74.07
379.317	100.69
379.528	153.94
379.738	78.16
379.948	18.77
380.158	92.5
380.369	80.21
380.579	67.92
380.789	49.49
380.999	69.97
381.21	20.82
381.42	82.26
381.63	63.83
381.84	-1.71
382.05	98.64
382.261	55.64
382.471	-3.75
382.681	0.34
382.891	26.96
383.101	110.93
383.311	22.87
383.521	22.87
383.731	4.44
383.941	57.68
384.151	49.49
384.361	96.6
384.571	57.68
384.781	104.79
384.991	69.97
385.201	90.45
385.411	55.64
385.621	53.59
385.831	65.88
386.041	84.31
386.251	-50.86
386.461	69.97
386.671	61.78
386.881	51.54
387.091	53.59
387.301	14.68
387.511	37.2
387.72	67.92
387.93	39.25
388.14	69.97
388.35	4.44
388.56	51.54
388.769	82.26
388.979	65.88
389.189	-11.95
389.399	20.82
389.609	67.92
389.818	115.03
390.028	20.82
390.238	8.53
390.447	78.16
390.657	24.92
390.867	16.73
391.076	49.49
391.286	55.64
391.496	69.97
391.705	12.63
391.915	47.44
392.125	110.93
392.334	4.44
392.544	115.03
392.753	10.58
392.963	55.64
393.172	20.82
393.382	20.82
393.591	106.84
393.801	37.2
394.01	78.16
394.22	98.64
394.429	41.3
394.639	74.07
394.848	63.83
395.058	45.4
395.267	119.12
395.477	8.53
395.686	14.68
395.895	129.36
396.105	121.17
396.314	176.47
396.524	41.3
396.733	20.82
396.942	106.84
397.152	106.84
397.361	98.64
397.57	18.77
397.78	67.92
397.989	35.16
398.198	125.27
398.407	47.44
398.617	104.79
398.826	94.55
399.035	57.68
399.244	133.46
399.453	96.6
399.663	119.12
399.872	207.19
400.081	98.64
400.29	141.65
400.499	90.45
400.708	121.17
400.917	108.88
401.127	131.41
401.336	92.5
401.545	207.19
401.754	121.17
401.963	121.17
402.172	94.55
402.381	96.6
402.59	123.22
402.799	98.64
403.008	104.79
403.217	92.5
403.426	137.56
403.635	145.75
403.844	168.27
404.053	69.97
404.262	112.98
404.471	198.99
404.68	76.12
404.888	139.6
405.097	225.62
405.306	160.08
405.515	145.75
405.724	149.84
405.933	121.17
406.142	201.04
406.35	143.7
406.559	182.61
406.768	174.42
406.977	237.91
407.185	272.72
407.394	229.71
407.603	194.9
407.812	176.47
408.02	233.81
408.229	164.18
408.438	213.33
408.646	227.67
408.855	162.13
409.064	203.09
409.272	266.58
409.481	315.73
409.69	237.91
409.898	213.33
410.107	332.11
410.315	309.58
410.524	336.21
410.733	334.16
410.941	358.74
411.15	389.46
411.358	473.42
411.567	350.54
411.775	426.32
411.984	313.68
412.192	467.28
412.401	489.81
412.609	483.66
412.818	567.63
413.026	475.47
413.234	520.53
413.443	530.77
413.651	545.1
413.86	547.15
414.068	631.12
414.276	688.46
414.485	577.87
414.693	571.72
414.901	690.51
415.11	760.14
415.318	792.91
415.526	727.37
415.734	813.38
415.943	768.33
416.151	852.3
416.359	792.91
416.567	942.41
416.776	901.45
416.984	891.21
417.192	940.36
417.4	940.36
417.608	987.46
417.817	1036.61
418.025	1073.48
418.233	1192.26
418.441	1120.58
418.649	1163.59
418.857	1253.7
419.065	1202.5
419.273	1407.3
419.481	1425.73
419.689	1517.89
419.897	1526.08
420.105	1530.17
420.313	1612.09
420.521	1655.1
420.729	1657.15
420.937	1782.07
421.145	1761.59
421.353	1929.53
421.561	2033.97
421.769	1923.38
421.977	2036.02
422.185	2085.17
422.393	2158.9
422.601	2365.75
422.809	2302.26
423.017	2320.69
423.224	2294.07
423.432	2502.96
423.64	2466.1
423.848	2687.28
424.056	2728.24
424.263	2826.54
424.471	2953.51
424.679	2945.32
424.887	3082.53
425.094	3232.04
425.302	3096.87
425.51	3342.63
425.718	3336.48
425.925	3610.91
426.133	3684.64
426.341	3701.02
426.548	3997.98
426.756	4063.51
426.964	4077.85
427.171	4208.92
427.379	4423.95
427.586	4313.36
427.794	4534.54
428.001	4874.51
428.209	5015.82
428.417	4892.94
428.624	5419.27
428.832	5308.68
429.039	5134.6
429.247	5216.52
429.454	5910.78
429.662	6211.83
429.869	5933.31
430.076	6271.22
430.284	5841.15
430.491	6326.52
430.699	6648.05
430.906	6549.75
431.114	6766.83
431.321	7069.93
431.528	7022.83
431.736	7479.52
431.943	7880.93
432.15	7485.67
432.358	7737.57
432.565	8134.87
432.772	8235.22
432.979	8458.45
433.187	8786.13
433.394	8892.62
433.601	9410.76
433.808	9412.81
434.016	9248.97
434.223	9695.43
434.43	10264.76
434.637	10076.35
434.844	10600.63
435.052	11180.2
435.259	10936.49
435.466	11073.71
435.673	10920.11
435.88	11700.39
436.087	12337.31
436.294	12155.04
436.501	12056.73
436.708	12116.12
436.915	12576.92
437.122	13195.4
437.329	13074.57
437.537	13596.81
437.743	13828.23
437.95	13676.68
438.157	14696.57
438.364	14727.28
438.571	14848.11
438.778	14999.66
438.985	16425.05
439.192	15700.07
439.399	16171.1
439.606	15822.95
439.813	16740.44
440.02	17784.9
440.227	17469.51
440.433	17154.13
440.64	17891.4
440.847	17702.98
441.054	18038.85
441.261	19130.42
441.467	18952.24
441.674	19621.93
441.881	20326.43
442.088	20230.18
442.294	20099.11
442.501	20527.13
442.708	21127.19
442.914	21725.19
443.121	22726.65
443.328	22188.03
443.534	23580.65
443.741	22974.45
443.948	22597.63
444.154	24432.61
444.361	24309.73
444.568	24356.83
444.774	24489.95
444.981	24508.38
445.187	25339.86
445.394	26308.55
445.6	26236.87
445.807	28512.16
446.013	27373.49
446.22	27971.5
446.426	29118.36
446.633	29325.21
446.839	30154.63
447.046	28899.23
447.252	31016.83
447.459	30848.89
447.665	30525.32
447.871	31651.7
448.078	33253.21
448.284	31469.43
448.491	32704.35
448.697	33986.38
448.903	34740.04
449.11	34834.24
449.316	33869.65
449.522	34527.05
449.728	35528.5
449.935	35950.38
450.141	35639.09
450.347	36957.99
450.553	35581.75
450.76	36118.32
450.966	37361.44
451.172	36489
451.378	37658.39
451.584	37105.44
451.791	38115.09
451.997	37725.97
452.203	38379.28
452.409	38545.16
452.615	38014.74
452.821	36435.75
453.027	36386.6
453.233	38434.57
453.44	36970.27
453.646	37367.58
453.852	37652.25
454.058	37914.39
454.264	37041.95
454.47	37242.65
454.676	36726.56
454.882	38092.56
455.088	34514.76
455.294	35243.84
455.5	35882.8
455.705	36269.87
455.911	34545.48
456.117	33746.77
456.323	33728.34
456.529	31975.28
456.735	33093.47
456.941	32448.36
457.147	31909.74
457.352	31055.74
457.558	30717.82
457.764	30850.94
457.97	30089.1
458.176	29503.38
458.381	29239.19
458.587	28002.22
458.793	28274.6
458.999	26238.92
459.204	28358.56
459.41	27668.4
459.616	26023.88
459.821	25784.27
460.027	25716.68
460.233	25475.02
460.438	23670.76
460.644	24299.49
460.85	23197.68
461.055	23009.27
461.261	22562.81
461.466	21133.33
461.672	20518.94
461.878	21831.69
462.083	20498.46
462.289	20287.52
462.494	19849.25
462.7	19073.07
462.905	18260.03
463.111	19028.02
463.316	19101.75
463.522	18993.2
463.727	18597.95
463.932	18556.99
464.138	18741.3
464.343	18708.54
464.549	18145.34
464.754	18884.66
464.959	18417.72
465.165	18362.43
465.37	17713.22
465.575	17205.33
465.781	17905.73
465.986	17862.72
466.191	17348.68
466.397	17035.35
466.602	16007.27
466.807	16879.7
467.012	16656.47
467.218	16793.69
467.423	16562.26
467.628	16285.79
467.833	17158.22
468.038	16816.21
