Data from USB4F104151__11__11-36-24-987.txt Node

Date: Fri Mar 14 11:36:24 EDT 2025
User: louis
Spectrometer: USB4F10415
Trigger mode: 4
Integration Time (sec): 2.000000E-2
Scans to average: 1
Electric dark correction enabled: true
Nonlinearity correction enabled: false
Boxcar width: 0
XAxis mode: Wavelengths
Number of Pixels in Spectrum: 3648
>>>>>Begin Spectral Data<<<<<
178.204	-93.69
178.424	-93.69
178.644	-93.69
178.864	-77.31
179.084	-44.54
179.304	-73.21
179.524	35.33
179.744	-44.54
179.964	61.95
180.184	-44.54
180.404	0.51
180.624	4.61
180.844	53.76
181.064	16.9
181.283	-19.97
181.503	-30.21
181.723	39.42
181.943	-36.35
182.163	98.81
182.383	29.18
182.602	51.71
182.822	59.9
183.042	-60.93
183.262	-95.74
183.482	-34.3
183.701	0.51
183.921	8.7
184.141	-3.58
184.361	-19.97
184.58	-56.83
184.8	35.33
185.02	14.85
185.239	31.23
185.459	-36.35
185.679	-19.97
185.898	-32.26
186.118	-17.92
186.338	12.8
186.557	102.91
186.777	4.61
186.997	43.52
187.216	-24.06
187.436	59.9
187.655	-11.78
187.875	-7.68
188.095	-19.97
188.314	20.99
188.534	45.57
188.753	-42.5
188.973	-5.63
189.192	37.38
189.412	18.94
189.631	78.33
189.851	41.47
190.07	-13.82
190.29	4.61
190.509	2.56
190.729	-3.58
190.948	107.01
191.168	12.8
191.387	74.24
191.607	-60.93
191.826	86.53
192.045	-3.58
192.265	59.9
192.484	49.66
192.704	0.51
192.923	10.75
193.142	4.61
193.362	-9.73
193.581	115.2
193.8	-30.21
194.02	35.33
194.239	-54.78
194.458	43.52
194.678	4.61
194.897	33.28
195.116	-15.87
195.335	-38.4
195.555	-13.82
195.774	-77.31
195.993	20.99
196.212	23.04
196.432	43.52
196.651	27.14
196.87	12.8
197.089	61.95
197.308	43.52
197.528	37.38
197.747	-48.64
197.966	53.76
198.185	-3.58
198.404	43.52
198.623	31.23
198.842	-34.3
199.062	20.99
199.281	-11.78
199.5	-11.78
199.719	45.57
199.938	-3.58
200.157	-22.02
200.376	-32.26
200.595	4.61
200.814	53.76
201.033	-73.21
201.252	27.14
201.471	31.23
201.69	18.94
201.909	72.19
202.128	4.61
202.347	37.38
202.566	14.85
202.785	12.8
203.004	12.8
203.223	23.04
203.442	61.95
203.661	-30.21
203.879	47.62
204.098	35.33
204.317	10.75
204.536	-52.74
204.755	-3.58
204.974	64
205.193	-7.68
205.411	4.61
205.63	20.99
205.849	27.14
206.068	8.7
206.287	-32.26
206.505	68.09
206.724	-81.41
206.943	53.76
207.162	76.29
207.381	61.95
207.599	37.38
207.818	0.51
208.037	-40.45
208.255	8.7
208.474	27.14
208.693	8.7
208.911	-7.68
209.13	23.04
209.349	2.56
209.567	16.9
209.786	8.7
210.005	-44.54
210.223	-30.21
210.442	-36.35
210.661	45.57
210.879	27.14
211.098	25.09
211.316	33.28
211.535	2.56
211.753	-65.02
211.972	12.8
212.191	-50.69
212.409	-44.54
212.628	-44.54
212.846	2.56
213.065	51.71
213.283	4.61
213.502	-36.35
213.72	-11.78
213.938	8.7
214.157	-36.35
214.375	14.85
214.594	-60.93
214.812	23.04
215.031	41.47
215.249	-3.58
215.467	82.43
215.686	53.76
215.904	23.04
216.122	-1.54
216.341	10.75
216.559	-3.58
216.778	-3.58
216.996	20.99
217.214	-17.92
217.432	-24.06
217.651	8.7
217.869	51.71
218.087	31.23
218.306	49.66
218.524	88.57
218.742	0.51
218.96	133.63
219.179	-7.68
219.397	4.61
219.615	-44.54
219.833	-46.59
220.051	20.99
220.27	8.7
220.488	-22.02
220.706	-7.68
220.924	-22.02
221.142	37.38
221.36	-3.58
221.578	-48.64
221.796	61.95
222.015	100.86
222.233	4.61
222.451	31.23
222.669	-26.11
222.887	-11.78
223.105	10.75
223.323	-60.93
223.541	-71.17
223.759	-38.4
223.977	-11.78
224.195	43.52
224.413	-13.82
224.631	-28.16
224.849	20.99
225.067	102.91
225.285	-7.68
225.503	-7.68
225.721	-62.98
225.939	33.28
226.157	68.09
226.375	31.23
226.592	-13.82
226.81	-28.16
227.028	88.57
227.246	-7.68
227.464	82.43
227.682	29.18
227.9	-7.68
228.117	20.99
228.335	43.52
228.553	-101.89
228.771	31.23
228.989	57.86
229.206	-36.35
229.424	10.75
229.642	-58.88
229.86	-65.02
230.077	78.33
230.295	-9.73
230.513	12.8
230.731	6.66
230.948	-44.54
231.166	109.05
231.384	-32.26
231.601	-26.11
231.819	2.56
232.037	10.75
232.254	-34.3
232.472	37.38
232.689	47.62
232.907	10.75
233.125	2.56
233.342	-5.63
233.56	-24.06
233.777	18.94
233.995	-19.97
234.213	35.33
234.43	-19.97
234.648	-32.26
234.865	12.8
235.083	59.9
235.3	4.61
235.518	29.18
235.735	-9.73
235.953	45.57
236.17	29.18
236.388	25.09
236.605	-11.78
236.822	96.77
237.04	31.23
237.257	45.57
237.475	18.94
237.692	66.05
237.909	-11.78
238.127	-34.3
238.344	-11.78
238.562	31.23
238.779	8.7
238.996	-9.73
239.214	-48.64
239.431	37.38
239.648	16.9
239.865	41.47
240.083	-32.26
240.3	-13.82
240.517	12.8
240.735	-19.97
240.952	18.94
241.169	-38.4
241.386	90.62
241.603	20.99
241.821	16.9
242.038	-11.78
242.255	4.61
242.472	45.57
242.689	18.94
242.907	-5.63
243.124	-30.21
243.341	61.95
243.558	-36.35
243.775	-34.3
243.992	-38.4
244.209	37.38
244.426	47.62
244.643	47.62
244.86	-9.73
245.078	53.76
245.295	78.33
245.512	45.57
245.729	-30.21
245.946	4.61
246.163	66.05
246.38	49.66
246.597	-24.06
246.814	0.51
247.031	-9.73
247.248	45.57
247.464	6.66
247.681	-28.16
247.898	12.8
248.115	61.95
248.332	-22.02
248.549	45.57
248.766	23.04
248.983	-46.59
249.2	49.66
249.417	12.8
249.633	70.14
249.85	-28.16
250.067	-60.93
250.284	47.62
250.501	20.99
250.717	-1.54
250.934	-22.02
251.151	20.99
251.368	14.85
251.585	12.8
251.801	53.76
252.018	-19.97
252.235	64
252.451	-44.54
252.668	25.09
252.885	12.8
253.102	-3.58
253.318	37.38
253.535	51.71
253.752	-67.07
253.968	31.23
254.185	-11.78
254.401	43.52
254.618	8.7
254.835	-19.97
255.051	37.38
255.268	49.66
255.484	4.61
255.701	45.57
255.917	-17.92
256.134	-50.69
256.351	8.7
256.567	-3.58
256.784	-5.63
257	45.57
257.217	-5.63
257.433	61.95
257.65	18.94
257.866	18.94
258.082	10.75
258.299	27.14
258.515	14.85
258.732	47.62
258.948	27.14
259.165	27.14
259.381	-46.59
259.597	45.57
259.814	16.9
260.03	29.18
260.246	59.9
260.463	-3.58
260.679	27.14
260.895	-5.63
261.112	41.47
261.328	18.94
261.544	29.18
261.761	45.57
261.977	51.71
262.193	20.99
262.409	0.51
262.626	76.29
262.842	-44.54
263.058	-28.16
263.274	2.56
263.49	45.57
263.707	-5.63
263.923	68.09
264.139	45.57
264.355	23.04
264.571	57.86
264.787	31.23
265.004	-28.16
265.22	64
265.436	98.81
265.652	29.18
265.868	49.66
266.084	18.94
266.3	39.42
266.516	74.24
266.732	-9.73
266.948	18.94
267.164	61.95
267.38	-38.4
267.596	55.81
267.812	100.86
268.028	45.57
268.244	49.66
268.46	68.09
268.676	94.72
268.892	-7.68
269.108	-5.63
269.324	-3.58
269.54	6.66
269.756	12.8
269.972	-17.92
270.188	-3.58
270.403	8.7
270.619	25.09
270.835	25.09
271.051	4.61
271.267	-11.78
271.483	-40.45
271.698	-5.63
271.914	-15.87
272.13	2.56
272.346	8.7
272.562	-69.12
272.777	102.91
272.993	-15.87
273.209	8.7
273.425	72.19
273.64	-7.68
273.856	-28.16
274.072	20.99
274.287	82.43
274.503	25.09
274.719	-54.78
274.934	96.77
275.15	20.99
275.366	-81.41
275.581	41.47
275.797	0.51
276.012	18.94
276.228	39.42
276.444	-11.78
276.659	20.99
276.875	8.7
277.09	-13.82
277.306	53.76
277.521	-15.87
277.737	-3.58
277.952	45.57
278.168	49.66
278.383	6.66
278.599	23.04
278.814	78.33
279.03	45.57
279.245	27.14
279.461	6.66
279.676	41.47
279.892	-40.45
280.107	-9.73
280.322	27.14
280.538	27.14
280.753	8.7
280.969	14.85
281.184	-48.64
281.399	20.99
281.615	35.33
281.83	-62.98
282.045	-44.54
282.26	94.72
282.476	53.76
282.691	70.14
282.906	37.38
283.122	20.99
283.337	23.04
283.552	76.29
283.767	-24.06
283.983	18.94
284.198	61.95
284.413	45.57
284.628	-7.68
284.843	8.7
285.058	92.67
285.274	4.61
285.489	68.09
285.704	-19.97
285.919	16.9
286.134	-3.58
286.349	-44.54
286.564	41.47
286.779	86.53
286.995	55.81
287.21	-28.16
287.425	-17.92
287.64	27.14
287.855	-36.35
288.07	59.9
288.285	31.23
288.5	74.24
288.715	66.05
288.93	37.38
289.145	-22.02
289.36	14.85
289.575	41.47
289.79	61.95
290.004	-15.87
290.219	92.67
290.434	16.9
290.649	68.09
290.864	0.51
291.079	-15.87
291.294	-15.87
291.509	0.51
291.724	-13.82
291.938	70.14
292.153	-19.97
292.368	53.76
292.583	-9.73
292.798	41.47
293.012	-1.54
293.227	33.28
293.442	-17.92
293.657	41.47
293.871	-19.97
294.086	-1.54
294.301	74.24
294.516	-7.68
294.73	53.76
294.945	-15.87
295.16	53.76
295.374	-11.78
295.589	111.1
295.804	-40.45
296.018	2.56
296.233	16.9
296.447	2.56
296.662	-19.97
296.877	53.76
297.091	72.19
297.306	-42.5
297.52	-28.16
297.735	-26.11
297.949	-11.78
298.164	84.48
298.378	-7.68
298.593	84.48
298.807	61.95
299.022	20.99
299.236	6.66
299.451	23.04
299.665	-44.54
299.88	29.18
300.094	-52.74
300.309	0.51
300.523	-26.11
300.737	-24.06
300.952	-9.73
301.166	-3.58
301.381	64
301.595	33.28
301.809	-15.87
302.024	43.52
302.238	0.51
302.452	4.61
302.667	-3.58
302.881	84.48
303.095	2.56
303.309	8.7
303.524	-50.69
303.738	10.75
303.952	53.76
304.166	-24.06
304.381	-15.87
304.595	43.52
304.809	-11.78
305.023	90.62
305.237	80.38
305.452	43.52
305.666	-15.87
305.88	29.18
306.094	37.38
306.308	-24.06
306.522	20.99
306.736	23.04
306.95	-13.82
307.164	12.8
307.379	27.14
307.593	-46.59
307.807	72.19
308.021	27.14
308.235	0.51
308.449	-3.58
308.663	16.9
308.877	-9.73
309.091	8.7
309.305	43.52
309.519	-9.73
309.733	43.52
309.947	29.18
310.161	66.05
310.374	-54.78
310.588	45.57
310.802	-3.58
311.016	10.75
311.23	64
311.444	12.8
311.658	-30.21
311.872	-17.92
312.085	27.14
312.299	53.76
312.513	-36.35
312.727	37.38
312.941	-19.97
313.154	84.48
313.368	23.04
313.582	66.05
313.796	39.42
314.009	70.14
314.223	-15.87
314.437	49.66
314.651	53.76
314.864	-11.78
315.078	2.56
315.292	23.04
315.505	23.04
315.719	0.51
315.933	43.52
316.146	29.18
316.36	27.14
316.573	74.24
316.787	-1.54
317.001	-32.26
317.214	-48.64
317.428	8.7
317.641	94.72
317.855	-24.06
318.068	64
318.282	-17.92
318.495	57.86
318.709	25.09
318.922	37.38
319.136	43.52
319.349	61.95
319.563	29.18
319.776	-19.97
319.99	2.56
320.203	25.09
320.417	20.99
320.63	68.09
320.843	20.99
321.057	-5.63
321.27	25.09
321.483	18.94
321.697	86.53
321.91	4.61
322.124	12.8
322.337	37.38
322.55	45.57
322.763	-3.58
322.977	-13.82
323.19	41.47
323.403	-3.58
323.617	-9.73
323.83	90.62
324.043	-3.58
324.256	-11.78
324.469	-44.54
324.683	53.76
324.896	-32.26
325.109	68.09
325.322	33.28
325.535	-3.58
325.748	27.14
325.962	35.33
326.175	35.33
326.388	25.09
326.601	8.7
326.814	31.23
327.027	70.14
327.24	59.9
327.453	18.94
327.666	2.56
327.879	-17.92
328.092	-19.97
328.305	-46.59
328.518	4.61
328.731	66.05
328.944	-19.97
329.157	4.61
329.37	10.75
329.583	86.53
329.796	53.76
330.009	14.85
330.222	43.52
330.435	45.57
330.648	45.57
330.861	-28.16
331.073	16.9
331.286	139.77
331.499	68.09
331.712	51.71
331.925	12.8
332.138	-5.63
332.35	59.9
332.563	-13.82
332.776	45.57
332.989	12.8
333.202	41.47
333.414	25.09
333.627	53.76
333.84	82.43
334.053	-24.06
334.265	-36.35
334.478	12.8
334.691	-11.78
334.903	53.76
335.116	-83.45
335.329	72.19
335.541	37.38
335.754	25.09
335.966	25.09
336.179	31.23
336.392	41.47
336.604	43.52
336.817	35.33
337.029	51.71
337.242	-44.54
337.454	-28.16
337.667	-13.82
337.88	119.29
338.092	-22.02
338.305	37.38
338.517	20.99
338.729	-24.06
338.942	107.01
339.154	18.94
339.367	25.09
339.579	20.99
339.792	-65.02
340.004	45.57
340.217	47.62
340.429	18.94
340.641	35.33
340.854	16.9
341.066	-65.02
341.278	59.9
341.491	35.33
341.703	-5.63
341.915	-38.4
342.128	57.86
342.34	57.86
342.552	-30.21
342.764	4.61
342.977	-7.68
343.189	-11.78
343.401	74.24
343.613	-77.31
343.826	135.68
344.038	20.99
344.25	74.24
344.462	55.81
344.674	86.53
344.886	8.7
345.099	-28.16
345.311	20.99
345.523	-48.64
345.735	-3.58
345.947	45.57
346.159	-34.3
346.371	61.95
346.583	37.38
346.795	-19.97
347.007	8.7
347.219	41.47
347.431	16.9
347.643	10.75
347.855	-19.97
348.067	66.05
348.279	18.94
348.491	76.29
348.703	70.14
348.915	18.94
349.127	47.62
349.339	59.9
349.551	16.9
349.763	57.86
349.975	43.52
350.187	23.04
350.399	100.86
350.61	76.29
350.822	-5.63
351.034	70.14
351.246	2.56
351.458	31.23
351.669	10.75
351.881	57.86
352.093	59.9
352.305	43.52
352.517	0.51
352.728	14.85
352.94	90.62
353.152	61.95
353.363	-1.54
353.575	102.91
353.787	80.38
353.999	27.14
354.21	100.86
354.422	4.61
354.633	-36.35
354.845	-52.74
355.057	-17.92
355.268	25.09
355.48	41.47
355.692	78.33
355.903	31.23
356.115	29.18
356.326	41.47
356.538	41.47
356.749	111.1
356.961	102.91
357.172	78.33
357.384	-11.78
357.595	45.57
357.807	-19.97
358.018	-13.82
358.23	41.47
358.441	16.9
358.653	33.28
358.864	-22.02
359.075	18.94
359.287	43.52
359.498	64
359.709	-5.63
359.921	27.14
360.132	4.61
360.344	31.23
360.555	51.71
360.766	-7.68
360.977	20.99
361.189	51.71
361.4	10.75
361.611	111.1
361.823	74.24
362.034	47.62
362.245	-3.58
362.456	-24.06
362.667	25.09
362.879	-19.97
363.09	49.66
363.301	57.86
363.512	4.61
363.723	41.47
363.935	-7.68
364.146	18.94
364.357	39.42
364.568	16.9
364.779	8.7
364.99	25.09
365.201	20.99
365.412	88.57
365.623	4.61
365.834	47.62
366.045	53.76
366.256	20.99
366.467	35.33
366.678	20.99
366.889	102.91
367.1	37.38
367.311	39.42
367.522	70.14
367.733	53.76
367.944	-22.02
368.155	59.9
368.366	70.14
368.577	55.81
368.788	47.62
368.999	-56.83
369.209	35.33
369.42	27.14
369.631	76.29
369.842	109.05
370.053	59.9
370.264	2.56
370.474	20.99
370.685	12.8
370.896	27.14
371.107	51.71
371.317	14.85
371.528	18.94
371.739	27.14
371.95	68.09
372.16	70.14
372.371	-3.58
372.582	-15.87
372.792	10.75
373.003	107.01
373.214	37.38
373.424	27.14
373.635	45.57
373.846	53.76
374.056	80.38
374.267	-44.54
374.477	90.62
374.688	14.85
374.898	-17.92
375.109	119.29
375.319	78.33
375.53	31.23
375.74	35.33
375.951	57.86
376.161	-26.11
376.372	82.43
376.582	-13.82
376.793	80.38
377.003	-1.54
377.214	20.99
377.424	51.71
377.635	27.14
377.845	16.9
378.055	43.52
378.266	-1.54
378.476	82.43
378.686	25.09
378.897	86.53
379.107	-44.54
379.317	10.75
379.528	39.42
379.738	20.99
379.948	4.61
380.158	104.96
380.369	-38.4
380.579	45.57
380.789	33.28
380.999	57.86
381.21	33.28
381.42	20.99
381.63	-7.68
381.84	82.43
382.05	29.18
382.261	66.05
382.471	14.85
382.681	76.29
382.891	39.42
383.101	74.24
383.311	-28.16
383.521	57.86
383.731	78.33
383.941	68.09
384.151	20.99
384.361	-9.73
384.571	47.62
384.781	14.85
384.991	35.33
385.201	29.18
385.411	12.8
385.621	27.14
385.831	74.24
386.041	8.7
386.251	31.23
386.461	27.14
386.671	35.33
386.881	119.29
387.091	100.86
387.301	43.52
387.511	53.76
387.72	45.57
387.93	31.23
388.14	4.61
388.35	53.76
388.56	2.56
388.769	0.51
388.979	-15.87
389.189	-22.02
389.399	16.9
389.609	18.94
389.818	53.76
390.028	78.33
390.238	59.9
390.447	125.44
390.657	-3.58
390.867	41.47
391.076	20.99
391.286	-32.26
391.496	66.05
391.705	-50.69
391.915	80.38
392.125	109.05
392.334	25.09
392.544	53.76
392.753	45.57
392.963	86.53
393.172	43.52
393.382	25.09
393.591	82.43
393.801	-5.63
394.01	107.01
394.22	74.24
394.429	-13.82
394.639	53.76
394.848	119.29
395.058	119.29
395.267	76.29
395.477	68.09
395.686	37.38
395.895	8.7
396.105	131.58
396.314	53.76
396.524	135.68
396.733	4.61
396.942	82.43
397.152	6.66
397.361	137.73
397.57	27.14
397.78	6.66
397.989	43.52
398.198	162.3
398.407	117.25
398.617	100.86
398.826	31.23
399.035	61.95
399.244	57.86
399.453	113.15
399.663	139.77
399.872	70.14
400.081	109.05
400.29	82.43
400.499	96.77
400.708	139.77
400.917	37.38
401.127	35.33
401.336	53.76
401.545	188.93
401.754	29.18
401.963	78.33
402.172	47.62
402.381	92.67
402.59	109.05
402.799	100.86
403.008	172.54
403.217	111.1
403.426	29.18
403.635	100.86
403.844	125.44
404.053	199.16
404.262	131.58
404.471	76.29
404.68	100.86
404.888	207.36
405.097	184.83
405.306	61.95
405.515	184.83
405.724	98.81
405.933	143.87
406.142	158.21
406.35	166.4
406.559	143.87
406.768	225.79
406.977	145.92
407.185	178.69
407.394	158.21
407.603	209.4
407.812	207.36
408.02	254.46
408.229	260.6
408.438	180.73
408.646	248.32
408.855	184.83
409.064	256.51
409.272	145.92
409.481	272.89
409.69	188.93
409.898	272.89
410.107	305.66
410.315	330.23
410.524	221.69
410.733	342.52
410.941	340.47
411.15	274.94
411.358	305.66
411.567	406.01
411.775	365.05
411.984	363
412.192	391.67
412.401	471.54
412.609	418.3
412.818	449.02
413.026	422.39
413.234	508.41
413.443	438.78
413.651	469.5
413.86	575.99
414.068	575.99
414.276	573.94
414.485	535.03
414.693	684.53
414.901	614.9
415.11	664.05
415.318	623.09
415.526	672.25
415.734	799.22
415.943	725.49
416.151	807.41
416.359	903.67
416.567	846.32
416.776	840.18
416.984	858.61
417.192	893.43
417.4	946.67
417.608	920.05
417.817	1032.69
418.025	1024.5
418.233	1130.99
418.441	1120.75
418.649	1130.99
418.857	1274.35
419.065	1284.59
419.273	1309.16
419.481	1339.88
419.689	1331.69
419.897	1389.03
420.105	1518.06
420.313	1397.23
420.521	1561.06
420.729	1577.45
420.937	1612.26
421.145	1683.94
421.353	1821.16
421.561	1784.29
421.769	1888.74
421.977	2017.76
422.185	1896.93
422.393	2111.97
422.601	2200.03
422.809	2212.32
423.017	2187.74
423.224	2314.72
423.432	2419.16
423.64	2415.07
423.848	2593.24
424.056	2456.03
424.263	2814.42
424.471	2826.71
424.679	2853.33
424.887	2867.67
425.094	3025.36
425.302	3017.17
425.51	3191.25
425.718	3113.42
425.925	3166.67
426.133	3432.91
426.341	3545.55
426.548	3727.82
426.756	3707.34
426.964	3787.21
427.171	4067.78
427.379	4133.31
427.586	4215.23
427.794	4254.14
428.001	4438.46
428.209	4735.42
428.417	4827.57
428.624	4964.79
428.832	5034.42
429.039	4952.5
429.247	4891.06
429.454	5429.68
429.662	5595.56
429.869	5398.96
430.076	5874.09
430.284	5622.19
430.491	5919.14
430.699	6275.49
430.906	6187.43
431.114	6203.81
431.321	6525.34
431.528	6697.37
431.736	6992.28
431.943	7391.63
432.15	7260.56
432.358	7250.32
432.565	7621
432.772	7618.96
432.979	7897.48
433.187	8126.85
433.394	8352.13
433.601	8735.1
433.808	8677.76
434.016	8864.12
434.223	9046.39
434.43	9720.17
434.637	9351.54
434.844	9871.72
435.052	10275.17
435.259	10131.81
435.466	10207.59
435.673	10211.68
435.88	10721.63
436.087	11489.62
436.294	11374.93
436.501	11080.02
436.708	11424.08
436.915	11895.11
437.122	12339.52
437.329	12163.4
437.537	12611.9
437.743	12935.48
437.95	12708.16
438.157	13441.33
438.364	13928.75
438.571	13812.01
438.778	14020.91
438.985	15331.61
439.192	14420.26
439.399	15229.21
439.606	14752.03
439.813	15364.37
440.02	16496.9
440.227	16124.17
440.433	15905.04
440.64	16580.87
440.847	16492.8
441.054	16802.05
441.261	17807.6
441.467	17893.61
441.674	18122.99
441.881	19020
442.088	18561.25
442.294	18661.6
442.501	19077.34
442.708	19534.04
442.914	20275.4
443.121	21201.08
443.328	20631.75
443.534	22014.13
443.741	21403.83
443.948	21174.46
444.154	22759.59
444.361	22427.82
444.568	22509.74
444.774	22345.9
444.981	23054.5
445.187	23615.64
445.394	24684.68
445.6	24287.37
445.807	26634.35
446.013	25188.48
446.22	25940.08
446.426	26929.25
446.633	27394.14
446.839	28106.84
447.046	26691.69
447.252	28434.51
447.459	28446.8
447.665	28188.75
447.871	29376.58
448.078	30738.47
448.284	29417.54
448.491	30109.75
448.697	31361.06
448.903	32010.26
449.11	31860.76
449.316	31672.35
449.522	32012.31
449.728	32729.1
449.935	33349.64
450.141	33003.53
450.347	33961.98
450.553	32741.39
450.76	33054.73
450.966	33931.26
451.172	33675.26
451.378	34695.15
451.584	33880.06
451.791	35078.12
451.997	34815.98
452.203	35411.94
452.409	35129.32
452.615	35039.21
452.821	34140.15
453.027	33302.53
453.233	34961.39
453.44	34009.08
453.646	34416.63
453.852	34535.41
454.058	34799.6
454.264	33847.29
454.47	34639.86
454.676	33357.83
454.882	34633.71
455.088	31787.03
455.294	32217.11
455.5	32702.48
455.705	32954.38
455.911	31881.24
456.117	31086.63
456.323	30775.34
456.529	29231.17
456.735	30038.07
456.941	29648.96
457.147	28885.06
457.352	28416.08
457.558	27852.89
457.764	27742.3
457.97	27476.06
458.176	26923.11
458.381	26675.3
458.587	25454.72
458.793	25563.26
458.999	24051.86
459.204	26146.93
459.41	24885.38
459.616	23466.14
459.821	23474.33
460.027	23220.38
460.233	22941.86
460.438	21774.52
460.644	22053.04
460.85	20803.78
461.055	20807.87
461.261	20666.56
461.466	18772.19
461.672	18497.77
461.878	20013.26
462.083	18483.43
462.289	18280.68
462.494	17862.9
462.7	17211.64
462.905	16861.44
463.111	17410.29
463.316	17213.69
463.522	17068.28
463.727	16910.59
463.932	16859.39
464.138	16867.58
464.343	16955.65
464.549	16566.53
464.754	17107.19
464.959	16658.69
465.165	16670.98
465.37	15739.15
465.575	15493.4
465.781	16138.51
465.986	16292.1
466.191	15755.54
466.397	15350.04
466.602	14567.71
466.807	15397.14
467.012	15227.16
467.218	14905.63
467.423	14870.81
