Data from USB4F104151__31__11-36-47-085.txt Node

Date: Fri Mar 14 11:36:47 EDT 2025
User: louis
Spectrometer: USB4F10415
Trigger mode: 4
Integration Time (sec): 2.000000E-2
Scans to average: 1
Electric dark correction enabled: true
Nonlinearity correction enabled: false
Boxcar width: 0
XAxis mode: Wavelengths
Number of Pixels in Spectrum: 3648
>>>>>Begin Spectral Data<<<<<
178.204	-100.69
178.424	-100.69
178.644	-100.69
178.864	-92.5
179.084	-102.74
179.304	-29.01
179.524	-12.63
179.744	32.43
179.964	36.52
180.184	18.09
180.404	42.67
180.624	-35.16
180.844	-18.77
181.064	-37.2
181.283	24.23
181.503	18.09
181.723	-39.25
181.943	-2.39
182.163	-37.2
182.383	-43.35
182.602	57
182.822	93.87
183.042	-37.2
183.262	5.8
183.482	30.38
183.701	-24.92
183.921	22.19
184.141	-14.68
184.361	30.38
184.58	18.09
184.8	54.95
185.02	5.8
185.239	65.19
185.459	-2.39
185.679	54.95
185.898	36.52
186.118	-35.16
186.338	22.19
186.557	28.33
186.777	-26.96
186.997	26.28
187.216	-6.49
187.436	26.28
187.655	79.53
187.875	5.8
188.095	28.33
188.314	-59.73
188.534	22.19
188.753	42.67
188.973	79.53
189.192	87.72
189.412	38.57
189.631	11.95
189.851	77.48
190.07	30.38
190.29	130.73
190.509	28.33
190.729	-4.44
190.948	65.19
191.168	153.26
191.387	36.52
191.607	38.57
191.826	42.67
192.045	-43.35
192.265	24.23
192.484	-14.68
192.704	24.23
192.923	13.99
193.142	63.15
193.362	44.71
193.581	36.52
193.8	22.19
194.02	79.53
194.239	87.72
194.458	57
194.678	61.1
194.897	54.95
195.116	73.39
195.335	38.57
195.555	32.43
195.774	36.52
195.993	-4.44
196.212	-59.73
196.432	9.9
196.651	28.33
196.87	-26.96
197.089	102.06
197.308	67.24
197.528	3.75
197.747	-39.25
197.966	93.87
198.185	38.57
198.404	16.04
198.623	38.57
198.842	79.53
199.062	95.91
199.281	112.3
199.5	11.95
199.719	36.52
199.938	-53.59
200.157	75.43
200.376	73.39
200.595	-22.87
200.814	-10.58
201.033	34.47
201.252	44.71
201.471	-22.87
201.69	83.63
201.909	116.39
202.128	42.67
202.347	32.43
202.566	63.15
202.785	38.57
203.004	-26.96
203.223	134.82
203.442	32.43
203.661	20.14
203.879	57
204.098	20.14
204.317	48.81
204.536	28.33
204.755	124.58
204.974	61.1
205.193	-10.58
205.411	-16.73
205.63	44.71
205.849	97.96
206.068	110.25
206.287	18.09
206.505	5.8
206.724	1.71
206.943	-16.73
207.162	1.71
207.381	20.14
207.599	42.67
207.818	28.33
208.037	7.85
208.255	-10.58
208.474	30.38
208.693	38.57
208.911	42.67
209.13	18.09
209.349	7.85
209.567	20.14
209.786	42.67
210.005	59.05
210.223	26.28
210.442	38.57
210.661	-55.64
210.879	75.43
211.098	120.49
211.316	18.09
211.535	20.14
211.753	30.38
211.972	89.77
212.191	-12.63
212.409	22.19
212.628	42.67
212.846	24.23
213.065	116.39
213.283	28.33
213.502	59.05
213.72	89.77
213.938	48.81
214.157	67.24
214.375	50.86
214.594	48.81
214.812	34.47
215.031	-80.21
215.249	-10.58
215.467	63.15
215.686	32.43
215.904	95.91
216.122	85.67
216.341	1.71
216.559	24.23
216.778	24.23
216.996	3.75
217.214	85.67
217.432	67.24
217.651	3.75
217.869	-12.63
218.087	26.28
218.306	-10.58
218.524	34.47
218.742	118.44
218.96	83.63
219.179	85.67
219.397	-14.68
219.615	18.09
219.833	20.14
220.051	30.38
220.27	69.29
220.488	61.1
220.706	106.15
220.924	77.48
221.142	36.52
221.36	-4.44
221.578	42.67
221.796	26.28
222.015	-51.54
222.233	79.53
222.451	100.01
222.669	26.28
222.887	-16.73
223.105	9.9
223.323	22.19
223.541	-8.53
223.759	81.58
223.977	-12.63
224.195	143.02
224.413	71.34
224.631	97.96
224.849	134.82
225.067	-0.34
225.285	-35.16
225.503	95.91
225.721	34.47
225.939	61.1
226.157	77.48
226.375	50.86
226.592	-41.3
226.81	81.58
227.028	22.19
227.246	83.63
227.464	59.05
227.682	63.15
227.9	38.57
228.117	65.19
228.335	46.76
228.553	85.67
228.771	120.49
228.989	77.48
229.206	73.39
229.424	16.04
229.642	28.33
229.86	-39.25
230.077	44.71
230.295	22.19
230.513	34.47
230.731	40.62
230.948	124.58
231.166	59.05
231.384	22.19
231.601	48.81
231.819	50.86
232.037	-2.39
232.254	52.91
232.472	-12.63
232.689	59.05
232.907	28.33
233.125	-26.96
233.342	42.67
233.56	36.52
233.777	50.86
233.995	-2.39
234.213	44.71
234.43	-8.53
234.648	7.85
234.865	-6.49
235.083	83.63
235.3	44.71
235.518	24.23
235.735	42.67
235.953	44.71
236.17	71.34
236.388	36.52
236.605	87.72
236.822	46.76
237.04	30.38
237.257	73.39
237.475	13.99
237.692	126.63
237.909	50.86
238.127	112.3
238.344	-37.2
238.562	69.29
238.779	46.76
238.996	9.9
239.214	116.39
239.431	102.06
239.648	24.23
239.865	5.8
240.083	108.2
240.3	-49.49
240.517	-26.96
240.735	73.39
240.952	28.33
241.169	1.71
241.386	-37.2
241.603	38.57
241.821	-80.21
242.038	28.33
242.255	11.95
242.472	65.19
242.689	-59.73
242.907	79.53
243.124	-43.35
243.341	5.8
243.558	20.14
243.775	-4.44
243.992	59.05
244.209	46.76
244.426	130.73
244.643	108.2
244.86	42.67
245.078	24.23
245.295	87.72
245.512	36.52
245.729	50.86
245.946	36.52
246.163	57
246.38	-2.39
246.597	42.67
246.814	42.67
247.031	22.19
247.248	24.23
247.464	75.43
247.681	3.75
247.898	40.62
248.115	93.87
248.332	11.95
248.549	65.19
248.766	18.09
248.983	69.29
249.2	67.24
249.417	46.76
249.633	28.33
249.85	71.34
250.067	38.57
250.284	28.33
250.501	7.85
250.717	-22.87
250.934	50.86
251.151	28.33
251.368	36.52
251.585	73.39
251.801	44.71
252.018	52.91
252.235	95.91
252.451	65.19
252.668	5.8
252.885	106.15
253.102	75.43
253.318	75.43
253.535	34.47
253.752	26.28
253.968	7.85
254.185	50.86
254.401	3.75
254.618	50.86
254.835	42.67
255.051	-29.01
255.268	59.05
255.484	161.45
255.701	44.71
255.917	104.11
256.134	59.05
256.351	7.85
256.567	5.8
256.784	44.71
257	22.19
257.217	-14.68
257.433	89.77
257.65	32.43
257.866	63.15
258.082	18.09
258.299	50.86
258.515	50.86
258.732	-2.39
258.948	50.86
259.165	67.24
259.381	42.67
259.597	75.43
259.814	20.14
260.03	28.33
260.246	1.71
260.463	42.67
260.679	13.99
260.895	36.52
261.112	46.76
261.328	38.57
261.544	87.72
261.761	11.95
261.977	52.91
262.193	34.47
262.409	34.47
262.626	-55.64
262.842	28.33
263.058	-6.49
263.274	32.43
263.49	77.48
263.707	147.11
263.923	16.04
264.139	-22.87
264.355	54.95
264.571	67.24
264.787	79.53
265.004	-18.77
265.22	63.15
265.436	67.24
265.652	108.2
265.868	32.43
266.084	100.01
266.3	-2.39
266.516	69.29
266.732	59.05
266.948	67.24
267.164	71.34
267.38	40.62
267.596	30.38
267.812	69.29
268.028	77.48
268.244	38.57
268.46	100.01
268.676	-10.58
268.892	28.33
269.108	-20.82
269.324	75.43
269.54	38.57
269.756	-35.16
269.972	-20.82
270.188	65.19
270.403	54.95
270.619	67.24
270.835	59.05
271.051	40.62
271.267	40.62
271.483	5.8
271.698	83.63
271.914	-14.68
272.13	52.91
272.346	-4.44
272.562	46.76
272.777	13.99
272.993	67.24
273.209	28.33
273.425	95.91
273.64	77.48
273.856	38.57
274.072	22.19
274.287	38.57
274.503	5.8
274.719	106.15
274.934	79.53
275.15	42.67
275.366	61.1
275.581	79.53
275.797	52.91
276.012	91.82
276.228	-24.92
276.444	73.39
276.659	59.05
276.875	44.71
277.09	-2.39
277.306	138.92
277.521	42.67
277.737	30.38
277.952	20.14
278.168	59.05
278.383	34.47
278.599	-0.34
278.814	7.85
279.03	59.05
279.245	134.82
279.461	30.38
279.676	38.57
279.892	48.81
280.107	-18.77
280.322	61.1
280.538	-16.73
280.753	32.43
280.969	54.95
281.184	11.95
281.399	11.95
281.615	34.47
281.83	20.14
282.045	-88.4
282.26	40.62
282.476	93.87
282.691	-35.16
282.906	-0.34
283.122	1.71
283.337	13.99
283.552	48.81
283.767	9.9
283.983	71.34
284.198	89.77
284.413	63.15
284.628	1.71
284.843	38.57
285.058	9.9
285.274	63.15
285.489	83.63
285.704	-18.77
285.919	54.95
286.134	26.28
286.349	20.14
286.564	40.62
286.779	20.14
286.995	50.86
287.21	63.15
287.425	83.63
287.64	30.38
287.855	42.67
288.07	40.62
288.285	36.52
288.5	71.34
288.715	34.47
288.93	16.04
289.145	-6.49
289.36	102.06
289.575	22.19
289.79	106.15
290.004	18.09
290.219	44.71
290.434	97.96
290.649	30.38
290.864	83.63
291.079	36.52
291.294	100.01
291.509	57
291.724	54.95
291.938	-47.44
292.153	-6.49
292.368	57
292.583	75.43
292.798	69.29
293.012	59.05
293.227	46.76
293.442	65.19
293.657	91.82
293.871	118.44
294.086	30.38
294.301	59.05
294.516	85.67
294.73	69.29
294.945	50.86
295.16	104.11
295.374	-0.34
295.589	73.39
295.804	69.29
296.018	36.52
296.233	69.29
296.447	40.62
296.662	89.77
296.877	44.71
297.091	57
297.306	61.1
297.52	-6.49
297.735	87.72
297.949	48.81
298.164	54.95
298.378	-2.39
298.593	75.43
298.807	5.8
299.022	-6.49
299.236	69.29
299.451	40.62
299.665	-10.58
299.88	108.2
300.094	44.71
300.309	-47.44
300.523	44.71
300.737	50.86
300.952	48.81
301.166	22.19
301.381	7.85
301.595	-31.06
301.809	34.47
302.024	77.48
302.238	46.76
302.452	91.82
302.667	36.52
302.881	38.57
303.095	63.15
303.309	54.95
303.524	36.52
303.738	42.67
303.952	-0.34
304.166	54.95
304.381	24.23
304.595	46.76
304.809	13.99
305.023	13.99
305.237	71.34
305.452	-20.82
305.666	42.67
305.88	50.86
306.094	48.81
306.308	36.52
306.522	54.95
306.736	22.19
306.95	57
307.164	71.34
307.379	52.91
307.593	44.71
307.807	9.9
308.021	132.78
308.235	69.29
308.449	-14.68
308.663	48.81
308.877	42.67
309.091	79.53
309.305	63.15
309.519	9.9
309.733	67.24
309.947	59.05
310.161	102.06
310.374	36.52
310.588	145.06
310.802	59.05
311.016	5.8
311.23	73.39
311.444	57
311.658	26.28
311.872	40.62
312.085	20.14
312.299	20.14
312.513	42.67
312.727	77.48
312.941	28.33
313.154	85.67
313.368	22.19
313.582	36.52
313.796	110.25
314.009	85.67
314.223	87.72
314.437	5.8
314.651	30.38
314.864	44.71
315.078	63.15
315.292	32.43
315.505	24.23
315.719	54.95
315.933	-55.64
316.146	59.05
316.36	75.43
316.573	104.11
316.787	18.09
317.001	42.67
317.214	-6.49
317.428	28.33
317.641	28.33
317.855	46.76
318.068	54.95
318.282	79.53
318.495	9.9
318.709	83.63
318.922	42.67
319.136	11.95
319.349	106.15
319.563	20.14
319.776	91.82
319.99	20.14
320.203	63.15
320.417	-16.73
320.63	34.47
320.843	104.11
321.057	28.33
321.27	83.63
321.483	1.71
321.697	16.04
321.91	34.47
322.124	126.63
322.337	63.15
322.55	36.52
322.763	3.75
322.977	71.34
323.19	75.43
323.403	50.86
323.617	52.91
323.83	22.19
324.043	63.15
324.256	48.81
324.469	102.06
324.683	69.29
324.896	42.67
325.109	-16.73
325.322	20.14
325.535	108.2
325.748	48.81
325.962	11.95
326.175	-10.58
326.388	40.62
326.601	83.63
326.814	44.71
327.027	26.28
327.24	-4.44
327.453	-29.01
327.666	85.67
327.879	91.82
328.092	93.87
328.305	-16.73
328.518	11.95
328.731	102.06
328.944	42.67
329.157	24.23
329.37	112.3
329.583	57
329.796	104.11
330.009	102.06
330.222	54.95
330.435	52.91
330.648	83.63
330.861	100.01
331.073	59.05
331.286	42.67
331.499	28.33
331.712	-18.77
331.925	57
332.138	16.04
332.35	93.87
332.563	42.67
332.776	48.81
332.989	48.81
333.202	1.71
333.414	59.05
333.627	52.91
333.84	16.04
334.053	118.44
334.265	44.71
334.478	44.71
334.691	106.15
334.903	24.23
335.116	69.29
335.329	28.33
335.541	3.75
335.754	95.91
335.966	71.34
336.179	-2.39
336.392	97.96
336.604	-12.63
336.817	89.77
337.029	-29.01
337.242	71.34
337.454	36.52
337.667	50.86
337.88	32.43
338.092	69.29
338.305	50.86
338.517	1.71
338.729	50.86
338.942	112.3
339.154	22.19
339.367	69.29
339.579	50.86
339.792	28.33
340.004	22.19
340.217	36.52
340.429	34.47
340.641	22.19
340.854	34.47
341.066	54.95
341.278	32.43
341.491	81.58
341.703	18.09
341.915	50.86
342.128	81.58
342.34	71.34
342.552	38.57
342.764	38.57
342.977	50.86
343.189	65.19
343.401	42.67
343.613	40.62
343.826	69.29
344.038	38.57
344.25	97.96
344.462	71.34
344.674	93.87
344.886	79.53
345.099	5.8
345.311	42.67
345.523	36.52
345.735	75.43
345.947	28.33
346.159	69.29
346.371	42.67
346.583	65.19
346.795	79.53
347.007	9.9
347.219	22.19
347.431	48.81
347.643	52.91
347.855	13.99
348.067	95.91
348.279	7.85
348.491	79.53
348.703	46.76
348.915	63.15
349.127	63.15
349.339	75.43
349.551	63.15
349.763	75.43
349.975	100.01
350.187	-4.44
350.399	54.95
350.61	5.8
350.822	65.19
351.034	52.91
351.246	93.87
351.458	85.67
351.669	120.49
351.881	5.8
352.093	36.52
352.305	48.81
352.517	50.86
352.728	134.82
352.94	1.71
353.152	59.05
353.363	-12.63
353.575	95.91
353.787	110.25
353.999	-6.49
354.21	97.96
354.422	132.78
354.633	-12.63
354.845	18.09
355.057	44.71
355.268	-47.44
355.48	67.24
355.692	-35.16
355.903	71.34
356.115	112.3
356.326	26.28
356.538	85.67
356.749	5.8
356.961	85.67
357.172	22.19
357.384	59.05
357.595	61.1
357.807	118.44
358.018	-61.78
358.23	50.86
358.441	116.39
358.653	128.68
358.864	104.11
359.075	38.57
359.287	42.67
359.498	83.63
359.709	61.1
359.921	108.2
360.132	91.82
360.344	108.2
360.555	36.52
360.766	42.67
360.977	71.34
361.189	75.43
361.4	3.75
361.611	77.48
361.823	26.28
362.034	100.01
362.245	77.48
362.456	77.48
362.667	26.28
362.879	24.23
363.09	-2.39
363.301	65.19
363.512	36.52
363.723	57
363.935	11.95
364.146	59.05
364.357	54.95
364.568	71.34
364.779	77.48
364.99	134.82
365.201	42.67
365.412	44.71
365.623	63.15
365.834	71.34
366.045	34.47
366.256	44.71
366.467	57
366.678	93.87
366.889	9.9
367.1	-4.44
367.311	40.62
367.522	52.91
367.733	13.99
367.944	75.43
368.155	79.53
368.366	59.05
368.577	91.82
368.788	126.63
368.999	54.95
369.209	40.62
369.42	143.02
369.631	104.11
369.842	69.29
370.053	52.91
370.264	-14.68
370.474	36.52
370.685	-26.96
370.896	34.47
371.107	48.81
371.317	108.2
371.528	46.76
371.739	77.48
371.95	77.48
372.16	110.25
372.371	46.76
372.582	63.15
372.792	104.11
373.003	16.04
373.214	110.25
373.424	30.38
373.635	67.24
373.846	126.63
374.056	18.09
374.267	106.15
374.477	79.53
374.688	83.63
374.898	81.58
375.109	67.24
375.319	63.15
375.53	91.82
375.74	46.76
375.951	122.54
376.161	61.1
376.372	71.34
376.582	34.47
376.793	143.02
377.003	50.86
377.214	-20.82
377.424	16.04
377.635	59.05
377.845	40.62
378.055	28.33
378.266	5.8
378.476	116.39
378.686	100.01
378.897	114.34
379.107	83.63
379.317	116.39
379.528	-2.39
379.738	132.78
379.948	73.39
380.158	61.1
380.369	91.82
380.579	81.58
380.789	59.05
380.999	5.8
381.21	63.15
381.42	81.58
381.63	110.25
381.84	38.57
382.05	34.47
382.261	81.58
382.471	24.23
382.681	-10.58
382.891	32.43
383.101	118.44
383.311	40.62
383.521	89.77
383.731	38.57
383.941	28.33
384.151	75.43
384.361	63.15
384.571	48.81
384.781	108.2
384.991	91.82
385.201	143.02
385.411	36.52
385.621	-10.58
385.831	71.34
386.041	32.43
386.251	5.8
386.461	114.34
386.671	42.67
386.881	91.82
387.091	95.91
387.301	175.78
387.511	11.95
387.72	54.95
387.93	124.58
388.14	63.15
388.35	97.96
388.56	122.54
388.769	71.34
388.979	52.91
389.189	38.57
389.399	106.15
389.609	112.3
389.818	124.58
390.028	50.86
390.238	30.38
390.447	145.06
390.657	50.86
390.867	48.81
391.076	97.96
391.286	130.73
391.496	126.63
391.705	63.15
391.915	145.06
392.125	69.29
392.334	83.63
392.544	9.9
392.753	83.63
392.963	83.63
393.172	-2.39
393.382	52.91
393.591	120.49
393.801	67.24
394.01	155.3
394.22	77.48
394.429	190.12
394.639	87.72
394.848	112.3
395.058	65.19
395.267	126.63
395.477	71.34
395.686	169.64
395.895	163.5
396.105	104.11
396.314	114.34
396.524	52.91
396.733	54.95
396.942	116.39
397.152	126.63
397.361	194.22
397.57	100.01
397.78	112.3
397.989	102.06
398.198	163.5
398.407	112.3
398.617	145.06
398.826	61.1
399.035	124.58
399.244	192.17
399.453	124.58
399.663	167.59
399.872	179.88
400.081	93.87
400.29	126.63
400.499	116.39
400.708	79.53
400.917	20.14
401.127	93.87
401.336	147.11
401.545	132.78
401.754	190.12
401.963	91.82
402.172	175.78
402.381	85.67
402.59	124.58
402.799	202.41
403.008	126.63
403.217	155.3
403.426	89.77
403.635	149.16
403.844	171.69
404.053	87.72
404.262	169.64
404.471	194.22
404.68	212.65
404.888	235.18
405.097	173.74
405.306	224.94
405.515	210.6
405.724	194.22
405.933	157.35
406.142	233.13
406.35	198.31
406.559	177.83
406.768	208.55
406.977	167.59
407.185	159.4
407.394	239.27
407.603	198.31
407.812	286.37
408.02	235.18
408.229	216.74
408.438	210.6
408.646	298.66
408.855	257.7
409.064	386.72
409.272	249.51
409.481	356.01
409.69	339.62
409.898	286.37
410.107	298.66
410.315	327.33
410.524	364.2
410.733	370.34
410.941	388.77
411.15	394.92
411.358	394.92
411.567	386.72
411.775	439.97
411.984	376.48
412.192	482.98
412.401	515.75
412.609	493.22
412.818	620.19
413.026	528.03
413.234	550.56
413.443	618.15
413.651	591.52
413.86	599.71
414.068	646.82
414.276	573.09
414.485	642.72
414.693	693.92
414.901	657.06
415.11	788.13
415.318	722.59
415.526	814.75
415.734	722.59
415.943	896.67
416.151	824.99
416.359	796.32
416.567	949.92
416.776	962.2
416.984	1066.65
417.192	1105.56
417.4	1035.93
417.608	1050.27
417.817	1185.43
418.025	1136.28
418.233	1246.87
418.441	1377.94
418.649	1293.97
418.857	1314.45
419.065	1373.85
419.273	1365.65
419.481	1390.23
419.689	1564.31
419.897	1703.57
420.105	1554.07
420.313	1650.32
420.521	1703.57
420.729	1695.38
420.937	1693.33
421.145	1805.97
421.353	1922.7
421.561	2152.07
421.769	2037.39
421.977	2045.58
422.185	2205.32
422.393	2305.67
422.601	2397.83
422.809	2428.55
423.017	2389.64
423.224	2408.07
423.432	2678.4
423.64	2567.81
423.848	2881.15
424.056	2762.37
424.263	3055.23
424.471	3036.8
424.679	3061.37
424.887	3182.2
425.094	3223.16
425.302	3370.62
425.51	3501.69
425.718	3554.93
425.925	3628.66
426.133	3679.86
426.341	3952.24
426.548	4161.13
426.756	4152.94
426.964	4163.18
427.171	4345.45
427.379	4507.24
427.586	4597.35
427.794	4836.96
428.001	4986.46
428.209	5215.84
428.417	5133.92
428.624	5412.44
428.832	5320.28
429.039	5473.88
429.247	5563.99
429.454	6057.55
429.662	6229.58
429.869	6000.21
430.076	6311.5
430.284	6268.49
430.491	6534.73
430.699	6815.3
430.906	6688.32
431.114	7095.87
431.321	7202.36
431.528	7290.43
431.736	7931.44
431.943	8322.6
432.15	7906.87
432.358	7996.98
432.565	8345.13
432.772	8336.94
432.979	8912.42
433.187	8939.04
433.394	8949.28
433.601	9530.91
433.808	9547.29
434.016	9707.03
434.223	9881.11
434.43	10413.58
434.637	10511.88
434.844	11208.19
435.052	11109.89
435.259	11109.89
435.466	11357.69
435.673	11087.36
435.88	12039.67
436.087	12355.05
436.294	12477.93
436.501	12332.53
436.708	12645.87
436.915	12840.42
437.122	13600.22
437.329	13311.46
437.537	13968.85
437.743	14005.72
437.95	14132.69
438.157	14790.09
438.364	15115.72
438.571	15007.17
438.778	15361.47
438.985	16754.09
439.192	16225.72
439.399	16543.15
439.606	16010.68
439.813	17163.68
440.02	18259.35
440.227	17943.96
440.433	17862.04
440.64	18386.32
440.847	18165.14
441.054	18544.02
441.261	19864.96
441.467	19510.66
441.674	20020.6
441.881	20942.19
442.088	20419.96
442.294	20497.78
442.501	21189.99
442.708	21370.21
442.914	22486.36
443.121	23453
443.328	22758.74
443.534	24362.29
443.741	23682.37
443.948	23262.54
444.154	24980.78
444.361	24655.15
444.568	25118
444.774	25154.86
444.981	25560.36
445.187	26375.45
445.394	27583.75
445.6	26678.55
445.807	29678.82
446.013	28144.89
446.22	28339.45
446.426	29877.47
446.633	29996.26
446.839	31110.35
447.046	29873.38
447.252	31700.17
447.459	31407.31
447.665	31362.25
447.871	33017.01
448.078	34270.37
448.284	32470.2
448.491	33660.07
448.697	35120.27
448.903	35445.9
449.11	35628.17
449.316	34974.87
449.522	35794.06
449.728	36676.73
449.935	37160.05
450.141	37358.7
450.347	37272.69
450.553	36291.71
450.76	37209.2
450.966	38550.62
451.172	37518.45
451.378	38544.48
451.584	37917.8
451.791	38902.87
451.997	38370.4
452.203	39842.89
452.409	39871.56
452.615	39427.15
452.821	38147.17
453.027	37358.7
453.233	39185.49
453.44	37911.66
453.646	38261.86
453.852	38526.05
454.058	38843.48
454.264	37819.5
454.47	38673.5
454.676	37850.22
454.882	38923.35
455.088	35640.46
455.294	36433.02
455.5	36861.05
455.705	37108.85
455.911	35765.38
456.117	34692.25
456.323	34722.97
456.529	33049.78
456.735	34022.56
456.941	33291.44
457.147	32767.16
457.352	31935.68
457.558	31360.2
457.764	31407.31
457.97	30938.32
458.176	30321.88
458.381	30235.87
458.587	28790
458.793	28837.11
458.999	27192.59
459.204	29168.88
459.41	28431.61
459.616	26455.32
459.821	26762.51
460.027	26537.24
460.233	25865.5
460.438	24909.1
460.644	25191.72
460.85	24022.33
461.055	23317.83
461.261	23133.51
461.466	21669.22
461.672	21017.96
461.878	22834.51
462.083	20995.43
462.289	20774.25
462.494	20682.1
462.7	19606.91
462.905	18875.79
463.111	19527.04
463.316	19668.35
463.522	19103.11
463.727	19500.42
463.932	19258.76
464.138	19158.41
464.343	19252.61
464.549	18599.31
464.754	19135.88
464.959	19213.7
465.165	18818.44
465.37	18312.6
465.575	17634.72
465.781	18451.86
465.986	18572.69
466.191	17884.57
466.397	17563.04
466.602	16539.05
466.807	17225.12
467.012	17393.06
467.218	17229.22
467.423	16876.97
