Data from USB4F104151__1__11-36-14-513.txt Node

Date: Fri Mar 14 11:36:14 EDT 2025
User: louis
Spectrometer: USB4F10415
Trigger mode: 4
Integration Time (sec): 2.000000E-2
Scans to average: 1
Electric dark correction enabled: true
Nonlinearity correction enabled: false
Boxcar width: 0
XAxis mode: Wavelengths
Number of Pixels in Spectrum: 3648
>>>>>Begin Spectral Data<<<<<
178.204	-59.73
178.424	-59.73
178.644	-59.73
178.864	-14.68
179.084	-57.68
179.304	-12.63
179.524	16.04
179.744	13.99
179.964	22.19
180.184	-43.35
180.404	5.8
180.624	13.99
180.844	52.91
181.064	-12.63
181.283	-35.16
181.503	5.8
181.723	-26.96
181.943	-24.92
182.163	54.95
182.383	24.23
182.602	85.67
182.822	26.28
183.042	-37.2
183.262	-33.11
183.482	-47.44
183.701	83.63
183.921	20.14
184.141	3.75
184.361	-4.44
184.58	-2.39
184.8	-35.16
185.02	9.9
185.239	48.81
185.459	-6.49
185.679	28.33
185.898	26.28
186.118	54.95
186.338	81.58
186.557	106.15
186.777	13.99
186.997	13.99
187.216	24.23
187.436	13.99
187.655	13.99
187.875	40.62
188.095	9.9
188.314	46.76
188.534	-6.49
188.753	-8.53
188.973	79.53
189.192	-14.68
189.412	87.72
189.631	85.67
189.851	36.52
190.07	87.72
190.29	18.09
190.509	-8.53
190.729	30.38
190.948	128.68
191.168	75.43
191.387	11.95
191.607	-61.78
191.826	9.9
192.045	87.72
192.265	57
192.484	52.91
192.704	65.19
192.923	18.09
193.142	18.09
193.362	65.19
193.581	16.04
193.8	18.09
194.02	-8.53
194.239	-14.68
194.458	42.67
194.678	-6.49
194.897	5.8
195.116	22.19
195.335	26.28
195.555	50.86
195.774	28.33
195.993	-45.4
196.212	26.28
196.432	-123.22
196.651	18.09
196.87	-31.06
197.089	100.01
197.308	59.05
197.528	91.82
197.747	7.85
197.966	20.14
198.185	24.23
198.404	-0.34
198.623	95.91
198.842	48.81
199.062	59.05
199.281	50.86
199.5	-22.87
199.719	83.63
199.938	13.99
200.157	11.95
200.376	28.33
200.595	26.28
200.814	11.95
201.033	26.28
201.252	36.52
201.471	52.91
201.69	57
201.909	75.43
202.128	-6.49
202.347	22.19
202.566	-18.77
202.785	-10.58
203.004	16.04
203.223	159.4
203.442	-14.68
203.661	30.38
203.879	95.91
204.098	44.71
204.317	-47.44
204.536	46.76
204.755	97.96
204.974	34.47
205.193	85.67
205.411	73.39
205.63	85.67
205.849	38.57
206.068	-2.39
206.287	-20.82
206.505	83.63
206.724	-45.4
206.943	-24.92
207.162	44.71
207.381	77.48
207.599	50.86
207.818	-18.77
208.037	57
208.255	9.9
208.474	38.57
208.693	83.63
208.911	93.87
209.13	73.39
209.349	28.33
209.567	38.57
209.786	1.71
210.005	48.81
210.223	5.8
210.442	71.34
210.661	30.38
210.879	7.85
211.098	5.8
211.316	73.39
211.535	42.67
211.753	-6.49
211.972	85.67
212.191	67.24
212.409	54.95
212.628	-31.06
212.846	34.47
213.065	61.1
213.283	79.53
213.502	-2.39
213.72	1.71
213.938	-18.77
214.157	18.09
214.375	-20.82
214.594	20.14
214.812	34.47
215.031	75.43
215.249	18.09
215.467	75.43
215.686	-14.68
215.904	63.15
216.122	-14.68
216.341	87.72
216.559	-63.83
216.778	57
216.996	30.38
217.214	32.43
217.432	52.91
217.651	22.19
217.869	57
218.087	1.71
218.306	-33.11
218.524	9.9
218.742	42.67
218.96	52.91
219.179	-22.87
219.397	26.28
219.615	67.24
219.833	28.33
220.051	-37.2
220.27	59.05
220.488	7.85
220.706	-10.58
220.924	-22.87
221.142	34.47
221.36	-16.73
221.578	22.19
221.796	-4.44
222.015	46.76
222.233	-12.63
222.451	50.86
222.669	36.52
222.887	48.81
223.105	50.86
223.323	-18.77
223.541	-16.73
223.759	-6.49
223.977	50.86
224.195	97.96
224.413	38.57
224.631	100.01
224.849	-26.96
225.067	36.52
225.285	18.09
225.503	26.28
225.721	44.71
225.939	28.33
226.157	75.43
226.375	59.05
226.592	24.23
226.81	13.99
227.028	36.52
227.246	32.43
227.464	-10.58
227.682	11.95
227.9	57
228.117	18.09
228.335	67.24
228.553	-10.58
228.771	18.09
228.989	100.01
229.206	5.8
229.424	28.33
229.642	-0.34
229.86	-10.58
230.077	20.14
230.295	5.8
230.513	85.67
230.731	77.48
230.948	73.39
231.166	3.75
231.384	40.62
231.601	50.86
231.819	81.58
232.037	18.09
232.254	18.09
232.472	46.76
232.689	32.43
232.907	71.34
233.125	20.14
233.342	24.23
233.56	48.81
233.777	54.95
233.995	30.38
234.213	83.63
234.43	-6.49
234.648	63.15
234.865	40.62
235.083	5.8
235.3	13.99
235.518	118.44
235.735	5.8
235.953	59.05
236.17	77.48
236.388	85.67
236.605	18.09
236.822	61.1
237.04	61.1
237.257	67.24
237.475	1.71
237.692	57
237.909	26.28
238.127	65.19
238.344	42.67
238.562	71.34
238.779	7.85
238.996	26.28
239.214	-51.54
239.431	-18.77
239.648	61.1
239.865	24.23
240.083	40.62
240.3	-43.35
240.517	22.19
240.735	18.09
240.952	46.76
241.169	93.87
241.386	30.38
241.603	5.8
241.821	54.95
242.038	93.87
242.255	67.24
242.472	16.04
242.689	83.63
242.907	108.2
243.124	20.14
243.341	-2.39
243.558	16.04
243.775	22.19
243.992	-10.58
244.209	42.67
244.426	28.33
244.643	79.53
244.86	40.62
245.078	7.85
245.295	48.81
245.512	30.38
245.729	9.9
245.946	42.67
246.163	106.15
246.38	36.52
246.597	1.71
246.814	30.38
247.031	34.47
247.248	38.57
247.464	-49.49
247.681	34.47
247.898	-31.06
248.115	46.76
248.332	22.19
248.549	-12.63
248.766	26.28
248.983	155.3
249.2	63.15
249.417	89.77
249.633	65.19
249.85	7.85
250.067	22.19
250.284	81.58
250.501	-22.87
250.717	89.77
250.934	-10.58
251.151	13.99
251.368	79.53
251.585	34.47
251.801	79.53
252.018	50.86
252.235	75.43
252.451	38.57
252.668	61.1
252.885	32.43
253.102	40.62
253.318	75.43
253.535	40.62
253.752	-55.64
253.968	-8.53
254.185	71.34
254.401	34.47
254.618	73.39
254.835	63.15
255.051	13.99
255.268	7.85
255.484	36.52
255.701	18.09
255.917	52.91
256.134	100.01
256.351	57
256.567	-31.06
256.784	9.9
257	20.14
257.217	24.23
257.433	5.8
257.65	67.24
257.866	100.01
258.082	5.8
258.299	-8.53
258.515	-24.92
258.732	1.71
258.948	52.91
259.165	93.87
259.381	30.38
259.597	9.9
259.814	59.05
260.03	59.05
260.246	-8.53
260.463	44.71
260.679	-22.87
260.895	48.81
261.112	42.67
261.328	22.19
261.544	89.77
261.761	46.76
261.977	-18.77
262.193	-8.53
262.409	-26.96
262.626	3.75
262.842	42.67
263.058	-33.11
263.274	42.67
263.49	26.28
263.707	7.85
263.923	75.43
264.139	-90.45
264.355	-29.01
264.571	38.57
264.787	-51.54
265.004	9.9
265.22	59.05
265.436	7.85
265.652	-26.96
265.868	79.53
266.084	1.71
266.3	9.9
266.516	3.75
266.732	83.63
266.948	9.9
267.164	40.62
267.38	28.33
267.596	83.63
267.812	40.62
268.028	44.71
268.244	44.71
268.46	-10.58
268.676	-22.87
268.892	65.19
269.108	-33.11
269.324	18.09
269.54	-10.58
269.756	40.62
269.972	-6.49
270.188	13.99
270.403	48.81
270.619	46.76
270.835	28.33
271.051	69.29
271.267	50.86
271.483	-0.34
271.698	-39.25
271.914	30.38
272.13	59.05
272.346	75.43
272.562	46.76
272.777	59.05
272.993	26.28
273.209	63.15
273.425	-8.53
273.64	-20.82
273.856	13.99
274.072	13.99
274.287	-14.68
274.503	63.15
274.719	5.8
274.934	48.81
275.15	1.71
275.366	-45.4
275.581	-2.39
275.797	18.09
276.012	40.62
276.228	26.28
276.444	-26.96
276.659	52.91
276.875	-4.44
277.09	-43.35
277.306	73.39
277.521	83.63
277.737	3.75
277.952	-14.68
278.168	5.8
278.383	77.48
278.599	-31.06
278.814	7.85
279.03	52.91
279.245	81.58
279.461	-53.59
279.676	1.71
279.892	57
280.107	24.23
280.322	13.99
280.538	75.43
280.753	-8.53
280.969	46.76
281.184	71.34
281.399	65.19
281.615	1.71
281.83	26.28
282.045	50.86
282.26	34.47
282.476	22.19
282.691	69.29
282.906	81.58
283.122	81.58
283.337	-0.34
283.552	151.21
283.767	67.24
283.983	81.58
284.198	20.14
284.413	24.23
284.628	-6.49
284.843	-14.68
285.058	-47.44
285.274	-6.49
285.489	9.9
285.704	77.48
285.919	42.67
286.134	-16.73
286.349	26.28
286.564	71.34
286.779	116.39
286.995	-6.49
287.21	22.19
287.425	30.38
287.64	18.09
287.855	48.81
288.07	-20.82
288.285	48.81
288.5	34.47
288.715	73.39
288.93	26.28
289.145	54.95
289.36	24.23
289.575	-26.96
289.79	52.91
290.004	11.95
290.219	40.62
290.434	1.71
290.649	30.38
290.864	93.87
291.079	95.91
291.294	44.71
291.509	69.29
291.724	30.38
291.938	30.38
292.153	42.67
292.368	30.38
292.583	91.82
292.798	73.39
293.012	122.54
293.227	71.34
293.442	50.86
293.657	44.71
293.871	73.39
294.086	71.34
294.301	1.71
294.516	40.62
294.73	11.95
294.945	-16.73
295.16	-4.44
295.374	18.09
295.589	9.9
295.804	57
296.018	48.81
296.233	85.67
296.447	28.33
296.662	61.1
296.877	87.72
297.091	18.09
297.306	-16.73
297.52	-49.49
297.735	42.67
297.949	24.23
298.164	57
298.378	-67.92
298.593	-14.68
298.807	16.04
299.022	57
299.236	50.86
299.451	32.43
299.665	-33.11
299.88	-10.58
300.094	18.09
300.309	36.52
300.523	1.71
300.737	61.1
300.952	22.19
301.166	73.39
301.381	9.9
301.595	85.67
301.809	-39.25
302.024	91.82
302.238	54.95
302.452	124.58
302.667	-39.25
302.881	102.06
303.095	100.01
303.309	-6.49
303.524	1.71
303.738	-41.3
303.952	46.76
304.166	75.43
304.381	18.09
304.595	71.34
304.809	65.19
305.023	5.8
305.237	1.71
305.452	85.67
305.666	57
305.88	83.63
306.094	46.76
306.308	13.99
306.522	18.09
306.736	106.15
306.95	44.71
307.164	28.33
307.379	30.38
307.593	36.52
307.807	57
308.021	40.62
308.235	-20.82
308.449	48.81
308.663	9.9
308.877	85.67
309.091	40.62
309.305	65.19
309.519	9.9
309.733	87.72
309.947	-2.39
310.161	108.2
310.374	-0.34
310.588	18.09
310.802	-80.21
311.016	11.95
311.23	42.67
311.444	18.09
311.658	42.67
311.872	85.67
312.085	30.38
312.299	65.19
312.513	73.39
312.727	57
312.941	-18.77
313.154	46.76
313.368	44.71
313.582	11.95
313.796	-10.58
314.009	44.71
314.223	-2.39
314.437	59.05
314.651	93.87
314.864	22.19
315.078	54.95
315.292	-41.3
315.505	71.34
315.719	50.86
315.933	-12.63
316.146	-53.59
316.36	11.95
316.573	48.81
316.787	128.68
317.001	36.52
317.214	24.23
317.428	124.58
317.641	-0.34
317.855	38.57
318.068	-22.87
318.282	42.67
318.495	91.82
318.709	42.67
318.922	50.86
319.136	71.34
319.349	-31.06
319.563	-14.68
319.776	102.06
319.99	26.28
320.203	89.77
320.417	18.09
320.63	-2.39
320.843	1.71
321.057	63.15
321.27	24.23
321.483	-8.53
321.697	-74.07
321.91	77.48
322.124	65.19
322.337	26.28
322.55	24.23
322.763	75.43
322.977	73.39
323.19	81.58
323.403	44.71
323.617	9.9
323.83	67.24
324.043	-6.49
324.256	1.71
324.469	18.09
324.683	61.1
324.896	40.62
325.109	50.86
325.322	75.43
325.535	85.67
325.748	73.39
325.962	18.09
326.175	26.28
326.388	95.91
326.601	-65.88
326.814	44.71
327.027	-4.44
327.24	124.58
327.453	-18.77
327.666	3.75
327.879	-2.39
328.092	59.05
328.305	18.09
328.518	-8.53
328.731	44.71
328.944	-14.68
329.157	-31.06
329.37	-43.35
329.583	136.87
329.796	61.1
330.009	61.1
330.222	81.58
330.435	73.39
330.648	63.15
330.861	54.95
331.073	36.52
331.286	83.63
331.499	100.01
331.712	-2.39
331.925	54.95
332.138	75.43
332.35	81.58
332.563	42.67
332.776	52.91
332.989	73.39
333.202	71.34
333.414	28.33
333.627	-22.87
333.84	73.39
334.053	108.2
334.265	50.86
334.478	91.82
334.691	59.05
334.903	36.52
335.116	-16.73
335.329	48.81
335.541	59.05
335.754	61.1
335.966	59.05
336.179	46.76
336.392	5.8
336.604	32.43
336.817	108.2
337.029	54.95
337.242	-0.34
337.454	46.76
337.667	57
337.88	126.63
338.092	85.67
338.305	69.29
338.517	18.09
338.729	79.53
338.942	48.81
339.154	-10.58
339.367	44.71
339.579	71.34
339.792	50.86
340.004	118.44
340.217	128.68
340.429	63.15
340.641	-14.68
340.854	81.58
341.066	73.39
341.278	52.91
341.491	18.09
341.703	13.99
341.915	63.15
342.128	67.24
342.34	5.8
342.552	46.76
342.764	-6.49
342.977	-10.58
343.189	93.87
343.401	97.96
343.613	83.63
343.826	65.19
344.038	155.3
344.25	30.38
344.462	34.47
344.674	63.15
344.886	-0.34
345.099	73.39
345.311	28.33
345.523	30.38
345.735	38.57
345.947	18.09
346.159	81.58
346.371	93.87
346.583	93.87
346.795	40.62
347.007	-2.39
347.219	79.53
347.431	7.85
347.643	87.72
347.855	3.75
348.067	-18.77
348.279	-2.39
348.491	-0.34
348.703	34.47
348.915	71.34
349.127	42.67
349.339	91.82
349.551	-55.64
349.763	73.39
349.975	11.95
350.187	124.58
350.399	9.9
350.61	18.09
350.822	59.05
351.034	79.53
351.246	5.8
351.458	63.15
351.669	22.19
351.881	-20.82
352.093	22.19
352.305	79.53
352.517	114.34
352.728	50.86
352.94	13.99
353.152	26.28
353.363	69.29
353.575	18.09
353.787	83.63
353.999	42.67
354.21	71.34
354.422	85.67
354.633	-6.49
354.845	-37.2
355.057	44.71
355.268	79.53
355.48	-0.34
355.692	-8.53
355.903	48.81
356.115	-6.49
356.326	-35.16
356.538	102.06
356.749	59.05
356.961	100.01
357.172	114.34
357.384	54.95
357.595	79.53
357.807	9.9
358.018	18.09
358.23	46.76
358.441	75.43
358.653	120.49
358.864	24.23
359.075	-26.96
359.287	91.82
359.498	83.63
359.709	46.76
359.921	79.53
360.132	-53.59
360.344	3.75
360.555	3.75
360.766	67.24
360.977	34.47
361.189	67.24
361.4	30.38
361.611	40.62
361.823	28.33
362.034	-0.34
362.245	-37.2
362.456	46.76
362.667	95.91
362.879	167.59
363.09	22.19
363.301	46.76
363.512	7.85
363.723	32.43
363.935	-0.34
364.146	48.81
364.357	48.81
364.568	44.71
364.779	30.38
364.99	18.09
365.201	-2.39
365.412	30.38
365.623	-6.49
365.834	57
366.045	46.76
366.256	73.39
366.467	30.38
366.678	34.47
366.889	-18.77
367.1	63.15
367.311	57
367.522	30.38
367.733	79.53
367.944	40.62
368.155	34.47
368.366	44.71
368.577	32.43
368.788	50.86
368.999	-8.53
369.209	26.28
369.42	18.09
369.631	79.53
369.842	100.01
370.053	34.47
370.264	63.15
370.474	59.05
370.685	46.76
370.896	26.28
371.107	71.34
371.317	116.39
371.528	26.28
371.739	54.95
371.95	67.24
372.16	100.01
372.371	32.43
372.582	-0.34
372.792	114.34
373.003	22.19
373.214	-6.49
373.424	75.43
373.635	73.39
373.846	18.09
374.056	-2.39
374.267	48.81
374.477	7.85
374.688	100.01
374.898	-8.53
375.109	40.62
375.319	42.67
375.53	112.3
375.74	36.52
375.951	59.05
376.161	16.04
376.372	28.33
376.582	44.71
376.793	46.76
377.003	13.99
377.214	38.57
377.424	71.34
377.635	-4.44
377.845	50.86
378.055	32.43
378.266	-6.49
378.476	42.67
378.686	13.99
378.897	18.09
379.107	36.52
379.317	42.67
379.528	24.23
379.738	73.39
379.948	-14.68
380.158	65.19
380.369	1.71
380.579	91.82
380.789	28.33
380.999	1.71
381.21	42.67
381.42	93.87
381.63	87.72
381.84	32.43
382.05	83.63
382.261	73.39
382.471	100.01
382.681	44.71
382.891	67.24
383.101	87.72
383.311	28.33
383.521	-22.87
383.731	40.62
383.941	57
384.151	73.39
384.361	50.86
384.571	87.72
384.781	52.91
384.991	73.39
385.201	143.02
385.411	1.71
385.621	118.44
385.831	106.15
386.041	20.14
386.251	26.28
386.461	18.09
386.671	-0.34
386.881	108.2
387.091	89.77
387.301	91.82
387.511	69.29
387.72	1.71
387.93	26.28
388.14	108.2
388.35	36.52
388.56	79.53
388.769	7.85
388.979	30.38
389.189	-2.39
389.399	54.95
389.609	5.8
389.818	106.15
390.028	57
390.238	57
390.447	7.85
390.657	69.29
390.867	59.05
391.076	34.47
391.286	-24.92
391.496	-6.49
391.705	59.05
391.915	85.67
392.125	104.11
392.334	91.82
392.544	34.47
392.753	57
392.963	16.04
393.172	91.82
393.382	67.24
393.591	59.05
393.801	32.43
394.01	118.44
394.22	42.67
394.429	-8.53
394.639	46.76
394.848	1.71
395.058	42.67
395.267	75.43
395.477	63.15
395.686	57
395.895	140.97
396.105	136.87
396.314	26.28
396.524	87.72
396.733	114.34
396.942	116.39
397.152	122.54
397.361	91.82
397.57	83.63
397.78	112.3
397.989	147.11
398.198	59.05
398.407	108.2
398.617	32.43
398.826	18.09
399.035	-55.64
399.244	130.73
399.453	71.34
399.663	32.43
399.872	91.82
400.081	38.57
400.29	93.87
400.499	77.48
400.708	63.15
400.917	13.99
401.127	50.86
401.336	28.33
401.545	134.82
401.754	102.06
401.963	91.82
402.172	24.23
402.381	108.2
402.59	65.19
402.799	79.53
403.008	75.43
403.217	102.06
403.426	83.63
403.635	102.06
403.844	63.15
404.053	145.06
404.262	132.78
404.471	210.6
404.68	147.11
404.888	87.72
405.097	85.67
405.306	128.68
405.515	104.11
405.724	77.48
405.933	128.68
406.142	91.82
406.35	134.82
406.559	124.58
406.768	153.26
406.977	130.73
407.185	157.35
407.394	128.68
407.603	210.6
407.812	173.74
408.02	87.72
408.229	181.93
408.438	194.22
408.646	196.26
408.855	243.37
409.064	261.8
409.272	161.45
409.481	257.7
409.69	198.31
409.898	179.88
410.107	202.41
410.315	265.89
410.524	214.7
410.733	226.98
410.941	278.18
411.15	239.27
411.358	353.96
411.567	292.52
411.775	319.14
411.984	321.19
412.192	353.96
412.401	386.72
412.609	378.53
412.818	349.86
413.026	376.48
413.234	366.25
413.443	380.58
413.651	491.17
413.86	396.96
414.068	419.49
414.276	466.6
414.485	478.88
414.693	460.45
414.901	499.36
415.11	525.99
415.318	525.99
415.526	609.95
415.734	630.43
415.943	558.75
416.151	665.25
416.359	669.34
416.567	671.39
416.776	646.82
416.984	640.67
417.192	743.07
417.4	718.5
417.608	702.11
417.817	767.65
418.025	808.61
418.233	927.39
418.441	833.18
418.649	837.28
418.857	970.4
419.065	984.73
419.273	878.24
419.481	988.83
419.689	1123.99
419.897	1048.22
420.105	1048.22
420.313	1085.08
420.521	1146.52
420.729	1189.53
420.937	1287.83
421.145	1396.37
421.353	1353.37
421.561	1361.56
421.769	1410.71
421.977	1439.38
422.185	1402.52
422.393	1662.61
422.601	1767.06
422.809	1570.45
423.017	1681.04
423.224	1726.1
423.432	1869.45
423.64	1918.61
423.848	1998.48
424.056	1894.03
424.263	2180.75
424.471	2186.89
424.679	2160.27
424.887	2303.62
425.094	2352.77
425.302	2334.34
425.51	2393.73
425.718	2549.38
425.925	2469.51
426.133	2662.02
426.341	2803.33
426.548	2897.53
426.756	2844.29
426.964	2825.86
427.171	2991.74
427.379	3167.87
427.586	3176.06
427.794	3270.26
428.001	3526.26
428.209	3657.33
428.417	3571.32
428.624	3833.46
428.832	3851.89
429.039	3909.23
429.247	3929.71
429.454	4134.51
429.662	4437.61
429.869	4210.28
430.076	4474.47
430.284	4476.52
430.491	4472.42
430.699	4720.23
430.906	4683.36
431.114	4847.2
431.321	4931.17
431.528	5197.4
431.736	5430.87
431.943	5690.96
432.15	5492.31
432.358	5584.47
432.565	5840.47
432.772	5836.37
432.979	6170.19
433.187	6229.58
433.394	6350.41
433.601	6864.45
433.808	6776.39
434.016	6827.59
434.223	6897.22
434.43	7372.35
434.637	7323.19
434.844	7599.67
435.052	7751.22
435.259	7833.14
435.466	7935.54
435.673	7716.4
435.88	8379.95
436.087	8914.47
436.294	8975.91
436.501	8476.2
436.708	8820.26
436.915	8902.18
437.122	9668.12
437.329	9528.86
437.537	9913.88
437.743	9780.76
437.95	9709.08
438.157	10599.94
438.364	10632.71
438.571	10636.81
438.778	10806.79
438.985	11957.75
439.192	11204.1
439.399	11648.5
439.606	11349.5
439.813	11722.23
440.02	12793.32
440.227	12527.08
440.433	12332.53
440.64	12840.42
440.847	12762.6
441.054	13293.02
441.261	13813.21
441.467	13907.41
441.674	14007.76
441.881	14493.13
442.088	14366.16
442.294	14425.55
442.501	14882.25
442.708	14853.58
442.914	15607.23
443.121	16209.33
443.328	15930.81
443.534	16805.29
443.741	16367.02
443.948	16115.12
444.154	17382.82
444.361	17376.67
444.568	17794.46
444.774	17370.53
444.981	17751.45
445.187	18193.81
445.394	18939.27
445.6	18619.79
445.807	20340.08
446.013	19522.94
446.22	19697.02
446.426	20845.93
446.633	20784.49
446.839	21751.13
447.046	20807.02
447.252	21865.82
447.459	21792.09
447.665	21718.37
447.871	22607.19
448.078	23688.51
448.284	22564.18
448.491	23002.44
448.697	23985.47
448.903	24350.01
449.11	24651.06
449.316	24112.44
449.522	24403.25
449.728	25079.08
449.935	25419.05
450.141	25314.6
450.347	26058.01
450.553	25101.61
450.76	25513.25
450.966	26258.71
451.172	26006.81
451.378	26629.4
451.584	26025.25
451.791	26850.58
451.997	26883.34
452.203	27159.82
452.409	27247.88
452.615	27008.27
452.821	25855.26
453.027	25838.88
453.233	26944.78
453.44	25707.81
453.646	26260.76
453.852	26320.15
454.058	26991.89
454.264	25816.35
454.47	26508.57
454.676	25543.97
454.882	26543.38
455.088	24417.59
455.294	24919.34
455.5	25029.93
455.705	25523.49
455.911	24374.58
456.117	24012.09
456.323	23430.47
456.529	22318.42
456.735	23582.02
456.941	22738.26
457.147	22361.43
457.352	21523.81
457.558	21284.2
457.764	21427.56
457.97	21146.98
458.176	20655.47
458.381	20657.52
458.587	19436.93
458.793	19621.25
458.999	18894.22
459.204	19875.2
459.41	19424.64
459.616	18036.12
459.821	17968.54
460.027	18036.12
460.233	17679.77
460.438	16706.99
460.644	16836.01
460.85	16039.35
461.055	15932.86
461.261	16074.17
461.466	14476.75
461.672	14136.79
461.878	15271.36
462.083	14302.67
462.289	13819.35
462.494	14013.91
462.7	13207.01
462.905	12875.24
463.111	13319.65
463.316	13374.94
463.522	13301.22
463.727	12975.59
463.932	13346.27
464.138	13006.31
464.343	12840.42
464.549	12414.45
464.754	13077.99
464.959	13108.71
465.165	12821.99
465.37	12187.12
465.575	11924.98
465.781	12619.24
465.986	12580.33
466.191	12090.87
466.397	11804.15
466.602	11204.1
466.807	11865.59
467.012	11738.62
467.218	11648.5
467.423	11683.32
467.628	11648.5
467.833	12228.08
468.038	11343.36
468.244	11181.57
468.449	11718.14
468.654	11232.77
468.859	11255.29
