Data from USB4F104151__7__11-36-20-834.txt Node

Date: Fri Mar 14 11:36:20 EDT 2025
User: louis
Spectrometer: USB4F10415
Trigger mode: 4
Integration Time (sec): 2.000000E-2
Scans to average: 1
Electric dark correction enabled: true
Nonlinearity correction enabled: false
Boxcar width: 0
XAxis mode: Wavelengths
Number of Pixels in Spectrum: 3648
>>>>>Begin Spectral Data<<<<<
178.204	-81.58
178.424	-81.58
178.644	-81.58
178.864	-71.34
179.084	-104.11
179.304	2.39
179.524	-61.1
179.744	51.54
179.964	14.68
180.184	-3.75
180.404	10.58
180.624	-5.8
180.844	35.16
181.064	-52.91
181.283	53.59
181.503	-9.9
181.723	-34.47
181.943	10.58
182.163	63.83
182.383	14.68
182.602	0.34
182.822	59.73
183.042	20.82
183.262	18.77
183.482	37.2
183.701	37.2
183.921	47.44
184.141	-38.57
184.361	65.88
184.58	88.4
184.8	0.34
185.02	100.69
185.239	49.49
185.459	143.7
185.679	14.68
185.898	45.4
186.118	61.78
186.338	10.58
186.557	39.25
186.777	37.2
186.997	-20.14
187.216	-18.09
187.436	69.97
187.655	-40.62
187.875	94.55
188.095	51.54
188.314	59.73
188.534	-3.75
188.753	-20.14
188.973	4.44
189.192	55.64
189.412	14.68
189.631	14.68
189.851	63.83
190.07	119.12
190.29	51.54
190.509	26.96
190.729	10.58
190.948	16.73
191.168	119.12
191.387	72.02
191.607	31.06
191.826	47.44
192.045	26.96
192.265	8.53
192.484	57.68
192.704	-18.09
192.923	16.73
193.142	51.54
193.362	-34.47
193.581	65.88
193.8	39.25
194.02	41.3
194.239	26.96
194.458	61.78
194.678	14.68
194.897	-18.09
195.116	-7.85
195.335	72.02
195.555	59.73
195.774	72.02
195.993	-9.9
196.212	82.26
196.432	-52.91
196.651	26.96
196.87	16.73
197.089	16.73
197.308	-1.71
197.528	-1.71
197.747	65.88
197.966	-13.99
198.185	53.59
198.404	86.36
198.623	-34.47
198.842	-42.67
199.062	53.59
199.281	98.64
199.5	31.06
199.719	-5.8
199.938	65.88
200.157	76.12
200.376	31.06
200.595	20.82
200.814	6.49
201.033	12.63
201.252	8.53
201.471	35.16
201.69	76.12
201.909	-34.47
202.128	26.96
202.347	-13.99
202.566	4.44
202.785	24.92
203.004	26.96
203.223	51.54
203.442	53.59
203.661	72.02
203.879	-9.9
204.098	67.92
204.317	6.49
204.536	86.36
204.755	24.92
204.974	49.49
205.193	10.58
205.411	74.07
205.63	-13.99
205.849	100.69
206.068	24.92
206.287	-9.9
206.505	115.03
206.724	61.78
206.943	94.55
207.162	45.4
207.381	61.78
207.599	-24.23
207.818	86.36
208.037	86.36
208.255	43.35
208.474	18.77
208.693	20.82
208.911	-3.75
209.13	63.83
209.349	10.58
209.567	37.2
209.786	29.01
210.005	33.11
210.223	47.44
210.442	-22.19
210.661	-9.9
210.879	-9.9
211.098	67.92
211.316	35.16
211.535	39.25
211.753	-61.1
211.972	22.87
212.191	4.44
212.409	-11.95
212.628	65.88
212.846	0.34
213.065	33.11
213.283	31.06
213.502	47.44
213.72	20.82
213.938	4.44
214.157	82.26
214.375	29.01
214.594	20.82
214.812	39.25
215.031	24.92
215.249	18.77
215.467	-28.33
215.686	4.44
215.904	31.06
216.122	43.35
216.341	65.88
216.559	39.25
216.778	76.12
216.996	39.25
217.214	47.44
217.432	-1.71
217.651	-34.47
217.869	22.87
218.087	8.53
218.306	100.69
218.524	61.78
218.742	65.88
218.96	26.96
219.179	49.49
219.397	88.4
219.615	69.97
219.833	16.73
220.051	-42.67
220.27	-3.75
220.488	26.96
220.706	35.16
220.924	-1.71
221.142	12.63
221.36	2.39
221.578	26.96
221.796	22.87
222.015	12.63
222.233	-38.57
222.451	59.73
222.669	37.2
222.887	86.36
223.105	51.54
223.323	29.01
223.541	29.01
223.759	20.82
223.977	43.35
224.195	80.21
224.413	6.49
224.631	61.78
224.849	-13.99
225.067	47.44
225.285	8.53
225.503	39.25
225.721	-30.38
225.939	-32.43
226.157	29.01
226.375	104.79
226.592	22.87
226.81	55.64
227.028	51.54
227.246	53.59
227.464	43.35
227.682	63.83
227.9	14.68
228.117	61.78
228.335	26.96
228.553	-9.9
228.771	2.39
228.989	26.96
229.206	41.3
229.424	-3.75
229.642	29.01
229.86	47.44
230.077	102.74
230.295	102.74
230.513	47.44
230.731	90.45
230.948	29.01
231.166	43.35
231.384	98.64
231.601	31.06
231.819	74.07
232.037	20.82
232.254	-3.75
232.472	33.11
232.689	51.54
232.907	51.54
233.125	-3.75
233.342	24.92
233.56	-13.99
233.777	-24.23
233.995	59.73
234.213	37.2
234.43	94.55
234.648	84.31
234.865	6.49
235.083	59.73
235.3	-34.47
235.518	82.26
235.735	98.64
235.953	51.54
236.17	10.58
236.388	-5.8
236.605	84.31
236.822	-48.81
237.04	55.64
237.257	92.5
237.475	-3.75
237.692	16.73
237.909	59.73
238.127	94.55
238.344	2.39
238.562	67.92
238.779	31.06
238.996	0.34
239.214	26.96
239.431	145.75
239.648	-16.04
239.865	49.49
240.083	47.44
240.3	18.77
240.517	61.78
240.735	-11.95
240.952	117.08
241.169	39.25
241.386	29.01
241.603	31.06
241.821	20.82
242.038	43.35
242.255	6.49
242.472	12.63
242.689	55.64
242.907	20.82
243.124	61.78
243.341	47.44
243.558	14.68
243.775	57.68
243.992	6.49
244.209	20.82
244.426	115.03
244.643	14.68
244.86	29.01
245.078	-1.71
245.295	72.02
245.512	45.4
245.729	65.88
245.946	63.83
246.163	22.87
246.38	-28.33
246.597	-3.75
246.814	2.39
247.031	115.03
247.248	51.54
247.464	47.44
247.681	92.5
247.898	-26.28
248.115	18.77
248.332	43.35
248.549	43.35
248.766	43.35
248.983	6.49
249.2	29.01
249.417	88.4
249.633	82.26
249.85	53.59
250.067	43.35
250.284	119.12
250.501	12.63
250.717	31.06
250.934	-28.33
251.151	88.4
251.368	6.49
251.585	74.07
251.801	-61.1
252.018	12.63
252.235	86.36
252.451	-38.57
252.668	0.34
252.885	43.35
253.102	43.35
253.318	55.64
253.535	51.54
253.752	88.4
253.968	67.92
254.185	-13.99
254.401	80.21
254.618	69.97
254.835	14.68
255.051	92.5
255.268	102.74
255.484	49.49
255.701	22.87
255.917	22.87
256.134	8.53
256.351	12.63
256.567	78.16
256.784	37.2
257	35.16
257.217	63.83
257.433	33.11
257.65	18.77
257.866	51.54
258.082	-38.57
258.299	-9.9
258.515	104.79
258.732	41.3
258.948	-5.8
259.165	-48.81
259.381	20.82
259.597	59.73
259.814	16.73
260.03	80.21
260.246	63.83
260.463	69.97
260.679	6.49
260.895	-9.9
261.112	59.73
261.328	31.06
261.544	-34.47
261.761	65.88
261.977	33.11
262.193	-18.09
262.409	80.21
262.626	94.55
262.842	22.87
263.058	47.44
263.274	49.49
263.49	14.68
263.707	12.63
263.923	16.73
264.139	65.88
264.355	22.87
264.571	65.88
264.787	145.75
265.004	61.78
265.22	22.87
265.436	-44.71
265.652	37.2
265.868	-30.38
266.084	29.01
266.3	47.44
266.516	10.58
266.732	2.39
266.948	37.2
267.164	35.16
267.38	2.39
267.596	-7.85
267.812	37.2
268.028	37.2
268.244	-24.23
268.46	88.4
268.676	37.2
268.892	26.96
269.108	45.4
269.324	63.83
269.54	-28.33
269.756	20.82
269.972	31.06
270.188	-13.99
270.403	94.55
270.619	12.63
270.835	-5.8
271.051	10.58
271.267	-7.85
271.483	92.5
271.698	-26.28
271.914	76.12
272.13	-1.71
272.346	31.06
272.562	16.73
272.777	69.97
272.993	53.59
273.209	35.16
273.425	26.96
273.64	69.97
273.856	-24.23
274.072	4.44
274.287	-26.28
274.503	104.79
274.719	-3.75
274.934	61.78
275.15	-32.43
275.366	145.75
275.581	37.2
275.797	4.44
276.012	20.82
276.228	-32.43
276.444	-28.33
276.659	129.36
276.875	26.96
277.09	10.58
277.306	-1.71
277.521	67.92
277.737	14.68
277.952	14.68
278.168	65.88
278.383	59.73
278.599	-67.24
278.814	82.26
279.03	8.53
279.245	145.75
279.461	76.12
279.676	96.6
279.892	-7.85
280.107	35.16
280.322	45.4
280.538	22.87
280.753	-52.91
280.969	31.06
281.184	45.4
281.399	8.53
281.615	-18.09
281.83	123.22
282.045	-57
282.26	39.25
282.476	6.49
282.691	6.49
282.906	14.68
283.122	43.35
283.337	47.44
283.552	-18.09
283.767	2.39
283.983	-40.62
284.198	14.68
284.413	-20.14
284.628	35.16
284.843	59.73
285.058	72.02
285.274	43.35
285.489	22.87
285.704	80.21
285.919	43.35
286.134	-7.85
286.349	41.3
286.564	-40.62
286.779	43.35
286.995	104.79
287.21	26.96
287.425	31.06
287.64	14.68
287.855	35.16
288.07	-18.09
288.285	29.01
288.5	35.16
288.715	47.44
288.93	37.2
289.145	47.44
289.36	29.01
289.575	20.82
289.79	6.49
290.004	29.01
290.219	29.01
290.434	29.01
290.649	69.97
290.864	51.54
291.079	94.55
291.294	-9.9
291.509	18.77
291.724	47.44
291.938	51.54
292.153	-18.09
292.368	51.54
292.583	67.92
292.798	88.4
293.012	43.35
293.227	-11.95
293.442	18.77
293.657	16.73
293.871	-18.09
294.086	33.11
294.301	37.2
294.516	98.64
294.73	102.74
294.945	69.97
295.16	-44.71
295.374	67.92
295.589	4.44
295.804	-44.71
296.018	39.25
296.233	47.44
296.447	45.4
296.662	47.44
296.877	65.88
297.091	55.64
297.306	47.44
297.52	-1.71
297.735	22.87
297.949	45.4
298.164	86.36
298.378	-16.04
298.593	12.63
298.807	39.25
299.022	76.12
299.236	69.97
299.451	53.59
299.665	12.63
299.88	119.12
300.094	45.4
300.309	14.68
300.523	43.35
300.737	72.02
300.952	112.98
301.166	96.6
301.381	-13.99
301.595	47.44
301.809	31.06
302.024	-7.85
302.238	20.82
302.452	6.49
302.667	35.16
302.881	51.54
303.095	45.4
303.309	94.55
303.524	-3.75
303.738	39.25
303.952	29.01
304.166	12.63
304.381	10.58
304.595	76.12
304.809	-52.91
305.023	63.83
305.237	-5.8
305.452	22.87
305.666	67.92
305.88	41.3
306.094	4.44
306.308	88.4
306.522	102.74
306.736	18.77
306.95	96.6
307.164	55.64
307.379	12.63
307.593	63.83
307.807	51.54
308.021	24.92
308.235	-34.47
308.449	37.2
308.663	37.2
308.877	92.5
309.091	55.64
309.305	45.4
309.519	76.12
309.733	63.83
309.947	90.45
310.161	119.12
310.374	0.34
310.588	84.31
310.802	78.16
311.016	20.82
311.23	41.3
311.444	-67.24
311.658	47.44
311.872	98.64
312.085	92.5
312.299	100.69
312.513	26.96
312.727	31.06
312.941	49.49
313.154	129.36
313.368	-22.19
313.582	10.58
313.796	74.07
314.009	55.64
314.223	55.64
314.437	57.68
314.651	-3.75
314.864	14.68
315.078	4.44
315.292	88.4
315.505	53.59
315.719	53.59
315.933	55.64
316.146	82.26
316.36	16.73
316.573	112.98
316.787	-5.8
317.001	115.03
317.214	2.39
317.428	12.63
317.641	115.03
317.855	37.2
318.068	90.45
318.282	-1.71
318.495	0.34
318.709	8.53
318.922	55.64
319.136	72.02
319.349	39.25
319.563	2.39
319.776	106.84
319.99	65.88
320.203	35.16
320.417	24.92
320.63	8.53
320.843	67.92
321.057	-16.04
321.27	14.68
321.483	80.21
321.697	-1.71
321.91	67.92
322.124	96.6
322.337	59.73
322.55	47.44
322.763	61.78
322.977	55.64
323.19	59.73
323.403	88.4
323.617	-11.95
323.83	110.93
324.043	59.73
324.256	65.88
324.469	59.73
324.683	119.12
324.896	-9.9
325.109	69.97
325.322	-40.62
325.535	8.53
325.748	61.78
325.962	-30.38
326.175	22.87
326.388	6.49
326.601	35.16
326.814	6.49
327.027	47.44
327.24	61.78
327.453	94.55
327.666	94.55
327.879	33.11
328.092	96.6
328.305	106.84
328.518	8.53
328.731	45.4
328.944	16.73
329.157	98.64
329.37	84.31
329.583	94.55
329.796	31.06
330.009	-5.8
330.222	67.92
330.435	53.59
330.648	-5.8
330.861	-18.09
331.073	84.31
331.286	-5.8
331.499	84.31
331.712	-7.85
331.925	31.06
332.138	82.26
332.35	63.83
332.563	-28.33
332.776	37.2
332.989	-5.8
333.202	67.92
333.414	-3.75
333.627	-26.28
333.84	104.79
334.053	26.96
334.265	92.5
334.478	121.17
334.691	98.64
334.903	74.07
335.116	45.4
335.329	26.96
335.541	-16.04
335.754	-11.95
335.966	33.11
336.179	78.16
336.392	16.73
336.604	115.03
336.817	33.11
337.029	8.53
337.242	-46.76
337.454	35.16
337.667	86.36
337.88	86.36
338.092	-11.95
338.305	92.5
338.517	24.92
338.729	45.4
338.942	45.4
339.154	31.06
339.367	22.87
339.579	35.16
339.792	16.73
340.004	39.25
340.217	84.31
340.429	63.83
340.641	26.96
340.854	39.25
341.066	90.45
341.278	90.45
341.491	78.16
341.703	80.21
341.915	69.97
342.128	45.4
342.34	88.4
342.552	47.44
342.764	76.12
342.977	-42.67
343.189	-50.86
343.401	90.45
343.613	-20.14
343.826	29.01
344.038	51.54
344.25	76.12
344.462	88.4
344.674	10.58
344.886	22.87
345.099	45.4
345.311	31.06
345.523	33.11
345.735	35.16
345.947	72.02
346.159	31.06
346.371	18.77
346.583	43.35
346.795	43.35
347.007	35.16
347.219	69.97
347.431	31.06
347.643	12.63
347.855	59.73
348.067	115.03
348.279	24.92
348.491	31.06
348.703	57.68
348.915	133.46
349.127	67.92
349.339	61.78
349.551	78.16
349.763	63.83
349.975	88.4
350.187	12.63
350.399	104.79
350.61	31.06
350.822	22.87
351.034	20.82
351.246	57.68
351.458	80.21
351.669	10.58
351.881	63.83
352.093	94.55
352.305	112.98
352.517	63.83
352.728	55.64
352.94	82.26
353.152	76.12
353.363	6.49
353.575	84.31
353.787	43.35
353.999	76.12
354.21	92.5
354.422	6.49
354.633	-7.85
354.845	59.73
355.057	31.06
355.268	22.87
355.48	6.49
355.692	55.64
355.903	43.35
356.115	37.2
356.326	6.49
356.538	72.02
356.749	-59.05
356.961	57.68
357.172	14.68
357.384	22.87
357.595	69.97
357.807	63.83
358.018	45.4
358.23	49.49
358.441	112.98
358.653	94.55
358.864	55.64
359.075	24.92
359.287	139.6
359.498	63.83
359.709	69.97
359.921	37.2
360.132	26.96
360.344	22.87
360.555	29.01
360.766	45.4
360.977	45.4
361.189	55.64
361.4	55.64
361.611	102.74
361.823	94.55
362.034	-7.85
362.245	45.4
362.456	127.32
362.667	92.5
362.879	-16.04
363.09	47.44
363.301	29.01
363.512	117.08
363.723	61.78
363.935	51.54
364.146	55.64
364.357	-22.19
364.568	67.92
364.779	26.96
364.99	45.4
365.201	125.27
365.412	96.6
365.623	39.25
365.834	63.83
366.045	96.6
366.256	59.73
366.467	86.36
366.678	20.82
366.889	-11.95
367.1	69.97
367.311	-1.71
367.522	76.12
367.733	90.45
367.944	69.97
368.155	82.26
368.366	18.77
368.577	51.54
368.788	69.97
368.999	-26.28
369.209	53.59
369.42	39.25
369.631	84.31
369.842	16.73
370.053	8.53
370.264	92.5
370.474	39.25
370.685	43.35
370.896	49.49
371.107	67.92
371.317	33.11
371.528	47.44
371.739	80.21
371.95	45.4
372.16	100.69
372.371	29.01
372.582	98.64
372.792	6.49
373.003	74.07
373.214	61.78
373.424	-40.62
373.635	8.53
373.846	63.83
374.056	57.68
374.267	80.21
374.477	90.45
374.688	78.16
374.898	49.49
375.109	57.68
375.319	78.16
375.53	88.4
375.74	31.06
375.951	16.73
376.161	-24.23
376.372	65.88
376.582	35.16
376.793	57.68
377.003	63.83
377.214	26.96
377.424	0.34
377.635	55.64
377.845	-26.28
378.055	84.31
378.266	6.49
378.476	14.68
378.686	39.25
378.897	4.44
379.107	117.08
379.317	72.02
379.528	63.83
379.738	20.82
379.948	37.2
380.158	33.11
380.369	76.12
380.579	47.44
380.789	37.2
380.999	53.59
381.21	53.59
381.42	94.55
381.63	39.25
381.84	141.65
382.05	-26.28
382.261	55.64
382.471	69.97
382.681	43.35
382.891	108.88
383.101	160.08
383.311	43.35
383.521	14.68
383.731	51.54
383.941	59.73
384.151	49.49
384.361	86.36
384.571	-11.95
384.781	26.96
384.991	125.27
385.201	117.08
385.411	129.36
385.621	86.36
385.831	61.78
386.041	78.16
386.251	26.96
386.461	100.69
386.671	102.74
386.881	125.27
387.091	26.96
387.301	57.68
387.511	49.49
387.72	22.87
387.93	112.98
388.14	47.44
388.35	51.54
388.56	80.21
388.769	63.83
388.979	98.64
389.189	-1.71
389.399	127.32
389.609	33.11
389.818	20.82
390.028	117.08
390.238	104.79
390.447	69.97
390.657	96.6
390.867	63.83
391.076	74.07
391.286	26.96
391.496	53.59
391.705	12.63
391.915	74.07
392.125	92.5
392.334	51.54
392.544	65.88
392.753	80.21
392.963	33.11
393.172	102.74
393.382	125.27
393.591	139.6
393.801	104.79
394.01	67.92
394.22	63.83
394.429	55.64
394.639	164.18
394.848	86.36
395.058	100.69
395.267	106.84
395.477	53.59
395.686	63.83
395.895	74.07
396.105	158.03
396.314	2.39
396.524	123.22
396.733	45.4
396.942	100.69
397.152	137.56
397.361	139.6
397.57	53.59
397.78	151.89
397.989	104.79
398.198	129.36
398.407	69.97
398.617	88.4
398.826	137.56
399.035	149.84
399.244	127.32
399.453	115.03
399.663	96.6
399.872	125.27
400.081	33.11
400.29	158.03
400.499	129.36
400.708	203.09
400.917	104.79
401.127	186.71
401.336	86.36
401.545	127.32
401.754	67.92
401.963	178.51
402.172	84.31
402.381	98.64
402.59	219.47
402.799	164.18
403.008	145.75
403.217	59.73
403.426	188.75
403.635	108.88
403.844	69.97
404.053	137.56
404.262	121.17
404.471	182.61
404.68	123.22
404.888	207.19
405.097	96.6
405.306	221.52
405.515	178.51
405.724	143.7
405.933	121.17
406.142	178.51
406.35	174.42
406.559	186.71
406.768	194.9
406.977	219.47
407.185	201.04
407.394	229.71
407.603	133.46
407.812	213.33
408.02	274.77
408.229	227.67
408.438	246.1
408.646	305.49
408.855	260.43
409.064	264.53
409.272	321.87
409.481	254.29
409.69	180.56
409.898	330.06
410.107	332.11
410.315	313.68
410.524	338.26
410.733	377.17
410.941	346.45
411.15	338.26
411.358	432.46
411.567	391.5
411.775	424.27
411.984	420.17
412.192	471.37
412.401	530.77
412.609	473.42
412.818	487.76
413.026	545.1
413.234	524.62
413.443	547.15
413.651	530.77
413.86	624.97
414.068	643.4
414.276	653.64
414.485	678.22
414.693	706.89
414.901	741.71
415.11	706.89
415.318	680.27
415.526	717.13
415.734	741.71
415.943	799.05
416.151	813.38
416.359	891.21
416.567	780.62
416.776	932.17
416.984	1005.89
417.192	1016.13
417.4	1009.99
417.608	1044.81
417.817	1118.53
418.025	1085.76
418.233	1169.73
418.441	1128.77
418.649	1218.88
418.857	1263.94
419.065	1323.33
419.273	1257.79
419.481	1390.91
419.689	1415.49
419.897	1501.5
420.105	1456.45
420.313	1544.51
420.521	1616.19
420.729	1608
420.937	1605.95
421.145	1796.41
421.353	1886.52
421.561	1939.77
421.769	2042.17
421.977	2111.8
422.185	2038.07
422.393	2296.11
422.601	2326.83
422.809	2267.44
423.017	2289.97
423.224	2322.74
423.432	2502.96
423.64	2537.77
423.848	2773.29
424.056	2707.76
424.263	2890.03
424.471	2830.63
424.679	2982.18
424.887	3115.3
425.094	3150.12
425.302	3221.8
425.51	3391.78
425.718	3178.79
425.925	3402.02
426.133	3594.53
426.341	3871
426.548	4004.12
426.756	4092.18
426.964	4061.46
427.171	4182.29
427.379	4296.98
427.586	4374.8
427.794	4641.04
428.001	4739.34
428.209	5042.44
428.417	4899.08
428.624	5191.94
428.832	5290.24
429.039	5122.31
429.247	5175.56
429.454	5716.22
429.662	6242.55
429.869	5632.26
430.076	6093.05
430.284	6031.61
430.491	6228.21
430.699	6523.12
430.906	6598.9
431.114	6805.74
431.321	6783.21
431.528	7192.81
431.736	7579.87
431.943	7782.62
432.15	7467.24
432.358	7631.07
432.565	7954.65
432.772	8081.63
432.979	8542.42
433.187	8480.98
433.394	8534.23
433.601	9328.84
433.808	9031.88
434.016	9216.2
434.223	9738.43
434.43	10176.7
434.637	10176.7
434.844	10754.23
435.052	10758.32
435.259	10836.14
435.466	11045.04
435.673	10848.43
435.88	11538.6
436.087	12050.59
436.294	12077.21
436.501	11831.46
436.708	12155.04
436.915	12368.02
437.122	13015.18
437.329	13072.53
437.537	13449.35
437.743	13553.8
437.95	13537.41
438.157	14235.77
438.364	14710.9
438.571	14604.41
438.778	14839.92
438.985	16142.43
439.192	15513.7
439.399	16115.81
439.606	15716.45
439.813	16652.38
440.02	17535.05
440.227	17188.94
440.433	17037.39
440.64	17780.81
440.847	17743.94
441.054	18083.91
441.261	19247.15
441.467	18788.41
441.674	19220.53
441.881	20185.12
442.088	20011.04
442.294	19652.65
442.501	20428.83
442.708	20594.72
442.914	21532.68
443.121	22501.37
443.328	21934.09
443.534	23246.83
443.741	22761.47
443.948	22685.69
444.154	24211.43
444.361	23797.74
444.568	24221.67
444.774	24575.97
444.981	24438.75
445.187	25176.02
445.394	26281.92
445.6	25747.4
445.807	28379.04
446.013	27244.47
446.22	27547.57
446.426	28796.83
446.633	28981.15
446.839	30156.68
447.046	28850.08
447.252	30371.72
447.459	30513.03
447.665	30480.26
447.871	31793.01
448.078	33085.28
448.284	31706.99
448.491	32259.95
448.697	33742.67
448.903	34262.86
449.11	34156.36
449.316	33576.79
449.522	34131.79
449.728	35229.5
449.935	35612.47
450.141	35548.98
450.347	36003.63
450.553	35295.03
450.76	35780.4
450.966	36874.02
451.172	36517.67
451.378	37349.15
451.584	36351.79
451.791	37627.67
451.997	37580.57
452.203	38323.98
452.409	38264.59
452.615	37863.19
452.821	36394.79
453.027	36071.21
453.233	38227.73
453.44	36489
453.646	37084.96
453.852	36978.47
454.058	37580.57
454.264	36722.47
454.47	37510.94
454.676	36247.34
454.882	37386.01
455.088	34352.97
455.294	34721.6
455.5	35159.87
455.705	35438.39
455.911	34232.14
456.117	33883.98
456.323	33279.83
456.529	31010.68
456.735	33083.23
456.941	31965.04
457.147	31317.88
457.352	30392.2
457.558	30216.07
457.764	30248.84
457.97	29761.42
458.176	29274.01
458.381	29294.49
458.587	27959.21
458.793	27604.91
458.999	26320.84
459.204	28274.6
459.41	27254.71
459.616	25429.97
459.821	25278.42
460.027	25296.85
460.233	24846.3
460.438	23822.31
460.644	23678.96
460.85	22751.23
461.055	22421.5
461.261	22499.33
461.466	20824.09
461.672	20101.15
461.878	21768.2
462.083	20095.01
462.289	19863.59
462.494	19617.83
462.7	18606.14
462.905	18268.22
463.111	18661.43
463.316	18935.86
463.522	18331.71
463.727	18745.4
463.932	18524.22
464.138	18184.26
464.343	18329.66
464.549	17545.29
464.754	18391.1
464.959	18395.2
465.165	18196.54
465.37	17252.43
465.575	17037.39
465.781	17391.69
465.986	17778.76
466.191	16767.06
466.397	16734.29
466.602	15947.87
466.807	16431.19
467.012	16541.78
467.218	16384.09
467.423	16164.96
467.628	16347.23
467.833	17080.4
468.038	16230.49
