Data from USB4F104151__100__11-38-02-436.txt Node

Date: Fri Mar 14 11:38:02 EDT 2025
User: louis
Spectrometer: USB4F10415
Trigger mode: 4
Integration Time (sec): 2.000000E-2
Scans to average: 1
Electric dark correction enabled: true
Nonlinearity correction enabled: false
Boxcar width: 0
XAxis mode: Wavelengths
Number of Pixels in Spectrum: 3648
>>>>>Begin Spectral Data<<<<<
178.204	-30.04
178.424	-30.04
178.644	-30.04
178.864	-48.47
179.084	-34.13
179.304	27.31
179.524	-36.18
179.744	-36.18
179.964	-25.94
180.184	51.88
180.404	-11.61
180.624	58.03
180.844	-34.13
181.064	-79.19
181.283	55.98
181.503	12.97
181.723	17.07
181.943	-9.56
182.163	47.79
182.383	23.21
182.602	-5.46
182.822	-21.85
183.042	-27.99
183.262	4.78
183.482	27.31
183.701	37.55
183.921	21.16
184.141	25.26
184.361	49.83
184.58	-13.65
184.8	-15.7
185.02	23.21
185.239	-19.8
185.459	-30.04
185.679	45.74
185.898	33.45
186.118	66.22
186.338	19.11
186.557	-5.46
186.777	45.74
186.997	39.59
187.216	-30.04
187.436	2.73
187.655	107.18
187.875	19.11
188.095	45.74
188.314	29.35
188.534	-3.41
188.753	35.5
188.973	53.93
189.192	31.4
189.412	29.35
189.631	6.83
189.851	62.12
190.07	58.03
190.29	51.88
190.509	10.92
190.729	43.69
190.948	-1.37
191.168	90.79
191.387	8.87
191.607	17.07
191.826	55.98
192.045	-11.61
192.265	31.4
192.484	-21.85
192.704	66.22
192.923	23.21
193.142	35.5
193.362	-3.41
193.581	17.07
193.8	-66.9
194.02	25.26
194.239	66.22
194.458	-15.7
194.678	-32.08
194.897	35.5
195.116	-9.56
195.335	6.83
195.555	41.64
195.774	66.22
195.993	37.55
196.212	6.83
196.432	-3.41
196.651	-25.94
196.87	-36.18
197.089	-36.18
197.308	-3.41
197.528	6.83
197.747	49.83
197.966	8.87
198.185	25.26
198.404	29.35
198.623	8.87
198.842	70.31
199.062	39.59
199.281	66.22
199.5	86.7
199.719	72.36
199.938	39.59
200.157	137.9
200.376	27.31
200.595	10.92
200.814	31.4
201.033	21.16
201.252	58.03
201.471	29.35
201.69	-11.61
201.909	64.17
202.128	33.45
202.347	35.5
202.566	-17.75
202.785	0.68
203.004	27.31
203.223	94.89
203.442	60.07
203.661	82.6
203.879	64.17
204.098	66.22
204.317	31.4
204.536	78.51
204.755	2.73
204.974	53.93
205.193	43.69
205.411	6.83
205.63	53.93
205.849	8.87
206.068	51.88
206.287	94.89
206.505	92.84
206.724	23.21
206.943	45.74
207.162	-30.04
207.381	39.59
207.599	43.69
207.818	15.02
208.037	-32.08
208.255	88.75
208.474	37.55
208.693	78.51
208.911	25.26
209.13	17.07
209.349	-21.85
209.567	12.97
209.786	58.03
210.005	60.07
210.223	82.6
210.442	8.87
210.661	70.31
210.879	6.83
211.098	103.08
211.316	12.97
211.535	49.83
211.753	-25.94
211.972	-11.61
212.191	10.92
212.409	29.35
212.628	-40.28
212.846	-21.85
213.065	31.4
213.283	33.45
213.502	10.92
213.72	-13.65
213.938	-21.85
214.157	-13.65
214.375	53.93
214.594	64.17
214.812	90.79
215.031	-23.89
215.249	-7.51
215.467	-3.41
215.686	74.41
215.904	49.83
216.122	45.74
216.341	17.07
216.559	19.11
216.778	105.13
216.996	55.98
217.214	15.02
217.432	-44.37
217.651	19.11
217.869	-21.85
218.087	47.79
218.306	29.35
218.524	49.83
218.742	-9.56
218.96	-32.08
219.179	29.35
219.397	-9.56
219.615	62.12
219.833	98.99
220.051	-5.46
220.27	17.07
220.488	72.36
220.706	43.69
220.924	66.22
221.142	84.65
221.36	29.35
221.578	43.69
221.796	8.87
222.015	41.64
222.233	8.87
222.451	41.64
222.669	-15.7
222.887	-46.42
223.105	-13.65
223.323	45.74
223.541	-58.71
223.759	17.07
223.977	39.59
224.195	8.87
224.413	39.59
224.631	-3.41
224.849	2.73
225.067	-3.41
225.285	17.07
225.503	37.55
225.721	-25.94
225.939	0.68
226.157	-32.08
226.375	60.07
226.592	4.78
226.81	51.88
227.028	82.6
227.246	-3.41
227.464	21.16
227.682	70.31
227.9	-11.61
228.117	39.59
228.335	10.92
228.553	-9.56
228.771	49.83
228.989	6.83
229.206	21.16
229.424	31.4
229.642	-60.76
229.86	49.83
230.077	94.89
230.295	12.97
230.513	29.35
230.731	2.73
230.948	25.26
231.166	-9.56
231.384	12.97
231.601	-15.7
231.819	12.97
232.037	135.85
232.254	-3.41
232.472	-3.41
232.689	12.97
232.907	29.35
233.125	2.73
233.342	47.79
233.56	27.31
233.777	-11.61
233.995	6.83
234.213	62.12
234.43	27.31
234.648	47.79
234.865	29.35
235.083	29.35
235.3	41.64
235.518	12.97
235.735	4.78
235.953	-3.41
236.17	55.98
236.388	-3.41
236.605	-23.89
236.822	12.97
237.04	51.88
237.257	43.69
237.475	-27.99
237.692	51.88
237.909	31.4
238.127	-36.18
238.344	12.97
238.562	21.16
238.779	60.07
238.996	-60.76
239.214	-60.76
239.431	12.97
239.648	-13.65
239.865	43.69
240.083	12.97
240.3	103.08
240.517	12.97
240.735	33.45
240.952	-7.51
241.169	64.17
241.386	51.88
241.603	-13.65
241.821	0.68
242.038	31.4
242.255	45.74
242.472	35.5
242.689	-48.47
242.907	-25.94
243.124	-1.37
243.341	41.64
243.558	-7.51
243.775	66.22
243.992	68.27
244.209	4.78
244.426	21.16
244.643	21.16
244.86	-15.7
245.078	37.55
245.295	49.83
245.512	78.51
245.729	82.6
245.946	23.21
246.163	-30.04
246.38	-27.99
246.597	10.92
246.814	10.92
247.031	-15.7
247.248	-21.85
247.464	49.83
247.681	-11.61
247.898	47.79
248.115	37.55
248.332	17.07
248.549	51.88
248.766	12.97
248.983	76.46
249.2	68.27
249.417	15.02
249.633	15.02
249.85	51.88
250.067	51.88
250.284	-13.65
250.501	12.97
250.717	72.36
250.934	-5.46
251.151	-32.08
251.368	111.27
251.585	78.51
251.801	-60.76
252.018	53.93
252.235	27.31
252.451	0.68
252.668	33.45
252.885	94.89
253.102	0.68
253.318	6.83
253.535	-23.89
253.752	-40.28
253.968	45.74
254.185	53.93
254.401	12.97
254.618	12.97
254.835	-7.51
255.051	-23.89
255.268	-3.41
255.484	0.68
255.701	-13.65
255.917	58.03
256.134	78.51
256.351	8.87
256.567	-46.42
256.784	66.22
257	23.21
257.217	-19.8
257.433	17.07
257.65	-19.8
257.866	141.99
258.082	29.35
258.299	29.35
258.515	35.5
258.732	-5.46
258.948	-5.46
259.165	21.16
259.381	27.31
259.597	-38.23
259.814	45.74
260.03	10.92
260.246	15.02
260.463	8.87
260.679	62.12
260.895	-3.41
261.112	111.27
261.328	51.88
261.544	10.92
261.761	29.35
261.977	62.12
262.193	-11.61
262.409	-13.65
262.626	94.89
262.842	8.87
263.058	-40.28
263.274	76.46
263.49	15.02
263.707	-3.41
263.923	23.21
264.139	-42.32
264.355	51.88
264.571	35.5
264.787	-52.56
265.004	72.36
265.22	21.16
265.436	19.11
265.652	29.35
265.868	8.87
266.084	8.87
266.3	-40.28
266.516	25.26
266.732	-32.08
266.948	-9.56
267.164	25.26
267.38	31.4
267.596	41.64
267.812	70.31
268.028	55.98
268.244	6.83
268.46	47.79
268.676	-19.8
268.892	58.03
269.108	-17.75
269.324	45.74
269.54	88.75
269.756	72.36
269.972	-30.04
270.188	25.26
270.403	33.45
270.619	23.21
270.835	12.97
271.051	80.55
271.267	29.35
271.483	25.26
271.698	27.31
271.914	78.51
272.13	72.36
272.346	-58.71
272.562	0.68
272.777	80.55
272.993	41.64
273.209	-23.89
273.425	70.31
273.64	8.87
273.856	10.92
274.072	-11.61
274.287	10.92
274.503	-27.99
274.719	37.55
274.934	21.16
275.15	35.5
275.366	82.6
275.581	-46.42
275.797	39.59
276.012	82.6
276.228	21.16
276.444	-23.89
276.659	66.22
276.875	8.87
277.09	117.42
277.306	29.35
277.521	68.27
277.737	70.31
277.952	86.7
278.168	-27.99
278.383	-40.28
278.599	-17.75
278.814	62.12
279.03	-25.94
279.245	45.74
279.461	17.07
279.676	70.31
279.892	86.7
280.107	23.21
280.322	35.5
280.538	25.26
280.753	19.11
280.969	-5.46
281.184	15.02
281.399	84.65
281.615	-13.65
281.83	82.6
282.045	-9.56
282.26	-7.51
282.476	70.31
282.691	64.17
282.906	-30.04
283.122	33.45
283.337	8.87
283.552	4.78
283.767	0.68
283.983	45.74
284.198	-27.99
284.413	31.4
284.628	-40.28
284.843	19.11
285.058	82.6
285.274	27.31
285.489	-19.8
285.704	53.93
285.919	-23.89
286.134	78.51
286.349	2.73
286.564	19.11
286.779	68.27
286.995	92.84
287.21	49.83
287.425	-25.94
287.64	6.83
287.855	86.7
288.07	29.35
288.285	8.87
288.5	66.22
288.715	92.84
288.93	4.78
289.145	0.68
289.36	-23.89
289.575	23.21
289.79	94.89
290.004	88.75
290.219	41.64
290.434	-36.18
290.649	21.16
290.864	62.12
291.079	-19.8
291.294	12.97
291.509	2.73
291.724	111.27
291.938	2.73
292.153	53.93
292.368	4.78
292.583	43.69
292.798	12.97
293.012	70.31
293.227	41.64
293.442	12.97
293.657	17.07
293.871	80.55
294.086	12.97
294.301	-54.61
294.516	25.26
294.73	-3.41
294.945	82.6
295.16	-25.94
295.374	53.93
295.589	41.64
295.804	-11.61
296.018	33.45
296.233	-15.7
296.447	62.12
296.662	-21.85
296.877	127.66
297.091	-13.65
297.306	-25.94
297.52	0.68
297.735	53.93
297.949	8.87
298.164	76.46
298.378	4.78
298.593	17.07
298.807	49.83
299.022	39.59
299.236	17.07
299.451	8.87
299.665	-11.61
299.88	62.12
300.094	88.75
300.309	-15.7
300.523	41.64
300.737	-5.46
300.952	45.74
301.166	2.73
301.381	39.59
301.595	37.55
301.809	-21.85
302.024	76.46
302.238	8.87
302.452	84.65
302.667	64.17
302.881	70.31
303.095	25.26
303.309	41.64
303.524	-11.61
303.738	-27.99
303.952	-32.08
304.166	51.88
304.381	-77.14
304.595	70.31
304.809	10.92
305.023	86.7
305.237	58.03
305.452	0.68
305.666	109.22
305.88	-58.71
306.094	-1.37
306.308	10.92
306.522	47.79
306.736	62.12
306.95	49.83
307.164	19.11
307.379	23.21
307.593	29.35
307.807	21.16
308.021	96.94
308.235	60.07
308.449	-66.9
308.663	35.5
308.877	121.51
309.091	-71
309.305	-38.23
309.519	-68.95
309.733	58.03
309.947	27.31
310.161	84.65
310.374	62.12
310.588	45.74
310.802	31.4
311.016	58.03
311.23	35.5
311.444	35.5
311.658	23.21
311.872	27.31
312.085	53.93
312.299	60.07
312.513	35.5
312.727	68.27
312.941	43.69
313.154	37.55
313.368	51.88
313.582	72.36
313.796	74.41
314.009	70.31
314.223	70.31
314.437	-7.51
314.651	111.27
314.864	60.07
315.078	12.97
315.292	45.74
315.505	27.31
315.719	105.13
315.933	70.31
316.146	33.45
316.36	74.41
316.573	74.41
316.787	29.35
317.001	45.74
317.214	51.88
317.428	43.69
317.641	-7.51
317.855	2.73
318.068	49.83
318.282	45.74
318.495	98.99
318.709	76.46
318.922	4.78
319.136	98.99
319.349	33.45
319.563	127.66
319.776	-27.99
319.99	-1.37
320.203	72.36
320.417	-27.99
320.63	62.12
320.843	70.31
321.057	-3.41
321.27	10.92
321.483	94.89
321.697	37.55
321.91	92.84
322.124	6.83
322.337	6.83
322.55	41.64
322.763	-21.85
322.977	12.97
323.19	-38.23
323.403	-36.18
323.617	-5.46
323.83	60.07
324.043	53.93
324.256	60.07
324.469	74.41
324.683	29.35
324.896	31.4
325.109	17.07
325.322	-7.51
325.535	117.42
325.748	17.07
325.962	-34.13
326.175	51.88
326.388	41.64
326.601	33.45
326.814	31.4
327.027	21.16
327.24	115.37
327.453	49.83
327.666	25.26
327.879	68.27
328.092	58.03
328.305	47.79
328.518	39.59
328.731	-15.7
328.944	43.69
329.157	29.35
329.37	113.32
329.583	78.51
329.796	76.46
330.009	39.59
330.222	64.17
330.435	60.07
330.648	49.83
330.861	115.37
331.073	64.17
331.286	68.27
331.499	8.87
331.712	-1.37
331.925	64.17
332.138	15.02
332.35	4.78
332.563	41.64
332.776	62.12
332.989	-9.56
333.202	-19.8
333.414	-73.04
333.627	51.88
333.84	37.55
334.053	98.99
334.265	144.04
334.478	33.45
334.691	53.93
334.903	55.98
335.116	66.22
335.329	0.68
335.541	49.83
335.754	53.93
335.966	-19.8
336.179	60.07
336.392	43.69
336.604	-7.51
336.817	62.12
337.029	17.07
337.242	86.7
337.454	58.03
337.667	45.74
337.88	70.31
338.092	90.79
338.305	58.03
338.517	12.97
338.729	21.16
338.942	4.78
339.154	74.41
339.367	53.93
339.579	35.5
339.792	-36.18
340.004	33.45
340.217	-3.41
340.429	158.38
340.641	45.74
340.854	-9.56
341.066	-3.41
341.278	55.98
341.491	8.87
341.703	70.31
341.915	23.21
342.128	10.92
342.34	58.03
342.552	8.87
342.764	76.46
342.977	17.07
343.189	101.03
343.401	-46.42
343.613	53.93
343.826	41.64
344.038	-9.56
344.25	31.4
344.462	25.26
344.674	-5.46
344.886	35.5
345.099	-11.61
345.311	58.03
345.523	10.92
345.735	4.78
345.947	98.99
346.159	60.07
346.371	0.68
346.583	-52.56
346.795	98.99
347.007	-23.89
347.219	66.22
347.431	12.97
347.643	-1.37
347.855	37.55
348.067	37.55
348.279	-3.41
348.491	49.83
348.703	10.92
348.915	-30.04
349.127	62.12
349.339	-27.99
349.551	55.98
349.763	55.98
349.975	23.21
350.187	12.97
350.399	119.46
350.61	49.83
350.822	-11.61
351.034	62.12
351.246	15.02
351.458	-19.8
351.669	64.17
351.881	31.4
352.093	53.93
352.305	-11.61
352.517	31.4
352.728	62.12
352.94	4.78
353.152	121.51
353.363	109.22
353.575	72.36
353.787	53.93
353.999	-11.61
354.21	-3.41
354.422	-21.85
354.633	12.97
354.845	58.03
355.057	21.16
355.268	10.92
355.48	17.07
355.692	-11.61
355.903	70.31
356.115	37.55
356.326	78.51
356.538	76.46
356.749	31.4
356.961	168.62
357.172	23.21
357.384	41.64
357.595	125.61
357.807	51.88
358.018	35.5
358.23	76.46
358.441	62.12
358.653	76.46
358.864	-21.85
359.075	35.5
359.287	105.13
359.498	66.22
359.709	90.79
359.921	148.14
360.132	4.78
360.344	78.51
360.555	101.03
360.766	55.98
360.977	58.03
361.189	72.36
361.4	8.87
361.611	70.31
361.823	51.88
362.034	53.93
362.245	23.21
362.456	49.83
362.667	33.45
362.879	41.64
363.09	82.6
363.301	86.7
363.512	0.68
363.723	17.07
363.935	23.21
364.146	-21.85
364.357	41.64
364.568	8.87
364.779	17.07
364.99	37.55
365.201	-11.61
365.412	47.79
365.623	15.02
365.834	66.22
366.045	19.11
366.256	19.11
366.467	45.74
366.678	-40.28
366.889	-46.42
367.1	62.12
367.311	19.11
367.522	31.4
367.733	-1.37
367.944	45.74
368.155	19.11
368.366	27.31
368.577	29.35
368.788	82.6
368.999	35.5
369.209	43.69
369.42	86.7
369.631	96.94
369.842	35.5
370.053	35.5
370.264	23.21
370.474	-42.32
370.685	86.7
370.896	37.55
371.107	33.45
371.317	33.45
371.528	111.27
371.739	98.99
371.95	105.13
372.16	113.32
372.371	-17.75
372.582	121.51
372.792	62.12
373.003	62.12
373.214	-13.65
373.424	31.4
373.635	-1.37
373.846	109.22
374.056	68.27
374.267	98.99
374.477	12.97
374.688	-64.85
374.898	-5.46
375.109	27.31
375.319	49.83
375.53	135.85
375.74	25.26
375.951	43.69
376.161	86.7
376.372	103.08
376.582	113.32
376.793	-27.99
377.003	70.31
377.214	68.27
377.424	-5.46
377.635	98.99
377.845	2.73
378.055	47.79
378.266	19.11
378.476	25.26
378.686	35.5
378.897	15.02
379.107	53.93
379.317	39.59
379.528	8.87
379.738	84.65
379.948	45.74
380.158	82.6
380.369	29.35
380.579	119.46
380.789	45.74
380.999	53.93
381.21	35.5
381.42	60.07
381.63	27.31
381.84	31.4
382.05	0.68
382.261	58.03
382.471	68.27
382.681	45.74
382.891	103.08
383.101	90.79
383.311	8.87
383.521	41.64
383.731	27.31
383.941	55.98
384.151	70.31
384.361	4.78
384.571	51.88
384.781	78.51
384.991	35.5
385.201	78.51
385.411	62.12
385.621	60.07
385.831	4.78
386.041	37.55
386.251	-5.46
386.461	10.92
386.671	82.6
386.881	180.9
387.091	31.4
387.301	-11.61
387.511	82.6
387.72	74.41
387.93	68.27
388.14	29.35
388.35	64.17
388.56	74.41
388.769	156.33
388.979	55.98
389.189	-5.46
389.399	58.03
389.609	76.46
389.818	45.74
390.028	92.84
390.238	53.93
390.447	76.46
390.657	123.56
390.867	103.08
391.076	76.46
391.286	35.5
391.496	98.99
391.705	70.31
391.915	90.79
392.125	45.74
392.334	29.35
392.544	37.55
392.753	64.17
392.963	-3.41
393.172	70.31
393.382	41.64
393.591	103.08
393.801	107.18
394.01	82.6
394.22	70.31
394.429	45.74
394.639	62.12
394.848	29.35
395.058	72.36
395.267	82.6
395.477	21.16
395.686	60.07
395.895	98.99
396.105	94.89
396.314	31.4
396.524	10.92
396.733	74.41
396.942	60.07
397.152	98.99
397.361	150.18
397.57	127.66
397.78	66.22
397.989	154.28
398.198	166.57
398.407	78.51
398.617	119.46
398.826	60.07
399.035	117.42
399.244	103.08
399.453	96.94
399.663	164.52
399.872	121.51
400.081	94.89
400.29	115.37
400.499	107.18
400.708	45.74
400.917	101.03
401.127	127.66
401.336	74.41
401.545	168.62
401.754	135.85
401.963	166.57
402.172	129.7
402.381	37.55
402.59	109.22
402.799	133.8
403.008	129.7
403.217	115.37
403.426	72.36
403.635	78.51
403.844	127.66
404.053	107.18
404.262	127.66
404.471	53.93
404.68	207.53
404.888	127.66
405.097	92.84
405.306	160.42
405.515	137.9
405.724	201.38
405.933	176.81
406.142	127.66
406.35	119.46
406.559	119.46
406.768	156.33
406.977	168.62
407.185	180.9
407.394	170.66
407.603	172.71
407.812	135.85
408.02	189.1
408.229	240.29
408.438	203.43
408.646	168.62
408.855	174.76
409.064	285.35
409.272	254.63
409.481	232.1
409.69	217.77
409.898	305.83
410.107	332.45
410.315	287.4
410.524	244.39
410.733	285.35
410.941	320.17
411.15	328.36
411.358	275.11
411.567	391.84
411.775	395.94
411.984	412.32
412.192	379.56
412.401	426.66
412.609	383.65
412.818	406.18
413.026	463.52
413.234	387.75
413.443	461.48
413.651	520.87
413.86	563.87
414.068	563.87
414.276	563.87
414.485	547.49
414.693	594.59
414.901	639.65
415.11	649.89
415.318	637.6
415.526	653.98
415.734	742.05
415.943	731.81
416.151	821.92
416.359	828.06
416.567	740
416.776	838.3
416.984	893.6
417.192	873.12
417.4	934.56
417.608	905.88
417.817	950.94
418.025	955.04
418.233	1086.11
418.441	1088.15
418.649	1102.49
418.857	1151.64
419.065	1225.37
419.273	1192.6
419.481	1256.09
419.689	1282.71
419.897	1352.34
420.105	1350.29
420.313	1436.31
420.521	1514.13
420.729	1585.81
420.937	1555.09
421.145	1501.84
421.353	1684.11
421.561	1794.7
421.769	1897.1
421.977	1970.83
422.185	1761.94
422.393	1970.83
422.601	2198.15
422.809	2163.34
423.017	2159.24
423.224	2282.12
423.432	2208.39
423.64	2253.45
423.848	2531.97
424.056	2488.96
424.263	2644.61
424.471	2628.23
424.679	2615.94
424.887	2790.02
425.094	2876.03
425.302	2873.98
425.51	2968.19
425.718	3146.36
425.925	3113.6
426.133	3256.95
426.341	3486.33
426.548	3623.54
426.756	3648.11
426.964	3676.79
427.171	3762.8
427.379	3834.48
427.586	3959.41
427.794	4160.11
428.001	4242.03
428.209	4530.79
428.417	4446.82
428.624	4887.14
428.832	4756.07
429.039	4805.22
429.247	4717.15
429.454	5165.66
429.662	5495.38
429.869	5126.75
430.076	5442.14
430.284	5409.37
430.491	5591.64
430.699	5921.36
430.906	5935.7
431.114	5974.61
431.321	6277.71
431.528	6369.87
431.736	6752.84
431.943	7082.56
432.15	6926.91
432.358	6951.49
432.565	7291.45
432.772	7270.97
432.979	7617.08
433.187	7879.22
433.394	7893.55
433.601	8280.62
433.808	8481.32
434.016	8145.45
434.223	8610.34
434.43	9208.35
434.637	9013.79
434.844	9710.1
435.052	9749.01
435.259	9738.77
435.466	9738.77
435.673	9646.62
435.88	10363.4
436.087	10859.01
436.294	10824.2
436.501	10740.23
436.708	10881.54
436.915	11276.8
437.122	11723.26
437.329	11647.48
437.537	12235.25
437.743	12253.68
437.95	12136.95
438.157	12964.32
438.364	13349.34
438.571	13244.9
438.778	13355.49
438.985	14559.69
439.192	14045.65
439.399	14428.62
439.606	14150.1
439.813	14713.29
440.02	15724.99
440.227	15303.11
440.433	15512
440.64	15894.97
440.847	15774.14
441.054	16159.16
441.261	17285.54
441.467	17334.69
441.674	17543.58
441.881	18143.64
442.088	17858.97
442.294	17754.52
442.501	18092.44
442.708	18411.92
442.914	19497.35
443.121	20316.53
443.328	19509.63
443.534	21387.62
443.741	20744.56
443.948	20189.56
444.154	21862.75
444.361	21920.09
444.568	21866.85
444.774	21715.3
444.981	22049.11
445.187	22829.39
445.394	23773.5
445.6	23292.23
445.807	25542.95
446.013	24561.97
446.22	25176.36
446.426	26165.53
446.633	26343.7
446.839	27283.72
447.046	26038.56
447.252	27308.3
447.459	27412.74
447.665	27455.75
447.871	28909.81
448.078	30054.62
448.284	28598.52
448.491	29151.47
448.697	30329.05
448.903	31441.1
449.11	30927.06
449.316	30712.02
449.522	31160.53
449.728	31967.43
449.935	32047.3
450.141	32106.69
450.347	33517.74
450.553	32069.83
450.76	32532.67
450.966	33480.88
451.172	33532.07
451.378	33939.62
451.584	33388.72
451.791	33771.69
451.997	33919.14
452.203	34572.44
452.409	34865.3
452.615	34644.12
452.821	33534.12
453.027	32731.32
453.233	34828.44
453.44	33360.05
453.646	33714.34
453.852	33876.13
454.058	34812.06
454.264	33376.43
454.47	34177.19
454.676	33368.24
454.882	34619.55
455.088	31318.22
455.294	31901.89
455.5	32483.51
455.705	32549.05
455.911	31168.72
456.117	30791.89
456.323	30314.72
456.529	28788.98
456.735	30025.95
456.941	29239.53
457.147	28393.72
457.352	27889.92
457.558	27578.63
457.764	27910.4
457.97	27158.8
458.176	26540.31
458.381	26730.77
458.587	24903.98
458.793	25377.06
458.999	24088.89
459.204	25721.12
459.41	24901.93
459.616	23294.28
459.821	23337.29
460.027	23066.95
460.233	22765.9
460.438	21703.01
460.644	22024.54
460.85	21086.57
461.055	20709.74
461.261	20676.98
461.466	19259.78
461.672	18461.07
461.878	19784.06
462.083	18473.36
462.289	18313.62
462.494	17967.51
462.7	17220
462.905	16714.16
463.111	17346.98
463.316	17146.28
463.522	17056.17
463.727	17002.92
463.932	16761.26
464.138	16646.57
464.343	16939.43
464.549	16353.71
464.754	16673.2
464.959	16806.31
465.165	16578.99
465.37	15929.78
465.575	15475.13
465.781	16083.38
465.986	16136.63
466.191	15862.2
466.397	15471.04
466.602	14535.12
466.807	15352.26
467.012	14938.57
467.218	15012.29
467.423	14791.11
467.628	15057.35
467.833	15481.28
