Data from USB4F104151__92__11-37-56-057.txt Node

Date: Fri Mar 14 11:37:56 EDT 2025
User: louis
Spectrometer: USB4F10415
Trigger mode: 4
Integration Time (sec): 2.000000E-2
Scans to average: 1
Electric dark correction enabled: true
Nonlinearity correction enabled: false
Boxcar width: 0
XAxis mode: Wavelengths
Number of Pixels in Spectrum: 3648
>>>>>Begin Spectral Data<<<<<
178.204	-98.47
178.424	-98.47
178.644	-98.47
178.864	-88.23
179.084	-14.51
179.304	-32.94
179.524	14.17
179.744	18.26
179.964	-37.03
180.184	-49.32
180.404	28.5
180.624	-10.41
180.844	28.5
181.064	-22.7
181.283	-20.65
181.503	18.26
181.723	65.36
181.943	-90.28
182.163	159.57
182.383	20.31
182.602	-0.17
182.822	26.45
183.042	-51.37
183.262	10.07
183.482	57.17
183.701	44.88
183.921	8.02
184.141	-61.61
184.361	24.4
184.58	-30.89
184.8	5.97
185.02	28.5
185.239	-10.41
185.459	34.64
185.679	5.97
185.898	-47.27
186.118	48.98
186.338	59.22
186.557	8.02
186.777	34.64
186.997	77.65
187.216	26.45
187.436	38.74
187.655	110.42
187.875	22.36
188.095	40.79
188.314	12.12
188.534	36.69
188.753	-22.7
188.973	77.65
189.192	24.4
189.412	8.02
189.631	-26.79
189.851	44.88
190.07	106.32
190.29	-39.08
190.509	22.36
190.729	8.02
190.948	-22.7
191.168	36.69
191.387	46.93
191.607	42.84
191.826	-8.36
192.045	-32.94
192.265	-14.51
192.484	28.5
192.704	32.6
192.923	32.6
193.142	96.08
193.362	-26.79
193.581	10.07
193.8	20.31
194.02	3.93
194.239	40.79
194.458	-22.7
194.678	42.84
194.897	1.88
195.116	-22.7
195.335	16.21
195.555	30.55
195.774	77.65
195.993	40.79
196.212	81.75
196.432	-47.27
196.651	10.07
196.87	8.02
197.089	36.69
197.308	69.46
197.528	65.36
197.747	18.26
197.966	26.45
198.185	67.41
198.404	-39.08
198.623	1.88
198.842	42.84
199.062	75.6
199.281	20.31
199.5	-6.31
199.719	16.21
199.938	18.26
200.157	-39.08
200.376	96.08
200.595	26.45
200.814	100.18
201.033	69.46
201.252	22.36
201.471	48.98
201.69	42.84
201.909	26.45
202.128	-57.51
202.347	-22.7
202.566	30.55
202.785	18.26
203.004	38.74
203.223	24.4
203.442	-16.55
203.661	-47.27
203.879	3.93
204.098	8.02
204.317	-12.46
204.536	59.22
204.755	10.07
204.974	40.79
205.193	42.84
205.411	42.84
205.63	63.32
205.849	-22.7
206.068	67.41
206.287	94.04
206.505	30.55
206.724	-37.03
206.943	22.36
207.162	24.4
207.381	12.12
207.599	1.88
207.818	75.6
208.037	-18.6
208.255	69.46
208.474	28.5
208.693	14.17
208.911	5.97
209.13	63.32
209.349	-16.55
209.567	30.55
209.786	12.12
210.005	42.84
210.223	65.36
210.442	28.5
210.661	57.17
210.879	-34.99
211.098	-0.17
211.316	34.64
211.535	-20.65
211.753	24.4
211.972	40.79
212.191	-49.32
212.409	5.97
212.628	55.12
212.846	-12.46
213.065	32.6
213.283	85.84
213.502	-47.27
213.72	108.37
213.938	16.21
214.157	38.74
214.375	36.69
214.594	26.45
214.812	51.03
215.031	28.5
215.249	16.21
215.467	-45.23
215.686	44.88
215.904	42.84
216.122	55.12
216.341	53.08
216.559	120.66
216.778	-41.13
216.996	-24.75
217.214	-14.51
217.432	1.88
217.651	46.93
217.869	85.84
218.087	30.55
218.306	61.27
218.524	63.32
218.742	22.36
218.96	12.12
219.179	3.93
219.397	83.8
219.615	36.69
219.833	63.32
220.051	36.69
220.27	63.32
220.488	65.36
220.706	61.27
220.924	10.07
221.142	-45.23
221.36	77.65
221.578	51.03
221.796	34.64
222.015	75.6
222.233	42.84
222.451	8.02
222.669	16.21
222.887	67.41
223.105	30.55
223.323	32.6
223.541	-14.51
223.759	59.22
223.977	51.03
224.195	55.12
224.413	-2.22
224.631	94.04
224.849	24.4
225.067	51.03
225.285	98.13
225.503	-14.51
225.721	-39.08
225.939	-0.17
226.157	83.8
226.375	24.4
226.592	-0.17
226.81	28.5
227.028	16.21
227.246	57.17
227.464	38.74
227.682	73.56
227.9	53.08
228.117	8.02
228.335	53.08
228.553	44.88
228.771	12.12
228.989	77.65
229.206	-10.41
229.424	18.26
229.642	32.6
229.86	42.84
230.077	108.37
230.295	116.56
230.513	55.12
230.731	46.93
230.948	57.17
231.166	63.32
231.384	-20.65
231.601	10.07
231.819	75.6
232.037	-2.22
232.254	-14.51
232.472	-45.23
232.689	10.07
232.907	75.6
233.125	-14.51
233.342	36.69
233.56	3.93
233.777	18.26
233.995	3.93
234.213	104.28
234.43	46.93
234.648	1.88
234.865	73.56
235.083	79.7
235.3	40.79
235.518	73.56
235.735	20.31
235.953	77.65
236.17	91.99
236.388	34.64
236.605	-8.36
236.822	30.55
237.04	-12.46
237.257	-18.6
237.475	42.84
237.692	42.84
237.909	16.21
238.127	65.36
238.344	120.66
238.562	30.55
238.779	3.93
238.996	69.46
239.214	12.12
239.431	65.36
239.648	18.26
239.865	38.74
240.083	40.79
240.3	-49.32
240.517	1.88
240.735	-2.22
240.952	73.56
241.169	94.04
241.386	-34.99
241.603	-18.6
241.821	-28.84
242.038	24.4
242.255	28.5
242.472	14.17
242.689	26.45
242.907	36.69
243.124	59.22
243.341	106.32
243.558	22.36
243.775	3.93
243.992	59.22
244.209	-16.55
244.426	83.8
244.643	22.36
244.86	55.12
245.078	34.64
245.295	77.65
245.512	-8.36
245.729	26.45
245.946	34.64
246.163	51.03
246.38	53.08
246.597	38.74
246.814	44.88
247.031	63.32
247.248	34.64
247.464	94.04
247.681	-6.31
247.898	51.03
248.115	110.42
248.332	-30.89
248.549	36.69
248.766	10.07
248.983	91.99
249.2	10.07
249.417	63.32
249.633	-39.08
249.85	-2.22
250.067	5.97
250.284	55.12
250.501	14.17
250.717	116.56
250.934	16.21
251.151	73.56
251.368	12.12
251.585	83.8
251.801	8.02
252.018	42.84
252.235	59.22
252.451	-16.55
252.668	67.41
252.885	-16.55
253.102	61.27
253.318	-12.46
253.535	83.8
253.752	22.36
253.968	61.27
254.185	40.79
254.401	46.93
254.618	-4.27
254.835	75.6
255.051	5.97
255.268	-14.51
255.484	40.79
255.701	38.74
255.917	5.97
256.134	18.26
256.351	55.12
256.567	22.36
256.784	44.88
257	18.26
257.217	-51.37
257.433	38.74
257.65	67.41
257.866	40.79
258.082	8.02
258.299	87.89
258.515	-6.31
258.732	5.97
258.948	63.32
259.165	-14.51
259.381	110.42
259.597	20.31
259.814	57.17
260.03	26.45
260.246	20.31
260.463	-39.08
260.679	85.84
260.895	57.17
261.112	42.84
261.328	57.17
261.544	34.64
261.761	65.36
261.977	55.12
262.193	-34.99
262.409	10.07
262.626	46.93
262.842	46.93
263.058	10.07
263.274	-16.55
263.49	57.17
263.707	5.97
263.923	114.52
264.139	-12.46
264.355	42.84
264.571	75.6
264.787	-2.22
265.004	46.93
265.22	20.31
265.436	30.55
265.652	65.36
265.868	10.07
266.084	-32.94
266.3	51.03
266.516	-16.55
266.732	34.64
266.948	18.26
267.164	36.69
267.38	22.36
267.596	59.22
267.812	14.17
268.028	91.99
268.244	-20.65
268.46	22.36
268.676	53.08
268.892	-12.46
269.108	16.21
269.324	48.98
269.54	106.32
269.756	89.94
269.972	65.36
270.188	22.36
270.403	40.79
270.619	59.22
270.835	71.51
271.051	63.32
271.267	26.45
271.483	16.21
271.698	34.64
271.914	32.6
272.13	18.26
272.346	-12.46
272.562	42.84
272.777	85.84
272.993	32.6
273.209	53.08
273.425	48.98
273.64	16.21
273.856	-14.51
274.072	34.64
274.287	48.98
274.503	32.6
274.719	34.64
274.934	63.32
275.15	26.45
275.366	48.98
275.581	-2.22
275.797	28.5
276.012	42.84
276.228	30.55
276.444	48.98
276.659	3.93
276.875	24.4
277.09	42.84
277.306	48.98
277.521	22.36
277.737	28.5
277.952	44.88
278.168	83.8
278.383	106.32
278.599	53.08
278.814	22.36
279.03	-37.03
279.245	57.17
279.461	42.84
279.676	22.36
279.892	14.17
280.107	24.4
280.322	1.88
280.538	83.8
280.753	18.26
280.969	-39.08
281.184	3.93
281.399	30.55
281.615	55.12
281.83	30.55
282.045	20.31
282.26	65.36
282.476	24.4
282.691	53.08
282.906	36.69
283.122	69.46
283.337	28.5
283.552	40.79
283.767	-2.22
283.983	53.08
284.198	-28.84
284.413	34.64
284.628	24.4
284.843	81.75
285.058	5.97
285.274	32.6
285.489	-22.7
285.704	85.84
285.919	46.93
286.134	20.31
286.349	38.74
286.564	-8.36
286.779	55.12
286.995	67.41
287.21	26.45
287.425	53.08
287.64	61.27
287.855	100.18
288.07	20.31
288.285	91.99
288.5	28.5
288.715	14.17
288.93	1.88
289.145	48.98
289.36	10.07
289.575	14.17
289.79	48.98
290.004	22.36
290.219	44.88
290.434	75.6
290.649	-12.46
290.864	85.84
291.079	-14.51
291.294	55.12
291.509	24.4
291.724	-4.27
291.938	51.03
292.153	91.99
292.368	67.41
292.583	14.17
292.798	-8.36
293.012	77.65
293.227	34.64
293.442	12.12
293.657	59.22
293.871	59.22
294.086	-12.46
294.301	28.5
294.516	14.17
294.73	30.55
294.945	18.26
295.16	71.51
295.374	46.93
295.589	104.28
295.804	59.22
296.018	24.4
296.233	26.45
296.447	71.51
296.662	44.88
296.877	36.69
297.091	22.36
297.306	-2.22
297.52	16.21
297.735	14.17
297.949	28.5
298.164	106.32
298.378	-8.36
298.593	3.93
298.807	102.23
299.022	28.5
299.236	26.45
299.451	75.6
299.665	34.64
299.88	22.36
300.094	16.21
300.309	18.26
300.523	59.22
300.737	26.45
300.952	5.97
301.166	104.28
301.381	57.17
301.595	-24.75
301.809	1.88
302.024	55.12
302.238	57.17
302.452	46.93
302.667	-16.55
302.881	67.41
303.095	73.56
303.309	38.74
303.524	67.41
303.738	-16.55
303.952	16.21
304.166	59.22
304.381	12.12
304.595	55.12
304.809	32.6
305.023	18.26
305.237	55.12
305.452	-4.27
305.666	24.4
305.88	53.08
306.094	34.64
306.308	120.66
306.522	38.74
306.736	73.56
306.95	73.56
307.164	42.84
307.379	24.4
307.593	59.22
307.807	12.12
308.021	48.98
308.235	83.8
308.449	-18.6
308.663	67.41
308.877	87.89
309.091	-39.08
309.305	48.98
309.519	10.07
309.733	55.12
309.947	36.69
310.161	18.26
310.374	36.69
310.588	79.7
310.802	55.12
311.016	120.66
311.23	24.4
311.444	-0.17
311.658	-51.37
311.872	65.36
312.085	8.02
312.299	71.51
312.513	85.84
312.727	53.08
312.941	32.6
313.154	51.03
313.368	-16.55
313.582	75.6
313.796	40.79
314.009	-24.75
314.223	53.08
314.437	30.55
314.651	38.74
314.864	79.7
315.078	38.74
315.292	-6.31
315.505	42.84
315.719	-16.55
315.933	38.74
316.146	40.79
316.36	44.88
316.573	48.98
316.787	100.18
317.001	26.45
317.214	26.45
317.428	32.6
317.641	10.07
317.855	79.7
318.068	34.64
318.282	22.36
318.495	53.08
318.709	8.02
318.922	69.46
319.136	14.17
319.349	20.31
319.563	-0.17
319.776	102.23
319.99	63.32
320.203	91.99
320.417	-14.51
320.63	-0.17
320.843	91.99
321.057	32.6
321.27	79.7
321.483	38.74
321.697	26.45
321.91	63.32
322.124	30.55
322.337	-45.23
322.55	94.04
322.763	8.02
322.977	24.4
323.19	57.17
323.403	22.36
323.617	40.79
323.83	12.12
324.043	30.55
324.256	94.04
324.469	63.32
324.683	10.07
324.896	14.17
325.109	-24.75
325.322	-22.7
325.535	32.6
325.748	79.7
325.962	20.31
326.175	61.27
326.388	102.23
326.601	24.4
326.814	53.08
327.027	130.9
327.24	28.5
327.453	18.26
327.666	20.31
327.879	59.22
328.092	57.17
328.305	8.02
328.518	110.42
328.731	61.27
328.944	34.64
329.157	83.8
329.37	36.69
329.583	59.22
329.796	91.99
330.009	-39.08
330.222	128.85
330.435	61.27
330.648	57.17
330.861	91.99
331.073	30.55
331.286	28.5
331.499	24.4
331.712	24.4
331.925	63.32
332.138	8.02
332.35	75.6
332.563	12.12
332.776	75.6
332.989	73.56
333.202	71.51
333.414	79.7
333.627	96.08
333.84	63.32
334.053	12.12
334.265	14.17
334.478	-18.6
334.691	153.43
334.903	87.89
335.116	79.7
335.329	77.65
335.541	38.74
335.754	57.17
335.966	12.12
336.179	32.6
336.392	91.99
336.604	32.6
336.817	69.46
337.029	57.17
337.242	24.4
337.454	24.4
337.667	36.69
337.88	116.56
338.092	151.38
338.305	71.51
338.517	46.93
338.729	57.17
338.942	104.28
339.154	-2.22
339.367	10.07
339.579	59.22
339.792	22.36
340.004	71.51
340.217	63.32
340.429	16.21
340.641	-12.46
340.854	83.8
341.066	14.17
341.278	85.84
341.491	87.89
341.703	38.74
341.915	14.17
342.128	65.36
342.34	26.45
342.552	36.69
342.764	30.55
342.977	26.45
343.189	14.17
343.401	59.22
343.613	34.64
343.826	57.17
344.038	85.84
344.25	16.21
344.462	42.84
344.674	22.36
344.886	51.03
345.099	24.4
345.311	38.74
345.523	-2.22
345.735	-12.46
345.947	8.02
346.159	34.64
346.371	28.5
346.583	34.64
346.795	75.6
347.007	-32.94
347.219	94.04
347.431	-2.22
347.643	106.32
347.855	63.32
348.067	83.8
348.279	30.55
348.491	34.64
348.703	10.07
348.915	24.4
349.127	71.51
349.339	32.6
349.551	26.45
349.763	114.52
349.975	42.84
350.187	26.45
350.399	26.45
350.61	81.75
350.822	91.99
351.034	-22.7
351.246	108.37
351.458	1.88
351.669	87.89
351.881	30.55
352.093	-6.31
352.305	100.18
352.517	16.21
352.728	102.23
352.94	42.84
353.152	48.98
353.363	-2.22
353.575	34.64
353.787	57.17
353.999	26.45
354.21	61.27
354.422	-8.36
354.633	24.4
354.845	139.09
355.057	34.64
355.268	24.4
355.48	28.5
355.692	32.6
355.903	57.17
356.115	8.02
356.326	53.08
356.538	65.36
356.749	48.98
356.961	42.84
357.172	69.46
357.384	63.32
357.595	112.47
357.807	5.97
358.018	44.88
358.23	-37.03
358.441	65.36
358.653	51.03
358.864	44.88
359.075	40.79
359.287	102.23
359.498	130.9
359.709	-12.46
359.921	104.28
360.132	38.74
360.344	3.93
360.555	63.32
360.766	63.32
360.977	38.74
361.189	44.88
361.4	34.64
361.611	46.93
361.823	108.37
362.034	155.47
362.245	-0.17
362.456	40.79
362.667	-30.89
362.879	34.64
363.09	63.32
363.301	75.6
363.512	169.81
363.723	18.26
363.935	114.52
364.146	32.6
364.357	61.27
364.568	26.45
364.779	-30.89
364.99	79.7
365.201	57.17
365.412	132.95
365.623	67.41
365.834	46.93
366.045	5.97
366.256	40.79
366.467	12.12
366.678	32.6
366.889	-32.94
367.1	42.84
367.311	83.8
367.522	143.19
367.733	69.46
367.944	34.64
368.155	83.8
368.366	81.75
368.577	28.5
368.788	98.13
368.999	-43.18
369.209	16.21
369.42	5.97
369.631	124.76
369.842	20.31
370.053	32.6
370.264	-16.55
370.474	63.32
370.685	51.03
370.896	81.75
371.107	81.75
371.317	36.69
371.528	57.17
371.739	59.22
371.95	1.88
372.16	48.98
372.371	5.97
372.582	73.56
372.792	96.08
373.003	73.56
373.214	83.8
373.424	118.61
373.635	63.32
373.846	42.84
374.056	40.79
374.267	38.74
374.477	73.56
374.688	51.03
374.898	14.17
375.109	87.89
375.319	26.45
375.53	67.41
375.74	18.26
375.951	-51.37
376.161	40.79
376.372	98.13
376.582	44.88
376.793	51.03
377.003	34.64
377.214	71.51
377.424	18.26
377.635	102.23
377.845	32.6
378.055	75.6
378.266	-18.6
378.476	106.32
378.686	69.46
378.897	18.26
379.107	91.99
379.317	139.09
379.528	91.99
379.738	87.89
379.948	126.8
380.158	79.7
380.369	104.28
380.579	79.7
380.789	87.89
380.999	91.99
381.21	61.27
381.42	91.99
381.63	81.75
381.84	67.41
382.05	61.27
382.261	83.8
382.471	104.28
382.681	83.8
382.891	22.36
383.101	75.6
383.311	8.02
383.521	110.42
383.731	75.6
383.941	98.13
384.151	46.93
384.361	48.98
384.571	73.56
384.781	85.84
384.991	75.6
385.201	102.23
385.411	55.12
385.621	42.84
385.831	26.45
386.041	22.36
386.251	55.12
386.461	48.98
386.671	65.36
386.881	112.47
387.091	36.69
387.301	69.46
387.511	122.71
387.72	100.18
387.93	63.32
388.14	53.08
388.35	83.8
388.56	26.45
388.769	108.37
388.979	163.67
389.189	5.97
389.399	53.08
389.609	73.56
389.818	73.56
390.028	116.56
390.238	114.52
390.447	114.52
390.657	91.99
390.867	73.56
391.076	87.89
391.286	87.89
391.496	102.23
391.705	51.03
391.915	114.52
392.125	30.55
392.334	89.94
392.544	100.18
392.753	67.41
392.963	65.36
393.172	124.76
393.382	69.46
393.591	67.41
393.801	79.7
394.01	145.24
394.22	116.56
394.429	55.12
394.639	94.04
394.848	73.56
395.058	65.36
395.267	61.27
395.477	104.28
395.686	106.32
395.895	128.85
396.105	122.71
396.314	100.18
396.524	22.36
396.733	120.66
396.942	75.6
397.152	81.75
397.361	137.04
397.57	126.8
397.78	77.65
397.989	141.14
398.198	161.62
398.407	94.04
398.617	120.66
398.826	139.09
399.035	32.6
399.244	120.66
399.453	114.52
399.663	89.94
399.872	137.04
400.081	79.7
400.29	116.56
400.499	110.42
400.708	210.77
400.917	51.03
401.127	149.33
401.336	124.76
401.545	104.28
401.754	214.87
401.963	190.29
402.172	106.32
402.381	128.85
402.59	132.95
402.799	155.47
403.008	143.19
403.217	182.1
403.426	118.61
403.635	104.28
403.844	212.82
404.053	223.06
404.262	151.38
404.471	186.19
404.68	178
404.888	247.63
405.097	137.04
405.306	204.63
405.515	241.49
405.724	186.19
405.933	208.72
406.142	155.47
406.35	196.43
406.559	239.44
406.768	208.72
406.977	241.49
407.185	241.49
407.394	243.54
407.603	257.87
407.812	245.59
408.02	255.83
408.229	241.49
408.438	319.31
408.646	311.12
408.855	249.68
409.064	382.8
409.272	335.7
409.481	358.22
409.69	337.74
409.898	304.98
410.107	411.47
410.315	347.98
410.524	395.09
410.733	409.42
410.941	403.28
411.15	474.96
411.358	421.71
411.567	440.14
411.775	460.62
411.984	479.05
412.192	538.45
412.401	477.01
412.609	497.49
412.818	624.46
413.026	653.13
413.234	608.08
413.443	624.46
413.651	583.5
413.86	640.84
414.068	718.67
414.276	669.52
414.485	745.29
414.693	741.19
414.901	819.02
415.11	745.29
415.318	829.26
415.526	880.46
415.734	896.84
415.943	909.13
416.151	984.9
416.359	984.9
416.567	982.85
416.776	1081.16
416.984	1146.69
417.192	1115.97
417.4	1161.03
417.608	1152.84
417.817	1236.8
418.025	1263.43
418.233	1382.21
418.441	1296.19
418.649	1339.2
418.857	1523.52
419.065	1509.18
419.273	1441.6
419.481	1593.15
419.689	1636.16
419.897	1771.32
420.105	1720.12
420.313	1718.08
420.521	1926.97
420.729	1849.15
420.937	2033.46
421.145	2053.94
421.353	2133.81
421.561	2289.46
421.769	2330.42
421.977	2492.21
422.185	2340.66
422.393	2563.89
422.601	2658.09
422.809	2778.92
423.017	2819.88
423.224	2758.44
423.432	2828.07
423.64	3055.4
423.848	3079.97
424.056	3086.12
424.263	3399.46
424.471	3387.17
424.679	3462.94
424.887	3667.74
425.094	3747.61
425.302	3755.8
425.51	3860.25
425.718	3962.65
425.925	3970.84
426.133	4099.86
426.341	4425.49
426.548	4501.26
426.756	4540.18
426.964	4529.94
427.171	4853.52
427.379	5091.08
427.586	5117.7
427.794	5138.18
428.001	5373.7
428.209	5699.33
428.417	5576.45
428.624	6000.38
428.832	6067.96
429.039	6004.47
429.247	6072.06
429.454	6538.99
429.662	7059.18
429.869	6647.54
430.076	6940.4
430.284	6815.47
430.491	7284.45
430.699	7589.6
430.906	7644.9
431.114	7644.9
431.321	7915.23
431.528	8054.49
431.736	8619.73
431.943	9098.95
432.15	8693.46
432.358	8812.24
432.565	9338.57
432.772	9395.91
432.979	9709.25
433.187	9889.47
433.394	9952.96
433.601	10563.25
433.808	10688.18
434.016	10591.92
434.223	11058.86
434.43	11736.74
434.637	11337.38
434.844	12082.84
435.052	12422.81
435.259	12189.34
435.466	12439.19
435.673	12484.25
435.88	13264.52
436.087	13684.36
436.294	13932.16
436.501	13368.97
436.708	13864.58
436.915	14351.99
437.122	14923.38
437.329	14835.31
437.537	15375.98
437.743	15648.36
437.95	15431.27
438.157	16277.08
438.364	17172.05
438.571	16741.97
438.778	17004.11
438.985	18552.38
439.192	17948.23
439.399	18425.4
439.606	17759.81
439.813	19158.58
440.02	20282.91
440.227	19607.08
440.433	19514.92
440.64	20055.59
440.847	20039.2
441.054	20657.69
441.261	21937.67
441.467	21546.51
441.674	22320.64
441.881	22705.66
442.088	22504.96
442.294	22830.58
442.501	23539.18
442.708	23893.48
442.914	24651.23
443.121	25456.08
443.328	25079.25
443.534	26621.38
443.741	25996.74
443.948	25718.22
444.154	27938.22
444.361	27358.64
444.568	27710.89
444.774	27676.08
444.981	28140.97
445.187	28841.37
445.394	29781.39
445.6	29975.95
445.807	32626.02
446.013	31276.41
446.22	31878.51
446.426	32912.74
446.633	33377.62
446.839	34065.74
447.046	32959.84
447.252	34841.92
447.459	34741.57
447.665	34737.48
447.871	36154.67
448.078	37743.89
448.284	35790.13
448.491	36992.29
448.697	38601.99
448.903	39202.05
449.11	39234.81
449.316	38782.21
449.522	39273.73
449.728	40197.36
449.935	40510.7
450.141	40191.22
450.347	41270.5
450.553	39898.36
450.76	40299.76
450.966	42355.92
451.172	41565.4
451.378	42755.27
451.584	41669.85
451.791	42790.09
451.997	42611.92
452.203	43089.09
452.409	43424.96
452.615	42855.62
452.821	41651.42
453.027	41528.54
453.233	43506.88
453.44	41671.9
453.646	42171.6
453.852	42140.88
454.058	43293.89
454.264	41356.51
454.47	42861.77
454.676	41286.88
454.882	42847.43
455.088	39542.01
455.294	39800.05
455.5	40217.84
455.705	40715.5
455.911	39021.83
456.117	38493.45
456.323	38126.86
456.529	35798.32
456.735	37518.62
456.941	36435.24
457.147	36220.2
457.352	35110.21
457.558	34723.14
457.764	34659.65
457.97	33926.48
458.176	33355.1
458.381	33176.92
458.587	31606.13
458.793	31839.6
458.999	29900.17
459.204	32281.96
459.41	31413.62
459.616	29373.85
459.821	29386.13
460.027	29179.29
460.233	28347.81
460.438	26959.29
460.644	27436.47
460.85	26205.64
461.055	25746.89
461.261	25716.17
461.466	23913.96
461.672	23221.75
461.878	24843.74
462.083	23371.25
462.289	23000.57
462.494	22758.91
462.7	21642.76
462.905	20778.52
463.111	21523.98
463.316	21790.22
463.522	21372.43
463.727	21186.07
463.932	21325.33
464.138	21093.91
464.343	21087.76
464.549	20579.87
464.754	21202.45
464.959	20745.75
465.165	20989.46
465.37	19756.58
465.575	19576.36
465.781	20510.24
465.986	20080.16
466.191	19469.87
466.397	19308.08
466.602	18462.27
466.807	18863.67
467.012	18904.63
467.218	18855.48
467.423	18685.5
467.628	18669.11
467.833	19473.96
