Data from USB4F104151__52__11-37-15-628.txt Node

Date: Fri Mar 14 11:37:15 EDT 2025
User: louis
Spectrometer: USB4F10415
Trigger mode: 4
Integration Time (sec): 2.000000E-2
Scans to average: 1
Electric dark correction enabled: true
Nonlinearity correction enabled: false
Boxcar width: 0
XAxis mode: Wavelengths
Number of Pixels in Spectrum: 3648
>>>>>Begin Spectral Data<<<<<
178.204	-108.54
178.424	-108.54
178.644	-108.54
178.864	-69.63
179.084	0
179.304	34.82
179.524	-10.24
179.744	-67.58
179.964	12.29
180.184	-51.2
180.404	-14.34
180.624	34.82
180.844	-22.53
181.064	30.72
181.283	65.54
181.503	-22.53
181.723	10.24
181.943	4.1
182.163	55.3
182.383	51.2
182.602	102.4
182.822	22.53
183.042	100.35
183.262	45.06
183.482	38.91
183.701	71.68
183.921	61.44
184.141	-53.25
184.361	59.39
184.58	-12.29
184.8	73.73
185.02	36.86
185.239	71.68
185.459	-94.21
185.679	28.67
185.898	26.62
186.118	14.34
186.338	77.82
186.557	20.48
186.777	-18.43
186.997	-34.82
187.216	-14.34
187.436	53.25
187.655	2.05
187.875	30.72
188.095	-10.24
188.314	88.06
188.534	0
188.753	69.63
188.973	92.16
189.192	40.96
189.412	4.1
189.631	30.72
189.851	-32.77
190.07	6.14
190.29	-14.34
190.509	10.24
190.729	67.58
190.948	61.44
191.168	116.73
191.387	6.14
191.607	22.53
191.826	26.62
192.045	10.24
192.265	22.53
192.484	22.53
192.704	55.3
192.923	22.53
193.142	143.36
193.362	88.06
193.581	45.06
193.8	36.86
194.02	16.38
194.239	-22.53
194.458	69.63
194.678	6.14
194.897	100.35
195.116	6.14
195.335	40.96
195.555	65.54
195.774	-26.62
195.993	-2.05
196.212	32.77
196.432	-12.29
196.651	-20.48
196.87	55.3
197.089	55.3
197.308	4.1
197.528	96.25
197.747	26.62
197.966	24.58
198.185	59.39
198.404	104.45
198.623	24.58
198.842	18.43
199.062	67.58
199.281	59.39
199.5	90.11
199.719	116.73
199.938	-26.62
200.157	45.06
200.376	-8.19
200.595	43.01
200.814	61.44
201.033	-36.86
201.252	2.05
201.471	-18.43
201.69	88.06
201.909	-18.43
202.128	-26.62
202.347	51.2
202.566	2.05
202.785	61.44
203.004	59.39
203.223	65.54
203.442	-20.48
203.661	-2.05
203.879	22.53
204.098	14.34
204.317	40.96
204.536	40.96
204.755	61.44
204.974	34.82
205.193	75.77
205.411	124.93
205.63	20.48
205.849	47.1
206.068	55.3
206.287	28.67
206.505	36.86
206.724	-24.58
206.943	71.68
207.162	-26.62
207.381	126.97
207.599	0
207.818	4.1
208.037	51.2
208.255	55.3
208.474	0
208.693	32.77
208.911	47.1
209.13	4.1
209.349	59.39
209.567	61.44
209.786	79.87
210.005	-61.44
210.223	92.16
210.442	43.01
210.661	22.53
210.879	-4.1
211.098	-20.48
211.316	10.24
211.535	16.38
211.753	88.06
211.972	59.39
212.191	-28.67
212.409	12.29
212.628	110.59
212.846	75.77
213.065	34.82
213.283	67.58
213.502	81.92
213.72	51.2
213.938	47.1
214.157	-2.05
214.375	-6.14
214.594	2.05
214.812	45.06
215.031	51.2
215.249	2.05
215.467	38.91
215.686	32.77
215.904	63.49
216.122	-43.01
216.341	38.91
216.559	6.14
216.778	-14.34
216.996	47.1
217.214	-16.38
217.432	32.77
217.651	63.49
217.869	-10.24
218.087	43.01
218.306	14.34
218.524	98.3
218.742	28.67
218.96	49.15
219.179	59.39
219.397	-16.38
219.615	63.49
219.833	38.91
220.051	75.77
220.27	83.97
220.488	112.64
220.706	22.53
220.924	30.72
221.142	67.58
221.36	6.14
221.578	34.82
221.796	75.77
222.015	40.96
222.233	-73.73
222.451	30.72
222.669	69.63
222.887	10.24
223.105	4.1
223.323	100.35
223.541	59.39
223.759	12.29
223.977	4.1
224.195	92.16
224.413	53.25
224.631	116.73
224.849	57.34
225.067	61.44
225.285	51.2
225.503	10.24
225.721	10.24
225.939	-4.1
226.157	6.14
226.375	129.02
226.592	10.24
226.81	-6.14
227.028	53.25
227.246	83.97
227.464	6.14
227.682	47.1
227.9	30.72
228.117	59.39
228.335	120.83
228.553	79.87
228.771	-8.19
228.989	86.01
229.206	69.63
229.424	20.48
229.642	-18.43
229.86	26.62
230.077	26.62
230.295	59.39
230.513	47.1
230.731	88.06
230.948	8.19
231.166	20.48
231.384	77.82
231.601	-59.39
231.819	47.1
232.037	28.67
232.254	-4.1
232.472	34.82
232.689	67.58
232.907	20.48
233.125	4.1
233.342	71.68
233.56	65.54
233.777	-4.1
233.995	-2.05
234.213	104.45
234.43	4.1
234.648	14.34
234.865	16.38
235.083	10.24
235.3	55.3
235.518	53.25
235.735	-10.24
235.953	98.3
236.17	4.1
236.388	38.91
236.605	28.67
236.822	83.97
237.04	-6.14
237.257	114.69
237.475	102.4
237.692	92.16
237.909	-30.72
238.127	98.3
238.344	10.24
238.562	71.68
238.779	28.67
238.996	38.91
239.214	2.05
239.431	61.44
239.648	92.16
239.865	-47.1
240.083	61.44
240.3	55.3
240.517	-10.24
240.735	65.54
240.952	38.91
241.169	71.68
241.386	73.73
241.603	51.2
241.821	20.48
242.038	-10.24
242.255	55.3
242.472	81.92
242.689	18.43
242.907	32.77
243.124	86.01
243.341	43.01
243.558	20.48
243.775	12.29
243.992	10.24
244.209	6.14
244.426	4.1
244.643	40.96
244.86	86.01
245.078	-18.43
245.295	26.62
245.512	83.97
245.729	4.1
245.946	8.19
246.163	38.91
246.38	-2.05
246.597	6.14
246.814	-61.44
247.031	26.62
247.248	63.49
247.464	-22.53
247.681	71.68
247.898	30.72
248.115	63.49
248.332	-18.43
248.549	104.45
248.766	143.36
248.983	83.97
249.2	98.3
249.417	10.24
249.633	36.86
249.85	45.06
250.067	75.77
250.284	-22.53
250.501	45.06
250.717	86.01
250.934	30.72
251.151	26.62
251.368	26.62
251.585	38.91
251.801	18.43
252.018	-14.34
252.235	75.77
252.451	92.16
252.668	2.05
252.885	61.44
253.102	49.15
253.318	108.54
253.535	43.01
253.752	-12.29
253.968	51.2
254.185	43.01
254.401	4.1
254.618	55.3
254.835	83.97
255.051	71.68
255.268	77.82
255.484	0
255.701	59.39
255.917	112.64
256.134	26.62
256.351	79.87
256.567	36.86
256.784	120.83
257	104.45
257.217	94.21
257.433	12.29
257.65	47.1
257.866	28.67
258.082	-34.82
258.299	12.29
258.515	6.14
258.732	28.67
258.948	135.17
259.165	6.14
259.381	57.34
259.597	63.49
259.814	26.62
260.03	-53.25
260.246	0
260.463	51.2
260.679	110.59
260.895	47.1
261.112	16.38
261.328	10.24
261.544	67.58
261.761	67.58
261.977	-2.05
262.193	24.58
262.409	-14.34
262.626	10.24
262.842	-45.06
263.058	36.86
263.274	6.14
263.49	-14.34
263.707	55.3
263.923	88.06
264.139	16.38
264.355	38.91
264.571	145.41
264.787	22.53
265.004	94.21
265.22	65.54
265.436	63.49
265.652	-12.29
265.868	86.01
266.084	-38.91
266.3	59.39
266.516	-30.72
266.732	45.06
266.948	30.72
267.164	88.06
267.38	88.06
267.596	-34.82
267.812	49.15
268.028	32.77
268.244	28.67
268.46	26.62
268.676	59.39
268.892	-16.38
269.108	43.01
269.324	-12.29
269.54	-59.39
269.756	51.2
269.972	59.39
270.188	10.24
270.403	18.43
270.619	-26.62
270.835	71.68
271.051	38.91
271.267	-67.58
271.483	-26.62
271.698	12.29
271.914	81.92
272.13	71.68
272.346	90.11
272.562	-47.1
272.777	90.11
272.993	53.25
273.209	4.1
273.425	100.35
273.64	10.24
273.856	51.2
274.072	-16.38
274.287	61.44
274.503	106.49
274.719	-18.43
274.934	81.92
275.15	-18.43
275.366	10.24
275.581	2.05
275.797	59.39
276.012	40.96
276.228	-6.14
276.444	24.58
276.659	36.86
276.875	34.82
277.09	18.43
277.306	43.01
277.521	55.3
277.737	63.49
277.952	59.39
278.168	79.87
278.383	14.34
278.599	-22.53
278.814	43.01
279.03	55.3
279.245	92.16
279.461	43.01
279.676	26.62
279.892	32.77
280.107	34.82
280.322	-16.38
280.538	-14.34
280.753	-43.01
280.969	55.3
281.184	81.92
281.399	77.82
281.615	57.34
281.83	75.77
282.045	-8.19
282.26	51.2
282.476	83.97
282.691	18.43
282.906	49.15
283.122	-10.24
283.337	-12.29
283.552	63.49
283.767	14.34
283.983	2.05
284.198	55.3
284.413	79.87
284.628	-16.38
284.843	2.05
285.058	18.43
285.274	104.45
285.489	18.43
285.704	57.34
285.919	55.3
286.134	43.01
286.349	-4.1
286.564	-14.34
286.779	28.67
286.995	55.3
287.21	-22.53
287.425	-2.05
287.64	32.77
287.855	-26.62
288.07	-6.14
288.285	40.96
288.5	-2.05
288.715	47.1
288.93	-24.58
289.145	55.3
289.36	4.1
289.575	100.35
289.79	55.3
290.004	22.53
290.219	100.35
290.434	126.97
290.649	92.16
290.864	30.72
291.079	-8.19
291.294	30.72
291.509	6.14
291.724	18.43
291.938	63.49
292.153	14.34
292.368	118.78
292.583	43.01
292.798	77.82
293.012	67.58
293.227	73.73
293.442	34.82
293.657	40.96
293.871	69.63
294.086	79.87
294.301	26.62
294.516	71.68
294.73	47.1
294.945	26.62
295.16	96.25
295.374	71.68
295.589	69.63
295.804	-59.39
296.018	-22.53
296.233	83.97
296.447	57.34
296.662	10.24
296.877	100.35
297.091	8.19
297.306	53.25
297.52	-43.01
297.735	114.69
297.949	6.14
298.164	61.44
298.378	22.53
298.593	81.92
298.807	79.87
299.022	94.21
299.236	18.43
299.451	-26.62
299.665	59.39
299.88	73.73
300.094	88.06
300.309	43.01
300.523	38.91
300.737	28.67
300.952	14.34
301.166	59.39
301.381	-4.1
301.595	18.43
301.809	100.35
302.024	71.68
302.238	-4.1
302.452	131.07
302.667	98.3
302.881	51.2
303.095	88.06
303.309	34.82
303.524	81.92
303.738	32.77
303.952	55.3
304.166	102.4
304.381	83.97
304.595	104.45
304.809	14.34
305.023	30.72
305.237	30.72
305.452	-38.91
305.666	22.53
305.88	40.96
306.094	81.92
306.308	100.35
306.522	-16.38
306.736	38.91
306.95	67.58
307.164	81.92
307.379	-61.44
307.593	98.3
307.807	57.34
308.021	61.44
308.235	92.16
308.449	94.21
308.663	30.72
308.877	69.63
309.091	36.86
309.305	36.86
309.519	40.96
309.733	55.3
309.947	55.3
310.161	38.91
310.374	38.91
310.588	10.24
310.802	79.87
311.016	16.38
311.23	6.14
311.444	98.3
311.658	-10.24
311.872	100.35
312.085	36.86
312.299	102.4
312.513	67.58
312.727	55.3
312.941	53.25
313.154	16.38
313.368	88.06
313.582	34.82
313.796	-6.14
314.009	69.63
314.223	55.3
314.437	32.77
314.651	43.01
314.864	43.01
315.078	73.73
315.292	83.97
315.505	61.44
315.719	18.43
315.933	69.63
316.146	-4.1
316.36	-28.67
316.573	77.82
316.787	28.67
317.001	67.58
317.214	10.24
317.428	43.01
317.641	65.54
317.855	57.34
318.068	36.86
318.282	10.24
318.495	65.54
318.709	110.59
318.922	67.58
319.136	57.34
319.349	129.02
319.563	-24.58
319.776	14.34
319.99	10.24
320.203	57.34
320.417	49.15
320.63	61.44
320.843	106.49
321.057	-28.67
321.27	65.54
321.483	34.82
321.697	83.97
321.91	92.16
322.124	-20.48
322.337	57.34
322.55	-36.86
322.763	22.53
322.977	57.34
323.19	57.34
323.403	55.3
323.617	36.86
323.83	22.53
324.043	-34.82
324.256	147.45
324.469	-22.53
324.683	49.15
324.896	40.96
325.109	59.39
325.322	0
325.535	20.48
325.748	43.01
325.962	14.34
326.175	86.01
326.388	69.63
326.601	92.16
326.814	8.19
327.027	-18.43
327.24	26.62
327.453	63.49
327.666	-8.19
327.879	26.62
328.092	38.91
328.305	81.92
328.518	34.82
328.731	75.77
328.944	83.97
329.157	38.91
329.37	53.25
329.583	100.35
329.796	71.68
330.009	38.91
330.222	77.82
330.435	67.58
330.648	96.25
330.861	43.01
331.073	81.92
331.286	47.1
331.499	65.54
331.712	-8.19
331.925	63.49
332.138	71.68
332.35	96.25
332.563	83.97
332.776	69.63
332.989	2.05
333.202	20.48
333.414	49.15
333.627	4.1
333.84	57.34
334.053	32.77
334.265	36.86
334.478	20.48
334.691	22.53
334.903	-38.91
335.116	49.15
335.329	45.06
335.541	120.83
335.754	71.68
335.966	120.83
336.179	49.15
336.392	47.1
336.604	94.21
336.817	0
337.029	88.06
337.242	108.54
337.454	96.25
337.667	22.53
337.88	57.34
338.092	28.67
338.305	67.58
338.517	55.3
338.729	77.82
338.942	6.14
339.154	28.67
339.367	28.67
339.579	30.72
339.792	53.25
340.004	63.49
340.217	53.25
340.429	38.91
340.641	6.14
340.854	55.3
341.066	38.91
341.278	92.16
341.491	69.63
341.703	57.34
341.915	22.53
342.128	65.54
342.34	81.92
342.552	4.1
342.764	45.06
342.977	38.91
343.189	112.64
343.401	20.48
343.613	45.06
343.826	88.06
344.038	45.06
344.25	71.68
344.462	61.44
344.674	96.25
344.886	51.2
345.099	55.3
345.311	55.3
345.523	45.06
345.735	96.25
345.947	45.06
346.159	0
346.371	38.91
346.583	43.01
346.795	12.29
347.007	71.68
347.219	59.39
347.431	40.96
347.643	40.96
347.855	94.21
348.067	51.2
348.279	28.67
348.491	32.77
348.703	-36.86
348.915	34.82
349.127	22.53
349.339	108.54
349.551	-51.2
349.763	47.1
349.975	26.62
350.187	124.93
350.399	104.45
350.61	32.77
350.822	61.44
351.034	-2.05
351.246	30.72
351.458	55.3
351.669	100.35
351.881	77.82
352.093	49.15
352.305	-10.24
352.517	45.06
352.728	53.25
352.94	26.62
353.152	24.58
353.363	51.2
353.575	153.6
353.787	71.68
353.999	-18.43
354.21	118.78
354.422	-30.72
354.633	-8.19
354.845	75.77
355.057	8.19
355.268	-12.29
355.48	118.78
355.692	26.62
355.903	51.2
356.115	67.58
356.326	88.06
356.538	129.02
356.749	73.73
356.961	79.87
357.172	112.64
357.384	34.82
357.595	55.3
357.807	69.63
358.018	102.4
358.23	69.63
358.441	71.68
358.653	75.77
358.864	43.01
359.075	57.34
359.287	81.92
359.498	43.01
359.709	75.77
359.921	86.01
360.132	77.82
360.344	32.77
360.555	45.06
360.766	22.53
360.977	36.86
361.189	30.72
361.4	18.43
361.611	-18.43
361.823	104.45
362.034	18.43
362.245	-12.29
362.456	83.97
362.667	83.97
362.879	18.43
363.09	28.67
363.301	120.83
363.512	71.68
363.723	36.86
363.935	69.63
364.146	96.25
364.357	67.58
364.568	38.91
364.779	59.39
364.99	36.86
365.201	22.53
365.412	65.54
365.623	-14.34
365.834	61.44
366.045	51.2
366.256	77.82
366.467	20.48
366.678	47.1
366.889	110.59
367.1	2.05
367.311	71.68
367.522	-28.67
367.733	14.34
367.944	26.62
368.155	43.01
368.366	34.82
368.577	96.25
368.788	10.24
368.999	34.82
369.209	24.58
369.42	129.02
369.631	116.73
369.842	57.34
370.053	69.63
370.264	30.72
370.474	45.06
370.685	53.25
370.896	-45.06
371.107	73.73
371.317	-2.05
371.528	53.25
371.739	75.77
371.95	40.96
372.16	55.3
372.371	2.05
372.582	47.1
372.792	49.15
373.003	67.58
373.214	67.58
373.424	40.96
373.635	22.53
373.846	116.73
374.056	40.96
374.267	61.44
374.477	94.21
374.688	63.49
374.898	38.91
375.109	73.73
375.319	38.91
375.53	133.12
375.74	43.01
375.951	67.58
376.161	100.35
376.372	38.91
376.582	2.05
376.793	38.91
377.003	118.78
377.214	79.87
377.424	18.43
377.635	53.25
377.845	47.1
378.055	108.54
378.266	71.68
378.476	63.49
378.686	65.54
378.897	14.34
379.107	153.6
379.317	43.01
379.528	45.06
379.738	63.49
379.948	38.91
380.158	53.25
380.369	10.24
380.579	45.06
380.789	79.87
380.999	59.39
381.21	133.12
381.42	98.3
381.63	47.1
381.84	139.26
382.05	57.34
382.261	126.97
382.471	36.86
382.681	96.25
382.891	71.68
383.101	24.58
383.311	38.91
383.521	65.54
383.731	43.01
383.941	18.43
384.151	30.72
384.361	67.58
384.571	61.44
384.781	53.25
384.991	98.3
385.201	-28.67
385.411	124.93
385.621	98.3
385.831	22.53
386.041	81.92
386.251	45.06
386.461	83.97
386.671	30.72
386.881	59.39
387.091	30.72
387.301	102.4
387.511	38.91
387.72	43.01
387.93	92.16
388.14	6.14
388.35	4.1
388.56	149.5
388.769	71.68
388.979	10.24
389.189	-10.24
389.399	104.45
389.609	65.54
389.818	100.35
390.028	28.67
390.238	86.01
390.447	61.44
390.657	53.25
390.867	67.58
391.076	59.39
391.286	-18.43
391.496	43.01
391.705	38.91
391.915	83.97
392.125	34.82
392.334	69.63
392.544	59.39
392.753	65.54
392.963	24.58
393.172	67.58
393.382	77.82
393.591	167.93
393.801	-43.01
394.01	98.3
394.22	61.44
394.429	71.68
394.639	59.39
394.848	96.25
395.058	65.54
395.267	102.4
395.477	73.73
395.686	65.54
395.895	141.31
396.105	137.21
396.314	104.45
396.524	131.07
396.733	59.39
396.942	100.35
397.152	86.01
397.361	61.44
397.57	190.46
397.78	98.3
397.989	67.58
398.198	241.66
398.407	36.86
398.617	143.36
398.826	147.45
399.035	124.93
399.244	26.62
399.453	94.21
399.663	88.06
399.872	202.75
400.081	169.98
400.29	71.68
400.499	141.31
400.708	86.01
400.917	38.91
401.127	129.02
401.336	57.34
401.545	161.79
401.754	122.88
401.963	161.79
402.172	106.49
402.381	79.87
402.59	83.97
402.799	143.36
403.008	94.21
403.217	194.56
403.426	96.25
403.635	126.97
403.844	88.06
404.053	110.59
404.262	133.12
404.471	129.02
404.68	102.4
404.888	221.18
405.097	116.73
405.306	110.59
405.515	157.69
405.724	200.7
405.933	161.79
406.142	155.65
406.35	210.94
406.559	163.84
406.768	215.04
406.977	202.75
407.185	169.98
407.394	169.98
407.603	231.42
407.812	266.24
408.02	235.52
408.229	206.84
408.438	184.32
408.646	268.28
408.855	284.67
409.064	219.13
409.272	335.87
409.481	231.42
409.69	184.32
409.898	262.14
410.107	206.84
410.315	348.15
410.524	215.04
410.733	301.05
410.941	217.08
411.15	329.72
411.358	329.72
411.567	335.87
411.775	389.11
411.984	385.02
412.192	321.53
412.401	438.27
412.609	358.39
412.818	438.27
413.026	448.51
413.234	479.22
413.443	380.92
413.651	448.51
413.86	477.18
414.068	516.09
414.276	542.71
414.485	442.36
414.693	477.18
414.901	505.85
415.11	616.44
415.318	628.73
415.526	616.44
415.734	696.31
415.943	657.4
416.151	636.92
416.359	624.63
416.567	716.79
416.776	770.04
416.984	757.75
417.192	849.91
417.4	804.85
417.608	780.28
417.817	876.53
418.025	839.67
418.233	1019.89
418.441	866.29
418.649	983.03
418.857	1079.28
419.065	1069.04
419.273	1066.99
419.481	1079.28
419.689	1132.53
419.897	1306.6
420.105	1284.08
420.313	1269.74
420.521	1413.1
420.729	1302.51
420.937	1406.95
421.145	1527.78
421.353	1533.93
421.561	1683.43
421.769	1533.93
421.977	1826.79
422.185	1650.66
422.393	1716.2
422.601	1826.79
422.809	1814.5
423.017	1939.43
423.224	1972.19
423.432	2009.06
423.64	2113.5
423.848	2199.52
424.056	2205.66
424.263	2465.75
424.471	2422.75
424.679	2291.68
424.887	2549.72
425.094	2578.39
425.302	2607.06
425.51	2717.65
425.718	2832.34
425.925	2838.48
426.133	3000.27
426.341	3182.54
426.548	3291.09
426.756	3168.21
426.964	3207.12
427.171	3542.99
427.379	3563.47
427.586	3663.82
427.794	3684.3
428.001	3960.77
428.209	4001.73
428.417	3985.35
428.624	4265.92
428.832	4353.98
429.039	4241.34
429.247	4237.25
429.454	4782.01
429.662	4923.32
429.869	4763.58
430.076	4960.18
430.284	4861.88
430.491	5089.2
430.699	5250.99
430.906	5367.73
431.114	5502.89
431.321	5566.38
431.528	5715.88
431.736	6074.28
431.943	6152.1
432.15	6285.22
432.358	6266.78
432.565	6690.71
432.772	6682.52
432.979	6905.75
433.187	6981.53
433.394	6981.53
433.601	7702.41
433.808	7503.76
434.016	7749.51
434.223	7761.8
434.43	8378.24
434.637	8085.38
434.844	8879.99
435.052	8648.57
435.259	8820.6
435.466	8916.86
435.673	8542.08
435.88	9514.86
436.087	9807.72
436.294	9854.83
436.501	9656.17
436.708	9936.74
436.915	10225.51
437.122	10573.66
437.329	10317.67
437.537	10948.44
437.743	10968.92
437.95	11161.43
438.157	11585.36
438.364	11964.23
438.571	11851.6
438.778	12072.78
438.985	13186.87
439.192	12640.06
439.399	13059.9
439.606	12699.45
439.813	13522.74
440.02	14051.11
440.227	13958.95
440.433	13924.14
440.64	14405.41
440.847	14264.1
441.054	14415.65
441.261	15546.13
441.467	15535.89
441.674	15640.34
441.881	16189.19
442.088	15996.68
442.294	16037.64
442.501	16439.05
442.708	16914.17
442.914	17565.43
443.121	18013.93
443.328	17950.45
443.534	18986.72
443.741	18601.7
443.948	18501.35
444.154	19871.44
444.361	19377.88
444.568	19392.22
444.774	19646.16
444.981	19670.74
445.187	20321.99
445.394	21089.98
445.6	21006.02
445.807	22838.95
446.013	21909.17
446.22	22640.29
446.426	23211.68
446.633	23522.97
446.839	24075.92
447.046	23248.54
447.252	24426.12
447.459	24469.13
447.665	24442.51
447.871	25568.89
448.078	26396.27
448.284	25247.36
448.491	26189.42
448.697	26820.2
448.903	27295.33
449.11	27649.63
449.316	26809.96
449.522	27547.23
449.728	28515.92
449.935	28730.95
450.141	28128.85
450.347	29333.06
450.553	28315.22
450.76	28696.14
450.966	29679.16
451.172	29001.29
451.378	30099
451.584	29582.91
451.791	29814.33
451.997	29746.75
452.203	30565.93
452.409	30565.93
452.615	30647.85
452.821	29259.33
453.027	28878.41
453.233	30420.53
453.44	29255.23
453.646	29601.34
453.852	29793.85
454.058	30041.65
454.264	29199.94
454.47	30068.28
454.676	29017.67
454.882	30344.75
455.088	27500.12
455.294	27756.12
455.5	28134.99
455.705	28493.39
455.911	27444.83
456.117	26599.02
456.323	26455.66
456.529	25570.94
456.735	26189.42
456.941	25484.92
457.147	25099.9
457.352	24290.96
457.558	23801.49
457.764	24106.64
457.97	23733.91
458.176	23096.99
458.381	23129.76
458.587	22193.84
458.793	21984.94
458.999	20715.2
459.204	22529.7
459.41	21853.87
459.616	19922.64
459.821	20418.25
460.027	20321.99
460.233	19795.67
460.438	18781.92
460.644	19205.85
460.85	18235.11
461.055	17837.81
461.261	17784.56
461.466	16623.36
461.672	16238.34
461.878	17012.48
462.083	16240.39
462.289	16035.6
462.494	15560.47
462.7	15089.43
462.905	14487.33
463.111	14845.73
463.316	14858.01
463.522	14827.29
463.727	14595.87
463.932	14892.83
464.138	14649.12
464.343	14585.63
464.549	14276.39
464.754	14614.31
464.959	14530.34
465.165	14511.91
465.37	13788.97
465.575	13434.67
465.781	13940.52
465.986	14104.36
466.191	13573.94
466.397	13358.9
466.602	12656.45
466.807	13053.75
467.012	13217.59
467.218	13240.12
467.423	13000.51
467.628	12949.31
467.833	13793.07
468.038	13084.47
468.244	12715.84
