Data from USB4F104151__54__11-37-16-561.txt Node

Date: Fri Mar 14 11:37:16 EDT 2025
User: louis
Spectrometer: USB4F10415
Trigger mode: 4
Integration Time (sec): 2.000000E-2
Scans to average: 1
Electric dark correction enabled: true
Nonlinearity correction enabled: false
Boxcar width: 0
XAxis mode: Wavelengths
Number of Pixels in Spectrum: 3648
>>>>>Begin Spectral Data<<<<<
178.204	-129.88
178.424	-129.88
178.644	-129.88
178.864	-97.11
179.084	-23.38
179.304	-25.43
179.524	23.72
179.744	-37.72
179.964	19.63
180.184	23.72
180.404	17.58
180.624	-13.14
180.844	1.19
181.064	-11.09
181.283	5.29
181.503	-19.29
181.723	15.53
181.943	36.01
182.163	58.54
182.383	-31.57
182.602	81.07
182.822	44.2
183.042	-9.05
183.262	33.96
183.482	62.63
183.701	21.67
183.921	9.39
184.141	-21.33
184.361	29.87
184.58	48.3
184.8	19.63
185.02	42.15
185.239	1.19
185.459	-13.14
185.679	17.58
185.898	-19.29
186.118	21.67
186.338	25.77
186.557	50.35
186.777	5.29
186.997	-35.67
187.216	-60.24
187.436	17.58
187.655	33.96
187.875	97.45
188.095	-0.85
188.314	21.67
188.534	-2.9
188.753	-15.19
188.973	17.58
189.192	36.01
189.412	23.72
189.631	40.11
189.851	-15.19
190.07	-37.72
190.29	13.48
190.509	25.77
190.729	17.58
190.948	83.11
191.168	36.01
191.387	11.43
191.607	-7
191.826	1.19
192.045	9.39
192.265	89.26
192.484	13.48
192.704	13.48
192.923	-31.57
193.142	91.31
193.362	27.82
193.581	25.77
193.8	25.77
194.02	-4.95
194.239	40.11
194.458	87.21
194.678	-19.29
194.897	23.72
195.116	23.72
195.335	33.96
195.555	50.35
195.774	48.3
195.993	76.97
196.212	38.06
196.432	-68.44
196.651	11.43
196.87	5.29
197.089	68.78
197.308	25.77
197.528	-45.91
197.747	29.87
197.966	-17.24
198.185	91.31
198.404	27.82
198.623	25.77
198.842	27.82
199.062	19.63
199.281	79.02
199.5	-0.85
199.719	7.34
199.938	-52.05
200.157	115.88
200.376	42.15
200.595	15.53
200.814	70.83
201.033	-17.24
201.252	56.49
201.471	40.11
201.69	85.16
201.909	17.58
202.128	52.39
202.347	25.77
202.566	50.35
202.785	48.3
203.004	-17.24
203.223	66.73
203.442	-0.85
203.661	83.11
203.879	25.77
204.098	83.11
204.317	-0.85
204.536	36.01
204.755	-33.62
204.974	-7
205.193	23.72
205.411	81.07
205.63	29.87
205.849	36.01
206.068	7.34
206.287	1.19
206.505	1.19
206.724	-15.19
206.943	-29.52
207.162	81.07
207.381	7.34
207.599	-2.9
207.818	-23.38
208.037	-17.24
208.255	-33.62
208.474	36.01
208.693	-86.87
208.911	-11.09
209.13	1.19
209.349	31.91
209.567	-45.91
209.786	87.21
210.005	-27.48
210.223	-52.05
210.442	42.15
210.661	27.82
210.879	9.39
211.098	-21.33
211.316	-45.91
211.535	-7
211.753	83.11
211.972	40.11
212.191	33.96
212.409	40.11
212.628	-7
212.846	13.48
213.065	-7
213.283	115.88
213.502	60.59
213.72	1.19
213.938	3.24
214.157	13.48
214.375	9.39
214.594	36.01
214.812	83.11
215.031	40.11
215.249	66.73
215.467	3.24
215.686	-4.95
215.904	36.01
216.122	48.3
216.341	7.34
216.559	-0.85
216.778	-45.91
216.996	107.69
217.214	-7
217.432	-35.67
217.651	52.39
217.869	23.72
218.087	7.34
218.306	62.63
218.524	-11.09
218.742	33.96
218.96	19.63
219.179	9.39
219.397	17.58
219.615	70.83
219.833	25.77
220.051	-7
220.27	89.26
220.488	25.77
220.706	25.77
220.924	-31.57
221.142	19.63
221.36	40.11
221.578	9.39
221.796	31.91
222.015	29.87
222.233	50.35
222.451	83.11
222.669	-56.15
222.887	-54.1
223.105	17.58
223.323	23.72
223.541	58.54
223.759	38.06
223.977	70.83
224.195	74.92
224.413	48.3
224.631	72.87
224.849	58.54
225.067	89.26
225.285	74.92
225.503	29.87
225.721	-15.19
225.939	64.68
226.157	-15.19
226.375	46.25
226.592	-17.24
226.81	-17.24
227.028	-33.62
227.246	62.63
227.464	-11.09
227.682	70.83
227.9	56.49
228.117	-7
228.335	-25.43
228.553	48.3
228.771	21.67
228.989	38.06
229.206	-2.9
229.424	-23.38
229.642	46.25
229.86	-15.19
230.077	-13.14
230.295	56.49
230.513	56.49
230.731	-11.09
230.948	27.82
231.166	-9.05
231.384	-9.05
231.601	25.77
231.819	-7
232.037	17.58
232.254	21.67
232.472	21.67
232.689	58.54
232.907	3.24
233.125	-25.43
233.342	-17.24
233.56	40.11
233.777	17.58
233.995	19.63
234.213	31.91
234.43	70.83
234.648	-11.09
234.865	-13.14
235.083	70.83
235.3	-0.85
235.518	42.15
235.735	5.29
235.953	58.54
236.17	23.72
236.388	15.53
236.605	-4.95
236.822	66.73
237.04	25.77
237.257	58.54
237.475	36.01
237.692	74.92
237.909	13.48
238.127	-35.67
238.344	-17.24
238.562	36.01
238.779	-29.52
238.996	91.31
239.214	-50
239.431	115.88
239.648	56.49
239.865	46.25
240.083	79.02
240.3	9.39
240.517	-66.39
240.735	87.21
240.952	3.24
241.169	46.25
241.386	21.67
241.603	48.3
241.821	7.34
242.038	46.25
242.255	66.73
242.472	64.68
242.689	-11.09
242.907	15.53
243.124	23.72
243.341	-37.72
243.558	-37.72
243.775	40.11
243.992	-2.9
244.209	19.63
244.426	23.72
244.643	-25.43
244.86	-41.81
245.078	-7
245.295	40.11
245.512	29.87
245.729	-41.81
245.946	1.19
246.163	17.58
246.38	89.26
246.597	79.02
246.814	-9.05
247.031	11.43
247.248	-31.57
247.464	15.53
247.681	29.87
247.898	7.34
248.115	60.59
248.332	25.77
248.549	21.67
248.766	40.11
248.983	74.92
249.2	58.54
249.417	46.25
249.633	-19.29
249.85	19.63
250.067	5.29
250.284	5.29
250.501	11.43
250.717	46.25
250.934	-45.91
251.151	9.39
251.368	95.4
251.585	21.67
251.801	9.39
252.018	13.48
252.235	44.2
252.451	-11.09
252.668	15.53
252.885	13.48
253.102	54.44
253.318	52.39
253.535	48.3
253.752	23.72
253.968	122.02
254.185	5.29
254.401	31.91
254.618	48.3
254.835	15.53
255.051	1.19
255.268	25.77
255.484	15.53
255.701	31.91
255.917	17.58
256.134	44.2
256.351	-0.85
256.567	9.39
256.784	50.35
257	-17.24
257.217	68.78
257.433	50.35
257.65	29.87
257.866	85.16
258.082	38.06
258.299	62.63
258.515	105.64
258.732	-29.52
258.948	31.91
259.165	50.35
259.381	-11.09
259.597	-21.33
259.814	33.96
260.03	74.92
260.246	46.25
260.463	17.58
260.679	79.02
260.895	33.96
261.112	17.58
261.328	46.25
261.544	3.24
261.761	50.35
261.977	7.34
262.193	31.91
262.409	29.87
262.626	105.64
262.842	36.01
263.058	-66.39
263.274	50.35
263.49	29.87
263.707	54.44
263.923	58.54
264.139	-4.95
264.355	72.87
264.571	83.11
264.787	-35.67
265.004	27.82
265.22	-13.14
265.436	29.87
265.652	81.07
265.868	46.25
266.084	-2.9
266.3	64.68
266.516	1.19
266.732	38.06
266.948	46.25
267.164	103.59
267.38	21.67
267.596	36.01
267.812	76.97
268.028	74.92
268.244	15.53
268.46	9.39
268.676	-33.62
268.892	46.25
269.108	17.58
269.324	17.58
269.54	99.5
269.756	31.91
269.972	-17.24
270.188	-33.62
270.403	-15.19
270.619	13.48
270.835	11.43
271.051	-25.43
271.267	11.43
271.483	54.44
271.698	17.58
271.914	31.91
272.13	40.11
272.346	46.25
272.562	60.59
272.777	-11.09
272.993	21.67
273.209	-88.92
273.425	5.29
273.64	38.06
273.856	38.06
274.072	-7
274.287	15.53
274.503	60.59
274.719	44.2
274.934	36.01
275.15	-41.81
275.366	36.01
275.581	-11.09
275.797	46.25
276.012	25.77
276.228	27.82
276.444	64.68
276.659	136.36
276.875	29.87
277.09	38.06
277.306	60.59
277.521	3.24
277.737	11.43
277.952	25.77
278.168	-64.34
278.383	50.35
278.599	48.3
278.814	-39.76
279.03	-7
279.245	38.06
279.461	64.68
279.676	27.82
279.892	1.19
280.107	70.83
280.322	-7
280.538	85.16
280.753	-23.38
280.969	25.77
281.184	13.48
281.399	5.29
281.615	36.01
281.83	50.35
282.045	48.3
282.26	81.07
282.476	38.06
282.691	33.96
282.906	60.59
283.122	40.11
283.337	50.35
283.552	46.25
283.767	33.96
283.983	13.48
284.198	33.96
284.413	54.44
284.628	-23.38
284.843	-0.85
285.058	38.06
285.274	15.53
285.489	29.87
285.704	44.2
285.919	21.67
286.134	-21.33
286.349	42.15
286.564	23.72
286.779	68.78
286.995	40.11
287.21	-21.33
287.425	-11.09
287.64	54.44
287.855	11.43
288.07	91.31
288.285	132.26
288.5	31.91
288.715	56.49
288.93	85.16
289.145	21.67
289.36	93.35
289.575	64.68
289.79	93.35
290.004	-72.53
290.219	56.49
290.434	46.25
290.649	31.91
290.864	-21.33
291.079	15.53
291.294	50.35
291.509	-0.85
291.724	29.87
291.938	9.39
292.153	25.77
292.368	-19.29
292.583	50.35
292.798	-64.34
293.012	27.82
293.227	-9.05
293.442	95.4
293.657	11.43
293.871	62.63
294.086	103.59
294.301	27.82
294.516	54.44
294.73	54.44
294.945	54.44
295.16	66.73
295.374	50.35
295.589	89.26
295.804	58.54
296.018	15.53
296.233	44.2
296.447	11.43
296.662	9.39
296.877	85.16
297.091	-50
297.306	62.63
297.52	101.55
297.735	42.15
297.949	-19.29
298.164	7.34
298.378	-41.81
298.593	79.02
298.807	-37.72
299.022	62.63
299.236	13.48
299.451	44.2
299.665	-4.95
299.88	33.96
300.094	33.96
300.309	46.25
300.523	9.39
300.737	-29.52
300.952	83.11
301.166	91.31
301.381	9.39
301.595	-19.29
301.809	-29.52
302.024	29.87
302.238	-21.33
302.452	25.77
302.667	44.2
302.881	56.49
303.095	38.06
303.309	-74.58
303.524	-23.38
303.738	-45.91
303.952	-27.48
304.166	66.73
304.381	74.92
304.595	13.48
304.809	60.59
305.023	31.91
305.237	-9.05
305.452	-11.09
305.666	-27.48
305.88	-15.19
306.094	9.39
306.308	9.39
306.522	-2.9
306.736	13.48
306.95	58.54
307.164	-15.19
307.379	62.63
307.593	50.35
307.807	70.83
308.021	-15.19
308.235	62.63
308.449	44.2
308.663	-72.53
308.877	91.31
309.091	54.44
309.305	15.53
309.519	-21.33
309.733	-13.14
309.947	62.63
310.161	42.15
310.374	13.48
310.588	56.49
310.802	52.39
311.016	-21.33
311.23	-11.09
311.444	66.73
311.658	-11.09
311.872	111.78
312.085	101.55
312.299	44.2
312.513	81.07
312.727	40.11
312.941	33.96
313.154	95.4
313.368	64.68
313.582	21.67
313.796	36.01
314.009	60.59
314.223	154.79
314.437	46.25
314.651	1.19
314.864	-15.19
315.078	-23.38
315.292	11.43
315.505	17.58
315.719	42.15
315.933	7.34
316.146	38.06
316.36	40.11
316.573	72.87
316.787	46.25
317.001	91.31
317.214	-58.2
317.428	70.83
317.641	33.96
317.855	5.29
318.068	50.35
318.282	17.58
318.495	74.92
318.709	33.96
318.922	72.87
319.136	52.39
319.349	-29.52
319.563	46.25
319.776	68.78
319.99	-7
320.203	-23.38
320.417	7.34
320.63	17.58
320.843	103.59
321.057	74.92
321.27	62.63
321.483	46.25
321.697	-0.85
321.91	7.34
322.124	-11.09
322.337	-7
322.55	99.5
322.763	130.22
322.977	25.77
323.19	33.96
323.403	83.11
323.617	25.77
323.83	25.77
324.043	70.83
324.256	23.72
324.469	68.78
324.683	62.63
324.896	-37.72
325.109	72.87
325.322	7.34
325.535	62.63
325.748	60.59
325.962	48.3
326.175	15.53
326.388	68.78
326.601	50.35
326.814	81.07
327.027	15.53
327.24	-7
327.453	40.11
327.666	87.21
327.879	-47.96
328.092	33.96
328.305	66.73
328.518	-23.38
328.731	52.39
328.944	66.73
329.157	62.63
329.37	46.25
329.583	64.68
329.796	29.87
330.009	40.11
330.222	9.39
330.435	3.24
330.648	5.29
330.861	52.39
331.073	40.11
331.286	-31.57
331.499	107.69
331.712	11.43
331.925	23.72
332.138	25.77
332.35	29.87
332.563	-11.09
332.776	62.63
332.989	9.39
333.202	23.72
333.414	25.77
333.627	-35.67
333.84	25.77
334.053	7.34
334.265	64.68
334.478	-58.2
334.691	-9.05
334.903	81.07
335.116	-7
335.329	19.63
335.541	31.91
335.754	70.83
335.966	9.39
336.179	42.15
336.392	50.35
336.604	27.82
336.817	21.67
337.029	70.83
337.242	122.02
337.454	46.25
337.667	25.77
337.88	50.35
338.092	91.31
338.305	58.54
338.517	5.29
338.729	99.5
338.942	132.26
339.154	-7
339.367	-0.85
339.579	27.82
339.792	40.11
340.004	52.39
340.217	52.39
340.429	46.25
340.641	-39.76
340.854	-33.62
341.066	-9.05
341.278	5.29
341.491	40.11
341.703	50.35
341.915	87.21
342.128	-9.05
342.34	60.59
342.552	40.11
342.764	-2.9
342.977	27.82
343.189	56.49
343.401	-0.85
343.613	-64.34
343.826	-39.76
344.038	42.15
344.25	62.63
344.462	42.15
344.674	72.87
344.886	7.34
345.099	58.54
345.311	66.73
345.523	-39.76
345.735	23.72
345.947	-2.9
346.159	5.29
346.371	48.3
346.583	54.44
346.795	38.06
347.007	40.11
347.219	64.68
347.431	25.77
347.643	-9.05
347.855	25.77
348.067	76.97
348.279	48.3
348.491	27.82
348.703	105.64
348.915	21.67
349.127	70.83
349.339	15.53
349.551	50.35
349.763	60.59
349.975	31.91
350.187	-13.14
350.399	70.83
350.61	-31.57
350.822	33.96
351.034	15.53
351.246	76.97
351.458	33.96
351.669	70.83
351.881	23.72
352.093	66.73
352.305	7.34
352.517	25.77
352.728	-7
352.94	42.15
353.152	66.73
353.363	58.54
353.575	1.19
353.787	83.11
353.999	70.83
354.21	124.07
354.422	33.96
354.633	25.77
354.845	64.68
355.057	29.87
355.268	44.2
355.48	62.63
355.692	9.39
355.903	46.25
356.115	70.83
356.326	85.16
356.538	58.54
356.749	58.54
356.961	19.63
357.172	29.87
357.384	42.15
357.595	130.22
357.807	40.11
358.018	79.02
358.23	-13.14
358.441	99.5
358.653	79.02
358.864	50.35
359.075	50.35
359.287	58.54
359.498	56.49
359.709	17.58
359.921	68.78
360.132	64.68
360.344	119.98
360.555	-33.62
360.766	46.25
360.977	27.82
361.189	99.5
361.4	31.91
361.611	19.63
361.823	31.91
362.034	56.49
362.245	15.53
362.456	9.39
362.667	33.96
362.879	56.49
363.09	74.92
363.301	70.83
363.512	38.06
363.723	52.39
363.935	62.63
364.146	126.12
364.357	7.34
364.568	99.5
364.779	9.39
364.99	95.4
365.201	42.15
365.412	7.34
365.623	46.25
365.834	74.92
366.045	-31.57
366.256	7.34
366.467	40.11
366.678	68.78
366.889	64.68
367.1	66.73
367.311	31.91
367.522	25.77
367.733	68.78
367.944	15.53
368.155	42.15
368.366	50.35
368.577	38.06
368.788	25.77
368.999	-21.33
369.209	36.01
369.42	11.43
369.631	128.17
369.842	74.92
370.053	38.06
370.264	95.4
370.474	119.98
370.685	52.39
370.896	17.58
371.107	-23.38
371.317	54.44
371.528	-21.33
371.739	89.26
371.95	81.07
372.16	15.53
372.371	40.11
372.582	87.21
372.792	72.87
373.003	122.02
373.214	50.35
373.424	101.55
373.635	-9.05
373.846	46.25
374.056	99.5
374.267	66.73
374.477	62.63
374.688	44.2
374.898	40.11
375.109	40.11
375.319	52.39
375.53	107.69
375.74	42.15
375.951	3.24
376.161	-58.2
376.372	74.92
376.582	1.19
376.793	81.07
377.003	-31.57
377.214	-11.09
377.424	23.72
377.635	48.3
377.845	29.87
378.055	70.83
378.266	-15.19
378.476	50.35
378.686	25.77
378.897	42.15
379.107	79.02
379.317	48.3
379.528	23.72
379.738	115.88
379.948	21.67
380.158	56.49
380.369	56.49
380.579	74.92
380.789	62.63
380.999	99.5
381.21	38.06
381.42	62.63
381.63	64.68
381.84	60.59
382.05	33.96
382.261	62.63
382.471	40.11
382.681	132.26
382.891	38.06
383.101	50.35
383.311	-47.96
383.521	13.48
383.731	-2.9
383.941	31.91
384.151	54.44
384.361	38.06
384.571	56.49
384.781	72.87
384.991	54.44
385.201	54.44
385.411	66.73
385.621	13.48
385.831	111.78
386.041	13.48
386.251	-7
386.461	91.31
386.671	29.87
386.881	11.43
387.091	42.15
387.301	52.39
387.511	21.67
387.72	54.44
387.93	109.74
388.14	42.15
388.35	44.2
388.56	70.83
388.769	66.73
388.979	23.72
389.189	-60.24
389.399	42.15
389.609	50.35
389.818	52.39
390.028	91.31
390.238	52.39
390.447	44.2
390.657	40.11
390.867	58.54
391.076	62.63
391.286	107.69
391.496	97.45
391.705	68.78
391.915	79.02
392.125	38.06
392.334	27.82
392.544	40.11
392.753	38.06
392.963	83.11
393.172	23.72
393.382	42.15
393.591	52.39
393.801	76.97
394.01	68.78
394.22	-13.14
394.429	74.92
394.639	95.4
394.848	42.15
395.058	29.87
395.267	97.45
395.477	105.64
395.686	91.31
395.895	101.55
396.105	136.36
396.314	146.6
396.524	85.16
396.733	42.15
396.942	50.35
397.152	132.26
397.361	54.44
397.57	70.83
397.78	54.44
397.989	54.44
398.198	81.07
398.407	119.98
398.617	99.5
398.826	38.06
399.035	83.11
399.244	81.07
399.453	52.39
399.663	52.39
399.872	72.87
400.081	93.35
400.29	64.68
400.499	81.07
400.708	220.33
400.917	152.74
401.127	33.96
401.336	107.69
401.545	130.22
401.754	95.4
401.963	146.6
402.172	66.73
402.381	126.12
402.59	66.73
402.799	124.07
403.008	113.83
403.217	128.17
403.426	134.31
403.635	117.93
403.844	58.54
404.053	181.42
404.262	113.83
404.471	132.26
404.68	48.3
404.888	91.31
405.097	66.73
405.306	115.88
405.515	181.42
405.724	122.02
405.933	95.4
406.142	230.57
406.35	154.79
406.559	136.36
406.768	175.27
406.977	169.13
407.185	154.79
407.394	169.13
407.603	126.12
407.812	177.32
408.02	158.89
408.229	156.84
408.438	179.37
408.646	205.99
408.855	205.99
409.064	230.57
409.272	201.9
409.481	181.42
409.69	230.57
409.898	185.51
410.107	251.05
410.315	253.09
410.524	287.91
410.733	255.14
410.941	382.12
411.15	326.82
411.358	312.49
411.567	351.4
411.775	337.06
411.984	330.92
412.192	390.31
412.401	386.21
412.609	369.83
412.818	435.36
413.026	398.5
413.234	468.13
413.443	396.45
413.651	480.42
413.86	486.56
414.068	480.42
414.276	521.38
414.485	582.82
414.693	564.39
414.901	611.49
415.11	623.78
415.318	539.81
415.526	664.74
415.734	650.4
415.943	623.78
416.151	623.78
416.359	591.01
416.567	730.27
416.776	711.84
416.984	806.05
417.192	795.81
417.4	892.06
417.608	732.32
417.817	832.67
418.025	957.6
418.233	920.73
418.441	877.73
418.649	1047.71
418.857	1078.43
419.065	1115.29
419.273	1033.37
419.481	1139.87
419.689	1111.19
419.897	1293.46
420.105	1189.02
420.313	1223.83
420.521	1406.1
420.729	1264.79
420.937	1416.34
421.145	1500.31
421.353	1406.1
421.561	1578.13
421.769	1574.03
421.977	1647.76
422.185	1680.53
422.393	1801.36
422.601	1815.69
422.809	1905.81
423.017	1848.46
423.224	2022.54
423.432	2079.88
423.64	2014.35
423.848	2167.95
424.056	2200.71
424.263	2325.64
424.471	2348.17
424.679	2466.95
424.887	2575.49
425.094	2595.97
425.302	2690.18
425.51	2663.55
425.718	2864.25
425.925	2761.86
426.133	2987.13
426.341	2987.13
426.548	3216.51
426.756	3249.27
426.964	3202.17
427.171	3456.12
427.379	3462.26
427.586	3660.91
427.794	3634.29
428.001	3867.76
428.209	4039.79
428.417	3951.73
428.624	4260.97
428.832	4209.77
429.039	4205.67
429.247	4375.66
429.454	4633.7
429.662	4906.08
429.869	4645.99
430.076	5033.05
430.284	4879.46
430.491	5045.34
430.699	5407.83
430.906	5411.93
431.114	5473.37
431.321	5583.96
431.528	5823.57
431.736	6190.16
431.943	6399.05
432.15	6134.86
432.358	6161.48
432.565	6593.61
432.772	6548.55
432.979	6964.29
433.187	6968.38
433.394	7113.79
433.601	7609.4
433.808	7625.78
434.016	7429.18
434.223	7922.74
434.43	8188.97
434.637	8315.95
434.844	8647.72
435.052	8737.83
435.259	8815.65
435.466	8776.74
435.673	8817.7
435.88	9313.31
436.087	9982.99
436.294	9903.12
436.501	9538.59
436.708	9837.59
436.915	10007.57
437.122	10564.62
437.329	10646.54
437.537	10841.09
437.743	11297.79
437.95	10793.99
438.157	11457.53
438.364	12071.92
438.571	11869.17
438.778	11953.14
438.985	13163.49
439.192	12504.04
439.399	12846.05
439.606	13022.18
439.813	13482.97
440.02	14259.15
440.227	14042.07
440.433	13863.9
440.64	14261.2
440.847	14318.54
441.054	14640.08
441.261	15498.17
441.467	15272.9
441.674	15594.43
441.881	15995.83
442.088	16305.07
442.294	15819.71
442.501	16655.28
442.708	16802.73
442.914	17533.86
443.121	18185.11
443.328	17578.91
443.534	18926.47
443.741	18592.65
443.948	18111.38
444.154	19573.63
444.361	19383.17
444.568	19516.29
444.774	19557.25
444.981	19886.97
445.187	20325.24
445.394	21283.69
445.6	20865.9
445.807	22911.82
446.013	21873.5
446.22	22621.01
446.426	23163.72
446.633	23321.41
446.839	24482.61
447.046	23311.17
447.252	24593.2
447.459	24277.82
447.665	24361.78
447.871	25467.69
448.078	26630.93
448.284	25426.73
448.491	25996.06
448.697	26968.85
448.903	27546.37
449.11	27470.6
449.316	27085.58
449.522	27710.21
449.728	28361.47
449.935	28199.68
450.141	28474.1
450.347	29070.06
450.553	28158.72
450.76	28740.34
450.966	29532.9
451.172	29518.57
451.378	30053.09
451.584	29590.25
451.791	30249.69
451.997	30081.76
452.203	30554.84
452.409	30403.29
452.615	30370.52
452.821	29422.31
453.027	28951.28
453.233	30520.02
453.44	29383.4
453.646	29901.54
453.852	29575.91
454.058	30294.75
454.264	29299.44
454.47	29551.34
454.676	29119.21
454.882	30427.87
455.088	27306.76
455.294	28105.47
455.5	28373.75
455.705	28654.33
455.911	27720.45
456.117	26762
456.323	26589.97
456.529	25168.68
456.735	26047.26
456.941	25357.1
457.147	25043.76
457.352	24257.34
457.558	24243
457.764	24259.38
457.97	23728.96
458.176	23300.94
458.381	23042.89
458.587	21973.85
458.793	22076.25
458.999	21152.62
459.204	21896.03
459.41	21799.77
459.616	20241.27
459.821	20491.12
460.027	20372.34
460.233	19641.21
460.438	18875.27
460.644	19102.6
460.85	18267.03
461.055	17877.91
461.261	18070.42
461.466	16677.8
461.672	16131
461.878	17173.41
462.083	15909.82
462.289	15905.72
462.494	15479.74
462.7	14986.18
462.905	14498.77
463.111	14937.03
463.316	15123.4
463.522	14742.47
463.727	14826.44
463.932	14762.95
464.138	14638.03
464.343	14562.25
464.549	14187.47
464.754	14709.71
464.959	14572.49
465.165	14627.79
465.37	13781.98
465.575	13444.06
465.781	14095.32
465.986	14160.85
466.191	13550.56
466.397	13241.31
466.602	12694.5
466.807	13046.76
467.012	13417.44
467.218	13280.22
467.423	13114.34
467.628	12987.36
467.833	13741.02
468.038	13319.14
468.244	12690.41
468.449	13198.31
