Data from USB4F104151__42__11-36-58-224.txt Node

Date: Fri Mar 14 11:36:58 EDT 2025
User: louis
Spectrometer: USB4F10415
Trigger mode: 4
Integration Time (sec): 2.000000E-2
Scans to average: 1
Electric dark correction enabled: true
Nonlinearity correction enabled: false
Boxcar width: 0
XAxis mode: Wavelengths
Number of Pixels in Spectrum: 3648
>>>>>Begin Spectral Data<<<<<
178.204	-99.84
178.424	-99.84
178.644	-99.84
178.864	-103.93
179.084	-7.68
179.304	-71.17
179.524	-32.26
179.744	-99.84
179.964	47.62
180.184	47.62
180.404	57.86
180.624	43.52
180.844	-30.21
181.064	-7.68
181.283	-17.92
181.503	59.9
181.723	2.56
181.943	-13.82
182.163	51.71
182.383	16.9
182.602	-7.68
182.822	31.23
183.042	59.9
183.262	-13.82
183.482	10.75
183.701	35.33
183.921	2.56
184.141	-42.5
184.361	33.28
184.58	-1.54
184.8	12.8
185.02	-28.16
185.239	-1.54
185.459	-30.21
185.679	-85.5
185.898	-44.54
186.118	-28.16
186.338	-65.02
186.557	39.42
186.777	-11.78
186.997	18.94
187.216	-67.07
187.436	27.14
187.655	-48.64
187.875	31.23
188.095	8.7
188.314	-62.98
188.534	-15.87
188.753	18.94
188.973	-26.11
189.192	49.66
189.412	43.52
189.631	37.38
189.851	-50.69
190.07	8.7
190.29	-44.54
190.509	-30.21
190.729	-48.64
190.948	16.9
191.168	64
191.387	55.81
191.607	-42.5
191.826	18.94
192.045	23.04
192.265	2.56
192.484	-38.4
192.704	-42.5
192.923	10.75
193.142	82.43
193.362	37.38
193.581	43.52
193.8	6.66
194.02	10.75
194.239	8.7
194.458	-30.21
194.678	14.85
194.897	-52.74
195.116	20.99
195.335	27.14
195.555	41.47
195.774	-44.54
195.993	-30.21
196.212	-34.3
196.432	31.23
196.651	78.33
196.87	-17.92
197.089	25.09
197.308	-15.87
197.528	-26.11
197.747	-40.45
197.966	-56.83
198.185	84.48
198.404	-19.97
198.623	35.33
198.842	-30.21
199.062	12.8
199.281	-42.5
199.5	23.04
199.719	2.56
199.938	92.67
200.157	57.86
200.376	-17.92
200.595	78.33
200.814	61.95
201.033	-54.78
201.252	41.47
201.471	84.48
201.69	-17.92
201.909	2.56
202.128	14.85
202.347	-34.3
202.566	-36.35
202.785	10.75
203.004	-19.97
203.223	39.42
203.442	-17.92
203.661	10.75
203.879	-40.45
204.098	35.33
204.317	39.42
204.536	45.57
204.755	2.56
204.974	-15.87
205.193	-13.82
205.411	37.38
205.63	-40.45
205.849	18.94
206.068	-83.45
206.287	12.8
206.505	51.71
206.724	-15.87
206.943	-38.4
207.162	29.18
207.381	-22.02
207.599	37.38
207.818	41.47
208.037	-30.21
208.255	25.09
208.474	-9.73
208.693	-30.21
208.911	80.38
209.13	-5.63
209.349	-5.63
209.567	-1.54
209.786	41.47
210.005	-32.26
210.223	45.57
210.442	0.51
210.661	-73.21
210.879	-62.98
211.098	0.51
211.316	-17.92
211.535	-13.82
211.753	-28.16
211.972	27.14
212.191	14.85
212.409	25.09
212.628	18.94
212.846	27.14
213.065	-17.92
213.283	57.86
213.502	-71.17
213.72	2.56
213.938	-1.54
214.157	-54.78
214.375	-7.68
214.594	23.04
214.812	-40.45
215.031	-22.02
215.249	39.42
215.467	-13.82
215.686	18.94
215.904	39.42
216.122	-46.59
216.341	51.71
216.559	16.9
216.778	-13.82
216.996	14.85
217.214	2.56
217.432	25.09
217.651	2.56
217.869	-95.74
218.087	-15.87
218.306	-22.02
218.524	29.18
218.742	2.56
218.96	6.66
219.179	4.61
219.397	2.56
219.615	55.81
219.833	29.18
220.051	31.23
220.27	57.86
220.488	59.9
220.706	16.9
220.924	-11.78
221.142	14.85
221.36	-1.54
221.578	-42.5
221.796	-9.73
222.015	-38.4
222.233	-26.11
222.451	14.85
222.669	-32.26
222.887	-22.02
223.105	27.14
223.323	-17.92
223.541	-26.11
223.759	35.33
223.977	76.29
224.195	23.04
224.413	35.33
224.631	-3.58
224.849	-24.06
225.067	-9.73
225.285	-71.17
225.503	29.18
225.721	18.94
225.939	2.56
226.157	-26.11
226.375	47.62
226.592	51.71
226.81	39.42
227.028	74.24
227.246	55.81
227.464	-1.54
227.682	6.66
227.9	-3.58
228.117	4.61
228.335	-24.06
228.553	-48.64
228.771	18.94
228.989	18.94
229.206	-5.63
229.424	-1.54
229.642	-13.82
229.86	8.7
230.077	-1.54
230.295	-13.82
230.513	31.23
230.731	12.8
230.948	53.76
231.166	49.66
231.384	35.33
231.601	59.9
231.819	10.75
232.037	64
232.254	8.7
232.472	39.42
232.689	-1.54
232.907	55.81
233.125	-32.26
233.342	-17.92
233.56	23.04
233.777	6.66
233.995	2.56
234.213	-17.92
234.43	-17.92
234.648	-54.78
234.865	0.51
235.083	-9.73
235.3	53.76
235.518	10.75
235.735	33.28
235.953	57.86
236.17	2.56
236.388	-54.78
236.605	0.51
236.822	98.81
237.04	-19.97
237.257	33.28
237.475	-48.64
237.692	-30.21
237.909	57.86
238.127	-52.74
238.344	16.9
238.562	64
238.779	-17.92
238.996	68.09
239.214	-5.63
239.431	18.94
239.648	-48.64
239.865	23.04
240.083	-28.16
240.3	-13.82
240.517	-34.3
240.735	-22.02
240.952	80.38
241.169	31.23
241.386	43.52
241.603	0.51
241.821	-34.3
242.038	76.29
242.255	-24.06
242.472	18.94
242.689	16.9
242.907	35.33
243.124	-24.06
243.341	-7.68
243.558	-28.16
243.775	-13.82
243.992	23.04
244.209	14.85
244.426	35.33
244.643	51.71
244.86	8.7
245.078	27.14
245.295	-9.73
245.512	-40.45
245.729	-42.5
245.946	31.23
246.163	43.52
246.38	-26.11
246.597	39.42
246.814	39.42
247.031	41.47
247.248	20.99
247.464	-15.87
247.681	37.38
247.898	78.33
248.115	18.94
248.332	16.9
248.549	23.04
248.766	45.57
248.983	-13.82
249.2	-13.82
249.417	18.94
249.633	-28.16
249.85	-30.21
250.067	-38.4
250.284	-40.45
250.501	-9.73
250.717	-9.73
250.934	33.28
251.151	27.14
251.368	4.61
251.585	12.8
251.801	16.9
252.018	31.23
252.235	27.14
252.451	20.99
252.668	-7.68
252.885	74.24
253.102	-22.02
253.318	-1.54
253.535	-1.54
253.752	43.52
253.968	-46.59
254.185	-34.3
254.401	29.18
254.618	-30.21
254.835	27.14
255.051	23.04
255.268	31.23
255.484	14.85
255.701	45.57
255.917	-5.63
256.134	-52.74
256.351	-32.26
256.567	-17.92
256.784	-1.54
257	-67.07
257.217	-38.4
257.433	-5.63
257.65	78.33
257.866	-9.73
258.082	23.04
258.299	80.38
258.515	49.66
258.732	-75.26
258.948	-11.78
259.165	23.04
259.381	10.75
259.597	57.86
259.814	6.66
260.03	-28.16
260.246	23.04
260.463	92.67
260.679	33.28
260.895	-48.64
261.112	-13.82
261.328	10.75
261.544	-30.21
261.761	86.53
261.977	41.47
262.193	-28.16
262.409	-34.3
262.626	27.14
262.842	2.56
263.058	-38.4
263.274	135.68
263.49	-34.3
263.707	-3.58
263.923	57.86
264.139	-26.11
264.355	45.57
264.571	29.18
264.787	-22.02
265.004	-89.6
265.22	-24.06
265.436	-34.3
265.652	-15.87
265.868	61.95
266.084	-89.6
266.3	27.14
266.516	14.85
266.732	-17.92
266.948	6.66
267.164	-9.73
267.38	72.19
267.596	-9.73
267.812	8.7
268.028	-46.59
268.244	-1.54
268.46	-56.83
268.676	-24.06
268.892	27.14
269.108	-24.06
269.324	-19.97
269.54	74.24
269.756	-7.68
269.972	0.51
270.188	-26.11
270.403	70.14
270.619	-22.02
270.835	18.94
271.051	10.75
271.267	10.75
271.483	2.56
271.698	-54.78
271.914	-19.97
272.13	27.14
272.346	10.75
272.562	25.09
272.777	104.96
272.993	-48.64
273.209	-9.73
273.425	59.9
273.64	-9.73
273.856	25.09
274.072	12.8
274.287	-77.31
274.503	27.14
274.719	2.56
274.934	25.09
275.15	-30.21
275.366	-44.54
275.581	-71.17
275.797	14.85
276.012	-46.59
276.228	-9.73
276.444	-7.68
276.659	33.28
276.875	4.61
277.09	-11.78
277.306	25.09
277.521	59.9
277.737	-60.93
277.952	-7.68
278.168	47.62
278.383	88.57
278.599	-5.63
278.814	23.04
279.03	14.85
279.245	-5.63
279.461	-3.58
279.676	-5.63
279.892	-95.74
280.107	27.14
280.322	-26.11
280.538	-28.16
280.753	-26.11
280.969	-15.87
281.184	51.71
281.399	84.48
281.615	-5.63
281.83	33.28
282.045	-24.06
282.26	-36.35
282.476	29.18
282.691	27.14
282.906	16.9
283.122	-50.69
283.337	-7.68
283.552	35.33
283.767	35.33
283.983	31.23
284.198	6.66
284.413	12.8
284.628	16.9
284.843	-7.68
285.058	-38.4
285.274	27.14
285.489	18.94
285.704	0.51
285.919	-71.17
286.134	-17.92
286.349	23.04
286.564	12.8
286.779	16.9
286.995	-56.83
287.21	-50.69
287.425	25.09
287.64	-13.82
287.855	25.09
288.07	-97.79
288.285	98.81
288.5	-11.78
288.715	107.01
288.93	-54.78
289.145	55.81
289.36	18.94
289.575	6.66
289.79	-9.73
290.004	-71.17
290.219	2.56
290.434	-54.78
290.649	-1.54
290.864	4.61
291.079	8.7
291.294	-15.87
291.509	-1.54
291.724	14.85
291.938	72.19
292.153	-54.78
292.368	20.99
292.583	-32.26
292.798	-24.06
293.012	20.99
293.227	-38.4
293.442	39.42
293.657	10.75
293.871	37.38
294.086	20.99
294.301	98.81
294.516	-26.11
294.73	31.23
294.945	-5.63
295.16	55.81
295.374	59.9
295.589	0.51
295.804	-11.78
296.018	6.66
296.233	0.51
296.447	-13.82
296.662	-3.58
296.877	57.86
297.091	-13.82
297.306	10.75
297.52	12.8
297.735	2.56
297.949	10.75
298.164	39.42
298.378	18.94
298.593	2.56
298.807	10.75
299.022	39.42
299.236	-30.21
299.451	-5.63
299.665	-9.73
299.88	-22.02
300.094	-13.82
300.309	45.57
300.523	80.38
300.737	37.38
300.952	0.51
301.166	-38.4
301.381	43.52
301.595	2.56
301.809	23.04
302.024	70.14
302.238	-65.02
302.452	-69.12
302.667	31.23
302.881	72.19
303.095	49.66
303.309	8.7
303.524	-30.21
303.738	-52.74
303.952	45.57
304.166	59.9
304.381	-13.82
304.595	14.85
304.809	-5.63
305.023	20.99
305.237	0.51
305.452	27.14
305.666	39.42
305.88	-19.97
306.094	10.75
306.308	117.25
306.522	45.57
306.736	10.75
306.95	45.57
307.164	-9.73
307.379	-67.07
307.593	33.28
307.807	-50.69
308.021	-11.78
308.235	18.94
308.449	-38.4
308.663	-44.54
308.877	64
309.091	39.42
309.305	45.57
309.519	41.47
309.733	12.8
309.947	-38.4
310.161	14.85
310.374	66.05
310.588	84.48
310.802	-19.97
311.016	18.94
311.23	-48.64
311.444	33.28
311.658	6.66
311.872	-28.16
312.085	8.7
312.299	-1.54
312.513	14.85
312.727	-13.82
312.941	25.09
313.154	8.7
313.368	-67.07
313.582	-19.97
313.796	2.56
314.009	20.99
314.223	37.38
314.437	-26.11
314.651	-48.64
314.864	-24.06
315.078	64
315.292	-38.4
315.505	-3.58
315.719	59.9
315.933	43.52
316.146	-36.35
316.36	14.85
316.573	18.94
316.787	45.57
317.001	-5.63
317.214	-46.59
317.428	27.14
317.641	-54.78
317.855	16.9
318.068	31.23
318.282	37.38
318.495	23.04
318.709	57.86
318.922	-15.87
319.136	2.56
319.349	-1.54
319.563	-38.4
319.776	-5.63
319.99	-40.45
320.203	6.66
320.417	27.14
320.63	49.66
320.843	72.19
321.057	47.62
321.27	-3.58
321.483	37.38
321.697	6.66
321.91	2.56
322.124	39.42
322.337	57.86
322.55	-9.73
322.763	25.09
322.977	18.94
323.19	20.99
323.403	78.33
323.617	51.71
323.83	29.18
324.043	4.61
324.256	66.05
324.469	68.09
324.683	14.85
324.896	-50.69
325.109	10.75
325.322	-19.97
325.535	-13.82
325.748	102.91
325.962	4.61
326.175	-79.36
326.388	55.81
326.601	-79.36
326.814	23.04
327.027	0.51
327.24	6.66
327.453	-22.02
327.666	8.7
327.879	10.75
328.092	14.85
328.305	49.66
328.518	2.56
328.731	35.33
328.944	0.51
329.157	-9.73
329.37	29.18
329.583	8.7
329.796	78.33
330.009	-15.87
330.222	18.94
330.435	37.38
330.648	31.23
330.861	57.86
331.073	-38.4
331.286	31.23
331.499	-5.63
331.712	-54.78
331.925	8.7
332.138	2.56
332.35	59.9
332.563	-83.45
332.776	10.75
332.989	23.04
333.202	57.86
333.414	23.04
333.627	27.14
333.84	-28.16
334.053	20.99
334.265	-79.36
334.478	39.42
334.691	27.14
334.903	10.75
335.116	-30.21
335.329	-34.3
335.541	-34.3
335.754	37.38
335.966	-7.68
336.179	27.14
336.392	25.09
336.604	68.09
336.817	-40.45
337.029	23.04
337.242	0.51
337.454	-17.92
337.667	-5.63
337.88	51.71
338.092	47.62
338.305	33.28
338.517	-38.4
338.729	-19.97
338.942	-24.06
339.154	8.7
339.367	12.8
339.579	16.9
339.792	8.7
340.004	55.81
340.217	51.71
340.429	41.47
340.641	-5.63
340.854	25.09
341.066	20.99
341.278	92.67
341.491	31.23
341.703	-3.58
341.915	23.04
342.128	25.09
342.34	-44.54
342.552	8.7
342.764	2.56
342.977	16.9
343.189	27.14
343.401	2.56
343.613	-50.69
343.826	80.38
344.038	51.71
344.25	-34.3
344.462	53.76
344.674	-48.64
344.886	6.66
345.099	23.04
345.311	0.51
345.523	-40.45
345.735	2.56
345.947	96.77
346.159	27.14
346.371	-7.68
346.583	39.42
346.795	12.8
347.007	31.23
347.219	2.56
347.431	-46.59
347.643	98.81
347.855	20.99
348.067	31.23
348.279	-50.69
348.491	35.33
348.703	-30.21
348.915	51.71
349.127	-13.82
349.339	41.47
349.551	-3.58
349.763	6.66
349.975	6.66
350.187	39.42
350.399	96.77
350.61	0.51
350.822	-5.63
351.034	-17.92
351.246	-5.63
351.458	25.09
351.669	20.99
351.881	-15.87
352.093	16.9
352.305	-17.92
352.517	-7.68
352.728	16.9
352.94	51.71
353.152	-11.78
353.363	14.85
353.575	12.8
353.787	-13.82
353.999	-15.87
354.21	43.52
354.422	-1.54
354.633	33.28
354.845	-7.68
355.057	-7.68
355.268	-44.54
355.48	31.23
355.692	-7.68
355.903	49.66
356.115	16.9
356.326	6.66
356.538	113.15
356.749	86.53
356.961	-5.63
357.172	-3.58
357.384	43.52
357.595	23.04
357.807	35.33
358.018	41.47
358.23	-56.83
358.441	49.66
358.653	6.66
358.864	-7.68
359.075	-17.92
359.287	37.38
359.498	2.56
359.709	2.56
359.921	57.86
360.132	57.86
360.344	10.75
360.555	35.33
360.766	-13.82
360.977	27.14
361.189	57.86
361.4	29.18
361.611	31.23
361.823	-1.54
362.034	-97.79
362.245	4.61
362.456	49.66
362.667	-26.11
362.879	41.47
363.09	47.62
363.301	-19.97
363.512	-1.54
363.723	-1.54
363.935	29.18
364.146	25.09
364.357	23.04
364.568	-32.26
364.779	66.05
364.99	70.14
365.201	-1.54
365.412	10.75
365.623	76.29
365.834	41.47
366.045	10.75
366.256	43.52
366.467	14.85
366.678	12.8
366.889	-28.16
367.1	14.85
367.311	98.81
367.522	0.51
367.733	-7.68
367.944	-5.63
368.155	-13.82
368.366	-5.63
368.577	37.38
368.788	51.71
368.999	-1.54
369.209	43.52
369.42	59.9
369.631	33.28
369.842	-38.4
370.053	90.62
370.264	53.76
370.474	18.94
370.685	66.05
370.896	49.66
371.107	57.86
371.317	43.52
371.528	0.51
371.739	27.14
371.95	6.66
372.16	61.95
372.371	-87.55
372.582	-11.78
372.792	-30.21
373.003	43.52
373.214	49.66
373.424	-30.21
373.635	37.38
373.846	51.71
374.056	20.99
374.267	31.23
374.477	4.61
374.688	27.14
374.898	-52.74
375.109	45.57
375.319	25.09
375.53	43.52
375.74	31.23
375.951	68.09
376.161	37.38
376.372	18.94
376.582	27.14
376.793	-11.78
377.003	76.29
377.214	-28.16
377.424	-26.11
377.635	51.71
377.845	-19.97
378.055	-36.35
378.266	-13.82
378.476	-30.21
378.686	-13.82
378.897	0.51
379.107	10.75
379.317	6.66
379.528	6.66
379.738	-26.11
379.948	2.56
380.158	-1.54
380.369	8.7
380.579	88.57
380.789	-19.97
380.999	25.09
381.21	45.57
381.42	-34.3
381.63	2.56
381.84	88.57
382.05	70.14
382.261	10.75
382.471	119.29
382.681	-30.21
382.891	84.48
383.101	27.14
383.311	31.23
383.521	41.47
383.731	84.48
383.941	10.75
384.151	98.81
384.361	8.7
384.571	39.42
384.781	61.95
384.991	59.9
385.201	33.28
385.411	-13.82
385.621	6.66
385.831	-32.26
386.041	-54.78
386.251	20.99
386.461	47.62
386.671	70.14
386.881	49.66
387.091	14.85
387.301	55.81
387.511	-38.4
387.72	29.18
387.93	61.95
388.14	16.9
388.35	35.33
388.56	27.14
388.769	49.66
388.979	2.56
389.189	0.51
389.399	88.57
389.609	33.28
389.818	59.9
390.028	-26.11
390.238	80.38
390.447	-38.4
390.657	4.61
390.867	35.33
391.076	14.85
391.286	8.7
391.496	57.86
391.705	64
391.915	-13.82
392.125	-11.78
392.334	20.99
392.544	16.9
392.753	35.33
392.963	-40.45
393.172	82.43
393.382	41.47
393.591	51.71
393.801	-3.58
394.01	59.9
394.22	104.96
394.429	10.75
394.639	57.86
394.848	39.42
395.058	31.23
395.267	66.05
395.477	-3.58
395.686	59.9
395.895	55.81
396.105	57.86
396.314	8.7
396.524	68.09
396.733	92.67
396.942	64
397.152	35.33
397.361	45.57
397.57	68.09
397.78	51.71
397.989	45.57
398.198	123.39
398.407	59.9
398.617	16.9
398.826	47.62
399.035	18.94
399.244	-17.92
399.453	37.38
399.663	39.42
399.872	125.44
400.081	4.61
400.29	18.94
400.499	-1.54
400.708	10.75
400.917	47.62
401.127	96.77
401.336	51.71
401.545	119.29
401.754	64
401.963	88.57
402.172	43.52
402.381	43.52
402.59	49.66
402.799	35.33
403.008	35.33
403.217	166.4
403.426	6.66
403.635	113.15
403.844	64
404.053	61.95
404.262	27.14
404.471	84.48
404.68	53.76
404.888	37.38
405.097	80.38
405.306	104.96
405.515	82.43
405.724	100.86
405.933	35.33
406.142	80.38
406.35	115.2
406.559	84.48
406.768	111.1
406.977	104.96
407.185	74.24
407.394	127.49
407.603	41.47
407.812	90.62
408.02	156.16
408.229	117.25
408.438	199.16
408.646	141.82
408.855	176.64
409.064	184.83
409.272	117.25
409.481	145.92
409.69	172.54
409.898	248.32
410.107	215.55
410.315	213.5
410.524	168.45
410.733	188.93
410.941	244.22
411.15	201.21
411.358	242.17
411.567	244.22
411.775	242.17
411.984	236.03
412.192	205.31
412.401	207.36
412.609	270.84
412.818	305.66
413.026	367.1
413.234	256.51
413.443	346.62
413.651	367.1
413.86	303.61
414.068	311.8
414.276	446.97
414.485	412.15
414.693	371.19
414.901	403.96
415.11	412.15
415.318	422.39
415.526	446.97
415.734	465.4
415.943	461.3
416.151	551.42
416.359	582.14
416.567	502.26
416.776	530.94
416.984	641.53
417.192	680.44
417.4	606.71
417.608	657.91
417.817	639.48
418.025	729.59
418.233	788.98
418.441	662.01
418.649	694.77
418.857	764.4
419.065	897.52
419.273	821.75
419.481	866.8
419.689	934.39
419.897	913.91
420.105	1083.89
420.313	969.2
420.521	1044.98
420.729	1081.84
420.937	1118.7
421.145	1087.98
421.353	1100.27
421.561	1214.96
421.769	1280.49
421.977	1233.39
422.185	1327.6
422.393	1391.08
422.601	1466.86
422.809	1509.86
423.017	1423.85
423.224	1593.83
423.432	1626.6
423.64	1575.4
423.848	1919.46
424.056	1749.48
424.263	1817.06
424.471	1868.26
424.679	1923.55
424.887	1991.14
425.094	2075.1
425.302	2140.64
425.51	2183.65
425.718	2128.35
425.925	2159.07
426.133	2300.38
426.341	2292.19
426.548	2611.67
426.756	2484.7
426.964	2496.99
427.171	2709.97
427.379	2718.17
427.586	2781.65
427.794	3019.22
428.001	2947.54
428.209	3162.58
428.417	3037.65
428.624	3303.89
428.832	3322.32
429.039	3369.42
429.247	3348.94
429.454	3670.47
429.662	3850.69
429.869	3635.66
430.076	3973.57
430.284	3783.11
430.491	3979.72
430.699	4227.52
430.906	4245.95
431.114	4248
431.321	4245.95
431.528	4469.18
431.736	4708.79
431.943	4993.46
432.15	4788.66
432.358	4872.63
432.565	5171.63
432.772	5145.01
432.979	5392.81
433.187	5439.92
433.394	5530.03
433.601	5888.42
433.808	5931.43
434.016	5925.29
434.223	6168.99
434.43	6433.18
434.637	6316.45
434.844	6619.55
435.052	7063.96
435.259	6867.35
435.466	6887.83
435.673	6973.85
435.88	7094.68
436.087	7618.96
436.294	7766.41
436.501	7518.61
436.708	7674.25
436.915	7944.58
437.122	8501.63
437.329	8282.5
437.537	8479.1
437.743	8622.46
437.95	8438.14
438.157	9017.72
438.364	9195.89
438.571	9199.99
438.778	9398.64
438.985	10334.56
439.192	9959.78
439.399	10062.18
439.606	9914.73
439.813	10381.67
440.02	11202.9
440.227	11061.59
440.433	10864.99
440.64	11385.17
440.847	10989.91
441.054	11561.3
441.261	12263.75
441.467	11999.56
441.674	12335.43
441.881	12609.86
442.088	12853.56
442.294	12706.11
442.501	12953.91
442.708	12935.48
442.914	13689.14
443.121	14170.41
443.328	13914.41
443.534	14672.16
443.741	14328.1
443.948	14149.93
444.154	15298.84
444.361	15192.34
444.568	15304.98
444.774	15317.27
444.981	15405.33
445.187	15986.96
445.394	16566.53
445.6	16437.51
445.807	18045.16
446.013	17154.3
446.22	17232.12
446.426	18184.43
446.633	18489.57
446.839	18991.33
447.046	18051.31
447.252	19050.72
447.459	19075.29
447.665	19091.68
447.871	19933.39
448.078	21047.49
448.284	19843.28
448.491	20484.3
448.697	21350.59
448.903	21727.41
449.11	21844.15
449.316	21276.86
449.522	21620.92
449.728	22192.3
449.935	22272.17
450.141	22388.91
450.347	23054.5
450.553	22137.01
450.76	22556.84
450.966	23290.01
451.172	22970.53
451.378	23652.5
451.584	23146.65
451.791	23701.65
451.997	23611.54
452.203	23720.09
452.409	23853.2
452.615	23863.44
452.821	22902.95
453.027	22837.41
453.233	23785.62
453.44	23013.54
453.646	23187.61
453.852	23580.82
454.058	23478.43
454.264	23052.45
454.47	23537.82
454.676	22726.82
454.882	23533.72
455.088	21651.64
455.294	21903.54
455.5	22165.68
455.705	22573.22
455.911	21596.34
456.117	20936.9
456.323	20848.83
456.529	19720.4
456.735	20678.85
456.941	20097.23
457.147	19714.26
457.352	19103.96
457.558	18790.63
457.764	18925.79
457.97	18766.05
458.176	18141.42
458.381	18288.87
458.587	17191.16
458.793	17236.22
458.999	16402.69
459.204	17600.76
459.41	16982.27
459.616	15868.17
459.821	16021.77
460.027	15886.61
460.233	15712.53
460.438	14715.17
460.644	14962.97
460.85	14455.08
461.055	14237.99
461.261	14137.64
461.466	12777.79
461.672	12687.68
461.878	13541.68
462.083	12667.2
462.289	12529.98
462.494	12153.16
462.7	11628.88
462.905	11499.86
463.111	11942.22
463.316	12220.74
463.522	11489.62
463.727	11632.97
463.932	11645.26
464.138	11553.1
464.343	11467.09
464.549	11043.16
464.754	11499.86
464.959	11462.99
465.165	11233.62
465.37	10981.72
465.575	10660.19
465.781	11127.13
465.986	11045.21
466.191	10664.29
466.397	10537.31
466.602	9976.17
466.807	10322.27
467.012	10301.79
467.218	10168.68
467.423	10281.32
467.628	10234.21
467.833	10547.55
468.038	10479.97
