Data from USB4F104151__88__11-37-52-237.txt Node

Date: Fri Mar 14 11:37:52 EDT 2025
User: louis
Spectrometer: USB4F10415
Trigger mode: 4
Integration Time (sec): 2.000000E-2
Scans to average: 1
Electric dark correction enabled: true
Nonlinearity correction enabled: false
Boxcar width: 0
XAxis mode: Wavelengths
Number of Pixels in Spectrum: 3648
>>>>>Begin Spectral Data<<<<<
178.204	-43.86
178.424	-43.86
178.644	-43.86
178.864	-27.48
179.084	-54.1
179.304	31.91
179.524	9.39
179.744	-115.54
179.964	44.2
180.184	38.06
180.404	-58.2
180.624	19.63
180.844	-2.9
181.064	13.48
181.283	-2.9
181.503	-7
181.723	29.87
181.943	7.34
182.163	79.02
182.383	-4.95
182.602	-13.14
182.822	46.25
183.042	-0.85
183.262	-9.05
183.482	101.55
183.701	17.58
183.921	36.01
184.141	56.49
184.361	142.5
184.58	7.34
184.8	52.39
185.02	-21.33
185.239	27.82
185.459	36.01
185.679	54.44
185.898	-11.09
186.118	109.74
186.338	19.63
186.557	-9.05
186.777	52.39
186.997	21.67
187.216	52.39
187.436	60.59
187.655	64.68
187.875	138.41
188.095	31.91
188.314	23.72
188.534	52.39
188.753	21.67
188.973	-56.15
189.192	76.97
189.412	25.77
189.631	36.01
189.851	33.96
190.07	66.73
190.29	9.39
190.509	52.39
190.729	40.11
190.948	46.25
191.168	85.16
191.387	44.2
191.607	-23.38
191.826	-0.85
192.045	-21.33
192.265	44.2
192.484	-11.09
192.704	46.25
192.923	-45.91
193.142	58.54
193.362	40.11
193.581	1.19
193.8	48.3
194.02	64.68
194.239	66.73
194.458	25.77
194.678	-33.62
194.897	21.67
195.116	3.24
195.335	21.67
195.555	66.73
195.774	74.92
195.993	3.24
196.212	48.3
196.432	-11.09
196.651	1.19
196.87	25.77
197.089	25.77
197.308	79.02
197.528	68.78
197.747	48.3
197.966	11.43
198.185	52.39
198.404	60.59
198.623	5.29
198.842	-7
199.062	-2.9
199.281	62.63
199.5	-50
199.719	52.39
199.938	68.78
200.157	36.01
200.376	50.35
200.595	9.39
200.814	19.63
201.033	29.87
201.252	48.3
201.471	-2.9
201.69	29.87
201.909	74.92
202.128	27.82
202.347	15.53
202.566	64.68
202.785	3.24
203.004	-17.24
203.223	56.49
203.442	97.45
203.661	3.24
203.879	52.39
204.098	27.82
204.317	-23.38
204.536	50.35
204.755	25.77
204.974	109.74
205.193	31.91
205.411	91.31
205.63	9.39
205.849	97.45
206.068	48.3
206.287	68.78
206.505	36.01
206.724	54.44
206.943	58.54
207.162	7.34
207.381	85.16
207.599	33.96
207.818	23.72
208.037	48.3
208.255	42.15
208.474	54.44
208.693	3.24
208.911	-0.85
209.13	27.82
209.349	79.02
209.567	21.67
209.786	68.78
210.005	3.24
210.223	50.35
210.442	13.48
210.661	56.49
210.879	-21.33
211.098	23.72
211.316	3.24
211.535	46.25
211.753	15.53
211.972	11.43
212.191	62.63
212.409	48.3
212.628	58.54
212.846	64.68
213.065	48.3
213.283	130.22
213.502	40.11
213.72	-35.67
213.938	17.58
214.157	66.73
214.375	-13.14
214.594	79.02
214.812	46.25
215.031	38.06
215.249	74.92
215.467	52.39
215.686	25.77
215.904	3.24
216.122	19.63
216.341	38.06
216.559	44.2
216.778	17.58
216.996	-13.14
217.214	25.77
217.432	3.24
217.651	17.58
217.869	-21.33
218.087	27.82
218.306	60.59
218.524	48.3
218.742	33.96
218.96	15.53
219.179	40.11
219.397	101.55
219.615	48.3
219.833	19.63
220.051	58.54
220.27	42.15
220.488	81.07
220.706	-9.05
220.924	62.63
221.142	9.39
221.36	81.07
221.578	66.73
221.796	126.12
222.015	1.19
222.233	17.58
222.451	68.78
222.669	-33.62
222.887	54.44
223.105	33.96
223.323	60.59
223.541	76.97
223.759	132.26
223.977	19.63
224.195	64.68
224.413	23.72
224.631	93.35
224.849	21.67
225.067	46.25
225.285	-21.33
225.503	79.02
225.721	-15.19
225.939	-35.67
226.157	-13.14
226.375	124.07
226.592	-39.76
226.81	-4.95
227.028	52.39
227.246	68.78
227.464	-52.05
227.682	44.2
227.9	70.83
228.117	70.83
228.335	107.69
228.553	74.92
228.771	54.44
228.989	89.26
229.206	68.78
229.424	56.49
229.642	44.2
229.86	42.15
230.077	40.11
230.295	7.34
230.513	68.78
230.731	93.35
230.948	48.3
231.166	66.73
231.384	3.24
231.601	54.44
231.819	38.06
232.037	7.34
232.254	-37.72
232.472	56.49
232.689	56.49
232.907	33.96
233.125	5.29
233.342	103.59
233.56	17.58
233.777	13.48
233.995	31.91
234.213	58.54
234.43	25.77
234.648	27.82
234.865	76.97
235.083	-9.05
235.3	33.96
235.518	36.01
235.735	79.02
235.953	128.17
236.17	-9.05
236.388	23.72
236.605	-2.9
236.822	21.67
237.04	66.73
237.257	25.77
237.475	31.91
237.692	-25.43
237.909	74.92
238.127	36.01
238.344	13.48
238.562	36.01
238.779	13.48
238.996	36.01
239.214	11.43
239.431	85.16
239.648	25.77
239.865	27.82
240.083	-9.05
240.3	-13.14
240.517	5.29
240.735	119.98
240.952	74.92
241.169	-2.9
241.386	36.01
241.603	60.59
241.821	-93.01
242.038	48.3
242.255	25.77
242.472	56.49
242.689	81.07
242.907	25.77
243.124	-23.38
243.341	54.44
243.558	31.91
243.775	31.91
243.992	21.67
244.209	107.69
244.426	76.97
244.643	31.91
244.86	-25.43
245.078	87.21
245.295	52.39
245.512	74.92
245.729	21.67
245.946	42.15
246.163	44.2
246.38	36.01
246.597	126.12
246.814	31.91
247.031	21.67
247.248	56.49
247.464	-23.38
247.681	40.11
247.898	21.67
248.115	29.87
248.332	3.24
248.549	-0.85
248.766	99.5
248.983	124.07
249.2	83.11
249.417	29.87
249.633	-11.09
249.85	83.11
250.067	-35.67
250.284	79.02
250.501	-0.85
250.717	-35.67
250.934	-56.15
251.151	33.96
251.368	52.39
251.585	42.15
251.801	-0.85
252.018	40.11
252.235	38.06
252.451	42.15
252.668	124.07
252.885	79.02
253.102	79.02
253.318	42.15
253.535	25.77
253.752	50.35
253.968	9.39
254.185	-19.29
254.401	52.39
254.618	19.63
254.835	21.67
255.051	101.55
255.268	19.63
255.484	76.97
255.701	21.67
255.917	83.11
256.134	-33.62
256.351	95.4
256.567	44.2
256.784	25.77
257	56.49
257.217	-4.95
257.433	31.91
257.65	36.01
257.866	76.97
258.082	5.29
258.299	25.77
258.515	107.69
258.732	11.43
258.948	-0.85
259.165	81.07
259.381	64.68
259.597	85.16
259.814	29.87
260.03	19.63
260.246	44.2
260.463	52.39
260.679	142.5
260.895	70.83
261.112	48.3
261.328	68.78
261.544	-15.19
261.761	89.26
261.977	60.59
262.193	13.48
262.409	25.77
262.626	68.78
262.842	42.15
263.058	11.43
263.274	103.59
263.49	29.87
263.707	44.2
263.923	42.15
264.139	-27.48
264.355	19.63
264.571	66.73
264.787	48.3
265.004	5.29
265.22	-13.14
265.436	40.11
265.652	11.43
265.868	-2.9
266.084	52.39
266.3	56.49
266.516	87.21
266.732	74.92
266.948	62.63
267.164	29.87
267.38	-47.96
267.596	97.45
267.812	99.5
268.028	54.44
268.244	91.31
268.46	36.01
268.676	68.78
268.892	99.5
269.108	27.82
269.324	36.01
269.54	58.54
269.756	25.77
269.972	-39.76
270.188	68.78
270.403	46.25
270.619	36.01
270.835	81.07
271.051	44.2
271.267	76.97
271.483	13.48
271.698	44.2
271.914	40.11
272.13	97.45
272.346	46.25
272.562	50.35
272.777	50.35
272.993	27.82
273.209	21.67
273.425	58.54
273.64	29.87
273.856	64.68
274.072	3.24
274.287	70.83
274.503	68.78
274.719	-21.33
274.934	48.3
275.15	74.92
275.366	3.24
275.581	7.34
275.797	58.54
276.012	81.07
276.228	83.11
276.444	101.55
276.659	72.87
276.875	-7
277.09	91.31
277.306	-11.09
277.521	3.24
277.737	64.68
277.952	33.96
278.168	46.25
278.383	46.25
278.599	-27.48
278.814	101.55
279.03	79.02
279.245	56.49
279.461	40.11
279.676	56.49
279.892	-15.19
280.107	19.63
280.322	-19.29
280.538	42.15
280.753	48.3
280.969	31.91
281.184	-60.24
281.399	25.77
281.615	42.15
281.83	3.24
282.045	1.19
282.26	46.25
282.476	36.01
282.691	27.82
282.906	97.45
283.122	83.11
283.337	48.3
283.552	-13.14
283.767	17.58
283.983	-0.85
284.198	23.72
284.413	44.2
284.628	3.24
284.843	66.73
285.058	50.35
285.274	31.91
285.489	46.25
285.704	85.16
285.919	97.45
286.134	44.2
286.349	126.12
286.564	27.82
286.779	-4.95
286.995	-13.14
287.21	21.67
287.425	27.82
287.64	42.15
287.855	27.82
288.07	-0.85
288.285	38.06
288.5	81.07
288.715	46.25
288.93	42.15
289.145	13.48
289.36	119.98
289.575	17.58
289.79	60.59
290.004	54.44
290.219	52.39
290.434	-35.67
290.649	107.69
290.864	122.02
291.079	15.53
291.294	126.12
291.509	9.39
291.724	54.44
291.938	-2.9
292.153	-7
292.368	85.16
292.583	40.11
292.798	74.92
293.012	62.63
293.227	17.58
293.442	91.31
293.657	3.24
293.871	48.3
294.086	38.06
294.301	64.68
294.516	23.72
294.73	48.3
294.945	60.59
295.16	109.74
295.374	-21.33
295.589	83.11
295.804	15.53
296.018	95.4
296.233	105.64
296.447	33.96
296.662	-31.57
296.877	15.53
297.091	72.87
297.306	56.49
297.52	-39.76
297.735	144.55
297.949	36.01
298.164	117.93
298.378	27.82
298.593	50.35
298.807	19.63
299.022	3.24
299.236	130.22
299.451	52.39
299.665	25.77
299.88	58.54
300.094	44.2
300.309	13.48
300.523	79.02
300.737	72.87
300.952	3.24
301.166	68.78
301.381	74.92
301.595	15.53
301.809	40.11
302.024	11.43
302.238	21.67
302.452	103.59
302.667	36.01
302.881	7.34
303.095	-11.09
303.309	-13.14
303.524	81.07
303.738	21.67
303.952	-2.9
304.166	42.15
304.381	58.54
304.595	103.59
304.809	76.97
305.023	27.82
305.237	42.15
305.452	13.48
305.666	19.63
305.88	33.96
306.094	64.68
306.308	56.49
306.522	68.78
306.736	95.4
306.95	48.3
307.164	56.49
307.379	50.35
307.593	15.53
307.807	27.82
308.021	15.53
308.235	25.77
308.449	64.68
308.663	70.83
308.877	119.98
309.091	93.35
309.305	-17.24
309.519	-54.1
309.733	23.72
309.947	33.96
310.161	66.73
310.374	25.77
310.588	72.87
310.802	-21.33
311.016	36.01
311.23	-0.85
311.444	66.73
311.658	-31.57
311.872	68.78
312.085	42.15
312.299	36.01
312.513	25.77
312.727	54.44
312.941	33.96
313.154	83.11
313.368	44.2
313.582	99.5
313.796	60.59
314.009	111.78
314.223	52.39
314.437	95.4
314.651	11.43
314.864	9.39
315.078	140.46
315.292	52.39
315.505	15.53
315.719	64.68
315.933	64.68
316.146	109.74
316.36	25.77
316.573	79.02
316.787	113.83
317.001	101.55
317.214	27.82
317.428	46.25
317.641	1.19
317.855	1.19
318.068	54.44
318.282	31.91
318.495	29.87
318.709	40.11
318.922	44.2
319.136	70.83
319.349	72.87
319.563	107.69
319.776	76.97
319.99	38.06
320.203	52.39
320.417	103.59
320.63	60.59
320.843	56.49
321.057	44.2
321.27	54.44
321.483	56.49
321.697	85.16
321.91	27.82
322.124	3.24
322.337	74.92
322.55	36.01
322.763	-2.9
322.977	42.15
323.19	79.02
323.403	105.64
323.617	38.06
323.83	-25.43
324.043	50.35
324.256	48.3
324.469	58.54
324.683	122.02
324.896	85.16
325.109	46.25
325.322	-25.43
325.535	91.31
325.748	15.53
325.962	36.01
326.175	42.15
326.388	124.07
326.601	81.07
326.814	25.77
327.027	93.35
327.24	103.59
327.453	-4.95
327.666	29.87
327.879	76.97
328.092	72.87
328.305	13.48
328.518	60.59
328.731	70.83
328.944	68.78
329.157	17.58
329.37	31.91
329.583	56.49
329.796	93.35
330.009	68.78
330.222	87.21
330.435	134.31
330.648	130.22
330.861	58.54
331.073	44.2
331.286	36.01
331.499	60.59
331.712	19.63
331.925	-15.19
332.138	79.02
332.35	76.97
332.563	42.15
332.776	54.44
332.989	7.34
333.202	76.97
333.414	66.73
333.627	31.91
333.84	27.82
334.053	97.45
334.265	70.83
334.478	109.74
334.691	27.82
334.903	38.06
335.116	7.34
335.329	64.68
335.541	58.54
335.754	9.39
335.966	13.48
336.179	42.15
336.392	70.83
336.604	27.82
336.817	85.16
337.029	97.45
337.242	31.91
337.454	17.58
337.667	142.5
337.88	58.54
338.092	52.39
338.305	74.92
338.517	72.87
338.729	70.83
338.942	48.3
339.154	-0.85
339.367	5.29
339.579	87.21
339.792	91.31
340.004	52.39
340.217	31.91
340.429	58.54
340.641	-15.19
340.854	58.54
341.066	44.2
341.278	89.26
341.491	74.92
341.703	42.15
341.915	15.53
342.128	13.48
342.34	60.59
342.552	68.78
342.764	23.72
342.977	83.11
343.189	52.39
343.401	101.55
343.613	36.01
343.826	-2.9
344.038	29.87
344.25	74.92
344.462	31.91
344.674	138.41
344.886	3.24
345.099	42.15
345.311	40.11
345.523	23.72
345.735	15.53
345.947	130.22
346.159	-4.95
346.371	44.2
346.583	7.34
346.795	109.74
347.007	113.83
347.219	27.82
347.431	62.63
347.643	81.07
347.855	17.58
348.067	52.39
348.279	-23.38
348.491	87.21
348.703	19.63
348.915	-2.9
349.127	15.53
349.339	93.35
349.551	23.72
349.763	68.78
349.975	29.87
350.187	99.5
350.399	9.39
350.61	48.3
350.822	5.29
351.034	58.54
351.246	58.54
351.458	13.48
351.669	58.54
351.881	150.7
352.093	46.25
352.305	50.35
352.517	-9.05
352.728	97.45
352.94	79.02
353.152	70.83
353.363	-21.33
353.575	62.63
353.787	81.07
353.999	89.26
354.21	99.5
354.422	62.63
354.633	48.3
354.845	105.64
355.057	74.92
355.268	97.45
355.48	42.15
355.692	87.21
355.903	7.34
356.115	33.96
356.326	23.72
356.538	109.74
356.749	76.97
356.961	62.63
357.172	11.43
357.384	17.58
357.595	89.26
357.807	62.63
358.018	48.3
358.23	9.39
358.441	23.72
358.653	97.45
358.864	44.2
359.075	68.78
359.287	50.35
359.498	85.16
359.709	83.11
359.921	48.3
360.132	36.01
360.344	95.4
360.555	38.06
360.766	48.3
360.977	93.35
361.189	117.93
361.4	40.11
361.611	48.3
361.823	68.78
362.034	38.06
362.245	21.67
362.456	74.92
362.667	66.73
362.879	48.3
363.09	-7
363.301	44.2
363.512	52.39
363.723	150.7
363.935	66.73
364.146	91.31
364.357	25.77
364.568	99.5
364.779	7.34
364.99	15.53
365.201	93.35
365.412	60.59
365.623	38.06
365.834	54.44
366.045	48.3
366.256	79.02
366.467	15.53
366.678	42.15
366.889	58.54
367.1	31.91
367.311	79.02
367.522	48.3
367.733	56.49
367.944	85.16
368.155	85.16
368.366	175.27
368.577	97.45
368.788	113.83
368.999	31.91
369.209	52.39
369.42	177.32
369.631	40.11
369.842	11.43
370.053	72.87
370.264	76.97
370.474	58.54
370.685	105.64
370.896	85.16
371.107	64.68
371.317	36.01
371.528	15.53
371.739	31.91
371.95	29.87
372.16	52.39
372.371	60.59
372.582	60.59
372.792	87.21
373.003	40.11
373.214	68.78
373.424	117.93
373.635	52.39
373.846	66.73
374.056	17.58
374.267	74.92
374.477	31.91
374.688	7.34
374.898	-27.48
375.109	25.77
375.319	93.35
375.53	99.5
375.74	115.88
375.951	87.21
376.161	62.63
376.372	17.58
376.582	126.12
376.793	15.53
377.003	-17.24
377.214	68.78
377.424	48.3
377.635	-2.9
377.845	113.83
378.055	142.5
378.266	7.34
378.476	107.69
378.686	60.59
378.897	56.49
379.107	9.39
379.317	89.26
379.528	46.25
379.738	93.35
379.948	48.3
380.158	93.35
380.369	58.54
380.579	101.55
380.789	146.6
380.999	81.07
381.21	48.3
381.42	119.98
381.63	85.16
381.84	79.02
382.05	56.49
382.261	60.59
382.471	89.26
382.681	52.39
382.891	130.22
383.101	68.78
383.311	23.72
383.521	109.74
383.731	60.59
383.941	83.11
384.151	70.83
384.361	44.2
384.571	70.83
384.781	74.92
384.991	62.63
385.201	76.97
385.411	66.73
385.621	111.78
385.831	31.91
386.041	66.73
386.251	13.48
386.461	64.68
386.671	-23.38
386.881	101.55
387.091	44.2
387.301	109.74
387.511	58.54
387.72	48.3
387.93	1.19
388.14	33.96
388.35	56.49
388.56	101.55
388.769	27.82
388.979	56.49
389.189	-4.95
389.399	50.35
389.609	15.53
389.818	81.07
390.028	62.63
390.238	29.87
390.447	117.93
390.657	107.69
390.867	5.29
391.076	89.26
391.286	52.39
391.496	58.54
391.705	97.45
391.915	101.55
392.125	134.31
392.334	31.91
392.544	48.3
392.753	87.21
392.963	66.73
393.172	89.26
393.382	109.74
393.591	140.46
393.801	93.35
394.01	142.5
394.22	109.74
394.429	60.59
394.639	68.78
394.848	83.11
395.058	107.69
395.267	124.07
395.477	134.31
395.686	130.22
395.895	152.74
396.105	109.74
396.314	105.64
396.524	79.02
396.733	81.07
396.942	117.93
397.152	158.89
397.361	64.68
397.57	68.78
397.78	89.26
397.989	189.61
398.198	173.22
398.407	167.08
398.617	101.55
398.826	85.16
399.035	115.88
399.244	99.5
399.453	142.5
399.663	117.93
399.872	126.12
400.081	126.12
400.29	91.31
400.499	101.55
400.708	89.26
400.917	146.6
401.127	74.92
401.336	107.69
401.545	154.79
401.754	76.97
401.963	107.69
402.172	122.02
402.381	97.45
402.59	175.27
402.799	132.26
403.008	101.55
403.217	132.26
403.426	136.36
403.635	189.61
403.844	119.98
404.053	140.46
404.262	91.31
404.471	246.95
404.68	214.18
404.888	160.94
405.097	181.42
405.306	189.61
405.515	191.66
405.724	167.08
405.933	150.7
406.142	138.41
406.35	165.03
406.559	195.75
406.768	257.19
406.977	218.28
407.185	183.46
407.394	263.33
407.603	185.51
407.812	218.28
408.02	226.47
408.229	222.38
408.438	271.53
408.646	208.04
408.855	269.48
409.064	322.73
409.272	292.01
409.481	349.35
409.69	251.05
409.898	312.49
410.107	330.92
410.315	431.27
410.524	318.63
410.733	373.92
410.941	322.73
411.15	388.26
411.358	418.98
411.567	363.69
411.775	373.92
411.984	380.07
412.192	445.6
412.401	484.52
412.609	560.29
412.818	603.3
413.026	625.83
413.234	459.94
413.443	625.83
413.651	537.76
413.86	502.95
414.068	646.3
414.276	693.41
414.485	617.63
414.693	683.17
414.901	652.45
415.11	724.13
415.318	744.61
415.526	722.08
415.734	763.04
415.943	830.62
416.151	953.5
416.359	847.01
416.567	863.39
416.776	902.3
416.984	935.07
417.192	1025.18
417.4	945.31
417.608	961.69
417.817	1143.96
418.025	1115.29
418.233	1189.02
418.441	1150.11
418.649	1195.16
418.857	1332.37
419.065	1315.99
419.273	1420.44
419.481	1350.81
419.689	1473.68
419.897	1533.08
420.105	1588.37
420.313	1582.23
420.521	1606.8
420.729	1686.67
420.937	1748.11
421.145	1750.16
421.353	1903.76
421.561	1979.53
421.769	1969.29
421.977	2172.04
422.185	2030.73
422.393	2229.38
422.601	2315.4
422.809	2288.78
423.017	2364.55
423.224	2450.57
423.432	2462.85
423.64	2407.56
423.848	2821.25
424.056	2731.14
424.263	2956.41
424.471	2866.3
424.679	3017.85
424.887	3122.3
425.094	3339.38
425.302	3253.37
425.51	3318.9
425.718	3458.17
425.925	3501.17
426.133	3662.96
426.341	3791.98
426.548	4013.17
426.756	3966.06
426.964	3966.06
427.171	4254.83
427.379	4379.75
427.586	4467.81
427.794	4559.97
428.001	4813.92
428.209	5168.22
428.417	4904.03
428.624	5545.05
428.832	5375.06
429.039	5303.39
429.247	5303.39
429.454	5860.43
429.662	6016.08
429.869	5712.98
430.076	6081.61
430.284	6028.37
430.491	6298.7
430.699	6659.14
430.906	6489.16
431.114	6691.91
431.321	7023.68
431.528	7081.02
431.736	7523.38
431.943	7918.64
432.15	7545.91
432.358	7685.17
432.565	8205.36
432.772	8133.68
432.979	8621.1
433.187	8680.49
433.394	8727.59
433.601	9364.51
433.808	9174.05
434.016	9270.3
434.223	9505.82
434.43	10390.54
434.637	10112.02
434.844	10837
435.052	11181.06
435.259	10798.09
435.466	10804.23
435.673	10910.72
435.88	11441.15
436.087	12123.12
436.294	12131.31
436.501	11846.65
436.708	12147.7
436.915	12385.26
437.122	12991.46
437.329	13077.48
437.537	13474.78
437.743	13878.23
437.95	13671.39
438.157	14173.14
438.364	14861.26
438.571	14736.33
438.778	14791.62
438.985	16167.86
439.192	15571.9
439.399	16165.81
439.606	15678.4
439.813	16794.54
440.02	17720.22
440.227	17552.29
440.433	17048.49
440.64	17832.86
440.847	17533.86
441.054	18230.16
441.261	19573.63
441.467	18938.76
441.674	19469.19
441.881	20271.99
442.088	20093.82
442.294	19977.08
442.501	20495.22
442.708	20974.44
442.914	21850.97
443.121	22623.06
443.328	22037.34
443.534	23497.54
443.741	23298.89
443.948	22567.76
444.154	24267.58
444.361	24232.76
444.568	24496.95
444.774	24476.47
444.981	24417.08
445.187	25176.87
445.394	26827.54
445.6	26133.28
445.807	28521.21
446.013	27732.74
446.22	27986.69
446.426	29043.44
446.633	29151.98
446.839	30380.76
447.046	29088.49
447.252	30909.14
447.459	30667.48
447.665	30464.73
447.871	32066.24
448.078	33456.81
448.284	31963.84
448.491	32756.41
448.697	34345.63
448.903	34923.16
449.11	35191.44
449.316	34120.35
449.522	34800.28
449.728	35799.69
449.935	35924.61
450.141	36008.58
450.347	37057.14
450.553	35938.95
450.76	36698.75
450.966	37802.6
451.172	37167.73
451.378	37876.33
451.584	37282.42
451.791	38648.41
451.997	38220.39
452.203	38830.68
452.409	38644.32
452.615	38750.81
452.821	37565.04
453.027	36897.4
453.233	38769.24
453.44	37290.61
453.646	37769.83
453.852	38195.81
454.058	38609.5
454.264	37104.24
454.47	38015.59
454.676	37247.6
454.882	38656.6
455.088	35164.82
455.294	36043.4
455.5	36502.14
455.705	36846.2
455.911	35345.04
456.117	34030.24
456.323	34273.95
456.529	32428.73
456.735	34013.86
456.941	32891.57
457.147	32367.29
457.352	31232.72
457.558	31019.73
457.764	31222.48
457.97	30624.47
458.176	30071.52
458.381	29965.03
458.587	28494.58
458.793	28273.4
458.999	27245.32
459.204	28709.62
459.41	27949.82
459.616	26268.44
459.821	26067.74
460.027	26147.61
460.233	25396.01
460.438	24476.47
460.644	24613.68
460.85	23569.22
461.055	23270.22
461.261	23235.4
461.466	21293.93
461.672	20820.84
461.878	22256.47
462.083	20716.4
462.289	20681.58
462.494	20319.09
462.7	19442.56
462.905	18574.22
463.111	19393.41
463.316	19614.59
463.522	19340.16
463.727	19065.74
463.932	19221.38
464.138	18899.85
464.343	18631.57
464.549	18348.95
464.754	18889.61
464.959	19108.74
465.165	18895.75
465.37	18101.14
465.575	17413.02
465.781	18017.18
465.986	18420.63
466.191	17619.87
466.397	17181.6
466.602	16413.62
466.807	16878.51
467.012	17015.72
467.218	16884.65
467.423	16692.14
467.628	17105.83
467.833	17615.77
468.038	16933.8
