Data from USB4F104151__70__11-37-32-219.txt Node

Date: Fri Mar 14 11:37:32 EDT 2025
User: louis
Spectrometer: USB4F10415
Trigger mode: 4
Integration Time (sec): 2.000000E-2
Scans to average: 1
Electric dark correction enabled: true
Nonlinearity correction enabled: false
Boxcar width: 0
XAxis mode: Wavelengths
Number of Pixels in Spectrum: 3648
>>>>>Begin Spectral Data<<<<<
178.204	-64.85
178.424	-64.85
178.644	-64.85
178.864	-79.19
179.084	-36.18
179.304	-13.65
179.524	-56.66
179.744	-62.8
179.964	17.07
180.184	21.16
180.404	-19.8
180.624	-11.61
180.844	25.26
181.064	-5.46
181.283	8.87
181.503	41.64
181.723	55.98
181.943	-77.14
182.163	129.7
182.383	19.11
182.602	31.4
182.822	101.03
183.042	64.17
183.262	51.88
183.482	62.12
183.701	31.4
183.921	27.31
184.141	12.97
184.361	84.65
184.58	8.87
184.8	29.35
185.02	39.59
185.239	84.65
185.459	76.46
185.679	88.75
185.898	25.26
186.118	39.59
186.338	35.5
186.557	37.55
186.777	-11.61
186.997	8.87
187.216	-21.85
187.436	35.5
187.655	37.55
187.875	82.6
188.095	15.02
188.314	74.41
188.534	-13.65
188.753	21.16
188.973	53.93
189.192	37.55
189.412	-11.61
189.631	33.45
189.851	17.07
190.07	107.18
190.29	35.5
190.509	-1.37
190.729	0.68
190.948	6.83
191.168	160.42
191.387	25.26
191.607	21.16
191.826	90.79
192.045	66.22
192.265	94.89
192.484	17.07
192.704	113.32
192.923	84.65
193.142	17.07
193.362	29.35
193.581	101.03
193.8	58.03
194.02	-3.41
194.239	31.4
194.458	107.18
194.678	70.31
194.897	37.55
195.116	94.89
195.335	27.31
195.555	12.97
195.774	92.84
195.993	31.4
196.212	94.89
196.432	0.68
196.651	17.07
196.87	49.83
197.089	88.75
197.308	88.75
197.528	21.16
197.747	23.21
197.966	64.17
198.185	31.4
198.404	21.16
198.623	148.14
198.842	113.32
199.062	43.69
199.281	84.65
199.5	-13.65
199.719	17.07
199.938	68.27
200.157	111.27
200.376	150.18
200.595	35.5
200.814	66.22
201.033	49.83
201.252	101.03
201.471	12.97
201.69	19.11
201.909	88.75
202.128	33.45
202.347	62.12
202.566	107.18
202.785	74.41
203.004	21.16
203.223	133.8
203.442	39.59
203.661	70.31
203.879	70.31
204.098	66.22
204.317	17.07
204.536	115.37
204.755	8.87
204.974	86.7
205.193	41.64
205.411	47.79
205.63	19.11
205.849	21.16
206.068	6.83
206.287	62.12
206.505	84.65
206.724	-9.56
206.943	17.07
207.162	19.11
207.381	49.83
207.599	6.83
207.818	96.94
208.037	29.35
208.255	45.74
208.474	4.78
208.693	35.5
208.911	80.55
209.13	41.64
209.349	19.11
209.567	25.26
209.786	35.5
210.005	-19.8
210.223	117.42
210.442	27.31
210.661	78.51
210.879	35.5
211.098	31.4
211.316	74.41
211.535	150.18
211.753	12.97
211.972	70.31
212.191	119.46
212.409	-9.56
212.628	78.51
212.846	39.59
213.065	19.11
213.283	27.31
213.502	23.21
213.72	78.51
213.938	29.35
214.157	49.83
214.375	119.46
214.594	64.17
214.812	78.51
215.031	144.04
215.249	25.26
215.467	21.16
215.686	8.87
215.904	111.27
216.122	4.78
216.341	37.55
216.559	47.79
216.778	94.89
216.996	117.42
217.214	66.22
217.432	-34.13
217.651	-58.71
217.869	29.35
218.087	8.87
218.306	70.31
218.524	-19.8
218.742	-11.61
218.96	60.07
219.179	39.59
219.397	58.03
219.615	21.16
219.833	29.35
220.051	6.83
220.27	21.16
220.488	47.79
220.706	47.79
220.924	45.74
221.142	19.11
221.36	37.55
221.578	80.55
221.796	74.41
222.015	53.93
222.233	6.83
222.451	141.99
222.669	62.12
222.887	90.79
223.105	25.26
223.323	74.41
223.541	-15.7
223.759	25.26
223.977	92.84
224.195	62.12
224.413	60.07
224.631	129.7
224.849	90.79
225.067	41.64
225.285	31.4
225.503	31.4
225.721	27.31
225.939	68.27
226.157	141.99
226.375	49.83
226.592	62.12
226.81	84.65
227.028	27.31
227.246	27.31
227.464	41.64
227.682	23.21
227.9	27.31
228.117	62.12
228.335	58.03
228.553	66.22
228.771	96.94
228.989	72.36
229.206	2.73
229.424	49.83
229.642	-17.75
229.86	92.84
230.077	88.75
230.295	2.73
230.513	135.85
230.731	45.74
230.948	10.92
231.166	64.17
231.384	4.78
231.601	123.56
231.819	43.69
232.037	-42.32
232.254	23.21
232.472	74.41
232.689	29.35
232.907	43.69
233.125	84.65
233.342	-44.37
233.56	2.73
233.777	-1.37
233.995	105.13
234.213	27.31
234.43	49.83
234.648	113.32
234.865	15.02
235.083	43.69
235.3	-11.61
235.518	58.03
235.735	109.22
235.953	12.97
236.17	88.75
236.388	66.22
236.605	111.27
236.822	37.55
237.04	39.59
237.257	41.64
237.475	27.31
237.692	27.31
237.909	29.35
238.127	58.03
238.344	29.35
238.562	62.12
238.779	12.97
238.996	-1.37
239.214	70.31
239.431	37.55
239.648	78.51
239.865	8.87
240.083	78.51
240.3	53.93
240.517	39.59
240.735	43.69
240.952	78.51
241.169	23.21
241.386	78.51
241.603	-40.28
241.821	45.74
242.038	64.17
242.255	84.65
242.472	10.92
242.689	45.74
242.907	101.03
243.124	19.11
243.341	25.26
243.558	29.35
243.775	4.78
243.992	-19.8
244.209	31.4
244.426	19.11
244.643	53.93
244.86	29.35
245.078	33.45
245.295	41.64
245.512	21.16
245.729	31.4
245.946	49.83
246.163	47.79
246.38	51.88
246.597	70.31
246.814	51.88
247.031	39.59
247.248	37.55
247.464	47.79
247.681	-5.46
247.898	55.98
248.115	78.51
248.332	39.59
248.549	111.27
248.766	139.94
248.983	86.7
249.2	125.61
249.417	90.79
249.633	82.6
249.85	-13.65
250.067	68.27
250.284	68.27
250.501	49.83
250.717	41.64
250.934	70.31
251.151	51.88
251.368	0.68
251.585	84.65
251.801	23.21
252.018	-3.41
252.235	60.07
252.451	84.65
252.668	29.35
252.885	37.55
253.102	51.88
253.318	4.78
253.535	6.83
253.752	43.69
253.968	62.12
254.185	66.22
254.401	51.88
254.618	6.83
254.835	10.92
255.051	49.83
255.268	84.65
255.484	17.07
255.701	45.74
255.917	51.88
256.134	21.16
256.351	78.51
256.567	-36.18
256.784	90.79
257	23.21
257.217	60.07
257.433	25.26
257.65	90.79
257.866	105.13
258.082	-60.76
258.299	33.45
258.515	86.7
258.732	60.07
258.948	43.69
259.165	21.16
259.381	53.93
259.597	33.45
259.814	12.97
260.03	2.73
260.246	8.87
260.463	-38.23
260.679	0.68
260.895	88.75
261.112	117.42
261.328	62.12
261.544	84.65
261.761	37.55
261.977	4.78
262.193	43.69
262.409	90.79
262.626	51.88
262.842	-15.7
263.058	58.03
263.274	86.7
263.49	37.55
263.707	35.5
263.923	74.41
264.139	45.74
264.355	37.55
264.571	115.37
264.787	62.12
265.004	64.17
265.22	53.93
265.436	121.51
265.652	37.55
265.868	76.46
266.084	35.5
266.3	33.45
266.516	-15.7
266.732	76.46
266.948	72.36
267.164	37.55
267.38	55.98
267.596	37.55
267.812	141.99
268.028	55.98
268.244	12.97
268.46	60.07
268.676	21.16
268.892	45.74
269.108	-11.61
269.324	64.17
269.54	45.74
269.756	103.08
269.972	-5.46
270.188	74.41
270.403	84.65
270.619	41.64
270.835	-7.51
271.051	-7.51
271.267	60.07
271.483	66.22
271.698	107.18
271.914	47.79
272.13	94.89
272.346	0.68
272.562	-21.85
272.777	74.41
272.993	41.64
273.209	96.94
273.425	53.93
273.64	37.55
273.856	15.02
274.072	68.27
274.287	127.66
274.503	60.07
274.719	86.7
274.934	113.32
275.15	-15.7
275.366	58.03
275.581	125.61
275.797	115.37
276.012	17.07
276.228	4.78
276.444	45.74
276.659	43.69
276.875	96.94
277.09	58.03
277.306	35.5
277.521	41.64
277.737	-30.04
277.952	41.64
278.168	68.27
278.383	86.7
278.599	60.07
278.814	66.22
279.03	23.21
279.245	62.12
279.461	25.26
279.676	58.03
279.892	53.93
280.107	47.79
280.322	53.93
280.538	64.17
280.753	-11.61
280.969	29.35
281.184	60.07
281.399	113.32
281.615	29.35
281.83	98.99
282.045	-13.65
282.26	33.45
282.476	86.7
282.691	43.69
282.906	101.03
283.122	17.07
283.337	70.31
283.552	-54.61
283.767	60.07
283.983	49.83
284.198	0.68
284.413	27.31
284.628	37.55
284.843	107.18
285.058	37.55
285.274	90.79
285.489	29.35
285.704	105.13
285.919	-3.41
286.134	64.17
286.349	127.66
286.564	35.5
286.779	115.37
286.995	21.16
287.21	-9.56
287.425	21.16
287.64	53.93
287.855	47.79
288.07	-30.04
288.285	64.17
288.5	53.93
288.715	33.45
288.93	37.55
289.145	78.51
289.36	31.4
289.575	33.45
289.79	111.27
290.004	12.97
290.219	49.83
290.434	66.22
290.649	105.13
290.864	31.4
291.079	-56.66
291.294	37.55
291.509	29.35
291.724	37.55
291.938	35.5
292.153	70.31
292.368	68.27
292.583	37.55
292.798	90.79
293.012	53.93
293.227	29.35
293.442	47.79
293.657	115.37
293.871	60.07
294.086	90.79
294.301	111.27
294.516	60.07
294.73	29.35
294.945	27.31
295.16	78.51
295.374	98.99
295.589	92.84
295.804	62.12
296.018	35.5
296.233	39.59
296.447	35.5
296.662	-32.08
296.877	74.41
297.091	96.94
297.306	41.64
297.52	55.98
297.735	90.79
297.949	45.74
298.164	41.64
298.378	107.18
298.593	98.99
298.807	31.4
299.022	51.88
299.236	41.64
299.451	10.92
299.665	-1.37
299.88	8.87
300.094	45.74
300.309	49.83
300.523	117.42
300.737	58.03
300.952	2.73
301.166	76.46
301.381	107.18
301.595	101.03
301.809	78.51
302.024	17.07
302.238	58.03
302.452	152.23
302.667	-23.89
302.881	103.08
303.095	43.69
303.309	103.08
303.524	-3.41
303.738	84.65
303.952	90.79
304.166	103.08
304.381	37.55
304.595	105.13
304.809	47.79
305.023	60.07
305.237	45.74
305.452	43.69
305.666	37.55
305.88	47.79
306.094	37.55
306.308	101.03
306.522	41.64
306.736	74.41
306.95	84.65
307.164	-15.7
307.379	15.02
307.593	39.59
307.807	86.7
308.021	121.51
308.235	39.59
308.449	33.45
308.663	62.12
308.877	174.76
309.091	107.18
309.305	113.32
309.519	8.87
309.733	135.85
309.947	80.55
310.161	33.45
310.374	23.21
310.588	86.7
310.802	27.31
311.016	25.26
311.23	-5.46
311.444	19.11
311.658	2.73
311.872	107.18
312.085	53.93
312.299	103.08
312.513	88.75
312.727	115.37
312.941	8.87
313.154	60.07
313.368	64.17
313.582	53.93
313.796	55.98
314.009	41.64
314.223	21.16
314.437	66.22
314.651	53.93
314.864	76.46
315.078	2.73
315.292	33.45
315.505	68.27
315.719	58.03
315.933	53.93
316.146	60.07
316.36	21.16
316.573	70.31
316.787	58.03
317.001	53.93
317.214	53.93
317.428	125.61
317.641	33.45
317.855	27.31
318.068	12.97
318.282	94.89
318.495	47.79
318.709	66.22
318.922	21.16
319.136	90.79
319.349	107.18
319.563	29.35
319.776	53.93
319.99	29.35
320.203	123.56
320.417	-7.51
320.63	74.41
320.843	41.64
321.057	10.92
321.27	82.6
321.483	152.23
321.697	58.03
321.91	98.99
322.124	111.27
322.337	4.78
322.55	66.22
322.763	105.13
322.977	53.93
323.19	70.31
323.403	127.66
323.617	43.69
323.83	86.7
324.043	86.7
324.256	47.79
324.469	-66.9
324.683	80.55
324.896	49.83
325.109	78.51
325.322	33.45
325.535	62.12
325.748	47.79
325.962	-79.19
326.175	113.32
326.388	80.55
326.601	70.31
326.814	117.42
327.027	-23.89
327.24	76.46
327.453	4.78
327.666	115.37
327.879	86.7
328.092	107.18
328.305	58.03
328.518	-3.41
328.731	55.98
328.944	27.31
329.157	12.97
329.37	68.27
329.583	62.12
329.796	31.4
330.009	12.97
330.222	70.31
330.435	76.46
330.648	68.27
330.861	88.75
331.073	25.26
331.286	144.04
331.499	78.51
331.712	21.16
331.925	23.21
332.138	107.18
332.35	70.31
332.563	98.99
332.776	78.51
332.989	49.83
333.202	137.9
333.414	29.35
333.627	72.36
333.84	27.31
334.053	74.41
334.265	35.5
334.478	92.84
334.691	60.07
334.903	82.6
335.116	101.03
335.329	62.12
335.541	33.45
335.754	121.51
335.966	82.6
336.179	33.45
336.392	115.37
336.604	68.27
336.817	62.12
337.029	53.93
337.242	72.36
337.454	55.98
337.667	53.93
337.88	86.7
338.092	62.12
338.305	66.22
338.517	-13.65
338.729	49.83
338.942	60.07
339.154	47.79
339.367	101.03
339.579	90.79
339.792	98.99
340.004	70.31
340.217	29.35
340.429	58.03
340.641	55.98
340.854	84.65
341.066	25.26
341.278	96.94
341.491	78.51
341.703	90.79
341.915	10.92
342.128	39.59
342.34	78.51
342.552	84.65
342.764	90.79
342.977	53.93
343.189	92.84
343.401	62.12
343.613	180.9
343.826	0.68
344.038	74.41
344.25	55.98
344.462	62.12
344.674	68.27
344.886	31.4
345.099	92.84
345.311	68.27
345.523	78.51
345.735	33.45
345.947	78.51
346.159	45.74
346.371	64.17
346.583	45.74
346.795	105.13
347.007	45.74
347.219	53.93
347.431	53.93
347.643	84.65
347.855	4.78
348.067	111.27
348.279	98.99
348.491	86.7
348.703	96.94
348.915	90.79
349.127	129.7
349.339	152.23
349.551	25.26
349.763	90.79
349.975	62.12
350.187	45.74
350.399	49.83
350.61	58.03
350.822	80.55
351.034	129.7
351.246	31.4
351.458	6.83
351.669	101.03
351.881	19.11
352.093	17.07
352.305	88.75
352.517	43.69
352.728	58.03
352.94	96.94
353.152	103.08
353.363	80.55
353.575	21.16
353.787	125.61
353.999	66.22
354.21	74.41
354.422	72.36
354.633	23.21
354.845	35.5
355.057	78.51
355.268	80.55
355.48	94.89
355.692	113.32
355.903	76.46
356.115	-1.37
356.326	25.26
356.538	64.17
356.749	86.7
356.961	96.94
357.172	37.55
357.384	41.64
357.595	66.22
357.807	31.4
358.018	29.35
358.23	43.69
358.441	111.27
358.653	117.42
358.864	86.7
359.075	131.75
359.287	74.41
359.498	86.7
359.709	105.13
359.921	92.84
360.132	41.64
360.344	27.31
360.555	105.13
360.766	58.03
360.977	84.65
361.189	70.31
361.4	49.83
361.611	4.78
361.823	107.18
362.034	84.65
362.245	-34.13
362.456	58.03
362.667	137.9
362.879	37.55
363.09	133.8
363.301	41.64
363.512	80.55
363.723	39.59
363.935	17.07
364.146	191.14
364.357	78.51
364.568	88.75
364.779	115.37
364.99	74.41
365.201	37.55
365.412	125.61
365.623	76.46
365.834	60.07
366.045	-3.41
366.256	84.65
366.467	58.03
366.678	4.78
366.889	84.65
367.1	62.12
367.311	127.66
367.522	109.22
367.733	47.79
367.944	45.74
368.155	144.04
368.366	86.7
368.577	58.03
368.788	19.11
368.999	96.94
369.209	62.12
369.42	53.93
369.631	168.62
369.842	33.45
370.053	76.46
370.264	125.61
370.474	64.17
370.685	29.35
370.896	41.64
371.107	139.94
371.317	45.74
371.528	17.07
371.739	-9.56
371.95	148.14
372.16	74.41
372.371	27.31
372.582	25.26
372.792	45.74
373.003	107.18
373.214	117.42
373.424	123.56
373.635	27.31
373.846	92.84
374.056	92.84
374.267	94.89
374.477	37.55
374.688	76.46
374.898	27.31
375.109	117.42
375.319	86.7
375.53	94.89
375.74	98.99
375.951	88.75
376.161	103.08
376.372	94.89
376.582	74.41
376.793	41.64
377.003	70.31
377.214	25.26
377.424	94.89
377.635	117.42
377.845	96.94
378.055	74.41
378.266	37.55
378.476	49.83
378.686	23.21
378.897	90.79
379.107	74.41
379.317	105.13
379.528	185
379.738	45.74
379.948	84.65
380.158	144.04
380.369	68.27
380.579	98.99
380.789	41.64
380.999	141.99
381.21	55.98
381.42	51.88
381.63	6.83
381.84	123.56
382.05	45.74
382.261	139.94
382.471	35.5
382.681	103.08
382.891	84.65
383.101	76.46
383.311	86.7
383.521	51.88
383.731	98.99
383.941	150.18
384.151	37.55
384.361	76.46
384.571	47.79
384.781	51.88
384.991	103.08
385.201	96.94
385.411	107.18
385.621	88.75
385.831	37.55
386.041	111.27
386.251	82.6
386.461	154.28
386.671	125.61
386.881	86.7
387.091	58.03
387.301	74.41
387.511	92.84
387.72	-15.7
387.93	127.66
388.14	90.79
388.35	74.41
388.56	78.51
388.769	129.7
388.979	160.42
389.189	35.5
389.399	82.6
389.609	103.08
389.818	135.85
390.028	113.32
390.238	92.84
390.447	166.57
390.657	166.57
390.867	107.18
391.076	35.5
391.286	150.18
391.496	125.61
391.705	107.18
391.915	113.32
392.125	123.56
392.334	68.27
392.544	68.27
392.753	94.89
392.963	80.55
393.172	55.98
393.382	70.31
393.591	111.27
393.801	154.28
394.01	113.32
394.22	111.27
394.429	115.37
394.639	60.07
394.848	101.03
395.058	101.03
395.267	129.7
395.477	86.7
395.686	117.42
395.895	109.22
396.105	156.33
396.314	94.89
396.524	111.27
396.733	82.6
396.942	174.76
397.152	148.14
397.361	172.71
397.57	174.76
397.78	148.14
397.989	160.42
398.198	199.34
398.407	180.9
398.617	168.62
398.826	207.53
399.035	158.38
399.244	139.94
399.453	185
399.663	80.55
399.872	125.61
400.081	127.66
400.29	213.67
400.499	135.85
400.708	139.94
400.917	62.12
401.127	178.86
401.336	152.23
401.545	205.48
401.754	127.66
401.963	174.76
402.172	135.85
402.381	121.51
402.59	178.86
402.799	156.33
403.008	160.42
403.217	146.09
403.426	199.34
403.635	111.27
403.844	203.43
404.053	205.48
404.262	119.46
404.471	240.29
404.68	168.62
404.888	260.77
405.097	215.72
405.306	213.67
405.515	217.77
405.724	209.58
405.933	242.34
406.142	199.34
406.35	217.77
406.559	236.2
406.768	293.54
406.977	213.67
407.185	236.2
407.394	283.3
407.603	250.53
407.812	324.26
408.02	297.64
408.229	289.45
408.438	277.16
408.646	287.4
408.855	361.13
409.064	295.59
409.272	236.2
409.481	369.32
409.69	369.32
409.898	344.74
410.107	492.2
410.315	408.23
410.524	441
410.733	469.67
410.941	459.43
411.15	594.59
411.358	434.85
411.567	494.24
411.775	565.92
411.984	582.31
412.192	559.78
412.401	559.78
412.609	623.27
412.818	709.28
413.026	705.18
413.234	692.9
413.443	735.9
413.651	715.42
413.86	610.98
414.068	807.58
414.276	740
414.485	764.57
414.693	846.49
414.901	1016.48
415.11	889.5
415.318	907.93
415.526	991.9
415.734	971.42
415.943	993.95
416.151	1108.63
416.359	1145.5
416.567	1102.49
416.776	1196.7
416.984	1165.98
417.192	1262.23
417.4	1262.23
417.608	1231.51
417.817	1295
418.025	1335.96
418.233	1573.52
418.441	1411.73
418.649	1632.91
418.857	1594
419.065	1657.49
419.273	1598.1
419.481	1794.7
419.689	1874.57
419.897	1958.54
420.105	1987.21
420.313	2011.79
420.521	2130.57
420.729	2054.8
420.937	2286.22
421.145	2282.12
421.353	2519.68
421.561	2521.73
421.769	2499.2
421.977	2669.19
422.185	2560.64
422.393	2765.44
422.601	2888.32
422.809	3035.77
423.017	3009.15
423.224	3019.39
423.432	3256.95
423.64	3142.27
423.848	3537.52
424.056	3486.33
424.263	3711.6
424.471	3713.65
424.679	3848.82
424.887	3957.36
425.094	4045.42
425.302	4158.06
425.51	4217.45
425.718	4477.54
425.925	4358.76
426.133	4784.74
426.341	4741.73
426.548	4956.77
426.756	5079.65
426.964	5089.88
427.171	5382.74
427.379	5562.97
427.586	5534.29
427.794	5735
428.001	6099.53
428.209	6294.09
428.417	6287.95
428.624	6666.82
428.832	6740.55
429.039	6457.93
429.247	6572.61
429.454	7285.31
429.662	7647.8
429.869	7399.99
430.076	7887.41
430.284	7531.06
430.491	7828.02
430.699	8440.36
430.906	8352.3
431.114	8466.99
431.321	8708.65
431.528	9038.37
431.736	9599.51
431.943	9908.76
432.15	9523.74
432.358	9597.46
432.565	10398.22
432.772	10375.69
432.979	10600.97
433.187	10813.96
433.394	10945.03
433.601	11823.61
433.808	11633.15
434.016	11661.82
434.223	12343.79
434.43	12958.18
434.637	12749.29
434.844	13441.5
435.052	13713.88
435.259	13582.81
435.466	13763.03
435.673	13732.31
435.88	14711.24
436.087	15090.12
436.294	15241.67
436.501	14913.99
436.708	15272.39
436.915	15641.02
437.122	16546.22
437.329	16415.15
437.537	16980.39
437.743	17314.21
437.95	17246.63
438.157	17711.52
438.364	18444.69
438.571	18659.73
438.778	18610.57
438.985	20234.61
439.192	19655.04
439.399	20248.95
439.606	19718.53
439.813	20818.28
440.02	22180.18
440.227	21946.72
440.433	21303.65
440.64	22384.98
440.847	21807.45
441.054	22987.08
441.261	23808.32
441.467	23843.13
441.674	24236.34
441.881	25415.97
442.088	25162.03
442.294	24760.62
442.501	25514.28
442.708	26120.48
442.914	27156.75
443.121	28152.06
443.328	27707.65
443.534	29542.63
443.741	28518.65
443.948	28049.66
444.154	30304.48
444.361	30017.76
444.568	30441.69
444.774	30318.81
444.981	30722.26
445.187	31654.09
445.394	32868.53
445.6	32487.61
445.807	35360.91
446.013	34070.69
446.22	34341.02
446.426	35911.81
446.633	36262.02
446.839	37464.17
447.046	35881.1
447.252	37935.21
447.459	37873.77
447.665	37656.68
447.871	38959.19
448.078	40892.47
448.284	39168.08
448.491	40314.95
448.697	41588.78
448.903	42491.94
449.11	42623.01
449.316	42080.3
449.522	42653.73
449.728	43464.72
449.935	43773.97
450.141	44017.67
450.347	45006.84
450.553	43223.06
450.76	44314.63
450.966	45311.99
451.172	45604.85
451.378	46008.3
451.584	45121.53
451.791	46063.6
451.997	45762.54
452.203	47257.56
452.409	46909.41
452.615	46626.79
452.821	44900.35
453.027	44460.04
453.233	47120.35
453.44	45129.72
453.646	45445.11
453.852	45750.26
454.058	46086.12
454.264	44961.79
454.47	46200.81
454.676	44918.78
454.882	46467.05
455.088	42704.93
455.294	43235.35
455.5	43522.07
455.705	43878.41
455.911	42194.98
456.117	41467.95
456.323	40865.85
456.529	38914.14
456.735	40392.77
456.941	39323.73
457.147	38985.82
457.352	37677.16
457.558	37206.13
457.764	37142.64
457.97	36532.35
458.176	35682.44
458.381	35922.05
458.587	34214.05
458.793	33921.19
458.999	32288.96
459.204	34746.52
459.41	33728.68
459.616	31379.66
459.821	31637.7
460.027	31541.45
460.233	30785.75
460.438	29665.51
460.644	29788.39
460.85	27998.46
461.055	27678.98
461.261	27828.48
461.466	25579.81
461.672	25012.52
461.878	26644.76
462.083	25061.68
462.289	24367.41
462.494	24027.45
462.7	22950.22
462.905	22409.56
463.111	23550.28
463.316	23578.95
463.522	22841.68
463.727	22804.81
463.932	22843.73
464.138	22499.67
464.343	22731.09
464.549	21901.66
464.754	22868.3
464.959	22655.31
465.165	22358.36
465.37	21338.47
465.575	20918.64
465.781	21746.01
465.986	21789.02
466.191	21018.99
466.397	20724.08
466.602	19841.4
466.807	20386.16
