Data from USB4F104151__77__11-37-39-327.txt Node

Date: Fri Mar 14 11:37:39 EDT 2025
User: louis
Spectrometer: USB4F10415
Trigger mode: 4
Integration Time (sec): 2.000000E-2
Scans to average: 1
Electric dark correction enabled: true
Nonlinearity correction enabled: false
Boxcar width: 0
XAxis mode: Wavelengths
Number of Pixels in Spectrum: 3648
>>>>>Begin Spectral Data<<<<<
178.204	-125.44
178.424	-125.44
178.644	-125.44
178.864	-39.42
179.084	-2.56
179.304	-8.7
179.524	-82.43
179.744	26.11
179.964	-0.51
180.184	22.02
180.404	-16.9
180.624	-84.48
180.844	26.11
181.064	58.88
181.283	-27.14
181.503	48.64
181.723	38.4
181.943	-51.71
182.163	122.37
182.383	22.02
182.602	79.36
182.822	38.4
183.042	30.21
183.262	-55.81
183.482	54.78
183.701	54.78
183.921	17.92
184.141	-6.66
184.361	95.74
184.58	24.06
184.8	-55.81
185.02	-23.04
185.239	126.46
185.459	-23.04
185.679	17.92
185.898	54.78
186.118	34.3
186.338	52.74
186.557	93.69
186.777	28.16
186.997	-27.14
187.216	44.54
187.436	54.78
187.655	73.21
187.875	83.45
188.095	-39.42
188.314	48.64
188.534	28.16
188.753	-41.47
188.973	24.06
189.192	30.21
189.412	-2.56
189.631	-51.71
189.851	1.54
190.07	54.78
190.29	56.83
190.509	-104.96
190.729	56.83
190.948	-29.18
191.168	146.94
191.387	28.16
191.607	7.68
191.826	26.11
192.045	17.92
192.265	5.63
192.484	-10.75
192.704	32.26
192.923	-37.38
193.142	71.17
193.362	-23.04
193.581	81.41
193.8	1.54
194.02	58.88
194.239	-29.18
194.458	83.45
194.678	3.58
194.897	62.98
195.116	52.74
195.335	73.21
195.555	-2.56
195.774	7.68
195.993	-25.09
196.212	13.82
196.432	26.11
196.651	-2.56
196.87	26.11
197.089	108.03
197.308	-8.7
197.528	69.12
197.747	-33.28
197.966	19.97
198.185	44.54
198.404	32.26
198.623	44.54
198.842	-6.66
199.062	67.07
199.281	62.98
199.5	-10.75
199.719	58.88
199.938	38.4
200.157	44.54
200.376	60.93
200.595	-55.81
200.814	44.54
201.033	-16.9
201.252	17.92
201.471	46.59
201.69	34.3
201.909	54.78
202.128	22.02
202.347	46.59
202.566	17.92
202.785	38.4
203.004	-23.04
203.223	19.97
203.442	91.65
203.661	-2.56
203.879	32.26
204.098	-6.66
204.317	15.87
204.536	93.69
204.755	44.54
204.974	38.4
205.193	9.73
205.411	44.54
205.63	-2.56
205.849	-10.75
206.068	-37.38
206.287	-6.66
206.505	15.87
206.724	52.74
206.943	44.54
207.162	50.69
207.381	54.78
207.599	15.87
207.818	11.78
208.037	32.26
208.255	-14.85
208.474	17.92
208.693	50.69
208.911	-23.04
209.13	9.73
209.349	15.87
209.567	17.92
209.786	89.6
210.005	24.06
210.223	38.4
210.442	-33.28
210.661	34.3
210.879	71.17
211.098	-39.42
211.316	52.74
211.535	52.74
211.753	-80.38
211.972	79.36
212.191	79.36
212.409	22.02
212.628	77.31
212.846	36.35
213.065	-57.86
213.283	65.02
213.502	36.35
213.72	81.41
213.938	79.36
214.157	22.02
214.375	26.11
214.594	15.87
214.812	75.26
215.031	-23.04
215.249	9.73
215.467	54.78
215.686	28.16
215.904	7.68
216.122	67.07
216.341	79.36
216.559	-29.18
216.778	7.68
216.996	67.07
217.214	71.17
217.432	44.54
217.651	46.59
217.869	108.03
218.087	46.59
218.306	9.73
218.524	34.3
218.742	-12.8
218.96	26.11
219.179	-16.9
219.397	48.64
219.615	48.64
219.833	28.16
220.051	42.5
220.27	58.88
220.488	17.92
220.706	28.16
220.924	62.98
221.142	73.21
221.36	32.26
221.578	65.02
221.796	46.59
222.015	73.21
222.233	32.26
222.451	54.78
222.669	-14.85
222.887	42.5
223.105	5.63
223.323	19.97
223.541	56.83
223.759	30.21
223.977	58.88
224.195	65.02
224.413	89.6
224.631	17.92
224.849	19.97
225.067	93.69
225.285	-45.57
225.503	1.54
225.721	7.68
225.939	38.4
226.157	24.06
226.375	62.98
226.592	67.07
226.81	30.21
227.028	26.11
227.246	103.93
227.464	79.36
227.682	26.11
227.9	95.74
228.117	32.26
228.335	32.26
228.553	13.82
228.771	32.26
228.989	22.02
229.206	58.88
229.424	17.92
229.642	103.93
229.86	-2.56
230.077	83.45
230.295	38.4
230.513	85.5
230.731	9.73
230.948	50.69
231.166	114.17
231.384	42.5
231.601	28.16
231.819	32.26
232.037	24.06
232.254	-6.66
232.472	19.97
232.689	44.54
232.907	22.02
233.125	17.92
233.342	15.87
233.56	-64
233.777	-0.51
233.995	-41.47
234.213	99.84
234.43	26.11
234.648	15.87
234.865	46.59
235.083	24.06
235.3	5.63
235.518	1.54
235.735	67.07
235.953	32.26
236.17	13.82
236.388	-14.85
236.605	7.68
236.822	52.74
237.04	110.08
237.257	-10.75
237.475	-6.66
237.692	75.26
237.909	67.07
238.127	77.31
238.344	52.74
238.562	103.93
238.779	15.87
238.996	-8.7
239.214	89.6
239.431	13.82
239.648	24.06
239.865	15.87
240.083	75.26
240.3	22.02
240.517	-72.19
240.735	58.88
240.952	-14.85
241.169	46.59
241.386	-2.56
241.603	13.82
241.821	9.73
242.038	50.69
242.255	73.21
242.472	-6.66
242.689	28.16
242.907	58.88
243.124	40.45
243.341	105.98
243.558	-0.51
243.775	15.87
243.992	-23.04
244.209	26.11
244.426	28.16
244.643	9.73
244.86	32.26
245.078	56.83
245.295	3.58
245.512	103.93
245.729	-14.85
245.946	-10.75
246.163	46.59
246.38	62.98
246.597	-8.7
246.814	114.17
247.031	128.51
247.248	62.98
247.464	-25.09
247.681	9.73
247.898	38.4
248.115	48.64
248.332	40.45
248.549	22.02
248.766	62.98
248.983	28.16
249.2	77.31
249.417	89.6
249.633	81.41
249.85	56.83
250.067	38.4
250.284	34.3
250.501	-2.56
250.717	17.92
250.934	34.3
251.151	58.88
251.368	71.17
251.585	5.63
251.801	28.16
252.018	22.02
252.235	32.26
252.451	-18.94
252.668	58.88
252.885	91.65
253.102	32.26
253.318	34.3
253.535	-47.62
253.752	56.83
253.968	62.98
254.185	30.21
254.401	108.03
254.618	-6.66
254.835	85.5
255.051	30.21
255.268	-55.81
255.484	38.4
255.701	13.82
255.917	17.92
256.134	-12.8
256.351	9.73
256.567	-4.61
256.784	24.06
257	5.63
257.217	24.06
257.433	30.21
257.65	3.58
257.866	40.45
258.082	-20.99
258.299	-16.9
258.515	62.98
258.732	40.45
258.948	7.68
259.165	89.6
259.381	-0.51
259.597	46.59
259.814	22.02
260.03	13.82
260.246	-25.09
260.463	-8.7
260.679	-10.75
260.895	30.21
261.112	26.11
261.328	56.83
261.544	42.5
261.761	99.84
261.977	-14.85
262.193	73.21
262.409	3.58
262.626	36.35
262.842	-6.66
263.058	91.65
263.274	-6.66
263.49	93.69
263.707	73.21
263.923	69.12
264.139	-10.75
264.355	15.87
264.571	24.06
264.787	-23.04
265.004	116.22
265.22	17.92
265.436	-25.09
265.652	22.02
265.868	112.13
266.084	32.26
266.3	-2.56
266.516	34.3
266.732	38.4
266.948	-66.05
267.164	9.73
267.38	-4.61
267.596	7.68
267.812	89.6
268.028	-37.38
268.244	9.73
268.46	54.78
268.676	58.88
268.892	24.06
269.108	-8.7
269.324	75.26
269.54	26.11
269.756	17.92
269.972	54.78
270.188	-0.51
270.403	-59.9
270.619	65.02
270.835	42.5
271.051	24.06
271.267	38.4
271.483	46.59
271.698	50.69
271.914	62.98
272.13	42.5
272.346	67.07
272.562	24.06
272.777	91.65
272.993	89.6
273.209	-45.57
273.425	93.69
273.64	-8.7
273.856	58.88
274.072	46.59
274.287	24.06
274.503	-8.7
274.719	9.73
274.934	22.02
275.15	-35.33
275.366	15.87
275.581	5.63
275.797	17.92
276.012	-31.23
276.228	56.83
276.444	-27.14
276.659	40.45
276.875	-10.75
277.09	32.26
277.306	44.54
277.521	13.82
277.737	81.41
277.952	-2.56
278.168	97.79
278.383	42.5
278.599	142.85
278.814	36.35
279.03	26.11
279.245	46.59
279.461	73.21
279.676	48.64
279.892	62.98
280.107	81.41
280.322	58.88
280.538	-6.66
280.753	24.06
280.969	62.98
281.184	-10.75
281.399	108.03
281.615	-18.94
281.83	99.84
282.045	65.02
282.26	54.78
282.476	17.92
282.691	67.07
282.906	65.02
283.122	34.3
283.337	15.87
283.552	81.41
283.767	48.64
283.983	-14.85
284.198	-43.52
284.413	103.93
284.628	40.45
284.843	5.63
285.058	38.4
285.274	87.55
285.489	85.5
285.704	22.02
285.919	17.92
286.134	-2.56
286.349	28.16
286.564	1.54
286.779	83.45
286.995	38.4
287.21	-94.72
287.425	7.68
287.64	46.59
287.855	134.65
288.07	44.54
288.285	140.8
288.5	58.88
288.715	79.36
288.93	67.07
289.145	67.07
289.36	71.17
289.575	42.5
289.79	56.83
290.004	26.11
290.219	22.02
290.434	-18.94
290.649	22.02
290.864	-10.75
291.079	46.59
291.294	-53.76
291.509	32.26
291.724	-29.18
291.938	40.45
292.153	67.07
292.368	38.4
292.583	85.5
292.798	71.17
293.012	38.4
293.227	34.3
293.442	103.93
293.657	28.16
293.871	42.5
294.086	28.16
294.301	71.17
294.516	-6.66
294.73	85.5
294.945	-20.99
295.16	19.97
295.374	101.89
295.589	50.69
295.804	-2.56
296.018	17.92
296.233	60.93
296.447	17.92
296.662	13.82
296.877	116.22
297.091	75.26
297.306	-12.8
297.52	24.06
297.735	40.45
297.949	46.59
298.164	91.65
298.378	114.17
298.593	-20.99
298.807	24.06
299.022	1.54
299.236	24.06
299.451	44.54
299.665	87.55
299.88	93.69
300.094	42.5
300.309	85.5
300.523	50.69
300.737	9.73
300.952	-6.66
301.166	11.78
301.381	71.17
301.595	7.68
301.809	-4.61
302.024	9.73
302.238	52.74
302.452	65.02
302.667	34.3
302.881	52.74
303.095	65.02
303.309	46.59
303.524	13.82
303.738	24.06
303.952	-35.33
304.166	77.31
304.381	1.54
304.595	122.37
304.809	44.54
305.023	79.36
305.237	130.56
305.452	42.5
305.666	85.5
305.88	75.26
306.094	48.64
306.308	46.59
306.522	71.17
306.736	-8.7
306.95	40.45
307.164	69.12
307.379	17.92
307.593	48.64
307.807	116.22
308.021	24.06
308.235	62.98
308.449	79.36
308.663	62.98
308.877	81.41
309.091	108.03
309.305	67.07
309.519	-18.94
309.733	46.59
309.947	24.06
310.161	58.88
310.374	60.93
310.588	-8.7
310.802	24.06
311.016	-6.66
311.23	36.35
311.444	7.68
311.658	79.36
311.872	5.63
312.085	73.21
312.299	40.45
312.513	15.87
312.727	5.63
312.941	3.58
313.154	128.51
313.368	83.45
313.582	44.54
313.796	34.3
314.009	48.64
314.223	95.74
314.437	54.78
314.651	58.88
314.864	-4.61
315.078	7.68
315.292	-6.66
315.505	28.16
315.719	95.74
315.933	38.4
316.146	52.74
316.36	26.11
316.573	83.45
316.787	-14.85
317.001	-51.71
317.214	9.73
317.428	11.78
317.641	22.02
317.855	-8.7
318.068	-49.66
318.282	95.74
318.495	91.65
318.709	79.36
318.922	32.26
319.136	34.3
319.349	67.07
319.563	1.54
319.776	134.65
319.99	52.74
320.203	28.16
320.417	30.21
320.63	50.69
320.843	69.12
321.057	1.54
321.27	22.02
321.483	50.69
321.697	38.4
321.91	42.5
322.124	77.31
322.337	50.69
322.55	22.02
322.763	46.59
322.977	44.54
323.19	26.11
323.403	54.78
323.617	91.65
323.83	103.93
324.043	42.5
324.256	50.69
324.469	7.68
324.683	134.65
324.896	89.6
325.109	22.02
325.322	-53.76
325.535	97.79
325.748	75.26
325.962	-10.75
326.175	-33.28
326.388	118.27
326.601	50.69
326.814	-16.9
327.027	120.32
327.24	34.3
327.453	22.02
327.666	71.17
327.879	110.08
328.092	52.74
328.305	81.41
328.518	75.26
328.731	50.69
328.944	15.87
329.157	-12.8
329.37	79.36
329.583	103.93
329.796	7.68
330.009	54.78
330.222	-23.04
330.435	28.16
330.648	87.55
330.861	-4.61
331.073	11.78
331.286	40.45
331.499	93.69
331.712	44.54
331.925	79.36
332.138	62.98
332.35	26.11
332.563	50.69
332.776	69.12
332.989	30.21
333.202	52.74
333.414	24.06
333.627	60.93
333.84	11.78
334.053	58.88
334.265	34.3
334.478	1.54
334.691	30.21
334.903	122.37
335.116	73.21
335.329	58.88
335.541	42.5
335.754	65.02
335.966	-33.28
336.179	40.45
336.392	17.92
336.604	26.11
336.817	69.12
337.029	58.88
337.242	42.5
337.454	83.45
337.667	-0.51
337.88	112.13
338.092	46.59
338.305	81.41
338.517	-8.7
338.729	65.02
338.942	114.17
339.154	19.97
339.367	93.69
339.579	120.32
339.792	85.5
340.004	-33.28
340.217	34.3
340.429	-4.61
340.641	22.02
340.854	54.78
341.066	101.89
341.278	9.73
341.491	54.78
341.703	-0.51
341.915	73.21
342.128	56.83
342.34	91.65
342.552	71.17
342.764	15.87
342.977	22.02
343.189	120.32
343.401	42.5
343.613	36.35
343.826	77.31
344.038	36.35
344.25	17.92
344.462	11.78
344.674	-20.99
344.886	38.4
345.099	54.78
345.311	-43.52
345.523	48.64
345.735	9.73
345.947	24.06
346.159	77.31
346.371	22.02
346.583	87.55
346.795	73.21
347.007	-41.47
347.219	38.4
347.431	34.3
347.643	44.54
347.855	-10.75
348.067	50.69
348.279	116.22
348.491	32.26
348.703	40.45
348.915	67.07
349.127	-18.94
349.339	9.73
349.551	65.02
349.763	54.78
349.975	42.5
350.187	167.42
350.399	28.16
350.61	87.55
350.822	1.54
351.034	91.65
351.246	-16.9
351.458	73.21
351.669	17.92
351.881	65.02
352.093	71.17
352.305	101.89
352.517	15.87
352.728	30.21
352.94	-2.56
353.152	65.02
353.363	30.21
353.575	54.78
353.787	73.21
353.999	62.98
354.21	50.69
354.422	99.84
354.633	103.93
354.845	79.36
355.057	15.87
355.268	56.83
355.48	112.13
355.692	9.73
355.903	11.78
356.115	11.78
356.326	22.02
356.538	81.41
356.749	40.45
356.961	50.69
357.172	9.73
357.384	-35.33
357.595	77.31
357.807	60.93
358.018	95.74
358.23	3.58
358.441	56.83
358.653	91.65
358.864	-35.33
359.075	-29.18
359.287	42.5
359.498	52.74
359.709	-23.04
359.921	65.02
360.132	19.97
360.344	42.5
360.555	58.88
360.766	126.46
360.977	60.93
361.189	83.45
361.4	15.87
361.611	87.55
361.823	56.83
362.034	11.78
362.245	9.73
362.456	130.56
362.667	108.03
362.879	54.78
363.09	44.54
363.301	30.21
363.512	65.02
363.723	73.21
363.935	50.69
364.146	50.69
364.357	26.11
364.568	1.54
364.779	3.58
364.99	85.5
365.201	50.69
365.412	-8.7
365.623	50.69
365.834	75.26
366.045	65.02
366.256	130.56
366.467	54.78
366.678	58.88
366.889	58.88
367.1	40.45
367.311	65.02
367.522	38.4
367.733	46.59
367.944	91.65
368.155	87.55
368.366	26.11
368.577	-2.56
368.788	116.22
368.999	9.73
369.209	99.84
369.42	50.69
369.631	132.61
369.842	95.74
370.053	54.78
370.264	48.64
370.474	24.06
370.685	30.21
370.896	22.02
371.107	87.55
371.317	101.89
371.528	54.78
371.739	71.17
371.95	120.32
372.16	77.31
372.371	28.16
372.582	71.17
372.792	95.74
373.003	60.93
373.214	134.65
373.424	-29.18
373.635	54.78
373.846	79.36
374.056	40.45
374.267	44.54
374.477	40.45
374.688	95.74
374.898	3.58
375.109	56.83
375.319	28.16
375.53	81.41
375.74	48.64
375.951	89.6
376.161	54.78
376.372	1.54
376.582	69.12
376.793	42.5
377.003	69.12
377.214	108.03
377.424	144.89
377.635	79.36
377.845	26.11
378.055	97.79
378.266	95.74
378.476	130.56
378.686	99.84
378.897	73.21
379.107	108.03
379.317	75.26
379.528	34.3
379.738	83.45
379.948	9.73
380.158	71.17
380.369	30.21
380.579	54.78
380.789	118.27
380.999	26.11
381.21	138.75
381.42	87.55
381.63	54.78
381.84	138.75
382.05	56.83
382.261	83.45
382.471	114.17
382.681	-41.47
382.891	50.69
383.101	112.13
383.311	77.31
383.521	42.5
383.731	56.83
383.941	83.45
384.151	89.6
384.361	97.79
384.571	36.35
384.781	13.82
384.991	95.74
385.201	73.21
385.411	71.17
385.621	32.26
385.831	-25.09
386.041	-31.23
386.251	67.07
386.461	5.63
386.671	110.08
386.881	34.3
387.091	79.36
387.301	101.89
387.511	97.79
387.72	110.08
387.93	67.07
388.14	-2.56
388.35	-16.9
388.56	30.21
388.769	99.84
388.979	46.59
389.189	42.5
389.399	105.98
389.609	36.35
389.818	142.85
390.028	103.93
390.238	22.02
390.447	79.36
390.657	36.35
390.867	56.83
391.076	42.5
391.286	28.16
391.496	101.89
391.705	50.69
391.915	128.51
392.125	50.69
392.334	62.98
392.544	140.8
392.753	114.17
392.963	87.55
393.172	101.89
393.382	42.5
393.591	136.7
393.801	124.41
394.01	118.27
394.22	46.59
394.429	81.41
394.639	114.17
394.848	30.21
395.058	144.89
395.267	75.26
395.477	161.28
395.686	122.37
395.895	103.93
396.105	167.42
396.314	148.99
396.524	212.48
396.733	120.32
396.942	95.74
397.152	93.69
397.361	181.76
397.57	132.61
397.78	79.36
397.989	65.02
398.198	173.57
398.407	99.84
398.617	169.47
398.826	128.51
399.035	103.93
399.244	151.04
399.453	177.66
399.663	144.89
399.872	140.8
400.081	103.93
400.29	179.71
400.499	112.13
400.708	87.55
400.917	91.65
401.127	171.52
401.336	73.21
401.545	58.88
401.754	138.75
401.963	165.37
402.172	200.19
402.381	153.09
402.59	138.75
402.799	155.13
403.008	132.61
403.217	185.85
403.426	163.33
403.635	216.57
403.844	185.85
404.053	108.03
404.262	132.61
404.471	181.76
404.68	120.32
404.888	157.18
405.097	202.24
405.306	181.76
405.515	165.37
405.724	161.28
405.933	159.23
406.142	122.37
406.35	228.86
406.559	161.28
406.768	226.81
406.977	263.68
407.185	179.71
407.394	269.82
407.603	237.05
407.812	214.52
408.02	208.38
408.229	263.68
408.438	259.58
408.646	245.24
408.855	288.25
409.064	259.58
409.272	280.06
409.481	378.36
409.69	327.16
409.898	273.92
410.107	374.27
410.315	318.97
410.524	341.5
410.733	318.97
410.941	386.55
411.15	386.55
411.358	372.22
411.567	540.15
411.775	554.49
411.984	386.55
412.192	450.04
412.401	458.23
412.609	570.87
412.818	527.86
413.026	476.66
413.234	593.4
413.443	536.06
413.651	550.39
413.86	620.02
414.068	585.21
414.276	667.13
414.485	513.53
414.693	710.13
414.901	828.92
415.11	781.81
415.318	728.56
415.526	814.58
415.734	775.67
415.943	818.68
416.151	892.4
416.359	796.15
416.567	959.99
416.776	853.49
416.984	1019.38
417.192	966.13
417.4	1148.4
417.608	1062.38
417.817	1074.67
418.025	1076.72
418.233	1267.18
418.441	1037.81
418.649	1291.76
418.857	1302
419.065	1377.77
419.273	1316.33
419.481	1416.68
419.689	1480.17
419.897	1555.94
420.105	1562.09
420.313	1652.2
420.521	1678.82
420.729	1717.73
420.937	1828.32
421.145	1838.56
421.353	1816.04
421.561	2037.22
421.769	2158.05
421.977	2227.68
422.185	2176.48
422.393	2252.25
422.601	2274.78
422.809	2436.57
423.017	2395.61
423.224	2475.48
423.432	2641.37
423.64	2713.05
423.848	2762.2
424.056	2807.25
424.263	3046.87
424.471	3014.1
424.679	3081.68
424.887	3298.77
425.094	3268.05
425.302	3290.57
425.51	3491.27
425.718	3589.58
425.925	3636.68
426.133	3626.44
426.341	3810.76
426.548	4066.75
426.756	4027.84
426.964	4087.23
427.171	4441.53
427.379	4570.55
427.586	4488.64
427.794	4634.04
428.001	5084.59
428.209	5227.95
428.417	5035.44
428.624	5399.98
428.832	5539.24
429.039	5442.99
429.247	5291.44
429.454	6026.66
429.662	6243.74
429.869	6010.28
430.076	6311.33
430.284	6143.39
430.491	6411.68
430.699	6938.01
430.906	6870.42
431.114	7056.79
431.321	7044.5
431.528	7320.98
431.736	7593.36
431.943	7986.57
432.15	7923.08
432.358	7749
432.565	8336.77
432.772	8179.08
432.979	8805.75
433.187	9031.03
433.394	8985.97
433.601	9457.01
433.808	9620.85
434.016	9346.42
434.223	9993.58
434.43	10569.05
434.637	10341.73
434.844	10974.55
435.052	11509.07
435.259	11144.53
435.466	11453.78
435.673	11124.05
435.88	11799.88
436.087	12465.47
436.294	12643.65
436.501	12174.66
436.708	12432.71
436.915	12834.11
437.122	13415.73
437.329	13524.27
437.537	13825.33
437.743	14107.94
437.95	13843.76
438.157	14767.39
438.364	14939.42
438.571	15027.48
438.778	14964
438.985	16631.04
439.192	16098.57
439.399	16311.56
439.606	16123.15
439.813	17097.98
440.02	17988.85
440.227	17870.06
440.433	17487.09
440.64	18283.75
440.847	18035.95
441.054	18529.51
441.261	19573.97
441.467	19330.27
441.674	19860.69
441.881	20669.64
442.088	20241.61
442.294	20423.88
442.501	21036.22
442.708	20923.58
442.914	22211.76
443.121	23014.56
443.328	22512.81
443.534	23995.54
443.741	23391.39
443.948	23116.96
444.154	24540.3
444.361	24489.1
444.568	24808.58
444.774	24818.82
444.981	25177.22
445.187	25810.04
445.394	26834.02
445.6	26258.54
445.807	29062.21
446.013	27880.53
446.22	28226.64
446.426	29310.02
446.633	29867.06
446.839	30346.29
447.046	29920.31
447.252	31302.69
447.459	31202.34
447.665	31003.69
447.871	32357.39
448.078	33827.84
448.284	32060.44
448.491	32898.06
448.697	34245.62
448.903	34829.29
449.11	34776.05
449.316	34417.65
449.522	34919.4
449.728	35687.39
449.935	36137.94
450.141	36084.7
450.347	37217.22
450.553	35832.8
450.76	36094.94
450.966	37370.82
451.172	36965.32
451.378	37612.48
451.584	37352.39
451.791	38278.07
451.997	38022.08
452.203	38257.59
452.409	38206.39
452.615	38386.61
452.821	36768.72
453.027	36281.3
453.233	38456.25
453.44	36867.02
453.646	37374.92
453.852	37759.94
454.058	38030.27
454.264	36801.49
454.47	37989.31
454.676	36738
454.882	38251.45
455.088	34745.33
455.294	35202.02
455.5	35748.83
455.705	36082.65
455.911	34786.29
456.117	33991.67
456.323	33471.49
456.529	32005.14
456.735	33520.64
456.941	32232.47
457.147	31884.31
457.352	31036.45
457.558	30536.75
457.764	30807.08
457.97	30121.01
458.176	29129.8
458.381	29385.79
458.587	28124.24
458.793	28222.55
458.999	26422.38
459.204	28396.62
459.41	27456.61
459.616	26063.99
459.821	25629.82
460.027	25517.18
460.233	25150.59
460.438	24112.27
460.644	24444.04
460.85	23100.58
461.055	22596.78
461.261	22928.55
461.466	21214.4
461.672	20528.33
461.878	22035.63
462.083	20301
462.289	20217.04
462.494	19940.56
462.7	19016.93
462.905	18820.32
463.111	19309.79
463.316	19172.57
463.522	18672.87
463.727	18662.63
463.932	18842.85
464.138	18480.36
464.343	18715.87
464.549	17972.46
464.754	18758.88
464.959	18488.55
465.165	18326.76
465.37	17339.64
465.575	17327.35
465.781	18011.37
465.986	17794.29
466.191	17190.14
466.397	16821.5
466.602	16112.91
466.807	17009.92
467.012	16854.27
467.218	16936.19
467.423	16600.32
467.628	16608.51
