Data from USB4F104151__15__11-36-26-867.txt Node

Date: Fri Mar 14 11:36:26 EDT 2025
User: louis
Spectrometer: USB4F10415
Trigger mode: 4
Integration Time (sec): 2.000000E-2
Scans to average: 1
Electric dark correction enabled: true
Nonlinearity correction enabled: false
Boxcar width: 0
XAxis mode: Wavelengths
Number of Pixels in Spectrum: 3648
>>>>>Begin Spectral Data<<<<<
178.204	-57.86
178.424	-57.86
178.644	-57.86
178.864	-55.81
179.084	-94.72
179.304	-23.04
179.524	-88.57
179.744	5.63
179.964	50.69
180.184	-2.56
180.404	38.4
180.624	7.68
180.844	-2.56
181.064	22.02
181.283	9.73
181.503	-59.9
181.723	42.5
181.943	-10.75
182.163	42.5
182.383	-6.66
182.602	24.06
182.822	-6.66
183.042	24.06
183.262	-12.8
183.482	9.73
183.701	1.54
183.921	-29.18
184.141	-39.42
184.361	38.4
184.58	-39.42
184.8	32.26
185.02	-23.04
185.239	58.88
185.459	-25.09
185.679	5.63
185.898	95.74
186.118	19.97
186.338	3.58
186.557	58.88
186.777	-2.56
186.997	-4.61
187.216	-98.81
187.436	54.78
187.655	42.5
187.875	52.74
188.095	-4.61
188.314	36.35
188.534	30.21
188.753	-2.56
188.973	60.93
189.192	58.88
189.412	24.06
189.631	77.31
189.851	1.54
190.07	87.55
190.29	9.73
190.509	85.5
190.729	7.68
190.948	-59.9
191.168	62.98
191.387	24.06
191.607	34.3
191.826	-2.56
192.045	-8.7
192.265	-43.52
192.484	1.54
192.704	-18.94
192.923	58.88
193.142	34.3
193.362	-23.04
193.581	87.55
193.8	-18.94
194.02	58.88
194.239	32.26
194.458	46.59
194.678	15.87
194.897	42.5
195.116	-14.85
195.335	28.16
195.555	69.12
195.774	32.26
195.993	-64
196.212	-29.18
196.432	-6.66
196.651	-25.09
196.87	24.06
197.089	89.6
197.308	17.92
197.528	-4.61
197.747	-35.33
197.966	-23.04
198.185	5.63
198.404	26.11
198.623	-6.66
198.842	-31.23
199.062	46.59
199.281	30.21
199.5	26.11
199.719	1.54
199.938	69.12
200.157	83.45
200.376	9.73
200.595	52.74
200.814	22.02
201.033	9.73
201.252	-31.23
201.471	-33.28
201.69	40.45
201.909	69.12
202.128	26.11
202.347	9.73
202.566	5.63
202.785	-33.28
203.004	56.83
203.223	-37.38
203.442	-47.62
203.661	56.83
203.879	1.54
204.098	24.06
204.317	7.68
204.536	56.83
204.755	7.68
204.974	22.02
205.193	32.26
205.411	-12.8
205.63	5.63
205.849	46.59
206.068	-10.75
206.287	19.97
206.505	5.63
206.724	1.54
206.943	-14.85
207.162	13.82
207.381	-6.66
207.599	48.64
207.818	38.4
208.037	-14.85
208.255	5.63
208.474	40.45
208.693	52.74
208.911	79.36
209.13	-2.56
209.349	-16.9
209.567	-14.85
209.786	48.64
210.005	17.92
210.223	83.45
210.442	-53.76
210.661	-66.05
210.879	-10.75
211.098	1.54
211.316	-10.75
211.535	79.36
211.753	24.06
211.972	-10.75
212.191	40.45
212.409	28.16
212.628	-18.94
212.846	30.21
213.065	17.92
213.283	9.73
213.502	-57.86
213.72	22.02
213.938	-27.14
214.157	83.45
214.375	17.92
214.594	-39.42
214.812	-6.66
215.031	38.4
215.249	48.64
215.467	-29.18
215.686	-8.7
215.904	50.69
216.122	5.63
216.341	-6.66
216.559	5.63
216.778	17.92
216.996	17.92
217.214	-10.75
217.432	58.88
217.651	-0.51
217.869	99.84
218.087	-14.85
218.306	-23.04
218.524	15.87
218.742	-2.56
218.96	89.6
219.179	-43.52
219.397	26.11
219.615	75.26
219.833	62.98
220.051	-59.9
220.27	24.06
220.488	30.21
220.706	-4.61
220.924	-4.61
221.142	-35.33
221.36	-16.9
221.578	-2.56
221.796	24.06
222.015	30.21
222.233	32.26
222.451	105.98
222.669	-6.66
222.887	73.21
223.105	40.45
223.323	46.59
223.541	-8.7
223.759	-10.75
223.977	52.74
224.195	15.87
224.413	-14.85
224.631	22.02
224.849	-8.7
225.067	126.46
225.285	67.07
225.503	9.73
225.721	-59.9
225.939	-18.94
226.157	22.02
226.375	67.07
226.592	7.68
226.81	7.68
227.028	-14.85
227.246	32.26
227.464	-31.23
227.682	24.06
227.9	13.82
228.117	22.02
228.335	1.54
228.553	22.02
228.771	13.82
228.989	1.54
229.206	34.3
229.424	3.58
229.642	-20.99
229.86	-8.7
230.077	-23.04
230.295	87.55
230.513	34.3
230.731	-6.66
230.948	-68.09
231.166	56.83
231.384	42.5
231.601	52.74
231.819	22.02
232.037	32.26
232.254	19.97
232.472	13.82
232.689	75.26
232.907	7.68
233.125	26.11
233.342	-43.52
233.56	-33.28
233.777	13.82
233.995	46.59
234.213	-39.42
234.43	1.54
234.648	-74.24
234.865	-14.85
235.083	11.78
235.3	-47.62
235.518	-25.09
235.735	-2.56
235.953	46.59
236.17	32.26
236.388	-4.61
236.605	22.02
236.822	-6.66
237.04	1.54
237.257	17.92
237.475	58.88
237.692	-23.04
237.909	40.45
238.127	1.54
238.344	-70.14
238.562	48.64
238.779	22.02
238.996	-31.23
239.214	77.31
239.431	83.45
239.648	5.63
239.865	42.5
240.083	62.98
240.3	17.92
240.517	-4.61
240.735	30.21
240.952	11.78
241.169	81.41
241.386	-10.75
241.603	19.97
241.821	1.54
242.038	40.45
242.255	40.45
242.472	-74.24
242.689	26.11
242.907	62.98
243.124	-25.09
243.341	9.73
243.558	-49.66
243.775	-47.62
243.992	-12.8
244.209	13.82
244.426	67.07
244.643	9.73
244.86	-23.04
245.078	36.35
245.295	-23.04
245.512	50.69
245.729	-8.7
245.946	77.31
246.163	-47.62
246.38	-33.28
246.597	-55.81
246.814	-8.7
247.031	11.78
247.248	34.3
247.464	-4.61
247.681	38.4
247.898	42.5
248.115	81.41
248.332	-43.52
248.549	1.54
248.766	81.41
248.983	-35.33
249.2	-35.33
249.417	5.63
249.633	-4.61
249.85	36.35
250.067	22.02
250.284	-35.33
250.501	-68.09
250.717	36.35
250.934	32.26
251.151	36.35
251.368	17.92
251.585	28.16
251.801	26.11
252.018	-18.94
252.235	1.54
252.451	-61.95
252.668	67.07
252.885	40.45
253.102	32.26
253.318	34.3
253.535	-35.33
253.752	22.02
253.968	-2.56
254.185	-14.85
254.401	-45.57
254.618	22.02
254.835	26.11
255.051	11.78
255.268	118.27
255.484	-16.9
255.701	-20.99
255.917	50.69
256.134	7.68
256.351	-25.09
256.567	9.73
256.784	7.68
257	60.93
257.217	24.06
257.433	71.17
257.65	34.3
257.866	79.36
258.082	13.82
258.299	-68.09
258.515	-2.56
258.732	-25.09
258.948	5.63
259.165	-57.86
259.381	-0.51
259.597	-92.67
259.814	-16.9
260.03	-6.66
260.246	9.73
260.463	-6.66
260.679	-20.99
260.895	30.21
261.112	28.16
261.328	-43.52
261.544	-25.09
261.761	9.73
261.977	34.3
262.193	-23.04
262.409	13.82
262.626	40.45
262.842	81.41
263.058	9.73
263.274	-6.66
263.49	-45.57
263.707	36.35
263.923	22.02
264.139	-16.9
264.355	-4.61
264.571	69.12
264.787	-61.95
265.004	-25.09
265.22	-33.28
265.436	26.11
265.652	7.68
265.868	-16.9
266.084	7.68
266.3	3.58
266.516	-25.09
266.732	26.11
266.948	30.21
267.164	22.02
267.38	5.63
267.596	-31.23
267.812	30.21
268.028	15.87
268.244	1.54
268.46	-0.51
268.676	32.26
268.892	-12.8
269.108	-23.04
269.324	-18.94
269.54	11.78
269.756	58.88
269.972	-68.09
270.188	-16.9
270.403	60.93
270.619	40.45
270.835	65.02
271.051	-33.28
271.267	24.06
271.483	-10.75
271.698	-23.04
271.914	38.4
272.13	-23.04
272.346	34.3
272.562	-49.66
272.777	30.21
272.993	-39.42
273.209	1.54
273.425	17.92
273.64	13.82
273.856	40.45
274.072	34.3
274.287	-57.86
274.503	60.93
274.719	-25.09
274.934	24.06
275.15	24.06
275.366	3.58
275.581	-10.75
275.797	50.69
276.012	42.5
276.228	-4.61
276.444	26.11
276.659	-4.61
276.875	-47.62
277.09	26.11
277.306	26.11
277.521	7.68
277.737	26.11
277.952	26.11
278.168	15.87
278.383	75.26
278.599	22.02
278.814	81.41
279.03	58.88
279.245	26.11
279.461	1.54
279.676	58.88
279.892	-29.18
280.107	-27.14
280.322	-29.18
280.538	9.73
280.753	36.35
280.969	24.06
281.184	22.02
281.399	15.87
281.615	50.69
281.83	13.82
282.045	38.4
282.26	42.5
282.476	-33.28
282.691	62.98
282.906	-27.14
283.122	-80.38
283.337	1.54
283.552	87.55
283.767	-12.8
283.983	24.06
284.198	50.69
284.413	11.78
284.628	-8.7
284.843	7.68
285.058	-10.75
285.274	71.17
285.489	-20.99
285.704	81.41
285.919	-51.71
286.134	-29.18
286.349	-6.66
286.564	42.5
286.779	71.17
286.995	36.35
287.21	1.54
287.425	46.59
287.64	-29.18
287.855	38.4
288.07	-49.66
288.285	38.4
288.5	42.5
288.715	-16.9
288.93	-27.14
289.145	-16.9
289.36	58.88
289.575	-23.04
289.79	122.37
290.004	52.74
290.219	-10.75
290.434	22.02
290.649	62.98
290.864	-12.8
291.079	13.82
291.294	-59.9
291.509	13.82
291.724	-4.61
291.938	50.69
292.153	52.74
292.368	-2.56
292.583	5.63
292.798	22.02
293.012	11.78
293.227	30.21
293.442	71.17
293.657	77.31
293.871	81.41
294.086	60.93
294.301	79.36
294.516	-27.14
294.73	26.11
294.945	1.54
295.16	71.17
295.374	67.07
295.589	52.74
295.804	65.02
296.018	-0.51
296.233	30.21
296.447	50.69
296.662	-6.66
296.877	26.11
297.091	-23.04
297.306	54.78
297.52	9.73
297.735	50.69
297.949	34.3
298.164	67.07
298.378	9.73
298.593	5.63
298.807	-45.57
299.022	79.36
299.236	50.69
299.451	69.12
299.665	-16.9
299.88	38.4
300.094	11.78
300.309	32.26
300.523	58.88
300.737	30.21
300.952	-6.66
301.166	3.58
301.381	32.26
301.595	13.82
301.809	42.5
302.024	48.64
302.238	-6.66
302.452	46.59
302.667	-8.7
302.881	81.41
303.095	22.02
303.309	32.26
303.524	-49.66
303.738	-6.66
303.952	81.41
304.166	65.02
304.381	-12.8
304.595	-27.14
304.809	-8.7
305.023	44.54
305.237	-16.9
305.452	-39.42
305.666	30.21
305.88	32.26
306.094	71.17
306.308	1.54
306.522	28.16
306.736	26.11
306.95	1.54
307.164	40.45
307.379	-14.85
307.593	62.98
307.807	22.02
308.021	50.69
308.235	67.07
308.449	-2.56
308.663	1.54
308.877	65.02
309.091	9.73
309.305	-10.75
309.519	-16.9
309.733	-55.81
309.947	-23.04
310.161	56.83
310.374	9.73
310.588	11.78
310.802	22.02
311.016	-23.04
311.23	91.65
311.444	73.21
311.658	-41.47
311.872	62.98
312.085	-25.09
312.299	17.92
312.513	32.26
312.727	-6.66
312.941	24.06
313.154	9.73
313.368	30.21
313.582	36.35
313.796	48.64
314.009	122.37
314.223	-66.05
314.437	17.92
314.651	7.68
314.864	-0.51
315.078	7.68
315.292	54.78
315.505	-64
315.719	-14.85
315.933	-18.94
316.146	26.11
316.36	56.83
316.573	11.78
316.787	-23.04
317.001	-4.61
317.214	15.87
317.428	-2.56
317.641	-10.75
317.855	13.82
318.068	30.21
318.282	46.59
318.495	17.92
318.709	101.89
318.922	7.68
319.136	17.92
319.349	9.73
319.563	22.02
319.776	7.68
319.99	11.78
320.203	9.73
320.417	3.58
320.63	48.64
320.843	5.63
321.057	-14.85
321.27	-8.7
321.483	-45.57
321.697	30.21
321.91	-68.09
322.124	58.88
322.337	9.73
322.55	-2.56
322.763	36.35
322.977	13.82
323.19	-16.9
323.403	42.5
323.617	67.07
323.83	-37.38
324.043	34.3
324.256	32.26
324.469	-37.38
324.683	97.79
324.896	-16.9
325.109	17.92
325.322	-0.51
325.535	26.11
325.748	5.63
325.962	28.16
326.175	-23.04
326.388	36.35
326.601	9.73
326.814	40.45
327.027	-4.61
327.24	-16.9
327.453	56.83
327.666	24.06
327.879	65.02
328.092	-6.66
328.305	73.21
328.518	3.58
328.731	-45.57
328.944	9.73
329.157	9.73
329.37	1.54
329.583	-33.28
329.796	17.92
330.009	-33.28
330.222	17.92
330.435	-2.56
330.648	-37.38
330.861	75.26
331.073	-23.04
331.286	56.83
331.499	24.06
331.712	50.69
331.925	-14.85
332.138	58.88
332.35	79.36
332.563	15.87
332.776	-16.9
332.989	-47.62
333.202	11.78
333.414	30.21
333.627	1.54
333.84	46.59
334.053	-12.8
334.265	58.88
334.478	13.82
334.691	-4.61
334.903	-23.04
335.116	-53.76
335.329	54.78
335.541	-12.8
335.754	-18.94
335.966	22.02
336.179	-39.42
336.392	52.74
336.604	19.97
336.817	79.36
337.029	40.45
337.242	40.45
337.454	62.98
337.667	26.11
337.88	-2.56
338.092	-20.99
338.305	97.79
338.517	1.54
338.729	44.54
338.942	-14.85
339.154	-23.04
339.367	-49.66
339.579	1.54
339.792	17.92
340.004	24.06
340.217	-47.62
340.429	50.69
340.641	38.4
340.854	-6.66
341.066	-18.94
341.278	87.55
341.491	34.3
341.703	-25.09
341.915	-18.94
342.128	9.73
342.34	13.82
342.552	5.63
342.764	9.73
342.977	-27.14
343.189	116.22
343.401	52.74
343.613	-2.56
343.826	38.4
344.038	42.5
344.25	52.74
344.462	5.63
344.674	67.07
344.886	-33.28
345.099	89.6
345.311	67.07
345.523	13.82
345.735	-16.9
345.947	-8.7
346.159	-4.61
346.371	46.59
346.583	34.3
346.795	97.79
347.007	-35.33
347.219	81.41
347.431	91.65
347.643	-8.7
347.855	48.64
348.067	91.65
348.279	-8.7
348.491	22.02
348.703	7.68
348.915	5.63
349.127	38.4
349.339	36.35
349.551	-72.19
349.763	42.5
349.975	-33.28
350.187	65.02
350.399	22.02
350.61	26.11
350.822	22.02
351.034	-23.04
351.246	-27.14
351.458	17.92
351.669	15.87
351.881	-2.56
352.093	77.31
352.305	124.41
352.517	108.03
352.728	42.5
352.94	42.5
353.152	22.02
353.363	32.26
353.575	75.26
353.787	38.4
353.999	42.5
354.21	-6.66
354.422	1.54
354.633	22.02
354.845	65.02
355.057	-2.56
355.268	9.73
355.48	34.3
355.692	73.21
355.903	42.5
356.115	22.02
356.326	26.11
356.538	11.78
356.749	28.16
356.961	54.78
357.172	46.59
357.384	19.97
357.595	89.6
357.807	5.63
358.018	58.88
358.23	-33.28
358.441	42.5
358.653	13.82
358.864	-18.94
359.075	58.88
359.287	40.45
359.498	50.69
359.709	79.36
359.921	52.74
360.132	19.97
360.344	85.5
360.555	9.73
360.766	56.83
360.977	-25.09
361.189	71.17
361.4	34.3
361.611	73.21
361.823	89.6
362.034	36.35
362.245	-31.23
362.456	-0.51
362.667	22.02
362.879	46.59
363.09	71.17
363.301	50.69
363.512	42.5
363.723	-61.95
363.935	13.82
364.146	-2.56
364.357	-14.85
364.568	13.82
364.779	-31.23
364.99	-25.09
365.201	5.63
365.412	40.45
365.623	1.54
365.834	54.78
366.045	19.97
366.256	13.82
366.467	13.82
366.678	26.11
366.889	-14.85
367.1	9.73
367.311	52.74
367.522	36.35
367.733	54.78
367.944	40.45
368.155	-29.18
368.366	-8.7
368.577	50.69
368.788	24.06
368.999	-16.9
369.209	-10.75
369.42	116.22
369.631	95.74
369.842	24.06
370.053	-14.85
370.264	83.45
370.474	-8.7
370.685	56.83
370.896	85.5
371.107	-2.56
371.317	42.5
371.528	22.02
371.739	56.83
371.95	114.17
372.16	-4.61
372.371	-2.56
372.582	34.3
372.792	1.54
373.003	17.92
373.214	22.02
373.424	24.06
373.635	30.21
373.846	48.64
374.056	-16.9
374.267	46.59
374.477	26.11
374.688	-0.51
374.898	-59.9
375.109	-6.66
375.319	75.26
375.53	56.83
375.74	15.87
375.951	52.74
376.161	69.12
376.372	-39.42
376.582	26.11
376.793	-14.85
377.003	13.82
377.214	48.64
377.424	52.74
377.635	11.78
377.845	54.78
378.055	99.84
378.266	75.26
378.476	30.21
378.686	62.98
378.897	58.88
379.107	17.92
379.317	85.5
379.528	-39.42
379.738	-10.75
379.948	7.68
380.158	97.79
380.369	-43.52
380.579	77.31
380.789	46.59
380.999	5.63
381.21	17.92
381.42	56.83
381.63	1.54
381.84	-16.9
382.05	56.83
382.261	-8.7
382.471	-10.75
382.681	7.68
382.891	26.11
383.101	1.54
383.311	-12.8
383.521	60.93
383.731	73.21
383.941	50.69
384.151	30.21
384.361	60.93
384.571	-35.33
384.781	50.69
384.991	151.04
385.201	91.65
385.411	5.63
385.621	91.65
385.831	-27.14
386.041	56.83
386.251	17.92
386.461	-6.66
386.671	-8.7
386.881	140.8
387.091	11.78
387.301	97.79
387.511	-41.47
387.72	46.59
387.93	73.21
388.14	17.92
388.35	-16.9
388.56	30.21
388.769	67.07
388.979	79.36
389.189	9.73
389.399	46.59
389.609	36.35
389.818	77.31
390.028	50.69
390.238	-14.85
390.447	62.98
390.657	5.63
390.867	83.45
391.076	-18.94
391.286	-2.56
391.496	73.21
391.705	87.55
391.915	40.45
392.125	9.73
392.334	26.11
392.544	60.93
392.753	28.16
392.963	-35.33
393.172	73.21
393.382	73.21
393.591	52.74
393.801	130.56
394.01	87.55
394.22	34.3
394.429	108.03
394.639	67.07
394.848	73.21
395.058	-0.51
395.267	50.69
395.477	48.64
395.686	13.82
395.895	38.4
396.105	108.03
396.314	48.64
396.524	44.54
396.733	42.5
396.942	110.08
397.152	30.21
397.361	40.45
397.57	48.64
397.78	17.92
397.989	54.78
398.198	112.13
398.407	124.41
398.617	42.5
398.826	54.78
399.035	28.16
399.244	83.45
399.453	132.61
399.663	83.45
399.872	54.78
400.081	108.03
400.29	15.87
400.499	108.03
400.708	97.79
400.917	46.59
401.127	112.13
401.336	-10.75
401.545	142.85
401.754	30.21
401.963	77.31
402.172	120.32
402.381	60.93
402.59	146.94
402.799	124.41
403.008	56.83
403.217	89.6
403.426	97.79
403.635	73.21
403.844	99.84
404.053	138.75
404.262	71.17
404.471	116.22
404.68	179.71
404.888	136.7
405.097	116.22
405.306	91.65
405.515	157.18
405.724	126.46
405.933	165.37
406.142	126.46
406.35	134.65
406.559	167.42
406.768	187.9
406.977	222.72
407.185	218.62
407.394	173.57
407.603	192
407.812	198.14
408.02	218.62
408.229	265.72
408.438	226.81
408.646	173.57
408.855	214.52
409.064	247.29
409.272	230.91
409.481	261.63
409.69	308.73
409.898	296.44
410.107	280.06
410.315	292.35
410.524	230.91
410.733	304.64
410.941	306.68
411.15	386.55
411.358	325.12
411.567	292.35
411.775	312.83
411.984	468.47
412.192	366.07
412.401	441.85
412.609	337.4
412.818	454.14
413.026	351.74
413.234	491
413.443	562.68
413.651	523.77
413.86	513.53
414.068	603.64
414.276	572.92
414.485	568.82
414.693	622.07
414.901	703.99
415.11	634.36
415.318	648.69
415.526	755.19
415.734	663.03
415.943	714.23
416.151	837.11
416.359	781.81
416.567	783.86
416.776	816.63
416.984	890.35
417.192	898.55
417.4	904.69
417.608	984.56
417.817	972.27
418.025	923.12
418.233	1136.11
418.441	1050.1
418.649	1093.1
418.857	1222.13
419.065	1172.97
419.273	1263.08
419.481	1355.24
419.689	1361.39
419.897	1469.93
420.105	1365.48
420.313	1533.42
420.521	1574.38
420.729	1611.24
420.937	1615.34
421.145	1617.38
421.353	1680.87
421.561	1816.04
421.769	1826.28
421.977	1965.54
422.185	2014.69
422.393	2049.5
422.601	2135.52
422.809	2213.34
423.017	2035.17
423.224	2311.64
423.432	2385.37
423.64	2397.66
423.848	2635.22
424.056	2569.69
424.263	2680.28
424.471	2786.77
424.679	2819.54
424.887	3050.96
425.094	2966.99
425.302	3042.77
425.51	3149.26
425.718	3298.77
425.925	3266
426.133	3438.03
426.341	3610.06
426.548	3747.27
426.756	3896.77
426.964	3909.06
427.171	3986.88
427.379	4081.09
427.586	4177.34
427.794	4244.93
428.001	4486.59
428.209	4777.4
428.417	4742.58
428.624	4914.61
428.832	4894.13
429.039	4949.43
429.247	4957.62
429.454	5563.82
429.662	5715.37
429.869	5406.13
430.076	5709.22
430.284	5744.04
430.491	5791.14
430.699	6321.57
430.906	6098.34
431.114	6276.51
431.321	6561.18
431.528	6694.3
431.736	6993.3
431.943	7390.61
432.15	6999.45
432.358	7409.04
432.565	7646.6
432.772	7593.36
432.979	8078.72
433.187	8228.23
433.394	8160.64
433.601	8977.78
433.808	8760.7
434.016	8568.19
434.223	9002.36
434.43	9756.01
434.637	9575.79
434.844	10040.68
435.052	10225
435.259	10048.87
435.466	10407.27
435.673	10253.67
435.88	10831.19
436.087	11255.12
436.294	11380.05
436.501	11076.95
436.708	11433.3
436.915	11631.95
437.122	12326.21
437.329	12397.89
437.537	12754.24
437.743	12860.73
437.95	12756.29
438.157	13425.97
438.364	13827.37
438.571	13788.46
438.778	13980.97
438.985	15164.7
439.192	14664.99
439.399	14929.18
439.606	14998.81
439.813	15447.32
440.02	16573.7
440.227	16235.78
440.433	15934.73
440.64	16624.9
440.847	16530.69
441.054	16854.27
441.261	17935.6
441.467	17966.32
441.674	18304.23
441.881	18830.56
442.088	18785.51
442.294	18558.18
442.501	19215.58
442.708	19166.43
442.914	20255.95
443.121	21030.08
443.328	20446.41
443.534	22115.5
443.741	21279.93
443.948	21058.75
444.154	22623.4
444.361	22373.55
444.568	22537.38
444.774	22613.16
444.981	23127.2
445.187	23809.17
445.394	24802.44
445.6	24245.39
445.807	26719.34
446.013	25386.11
446.22	26045.55
446.426	26866.79
446.633	27372.64
446.839	28089.43
447.046	26559.59
447.252	28492.88
447.459	28302.42
447.665	28390.48
447.871	29436.99
448.078	30921.77
448.284	29310.02
448.491	30147.64
448.697	31507.49
448.903	31839.26
449.11	32017.43
449.316	31233.06
449.522	31925.27
449.728	32625.68
449.935	33258.5
450.141	32834.57
450.347	33766.4
450.553	32668.69
450.76	33213.45
450.966	34083.83
451.172	33860.6
451.378	34753.52
451.584	33866.75
451.791	34585.58
451.997	34657.26
452.203	35285.99
452.409	35314.66
452.615	34888.68
452.821	33858.56
453.027	33483.78
453.233	35011.56
453.44	33600.51
453.646	34083.83
453.852	34487.28
454.058	35318.76
454.264	33745.92
454.47	34307.06
454.676	33754.11
454.882	34446.32
455.088	31849.5
455.294	32359.44
455.5	32787.47
455.705	33006.6
455.911	31587.36
456.117	31071.27
456.323	30837.8
456.529	29170.75
456.735	30508.08
456.941	29580.35
457.147	29084.74
457.352	28222.55
457.558	28236.88
457.764	28058.71
457.97	27425.89
458.176	27165.79
458.381	26612.84
458.587	25320.57
458.793	25433.21
458.999	24239.25
459.204	25947.25
459.41	25291.9
459.616	23796.88
459.821	23602.33
460.027	23129.25
460.233	22979.75
460.438	21998.77
460.644	21904.56
460.85	21120.19
461.055	20858.05
461.261	20518.09
461.466	19096.8
461.672	18572.52
461.878	20026.57
462.083	18607.33
462.289	18509.03
462.494	17902.83
462.7	17163.51
462.905	16643.33
463.111	17497.33
463.316	17581.3
463.522	16905.47
463.727	17044.73
463.932	17087.74
464.138	16891.13
464.343	16891.13
464.549	16293.13
464.754	16844.03
464.959	16803.07
465.165	16878.85
465.37	15947.02
465.575	15557.91
465.781	16039.18
465.986	16211.21
466.191	15586.58
466.397	15367.45
466.602	14712.1
466.807	15105.31
467.012	15306.01
467.218	14996.76
467.423	14980.38
467.628	15170.84
467.833	15662.35
468.038	15187.22
