Data from USB4F104151__82__13-12-35-012.txt Node

Date: Fri Mar 14 13:12:35 EDT 2025
User: louis
Spectrometer: USB4F10415
Trigger mode: 4
Integration Time (sec): 2.000000E-2
Scans to average: 1
Electric dark correction enabled: true
Nonlinearity correction enabled: false
Boxcar width: 0
XAxis mode: Wavelengths
Number of Pixels in Spectrum: 3648
>>>>>Begin Spectral Data<<<<<
178.204	-74.58
178.424	-74.58
178.644	-74.58
178.864	-172.88
179.084	-88.92
179.304	-9.05
179.524	-7
179.744	-17.24
179.964	3.24
180.184	23.72
180.404	1.19
180.624	-9.05
180.844	40.11
181.064	-2.9
181.283	-4.95
181.503	-9.05
181.723	-9.05
181.943	-64.34
182.163	31.91
182.383	-50
182.602	-0.85
182.822	21.67
183.042	-31.57
183.262	-0.85
183.482	-23.38
183.701	-41.81
183.921	40.11
184.141	-90.96
184.361	23.72
184.58	-80.72
184.8	5.29
185.02	-17.24
185.239	66.73
185.459	-31.57
185.679	25.77
185.898	-50
186.118	-9.05
186.338	31.91
186.557	23.72
186.777	-9.05
186.997	25.77
187.216	-58.2
187.436	58.54
187.655	-43.86
187.875	36.01
188.095	-11.09
188.314	15.53
188.534	31.91
188.753	27.82
188.973	13.48
189.192	50.35
189.412	1.19
189.631	-27.48
189.851	-107.35
190.07	60.59
190.29	-93.01
190.509	-29.52
190.729	-21.33
190.948	3.24
191.168	101.55
191.387	66.73
191.607	56.49
191.826	13.48
192.045	66.73
192.265	-74.58
192.484	25.77
192.704	7.34
192.923	-41.81
193.142	25.77
193.362	13.48
193.581	40.11
193.8	-47.96
194.02	17.58
194.239	60.59
194.458	7.34
194.678	-25.43
194.897	15.53
195.116	3.24
195.335	48.3
195.555	36.01
195.774	-64.34
195.993	11.43
196.212	-7
196.432	-31.57
196.651	36.01
196.87	-7
197.089	-54.1
197.308	81.07
197.528	44.2
197.747	-60.24
197.966	21.67
198.185	44.2
198.404	58.54
198.623	36.01
198.842	60.59
199.062	11.43
199.281	19.63
199.5	25.77
199.719	81.07
199.938	17.58
200.157	42.15
200.376	-7
200.595	33.96
200.814	23.72
201.033	19.63
201.252	-13.14
201.471	17.58
201.69	74.92
201.909	66.73
202.128	40.11
202.347	-17.24
202.566	52.39
202.785	40.11
203.004	11.43
203.223	91.31
203.442	19.63
203.661	-19.29
203.879	-2.9
204.098	17.58
204.317	-19.29
204.536	44.2
204.755	-31.57
204.974	-17.24
205.193	33.96
205.411	124.07
205.63	15.53
205.849	-74.58
206.068	29.87
206.287	13.48
206.505	-7
206.724	-33.62
206.943	44.2
207.162	-41.81
207.381	33.96
207.599	40.11
207.818	-17.24
208.037	58.54
208.255	31.91
208.474	-2.9
208.693	44.2
208.911	-2.9
209.13	5.29
209.349	-50
209.567	68.78
209.786	-43.86
210.005	1.19
210.223	-4.95
210.442	-45.91
210.661	-68.44
210.879	25.77
211.098	-25.43
211.316	-45.91
211.535	79.02
211.753	-9.05
211.972	3.24
212.191	-115.54
212.409	-27.48
212.628	-27.48
212.846	23.72
213.065	5.29
213.283	23.72
213.502	-9.05
213.72	36.01
213.938	-54.1
214.157	66.73
214.375	79.02
214.594	-27.48
214.812	66.73
215.031	-13.14
215.249	-13.14
215.467	31.91
215.686	31.91
215.904	25.77
216.122	-27.48
216.341	15.53
216.559	68.78
216.778	-66.39
216.996	66.73
217.214	17.58
217.432	3.24
217.651	29.87
217.869	56.49
218.087	-17.24
218.306	-9.05
218.524	89.26
218.742	58.54
218.96	3.24
219.179	5.29
219.397	50.35
219.615	113.83
219.833	-21.33
220.051	-0.85
220.27	25.77
220.488	87.21
220.706	113.83
220.924	-19.29
221.142	38.06
221.36	60.59
221.578	31.91
221.796	-13.14
222.015	-0.85
222.233	-35.67
222.451	21.67
222.669	-21.33
222.887	-50
223.105	-76.63
223.323	62.63
223.541	27.82
223.759	60.59
223.977	-21.33
224.195	48.3
224.413	-41.81
224.631	48.3
224.849	17.58
225.067	79.02
225.285	3.24
225.503	-23.38
225.721	-9.05
225.939	-2.9
226.157	-2.9
226.375	44.2
226.592	89.26
226.81	-0.85
227.028	36.01
227.246	72.87
227.464	1.19
227.682	23.72
227.9	66.73
228.117	25.77
228.335	3.24
228.553	-25.43
228.771	-47.96
228.989	3.24
229.206	56.49
229.424	-4.95
229.642	1.19
229.86	50.35
230.077	-11.09
230.295	48.3
230.513	93.35
230.731	58.54
230.948	-4.95
231.166	97.45
231.384	81.07
231.601	-9.05
231.819	44.2
232.037	38.06
232.254	38.06
232.472	74.92
232.689	23.72
232.907	48.3
233.125	13.48
233.342	-70.48
233.56	48.3
233.777	-41.81
233.995	-13.14
234.213	68.78
234.43	62.63
234.648	-74.58
234.865	-31.57
235.083	58.54
235.3	11.43
235.518	40.11
235.735	23.72
235.953	23.72
236.17	-15.19
236.388	-4.95
236.605	-41.81
236.822	7.34
237.04	-23.38
237.257	64.68
237.475	-19.29
237.692	29.87
237.909	48.3
238.127	11.43
238.344	13.48
238.562	54.44
238.779	19.63
238.996	-9.05
239.214	-66.39
239.431	-19.29
239.648	-0.85
239.865	23.72
240.083	48.3
240.3	33.96
240.517	58.54
240.735	-7
240.952	29.87
241.169	56.49
241.386	-13.14
241.603	3.24
241.821	-111.44
242.038	11.43
242.255	-31.57
242.472	-60.24
242.689	64.68
242.907	105.64
243.124	85.16
243.341	-23.38
243.558	64.68
243.775	-31.57
243.992	-27.48
244.209	13.48
244.426	70.83
244.643	-15.19
244.86	46.25
245.078	64.68
245.295	44.2
245.512	-37.72
245.729	-41.81
245.946	-25.43
246.163	109.74
246.38	-41.81
246.597	-41.81
246.814	27.82
247.031	-2.9
247.248	50.35
247.464	7.34
247.681	33.96
247.898	15.53
248.115	-4.95
248.332	-13.14
248.549	27.82
248.766	99.5
248.983	-78.68
249.2	19.63
249.417	81.07
249.633	72.87
249.85	56.49
250.067	-21.33
250.284	40.11
250.501	-37.72
250.717	-43.86
250.934	-41.81
251.151	-43.86
251.368	1.19
251.585	23.72
251.801	11.43
252.018	-13.14
252.235	29.87
252.451	-17.24
252.668	-45.91
252.885	-13.14
253.102	31.91
253.318	52.39
253.535	-4.95
253.752	-11.09
253.968	11.43
254.185	-39.76
254.401	31.91
254.618	15.53
254.835	-9.05
255.051	58.54
255.268	-2.9
255.484	21.67
255.701	3.24
255.917	17.58
256.134	-78.68
256.351	-19.29
256.567	1.19
256.784	-0.85
257	-62.29
257.217	48.3
257.433	46.25
257.65	-17.24
257.866	17.58
258.082	1.19
258.299	-35.67
258.515	-39.76
258.732	3.24
258.948	27.82
259.165	-17.24
259.381	54.44
259.597	42.15
259.814	76.97
260.03	-31.57
260.246	-13.14
260.463	-29.52
260.679	-39.76
260.895	-45.91
261.112	23.72
261.328	-58.2
261.544	-29.52
261.761	72.87
261.977	64.68
262.193	-9.05
262.409	81.07
262.626	-39.76
262.842	81.07
263.058	5.29
263.274	19.63
263.49	-4.95
263.707	-50
263.923	-2.9
264.139	-19.29
264.355	-0.85
264.571	33.96
264.787	15.53
265.004	-50
265.22	15.53
265.436	19.63
265.652	-50
265.868	-9.05
266.084	-9.05
266.3	23.72
266.516	-35.67
266.732	38.06
266.948	27.82
267.164	40.11
267.38	-54.1
267.596	-11.09
267.812	-17.24
268.028	1.19
268.244	-31.57
268.46	-29.52
268.676	5.29
268.892	-11.09
269.108	-23.38
269.324	25.77
269.54	23.72
269.756	-9.05
269.972	-23.38
270.188	50.35
270.403	19.63
270.619	9.39
270.835	-35.67
271.051	9.39
271.267	-35.67
271.483	-70.48
271.698	11.43
271.914	5.29
272.13	-62.29
272.346	36.01
272.562	15.53
272.777	23.72
272.993	31.91
273.209	19.63
273.425	17.58
273.64	-45.91
273.856	23.72
274.072	25.77
274.287	11.43
274.503	-25.43
274.719	17.58
274.934	-52.05
275.15	-9.05
275.366	19.63
275.581	-33.62
275.797	52.39
276.012	-9.05
276.228	-52.05
276.444	-17.24
276.659	70.83
276.875	9.39
277.09	-33.62
277.306	-17.24
277.521	29.87
277.737	-58.2
277.952	-27.48
278.168	1.19
278.383	21.67
278.599	-15.19
278.814	-80.72
279.03	-0.85
279.245	91.31
279.461	46.25
279.676	17.58
279.892	17.58
280.107	-23.38
280.322	-80.72
280.538	3.24
280.753	-7
280.969	5.29
281.184	1.19
281.399	7.34
281.615	-0.85
281.83	-2.9
282.045	50.35
282.26	-0.85
282.476	33.96
282.691	17.58
282.906	42.15
283.122	3.24
283.337	38.06
283.552	3.24
283.767	-11.09
283.983	54.44
284.198	15.53
284.413	-17.24
284.628	11.43
284.843	42.15
285.058	23.72
285.274	-17.24
285.489	-13.14
285.704	15.53
285.919	-27.48
286.134	27.82
286.349	-33.62
286.564	-15.19
286.779	-56.15
286.995	5.29
287.21	-7
287.425	-41.81
287.64	13.48
287.855	-17.24
288.07	-0.85
288.285	11.43
288.5	23.72
288.715	48.3
288.93	52.39
289.145	25.77
289.36	-35.67
289.575	11.43
289.79	-19.29
290.004	42.15
290.219	40.11
290.434	19.63
290.649	13.48
290.864	-82.77
291.079	-41.81
291.294	13.48
291.509	23.72
291.724	-33.62
291.938	-17.24
292.153	9.39
292.368	-17.24
292.583	-27.48
292.798	-15.19
293.012	21.67
293.227	-21.33
293.442	-4.95
293.657	17.58
293.871	42.15
294.086	81.07
294.301	48.3
294.516	-11.09
294.73	-17.24
294.945	29.87
295.16	50.35
295.374	-2.9
295.589	-13.14
295.804	-15.19
296.018	36.01
296.233	48.3
296.447	-7
296.662	-47.96
296.877	23.72
297.091	93.35
297.306	-29.52
297.52	-4.95
297.735	15.53
297.949	-11.09
298.164	-7
298.378	-60.24
298.593	21.67
298.807	-39.76
299.022	-13.14
299.236	64.68
299.451	60.59
299.665	3.24
299.88	11.43
300.094	5.29
300.309	5.29
300.523	-0.85
300.737	72.87
300.952	-2.9
301.166	-15.19
301.381	-17.24
301.595	-7
301.809	36.01
302.024	31.91
302.238	-11.09
302.452	1.19
302.667	-43.86
302.881	-11.09
303.095	48.3
303.309	-13.14
303.524	40.11
303.738	-17.24
303.952	-13.14
304.166	7.34
304.381	9.39
304.595	7.34
304.809	-37.72
305.023	-62.29
305.237	-7
305.452	1.19
305.666	27.82
305.88	1.19
306.094	-47.96
306.308	-0.85
306.522	11.43
306.736	91.31
306.95	-4.95
307.164	31.91
307.379	-56.15
307.593	42.15
307.807	-74.58
308.021	-17.24
308.235	-86.87
308.449	15.53
308.663	-7
308.877	25.77
309.091	27.82
309.305	-23.38
309.519	-17.24
309.733	95.4
309.947	-76.63
310.161	9.39
310.374	-0.85
310.588	-35.67
310.802	11.43
311.016	-13.14
311.23	56.49
311.444	-4.95
311.658	-31.57
311.872	33.96
312.085	-11.09
312.299	31.91
312.513	111.78
312.727	50.35
312.941	-43.86
313.154	-0.85
313.368	-2.9
313.582	-41.81
313.796	-19.29
314.009	-2.9
314.223	-4.95
314.437	-19.29
314.651	5.29
314.864	9.39
315.078	-41.81
315.292	15.53
315.505	-27.48
315.719	40.11
315.933	-33.62
316.146	-39.76
316.36	-37.72
316.573	33.96
316.787	-17.24
317.001	-7
317.214	-15.19
317.428	44.2
317.641	9.39
317.855	-0.85
318.068	-56.15
318.282	42.15
318.495	52.39
318.709	11.43
318.922	27.82
319.136	11.43
319.349	29.87
319.563	-23.38
319.776	-13.14
319.99	-33.62
320.203	50.35
320.417	21.67
320.63	-17.24
320.843	56.49
321.057	15.53
321.27	33.96
321.483	13.48
321.697	25.77
321.91	23.72
322.124	11.43
322.337	42.15
322.55	31.91
322.763	27.82
322.977	-54.1
323.19	-9.05
323.403	-2.9
323.617	36.01
323.83	36.01
324.043	-54.1
324.256	5.29
324.469	-4.95
324.683	11.43
324.896	-17.24
325.109	25.77
325.322	-37.72
325.535	50.35
325.748	31.91
325.962	-0.85
326.175	36.01
326.388	3.24
326.601	-37.72
326.814	29.87
327.027	1.19
327.24	38.06
327.453	33.96
327.666	19.63
327.879	46.25
328.092	50.35
328.305	-15.19
328.518	64.68
328.731	-39.76
328.944	40.11
329.157	56.49
329.37	-25.43
329.583	40.11
329.796	19.63
330.009	40.11
330.222	54.44
330.435	58.54
330.648	23.72
330.861	27.82
331.073	-43.86
331.286	60.59
331.499	42.15
331.712	48.3
331.925	5.29
332.138	29.87
332.35	-15.19
332.563	-90.96
332.776	48.3
332.989	42.15
333.202	-0.85
333.414	-35.67
333.627	101.55
333.84	-54.1
334.053	-17.24
334.265	-23.38
334.478	-7
334.691	-80.72
334.903	17.58
335.116	7.34
335.329	-7
335.541	33.96
335.754	81.07
335.966	44.2
336.179	-27.48
336.392	-33.62
336.604	17.58
336.817	5.29
337.029	66.73
337.242	1.19
337.454	-37.72
337.667	-66.39
337.88	48.3
338.092	66.73
338.305	38.06
338.517	-31.57
338.729	-4.95
338.942	40.11
339.154	-21.33
339.367	-7
339.579	1.19
339.792	48.3
340.004	-0.85
340.217	5.29
340.429	93.35
340.641	-25.43
340.854	-27.48
341.066	3.24
341.278	58.54
341.491	81.07
341.703	-33.62
341.915	-15.19
342.128	-35.67
342.34	-37.72
342.552	-4.95
342.764	50.35
342.977	-23.38
343.189	-19.29
343.401	68.78
343.613	-4.95
343.826	-9.05
344.038	-7
344.25	-9.05
344.462	-13.14
344.674	64.68
344.886	-50
345.099	15.53
345.311	50.35
345.523	1.19
345.735	-62.29
345.947	50.35
346.159	74.92
346.371	56.49
346.583	-41.81
346.795	7.34
347.007	-27.48
347.219	-27.48
347.431	-21.33
347.643	15.53
347.855	-37.72
348.067	42.15
348.279	-56.15
348.491	-31.57
348.703	23.72
348.915	42.15
349.127	-9.05
349.339	-4.95
349.551	-41.81
349.763	31.91
349.975	33.96
350.187	58.54
350.399	17.58
350.61	-33.62
350.822	46.25
351.034	72.87
351.246	56.49
351.458	27.82
351.669	-25.43
351.881	25.77
352.093	-95.06
352.305	17.58
352.517	-21.33
352.728	40.11
352.94	11.43
353.152	13.48
353.363	-62.29
353.575	-17.24
353.787	1.19
353.999	23.72
354.21	62.63
354.422	-21.33
354.633	44.2
354.845	38.06
355.057	42.15
355.268	-0.85
355.48	36.01
355.692	-37.72
355.903	-25.43
356.115	11.43
356.326	-58.2
356.538	11.43
356.749	70.83
356.961	-7
357.172	-19.29
357.384	31.91
357.595	48.3
357.807	-31.57
358.018	13.48
358.23	23.72
358.441	31.91
358.653	15.53
358.864	40.11
359.075	-25.43
359.287	15.53
359.498	72.87
359.709	7.34
359.921	-4.95
360.132	1.19
360.344	-39.76
360.555	-15.19
360.766	-37.72
360.977	-45.91
361.189	48.3
361.4	-80.72
361.611	17.58
361.823	-35.67
362.034	-39.76
362.245	-56.15
362.456	-9.05
362.667	72.87
362.879	-56.15
363.09	-27.48
363.301	29.87
363.512	-0.85
363.723	-37.72
363.935	-21.33
364.146	29.87
364.357	-2.9
364.568	11.43
364.779	-2.9
364.99	11.43
365.201	-31.57
365.412	19.63
365.623	-27.48
365.834	-23.38
366.045	23.72
366.256	15.53
366.467	42.15
366.678	40.11
366.889	-21.33
367.1	-4.95
367.311	72.87
367.522	-95.06
367.733	-29.52
367.944	-23.38
368.155	1.19
368.366	74.92
368.577	-17.24
368.788	97.45
368.999	-23.38
369.209	23.72
369.42	-7
369.631	36.01
369.842	44.2
370.053	-33.62
370.264	97.45
370.474	-25.43
370.685	-47.96
370.896	9.39
371.107	76.97
371.317	25.77
371.528	91.31
371.739	-47.96
371.95	-25.43
372.16	107.69
372.371	29.87
372.582	-4.95
372.792	-21.33
373.003	31.91
373.214	46.25
373.424	21.67
373.635	-9.05
373.846	48.3
374.056	66.73
374.267	-9.05
374.477	33.96
374.688	1.19
374.898	44.2
375.109	-4.95
375.319	-0.85
375.53	81.07
375.74	1.19
375.951	40.11
376.161	40.11
376.372	-13.14
376.582	33.96
376.793	-62.29
377.003	9.39
377.214	17.58
377.424	-41.81
377.635	-74.58
377.845	-15.19
378.055	15.53
378.266	-58.2
378.476	-70.48
378.686	-15.19
378.897	23.72
379.107	-13.14
379.317	9.39
379.528	-21.33
379.738	83.11
379.948	-35.67
380.158	-45.91
380.369	-56.15
380.579	-31.57
380.789	70.83
380.999	-2.9
381.21	9.39
381.42	9.39
381.63	-54.1
381.84	-47.96
382.05	-25.43
382.261	-31.57
382.471	-39.76
382.681	7.34
382.891	46.25
383.101	-25.43
383.311	-70.48
383.521	15.53
383.731	56.49
383.941	13.48
384.151	27.82
384.361	29.87
384.571	-45.91
384.781	19.63
384.991	9.39
385.201	-0.85
385.411	11.43
385.621	-11.09
385.831	36.01
386.041	-64.34
386.251	48.3
386.461	25.77
386.671	-58.2
386.881	33.96
387.091	-33.62
387.301	-9.05
387.511	-21.33
387.72	3.24
387.93	-54.1
388.14	-13.14
388.35	50.35
388.56	50.35
388.769	27.82
388.979	-0.85
389.189	31.91
389.399	-41.81
389.609	-35.67
389.818	17.58
390.028	-21.33
390.238	-0.85
390.447	-95.06
390.657	-15.19
390.867	-29.52
391.076	-13.14
391.286	25.77
391.496	99.5
391.705	64.68
391.915	-0.85
392.125	64.68
392.334	48.3
392.544	15.53
392.753	5.29
392.963	-39.76
393.172	13.48
393.382	-21.33
393.591	66.73
393.801	93.35
394.01	23.72
394.22	44.2
394.429	-74.58
394.639	-0.85
394.848	17.58
395.058	31.91
395.267	46.25
395.477	21.67
395.686	52.39
395.895	7.34
396.105	109.74
396.314	-68.44
396.524	-21.33
396.733	-19.29
396.942	23.72
397.152	17.58
397.361	17.58
397.57	56.49
397.78	66.73
397.989	-17.24
398.198	25.77
398.407	-82.77
398.617	33.96
398.826	19.63
399.035	-39.76
399.244	-13.14
399.453	111.78
399.663	-4.95
399.872	-31.57
400.081	27.82
400.29	-4.95
400.499	-78.68
400.708	9.39
400.917	-17.24
401.127	-27.48
401.336	-27.48
401.545	81.07
401.754	3.24
401.963	11.43
402.172	-13.14
402.381	11.43
402.59	72.87
402.799	-23.38
403.008	-19.29
403.217	-15.19
403.426	9.39
403.635	-7
403.844	44.2
404.053	48.3
404.262	5.29
404.471	-0.85
404.68	-2.9
404.888	66.73
405.097	3.24
405.306	-15.19
405.515	-4.95
405.724	36.01
405.933	36.01
406.142	60.59
406.35	74.92
406.559	23.72
406.768	5.29
406.977	-2.9
407.185	-0.85
407.394	7.34
407.603	-52.05
407.812	3.24
408.02	11.43
408.229	-13.14
408.438	7.34
408.646	-33.62
408.855	-23.38
409.064	-37.72
409.272	-64.34
409.481	72.87
409.69	-33.62
409.898	-13.14
410.107	-15.19
410.315	-39.76
410.524	-9.05
410.733	19.63
410.941	33.96
411.15	-35.67
411.358	-11.09
411.567	72.87
411.775	-21.33
411.984	64.68
412.192	74.92
412.401	66.73
412.609	-9.05
412.818	93.35
413.026	-43.86
413.234	19.63
413.443	38.06
413.651	-41.81
413.86	-17.24
414.068	-23.38
414.276	17.58
414.485	15.53
414.693	42.15
414.901	79.02
415.11	3.24
415.318	7.34
415.526	5.29
415.734	25.77
415.943	25.77
416.151	33.96
416.359	-25.43
416.567	38.06
416.776	13.48
416.984	25.77
417.192	85.16
417.4	9.39
417.608	-7
417.817	-29.52
418.025	48.3
418.233	76.97
418.441	-58.2
418.649	-17.24
418.857	-17.24
419.065	15.53
419.273	-9.05
419.481	11.43
419.689	70.83
419.897	40.11
420.105	15.53
420.313	27.82
420.521	83.11
420.729	-4.95
420.937	-4.95
421.145	50.35
421.353	-21.33
421.561	38.06
421.769	68.78
421.977	-66.39
422.185	33.96
422.393	29.87
422.601	44.2
422.809	-4.95
423.017	15.53
423.224	3.24
423.432	-43.86
423.64	17.58
423.848	115.88
424.056	11.43
424.263	21.67
424.471	13.48
424.679	-60.24
424.887	5.29
425.094	15.53
425.302	23.72
425.51	40.11
425.718	42.15
425.925	25.77
426.133	48.3
426.341	5.29
426.548	85.16
426.756	-0.85
426.964	29.87
427.171	-13.14
427.379	48.3
427.586	-7
427.794	25.77
428.001	44.2
428.209	-58.2
428.417	9.39
428.624	83.11
428.832	7.34
429.039	58.54
429.247	7.34
429.454	44.2
429.662	79.02
429.869	29.87
430.076	38.06
430.284	5.29
430.491	23.72
430.699	42.15
430.906	5.29
431.114	89.26
431.321	56.49
431.528	33.96
431.736	93.35
431.943	66.73
432.15	21.67
432.358	83.11
432.565	99.5
432.772	11.43
432.979	-4.95
433.187	7.34
433.394	56.49
433.601	58.54
433.808	29.87
434.016	117.93
434.223	117.93
434.43	85.16
434.637	33.96
434.844	58.54
435.052	42.15
435.259	99.5
435.466	138.41
435.673	111.78
435.88	17.58
436.087	81.07
436.294	97.45
436.501	66.73
436.708	87.21
436.915	99.5
437.122	113.83
437.329	60.59
437.537	21.67
437.743	64.68
437.95	64.68
438.157	74.92
438.364	103.59
438.571	113.83
438.778	162.98
438.985	113.83
439.192	87.21
439.399	27.82
439.606	33.96
439.813	99.5
440.02	64.68
440.227	31.91
440.433	89.26
440.64	105.64
440.847	117.93
441.054	52.39
441.261	171.18
441.467	74.92
441.674	44.2
441.881	-17.24
442.088	87.21
442.294	79.02
442.501	89.26
442.708	115.88
442.914	171.18
443.121	68.78
443.328	89.26
443.534	91.31
443.741	134.31
443.948	64.68
444.154	83.11
444.361	81.07
444.568	111.78
444.774	140.46
444.981	64.68
445.187	72.87
445.394	101.55
445.6	72.87
445.807	72.87
446.013	140.46
446.22	74.92
446.426	146.6
446.633	81.07
446.839	169.13
447.046	144.55
447.252	113.83
447.459	150.7
447.665	132.26
447.871	113.83
448.078	142.5
448.284	136.36
448.491	189.61
448.697	185.51
448.903	83.11
449.11	132.26
449.316	132.26
449.522	117.93
449.728	156.84
449.935	179.37
450.141	179.37
450.347	230.57
450.553	126.12
450.76	205.99
450.966	158.89
451.172	130.22
451.378	195.75
451.584	177.32
451.791	210.09
451.997	222.38
452.203	89.26
452.409	232.62
452.615	60.59
452.821	156.84
453.027	181.42
453.233	236.71
453.44	148.65
453.646	130.22
453.852	142.5
454.058	189.61
454.264	212.14
454.47	126.12
454.676	138.41
454.882	165.03
455.088	150.7
455.294	124.07
455.5	191.66
455.705	101.55
455.911	169.13
456.117	103.59
456.323	173.22
456.529	158.89
456.735	126.12
456.941	175.27
457.147	140.46
457.352	99.5
457.558	136.36
457.764	179.37
457.97	83.11
458.176	142.5
458.381	109.74
458.587	148.65
458.793	144.55
458.999	130.22
459.204	83.11
459.41	58.54
459.616	115.88
459.821	181.42
460.027	140.46
460.233	97.45
460.438	167.08
460.644	195.75
460.85	126.12
461.055	113.83
461.261	126.12
461.466	85.16
461.672	-7
461.878	38.06
462.083	40.11
462.289	25.77
462.494	126.12
462.7	140.46
462.905	130.22
463.111	138.41
463.316	124.07
463.522	140.46
463.727	81.07
463.932	83.11
464.138	38.06
464.343	134.31
464.549	50.35
464.754	79.02
464.959	89.26
465.165	179.37
465.37	87.21
465.575	74.92
465.781	42.15
465.986	99.5
466.191	95.4
466.397	107.69
466.602	95.4
466.807	89.26
467.012	134.31
467.218	64.68
467.423	99.5
467.628	152.74
467.833	91.31
468.038	56.49
468.244	9.39
468.449	99.5
468.654	103.59
468.859	113.83
469.064	33.96
469.269	91.31
469.474	111.78
469.679	140.46
469.885	46.25
470.09	40.11
470.295	70.83
470.5	-43.86
470.705	40.11
470.91	66.73
471.115	93.35
471.32	33.96
471.525	144.55
471.73	113.83
471.935	74.92
472.139	48.3
472.344	85.16
472.549	79.02
472.754	66.73
472.959	68.78
473.164	89.26
473.369	89.26
473.574	31.91
473.778	97.45
473.983	169.13
474.188	126.12
474.393	85.16
474.598	68.78
474.802	64.68
475.007	42.15
475.212	101.55
475.417	-21.33
