Data from USB4F104151__35__13-11-00-003.txt Node

Date: Fri Mar 14 13:11:00 EDT 2025
User: louis
Spectrometer: USB4F10415
Trigger mode: 4
Integration Time (sec): 2.000000E-2
Scans to average: 1
Electric dark correction enabled: true
Nonlinearity correction enabled: false
Boxcar width: 0
XAxis mode: Wavelengths
Number of Pixels in Spectrum: 3648
>>>>>Begin Spectral Data<<<<<
178.204	-78.16
178.424	-78.16
178.644	-78.16
178.864	-67.92
179.084	-143.7
179.304	-6.49
179.524	42.67
179.744	9.9
179.964	-63.83
180.184	-16.73
180.404	26.28
180.624	16.04
180.844	-14.68
181.064	77.48
181.283	18.09
181.503	-98.64
181.723	9.9
181.943	-2.39
182.163	32.43
182.383	7.85
182.602	54.95
182.822	22.19
183.042	85.67
183.262	79.53
183.482	11.95
183.701	13.99
183.921	-20.82
184.141	-35.16
184.361	-2.39
184.58	54.95
184.8	16.04
185.02	69.29
185.239	-0.34
185.459	71.34
185.679	63.15
185.898	-24.92
186.118	79.53
186.338	30.38
186.557	42.67
186.777	1.71
186.997	-41.3
187.216	-53.59
187.436	79.53
187.655	13.99
187.875	61.1
188.095	18.09
188.314	61.1
188.534	38.57
188.753	-18.77
188.973	42.67
189.192	59.05
189.412	50.86
189.631	5.8
189.851	-59.73
190.07	63.15
190.29	16.04
190.509	22.19
190.729	26.28
190.948	38.57
191.168	165.54
191.387	77.48
191.607	20.14
191.826	24.23
192.045	20.14
192.265	-47.44
192.484	22.19
192.704	13.99
192.923	40.62
193.142	67.24
193.362	-0.34
193.581	130.73
193.8	83.63
194.02	28.33
194.239	-47.44
194.458	-0.34
194.678	-22.87
194.897	22.19
195.116	-35.16
195.335	1.71
195.555	54.95
195.774	-18.77
195.993	22.19
196.212	3.75
196.432	-16.73
196.651	1.71
196.87	-45.4
197.089	69.29
197.308	63.15
197.528	50.86
197.747	59.05
197.966	28.33
198.185	48.81
198.404	42.67
198.623	7.85
198.842	52.91
199.062	59.05
199.281	11.95
199.5	-10.58
199.719	38.57
199.938	26.28
200.157	9.9
200.376	48.81
200.595	48.81
200.814	13.99
201.033	-16.73
201.252	91.82
201.471	1.71
201.69	85.67
201.909	83.63
202.128	54.95
202.347	44.71
202.566	24.23
202.785	20.14
203.004	-22.87
203.223	50.86
203.442	-53.59
203.661	40.62
203.879	52.91
204.098	59.05
204.317	-14.68
204.536	110.25
204.755	18.09
204.974	52.91
205.193	81.58
205.411	175.78
205.63	52.91
205.849	42.67
206.068	32.43
206.287	-80.21
206.505	79.53
206.724	28.33
206.943	11.95
207.162	22.19
207.381	75.43
207.599	46.76
207.818	18.09
208.037	38.57
208.255	-6.49
208.474	28.33
208.693	38.57
208.911	16.04
209.13	38.57
209.349	67.24
209.567	-78.16
209.786	122.54
210.005	24.23
210.223	-18.77
210.442	-26.96
210.661	-10.58
210.879	120.49
211.098	59.05
211.316	20.14
211.535	79.53
211.753	22.19
211.972	28.33
212.191	13.99
212.409	-14.68
212.628	-31.06
212.846	-45.4
213.065	42.67
213.283	61.1
213.502	59.05
213.72	24.23
213.938	46.76
214.157	18.09
214.375	7.85
214.594	69.29
214.812	34.47
215.031	65.19
215.249	-29.01
215.467	11.95
215.686	-12.63
215.904	36.52
216.122	26.28
216.341	50.86
216.559	3.75
216.778	20.14
216.996	40.62
217.214	63.15
217.432	89.77
217.651	44.71
217.869	-22.87
218.087	5.8
218.306	-10.58
218.524	-8.53
218.742	40.62
218.96	69.29
219.179	59.05
219.397	34.47
219.615	20.14
219.833	67.24
220.051	44.71
220.27	28.33
220.488	-0.34
220.706	61.1
220.924	93.87
221.142	32.43
221.36	5.8
221.578	54.95
221.796	9.9
222.015	-59.73
222.233	-20.82
222.451	102.06
222.669	34.47
222.887	-10.58
223.105	87.72
223.323	-26.96
223.541	-24.92
223.759	30.38
223.977	28.33
224.195	40.62
224.413	-0.34
224.631	36.52
224.849	7.85
225.067	-4.44
225.285	-47.44
225.503	11.95
225.721	-0.34
225.939	22.19
226.157	34.47
226.375	73.39
226.592	-18.77
226.81	-37.2
227.028	91.82
227.246	28.33
227.464	-0.34
227.682	40.62
227.9	18.09
228.117	34.47
228.335	24.23
228.553	54.95
228.771	63.15
228.989	40.62
229.206	24.23
229.424	-22.87
229.642	-10.58
229.86	18.09
230.077	26.28
230.295	9.9
230.513	-10.58
230.731	20.14
230.948	30.38
231.166	93.87
231.384	65.19
231.601	-72.02
231.819	69.29
232.037	120.49
232.254	-6.49
232.472	67.24
232.689	-41.3
232.907	77.48
233.125	22.19
233.342	48.81
233.56	40.62
233.777	-10.58
233.995	24.23
234.213	42.67
234.43	81.58
234.648	116.39
234.865	28.33
235.083	26.28
235.3	22.19
235.518	46.76
235.735	3.75
235.953	63.15
236.17	-26.96
236.388	-22.87
236.605	1.71
236.822	13.99
237.04	34.47
237.257	11.95
237.475	-8.53
237.692	-35.16
237.909	54.95
238.127	-22.87
238.344	91.82
238.562	40.62
238.779	38.57
238.996	22.19
239.214	-2.39
239.431	100.01
239.648	18.09
239.865	63.15
240.083	59.05
240.3	-14.68
240.517	9.9
240.735	63.15
240.952	81.58
241.169	83.63
241.386	75.43
241.603	-24.92
241.821	34.47
242.038	22.19
242.255	50.86
242.472	1.71
242.689	57
242.907	-20.82
243.124	-20.82
243.341	44.71
243.558	83.63
243.775	-33.11
243.992	-69.97
244.209	108.2
244.426	20.14
244.643	11.95
244.86	-39.25
245.078	89.77
245.295	44.71
245.512	32.43
245.729	-39.25
245.946	114.34
246.163	38.57
246.38	11.95
246.597	-22.87
246.814	40.62
247.031	38.57
247.248	-18.77
247.464	79.53
247.681	106.15
247.898	-8.53
248.115	40.62
248.332	32.43
248.549	83.63
248.766	-0.34
248.983	61.1
249.2	-55.64
249.417	48.81
249.633	9.9
249.85	11.95
250.067	26.28
250.284	34.47
250.501	59.05
250.717	42.67
250.934	-24.92
251.151	11.95
251.368	79.53
251.585	57
251.801	34.47
252.018	-16.73
252.235	3.75
252.451	85.67
252.668	9.9
252.885	36.52
253.102	16.04
253.318	5.8
253.535	-47.44
253.752	30.38
253.968	46.76
254.185	104.11
254.401	42.67
254.618	40.62
254.835	52.91
255.051	38.57
255.268	67.24
255.484	-59.73
255.701	40.62
255.917	67.24
256.134	-37.2
256.351	-22.87
256.567	61.1
256.784	-4.44
257	-0.34
257.217	-14.68
257.433	46.76
257.65	-12.63
257.866	36.52
258.082	-88.4
258.299	9.9
258.515	42.67
258.732	34.47
258.948	-6.49
259.165	-41.3
259.381	73.39
259.597	44.71
259.814	16.04
260.03	40.62
260.246	5.8
260.463	-51.54
260.679	85.67
260.895	5.8
261.112	46.76
261.328	50.86
261.544	44.71
261.761	79.53
261.977	18.09
262.193	32.43
262.409	97.96
262.626	-14.68
262.842	22.19
263.058	36.52
263.274	83.63
263.49	-0.34
263.707	1.71
263.923	-22.87
264.139	9.9
264.355	42.67
264.571	9.9
264.787	67.24
265.004	22.19
265.22	11.95
265.436	-39.25
265.652	50.86
265.868	28.33
266.084	38.57
266.3	11.95
266.516	9.9
266.732	-12.63
266.948	-47.44
267.164	57
267.38	32.43
267.596	26.28
267.812	59.05
268.028	36.52
268.244	11.95
268.46	9.9
268.676	-6.49
268.892	67.24
269.108	44.71
269.324	28.33
269.54	65.19
269.756	57
269.972	44.71
270.188	-29.01
270.403	-2.39
270.619	63.15
270.835	-2.39
271.051	75.43
271.267	-12.63
271.483	18.09
271.698	67.24
271.914	50.86
272.13	-10.58
272.346	59.05
272.562	20.14
272.777	42.67
272.993	-24.92
273.209	11.95
273.425	59.05
273.64	-4.44
273.856	67.24
274.072	-49.49
274.287	13.99
274.503	20.14
274.719	32.43
274.934	-31.06
275.15	9.9
275.366	59.05
275.581	81.58
275.797	75.43
276.012	38.57
276.228	61.1
276.444	-16.73
276.659	1.71
276.875	50.86
277.09	-6.49
277.306	32.43
277.521	18.09
277.737	122.54
277.952	42.67
278.168	34.47
278.383	50.86
278.599	75.43
278.814	-14.68
279.03	-41.3
279.245	26.28
279.461	57
279.676	32.43
279.892	3.75
280.107	-74.07
280.322	-41.3
280.538	44.71
280.753	-12.63
280.969	61.1
281.184	34.47
281.399	85.67
281.615	63.15
281.83	63.15
282.045	93.87
282.26	-6.49
282.476	40.62
282.691	85.67
282.906	-4.44
283.122	30.38
283.337	-16.73
283.552	30.38
283.767	32.43
283.983	30.38
284.198	-35.16
284.413	44.71
284.628	34.47
284.843	136.87
285.058	42.67
285.274	52.91
285.489	73.39
285.704	63.15
285.919	-26.96
286.134	40.62
286.349	-45.4
286.564	9.9
286.779	65.19
286.995	69.29
287.21	-24.92
287.425	11.95
287.64	-10.58
287.855	-14.68
288.07	-29.01
288.285	67.24
288.5	40.62
288.715	54.95
288.93	38.57
289.145	1.71
289.36	63.15
289.575	24.23
289.79	40.62
290.004	46.76
290.219	26.28
290.434	-31.06
290.649	18.09
290.864	36.52
291.079	40.62
291.294	83.63
291.509	13.99
291.724	34.47
291.938	22.19
292.153	50.86
292.368	5.8
292.583	26.28
292.798	9.9
293.012	104.11
293.227	-33.11
293.442	9.9
293.657	34.47
293.871	46.76
294.086	42.67
294.301	108.2
294.516	5.8
294.73	-20.82
294.945	-82.26
295.16	30.38
295.374	-0.34
295.589	61.1
295.804	-29.01
296.018	9.9
296.233	30.38
296.447	20.14
296.662	-18.77
296.877	102.06
297.091	36.52
297.306	67.24
297.52	67.24
297.735	9.9
297.949	69.29
298.164	26.28
298.378	50.86
298.593	18.09
298.807	54.95
299.022	61.1
299.236	112.3
299.451	61.1
299.665	22.19
299.88	3.75
300.094	30.38
300.309	75.43
300.523	24.23
300.737	22.19
300.952	104.11
301.166	69.29
301.381	-20.82
301.595	85.67
301.809	-49.49
302.024	28.33
302.238	26.28
302.452	104.11
302.667	-12.63
302.881	77.48
303.095	26.28
303.309	42.67
303.524	34.47
303.738	16.04
303.952	26.28
304.166	32.43
304.381	100.01
304.595	79.53
304.809	18.09
305.023	28.33
305.237	59.05
305.452	-2.39
305.666	11.95
305.88	42.67
306.094	48.81
306.308	120.49
306.522	28.33
306.736	32.43
306.95	3.75
307.164	89.77
307.379	69.29
307.593	71.34
307.807	61.1
308.021	44.71
308.235	-31.06
308.449	1.71
308.663	22.19
308.877	157.35
309.091	1.71
309.305	93.87
309.519	38.57
309.733	100.01
309.947	-26.96
310.161	36.52
310.374	91.82
310.588	77.48
310.802	16.04
311.016	3.75
311.23	20.14
311.444	54.95
311.658	18.09
311.872	81.58
312.085	26.28
312.299	95.91
312.513	20.14
312.727	34.47
312.941	-20.82
313.154	71.34
313.368	22.19
313.582	54.95
313.796	57
314.009	9.9
314.223	7.85
314.437	50.86
314.651	-24.92
314.864	-6.49
315.078	34.47
315.292	-55.64
315.505	18.09
315.719	16.04
315.933	11.95
316.146	87.72
316.36	7.85
316.573	-43.35
316.787	38.57
317.001	-51.54
317.214	20.14
317.428	36.52
317.641	24.23
317.855	9.9
318.068	48.81
318.282	50.86
318.495	20.14
318.709	57
318.922	-45.4
319.136	46.76
319.349	32.43
319.563	16.04
319.776	132.78
319.99	-2.39
320.203	3.75
320.417	22.19
320.63	11.95
320.843	1.71
321.057	30.38
321.27	52.91
321.483	1.71
321.697	3.75
321.91	32.43
322.124	1.71
322.337	28.33
322.55	59.05
322.763	67.24
322.977	11.95
323.19	3.75
323.403	-6.49
323.617	73.39
323.83	79.53
324.043	36.52
324.256	83.63
324.469	59.05
324.683	61.1
324.896	28.33
325.109	-6.49
325.322	-4.44
325.535	50.86
325.748	28.33
325.962	-4.44
326.175	36.52
326.388	59.05
326.601	102.06
326.814	-4.44
327.027	44.71
327.24	63.15
327.453	22.19
327.666	52.91
327.879	85.67
328.092	77.48
328.305	59.05
328.518	11.95
328.731	61.1
328.944	36.52
329.157	28.33
329.37	-14.68
329.583	97.96
329.796	18.09
330.009	-10.58
330.222	59.05
330.435	-59.73
330.648	79.53
330.861	9.9
331.073	26.28
331.286	3.75
331.499	-39.25
331.712	42.67
331.925	24.23
332.138	28.33
332.35	65.19
332.563	34.47
332.776	46.76
332.989	9.9
333.202	89.77
333.414	50.86
333.627	26.28
333.84	-6.49
334.053	122.54
334.265	5.8
334.478	61.1
334.691	22.19
334.903	79.53
335.116	16.04
335.329	18.09
335.541	-10.58
335.754	71.34
335.966	-2.39
336.179	75.43
336.392	9.9
336.604	120.49
336.817	36.52
337.029	44.71
337.242	-37.2
337.454	93.87
337.667	-2.39
337.88	79.53
338.092	28.33
338.305	11.95
338.517	-22.87
338.729	44.71
338.942	9.9
339.154	59.05
339.367	38.57
339.579	-39.25
339.792	7.85
340.004	48.81
340.217	11.95
340.429	18.09
340.641	42.67
340.854	13.99
341.066	-31.06
341.278	34.47
341.491	32.43
341.703	1.71
341.915	20.14
342.128	93.87
342.34	50.86
342.552	34.47
342.764	30.38
342.977	-47.44
343.189	73.39
343.401	65.19
343.613	-20.82
343.826	3.75
344.038	42.67
344.25	91.82
344.462	61.1
344.674	-43.35
344.886	50.86
345.099	34.47
345.311	75.43
345.523	48.81
345.735	9.9
345.947	71.34
346.159	67.24
346.371	50.86
346.583	44.71
346.795	110.25
347.007	34.47
347.219	83.63
347.431	100.01
347.643	1.71
347.855	36.52
348.067	124.58
348.279	42.67
348.491	59.05
348.703	89.77
348.915	-76.12
349.127	40.62
349.339	-14.68
349.551	69.29
349.763	104.11
349.975	-2.39
350.187	85.67
350.399	34.47
350.61	3.75
350.822	22.19
351.034	63.15
351.246	-55.64
351.458	83.63
351.669	91.82
351.881	61.1
352.093	24.23
352.305	50.86
352.517	59.05
352.728	57
352.94	26.28
353.152	79.53
353.363	52.91
353.575	100.01
353.787	69.29
353.999	36.52
354.21	65.19
354.422	50.86
354.633	-33.11
354.845	11.95
355.057	-14.68
355.268	44.71
355.48	57
355.692	9.9
355.903	73.39
356.115	-8.53
356.326	28.33
356.538	93.87
356.749	67.24
356.961	36.52
357.172	-6.49
357.384	83.63
357.595	38.57
357.807	-4.44
358.018	48.81
358.23	7.85
358.441	40.62
358.653	44.71
358.864	48.81
359.075	-37.2
359.287	52.91
359.498	11.95
359.709	-20.82
359.921	59.05
360.132	34.47
360.344	-20.82
360.555	32.43
360.766	-26.96
360.977	-0.34
361.189	36.52
361.4	18.09
361.611	59.05
361.823	54.95
362.034	5.8
362.245	28.33
362.456	-4.44
362.667	44.71
362.879	36.52
363.09	-55.64
363.301	79.53
363.512	16.04
363.723	69.29
363.935	34.47
364.146	50.86
364.357	81.58
364.568	65.19
364.779	-8.53
364.99	87.72
365.201	-29.01
365.412	122.54
365.623	67.24
365.834	48.81
366.045	50.86
366.256	28.33
366.467	79.53
366.678	81.58
366.889	26.28
367.1	65.19
367.311	77.48
367.522	38.57
367.733	59.05
367.944	16.04
368.155	36.52
368.366	38.57
368.577	75.43
368.788	89.77
368.999	-39.25
369.209	44.71
369.42	108.2
369.631	83.63
369.842	42.67
370.053	1.71
370.264	81.58
370.474	61.1
370.685	20.14
370.896	85.67
371.107	46.76
371.317	110.25
371.528	34.47
371.739	59.05
371.95	87.72
372.16	104.11
372.371	46.76
372.582	52.91
372.792	36.52
373.003	79.53
373.214	28.33
373.424	50.86
373.635	-55.64
373.846	52.91
374.056	-4.44
374.267	69.29
374.477	61.1
374.688	1.71
374.898	89.77
375.109	77.48
375.319	16.04
375.53	89.77
375.74	26.28
375.951	102.06
376.161	-0.34
376.372	57
376.582	71.34
376.793	46.76
377.003	42.67
377.214	67.24
377.424	34.47
377.635	-16.73
377.845	63.15
378.055	93.87
378.266	18.09
378.476	61.1
378.686	63.15
378.897	67.24
379.107	145.06
379.317	75.43
379.528	42.67
379.738	67.24
379.948	83.63
380.158	36.52
380.369	95.91
380.579	-8.53
380.789	44.71
380.999	116.39
381.21	59.05
381.42	28.33
381.63	63.15
381.84	67.24
382.05	-41.3
382.261	40.62
382.471	-2.39
382.681	59.05
382.891	50.86
383.101	95.91
383.311	67.24
383.521	85.67
383.731	54.95
383.941	91.82
384.151	61.1
384.361	28.33
384.571	9.9
384.781	42.67
384.991	181.93
385.201	100.01
385.411	87.72
385.621	59.05
385.831	9.9
386.041	132.78
386.251	63.15
386.461	16.04
386.671	32.43
386.881	59.05
387.091	67.24
387.301	108.2
387.511	26.28
387.72	77.48
387.93	65.19
388.14	-39.25
388.35	30.38
388.56	79.53
388.769	30.38
388.979	91.82
389.189	20.14
389.399	52.91
389.609	34.47
389.818	112.3
390.028	44.71
390.238	106.15
390.447	73.39
390.657	83.63
390.867	83.63
391.076	42.67
391.286	42.67
391.496	34.47
391.705	132.78
391.915	52.91
392.125	126.63
392.334	18.09
392.544	52.91
392.753	67.24
392.963	-39.25
393.172	36.52
393.382	-0.34
393.591	28.33
393.801	77.48
394.01	75.43
394.22	26.28
394.429	36.52
394.639	42.67
394.848	54.95
395.058	122.54
395.267	93.87
395.477	151.21
395.686	100.01
395.895	128.68
396.105	120.49
396.314	85.67
396.524	110.25
396.733	61.1
396.942	120.49
397.152	44.71
397.361	124.58
397.57	42.67
397.78	46.76
397.989	32.43
398.198	124.58
398.407	79.53
398.617	83.63
398.826	71.34
399.035	69.29
399.244	85.67
399.453	75.43
399.663	36.52
399.872	167.59
400.081	18.09
400.29	128.68
400.499	77.48
400.708	110.25
400.917	108.2
401.127	75.43
401.336	79.53
401.545	126.63
401.754	159.4
401.963	67.24
402.172	46.76
402.381	34.47
402.59	89.77
402.799	143.02
403.008	59.05
403.217	59.05
403.426	79.53
403.635	50.86
403.844	100.01
404.053	149.16
404.262	83.63
404.471	153.26
404.68	167.59
404.888	108.2
405.097	100.01
405.306	171.69
405.515	50.86
405.724	124.58
405.933	138.92
406.142	157.35
406.35	100.01
406.559	206.5
406.768	138.92
406.977	194.22
407.185	138.92
407.394	153.26
407.603	161.45
407.812	151.21
408.02	245.41
408.229	171.69
408.438	186.02
408.646	110.25
408.855	132.78
409.064	175.78
409.272	210.6
409.481	253.61
409.69	259.75
409.898	200.36
410.107	290.47
410.315	212.65
410.524	173.74
410.733	239.27
410.941	245.41
411.15	274.09
411.358	272.04
411.567	323.24
411.775	269.99
411.984	263.85
412.192	259.75
412.401	319.14
412.609	394.92
412.818	413.35
413.026	411.3
413.234	405.16
413.443	358.05
413.651	394.92
413.86	370.34
414.068	413.35
414.276	456.36
414.485	495.27
414.693	427.68
414.901	456.36
415.11	542.37
415.318	575.14
415.526	542.37
415.734	577.19
415.943	544.42
416.151	618.15
416.359	618.15
416.567	552.61
416.776	620.19
416.984	624.29
417.192	773.79
417.4	683.68
417.608	667.3
417.817	781.98
418.025	788.13
418.233	915.1
418.441	788.13
418.649	890.53
418.857	908.96
419.065	915.1
419.273	876.19
419.481	976.54
419.689	1060.51
419.897	1066.65
420.105	1097.37
420.313	1193.62
420.521	1091.23
420.729	1246.87
420.937	1248.92
421.145	1267.35
421.353	1377.94
421.561	1349.27
421.769	1392.28
421.977	1402.52
422.185	1429.14
422.393	1545.88
422.601	1556.11
422.809	1689.23
423.017	1666.71
423.224	1697.42
423.432	1689.23
423.64	1840.78
423.848	2055.82
424.056	1932.94
424.263	2033.29
424.471	2072.2
424.679	2068.11
424.887	2203.27
425.094	2272.9
425.302	2213.51
425.51	2442.89
425.718	2471.56
425.925	2481.8
426.133	2580.1
426.341	2682.5
426.548	2821.76
426.756	2737.79
426.964	2891.39
427.171	3063.42
427.379	3016.32
427.586	3229.31
427.794	3245.69
428.001	3452.53
428.209	3526.26
428.417	3425.91
428.624	3763.83
428.832	3729.01
429.039	3765.87
429.247	3737.2
429.454	4081.26
429.662	4376.17
429.869	4105.84
430.076	4486.76
430.284	4329.06
430.491	4490.85
430.699	4669.03
430.906	4621.92
431.114	4701.79
431.321	4937.31
431.528	5056.09
431.736	5303.9
431.943	5488.21
432.15	5269.08
432.358	5391.96
432.565	5783.12
432.772	5781.07
432.979	5951.06
433.187	5994.06
433.394	6202.96
433.601	6592.07
433.808	6712.9
434.016	6469.19
434.223	6772.29
434.43	7253.56
434.637	7245.37
434.844	7530.04
435.052	7663.16
435.259	7583.29
435.466	7794.23
435.673	7509.56
435.88	8138.29
436.087	8609.32
436.294	8637.99
436.501	8400.43
436.708	8572.46
436.915	8867.36
437.122	9109.02
437.329	9104.93
437.537	9459.23
437.743	9827.86
437.95	9565.72
438.157	10145.3
438.364	10296.85
438.571	10325.52
438.778	10395.15
438.985	11392.51
439.192	11060.74
439.399	11382.27
439.606	11027.97
439.813	11955.7
440.02	12637.67
440.227	12228.08
440.433	12131.83
440.64	12588.52
440.847	12396.01
441.054	12670.44
441.261	13624.79
441.467	13456.86
441.674	13886.93
441.881	14106.07
442.088	14085.59
442.294	14198.23
442.501	14362.06
442.708	15044.04
442.914	15390.14
443.121	16018.87
443.328	15388.1
443.534	16850.35
443.741	16229.81
443.948	15930.81
444.154	17235.36
444.361	16844.2
444.568	17112.49
444.774	17309.09
444.981	17268.13
445.187	17946.01
445.394	18484.62
445.6	18435.47
445.807	20196.73
446.013	19441.03
446.22	19541.38
446.426	20477.3
446.633	20940.14
446.839	21454.18
447.046	20356.47
447.252	21884.25
447.459	22013.27
447.665	21689.7
447.871	22547.79
448.078	23573.83
448.284	22570.32
448.491	23139.66
448.697	24079.68
448.903	24360.25
449.11	24585.52
449.316	24073.53
449.522	24526.13
449.728	25285.93
449.935	25668.9
450.141	25345.32
450.347	25982.24
450.553	25384.23
450.76	25595.17
450.966	26420.5
451.172	26060.06
451.378	26950.93
451.584	26275.1
451.791	26998.03
451.997	27172.11
452.203	27536.65
452.409	27489.54
452.615	27469.06
452.821	26424.6
453.027	25888.03
453.233	27575.56
453.44	26285.34
453.646	27067.66
453.852	26963.22
454.058	27407.62
454.264	26500.37
454.47	27342.09
454.676	26455.32
454.882	27536.65
455.088	25378.09
455.294	25589.03
455.5	25916.7
455.705	25951.52
455.911	25191.72
456.117	24718.64
456.323	24386.87
456.529	22852.94
456.735	24100.15
456.941	23455.04
457.147	22744.4
457.352	22433.11
457.558	22127.96
457.764	22207.83
457.97	21790.05
458.176	21423.46
458.381	21316.97
458.587	20487.54
458.793	20256.12
458.999	19322.24
459.204	20790.64
459.41	20110.71
459.616	18716.05
459.821	19066.25
460.027	18851.21
460.233	18259.35
460.438	17378.72
460.644	17767.84
460.85	16752.04
461.055	16704.94
461.261	16520.62
461.466	15576.51
461.672	14970.31
461.878	15863.22
462.083	14728.65
462.289	14687.69
462.494	14427.6
462.7	13899.22
462.905	13415.9
463.111	13919.7
463.316	13784.54
463.522	13557.21
463.727	13837.78
463.932	13827.54
464.138	13577.69
464.343	13356.51
464.549	13071.84
464.754	13657.56
464.959	13340.13
465.165	13231.58
465.37	12762.6
465.575	12365.29
465.781	13002.21
465.986	12862.95
466.191	12717.54
466.397	12654.06
466.602	11785.72
466.807	12113.39
467.012	12166.64
467.218	12062.19
467.423	11943.41
467.628	11978.23
467.833	12633.58
468.038	11904.5
468.244	11617.79
