Data from USB4F104151__9__13-10-21-446.txt Node

Date: Fri Mar 14 13:10:21 EDT 2025
User: louis
Spectrometer: USB4F10415
Trigger mode: 4
Integration Time (sec): 2.000000E-2
Scans to average: 1
Electric dark correction enabled: true
Nonlinearity correction enabled: false
Boxcar width: 0
XAxis mode: Wavelengths
Number of Pixels in Spectrum: 3648
>>>>>Begin Spectral Data<<<<<
178.204	-135.85
178.424	-135.85
178.644	-135.85
178.864	-103.08
179.084	-80.55
179.304	-8.87
179.524	-45.74
179.744	3.41
179.964	30.04
180.184	5.46
180.404	58.71
180.624	-29.35
180.844	36.18
181.064	-25.26
181.283	-37.55
181.503	-21.16
181.723	34.13
181.943	-41.64
182.163	-0.68
182.383	17.75
182.602	32.08
182.822	73.04
183.042	95.57
183.262	1.37
183.482	11.61
183.701	9.56
183.921	13.65
184.141	11.61
184.361	7.51
184.58	17.75
184.8	71
185.02	128.34
185.239	103.76
185.459	30.04
185.679	46.42
185.898	-45.74
186.118	97.62
186.338	46.42
186.557	56.66
186.777	-12.97
186.997	95.57
187.216	50.52
187.436	42.32
187.655	-17.07
187.875	-0.68
188.095	52.56
188.314	11.61
188.534	54.61
188.753	7.51
188.973	52.56
189.192	34.13
189.412	-4.78
189.631	-17.07
189.851	36.18
190.07	126.29
190.29	23.89
190.509	-12.97
190.729	52.56
190.948	77.14
191.168	118.1
191.387	56.66
191.607	-29.35
191.826	-4.78
192.045	38.23
192.265	36.18
192.484	-17.07
192.704	25.94
192.923	42.32
193.142	152.92
193.362	40.28
193.581	142.68
193.8	23.89
194.02	46.42
194.239	25.94
194.458	9.56
194.678	17.75
194.897	68.95
195.116	52.56
195.335	3.41
195.555	66.9
195.774	50.52
195.993	32.08
196.212	30.04
196.432	-41.64
196.651	52.56
196.87	21.85
197.089	103.76
197.308	124.24
197.528	77.14
197.747	52.56
197.966	34.13
198.185	89.43
198.404	48.47
198.623	-17.07
198.842	97.62
199.062	83.28
199.281	19.8
199.5	5.46
199.719	30.04
199.938	15.7
200.157	52.56
200.376	62.8
200.595	27.99
200.814	60.76
201.033	-21.16
201.252	79.19
201.471	11.61
201.69	154.96
201.909	66.9
202.128	50.52
202.347	52.56
202.566	3.41
202.785	11.61
203.004	-25.26
203.223	97.62
203.442	30.04
203.661	19.8
203.879	73.04
204.098	44.37
204.317	-6.83
204.536	21.85
204.755	32.08
204.974	-19.11
205.193	42.32
205.411	120.15
205.63	27.99
205.849	13.65
206.068	-49.83
206.287	44.37
206.505	-10.92
206.724	11.61
206.943	48.47
207.162	3.41
207.381	60.76
207.599	60.76
207.818	85.33
208.037	-55.98
208.255	93.52
208.474	75.09
208.693	1.37
208.911	15.7
209.13	95.57
209.349	97.62
209.567	79.19
209.786	-8.87
210.005	21.85
210.223	91.48
210.442	15.7
210.661	-4.78
210.879	62.8
211.098	52.56
211.316	27.99
211.535	73.04
211.753	68.95
211.972	-2.73
212.191	-0.68
212.409	32.08
212.628	-19.11
212.846	32.08
213.065	30.04
213.283	-21.16
213.502	23.89
213.72	19.8
213.938	32.08
214.157	48.47
214.375	13.65
214.594	25.94
214.812	30.04
215.031	7.51
215.249	62.8
215.467	-0.68
215.686	32.08
215.904	38.23
216.122	19.8
216.341	54.61
216.559	25.94
216.778	25.94
216.996	46.42
217.214	-53.93
217.432	128.34
217.651	7.51
217.869	9.56
218.087	-12.97
218.306	-4.78
218.524	-29.35
218.742	60.76
218.96	44.37
219.179	93.52
219.397	62.8
219.615	34.13
219.833	81.24
220.051	-27.31
220.27	73.04
220.488	52.56
220.706	44.37
220.924	11.61
221.142	44.37
221.36	1.37
221.578	44.37
221.796	11.61
222.015	54.61
222.233	42.32
222.451	66.9
222.669	44.37
222.887	30.04
223.105	27.99
223.323	-2.73
223.541	-8.87
223.759	17.75
223.977	52.56
224.195	34.13
224.413	30.04
224.631	118.1
224.849	-4.78
225.067	103.76
225.285	-21.16
225.503	-21.16
225.721	-35.5
225.939	93.52
226.157	71
226.375	27.99
226.592	71
226.81	-23.21
227.028	34.13
227.246	111.96
227.464	-41.64
227.682	-0.68
227.9	91.48
228.117	93.52
228.335	-0.68
228.553	7.51
228.771	52.56
228.989	68.95
229.206	11.61
229.424	-25.26
229.642	48.47
229.86	124.24
230.077	93.52
230.295	9.56
230.513	11.61
230.731	85.33
230.948	81.24
231.166	62.8
231.384	1.37
231.601	3.41
231.819	27.99
232.037	-45.74
232.254	5.46
232.472	66.9
232.689	17.75
232.907	40.28
233.125	-12.97
233.342	-39.59
233.56	19.8
233.777	27.99
233.995	25.94
234.213	19.8
234.43	19.8
234.648	85.33
234.865	81.24
235.083	58.71
235.3	27.99
235.518	30.04
235.735	-72.36
235.953	77.14
236.17	68.95
236.388	42.32
236.605	68.95
236.822	-31.4
237.04	52.56
237.257	27.99
237.475	17.75
237.692	-29.35
237.909	38.23
238.127	9.56
238.344	62.8
238.562	-8.87
238.779	13.65
238.996	-72.36
239.214	87.38
239.431	21.85
239.648	34.13
239.865	52.56
240.083	36.18
240.3	44.37
240.517	42.32
240.735	134.48
240.952	54.61
241.169	68.95
241.386	-58.03
241.603	44.37
241.821	21.85
242.038	79.19
242.255	46.42
242.472	71
242.689	109.91
242.907	23.89
243.124	105.81
243.341	44.37
243.558	-49.83
243.775	46.42
243.992	1.37
244.209	54.61
244.426	40.28
244.643	21.85
244.86	-25.26
245.078	-53.93
245.295	44.37
245.512	23.89
245.729	40.28
245.946	56.66
246.163	87.38
246.38	-4.78
246.597	81.24
246.814	54.61
247.031	50.52
247.248	52.56
247.464	21.85
247.681	79.19
247.898	50.52
248.115	13.65
248.332	-15.02
248.549	150.87
248.766	34.13
248.983	60.76
249.2	64.85
249.417	5.46
249.633	5.46
249.85	66.9
250.067	81.24
250.284	87.38
250.501	36.18
250.717	60.76
250.934	44.37
251.151	60.76
251.368	46.42
251.585	54.61
251.801	62.8
252.018	36.18
252.235	68.95
252.451	-45.74
252.668	-4.78
252.885	30.04
253.102	56.66
253.318	71
253.535	30.04
253.752	36.18
253.968	3.41
254.185	32.08
254.401	79.19
254.618	75.09
254.835	-37.55
255.051	126.29
255.268	56.66
255.484	40.28
255.701	25.94
255.917	19.8
256.134	19.8
256.351	42.32
256.567	-53.93
256.784	-33.45
257	13.65
257.217	40.28
257.433	126.29
257.65	27.99
257.866	-37.55
258.082	95.57
258.299	-47.79
258.515	116.05
258.732	30.04
258.948	-19.11
259.165	97.62
259.381	-8.87
259.597	91.48
259.814	1.37
260.03	-8.87
260.246	77.14
260.463	-58.03
260.679	52.56
260.895	3.41
261.112	54.61
261.328	-53.93
261.544	73.04
261.761	116.05
261.977	32.08
262.193	1.37
262.409	130.39
262.626	77.14
262.842	-8.87
263.058	30.04
263.274	52.56
263.49	40.28
263.707	111.96
263.923	62.8
264.139	-35.5
264.355	32.08
264.571	77.14
264.787	-43.69
265.004	58.71
265.22	52.56
265.436	36.18
265.652	3.41
265.868	122.2
266.084	-25.26
266.3	27.99
266.516	25.94
266.732	68.95
266.948	-82.6
267.164	-17.07
267.38	34.13
267.596	48.47
267.812	42.32
268.028	3.41
268.244	-8.87
268.46	-10.92
268.676	77.14
268.892	40.28
269.108	30.04
269.324	-29.35
269.54	54.61
269.756	52.56
269.972	25.94
270.188	-8.87
270.403	56.66
270.619	46.42
270.835	-4.78
271.051	3.41
271.267	-4.78
271.483	21.85
271.698	-12.97
271.914	-27.31
272.13	-8.87
272.346	52.56
272.562	42.32
272.777	52.56
272.993	-0.68
273.209	36.18
273.425	58.71
273.64	-0.68
273.856	46.42
274.072	32.08
274.287	54.61
274.503	79.19
274.719	40.28
274.934	19.8
275.15	-58.03
275.366	56.66
275.581	54.61
275.797	68.95
276.012	42.32
276.228	60.76
276.444	62.8
276.659	114
276.875	56.66
277.09	27.99
277.306	36.18
277.521	54.61
277.737	-12.97
277.952	13.65
278.168	105.81
278.383	66.9
278.599	-27.31
278.814	159.06
279.03	120.15
279.245	79.19
279.461	62.8
279.676	77.14
279.892	11.61
280.107	25.94
280.322	25.94
280.538	56.66
280.753	-6.83
280.969	83.28
281.184	-0.68
281.399	54.61
281.615	44.37
281.83	11.61
282.045	3.41
282.26	85.33
282.476	9.56
282.691	32.08
282.906	19.8
283.122	13.65
283.337	11.61
283.552	36.18
283.767	15.7
283.983	114
284.198	60.76
284.413	30.04
284.628	36.18
284.843	15.7
285.058	23.89
285.274	42.32
285.489	-19.11
285.704	56.66
285.919	-66.22
286.134	62.8
286.349	34.13
286.564	40.28
286.779	58.71
286.995	11.61
287.21	56.66
287.425	107.86
287.64	103.76
287.855	68.95
288.07	11.61
288.285	64.85
288.5	87.38
288.715	77.14
288.93	60.76
289.145	83.28
289.36	159.06
289.575	27.99
289.79	21.85
290.004	52.56
290.219	38.23
290.434	27.99
290.649	17.75
290.864	77.14
291.079	58.71
291.294	154.96
291.509	77.14
291.724	-25.26
291.938	17.75
292.153	58.71
292.368	13.65
292.583	17.75
292.798	40.28
293.012	5.46
293.227	79.19
293.442	-12.97
293.657	107.86
293.871	89.43
294.086	62.8
294.301	87.38
294.516	83.28
294.73	111.96
294.945	3.41
295.16	-41.64
295.374	75.09
295.589	36.18
295.804	34.13
296.018	79.19
296.233	23.89
296.447	93.52
296.662	30.04
296.877	40.28
297.091	21.85
297.306	77.14
297.52	34.13
297.735	54.61
297.949	-10.92
298.164	27.99
298.378	-4.78
298.593	-27.31
298.807	87.38
299.022	42.32
299.236	62.8
299.451	48.47
299.665	52.56
299.88	68.95
300.094	60.76
300.309	60.76
300.523	62.8
300.737	-19.11
300.952	107.86
301.166	-12.97
301.381	-25.26
301.595	87.38
301.809	7.51
302.024	23.89
302.238	7.51
302.452	-6.83
302.667	11.61
302.881	128.34
303.095	13.65
303.309	19.8
303.524	17.75
303.738	64.85
303.952	27.99
304.166	91.48
304.381	-4.78
304.595	73.04
304.809	13.65
305.023	83.28
305.237	-15.02
305.452	32.08
305.666	42.32
305.88	77.14
306.094	50.52
306.308	46.42
306.522	101.72
306.736	30.04
306.95	5.46
307.164	54.61
307.379	77.14
307.593	132.44
307.807	128.34
308.021	3.41
308.235	48.47
308.449	71
308.663	36.18
308.877	111.96
309.091	109.91
309.305	73.04
309.519	40.28
309.733	68.95
309.947	9.56
310.161	52.56
310.374	50.52
310.588	105.81
310.802	-23.21
311.016	46.42
311.23	30.04
311.444	-23.21
311.658	52.56
311.872	105.81
312.085	9.56
312.299	25.94
312.513	89.43
312.727	68.95
312.941	118.1
313.154	54.61
313.368	44.37
313.582	54.61
313.796	19.8
314.009	142.68
314.223	114
314.437	120.15
314.651	15.7
314.864	3.41
315.078	32.08
315.292	91.48
315.505	32.08
315.719	89.43
315.933	130.39
316.146	99.67
316.36	32.08
316.573	56.66
316.787	114
317.001	134.48
317.214	-12.97
317.428	81.24
317.641	-21.16
317.855	54.61
318.068	83.28
318.282	56.66
318.495	56.66
318.709	27.99
318.922	13.65
319.136	85.33
319.349	101.72
319.563	95.57
319.776	36.18
319.99	46.42
320.203	36.18
320.417	36.18
320.63	68.95
320.843	52.56
321.057	13.65
321.27	21.85
321.483	44.37
321.697	71
321.91	36.18
322.124	13.65
322.337	27.99
322.55	-2.73
322.763	75.09
322.977	95.57
323.19	81.24
323.403	62.8
323.617	23.89
323.83	32.08
324.043	-15.02
324.256	27.99
324.469	83.28
324.683	105.81
324.896	7.51
325.109	-21.16
325.322	36.18
325.535	93.52
325.748	130.39
325.962	66.9
326.175	40.28
326.388	91.48
326.601	44.37
326.814	11.61
327.027	73.04
327.24	48.47
327.453	30.04
327.666	9.56
327.879	73.04
328.092	89.43
328.305	77.14
328.518	23.89
328.731	27.99
328.944	66.9
329.157	34.13
329.37	27.99
329.583	81.24
329.796	173.39
330.009	-19.11
330.222	62.8
330.435	-4.78
330.648	30.04
330.861	77.14
331.073	62.8
331.286	52.56
331.499	36.18
331.712	13.65
331.925	77.14
332.138	60.76
332.35	30.04
332.563	23.89
332.776	60.76
332.989	13.65
333.202	44.37
333.414	19.8
333.627	58.71
333.84	-25.26
334.053	40.28
334.265	66.9
334.478	21.85
334.691	-41.64
334.903	27.99
335.116	56.66
335.329	-17.07
335.541	109.91
335.754	128.34
335.966	109.91
336.179	34.13
336.392	1.37
336.604	62.8
336.817	-27.31
337.029	68.95
337.242	46.42
337.454	95.57
337.667	11.61
337.88	64.85
338.092	62.8
338.305	-10.92
338.517	-29.35
338.729	62.8
338.942	118.1
339.154	101.72
339.367	64.85
339.579	42.32
339.792	62.8
340.004	56.66
340.217	32.08
340.429	54.61
340.641	25.94
340.854	91.48
341.066	3.41
341.278	56.66
341.491	85.33
341.703	7.51
341.915	-39.59
342.128	101.72
342.34	15.7
342.552	32.08
342.764	44.37
342.977	38.23
343.189	11.61
343.401	56.66
343.613	34.13
343.826	73.04
344.038	46.42
344.25	62.8
344.462	68.95
344.674	87.38
344.886	9.56
345.099	27.99
345.311	46.42
345.523	68.95
345.735	21.85
345.947	118.1
346.159	93.52
346.371	77.14
346.583	66.9
346.795	107.86
347.007	68.95
347.219	79.19
347.431	15.7
347.643	48.47
347.855	36.18
348.067	97.62
348.279	34.13
348.491	25.94
348.703	36.18
348.915	19.8
349.127	-15.02
349.339	91.48
349.551	48.47
349.763	77.14
349.975	-4.78
350.187	87.38
350.399	58.71
350.61	-2.73
350.822	3.41
351.034	99.67
351.246	-15.02
351.458	91.48
351.669	81.24
351.881	118.1
352.093	83.28
352.305	142.68
352.517	-10.92
352.728	46.42
352.94	44.37
353.152	52.56
353.363	3.41
353.575	52.56
353.787	120.15
353.999	71
354.21	79.19
354.422	126.29
354.633	77.14
354.845	44.37
355.057	62.8
355.268	89.43
355.48	46.42
355.692	40.28
355.903	60.76
356.115	19.8
356.326	7.51
356.538	77.14
356.749	54.61
356.961	99.67
357.172	62.8
357.384	79.19
357.595	48.47
357.807	3.41
358.018	42.32
358.23	111.96
358.441	79.19
358.653	-2.73
358.864	38.23
359.075	116.05
359.287	109.91
359.498	85.33
359.709	71
359.921	73.04
360.132	73.04
360.344	71
360.555	128.34
360.766	-2.73
360.977	54.61
361.189	52.56
361.4	89.43
361.611	140.63
361.823	101.72
362.034	68.95
362.245	36.18
362.456	3.41
362.667	109.91
362.879	36.18
363.09	34.13
363.301	46.42
363.512	58.71
363.723	105.81
363.935	62.8
364.146	66.9
364.357	71
364.568	81.24
364.779	52.56
364.99	87.38
365.201	81.24
365.412	126.29
365.623	23.89
365.834	56.66
366.045	25.94
366.256	52.56
366.467	60.76
366.678	7.51
366.889	71
367.1	-2.73
367.311	87.38
367.522	48.47
367.733	40.28
367.944	73.04
368.155	17.75
368.366	107.86
368.577	79.19
368.788	109.91
368.999	25.94
369.209	77.14
369.42	46.42
369.631	11.61
369.842	-21.16
370.053	95.57
370.264	85.33
370.474	27.99
370.685	21.85
370.896	34.13
371.107	50.52
371.317	30.04
371.528	9.56
371.739	81.24
371.95	68.95
372.16	77.14
372.371	68.95
372.582	46.42
372.792	75.09
373.003	68.95
373.214	36.18
373.424	68.95
373.635	95.57
373.846	44.37
374.056	68.95
374.267	93.52
374.477	60.76
374.688	21.85
374.898	48.47
375.109	62.8
375.319	44.37
375.53	58.71
375.74	52.56
375.951	114
376.161	42.32
376.372	103.76
376.582	13.65
376.793	54.61
377.003	27.99
377.214	-23.21
377.424	46.42
377.635	107.86
377.845	17.75
378.055	95.57
378.266	77.14
378.476	200.02
378.686	75.09
378.897	38.23
379.107	48.47
379.317	95.57
379.528	52.56
379.738	21.85
379.948	34.13
380.158	85.33
380.369	30.04
380.579	107.86
380.789	-4.78
380.999	40.28
381.21	124.24
381.42	191.83
381.63	27.99
381.84	95.57
382.05	-4.78
382.261	89.43
382.471	30.04
382.681	62.8
382.891	73.04
383.101	25.94
383.311	32.08
383.521	27.99
383.731	68.95
383.941	109.91
384.151	128.34
384.361	77.14
384.571	27.99
384.781	93.52
384.991	56.66
385.201	116.05
385.411	73.04
385.621	91.48
385.831	68.95
386.041	42.32
386.251	64.85
386.461	52.56
386.671	54.61
386.881	101.72
387.091	5.46
387.301	60.76
387.511	79.19
387.72	107.86
387.93	60.76
388.14	44.37
388.35	38.23
388.56	40.28
388.769	32.08
388.979	62.8
389.189	38.23
389.399	154.96
389.609	62.8
389.818	54.61
390.028	68.95
390.238	77.14
390.447	38.23
390.657	95.57
390.867	46.42
391.076	27.99
391.286	44.37
391.496	93.52
391.705	17.75
391.915	93.52
392.125	109.91
392.334	25.94
392.544	85.33
392.753	146.77
392.963	-4.78
393.172	38.23
393.382	83.28
393.591	105.81
393.801	36.18
394.01	134.48
394.22	48.47
394.429	107.86
394.639	163.15
394.848	114
395.058	109.91
395.267	136.53
395.477	118.1
395.686	163.15
395.895	114
396.105	169.3
396.314	169.3
396.524	109.91
396.733	79.19
396.942	52.56
397.152	97.62
397.361	128.34
397.57	116.05
397.78	146.77
397.989	132.44
398.198	181.59
398.407	60.76
398.617	93.52
398.826	124.24
399.035	85.33
399.244	138.58
399.453	89.43
399.663	64.85
399.872	134.48
400.081	85.33
400.29	181.59
400.499	44.37
400.708	130.39
400.917	163.15
401.127	134.48
401.336	134.48
401.545	134.48
401.754	240.98
401.963	107.86
402.172	120.15
402.381	99.67
402.59	210.26
402.799	109.91
403.008	105.81
403.217	195.92
403.426	150.87
403.635	103.76
403.844	118.1
404.053	122.2
404.262	122.2
404.471	220.5
404.68	144.72
404.888	193.87
405.097	134.48
405.306	206.16
405.515	167.25
405.724	101.72
405.933	126.29
406.142	177.49
406.35	169.3
406.559	154.96
406.768	171.35
406.977	271.7
407.185	290.13
407.394	257.36
407.603	247.12
407.812	226.64
408.02	281.94
408.229	222.55
408.438	175.44
408.646	277.84
408.855	279.89
409.064	318.8
409.272	255.31
409.481	234.83
409.69	230.74
409.898	376.14
410.107	404.82
410.315	353.62
410.524	345.42
410.733	343.38
410.941	240.98
411.15	382.29
411.358	363.86
411.567	476.49
411.775	400.72
411.984	410.96
412.192	449.87
412.401	441.68
412.609	517.45
412.818	511.31
413.026	503.12
413.234	503.12
413.443	587.08
413.651	486.73
413.86	568.65
414.068	619.85
414.276	748.87
414.485	677.2
414.693	709.96
414.901	699.72
415.11	726.35
415.318	685.39
415.526	767.31
415.734	806.22
415.943	843.08
416.151	808.27
416.359	765.26
416.567	830.79
416.776	1047.88
416.984	965.96
417.192	1002.82
417.4	1051.97
417.608	990.53
417.817	1062.21
418.025	1176.9
418.233	1172.8
418.441	1170.76
418.649	1160.52
418.857	1371.46
419.065	1338.69
419.273	1279.3
419.481	1377.6
419.689	1453.38
419.897	1609.02
420.105	1561.92
420.313	1639.74
420.521	1729.85
420.729	1774.91
420.937	1815.87
421.145	1727.8
421.353	1871.16
421.561	1936.7
421.769	1971.51
421.977	2114.87
422.185	2080.05
422.393	2202.93
422.601	2383.15
422.809	2487.6
423.017	2370.87
423.224	2405.68
423.432	2731.31
423.64	2725.16
423.848	2790.7
424.056	2716.97
424.263	3042.6
424.471	2995.5
424.679	2979.11
424.887	3167.53
425.094	3300.64
425.302	3327.27
425.51	3423.52
425.718	3400.99
425.925	3558.69
426.133	3632.41
426.341	3857.69
426.548	3999
426.756	3955.99
426.964	4042.01
427.171	4410.64
427.379	4377.87
427.586	4486.42
427.794	4613.39
428.001	4914.44
428.209	5068.04
428.417	5147.91
428.624	5420.29
428.832	5258.5
429.039	5289.22
429.247	5399.81
429.454	5924.09
429.662	6350.07
429.869	5772.54
430.076	6175.99
430.284	6169.85
430.491	6212.85
430.699	6788.33
430.906	6786.29
431.114	6921.45
431.321	7068.91
431.528	7183.59
431.736	7470.31
431.943	8187.1
432.15	7728.35
432.358	7754.97
432.565	8387.8
432.772	8334.55
432.979	8731.86
433.187	8877.26
433.394	8961.23
433.601	9573.57
433.808	9804.99
434.016	9419.97
434.223	9710.79
434.43	10423.48
434.637	10392.76
434.844	11091.12
435.052	11031.72
435.259	11078.83
435.466	11213.99
435.673	11091.12
435.88	11795.62
436.087	12530.84
436.294	12397.72
436.501	12416.15
436.708	12477.59
436.915	13040.78
437.122	13405.32
437.329	13292.68
437.537	13905.03
437.743	14089.34
437.95	13743.24
438.157	14482.55
438.364	15133.81
438.571	15117.42
438.778	15246.44
438.985	16665.69
439.192	16039.01
439.399	16446.55
439.606	16174.17
439.813	16921.68
440.02	18101.31
440.227	17763.4
440.433	17448.01
440.64	18336.83
440.847	17986.63
441.054	18433.08
441.261	19471.4
441.467	19418.16
441.674	19661.87
441.881	20714.52
442.088	20685.85
442.294	20329.5
442.501	20821.02
442.708	21253.14
442.914	22303.74
443.121	23348.21
443.328	22453.25
443.534	24247.27
443.741	23600.11
443.948	23098.36
444.154	25066.45
444.361	24970.2
444.568	24859.61
444.774	24589.28
444.981	24808.41
445.187	26340.29
445.394	27063.22
445.6	26852.28
445.807	29320.09
446.013	28160.94
446.22	28572.58
446.426	29318.04
446.633	29977.48
446.839	31183.74
447.046	29610.9
447.252	31279.99
447.459	31048.57
447.665	31097.72
447.871	32781.15
448.078	33897.3
448.284	32635.75
448.491	33559.38
448.697	34349.9
448.903	35367.74
449.11	35466.04
449.316	34954.05
449.522	35459.9
449.728	36332.33
449.935	36766.5
450.141	36770.6
450.347	37335.84
450.553	36547.37
450.76	37131.04
450.966	37939.99
451.172	37501.72
451.378	38763.27
451.584	37894.93
451.791	39287.55
451.997	38929.16
452.203	39633.66
452.409	39490.3
452.615	39365.37
452.821	37837.59
453.027	37708.57
453.233	39973.62
453.44	38261.52
453.646	38744.84
453.852	38837
454.058	39600.89
454.264	37804.82
454.47	39164.67
454.676	38255.37
454.882	39248.64
455.088	35803.95
455.294	36668.2
455.5	37350.17
455.705	37421.85
455.911	36107.05
456.117	35388.22
456.323	34915.14
456.529	33278.81
456.735	34906.94
456.941	34061.13
457.147	33000.29
457.352	32324.46
457.558	32113.52
457.764	32146.28
457.97	31644.53
458.176	30442.37
458.381	30618.5
458.587	29375.38
458.793	29338.52
458.999	27751.34
459.204	29705.1
459.41	28707.74
459.616	27077.56
459.821	27091.9
460.027	26946.49
460.233	26473.41
460.438	25119.7
460.644	25293.78
460.85	24095.72
461.055	23854.06
461.261	23790.57
461.466	22125.57
461.672	21427.21
461.878	23002.1
462.083	21404.69
462.289	21025.81
462.494	20855.83
462.7	19688.49
462.905	19557.42
463.111	19983.4
463.316	19889.19
463.522	19596.33
463.727	19590.19
463.932	19848.23
464.138	19242.03
464.343	19510.32
464.549	19029.04
464.754	19528.75
464.959	19184.69
465.165	19231.79
465.37	18179.14
465.575	17935.43
465.781	18646.07
465.986	18490.43
466.191	18084.93
466.397	17620.04
466.602	16835.67
466.807	17626.18
467.012	17615.94
467.218	17142.86
467.423	17091.66
467.628	17464.39
467.833	17886.28
