Data from USB4F104151__0__13-10-07-769.txt Node

Date: Fri Mar 14 13:10:07 EDT 2025
User: louis
Spectrometer: USB4F10415
Trigger mode: 4
Integration Time (sec): 2.000000E-2
Scans to average: 1
Electric dark correction enabled: true
Nonlinearity correction enabled: false
Boxcar width: 0
XAxis mode: Wavelengths
Number of Pixels in Spectrum: 3648
>>>>>Begin Spectral Data<<<<<
178.204	-110.08
178.424	-110.08
178.644	-110.08
178.864	-17.92
179.084	-108.03
179.304	-26.11
179.524	23.04
179.744	-40.45
179.964	61.95
180.184	-40.45
180.404	4.61
180.624	-24.06
180.844	16.9
181.064	-3.58
181.283	4.61
181.503	-9.73
181.723	33.28
181.943	-26.11
182.163	25.09
182.383	-38.4
182.602	98.81
182.822	86.53
183.042	41.47
183.262	20.99
183.482	-11.78
183.701	84.48
183.921	51.71
184.141	16.9
184.361	53.76
184.58	33.28
184.8	23.04
185.02	-28.16
185.239	66.05
185.459	18.94
185.679	100.86
185.898	53.76
186.118	64
186.338	-5.63
186.557	55.81
186.777	23.04
186.997	104.96
187.216	74.24
187.436	96.77
187.655	43.52
187.875	78.33
188.095	-22.02
188.314	31.23
188.534	25.09
188.753	-5.63
188.973	86.53
189.192	119.29
189.412	84.48
189.631	-34.3
189.851	-5.63
190.07	72.19
190.29	16.9
190.509	61.95
190.729	18.94
190.948	121.34
191.168	80.38
191.387	96.77
191.607	16.9
191.826	61.95
192.045	23.04
192.265	41.47
192.484	33.28
192.704	61.95
192.923	49.66
193.142	78.33
193.362	6.66
193.581	59.9
193.8	33.28
194.02	66.05
194.239	29.18
194.458	78.33
194.678	51.71
194.897	47.62
195.116	119.29
195.335	86.53
195.555	47.62
195.774	59.9
195.993	76.29
196.212	-13.82
196.432	20.99
196.651	86.53
196.87	-15.87
197.089	111.1
197.308	4.61
197.528	78.33
197.747	-83.45
197.966	-3.58
198.185	72.19
198.404	27.14
198.623	45.57
198.842	160.25
199.062	29.18
199.281	102.91
199.5	59.9
199.719	-3.58
199.938	33.28
200.157	96.77
200.376	55.81
200.595	8.7
200.814	72.19
201.033	18.94
201.252	70.14
201.471	41.47
201.69	80.38
201.909	70.14
202.128	115.2
202.347	29.18
202.566	6.66
202.785	35.33
203.004	20.99
203.223	131.58
203.442	20.99
203.661	12.8
203.879	37.38
204.098	61.95
204.317	4.61
204.536	0.51
204.755	94.72
204.974	27.14
205.193	25.09
205.411	147.97
205.63	35.33
205.849	6.66
206.068	33.28
206.287	25.09
206.505	64
206.724	20.99
206.943	88.57
207.162	51.71
207.381	98.81
207.599	61.95
207.818	8.7
208.037	37.38
208.255	131.58
208.474	18.94
208.693	41.47
208.911	-11.78
209.13	31.23
209.349	49.66
209.567	53.76
209.786	25.09
210.005	61.95
210.223	25.09
210.442	64
210.661	74.24
210.879	59.9
211.098	90.62
211.316	23.04
211.535	84.48
211.753	45.57
211.972	64
212.191	51.71
212.409	94.72
212.628	84.48
212.846	-9.73
213.065	74.24
213.283	182.78
213.502	57.86
213.72	-11.78
213.938	115.2
214.157	123.39
214.375	39.42
214.594	-15.87
214.812	41.47
215.031	16.9
215.249	29.18
215.467	2.56
215.686	133.63
215.904	98.81
216.122	-28.16
216.341	64
216.559	-11.78
216.778	137.73
216.996	90.62
217.214	113.15
217.432	57.86
217.651	12.8
217.869	74.24
218.087	47.62
218.306	-75.26
218.524	107.01
218.742	12.8
218.96	78.33
219.179	-17.92
219.397	78.33
219.615	39.42
219.833	6.66
220.051	100.86
220.27	31.23
220.488	68.09
220.706	64
220.924	68.09
221.142	96.77
221.36	33.28
221.578	39.42
221.796	43.52
222.015	41.47
222.233	82.43
222.451	27.14
222.669	6.66
222.887	39.42
223.105	29.18
223.323	6.66
223.541	72.19
223.759	76.29
223.977	20.99
224.195	74.24
224.413	102.91
224.631	-13.82
224.849	-28.16
225.067	-19.97
225.285	-11.78
225.503	111.1
225.721	10.75
225.939	18.94
226.157	-69.12
226.375	100.86
226.592	-30.21
226.81	33.28
227.028	53.76
227.246	-17.92
227.464	8.7
227.682	86.53
227.9	55.81
228.117	139.77
228.335	8.7
228.553	86.53
228.771	109.05
228.989	96.77
229.206	23.04
229.424	35.33
229.642	4.61
229.86	2.56
230.077	23.04
230.295	23.04
230.513	39.42
230.731	160.25
230.948	45.57
231.166	57.86
231.384	68.09
231.601	80.38
231.819	88.57
232.037	74.24
232.254	29.18
232.472	23.04
232.689	23.04
232.907	25.09
233.125	29.18
233.342	47.62
233.56	-73.21
233.777	-17.92
233.995	121.34
234.213	119.29
234.43	86.53
234.648	90.62
234.865	102.91
235.083	90.62
235.3	90.62
235.518	18.94
235.735	61.95
235.953	86.53
236.17	78.33
236.388	94.72
236.605	53.76
236.822	92.67
237.04	51.71
237.257	43.52
237.475	25.09
237.692	96.77
237.909	53.76
238.127	37.38
238.344	55.81
238.562	49.66
238.779	41.47
238.996	4.61
239.214	14.85
239.431	96.77
239.648	8.7
239.865	31.23
240.083	0.51
240.3	78.33
240.517	37.38
240.735	41.47
240.952	55.81
241.169	66.05
241.386	94.72
241.603	27.14
241.821	74.24
242.038	84.48
242.255	78.33
242.472	-42.5
242.689	41.47
242.907	170.49
243.124	86.53
243.341	49.66
243.558	47.62
243.775	29.18
243.992	47.62
244.209	104.96
244.426	80.38
244.643	88.57
244.86	45.57
245.078	39.42
245.295	86.53
245.512	68.09
245.729	43.52
245.946	39.42
246.163	27.14
246.38	100.86
246.597	88.57
246.814	70.14
247.031	53.76
247.248	70.14
247.464	47.62
247.681	55.81
247.898	92.67
248.115	20.99
248.332	-67.07
248.549	45.57
248.766	98.81
248.983	47.62
249.2	74.24
249.417	72.19
249.633	37.38
249.85	66.05
250.067	20.99
250.284	66.05
250.501	109.05
250.717	41.47
250.934	-52.74
251.151	8.7
251.368	27.14
251.585	49.66
251.801	123.39
252.018	37.38
252.235	137.73
252.451	84.48
252.668	-1.54
252.885	-5.63
253.102	-38.4
253.318	-9.73
253.535	-30.21
253.752	20.99
253.968	37.38
254.185	37.38
254.401	66.05
254.618	115.2
254.835	-52.74
255.051	152.06
255.268	96.77
255.484	14.85
255.701	64
255.917	160.25
256.134	70.14
256.351	41.47
256.567	-19.97
256.784	119.29
257	-28.16
257.217	121.34
257.433	74.24
257.65	49.66
257.866	88.57
258.082	45.57
258.299	14.85
258.515	64
258.732	57.86
258.948	12.8
259.165	8.7
259.381	37.38
259.597	47.62
259.814	66.05
260.03	8.7
260.246	-19.97
260.463	53.76
260.679	31.23
260.895	12.8
261.112	107.01
261.328	-44.54
261.544	-11.78
261.761	82.43
261.977	-19.97
262.193	-7.68
262.409	8.7
262.626	78.33
262.842	61.95
263.058	33.28
263.274	111.1
263.49	90.62
263.707	64
263.923	2.56
264.139	10.75
264.355	59.9
264.571	90.62
264.787	20.99
265.004	72.19
265.22	18.94
265.436	41.47
265.652	37.38
265.868	158.21
266.084	39.42
266.3	76.29
266.516	72.19
266.732	39.42
266.948	57.86
267.164	107.01
267.38	92.67
267.596	66.05
267.812	102.91
268.028	88.57
268.244	45.57
268.46	-19.97
268.676	-22.02
268.892	-54.78
269.108	-38.4
269.324	-22.02
269.54	-3.58
269.756	133.63
269.972	6.66
270.188	35.33
270.403	33.28
270.619	0.51
270.835	37.38
271.051	61.95
271.267	-24.06
271.483	129.53
271.698	84.48
271.914	76.29
272.13	45.57
272.346	61.95
272.562	29.18
272.777	84.48
272.993	12.8
273.209	53.76
273.425	31.23
273.64	8.7
273.856	100.86
274.072	64
274.287	70.14
274.503	76.29
274.719	68.09
274.934	72.19
275.15	-30.21
275.366	57.86
275.581	-44.54
275.797	18.94
276.012	31.23
276.228	-32.26
276.444	-3.58
276.659	49.66
276.875	-1.54
277.09	92.67
277.306	49.66
277.521	64
277.737	35.33
277.952	119.29
278.168	94.72
278.383	47.62
278.599	-3.58
278.814	-30.21
279.03	23.04
279.245	78.33
279.461	-17.92
279.676	27.14
279.892	-1.54
280.107	80.38
280.322	12.8
280.538	33.28
280.753	49.66
280.969	29.18
281.184	72.19
281.399	64
281.615	25.09
281.83	107.01
282.045	70.14
282.26	53.76
282.476	25.09
282.691	45.57
282.906	41.47
283.122	4.61
283.337	70.14
283.552	39.42
283.767	31.23
283.983	139.77
284.198	41.47
284.413	35.33
284.628	4.61
284.843	8.7
285.058	86.53
285.274	29.18
285.489	4.61
285.704	12.8
285.919	39.42
286.134	70.14
286.349	96.77
286.564	86.53
286.779	80.38
286.995	41.47
287.21	-28.16
287.425	47.62
287.64	-30.21
287.855	29.18
288.07	64
288.285	33.28
288.5	102.91
288.715	131.58
288.93	51.71
289.145	43.52
289.36	31.23
289.575	72.19
289.79	78.33
290.004	8.7
290.219	70.14
290.434	45.57
290.649	74.24
290.864	-50.69
291.079	-15.87
291.294	82.43
291.509	20.99
291.724	-15.87
291.938	-38.4
292.153	131.58
292.368	-15.87
292.583	39.42
292.798	74.24
293.012	-46.59
293.227	37.38
293.442	23.04
293.657	35.33
293.871	47.62
294.086	-1.54
294.301	115.2
294.516	57.86
294.73	47.62
294.945	12.8
295.16	57.86
295.374	64
295.589	41.47
295.804	10.75
296.018	49.66
296.233	66.05
296.447	31.23
296.662	18.94
296.877	166.4
297.091	37.38
297.306	104.96
297.52	20.99
297.735	35.33
297.949	45.57
298.164	53.76
298.378	-7.68
298.593	14.85
298.807	39.42
299.022	-5.63
299.236	113.15
299.451	100.86
299.665	-22.02
299.88	84.48
300.094	66.05
300.309	55.81
300.523	72.19
300.737	96.77
300.952	57.86
301.166	94.72
301.381	80.38
301.595	-11.78
301.809	37.38
302.024	18.94
302.238	35.33
302.452	90.62
302.667	31.23
302.881	6.66
303.095	14.85
303.309	18.94
303.524	37.38
303.738	53.76
303.952	29.18
304.166	135.68
304.381	6.66
304.595	61.95
304.809	47.62
305.023	88.57
305.237	76.29
305.452	119.29
305.666	49.66
305.88	61.95
306.094	45.57
306.308	47.62
306.522	70.14
306.736	78.33
306.95	14.85
307.164	59.9
307.379	31.23
307.593	80.38
307.807	37.38
308.021	84.48
308.235	70.14
308.449	16.9
308.663	27.14
308.877	96.77
309.091	43.52
309.305	121.34
309.519	-11.78
309.733	66.05
309.947	51.71
310.161	20.99
310.374	55.81
310.588	4.61
310.802	43.52
311.016	-9.73
311.23	33.28
311.444	78.33
311.658	80.38
311.872	-1.54
312.085	72.19
312.299	88.57
312.513	43.52
312.727	6.66
312.941	66.05
313.154	2.56
313.368	51.71
313.582	20.99
313.796	27.14
314.009	31.23
314.223	37.38
314.437	96.77
314.651	86.53
314.864	45.57
315.078	74.24
315.292	-58.88
315.505	4.61
315.719	82.43
315.933	-11.78
316.146	80.38
316.36	-52.74
316.573	61.95
316.787	107.01
317.001	82.43
317.214	27.14
317.428	12.8
317.641	80.38
317.855	102.91
318.068	64
318.282	45.57
318.495	6.66
318.709	53.76
318.922	29.18
319.136	51.71
319.349	86.53
319.563	2.56
319.776	43.52
319.99	49.66
320.203	70.14
320.417	-5.63
320.63	94.72
320.843	96.77
321.057	49.66
321.27	37.38
321.483	72.19
321.697	37.38
321.91	92.67
322.124	88.57
322.337	66.05
322.55	-28.16
322.763	84.48
322.977	4.61
323.19	80.38
323.403	66.05
323.617	96.77
323.83	20.99
324.043	39.42
324.256	14.85
324.469	4.61
324.683	70.14
324.896	37.38
325.109	102.91
325.322	18.94
325.535	82.43
325.748	29.18
325.962	45.57
326.175	70.14
326.388	-13.82
326.601	55.81
326.814	61.95
327.027	12.8
327.24	147.97
327.453	8.7
327.666	139.77
327.879	45.57
328.092	33.28
328.305	74.24
328.518	92.67
328.731	39.42
328.944	111.1
329.157	94.72
329.37	45.57
329.583	86.53
329.796	64
330.009	12.8
330.222	43.52
330.435	53.76
330.648	57.86
330.861	45.57
331.073	80.38
331.286	23.04
331.499	92.67
331.712	8.7
331.925	-1.54
332.138	4.61
332.35	53.76
332.563	111.1
332.776	41.47
332.989	57.86
333.202	23.04
333.414	-13.82
333.627	41.47
333.84	29.18
334.053	43.52
334.265	4.61
334.478	29.18
334.691	39.42
334.903	16.9
335.116	66.05
335.329	37.38
335.541	121.34
335.754	86.53
335.966	43.52
336.179	80.38
336.392	59.9
336.604	43.52
336.817	49.66
337.029	59.9
337.242	23.04
337.454	37.38
337.667	66.05
337.88	123.39
338.092	201.21
338.305	45.57
338.517	37.38
338.729	66.05
338.942	66.05
339.154	53.76
339.367	104.96
339.579	80.38
339.792	61.95
340.004	141.82
340.217	-13.82
340.429	41.47
340.641	12.8
340.854	61.95
341.066	20.99
341.278	57.86
341.491	59.9
341.703	47.62
341.915	133.63
342.128	72.19
342.34	53.76
342.552	37.38
342.764	86.53
342.977	29.18
343.189	107.01
343.401	-5.63
343.613	31.23
343.826	41.47
344.038	49.66
344.25	113.15
344.462	20.99
344.674	72.19
344.886	96.77
345.099	76.29
345.311	4.61
345.523	107.01
345.735	61.95
345.947	68.09
346.159	80.38
346.371	37.38
346.583	61.95
346.795	70.14
347.007	27.14
347.219	31.23
347.431	92.67
347.643	37.38
347.855	39.42
348.067	8.7
348.279	80.38
348.491	37.38
348.703	61.95
348.915	94.72
349.127	74.24
349.339	35.33
349.551	29.18
349.763	107.01
349.975	45.57
350.187	94.72
350.399	76.29
350.61	68.09
350.822	113.15
351.034	55.81
351.246	18.94
351.458	45.57
351.669	31.23
351.881	90.62
352.093	18.94
352.305	41.47
352.517	102.91
352.728	184.83
352.94	2.56
353.152	6.66
353.363	-42.5
353.575	43.52
353.787	96.77
353.999	49.66
354.21	70.14
354.422	31.23
354.633	12.8
354.845	107.01
355.057	53.76
355.268	23.04
355.48	80.38
355.692	55.81
355.903	-1.54
356.115	70.14
356.326	88.57
356.538	123.39
356.749	94.72
356.961	80.38
357.172	23.04
357.384	16.9
357.595	12.8
357.807	-1.54
358.018	37.38
358.23	27.14
358.441	133.63
358.653	70.14
358.864	-9.73
359.075	47.62
359.287	92.67
359.498	90.62
359.709	139.77
359.921	66.05
360.132	55.81
360.344	72.19
360.555	47.62
360.766	78.33
360.977	0.51
361.189	64
361.4	74.24
361.611	-15.87
361.823	68.09
362.034	80.38
362.245	74.24
362.456	18.94
362.667	94.72
362.879	61.95
363.09	-11.78
363.301	45.57
363.512	2.56
363.723	29.18
363.935	92.67
364.146	80.38
364.357	47.62
364.568	90.62
364.779	31.23
364.99	94.72
365.201	111.1
365.412	20.99
365.623	29.18
365.834	66.05
366.045	90.62
366.256	72.19
366.467	29.18
366.678	74.24
366.889	113.15
367.1	53.76
367.311	64
367.522	80.38
367.733	55.81
367.944	59.9
368.155	2.56
368.366	23.04
368.577	129.53
368.788	135.68
368.999	18.94
369.209	49.66
369.42	74.24
369.631	123.39
369.842	121.34
370.053	111.1
370.264	127.49
370.474	31.23
370.685	119.29
370.896	115.2
371.107	90.62
371.317	18.94
371.528	51.71
371.739	76.29
371.95	59.9
372.16	45.57
372.371	-26.11
372.582	23.04
372.792	27.14
373.003	57.86
373.214	92.67
373.424	92.67
373.635	76.29
373.846	102.91
374.056	27.14
374.267	16.9
374.477	16.9
374.688	51.71
374.898	61.95
375.109	70.14
375.319	57.86
375.53	115.2
375.74	111.1
375.951	88.57
376.161	39.42
376.372	78.33
376.582	70.14
376.793	88.57
377.003	76.29
377.214	104.96
377.424	47.62
377.635	49.66
377.845	74.24
378.055	94.72
378.266	-13.82
378.476	70.14
378.686	29.18
378.897	135.68
379.107	64
379.317	143.87
379.528	20.99
379.738	86.53
379.948	135.68
380.158	176.64
380.369	59.9
380.579	68.09
380.789	78.33
380.999	94.72
381.21	23.04
381.42	164.35
381.63	70.14
381.84	33.28
382.05	86.53
382.261	92.67
382.471	68.09
382.681	96.77
382.891	74.24
383.101	119.29
383.311	16.9
383.521	64
383.731	104.96
383.941	111.1
384.151	102.91
384.361	68.09
384.571	-1.54
384.781	59.9
384.991	190.97
385.201	104.96
385.411	86.53
385.621	121.34
385.831	53.76
386.041	107.01
386.251	115.2
386.461	29.18
386.671	-28.16
386.881	90.62
387.091	92.67
387.301	104.96
387.511	12.8
387.72	39.42
387.93	57.86
388.14	-26.11
388.35	29.18
388.56	39.42
388.769	45.57
388.979	131.58
389.189	37.38
389.399	37.38
389.609	41.47
389.818	68.09
390.028	57.86
390.238	64
390.447	119.29
390.657	25.09
390.867	37.38
391.076	35.33
391.286	107.01
391.496	84.48
391.705	72.19
391.915	121.34
392.125	135.68
392.334	102.91
392.544	141.82
392.753	64
392.963	100.86
393.172	86.53
393.382	115.2
393.591	86.53
393.801	121.34
394.01	143.87
394.22	31.23
394.429	41.47
394.639	57.86
394.848	70.14
395.058	96.77
395.267	37.38
395.477	139.77
395.686	88.57
395.895	90.62
396.105	158.21
396.314	47.62
396.524	100.86
396.733	123.39
396.942	20.99
397.152	100.86
397.361	102.91
397.57	45.57
397.78	125.44
397.989	113.15
398.198	160.25
398.407	64
398.617	39.42
398.826	51.71
399.035	139.77
399.244	178.69
399.453	102.91
399.663	104.96
399.872	49.66
400.081	109.05
400.29	39.42
400.499	-19.97
400.708	111.1
400.917	119.29
401.127	20.99
401.336	64
401.545	139.77
401.754	111.1
401.963	53.76
402.172	125.44
402.381	121.34
402.59	84.48
402.799	119.29
403.008	180.73
403.217	152.06
403.426	100.86
403.635	111.1
403.844	84.48
404.053	123.39
404.262	57.86
404.471	178.69
404.68	92.67
404.888	152.06
405.097	143.87
405.306	139.77
405.515	107.01
405.724	154.11
405.933	168.45
406.142	113.15
406.35	168.45
406.559	156.16
406.768	121.34
406.977	225.79
407.185	137.73
407.394	203.26
407.603	111.1
407.812	182.78
408.02	209.4
408.229	195.07
408.438	227.84
408.646	158.21
408.855	231.93
409.064	219.64
409.272	205.31
409.481	276.99
409.69	246.27
409.898	188.93
410.107	242.17
410.315	240.12
410.524	260.6
410.733	297.47
410.941	201.21
411.15	281.08
411.358	295.42
411.567	430.59
411.775	305.66
411.984	416.25
412.192	322.04
412.401	348.67
412.609	397.82
412.818	342.52
413.026	449.02
413.234	442.87
413.443	360.95
413.651	496.12
413.86	438.78
414.068	496.12
414.276	475.64
414.485	440.83
414.693	455.16
414.901	553.46
415.11	612.85
415.318	555.51
415.526	487.93
415.734	676.34
415.943	614.9
416.151	684.53
416.359	653.81
416.567	666.1
416.776	748.02
416.984	686.58
417.192	770.55
417.4	786.93
417.608	717.3
417.817	907.76
418.025	825.84
418.233	909.81
418.441	897.52
418.649	926.19
418.857	901.62
419.065	911.86
419.273	922.1
419.481	1022.45
419.689	1110.51
419.897	1040.88
420.105	1051.12
420.313	1235.44
420.521	1100.27
420.729	1303.02
420.937	1237.49
421.145	1364.46
421.353	1335.79
421.561	1423.85
421.769	1501.67
421.977	1528.3
422.185	1507.82
422.393	1602.02
422.601	1671.65
422.809	1739.24
423.017	1647.08
423.224	1847.78
423.432	1941.99
423.64	1835.49
423.848	2083.3
424.056	1970.66
424.263	2025.95
424.471	2095.58
424.679	2171.36
424.887	2259.42
425.094	2384.35
425.302	2306.52
425.51	2378.2
425.718	2462.17
425.925	2472.41
426.133	2683.35
426.341	2859.48
426.548	2922.96
426.756	2963.92
426.964	2699.73
427.171	2996.69
427.379	3060.18
427.586	3138
427.794	3289.55
428.001	3486.15
428.209	3430.86
428.417	3639.75
428.624	3805.64
428.832	3822.02
429.039	3635.66
429.247	3819.97
429.454	4118.98
429.662	4485.56
429.869	4096.45
430.076	4422.08
430.284	4329.92
430.491	4510.14
430.699	4733.37
430.906	4567.48
431.114	4678.07
431.321	5175.73
431.528	4936.12
431.736	5386.67
431.943	5624.23
432.15	5392.81
432.358	5476.78
432.565	5695.91
432.772	5716.39
432.979	6164.9
433.187	6199.71
433.394	6205.86
433.601	6680.99
433.808	6715.8
434.016	6515.1
434.223	6664.6
434.43	7246.23
434.637	7174.55
434.844	7621
435.052	7854.47
435.259	7803.27
435.466	7704.97
435.673	7750.03
435.88	8231.3
436.087	8728.95
436.294	8714.62
436.501	8475.01
436.708	8622.46
436.915	8853.88
437.122	9306.48
437.329	9359.73
437.537	9683.31
437.743	9738.6
437.95	9564.53
438.157	10082.66
438.364	10445.15
438.571	10316.13
438.778	10445.15
438.985	11469.14
439.192	10981.72
439.399	11299.16
439.606	11184.47
439.813	11782.48
440.02	12462.4
440.227	12294.47
440.433	12218.69
440.64	12599.62
440.847	12484.93
441.054	12794.17
441.261	13635.89
441.467	13615.41
441.674	13834.54
441.881	14088.49
442.088	14317.86
442.294	14190.89
442.501	14745.89
442.708	14508.32
442.914	15520.02
443.121	16181.51
443.328	15468.82
443.534	16787.71
443.741	16093.45
443.948	15962.38
444.154	17195.26
444.361	17350.9
444.568	17268.98
444.774	17082.62
444.981	17348.86
445.187	17832.18
445.394	18774.24
445.6	18524.39
445.807	20140.24
446.013	19267.8
446.22	19642.58
446.426	20527.3
446.633	20709.57
446.839	21534.9
447.046	20525.25
447.252	21874.87
447.459	22073.52
447.665	21952.69
447.871	22661.29
448.078	23752.85
448.284	22622.37
448.491	23230.62
448.697	23971.99
448.903	24645.77
449.11	24387.72
449.316	24219.79
449.522	24651.91
449.728	25342.08
449.935	25618.55
450.141	25673.85
450.347	25903.22
450.553	25362.56
450.76	25690.23
450.966	26501.23
451.172	26148.98
451.378	26972.26
451.584	26421.36
451.791	26925.16
451.997	26871.91
452.203	27359.33
452.409	27297.89
452.615	27687
452.821	26425.45
453.027	26005.62
453.233	27385.95
453.44	26640.49
453.646	26888.29
453.852	26812.52
454.058	27275.36
454.264	26173.55
454.47	27177.06
454.676	26179.7
454.882	26955.88
455.088	24762.5
455.294	25669.75
455.5	25663.61
455.705	25827.45
455.911	25014.4
456.117	24582.28
456.323	24230.03
456.529	22882.47
456.735	24109.2
456.941	23414.94
457.147	22935.71
457.352	22446.25
457.558	22098.09
457.764	22352.04
457.97	21684.41
458.176	21307.58
458.381	21215.42
458.587	20113.61
458.793	20195.53
458.999	19224.79
459.204	20508.87
459.41	19816.66
459.616	18751.71
459.821	18614.5
460.027	18436.33
460.233	18184.43
460.438	17492.21
460.644	17471.73
460.85	16818.43
461.055	16490.76
461.261	16355.59
461.466	15214.87
461.672	14719.26
461.878	15675.66
462.083	14846.24
462.289	14391.59
462.494	14192.94
462.7	13740.33
462.905	13261.11
463.111	13537.59
463.316	13488.43
463.522	13369.65
463.727	13345.08
463.932	13611.31
464.138	13623.6
464.343	13416.76
464.549	13263.16
464.754	13365.56
464.959	13234.49
465.165	13209.91
465.37	12742.97
465.575	12163.4
465.781	12808.51
465.986	13025.59
466.191	12476.74
466.397	12239.17
466.602	11587.92
466.807	12163.4
467.012	11866.44
467.218	12020.04
467.423	11655.5
467.628	12046.66
467.833	12198.21
468.038	11798.86
468.244	11594.06
