Data from USB4F104151__20__13-10-32-505.txt Node

Date: Fri Mar 14 13:10:32 EDT 2025
User: louis
Spectrometer: USB4F10415
Trigger mode: 4
Integration Time (sec): 2.000000E-2
Scans to average: 1
Electric dark correction enabled: true
Nonlinearity correction enabled: false
Boxcar width: 0
XAxis mode: Wavelengths
Number of Pixels in Spectrum: 3648
>>>>>Begin Spectral Data<<<<<
178.204	-56.15
178.424	-56.15
178.644	-56.15
178.864	-111.44
179.084	-156.5
179.304	-60.24
179.524	-27.48
179.744	17.58
179.964	25.77
180.184	5.29
180.404	-27.48
180.624	33.96
180.844	11.43
181.064	7.34
181.283	-4.95
181.503	17.58
181.723	1.19
181.943	-43.86
182.163	148.65
182.383	-11.09
182.602	-39.76
182.822	74.92
183.042	19.63
183.262	60.59
183.482	60.59
183.701	48.3
183.921	48.3
184.141	-86.87
184.361	3.24
184.58	-29.52
184.8	-27.48
185.02	-31.57
185.239	17.58
185.459	-29.52
185.679	-9.05
185.898	-21.33
186.118	70.83
186.338	-4.95
186.557	36.01
186.777	38.06
186.997	-4.95
187.216	13.48
187.436	64.68
187.655	83.11
187.875	-88.92
188.095	-62.29
188.314	5.29
188.534	70.83
188.753	95.4
188.973	-7
189.192	-4.95
189.412	7.34
189.631	74.92
189.851	27.82
190.07	3.24
190.29	-88.92
190.509	-15.19
190.729	68.78
190.948	19.63
191.168	74.92
191.387	13.48
191.607	-74.58
191.826	-45.91
192.045	23.72
192.265	-21.33
192.484	17.58
192.704	-7
192.923	-27.48
193.142	103.59
193.362	21.67
193.581	107.69
193.8	-9.05
194.02	25.77
194.239	9.39
194.458	19.63
194.678	-13.14
194.897	-29.52
195.116	95.4
195.335	50.35
195.555	21.67
195.774	42.15
195.993	-27.48
196.212	50.35
196.432	-52.05
196.651	1.19
196.87	-7
197.089	44.2
197.308	38.06
197.528	1.19
197.747	-9.05
197.966	60.59
198.185	48.3
198.404	-4.95
198.623	58.54
198.842	66.73
199.062	31.91
199.281	44.2
199.5	70.83
199.719	17.58
199.938	3.24
200.157	31.91
200.376	17.58
200.595	-29.52
200.814	46.25
201.033	-64.34
201.252	38.06
201.471	-21.33
201.69	91.31
201.909	38.06
202.128	27.82
202.347	11.43
202.566	-13.14
202.785	58.54
203.004	83.11
203.223	21.67
203.442	7.34
203.661	111.78
203.879	74.92
204.098	15.53
204.317	-29.52
204.536	74.92
204.755	44.2
204.974	25.77
205.193	13.48
205.411	91.31
205.63	48.3
205.849	38.06
206.068	79.02
206.287	81.07
206.505	-13.14
206.724	50.35
206.943	29.87
207.162	11.43
207.381	38.06
207.599	-15.19
207.818	56.49
208.037	-4.95
208.255	-72.53
208.474	50.35
208.693	38.06
208.911	-45.91
209.13	23.72
209.349	44.2
209.567	3.24
209.786	9.39
210.005	38.06
210.223	58.54
210.442	33.96
210.661	97.45
210.879	38.06
211.098	38.06
211.316	29.87
211.535	13.48
211.753	23.72
211.972	15.53
212.191	5.29
212.409	58.54
212.628	-11.09
212.846	-2.9
213.065	25.77
213.283	54.44
213.502	27.82
213.72	23.72
213.938	25.77
214.157	1.19
214.375	48.3
214.594	122.02
214.812	15.53
215.031	50.35
215.249	13.48
215.467	3.24
215.686	-2.9
215.904	25.77
216.122	-17.24
216.341	44.2
216.559	-2.9
216.778	68.78
216.996	44.2
217.214	15.53
217.432	79.02
217.651	-31.57
217.869	-39.76
218.087	50.35
218.306	-74.58
218.524	27.82
218.742	21.67
218.96	9.39
219.179	7.34
219.397	25.77
219.615	95.4
219.833	64.68
220.051	3.24
220.27	117.93
220.488	-11.09
220.706	68.78
220.924	33.96
221.142	62.63
221.36	19.63
221.578	25.77
221.796	-17.24
222.015	83.11
222.233	-13.14
222.451	68.78
222.669	36.01
222.887	23.72
223.105	17.58
223.323	27.82
223.541	-70.48
223.759	19.63
223.977	-17.24
224.195	25.77
224.413	19.63
224.631	48.3
224.849	44.2
225.067	29.87
225.285	-7
225.503	46.25
225.721	48.3
225.939	-15.19
226.157	19.63
226.375	66.73
226.592	-33.62
226.81	64.68
227.028	54.44
227.246	62.63
227.464	-47.96
227.682	48.3
227.9	-19.29
228.117	33.96
228.335	33.96
228.553	3.24
228.771	54.44
228.989	-37.72
229.206	95.4
229.424	68.78
229.642	60.59
229.86	-41.81
230.077	81.07
230.295	52.39
230.513	17.58
230.731	17.58
230.948	48.3
231.166	58.54
231.384	-19.29
231.601	-43.86
231.819	5.29
232.037	72.87
232.254	-56.15
232.472	31.91
232.689	-50
232.907	-23.38
233.125	-0.85
233.342	33.96
233.56	3.24
233.777	3.24
233.995	13.48
234.213	93.35
234.43	27.82
234.648	48.3
234.865	-13.14
235.083	9.39
235.3	-7
235.518	72.87
235.735	25.77
235.953	11.43
236.17	87.21
236.388	-64.34
236.605	-15.19
236.822	21.67
237.04	27.82
237.257	83.11
237.475	-17.24
237.692	-50
237.909	56.49
238.127	79.02
238.344	50.35
238.562	-84.82
238.779	-33.62
238.996	-56.15
239.214	23.72
239.431	38.06
239.648	50.35
239.865	13.48
240.083	81.07
240.3	-37.72
240.517	-101.2
240.735	48.3
240.952	3.24
241.169	-45.91
241.386	-4.95
241.603	-33.62
241.821	7.34
242.038	27.82
242.255	21.67
242.472	-31.57
242.689	62.63
242.907	36.01
243.124	-13.14
243.341	29.87
243.558	60.59
243.775	1.19
243.992	-21.33
244.209	17.58
244.426	70.83
244.643	44.2
244.86	-45.91
245.078	17.58
245.295	76.97
245.512	76.97
245.729	-99.16
245.946	-23.38
246.163	19.63
246.38	87.21
246.597	79.02
246.814	62.63
247.031	27.82
247.248	17.58
247.464	9.39
247.681	91.31
247.898	79.02
248.115	107.69
248.332	1.19
248.549	119.98
248.766	54.44
248.983	33.96
249.2	103.59
249.417	76.97
249.633	38.06
249.85	33.96
250.067	29.87
250.284	-7
250.501	3.24
250.717	27.82
250.934	1.19
251.151	74.92
251.368	72.87
251.585	60.59
251.801	15.53
252.018	-56.15
252.235	58.54
252.451	52.39
252.668	-31.57
252.885	74.92
253.102	40.11
253.318	-25.43
253.535	25.77
253.752	17.58
253.968	-35.67
254.185	52.39
254.401	81.07
254.618	62.63
254.835	11.43
255.051	83.11
255.268	89.26
255.484	1.19
255.701	-33.62
255.917	62.63
256.134	21.67
256.351	-19.29
256.567	-54.1
256.784	103.59
257	33.96
257.217	56.49
257.433	1.19
257.65	95.4
257.866	79.02
258.082	3.24
258.299	25.77
258.515	58.54
258.732	-23.38
258.948	5.29
259.165	31.91
259.381	21.67
259.597	3.24
259.814	19.63
260.03	56.49
260.246	31.91
260.463	54.44
260.679	52.39
260.895	33.96
261.112	1.19
261.328	15.53
261.544	9.39
261.761	107.69
261.977	-31.57
262.193	1.19
262.409	79.02
262.626	54.44
262.842	-19.29
263.058	-4.95
263.274	42.15
263.49	36.01
263.707	19.63
263.923	23.72
264.139	-35.67
264.355	15.53
264.571	15.53
264.787	44.2
265.004	9.39
265.22	-11.09
265.436	38.06
265.652	1.19
265.868	3.24
266.084	40.11
266.3	11.43
266.516	-23.38
266.732	-15.19
266.948	31.91
267.164	3.24
267.38	15.53
267.596	1.19
267.812	91.31
268.028	-4.95
268.244	68.78
268.46	29.87
268.676	-52.05
268.892	9.39
269.108	36.01
269.324	58.54
269.54	-62.29
269.756	46.25
269.972	46.25
270.188	25.77
270.403	-2.9
270.619	54.44
270.835	3.24
271.051	1.19
271.267	27.82
271.483	9.39
271.698	33.96
271.914	-21.33
272.13	9.39
272.346	58.54
272.562	3.24
272.777	52.39
272.993	31.91
273.209	-21.33
273.425	23.72
273.64	25.77
273.856	91.31
274.072	33.96
274.287	42.15
274.503	52.39
274.719	-17.24
274.934	15.53
275.15	-21.33
275.366	48.3
275.581	5.29
275.797	38.06
276.012	50.35
276.228	-31.57
276.444	-2.9
276.659	81.07
276.875	-37.72
277.09	17.58
277.306	25.77
277.521	21.67
277.737	31.91
277.952	81.07
278.168	33.96
278.383	70.83
278.599	-7
278.814	25.77
279.03	54.44
279.245	76.97
279.461	40.11
279.676	128.17
279.892	-11.09
280.107	-15.19
280.322	15.53
280.538	1.19
280.753	3.24
280.969	9.39
281.184	7.34
281.399	-2.9
281.615	27.82
281.83	54.44
282.045	50.35
282.26	1.19
282.476	-21.33
282.691	21.67
282.906	-33.62
283.122	36.01
283.337	-27.48
283.552	9.39
283.767	-35.67
283.983	15.53
284.198	58.54
284.413	23.72
284.628	-7
284.843	33.96
285.058	40.11
285.274	-4.95
285.489	-58.2
285.704	-21.33
285.919	21.67
286.134	17.58
286.349	-45.91
286.564	76.97
286.779	-17.24
286.995	13.48
287.21	-2.9
287.425	58.54
287.64	-4.95
287.855	-0.85
288.07	50.35
288.285	83.11
288.5	9.39
288.715	68.78
288.93	-19.29
289.145	11.43
289.36	68.78
289.575	42.15
289.79	15.53
290.004	17.58
290.219	13.48
290.434	-13.14
290.649	11.43
290.864	-0.85
291.079	15.53
291.294	7.34
291.509	-35.67
291.724	36.01
291.938	74.92
292.153	-21.33
292.368	66.73
292.583	58.54
292.798	74.92
293.012	3.24
293.227	21.67
293.442	97.45
293.657	5.29
293.871	130.22
294.086	87.21
294.301	165.03
294.516	-7
294.73	15.53
294.945	19.63
295.16	9.39
295.374	-15.19
295.589	-7
295.804	33.96
296.018	50.35
296.233	-29.52
296.447	23.72
296.662	-37.72
296.877	52.39
297.091	52.39
297.306	48.3
297.52	23.72
297.735	25.77
297.949	60.59
298.164	23.72
298.378	-54.1
298.593	44.2
298.807	27.82
299.022	38.06
299.236	-15.19
299.451	-58.2
299.665	5.29
299.88	50.35
300.094	40.11
300.309	15.53
300.523	-23.38
300.737	27.82
300.952	-84.82
301.166	40.11
301.381	-37.72
301.595	58.54
301.809	36.01
302.024	70.83
302.238	-23.38
302.452	124.07
302.667	17.58
302.881	-19.29
303.095	5.29
303.309	91.31
303.524	-15.19
303.738	52.39
303.952	36.01
304.166	58.54
304.381	-7
304.595	44.2
304.809	-19.29
305.023	70.83
305.237	17.58
305.452	-4.95
305.666	-21.33
305.88	44.2
306.094	62.63
306.308	-13.14
306.522	52.39
306.736	85.16
306.95	36.01
307.164	9.39
307.379	46.25
307.593	132.26
307.807	36.01
308.021	1.19
308.235	-25.43
308.449	3.24
308.663	-29.52
308.877	81.07
309.091	79.02
309.305	76.97
309.519	-39.76
309.733	50.35
309.947	-15.19
310.161	19.63
310.374	81.07
310.588	25.77
310.802	23.72
311.016	50.35
311.23	56.49
311.444	3.24
311.658	33.96
311.872	85.16
312.085	-2.9
312.299	27.82
312.513	64.68
312.727	60.59
312.941	-56.15
313.154	-9.05
313.368	5.29
313.582	-13.14
313.796	-4.95
314.009	19.63
314.223	68.78
314.437	21.67
314.651	17.58
314.864	-82.77
315.078	21.67
315.292	-15.19
315.505	-11.09
315.719	-45.91
315.933	113.83
316.146	11.43
316.36	-31.57
316.573	105.64
316.787	-15.19
317.001	-15.19
317.214	44.2
317.428	74.92
317.641	-19.29
317.855	68.78
318.068	-43.86
318.282	13.48
318.495	9.39
318.709	29.87
318.922	33.96
319.136	42.15
319.349	66.73
319.563	-52.05
319.776	44.2
319.99	-43.86
320.203	-13.14
320.417	25.77
320.63	23.72
320.843	19.63
321.057	36.01
321.27	17.58
321.483	-7
321.697	83.11
321.91	9.39
322.124	-13.14
322.337	-56.15
322.55	19.63
322.763	40.11
322.977	25.77
323.19	-11.09
323.403	-15.19
323.617	-0.85
323.83	93.35
324.043	11.43
324.256	23.72
324.469	-23.38
324.683	60.59
324.896	-60.24
325.109	-31.57
325.322	13.48
325.535	33.96
325.748	19.63
325.962	46.25
326.175	66.73
326.388	132.26
326.601	33.96
326.814	13.48
327.027	52.39
327.24	83.11
327.453	-7
327.666	19.63
327.879	31.91
328.092	103.59
328.305	9.39
328.518	60.59
328.731	58.54
328.944	31.91
329.157	13.48
329.37	1.19
329.583	111.78
329.796	46.25
330.009	44.2
330.222	83.11
330.435	66.73
330.648	29.87
330.861	-19.29
331.073	79.02
331.286	54.44
331.499	99.5
331.712	9.39
331.925	44.2
332.138	-21.33
332.35	130.22
332.563	52.39
332.776	-23.38
332.989	21.67
333.202	-2.9
333.414	13.48
333.627	-23.38
333.84	-19.29
334.053	21.67
334.265	19.63
334.478	36.01
334.691	-15.19
334.903	21.67
335.116	3.24
335.329	44.2
335.541	17.58
335.754	54.44
335.966	-35.67
336.179	83.11
336.392	91.31
336.604	-11.09
336.817	29.87
337.029	66.73
337.242	15.53
337.454	44.2
337.667	-15.19
337.88	-23.38
338.092	38.06
338.305	13.48
338.517	29.87
338.729	52.39
338.942	56.49
339.154	46.25
339.367	29.87
339.579	40.11
339.792	36.01
340.004	9.39
340.217	3.24
340.429	-13.14
340.641	54.44
340.854	46.25
341.066	-47.96
341.278	64.68
341.491	68.78
341.703	50.35
341.915	-45.91
342.128	29.87
342.34	58.54
342.552	9.39
342.764	1.19
342.977	76.97
343.189	44.2
343.401	-29.52
343.613	19.63
343.826	74.92
344.038	52.39
344.25	99.5
344.462	-25.43
344.674	50.35
344.886	58.54
345.099	79.02
345.311	56.49
345.523	23.72
345.735	-11.09
345.947	21.67
346.159	13.48
346.371	50.35
346.583	-35.67
346.795	99.5
347.007	56.49
347.219	40.11
347.431	-0.85
347.643	66.73
347.855	33.96
348.067	107.69
348.279	38.06
348.491	-29.52
348.703	3.24
348.915	66.73
349.127	-21.33
349.339	50.35
349.551	1.19
349.763	44.2
349.975	56.49
350.187	29.87
350.399	25.77
350.61	81.07
350.822	-35.67
351.034	40.11
351.246	-11.09
351.458	50.35
351.669	27.82
351.881	3.24
352.093	19.63
352.305	33.96
352.517	27.82
352.728	48.3
352.94	15.53
353.152	3.24
353.363	-29.52
353.575	29.87
353.787	44.2
353.999	83.11
354.21	-15.19
354.422	58.54
354.633	-7
354.845	21.67
355.057	83.11
355.268	60.59
355.48	66.73
355.692	50.35
355.903	23.72
356.115	19.63
356.326	89.26
356.538	107.69
356.749	119.98
356.961	27.82
357.172	119.98
357.384	-29.52
357.595	87.21
357.807	79.02
358.018	-9.05
358.23	52.39
358.441	72.87
358.653	9.39
358.864	29.87
359.075	-9.05
359.287	70.83
359.498	113.83
359.709	25.77
359.921	9.39
360.132	52.39
360.344	31.91
360.555	-29.52
360.766	21.67
360.977	42.15
361.189	101.55
361.4	17.58
361.611	81.07
361.823	113.83
362.034	66.73
362.245	27.82
362.456	-58.2
362.667	1.19
362.879	58.54
363.09	21.67
363.301	9.39
363.512	70.83
363.723	-31.57
363.935	-39.76
364.146	93.35
364.357	7.34
364.568	36.01
364.779	17.58
364.99	111.78
365.201	33.96
365.412	52.39
365.623	42.15
365.834	27.82
366.045	1.19
366.256	87.21
366.467	33.96
366.678	107.69
366.889	58.54
367.1	27.82
367.311	101.55
367.522	62.63
367.733	52.39
367.944	74.92
368.155	76.97
368.366	11.43
368.577	97.45
368.788	38.06
368.999	-0.85
369.209	64.68
369.42	54.44
369.631	122.02
369.842	13.48
370.053	17.58
370.264	31.91
370.474	21.67
370.685	83.11
370.896	11.43
371.107	33.96
371.317	15.53
371.528	29.87
371.739	83.11
371.95	50.35
372.16	74.92
372.371	-17.24
372.582	-54.1
372.792	9.39
373.003	48.3
373.214	1.19
373.424	54.44
373.635	1.19
373.846	33.96
374.056	50.35
374.267	89.26
374.477	46.25
374.688	-4.95
374.898	-37.72
375.109	29.87
375.319	72.87
375.53	54.44
375.74	81.07
375.951	29.87
376.161	79.02
376.372	87.21
376.582	40.11
376.793	70.83
377.003	50.35
377.214	-0.85
377.424	21.67
377.635	52.39
377.845	105.64
378.055	40.11
378.266	62.63
378.476	-19.29
378.686	1.19
378.897	76.97
379.107	7.34
379.317	50.35
379.528	33.96
379.738	83.11
379.948	81.07
380.158	29.87
380.369	38.06
380.579	25.77
380.789	46.25
380.999	42.15
381.21	27.82
381.42	83.11
381.63	36.01
381.84	101.55
382.05	9.39
382.261	99.5
382.471	76.97
382.681	33.96
382.891	99.5
383.101	42.15
383.311	27.82
383.521	5.29
383.731	74.92
383.941	70.83
384.151	-29.52
384.361	107.69
384.571	64.68
384.781	103.59
384.991	23.72
385.201	23.72
385.411	5.29
385.621	-2.9
385.831	83.11
386.041	68.78
386.251	-9.05
386.461	66.73
386.671	66.73
386.881	1.19
387.091	87.21
387.301	3.24
387.511	85.16
387.72	33.96
387.93	13.48
388.14	54.44
388.35	-2.9
388.56	33.96
388.769	68.78
388.979	11.43
389.189	13.48
389.399	29.87
389.609	66.73
389.818	93.35
390.028	36.01
390.238	76.97
390.447	-0.85
390.657	74.92
390.867	66.73
391.076	46.25
391.286	38.06
391.496	91.31
391.705	31.91
391.915	33.96
392.125	21.67
392.334	29.87
392.544	132.26
392.753	36.01
392.963	5.29
393.172	15.53
393.382	58.54
393.591	124.07
393.801	-7
394.01	-7
394.22	40.11
394.429	64.68
394.639	42.15
394.848	44.2
395.058	85.16
395.267	74.92
395.477	115.88
395.686	107.69
395.895	103.59
396.105	66.73
396.314	68.78
396.524	58.54
396.733	79.02
396.942	107.69
397.152	124.07
397.361	83.11
397.57	17.58
397.78	128.17
397.989	76.97
398.198	158.89
398.407	79.02
398.617	74.92
398.826	70.83
399.035	87.21
399.244	58.54
399.453	52.39
399.663	81.07
399.872	103.59
400.081	58.54
400.29	111.78
400.499	76.97
400.708	111.78
400.917	-23.38
401.127	152.74
401.336	68.78
401.545	99.5
401.754	115.88
401.963	109.74
402.172	87.21
402.381	79.02
402.59	36.01
402.799	183.46
403.008	138.41
403.217	140.46
403.426	76.97
403.635	134.31
403.844	107.69
404.053	146.6
404.262	101.55
404.471	146.6
404.68	148.65
404.888	117.93
405.097	144.55
405.306	136.36
405.515	150.7
405.724	54.44
405.933	111.78
406.142	181.42
406.35	148.65
406.559	119.98
406.768	189.61
406.977	236.71
407.185	191.66
407.394	134.31
407.603	117.93
407.812	212.14
408.02	197.8
408.229	199.85
408.438	238.76
408.646	169.13
408.855	124.07
409.064	228.52
409.272	152.74
409.481	302.25
409.69	238.76
409.898	220.33
410.107	261.29
410.315	271.53
410.524	205.99
410.733	218.28
410.941	283.81
411.15	281.77
411.358	335.01
411.567	263.33
411.775	296.1
411.984	306.34
412.192	400.55
412.401	328.87
412.609	367.78
412.818	418.98
413.026	455.84
413.234	429.22
413.443	394.4
413.651	378.02
413.86	492.71
414.068	500.9
414.276	468.13
414.485	459.94
414.693	609.44
414.901	568.48
415.11	582.82
415.318	615.59
415.526	599.2
415.734	683.17
415.943	621.73
416.151	648.35
416.359	789.66
416.567	732.32
416.776	697.5
416.984	795.81
417.192	816.29
417.4	836.77
417.608	736.42
417.817	910.49
418.025	965.79
418.233	933.02
418.441	1023.13
418.649	926.88
418.857	1002.65
419.065	1000.6
419.273	1029.27
419.481	1084.57
419.689	1160.34
419.897	1248.41
420.105	1211.54
420.313	1305.75
420.521	1279.13
420.729	1332.37
420.937	1402.01
421.145	1459.35
421.353	1492.12
421.561	1574.03
421.769	1623.19
421.977	1627.28
422.185	1709.2
422.393	1821.84
422.601	1827.98
422.809	1778.83
423.017	1746.06
423.224	1901.71
423.432	2061.45
423.64	2059.4
423.848	2253.96
424.056	2122.89
424.263	2352.26
424.471	2276.49
424.679	2378.89
424.887	2475.14
425.094	2544.77
425.302	2651.27
425.51	2694.27
425.718	2786.43
425.925	2729.09
426.133	3038.33
426.341	3165.31
426.548	3245.18
426.756	3171.45
426.964	3204.22
427.171	3441.78
427.379	3609.72
427.586	3626.1
427.794	3843.18
428.001	3892.34
428.209	4146.28
428.417	4066.41
428.624	4293.74
428.832	4263.02
429.039	4226.15
429.247	4252.78
429.454	4734.05
429.662	5151.84
429.869	4682.85
430.076	4869.22
430.284	4834.4
430.491	4973.66
430.699	5301.34
430.906	5243.99
431.114	5434.46
431.321	5483.61
431.528	5690.45
431.736	6057.04
431.943	6337.61
432.15	6212.68
432.358	6124.62
432.565	6566.98
432.772	6530.12
432.979	6980.67
433.187	6954.05
433.394	7107.65
433.601	7345.21
433.808	7695.41
434.016	7371.83
434.223	7791.67
434.43	8256.56
434.637	8219.69
434.844	8676.39
435.052	8743.97
435.259	8705.06
435.466	8997.92
435.673	8756.26
435.88	9483.29
436.087	9753.62
436.294	9810.96
436.501	9708.57
436.708	9661.46
436.915	10214.41
437.122	10585.1
437.329	10335.24
437.537	10880
437.743	11027.46
437.95	10912.77
438.157	11543.55
438.364	12000.24
438.571	11766.78
438.778	12141.55
438.985	13005.8
439.192	12557.29
439.399	13042.66
439.606	12665.83
439.813	13745.11
440.02	14261.2
440.227	14050.26
440.433	13917.14
440.64	14502.86
440.847	14308.3
441.054	14742.47
441.261	15621.05
441.467	15416.26
441.674	15721.4
441.881	16100.28
442.088	16118.71
442.294	16034.74
442.501	16683.95
442.708	16868.27
442.914	17527.71
443.121	18568.08
443.328	17935.26
443.534	18989.96
443.741	18719.63
443.948	18217.88
444.154	19745.66
444.361	19544.96
444.568	19542.91
444.774	19590.02
444.981	20018.04
445.187	20368.24
445.394	21449.57
445.6	21224.29
445.807	23069.51
446.013	22176.6
446.22	22610.77
446.426	23360.33
446.633	23728.96
446.839	24443.7
447.046	23475.01
447.252	24859.44
447.459	24720.18
447.665	24757.04
447.871	25867.04
448.078	27112.2
448.284	25842.46
448.491	26409.75
448.697	27435.78
448.903	28279.55
449.11	28087.04
449.316	27656.96
449.522	27925.25
449.728	28951.28
449.935	28963.57
450.141	28961.52
450.347	29723.37
450.553	28889.84
450.76	29623.01
450.966	30022.37
451.172	30139.1
451.378	30948.05
451.584	29737.7
451.791	30913.23
451.997	30704.34
452.203	31335.12
452.409	31294.16
452.615	31263.44
452.821	30221.02
453.027	29940.45
453.233	31214.29
453.44	30421.72
453.646	30444.25
453.852	30454.49
454.058	31310.54
454.264	30450.39
454.47	30898.9
454.676	29817.57
454.882	31058.64
455.088	28478.2
455.294	28908.27
455.5	29424.36
455.705	29776.61
455.911	28418.81
456.117	28066.56
456.323	27753.22
456.529	26344.22
456.735	27433.74
456.941	26751.76
457.147	26399.51
457.352	25584.42
457.558	25287.46
457.764	25389.86
457.97	24910.64
458.176	24214.33
458.381	24404.79
458.587	22909.77
458.793	22840.14
458.999	21842.78
459.204	23374.66
459.41	22940.49
459.616	21277.54
459.821	21183.34
460.027	21189.48
460.233	20444.02
460.438	19989.37
460.644	19927.93
460.85	18992.01
461.055	18471.82
461.261	18754.44
461.466	17386.4
461.672	16886.7
461.878	17771.42
462.083	16905.13
462.289	16489.39
462.494	16425.9
462.7	15602.62
462.905	15238.08
463.111	15657.92
463.316	15801.27
463.522	15401.92
463.727	15461.31
463.932	15422.4
464.138	15233.99
464.343	15373.25
464.549	14805.96
464.754	15295.43
464.959	15420.35
465.165	15164.36
465.37	14435.28
465.575	13804.5
465.781	14879.69
465.986	14617.55
466.191	14402.51
466.397	13943.77
466.602	13183.97
466.807	13847.51
467.012	13525.98
467.218	13732.83
467.423	13470.69
467.628	13659.1
467.833	14267.34
468.038	13724.63
