Data from USB4F104151__100__13-22-06-261.txt Node

Date: Fri Mar 14 13:22:06 EDT 2025
User: louis
Spectrometer: USB4F10415
Trigger mode: 4
Integration Time (sec): 3.000000E-2
Scans to average: 1
Electric dark correction enabled: true
Nonlinearity correction enabled: false
Boxcar width: 0
XAxis mode: Wavelengths
Number of Pixels in Spectrum: 3648
>>>>>Begin Spectral Data<<<<<
178.204	-144.21
178.424	-144.21
178.644	-144.21
178.864	-156.5
179.084	-142.16
179.304	13.48
179.524	-37.72
179.744	-2.9
179.964	11.43
180.184	-0.85
180.404	17.58
180.624	50.35
180.844	-15.19
181.064	-11.09
181.283	17.58
181.503	-52.05
181.723	9.39
181.943	11.43
182.163	72.87
182.383	-4.95
182.602	70.83
182.822	50.35
183.042	113.83
183.262	-56.15
183.482	7.34
183.701	54.44
183.921	54.44
184.141	5.29
184.361	21.67
184.58	-7
184.8	29.87
185.02	54.44
185.239	105.64
185.459	-4.95
185.679	23.72
185.898	-37.72
186.118	52.39
186.338	9.39
186.557	29.87
186.777	52.39
186.997	48.3
187.216	-7
187.436	27.82
187.655	1.19
187.875	25.77
188.095	33.96
188.314	27.82
188.534	-9.05
188.753	13.48
188.973	17.58
189.192	48.3
189.412	31.91
189.631	-31.57
189.851	3.24
190.07	76.97
190.29	-17.24
190.509	13.48
190.729	40.11
190.948	21.67
191.168	195.75
191.387	109.74
191.607	-66.39
191.826	54.44
192.045	-19.29
192.265	-29.52
192.484	25.77
192.704	13.48
192.923	27.82
193.142	113.83
193.362	38.06
193.581	9.39
193.8	56.49
194.02	74.92
194.239	25.77
194.458	25.77
194.678	62.63
194.897	-9.05
195.116	-31.57
195.335	70.83
195.555	87.21
195.774	-43.86
195.993	42.15
196.212	3.24
196.432	21.67
196.651	-2.9
196.87	-17.24
197.089	42.15
197.308	33.96
197.528	-21.33
197.747	29.87
197.966	74.92
198.185	7.34
198.404	68.78
198.623	23.72
198.842	33.96
199.062	50.35
199.281	50.35
199.5	36.01
199.719	40.11
199.938	-19.29
200.157	99.5
200.376	3.24
200.595	-31.57
200.814	-68.44
201.033	7.34
201.252	93.35
201.471	54.44
201.69	50.35
201.909	13.48
202.128	-56.15
202.347	50.35
202.566	36.01
202.785	-15.19
203.004	-23.38
203.223	158.89
203.442	48.3
203.661	44.2
203.879	52.39
204.098	83.11
204.317	-47.96
204.536	132.26
204.755	-0.85
204.974	68.78
205.193	29.87
205.411	58.54
205.63	42.15
205.849	23.72
206.068	5.29
206.287	5.29
206.505	99.5
206.724	56.49
206.943	3.24
207.162	68.78
207.381	-50
207.599	-33.62
207.818	25.77
208.037	64.68
208.255	50.35
208.474	19.63
208.693	27.82
208.911	1.19
209.13	7.34
209.349	68.78
209.567	40.11
209.786	74.92
210.005	52.39
210.223	-31.57
210.442	-35.67
210.661	13.48
210.879	5.29
211.098	83.11
211.316	-7
211.535	107.69
211.753	25.77
211.972	72.87
212.191	36.01
212.409	83.11
212.628	74.92
212.846	13.48
213.065	107.69
213.283	91.31
213.502	3.24
213.72	50.35
213.938	46.25
214.157	64.68
214.375	93.35
214.594	-9.05
214.812	60.59
215.031	-19.29
215.249	21.67
215.467	-101.2
215.686	7.34
215.904	103.59
216.122	19.63
216.341	50.35
216.559	13.48
216.778	95.4
216.996	89.26
217.214	33.96
217.432	-27.48
217.651	50.35
217.869	-7
218.087	25.77
218.306	3.24
218.524	117.93
218.742	-0.85
218.96	48.3
219.179	21.67
219.397	-31.57
219.615	101.55
219.833	79.02
220.051	58.54
220.27	93.35
220.488	70.83
220.706	5.29
220.924	-9.05
221.142	1.19
221.36	74.92
221.578	-62.29
221.796	62.63
222.015	1.19
222.233	74.92
222.451	101.55
222.669	5.29
222.887	70.83
223.105	-23.38
223.323	5.29
223.541	25.77
223.759	5.29
223.977	1.19
224.195	-2.9
224.413	42.15
224.631	122.02
224.849	38.06
225.067	48.3
225.285	21.67
225.503	1.19
225.721	11.43
225.939	13.48
226.157	-4.95
226.375	95.4
226.592	-23.38
226.81	58.54
227.028	130.22
227.246	115.88
227.464	117.93
227.682	-19.29
227.9	1.19
228.117	-4.95
228.335	-17.24
228.553	50.35
228.771	56.49
228.989	25.77
229.206	58.54
229.424	-7
229.642	-29.52
229.86	13.48
230.077	1.19
230.295	1.19
230.513	-15.19
230.731	29.87
230.948	52.39
231.166	66.73
231.384	5.29
231.601	33.96
231.819	58.54
232.037	48.3
232.254	21.67
232.472	9.39
232.689	40.11
232.907	15.53
233.125	33.96
233.342	64.68
233.56	-52.05
233.777	44.2
233.995	3.24
234.213	9.39
234.43	33.96
234.648	42.15
234.865	-11.09
235.083	89.26
235.3	-37.72
235.518	93.35
235.735	-31.57
235.953	23.72
236.17	44.2
236.388	74.92
236.605	9.39
236.822	79.02
237.04	-0.85
237.257	52.39
237.475	33.96
237.692	44.2
237.909	76.97
238.127	23.72
238.344	31.91
238.562	124.07
238.779	-33.62
238.996	-33.62
239.214	19.63
239.431	66.73
239.648	29.87
239.865	13.48
240.083	-2.9
240.3	17.58
240.517	-78.68
240.735	23.72
240.952	62.63
241.169	15.53
241.386	54.44
241.603	56.49
241.821	29.87
242.038	-4.95
242.255	70.83
242.472	-62.29
242.689	-37.72
242.907	60.59
243.124	-35.67
243.341	42.15
243.558	46.25
243.775	-15.19
243.992	27.82
244.209	36.01
244.426	81.07
244.643	113.83
244.86	3.24
245.078	-13.14
245.295	76.97
245.512	66.73
245.729	93.35
245.946	103.59
246.163	9.39
246.38	3.24
246.597	-17.24
246.814	17.58
247.031	25.77
247.248	42.15
247.464	42.15
247.681	5.29
247.898	-11.09
248.115	60.59
248.332	-56.15
248.549	40.11
248.766	42.15
248.983	17.58
249.2	-13.14
249.417	50.35
249.633	-2.9
249.85	38.06
250.067	7.34
250.284	33.96
250.501	38.06
250.717	5.29
250.934	-21.33
251.151	50.35
251.368	93.35
251.585	128.17
251.801	-23.38
252.018	29.87
252.235	91.31
252.451	52.39
252.668	31.91
252.885	60.59
253.102	76.97
253.318	-29.52
253.535	29.87
253.752	17.58
253.968	95.4
254.185	44.2
254.401	50.35
254.618	7.34
254.835	-45.91
255.051	76.97
255.268	36.01
255.484	66.73
255.701	-0.85
255.917	74.92
256.134	29.87
256.351	-2.9
256.567	-25.43
256.784	54.44
257	3.24
257.217	66.73
257.433	60.59
257.65	7.34
257.866	33.96
258.082	-0.85
258.299	-19.29
258.515	23.72
258.732	-2.9
258.948	38.06
259.165	-2.9
259.381	-15.19
259.597	13.48
259.814	95.4
260.03	1.19
260.246	36.01
260.463	21.67
260.679	119.98
260.895	54.44
261.112	36.01
261.328	-31.57
261.544	19.63
261.761	162.98
261.977	-13.14
262.193	-23.38
262.409	46.25
262.626	23.72
262.842	-0.85
263.058	-2.9
263.274	42.15
263.49	122.02
263.707	25.77
263.923	91.31
264.139	-4.95
264.355	93.35
264.571	50.35
264.787	58.54
265.004	62.63
265.22	11.43
265.436	13.48
265.652	36.01
265.868	38.06
266.084	50.35
266.3	-21.33
266.516	38.06
266.732	109.74
266.948	42.15
267.164	-2.9
267.38	19.63
267.596	19.63
267.812	70.83
268.028	33.96
268.244	-17.24
268.46	27.82
268.676	7.34
268.892	72.87
269.108	-52.05
269.324	7.34
269.54	33.96
269.756	93.35
269.972	-9.05
270.188	13.48
270.403	76.97
270.619	83.11
270.835	21.67
271.051	-15.19
271.267	-47.96
271.483	29.87
271.698	5.29
271.914	95.4
272.13	36.01
272.346	-0.85
272.562	38.06
272.777	52.39
272.993	-37.72
273.209	44.2
273.425	40.11
273.64	25.77
273.856	42.15
274.072	76.97
274.287	11.43
274.503	85.16
274.719	58.54
274.934	-13.14
275.15	-11.09
275.366	-41.81
275.581	23.72
275.797	-58.2
276.012	50.35
276.228	-45.91
276.444	42.15
276.659	21.67
276.875	-2.9
277.09	-7
277.306	15.53
277.521	46.25
277.737	11.43
277.952	33.96
278.168	113.83
278.383	9.39
278.599	-31.57
278.814	21.67
279.03	23.72
279.245	122.02
279.461	-0.85
279.676	76.97
279.892	-4.95
280.107	-27.48
280.322	52.39
280.538	56.49
280.753	48.3
280.969	44.2
281.184	56.49
281.399	48.3
281.615	-13.14
281.83	66.73
282.045	-0.85
282.26	-27.48
282.476	-23.38
282.691	9.39
282.906	25.77
283.122	54.44
283.337	5.29
283.552	13.48
283.767	33.96
283.983	66.73
284.198	-11.09
284.413	46.25
284.628	-23.38
284.843	-7
285.058	89.26
285.274	-4.95
285.489	-9.05
285.704	1.19
285.919	11.43
286.134	11.43
286.349	29.87
286.564	-58.2
286.779	60.59
286.995	95.4
287.21	-45.91
287.425	68.78
287.64	36.01
287.855	52.39
288.07	19.63
288.285	66.73
288.5	36.01
288.715	-4.95
288.93	89.26
289.145	-9.05
289.36	29.87
289.575	9.39
289.79	36.01
290.004	42.15
290.219	56.49
290.434	132.26
290.649	52.39
290.864	-31.57
291.079	66.73
291.294	17.58
291.509	21.67
291.724	-2.9
291.938	11.43
292.153	25.77
292.368	-27.48
292.583	62.63
292.798	-15.19
293.012	52.39
293.227	3.24
293.442	42.15
293.657	62.63
293.871	91.31
294.086	13.48
294.301	95.4
294.516	5.29
294.73	3.24
294.945	-29.52
295.16	-15.19
295.374	85.16
295.589	27.82
295.804	27.82
296.018	-80.72
296.233	3.24
296.447	68.78
296.662	-9.05
296.877	36.01
297.091	-17.24
297.306	91.31
297.52	29.87
297.735	50.35
297.949	5.29
298.164	62.63
298.378	38.06
298.593	-62.29
298.807	-7
299.022	40.11
299.236	-7
299.451	-52.05
299.665	9.39
299.88	-19.29
300.094	33.96
300.309	-0.85
300.523	36.01
300.737	42.15
300.952	23.72
301.166	60.59
301.381	-11.09
301.595	19.63
301.809	13.48
302.024	74.92
302.238	44.2
302.452	-13.14
302.667	66.73
302.881	-15.19
303.095	-29.52
303.309	66.73
303.524	-23.38
303.738	-21.33
303.952	-35.67
304.166	27.82
304.381	-62.29
304.595	85.16
304.809	11.43
305.023	83.11
305.237	83.11
305.452	15.53
305.666	103.59
305.88	50.35
306.094	23.72
306.308	68.78
306.522	19.63
306.736	132.26
306.95	60.59
307.164	-15.19
307.379	31.91
307.593	1.19
307.807	117.93
308.021	-47.96
308.235	117.93
308.449	1.19
308.663	44.2
308.877	66.73
309.091	44.2
309.305	79.02
309.519	-15.19
309.733	72.87
309.947	38.06
310.161	52.39
310.374	38.06
310.588	-9.05
310.802	36.01
311.016	42.15
311.23	54.44
311.444	-13.14
311.658	-39.76
311.872	109.74
312.085	46.25
312.299	117.93
312.513	87.21
312.727	23.72
312.941	-45.91
313.154	21.67
313.368	29.87
313.582	-31.57
313.796	60.59
314.009	42.15
314.223	70.83
314.437	-11.09
314.651	17.58
314.864	-0.85
315.078	-0.85
315.292	27.82
315.505	87.21
315.719	68.78
315.933	42.15
316.146	1.19
316.36	-27.48
316.573	99.5
316.787	33.96
317.001	9.39
317.214	33.96
317.428	1.19
317.641	-72.53
317.855	-27.48
318.068	17.58
318.282	38.06
318.495	70.83
318.709	-13.14
318.922	11.43
319.136	85.16
319.349	38.06
319.563	-29.52
319.776	60.59
319.99	15.53
320.203	25.77
320.417	76.97
320.63	17.58
320.843	113.83
321.057	-15.19
321.27	17.58
321.483	-21.33
321.697	72.87
321.91	-0.85
322.124	52.39
322.337	-4.95
322.55	11.43
322.763	50.35
322.977	1.19
323.19	-37.72
323.403	76.97
323.617	70.83
323.83	62.63
324.043	25.77
324.256	52.39
324.469	-11.09
324.683	25.77
324.896	62.63
325.109	40.11
325.322	-80.72
325.535	-9.05
325.748	-21.33
325.962	91.31
326.175	103.59
326.388	54.44
326.601	68.78
326.814	81.07
327.027	-9.05
327.24	111.78
327.453	-4.95
327.666	44.2
327.879	83.11
328.092	36.01
328.305	115.88
328.518	25.77
328.731	3.24
328.944	107.69
329.157	91.31
329.37	124.07
329.583	99.5
329.796	101.55
330.009	38.06
330.222	62.63
330.435	70.83
330.648	58.54
330.861	42.15
331.073	42.15
331.286	107.69
331.499	33.96
331.712	5.29
331.925	31.91
332.138	48.3
332.35	64.68
332.563	44.2
332.776	124.07
332.989	-29.52
333.202	9.39
333.414	44.2
333.627	15.53
333.84	64.68
334.053	48.3
334.265	38.06
334.478	11.43
334.691	-23.38
334.903	25.77
335.116	-7
335.329	-4.95
335.541	-31.57
335.754	117.93
335.966	25.77
336.179	33.96
336.392	-4.95
336.604	95.4
336.817	11.43
337.029	-21.33
337.242	13.48
337.454	95.4
337.667	-4.95
337.88	42.15
338.092	-15.19
338.305	115.88
338.517	79.02
338.729	27.82
338.942	1.19
339.154	-7
339.367	-39.76
339.579	66.73
339.792	-29.52
340.004	52.39
340.217	-27.48
340.429	-9.05
340.641	5.29
340.854	17.58
341.066	70.83
341.278	9.39
341.491	70.83
341.703	23.72
341.915	-45.91
342.128	38.06
342.34	25.77
342.552	-7
342.764	-37.72
342.977	9.39
343.189	58.54
343.401	11.43
343.613	27.82
343.826	-13.14
344.038	-27.48
344.25	50.35
344.462	-7
344.674	79.02
344.886	-23.38
345.099	70.83
345.311	58.54
345.523	-23.38
345.735	7.34
345.947	33.96
346.159	11.43
346.371	29.87
346.583	27.82
346.795	111.78
347.007	27.82
347.219	52.39
347.431	31.91
347.643	52.39
347.855	70.83
348.067	50.35
348.279	-15.19
348.491	-7
348.703	48.3
348.915	31.91
349.127	-4.95
349.339	31.91
349.551	-35.67
349.763	44.2
349.975	-0.85
350.187	68.78
350.399	52.39
350.61	105.64
350.822	58.54
351.034	21.67
351.246	19.63
351.458	76.97
351.669	60.59
351.881	85.16
352.093	-4.95
352.305	74.92
352.517	70.83
352.728	89.26
352.94	25.77
353.152	36.01
353.363	3.24
353.575	66.73
353.787	25.77
353.999	91.31
354.21	7.34
354.422	62.63
354.633	50.35
354.845	19.63
355.057	27.82
355.268	48.3
355.48	13.48
355.692	-33.62
355.903	87.21
356.115	17.58
356.326	-58.2
356.538	68.78
356.749	79.02
356.961	64.68
357.172	25.77
357.384	54.44
357.595	42.15
357.807	76.97
358.018	25.77
358.23	1.19
358.441	44.2
358.653	74.92
358.864	-52.05
359.075	-29.52
359.287	105.64
359.498	42.15
359.709	54.44
359.921	-2.9
360.132	64.68
360.344	62.63
360.555	13.48
360.766	109.74
360.977	107.69
361.189	62.63
361.4	25.77
361.611	74.92
361.823	29.87
362.034	95.4
362.245	25.77
362.456	46.25
362.667	36.01
362.879	31.91
363.09	54.44
363.301	-29.52
363.512	-60.24
363.723	11.43
363.935	-11.09
364.146	60.59
364.357	19.63
364.568	107.69
364.779	-35.67
364.99	9.39
365.201	11.43
365.412	44.2
365.623	3.24
365.834	40.11
366.045	-17.24
366.256	19.63
366.467	3.24
366.678	42.15
366.889	-2.9
367.1	-41.81
367.311	103.59
367.522	17.58
367.733	9.39
367.944	15.53
368.155	17.58
368.366	-19.29
368.577	79.02
368.788	50.35
368.999	21.67
369.209	7.34
369.42	128.17
369.631	103.59
369.842	60.59
370.053	42.15
370.264	40.11
370.474	27.82
370.685	17.58
370.896	36.01
371.107	9.39
371.317	-39.76
371.528	17.58
371.739	66.73
371.95	60.59
372.16	31.91
372.371	9.39
372.582	-52.05
372.792	93.35
373.003	19.63
373.214	-29.52
373.424	50.35
373.635	17.58
373.846	93.35
374.056	-17.24
374.267	25.77
374.477	42.15
374.688	9.39
374.898	-27.48
375.109	76.97
375.319	13.48
375.53	40.11
375.74	58.54
375.951	66.73
376.161	79.02
376.372	66.73
376.582	46.25
376.793	1.19
377.003	52.39
377.214	17.58
377.424	9.39
377.635	-9.05
377.845	-0.85
378.055	58.54
378.266	79.02
378.476	25.77
378.686	50.35
378.897	-7
379.107	117.93
379.317	50.35
379.528	36.01
379.738	85.16
379.948	-11.09
380.158	42.15
380.369	-27.48
380.579	66.73
380.789	-25.43
380.999	21.67
381.21	70.83
381.42	54.44
381.63	-21.33
381.84	17.58
382.05	76.97
382.261	36.01
382.471	27.82
382.681	-113.49
382.891	103.59
383.101	76.97
383.311	-0.85
383.521	31.91
383.731	50.35
383.941	38.06
384.151	25.77
384.361	54.44
384.571	-19.29
384.781	87.21
384.991	95.4
385.201	99.5
385.411	76.97
385.621	19.63
385.831	44.2
386.041	11.43
386.251	-7
386.461	126.12
386.671	23.72
386.881	54.44
387.091	17.58
387.301	76.97
387.511	-13.14
387.72	9.39
387.93	107.69
388.14	21.67
388.35	40.11
388.56	85.16
388.769	95.4
388.979	11.43
389.189	54.44
389.399	-0.85
389.609	42.15
389.818	113.83
390.028	-54.1
390.238	89.26
390.447	89.26
390.657	-13.14
390.867	27.82
391.076	-11.09
391.286	76.97
391.496	9.39
391.705	29.87
391.915	44.2
392.125	66.73
392.334	17.58
392.544	21.67
392.753	33.96
392.963	31.91
393.172	101.55
393.382	91.31
393.591	160.94
393.801	11.43
394.01	109.74
394.22	25.77
394.429	95.4
394.639	40.11
394.848	25.77
395.058	9.39
395.267	-23.38
395.477	117.93
395.686	42.15
395.895	95.4
396.105	87.21
396.314	40.11
396.524	42.15
396.733	-62.29
396.942	74.92
397.152	66.73
397.361	87.21
397.57	87.21
397.78	68.78
397.989	105.64
398.198	68.78
398.407	64.68
398.617	99.5
398.826	17.58
399.035	23.72
399.244	52.39
399.453	38.06
399.663	9.39
399.872	23.72
400.081	1.19
400.29	60.59
400.499	-0.85
400.708	33.96
400.917	83.11
401.127	85.16
401.336	-13.14
401.545	58.54
401.754	95.4
401.963	50.35
402.172	91.31
402.381	66.73
402.59	132.26
402.799	33.96
403.008	44.2
403.217	91.31
403.426	87.21
403.635	-43.86
403.844	50.35
404.053	93.35
404.262	36.01
404.471	50.35
404.68	50.35
404.888	91.31
405.097	50.35
405.306	38.06
405.515	113.83
405.724	140.46
405.933	44.2
406.142	70.83
406.35	185.51
406.559	117.93
406.768	93.35
406.977	91.31
407.185	113.83
407.394	140.46
407.603	62.63
407.812	156.84
408.02	95.4
408.229	156.84
408.438	46.25
408.646	48.3
408.855	103.59
409.064	97.45
409.272	156.84
409.481	93.35
409.69	128.17
409.898	144.55
410.107	97.45
410.315	91.31
410.524	74.92
410.733	228.52
410.941	162.98
411.15	124.07
411.358	130.22
411.567	238.76
411.775	177.32
411.984	150.7
412.192	208.04
412.401	197.8
412.609	271.53
412.818	214.18
413.026	246.95
413.234	193.7
413.443	216.23
413.651	246.95
413.86	205.99
414.068	335.01
414.276	273.57
414.485	287.91
414.693	365.73
414.901	369.83
415.11	257.19
415.318	251.05
415.526	349.35
415.734	351.4
415.943	439.46
416.151	300.2
416.359	312.49
416.567	423.08
416.776	453.8
416.984	421.03
417.192	384.16
417.4	459.94
417.608	375.97
417.817	337.06
418.025	468.13
418.233	543.91
418.441	476.32
418.649	498.85
418.857	582.82
419.065	560.29
419.273	488.61
419.481	533.67
419.689	597.15
419.897	631.97
420.105	601.25
420.313	642.21
420.521	689.31
420.729	668.83
420.937	689.31
421.145	709.79
421.353	814.24
421.561	754.85
421.769	922.78
421.977	830.62
422.185	828.57
422.393	930.97
422.601	967.84
422.809	1045.66
423.017	951.45
423.224	1051.8
423.432	1111.19
423.64	1043.61
423.848	1270.94
424.056	1203.35
424.263	1113.24
424.471	1219.74
424.679	1232.02
424.887	1199.26
425.094	1383.57
425.302	1320.09
425.51	1361.05
425.718	1477.78
425.925	1449.11
426.133	1500.31
426.341	1555.6
426.548	1694.86
426.756	1602.71
426.964	1682.58
427.171	1684.62
427.379	1846.41
427.586	1893.52
427.794	1891.47
428.001	2129.03
428.209	2153.61
428.417	2081.93
428.624	2245.77
428.832	2274.44
429.039	2083.98
429.247	2161.8
429.454	2352.26
429.662	2583.68
429.869	2532.48
430.076	2641.03
430.284	2493.57
430.491	2624.64
430.699	2706.56
430.906	2794.62
431.114	2819.2
431.321	2927.74
431.528	2909.31
431.736	2991.23
431.943	3155.07
432.15	3187.83
432.358	3138.68
432.565	3372.15
432.772	3357.82
432.979	3452.02
433.187	3513.46
433.394	3658.87
433.601	3923.05
433.808	3970.16
434.016	3834.99
434.223	3978.35
434.43	4238.44
434.637	4166.76
434.844	4453.48
435.052	4531.3
435.259	4457.57
435.466	4615.27
435.673	4381.8
435.88	4861.02
436.087	4942.94
436.294	4953.18
436.501	4938.85
436.708	5080.16
436.915	5217.37
437.122	5514.33
437.329	5360.73
437.537	5596.25
437.743	5719.12
437.95	5616.72
438.157	5749.84
438.364	6093.9
438.571	6100.05
438.778	6050.89
438.985	6802.5
439.192	6388.81
439.399	6661.19
439.606	6462.54
439.813	6796.35
440.02	7318.59
440.227	7160.89
440.433	6923.33
440.64	7463.99
440.847	7275.58
441.054	7564.34
441.261	7992.37
441.467	7932.98
441.674	7853.11
441.881	8416.3
442.088	8236.08
442.294	8111.15
442.501	8401.96
442.708	8657.96
442.914	8961.06
443.121	9509.91
443.328	9143.33
443.534	9776.15
443.741	9384.99
443.948	9235.49
444.154	10007.57
444.361	10079.25
444.568	9964.56
444.774	9815.06
444.981	9991.19
445.187	10449.93
445.394	10925.06
445.6	10533.9
445.807	11695.1
446.013	11172.86
446.22	11437.05
446.426	11680.76
446.633	12127.22
446.839	12350.45
447.046	11860.98
447.252	12704.74
447.459	12653.55
447.665	12557.29
447.871	13153.25
448.078	13673.43
448.284	13009.89
448.491	13446.11
448.697	13970.39
448.903	14060.5
449.11	14187.47
449.316	13929.43
449.522	14343.12
449.728	14545.87
449.935	14685.13
450.141	14640.08
450.347	15377.34
450.553	14500.81
450.76	14707.66
450.966	15444.93
451.172	15160.26
451.378	15619
451.584	15033.29
451.791	15553.47
451.997	15451.07
452.203	15918.01
452.409	15987.64
452.615	16022.45
452.821	15188.93
453.027	15066.05
453.233	15852.47
453.44	15209.41
453.646	15563.71
453.852	15512.51
454.058	15782.84
454.264	15145.92
454.47	15682.49
454.676	15143.88
454.882	15596.48
455.088	14285.78
455.294	14652.36
455.5	14851.02
455.705	15215.55
455.911	14283.73
456.117	14070.74
456.323	13863.9
456.529	13233.12
456.735	13661.15
456.941	13360.09
457.147	13091.81
457.352	12729.32
457.558	12542.96
457.764	12491.76
457.97	12428.27
458.176	11844.6
458.381	11951.09
458.587	11508.73
458.793	11596.79
458.999	10814.47
459.204	11607.03
459.41	11146.24
459.616	10765.32
459.821	10699.78
460.027	10470.41
460.233	10411.02
460.438	10161.17
460.644	10050.58
460.85	9548.82
461.055	9354.27
461.261	9530.39
461.466	8660.01
461.672	8561.7
461.878	8948.77
462.083	8533.03
462.289	8305.71
462.494	8160.3
462.7	7797.81
462.905	7746.61
463.111	7752.76
463.316	8014.9
463.522	7773.24
463.727	7859.25
463.932	7701.56
464.138	7640.12
464.343	7779.38
464.549	7590.97
464.754	7734.32
464.959	7810.1
465.165	7629.88
465.37	7382.07
465.575	7126.08
465.781	7353.4
465.986	7451.7
466.191	7208
466.397	6956.1
466.602	6505.54
466.807	7070.78
467.012	7078.97
467.218	7009.34
467.423	6784.07
467.628	6876.23
467.833	7095.36
468.038	7001.15
468.244	6577.22
468.449	6931.52
468.654	6820.93
468.859	6493.26
469.064	6571.08
469.269	6405.19
469.474	6374.47
