Data from USB4F104151__75__13-12-21-754.txt Node

Date: Fri Mar 14 13:12:21 EDT 2025
User: louis
Spectrometer: USB4F10415
Trigger mode: 4
Integration Time (sec): 2.000000E-2
Scans to average: 1
Electric dark correction enabled: true
Nonlinearity correction enabled: false
Boxcar width: 0
XAxis mode: Wavelengths
Number of Pixels in Spectrum: 3648
>>>>>Begin Spectral Data<<<<<
178.204	-89.6
178.424	-89.6
178.644	-89.6
178.864	-81.41
179.084	-85.5
179.304	-30.21
179.524	-30.21
179.744	-1.54
179.964	49.66
180.184	16.9
180.404	29.18
180.624	-3.58
180.844	-62.98
181.064	-40.45
181.283	6.66
181.503	-9.73
181.723	76.29
181.943	-34.3
182.163	29.18
182.383	86.53
182.602	16.9
182.822	35.33
183.042	-34.3
183.262	-5.63
183.482	82.43
183.701	-17.92
183.921	25.09
184.141	86.53
184.361	92.67
184.58	49.66
184.8	-17.92
185.02	41.47
185.239	37.38
185.459	29.18
185.679	23.04
185.898	4.61
186.118	55.81
186.338	-1.54
186.557	10.75
186.777	27.14
186.997	29.18
187.216	20.99
187.436	12.8
187.655	51.71
187.875	18.94
188.095	43.52
188.314	61.95
188.534	8.7
188.753	-30.21
188.973	68.09
189.192	66.05
189.412	2.56
189.631	35.33
189.851	43.52
190.07	33.28
190.29	76.29
190.509	8.7
190.729	-9.73
190.948	72.19
191.168	96.77
191.387	113.15
191.607	61.95
191.826	-22.02
192.045	61.95
192.265	23.04
192.484	16.9
192.704	-1.54
192.923	39.42
193.142	72.19
193.362	35.33
193.581	84.48
193.8	66.05
194.02	47.62
194.239	-15.87
194.458	-5.63
194.678	92.67
194.897	23.04
195.116	61.95
195.335	66.05
195.555	47.62
195.774	59.9
195.993	41.47
196.212	55.81
196.432	29.18
196.651	78.33
196.87	18.94
197.089	55.81
197.308	53.76
197.528	59.9
197.747	-83.45
197.966	53.76
198.185	37.38
198.404	35.33
198.623	35.33
198.842	84.48
199.062	2.56
199.281	66.05
199.5	39.42
199.719	100.86
199.938	10.75
200.157	61.95
200.376	8.7
200.595	53.76
200.814	23.04
201.033	10.75
201.252	43.52
201.471	41.47
201.69	-11.78
201.909	16.9
202.128	64
202.347	68.09
202.566	41.47
202.785	31.23
203.004	-3.58
203.223	68.09
203.442	37.38
203.661	4.61
203.879	29.18
204.098	23.04
204.317	16.9
204.536	47.62
204.755	-5.63
204.974	41.47
205.193	119.29
205.411	59.9
205.63	57.86
205.849	0.51
206.068	29.18
206.287	8.7
206.505	-19.97
206.724	-17.92
206.943	-17.92
207.162	37.38
207.381	125.44
207.599	76.29
207.818	23.04
208.037	18.94
208.255	53.76
208.474	8.7
208.693	49.66
208.911	23.04
209.13	-26.11
209.349	23.04
209.567	51.71
209.786	27.14
210.005	55.81
210.223	64
210.442	-75.26
210.661	47.62
210.879	-13.82
211.098	16.9
211.316	18.94
211.535	35.33
211.753	27.14
211.972	16.9
212.191	51.71
212.409	109.05
212.628	57.86
212.846	4.61
213.065	20.99
213.283	61.95
213.502	59.9
213.72	-62.98
213.938	51.71
214.157	8.7
214.375	80.38
214.594	-32.26
214.812	6.66
215.031	12.8
215.249	74.24
215.467	43.52
215.686	-30.21
215.904	76.29
216.122	4.61
216.341	25.09
216.559	92.67
216.778	12.8
216.996	51.71
217.214	18.94
217.432	-19.97
217.651	20.99
217.869	29.18
218.087	35.33
218.306	18.94
218.524	31.23
218.742	39.42
218.96	53.76
219.179	39.42
219.397	20.99
219.615	70.14
219.833	18.94
220.051	8.7
220.27	90.62
220.488	43.52
220.706	2.56
220.924	27.14
221.142	33.28
221.36	31.23
221.578	10.75
221.796	-26.11
222.015	55.81
222.233	59.9
222.451	23.04
222.669	31.23
222.887	64
223.105	14.85
223.323	47.62
223.541	23.04
223.759	53.76
223.977	45.57
224.195	51.71
224.413	-30.21
224.631	111.1
224.849	49.66
225.067	131.58
225.285	20.99
225.503	27.14
225.721	2.56
225.939	76.29
226.157	66.05
226.375	55.81
226.592	68.09
226.81	37.38
227.028	70.14
227.246	51.71
227.464	27.14
227.682	18.94
227.9	82.43
228.117	59.9
228.335	10.75
228.553	0.51
228.771	25.09
228.989	51.71
229.206	86.53
229.424	68.09
229.642	43.52
229.86	-7.68
230.077	35.33
230.295	43.52
230.513	72.19
230.731	-30.21
230.948	6.66
231.166	66.05
231.384	76.29
231.601	-65.02
231.819	70.14
232.037	4.61
232.254	20.99
232.472	20.99
232.689	-15.87
232.907	37.38
233.125	84.48
233.342	23.04
233.56	-48.64
233.777	66.05
233.995	78.33
234.213	35.33
234.43	76.29
234.648	76.29
234.865	35.33
235.083	45.57
235.3	59.9
235.518	25.09
235.735	59.9
235.953	47.62
236.17	35.33
236.388	86.53
236.605	-5.63
236.822	92.67
237.04	100.86
237.257	84.48
237.475	-17.92
237.692	82.43
237.909	72.19
238.127	-13.82
238.344	117.25
238.562	-30.21
238.779	4.61
238.996	-13.82
239.214	102.91
239.431	72.19
239.648	-42.5
239.865	41.47
240.083	70.14
240.3	-44.54
240.517	-67.07
240.735	43.52
240.952	18.94
241.169	41.47
241.386	14.85
241.603	18.94
241.821	0.51
242.038	68.09
242.255	12.8
242.472	119.29
242.689	10.75
242.907	47.62
243.124	59.9
243.341	23.04
243.558	-15.87
243.775	2.56
243.992	35.33
244.209	51.71
244.426	113.15
244.643	41.47
244.86	-42.5
245.078	18.94
245.295	61.95
245.512	43.52
245.729	-26.11
245.946	14.85
246.163	88.57
246.38	59.9
246.597	78.33
246.814	35.33
247.031	23.04
247.248	41.47
247.464	61.95
247.681	47.62
247.898	51.71
248.115	-5.63
248.332	10.75
248.549	61.95
248.766	49.66
248.983	39.42
249.2	16.9
249.417	68.09
249.633	43.52
249.85	80.38
250.067	55.81
250.284	23.04
250.501	51.71
250.717	2.56
250.934	12.8
251.151	29.18
251.368	27.14
251.585	117.25
251.801	61.95
252.018	-54.78
252.235	80.38
252.451	-5.63
252.668	27.14
252.885	100.86
253.102	-28.16
253.318	29.18
253.535	16.9
253.752	59.9
253.968	33.28
254.185	-36.35
254.401	86.53
254.618	76.29
254.835	59.9
255.051	84.48
255.268	35.33
255.484	25.09
255.701	39.42
255.917	20.99
256.134	72.19
256.351	-24.06
256.567	37.38
256.784	39.42
257	41.47
257.217	41.47
257.433	111.1
257.65	66.05
257.866	51.71
258.082	25.09
258.299	70.14
258.515	10.75
258.732	-62.98
258.948	35.33
259.165	61.95
259.381	-50.69
259.597	31.23
259.814	64
260.03	53.76
260.246	-34.3
260.463	27.14
260.679	68.09
260.895	35.33
261.112	-7.68
261.328	-9.73
261.544	68.09
261.761	55.81
261.977	45.57
262.193	-30.21
262.409	78.33
262.626	39.42
262.842	61.95
263.058	66.05
263.274	37.38
263.49	33.28
263.707	31.23
263.923	64
264.139	59.9
264.355	72.19
264.571	-26.11
264.787	-26.11
265.004	23.04
265.22	39.42
265.436	4.61
265.652	4.61
265.868	18.94
266.084	59.9
266.3	61.95
266.516	14.85
266.732	-54.78
266.948	47.62
267.164	80.38
267.38	39.42
267.596	39.42
267.812	100.86
268.028	-67.07
268.244	45.57
268.46	8.7
268.676	-9.73
268.892	25.09
269.108	51.71
269.324	80.38
269.54	35.33
269.756	37.38
269.972	-15.87
270.188	-9.73
270.403	53.76
270.619	59.9
270.835	16.9
271.051	59.9
271.267	51.71
271.483	-30.21
271.698	27.14
271.914	49.66
272.13	61.95
272.346	43.52
272.562	68.09
272.777	61.95
272.993	35.33
273.209	20.99
273.425	61.95
273.64	82.43
273.856	37.38
274.072	64
274.287	129.53
274.503	61.95
274.719	10.75
274.934	31.23
275.15	61.95
275.366	10.75
275.581	10.75
275.797	78.33
276.012	-50.69
276.228	31.23
276.444	20.99
276.659	72.19
276.875	10.75
277.09	2.56
277.306	16.9
277.521	143.87
277.737	43.52
277.952	98.81
278.168	43.52
278.383	-28.16
278.599	59.9
278.814	51.71
279.03	88.57
279.245	88.57
279.461	25.09
279.676	33.28
279.892	31.23
280.107	57.86
280.322	-26.11
280.538	35.33
280.753	-5.63
280.969	47.62
281.184	6.66
281.399	107.01
281.615	78.33
281.83	76.29
282.045	-52.74
282.26	80.38
282.476	51.71
282.691	47.62
282.906	-19.97
283.122	20.99
283.337	49.66
283.552	66.05
283.767	45.57
283.983	88.57
284.198	10.75
284.413	57.86
284.628	29.18
284.843	55.81
285.058	68.09
285.274	43.52
285.489	-95.74
285.704	27.14
285.919	41.47
286.134	-9.73
286.349	129.53
286.564	2.56
286.779	59.9
286.995	51.71
287.21	31.23
287.425	2.56
287.64	39.42
287.855	39.42
288.07	-32.26
288.285	80.38
288.5	35.33
288.715	68.09
288.93	47.62
289.145	70.14
289.36	-22.02
289.575	-5.63
289.79	23.04
290.004	12.8
290.219	35.33
290.434	45.57
290.649	-22.02
290.864	31.23
291.079	18.94
291.294	8.7
291.509	-38.4
291.724	10.75
291.938	-17.92
292.153	-13.82
292.368	72.19
292.583	-19.97
292.798	88.57
293.012	16.9
293.227	10.75
293.442	-30.21
293.657	70.14
293.871	59.9
294.086	43.52
294.301	76.29
294.516	20.99
294.73	37.38
294.945	-28.16
295.16	12.8
295.374	35.33
295.589	113.15
295.804	31.23
296.018	-26.11
296.233	-40.45
296.447	2.56
296.662	74.24
296.877	35.33
297.091	55.81
297.306	27.14
297.52	6.66
297.735	18.94
297.949	72.19
298.164	41.47
298.378	4.61
298.593	-5.63
298.807	61.95
299.022	-17.92
299.236	107.01
299.451	23.04
299.665	-19.97
299.88	70.14
300.094	55.81
300.309	-5.63
300.523	8.7
300.737	12.8
300.952	113.15
301.166	127.49
301.381	6.66
301.595	66.05
301.809	-22.02
302.024	29.18
302.238	68.09
302.452	39.42
302.667	78.33
302.881	8.7
303.095	-1.54
303.309	66.05
303.524	-22.02
303.738	35.33
303.952	25.09
304.166	8.7
304.381	0.51
304.595	47.62
304.809	45.57
305.023	20.99
305.237	0.51
305.452	14.85
305.666	76.29
305.88	80.38
306.094	55.81
306.308	104.96
306.522	94.72
306.736	23.04
306.95	113.15
307.164	4.61
307.379	4.61
307.593	84.48
307.807	49.66
308.021	-9.73
308.235	0.51
308.449	-46.59
308.663	57.86
308.877	121.34
309.091	27.14
309.305	51.71
309.519	-9.73
309.733	12.8
309.947	8.7
310.161	43.52
310.374	45.57
310.588	31.23
310.802	-22.02
311.016	45.57
311.23	-1.54
311.444	-17.92
311.658	-71.17
311.872	113.15
312.085	-13.82
312.299	29.18
312.513	18.94
312.727	100.86
312.941	-30.21
313.154	27.14
313.368	23.04
313.582	66.05
313.796	23.04
314.009	41.47
314.223	100.86
314.437	59.9
314.651	107.01
314.864	20.99
315.078	23.04
315.292	51.71
315.505	55.81
315.719	-38.4
315.933	51.71
316.146	12.8
316.36	-1.54
316.573	78.33
316.787	2.56
317.001	25.09
317.214	-3.58
317.428	25.09
317.641	51.71
317.855	27.14
318.068	80.38
318.282	29.18
318.495	45.57
318.709	115.2
318.922	-5.63
319.136	84.48
319.349	27.14
319.563	-13.82
319.776	86.53
319.99	33.28
320.203	10.75
320.417	51.71
320.63	6.66
320.843	100.86
321.057	74.24
321.27	10.75
321.483	51.71
321.697	68.09
321.91	115.2
322.124	47.62
322.337	74.24
322.55	115.2
322.763	109.05
322.977	6.66
323.19	68.09
323.403	-5.63
323.617	-13.82
323.83	43.52
324.043	88.57
324.256	-30.21
324.469	-38.4
324.683	2.56
324.896	27.14
325.109	64
325.322	107.01
325.535	43.52
325.748	18.94
325.962	14.85
326.175	16.9
326.388	31.23
326.601	10.75
326.814	23.04
327.027	27.14
327.24	143.87
327.453	-87.55
327.666	59.9
327.879	84.48
328.092	-30.21
328.305	25.09
328.518	45.57
328.731	-15.87
328.944	18.94
329.157	35.33
329.37	35.33
329.583	92.67
329.796	43.52
330.009	55.81
330.222	127.49
330.435	59.9
330.648	61.95
330.861	55.81
331.073	10.75
331.286	43.52
331.499	55.81
331.712	2.56
331.925	39.42
332.138	64
332.35	47.62
332.563	76.29
332.776	12.8
332.989	12.8
333.202	64
333.414	-3.58
333.627	29.18
333.84	49.66
334.053	84.48
334.265	70.14
334.478	61.95
334.691	-1.54
334.903	53.76
335.116	-5.63
335.329	86.53
335.541	-13.82
335.754	20.99
335.966	29.18
336.179	80.38
336.392	-11.78
336.604	68.09
336.817	107.01
337.029	-9.73
337.242	35.33
337.454	14.85
337.667	59.9
337.88	53.76
338.092	29.18
338.305	37.38
338.517	-75.26
338.729	90.62
338.942	-73.21
339.154	18.94
339.367	-17.92
339.579	10.75
339.792	20.99
340.004	61.95
340.217	-30.21
340.429	35.33
340.641	25.09
340.854	18.94
341.066	35.33
341.278	-5.63
341.491	57.86
341.703	64
341.915	-1.54
342.128	31.23
342.34	29.18
342.552	-7.68
342.764	117.25
342.977	14.85
343.189	33.28
343.401	27.14
343.613	2.56
343.826	102.91
344.038	-13.82
344.25	94.72
344.462	23.04
344.674	37.38
344.886	20.99
345.099	43.52
345.311	61.95
345.523	72.19
345.735	12.8
345.947	-17.92
346.159	45.57
346.371	66.05
346.583	90.62
346.795	150.01
347.007	-22.02
347.219	92.67
347.431	27.14
347.643	137.73
347.855	-40.45
348.067	141.82
348.279	78.33
348.491	8.7
348.703	25.09
348.915	31.23
349.127	57.86
349.339	33.28
349.551	37.38
349.763	25.09
349.975	55.81
350.187	64
350.399	78.33
350.61	72.19
350.822	47.62
351.034	84.48
351.246	37.38
351.458	47.62
351.669	80.38
351.881	-1.54
352.093	68.09
352.305	55.81
352.517	117.25
352.728	84.48
352.94	43.52
353.152	88.57
353.363	74.24
353.575	107.01
353.787	39.42
353.999	57.86
354.21	33.28
354.422	98.81
354.633	35.33
354.845	68.09
355.057	47.62
355.268	-9.73
355.48	70.14
355.692	84.48
355.903	57.86
356.115	-9.73
356.326	29.18
356.538	80.38
356.749	94.72
356.961	152.06
357.172	2.56
357.384	2.56
357.595	12.8
357.807	53.76
358.018	-22.02
358.23	12.8
358.441	113.15
358.653	43.52
358.864	-99.84
359.075	8.7
359.287	92.67
359.498	66.05
359.709	55.81
359.921	-46.59
360.132	0.51
360.344	53.76
360.555	14.85
360.766	78.33
360.977	4.61
361.189	49.66
361.4	47.62
361.611	109.05
361.823	55.81
362.034	10.75
362.245	18.94
362.456	64
362.667	123.39
362.879	43.52
363.09	61.95
363.301	61.95
363.512	4.61
363.723	57.86
363.935	47.62
364.146	76.29
364.357	-28.16
364.568	74.24
364.779	20.99
364.99	53.76
365.201	70.14
365.412	141.82
365.623	4.61
365.834	82.43
366.045	86.53
366.256	109.05
366.467	90.62
366.678	35.33
366.889	113.15
367.1	47.62
367.311	25.09
367.522	35.33
367.733	74.24
367.944	35.33
368.155	25.09
368.366	78.33
368.577	160.25
368.788	76.29
368.999	51.71
369.209	68.09
369.42	109.05
369.631	41.47
369.842	70.14
370.053	-9.73
370.264	51.71
370.474	14.85
370.685	55.81
370.896	113.15
371.107	43.52
371.317	10.75
371.528	12.8
371.739	49.66
371.95	88.57
372.16	96.77
372.371	160.25
372.582	2.56
372.792	27.14
373.003	80.38
373.214	53.76
373.424	27.14
373.635	-26.11
373.846	86.53
374.056	31.23
374.267	84.48
374.477	35.33
374.688	4.61
374.898	2.56
375.109	119.29
375.319	76.29
375.53	45.57
375.74	150.01
375.951	25.09
376.161	70.14
376.372	76.29
376.582	29.18
376.793	72.19
377.003	-7.68
377.214	-24.06
377.424	135.68
377.635	80.38
377.845	41.47
378.055	68.09
378.266	70.14
378.476	47.62
378.686	84.48
378.897	0.51
379.107	23.04
379.317	61.95
379.528	2.56
379.738	18.94
379.948	45.57
380.158	100.86
380.369	88.57
380.579	127.49
380.789	86.53
380.999	84.48
381.21	70.14
381.42	31.23
381.63	10.75
381.84	84.48
382.05	55.81
382.261	102.91
382.471	76.29
382.681	6.66
382.891	90.62
383.101	20.99
383.311	12.8
383.521	88.57
383.731	98.81
383.941	135.68
384.151	84.48
384.361	10.75
384.571	43.52
384.781	76.29
384.991	84.48
385.201	33.28
385.411	76.29
385.621	49.66
385.831	96.77
386.041	10.75
386.251	29.18
386.461	51.71
386.671	33.28
386.881	72.19
387.091	53.76
387.301	84.48
387.511	29.18
387.72	-3.58
387.93	61.95
388.14	20.99
388.35	51.71
388.56	76.29
388.769	59.9
388.979	94.72
389.189	86.53
389.399	27.14
389.609	111.1
389.818	-28.16
390.028	25.09
390.238	64
390.447	51.71
390.657	76.29
390.867	78.33
391.076	80.38
391.286	61.95
391.496	92.67
391.705	100.86
391.915	29.18
392.125	117.25
392.334	102.91
392.544	88.57
392.753	76.29
392.963	27.14
393.172	127.49
393.382	45.57
393.591	107.01
393.801	64
394.01	184.83
394.22	37.38
394.429	102.91
394.639	20.99
394.848	178.69
395.058	131.58
395.267	117.25
395.477	86.53
395.686	74.24
395.895	84.48
396.105	133.63
396.314	137.73
396.524	68.09
396.733	41.47
396.942	125.44
397.152	70.14
397.361	125.44
397.57	18.94
397.78	121.34
397.989	160.25
398.198	154.11
398.407	121.34
398.617	47.62
398.826	111.1
399.035	76.29
399.244	66.05
399.453	64
399.663	107.01
399.872	86.53
400.081	61.95
400.29	84.48
400.499	111.1
400.708	113.15
400.917	51.71
401.127	80.38
401.336	70.14
401.545	113.15
401.754	117.25
401.963	121.34
402.172	104.96
402.381	145.92
402.59	135.68
402.799	109.05
403.008	72.19
403.217	145.92
403.426	129.53
403.635	86.53
403.844	102.91
404.053	145.92
404.262	170.49
404.471	133.63
404.68	104.96
404.888	98.81
405.097	86.53
405.306	168.45
405.515	127.49
405.724	125.44
405.933	82.43
406.142	145.92
406.35	119.29
406.559	78.33
406.768	164.35
406.977	199.16
407.185	123.39
407.394	219.64
407.603	166.4
407.812	209.4
408.02	137.73
408.229	258.56
408.438	223.74
408.646	174.59
408.855	248.32
409.064	229.88
409.272	233.98
409.481	256.51
409.69	225.79
409.898	186.88
410.107	217.6
410.315	311.8
410.524	305.66
410.733	272.89
410.941	244.22
411.15	324.09
411.358	352.76
411.567	338.43
411.775	315.9
411.984	346.62
412.192	399.87
412.401	387.58
412.609	416.25
412.818	412.15
413.026	371.19
413.234	346.62
413.443	494.07
413.651	406.01
413.86	530.94
414.068	551.42
414.276	518.65
414.485	524.79
414.693	600.57
414.901	584.18
415.11	604.66
415.318	629.24
415.526	621.05
415.734	684.53
415.943	598.52
416.151	645.62
416.359	705.01
416.567	758.26
416.776	754.16
416.984	739.83
417.192	807.41
417.4	877.04
417.608	848.37
417.817	805.36
418.025	918
418.233	989.68
418.441	987.63
418.649	907.76
418.857	1087.98
419.065	1165.81
419.273	975.35
419.481	1212.91
419.689	1165.81
419.897	1176.05
420.105	1288.68
420.313	1264.11
420.521	1429.99
420.729	1438.19
420.937	1413.61
421.145	1436.14
421.353	1536.49
421.561	1677.8
421.769	1630.7
421.977	1675.75
422.185	1640.93
422.393	1831.4
422.601	1962.47
422.809	1778.15
423.017	1919.46
423.224	1946.08
423.432	2042.34
423.64	2085.34
423.848	2253.28
424.056	2284
424.263	2382.3
424.471	2441.69
424.679	2413.02
424.887	2707.93
425.094	2599.38
425.302	2671.06
425.51	2675.16
425.718	2658.78
425.925	2875.86
426.133	2927.06
426.341	3027.41
426.548	3228.11
426.756	3207.63
426.964	3287.5
427.171	3424.72
427.379	3649.99
427.586	3500.49
427.794	3838.41
428.001	3914.18
428.209	4022.72
428.417	3977.67
428.624	4366.78
428.832	4305.34
429.039	4272.57
429.247	4254.14
429.454	4671.93
429.662	5048.75
429.869	4764.09
430.076	4966.84
430.284	4833.72
430.491	5093.81
430.699	5470.64
430.906	5527.98
431.114	5478.83
431.321	5671.34
431.528	5863.85
431.736	6113.7
431.943	6283.68
432.15	6240.67
432.358	6224.29
432.565	6513.05
432.772	6502.81
432.979	6953.37
433.187	7113.11
433.394	7055.76
433.601	7555.47
433.808	7758.22
434.016	7565.71
434.223	7758.22
434.43	8532.35
434.637	8221.06
434.844	8769.91
435.052	8948.09
435.259	8989.05
435.466	8839.55
435.673	8829.31
435.88	9355.63
436.087	9728.36
436.294	9988.46
436.501	9881.96
436.708	9992.55
436.915	10240.36
437.122	10658.14
437.329	10738.01
437.537	11065.69
437.743	11266.39
437.95	11252.05
438.157	11616.59
438.364	11923.79
438.571	11831.63
438.778	12120.39
438.985	12968.25
439.192	12456.26
439.399	13087.03
439.606	12783.93
439.813	13691.18
440.02	14584.1
440.227	13947.18
440.433	13873.45
440.64	14584.1
440.847	14227.75
441.054	14512.42
441.261	15667.47
441.467	15626.51
441.674	15849.74
441.881	16341.25
442.088	16294.15
442.294	16122.12
442.501	16582.91
442.708	17015.04
442.914	17561.84
443.121	18305.26
443.328	17754.35
443.534	19232.99
443.741	18647.27
443.948	18465
444.154	19935.44
444.361	19503.32
444.568	19642.58
444.774	19613.91
444.981	19945.68
445.187	20345.03
445.394	21407.93
445.6	21156.03
445.807	23242.91
446.013	22114.48
446.22	22481.06
446.426	23558.3
446.633	23414.94
446.839	24727.69
447.046	23474.33
447.252	24850.56
447.459	24850.56
447.665	25131.14
447.871	26181.74
448.078	26775.66
448.284	25663.61
448.491	26374.25
448.697	27490.4
448.903	28166.23
449.11	28026.96
449.316	27865.17
449.522	28256.34
449.728	29132.87
449.935	28960.84
450.141	29356.1
450.347	29757.5
450.553	29079.62
450.76	29294.66
450.966	30216.24
451.172	29984.82
451.378	30752.81
451.584	30093.36
451.791	30840.87
451.997	30861.35
452.203	31545.37
452.409	31512.61
452.615	31543.33
452.821	30052.41
453.027	29745.21
453.233	31651.87
453.44	30132.28
453.646	30677.04
453.852	30879.78
454.058	31379.49
454.264	30025.78
454.47	30877.74
454.676	30373.94
454.882	30873.64
455.088	28676.17
455.294	29220.93
455.5	29233.22
455.705	29765.69
455.911	28381.26
456.117	28039.25
456.323	27678.81
456.529	26257.52
456.735	27222.11
456.941	26695.78
457.147	26218.61
457.352	25350.27
457.558	25034.88
457.764	25135.23
457.97	24961.16
458.176	24369.29
458.381	24225.93
458.587	22759.59
458.793	23441.56
458.999	22042.8
459.204	23320.73
459.41	22751.4
459.616	21354.68
459.821	20973.76
460.027	21194.94
460.233	20723.91
460.438	19912.91
460.644	20052.17
460.85	19192.03
461.055	19089.63
461.261	18989.28
461.466	17635.57
461.672	16705.79
461.878	17979.63
462.083	16869.63
462.289	16574.72
462.494	16212.23
462.7	15755.54
462.905	15388.95
463.111	15722.77
463.316	15894.8
463.522	15536.4
463.727	15350.04
463.932	15569.17
464.138	15225.11
464.343	15391
464.549	14856.48
464.754	15292.69
464.959	15364.37
465.165	14965.02
465.37	14446.88
465.575	14070.06
465.781	14549.28
465.986	14659.87
466.191	14131.5
466.397	13738.29
466.602	13355.32
466.807	13736.24
467.012	14047.53
467.218	13666.61
467.423	13453.62
467.628	13416.76
467.833	14281
468.038	13623.6
468.244	13386.04
468.449	13797.68
