Data from USB4F104151__67__13-12-04-616.txt Node

Date: Fri Mar 14 13:12:04 EDT 2025
User: louis
Spectrometer: USB4F10415
Trigger mode: 4
Integration Time (sec): 2.000000E-2
Scans to average: 1
Electric dark correction enabled: true
Nonlinearity correction enabled: false
Boxcar width: 0
XAxis mode: Wavelengths
Number of Pixels in Spectrum: 3648
>>>>>Begin Spectral Data<<<<<
178.204	-93.01
178.424	-93.01
178.644	-93.01
178.864	-86.87
179.084	-99.16
179.304	17.58
179.524	-21.33
179.744	58.54
179.964	13.48
180.184	25.77
180.404	-15.19
180.624	36.01
180.844	-31.57
181.064	-52.05
181.283	25.77
181.503	-43.86
181.723	-13.14
181.943	29.87
182.163	17.58
182.383	-88.92
182.602	50.35
182.822	54.44
183.042	81.07
183.262	27.82
183.482	25.77
183.701	-2.9
183.921	-23.38
184.141	-13.14
184.361	25.77
184.58	-101.2
184.8	36.01
185.02	27.82
185.239	46.25
185.459	-0.85
185.679	103.59
185.898	7.34
186.118	13.48
186.338	66.73
186.557	109.74
186.777	40.11
186.997	-4.95
187.216	74.92
187.436	109.74
187.655	68.78
187.875	72.87
188.095	60.59
188.314	21.67
188.534	87.21
188.753	11.43
188.973	66.73
189.192	81.07
189.412	60.59
189.631	5.29
189.851	21.67
190.07	36.01
190.29	-29.52
190.509	-58.2
190.729	-11.09
190.948	25.77
191.168	25.77
191.387	42.15
191.607	5.29
191.826	9.39
192.045	21.67
192.265	97.45
192.484	64.68
192.704	19.63
192.923	-15.19
193.142	126.12
193.362	46.25
193.581	33.96
193.8	36.01
194.02	11.43
194.239	64.68
194.458	62.63
194.678	66.73
194.897	56.49
195.116	-2.9
195.335	44.2
195.555	17.58
195.774	-54.1
195.993	72.87
196.212	33.96
196.432	3.24
196.651	83.11
196.87	-17.24
197.089	40.11
197.308	111.78
197.528	95.4
197.747	38.06
197.966	33.96
198.185	91.31
198.404	-9.05
198.623	93.35
198.842	52.39
199.062	58.54
199.281	85.16
199.5	48.3
199.719	25.77
199.938	54.44
200.157	87.21
200.376	101.55
200.595	42.15
200.814	44.2
201.033	17.58
201.252	-11.09
201.471	27.82
201.69	-9.05
201.909	54.44
202.128	31.91
202.347	52.39
202.566	38.06
202.785	79.02
203.004	13.48
203.223	105.64
203.442	81.07
203.661	15.53
203.879	-17.24
204.098	21.67
204.317	-11.09
204.536	23.72
204.755	74.92
204.974	-0.85
205.193	3.24
205.411	115.88
205.63	36.01
205.849	52.39
206.068	58.54
206.287	50.35
206.505	21.67
206.724	-15.19
206.943	36.01
207.162	44.2
207.381	83.11
207.599	60.59
207.818	27.82
208.037	46.25
208.255	-35.67
208.474	85.16
208.693	29.87
208.911	115.88
209.13	1.19
209.349	31.91
209.567	-31.57
209.786	25.77
210.005	-66.39
210.223	-4.95
210.442	-31.57
210.661	89.26
210.879	54.44
211.098	23.72
211.316	85.16
211.535	64.68
211.753	-13.14
211.972	11.43
212.191	-25.43
212.409	66.73
212.628	-2.9
212.846	21.67
213.065	-68.44
213.283	124.07
213.502	15.53
213.72	52.39
213.938	23.72
214.157	7.34
214.375	44.2
214.594	29.87
214.812	-37.72
215.031	68.78
215.249	31.91
215.467	-29.52
215.686	15.53
215.904	83.11
216.122	-27.48
216.341	107.69
216.559	38.06
216.778	66.73
216.996	74.92
217.214	54.44
217.432	5.29
217.651	1.19
217.869	23.72
218.087	-27.48
218.306	66.73
218.524	66.73
218.742	74.92
218.96	-4.95
219.179	-11.09
219.397	33.96
219.615	70.83
219.833	-15.19
220.051	21.67
220.27	-13.14
220.488	44.2
220.706	46.25
220.924	72.87
221.142	-23.38
221.36	29.87
221.578	-23.38
221.796	13.48
222.015	3.24
222.233	42.15
222.451	124.07
222.669	60.59
222.887	83.11
223.105	-0.85
223.323	66.73
223.541	1.19
223.759	29.87
223.977	83.11
224.195	5.29
224.413	-0.85
224.631	-4.95
224.849	1.19
225.067	126.12
225.285	3.24
225.503	58.54
225.721	31.91
225.939	58.54
226.157	46.25
226.375	158.89
226.592	-70.48
226.81	-23.38
227.028	58.54
227.246	85.16
227.464	-50
227.682	15.53
227.9	85.16
228.117	25.77
228.335	-27.48
228.553	72.87
228.771	31.91
228.989	33.96
229.206	7.34
229.424	13.48
229.642	-9.05
229.86	29.87
230.077	38.06
230.295	7.34
230.513	48.3
230.731	83.11
230.948	113.83
231.166	38.06
231.384	-50
231.601	33.96
231.819	21.67
232.037	68.78
232.254	-7
232.472	19.63
232.689	50.35
232.907	119.98
233.125	19.63
233.342	87.21
233.56	-2.9
233.777	31.91
233.995	44.2
234.213	25.77
234.43	-13.14
234.648	-0.85
234.865	9.39
235.083	-33.62
235.3	19.63
235.518	99.5
235.735	52.39
235.953	27.82
236.17	25.77
236.388	27.82
236.605	85.16
236.822	-21.33
237.04	-2.9
237.257	68.78
237.475	33.96
237.692	42.15
237.909	40.11
238.127	-17.24
238.344	54.44
238.562	52.39
238.779	48.3
238.996	11.43
239.214	68.78
239.431	109.74
239.648	-2.9
239.865	42.15
240.083	54.44
240.3	11.43
240.517	44.2
240.735	60.59
240.952	76.97
241.169	91.31
241.386	-39.76
241.603	17.58
241.821	27.82
242.038	40.11
242.255	19.63
242.472	27.82
242.689	64.68
242.907	29.87
243.124	-9.05
243.341	42.15
243.558	-2.9
243.775	52.39
243.992	48.3
244.209	85.16
244.426	66.73
244.643	119.98
244.86	83.11
245.078	36.01
245.295	23.72
245.512	83.11
245.729	74.92
245.946	42.15
246.163	91.31
246.38	19.63
246.597	60.59
246.814	15.53
247.031	15.53
247.248	83.11
247.464	70.83
247.681	42.15
247.898	64.68
248.115	31.91
248.332	-27.48
248.549	101.55
248.766	54.44
248.983	60.59
249.2	13.48
249.417	-7
249.633	11.43
249.85	60.59
250.067	52.39
250.284	33.96
250.501	29.87
250.717	23.72
250.934	58.54
251.151	58.54
251.368	-21.33
251.585	-2.9
251.801	-27.48
252.018	91.31
252.235	-21.33
252.451	19.63
252.668	52.39
252.885	50.35
253.102	56.49
253.318	-9.05
253.535	52.39
253.752	-29.52
253.968	79.02
254.185	23.72
254.401	54.44
254.618	50.35
254.835	19.63
255.051	9.39
255.268	56.49
255.484	1.19
255.701	-27.48
255.917	107.69
256.134	-47.96
256.351	38.06
256.567	11.43
256.784	87.21
257	83.11
257.217	36.01
257.433	46.25
257.65	23.72
257.866	33.96
258.082	70.83
258.299	74.92
258.515	17.58
258.732	70.83
258.948	9.39
259.165	-19.29
259.381	31.91
259.597	-7
259.814	11.43
260.03	-66.39
260.246	54.44
260.463	31.91
260.679	52.39
260.895	29.87
261.112	46.25
261.328	15.53
261.544	13.48
261.761	25.77
261.977	-2.9
262.193	-9.05
262.409	13.48
262.626	21.67
262.842	85.16
263.058	-0.85
263.274	60.59
263.49	5.29
263.707	58.54
263.923	-25.43
264.139	-27.48
264.355	-15.19
264.571	111.78
264.787	27.82
265.004	-0.85
265.22	3.24
265.436	101.55
265.652	83.11
265.868	74.92
266.084	50.35
266.3	15.53
266.516	33.96
266.732	13.48
266.948	33.96
267.164	46.25
267.38	40.11
267.596	70.83
267.812	36.01
268.028	58.54
268.244	42.15
268.46	42.15
268.676	33.96
268.892	76.97
269.108	103.59
269.324	62.63
269.54	44.2
269.756	91.31
269.972	-15.19
270.188	31.91
270.403	-4.95
270.619	38.06
270.835	54.44
271.051	13.48
271.267	68.78
271.483	-2.9
271.698	31.91
271.914	44.2
272.13	58.54
272.346	101.55
272.562	42.15
272.777	48.3
272.993	33.96
273.209	36.01
273.425	48.3
273.64	29.87
273.856	74.92
274.072	56.49
274.287	27.82
274.503	68.78
274.719	36.01
274.934	66.73
275.15	-7
275.366	-7
275.581	-29.52
275.797	31.91
276.012	81.07
276.228	50.35
276.444	-43.86
276.659	60.59
276.875	9.39
277.09	-13.14
277.306	58.54
277.521	1.19
277.737	-11.09
277.952	46.25
278.168	-25.43
278.383	103.59
278.599	25.77
278.814	31.91
279.03	17.58
279.245	33.96
279.461	-19.29
279.676	140.46
279.892	9.39
280.107	-25.43
280.322	38.06
280.538	-13.14
280.753	50.35
280.969	13.48
281.184	-19.29
281.399	119.98
281.615	9.39
281.83	52.39
282.045	1.19
282.26	21.67
282.476	72.87
282.691	72.87
282.906	36.01
283.122	17.58
283.337	9.39
283.552	103.59
283.767	-2.9
283.983	62.63
284.198	60.59
284.413	27.82
284.628	-37.72
284.843	85.16
285.058	56.49
285.274	29.87
285.489	-37.72
285.704	52.39
285.919	-21.33
286.134	-13.14
286.349	66.73
286.564	52.39
286.779	56.49
286.995	52.39
287.21	-17.24
287.425	40.11
287.64	-29.52
287.855	89.26
288.07	1.19
288.285	44.2
288.5	-0.85
288.715	11.43
288.93	3.24
289.145	21.67
289.36	21.67
289.575	13.48
289.79	91.31
290.004	13.48
290.219	46.25
290.434	52.39
290.649	13.48
290.864	-11.09
291.079	-41.81
291.294	15.53
291.509	11.43
291.724	25.77
291.938	60.59
292.153	68.78
292.368	27.82
292.583	11.43
292.798	107.69
293.012	-4.95
293.227	31.91
293.442	62.63
293.657	33.96
293.871	33.96
294.086	-7
294.301	76.97
294.516	3.24
294.73	17.58
294.945	3.24
295.16	79.02
295.374	44.2
295.589	44.2
295.804	-66.39
296.018	17.58
296.233	132.26
296.447	31.91
296.662	25.77
296.877	27.82
297.091	79.02
297.306	29.87
297.52	15.53
297.735	89.26
297.949	-13.14
298.164	66.73
298.378	-37.72
298.593	-15.19
298.807	-23.38
299.022	19.63
299.236	70.83
299.451	103.59
299.665	-19.29
299.88	54.44
300.094	46.25
300.309	46.25
300.523	9.39
300.737	1.19
300.952	38.06
301.166	-25.43
301.381	-7
301.595	21.67
301.809	29.87
302.024	101.55
302.238	-7
302.452	68.78
302.667	33.96
302.881	64.68
303.095	76.97
303.309	13.48
303.524	56.49
303.738	99.5
303.952	44.2
304.166	48.3
304.381	44.2
304.595	60.59
304.809	-7
305.023	103.59
305.237	58.54
305.452	60.59
305.666	-19.29
305.88	72.87
306.094	-2.9
306.308	-0.85
306.522	-0.85
306.736	74.92
306.95	-7
307.164	27.82
307.379	-13.14
307.593	25.77
307.807	91.31
308.021	9.39
308.235	87.21
308.449	58.54
308.663	38.06
308.877	99.5
309.091	97.45
309.305	134.31
309.519	46.25
309.733	81.07
309.947	107.69
310.161	76.97
310.374	52.39
310.588	79.02
310.802	13.48
311.016	13.48
311.23	33.96
311.444	7.34
311.658	134.31
311.872	42.15
312.085	115.88
312.299	64.68
312.513	23.72
312.727	5.29
312.941	-2.9
313.154	40.11
313.368	3.24
313.582	19.63
313.796	76.97
314.009	1.19
314.223	-21.33
314.437	81.07
314.651	95.4
314.864	23.72
315.078	56.49
315.292	33.96
315.505	21.67
315.719	60.59
315.933	152.74
316.146	25.77
316.36	44.2
316.573	25.77
316.787	103.59
317.001	70.83
317.214	25.77
317.428	5.29
317.641	11.43
317.855	27.82
318.068	-29.52
318.282	68.78
318.495	21.67
318.709	72.87
318.922	25.77
319.136	38.06
319.349	-17.24
319.563	15.53
319.776	25.77
319.99	23.72
320.203	91.31
320.417	52.39
320.63	117.93
320.843	85.16
321.057	-7
321.27	62.63
321.483	3.24
321.697	87.21
321.91	11.43
322.124	79.02
322.337	115.88
322.55	-39.76
322.763	-7
322.977	42.15
323.19	-7
323.403	36.01
323.617	44.2
323.83	42.15
324.043	42.15
324.256	38.06
324.469	-2.9
324.683	76.97
324.896	-72.53
325.109	7.34
325.322	-25.43
325.535	-29.52
325.748	5.29
325.962	50.35
326.175	97.45
326.388	60.59
326.601	36.01
326.814	58.54
327.027	21.67
327.24	115.88
327.453	42.15
327.666	62.63
327.879	42.15
328.092	91.31
328.305	-2.9
328.518	83.11
328.731	38.06
328.944	44.2
329.157	87.21
329.37	23.72
329.583	13.48
329.796	66.73
330.009	-27.48
330.222	138.41
330.435	5.29
330.648	-4.95
330.861	66.73
331.073	56.49
331.286	66.73
331.499	27.82
331.712	62.63
331.925	66.73
332.138	-29.52
332.35	138.41
332.563	76.97
332.776	5.29
332.989	3.24
333.202	124.07
333.414	1.19
333.627	17.58
333.84	33.96
334.053	66.73
334.265	38.06
334.478	13.48
334.691	54.44
334.903	64.68
335.116	13.48
335.329	33.96
335.541	83.11
335.754	76.97
335.966	17.58
336.179	115.88
336.392	31.91
336.604	-15.19
336.817	91.31
337.029	126.12
337.242	-15.19
337.454	66.73
337.667	36.01
337.88	91.31
338.092	87.21
338.305	66.73
338.517	-29.52
338.729	42.15
338.942	66.73
339.154	36.01
339.367	-7
339.579	89.26
339.792	52.39
340.004	85.16
340.217	46.25
340.429	76.97
340.641	-2.9
340.854	58.54
341.066	40.11
341.278	-23.38
341.491	122.02
341.703	81.07
341.915	38.06
342.128	79.02
342.34	33.96
342.552	-31.57
342.764	58.54
342.977	25.77
343.189	56.49
343.401	38.06
343.613	89.26
343.826	50.35
344.038	-43.86
344.25	40.11
344.462	66.73
344.674	93.35
344.886	-97.11
345.099	111.78
345.311	-0.85
345.523	-23.38
345.735	64.68
345.947	107.69
346.159	56.49
346.371	48.3
346.583	3.24
346.795	119.98
347.007	-7
347.219	9.39
347.431	38.06
347.643	44.2
347.855	42.15
348.067	119.98
348.279	-31.57
348.491	27.82
348.703	42.15
348.915	76.97
349.127	27.82
349.339	85.16
349.551	29.87
349.763	58.54
349.975	93.35
350.187	101.55
350.399	103.59
350.61	19.63
350.822	50.35
351.034	19.63
351.246	21.67
351.458	103.59
351.669	56.49
351.881	119.98
352.093	58.54
352.305	9.39
352.517	109.74
352.728	42.15
352.94	74.92
353.152	-0.85
353.363	103.59
353.575	144.55
353.787	107.69
353.999	76.97
354.21	15.53
354.422	-2.9
354.633	46.25
354.845	68.78
355.057	48.3
355.268	42.15
355.48	13.48
355.692	44.2
355.903	3.24
356.115	46.25
356.326	17.58
356.538	93.35
356.749	31.91
356.961	85.16
357.172	-4.95
357.384	50.35
357.595	60.59
357.807	58.54
358.018	101.55
358.23	76.97
358.441	89.26
358.653	124.07
358.864	48.3
359.075	62.63
359.287	109.74
359.498	66.73
359.709	50.35
359.921	85.16
360.132	-13.14
360.344	107.69
360.555	99.5
360.766	23.72
360.977	3.24
361.189	17.58
361.4	66.73
361.611	79.02
361.823	91.31
362.034	87.21
362.245	11.43
362.456	-23.38
362.667	79.02
362.879	17.58
363.09	-21.33
363.301	38.06
363.512	95.4
363.723	54.44
363.935	27.82
364.146	44.2
364.357	-25.43
364.568	-7
364.779	-21.33
364.99	54.44
365.201	7.34
365.412	76.97
365.623	13.48
365.834	36.01
366.045	50.35
366.256	54.44
366.467	89.26
366.678	29.87
366.889	19.63
367.1	42.15
367.311	95.4
367.522	33.96
367.733	142.5
367.944	85.16
368.155	17.58
368.366	33.96
368.577	89.26
368.788	85.16
368.999	-0.85
369.209	99.5
369.42	42.15
369.631	50.35
369.842	58.54
370.053	58.54
370.264	76.97
370.474	79.02
370.685	54.44
370.896	68.78
371.107	52.39
371.317	31.91
371.528	21.67
371.739	62.63
371.95	15.53
372.16	54.44
372.371	-25.43
372.582	21.67
372.792	17.58
373.003	27.82
373.214	40.11
373.424	62.63
373.635	13.48
373.846	72.87
374.056	3.24
374.267	36.01
374.477	60.59
374.688	-52.05
374.898	23.72
375.109	81.07
375.319	44.2
375.53	136.36
375.74	74.92
375.951	83.11
376.161	66.73
376.372	29.87
376.582	-41.81
376.793	85.16
377.003	19.63
377.214	21.67
377.424	64.68
377.635	-21.33
377.845	15.53
378.055	119.98
378.266	5.29
378.476	-41.81
378.686	3.24
378.897	64.68
379.107	62.63
379.317	27.82
379.528	21.67
379.738	101.55
379.948	81.07
380.158	-7
380.369	-13.14
380.579	136.36
380.789	-2.9
380.999	91.31
381.21	19.63
381.42	126.12
381.63	1.19
381.84	74.92
382.05	25.77
382.261	46.25
382.471	62.63
382.681	107.69
382.891	91.31
383.101	109.74
383.311	29.87
383.521	40.11
383.731	142.5
383.941	27.82
384.151	91.31
384.361	42.15
384.571	19.63
384.781	19.63
384.991	89.26
385.201	62.63
385.411	91.31
385.621	165.03
385.831	62.63
386.041	70.83
386.251	11.43
386.461	68.78
386.671	54.44
386.881	42.15
387.091	85.16
387.301	38.06
387.511	109.74
387.72	9.39
387.93	124.07
388.14	-0.85
388.35	142.5
388.56	1.19
388.769	15.53
388.979	124.07
389.189	70.83
389.399	66.73
389.609	99.5
389.818	66.73
390.028	56.49
390.238	62.63
390.447	42.15
390.657	56.49
390.867	89.26
391.076	66.73
391.286	46.25
391.496	5.29
391.705	17.58
391.915	89.26
392.125	52.39
392.334	15.53
392.544	44.2
392.753	91.31
392.963	-7
393.172	5.29
393.382	50.35
393.591	128.17
393.801	152.74
394.01	27.82
394.22	175.27
394.429	136.36
394.639	42.15
394.848	111.78
395.058	50.35
395.267	68.78
395.477	70.83
395.686	60.59
395.895	193.7
396.105	101.55
396.314	154.79
396.524	66.73
396.733	72.87
396.942	148.65
397.152	85.16
397.361	31.91
397.57	126.12
397.78	81.07
397.989	105.64
398.198	95.4
398.407	119.98
398.617	85.16
398.826	74.92
399.035	60.59
399.244	21.67
399.453	107.69
399.663	181.42
399.872	93.35
400.081	68.78
400.29	150.7
400.499	85.16
400.708	101.55
400.917	76.97
401.127	58.54
401.336	46.25
401.545	130.22
401.754	134.31
401.963	134.31
402.172	27.82
402.381	128.17
402.59	152.74
402.799	21.67
403.008	113.83
403.217	101.55
403.426	74.92
403.635	85.16
403.844	128.17
404.053	136.36
404.262	142.5
404.471	119.98
404.68	95.4
404.888	74.92
405.097	60.59
405.306	76.97
405.515	115.88
405.724	158.89
405.933	179.37
406.142	160.94
406.35	150.7
406.559	150.7
406.768	97.45
406.977	189.61
407.185	222.38
407.394	173.22
407.603	97.45
407.812	242.85
408.02	144.55
408.229	201.9
408.438	179.37
408.646	210.09
408.855	265.38
409.064	85.16
409.272	201.9
409.481	281.77
409.69	296.1
409.898	267.43
410.107	263.33
410.315	216.23
410.524	242.85
410.733	298.15
410.941	306.34
411.15	357.54
411.358	302.25
411.567	378.02
411.775	349.35
411.984	410.79
412.192	361.64
412.401	345.25
412.609	453.8
412.818	437.41
413.026	427.17
413.234	447.65
413.443	459.94
413.651	396.45
413.86	543.91
414.068	543.91
414.276	513.19
414.485	507.04
414.693	535.71
414.901	492.71
415.11	619.68
415.318	629.92
415.526	607.39
415.734	664.74
415.943	697.5
416.151	771.23
416.359	732.32
416.567	781.47
416.776	707.74
416.984	851.1
417.192	781.47
417.4	816.29
417.608	840.86
417.817	849.05
418.025	883.87
418.233	1037.47
418.441	945.31
418.649	949.4
418.857	1072.28
419.065	1062.04
419.273	1146.01
419.481	1041.56
419.689	1264.79
419.897	1242.26
420.105	1389.72
420.313	1418.39
420.521	1289.37
420.729	1402.01
420.937	1569.94
421.145	1586.32
421.353	1625.23
421.561	1664.15
421.769	1660.05
421.977	1776.78
422.185	1733.78
422.393	1920.14
422.601	1825.93
422.809	1926.29
423.017	1922.19
423.224	1989.77
423.432	2079.88
423.64	1987.72
423.848	2380.93
424.056	2331.78
424.263	2442.37
424.471	2458.76
424.679	2559.11
424.887	2518.15
425.094	2643.07
425.302	2851.97
425.51	2835.58
425.718	2837.63
425.925	2851.97
426.133	3060.86
426.341	3302.52
426.548	3308.66
426.756	3425.4
426.964	3345.53
427.171	3644.53
427.379	3716.21
427.586	3794.03
427.794	3822.7
428.001	3902.58
428.209	4185.19
428.417	4062.32
428.624	4523.11
428.832	4416.62
429.039	4367.46
429.247	4482.15
429.454	4719.71
429.662	5055.58
429.869	4703.33
430.076	5080.16
430.284	4867.17
430.491	5342.3
430.699	5463.13
430.906	5442.65
431.114	5653.59
431.321	5792.85
431.528	5755.99
431.736	6169.68
431.943	6511.69
432.15	6335.56
432.358	6239.31
432.565	6589.51
432.772	6767.68
432.979	7185.47
433.187	7300.16
433.394	7185.47
433.601	7779.38
433.808	7791.67
434.016	7736.37
434.223	8008.75
434.43	8533.03
434.637	8381.48
434.844	8889.38
435.052	9102.37
435.259	8956.96
435.466	9028.64
435.673	9073.7
435.88	9604.12
436.087	10107.92
436.294	10142.74
436.501	9788.44
436.708	10177.55
436.915	10454.03
437.122	10920.96
437.329	10855.43
437.537	11088.9
437.743	11412.48
437.95	11142.14
438.157	11899.89
438.364	12489.71
438.571	12182.51
438.778	12346.35
438.985	13609.95
439.192	12932.07
439.399	13497.31
439.606	13069.28
439.813	13937.62
440.02	14646.22
440.227	14398.41
440.433	14547.92
440.64	14545.87
440.847	14746.57
441.054	14937.03
441.261	15639.48
441.467	15633.34
441.674	16118.71
441.881	16495.53
442.088	16642.99
442.294	16399.28
442.501	17034.15
442.708	17179.56
442.914	17888.15
443.121	18744.2
443.328	18013.08
443.534	19530.62
443.741	18998.15
443.948	18813.84
444.154	19901.31
444.361	20034.42
444.568	20185.97
444.774	19880.83
444.981	20226.93
445.187	21015.4
445.394	21730.14
445.6	21506.91
445.807	23315.27
446.013	22670.16
446.22	22905.68
446.426	23835.45
446.633	24144.7
446.839	25041.71
447.046	23860.03
447.252	24959.79
447.459	25148.2
447.665	25119.53
447.871	26565.4
448.078	27523.85
448.284	26061.6
448.491	26739.47
448.697	28119.81
448.903	28027.65
449.11	28637.94
449.316	28216.06
449.522	28476.15
449.728	29371.11
449.935	29229.8
450.141	29813.48
450.347	30083.81
450.553	29262.57
450.76	29616.87
450.966	30931.67
451.172	30434.01
451.378	31324.88
451.584	30661.33
451.791	31597.26
451.997	30982.87
452.203	31750.85
452.409	31795.91
452.615	31572.68
452.821	30329.56
453.027	30159.58
453.233	31462.09
453.44	30784.21
453.646	30997.2
453.852	31220.43
454.058	31519.43
454.264	30517.98
454.47	31056.59
454.676	30665.43
454.882	31894.21
455.088	28560.12
455.294	29207.28
455.5	29500.14
455.705	30067.42
455.911	28670.71
456.117	28533.5
456.323	28146.43
456.529	26452.76
456.735	27896.58
456.941	27331.34
457.147	26673.94
457.352	25701.15
457.558	25649.96
457.764	25754.4
457.97	25361.19
458.176	24658.74
458.381	24789.81
458.587	23690.05
458.793	23739.2
458.999	21969.76
459.204	23753.54
459.41	23141.19
459.616	21629.79
459.821	21695.33
460.027	21468
460.233	21105.51
460.438	20349.81
460.644	20308.85
460.85	19440.51
461.055	19026.82
461.261	19016.58
461.466	17605.53
461.672	17179.56
461.878	18123.67
462.083	17019.81
462.289	16882.6
462.494	16565.17
462.7	15807.42
462.905	15530.94
463.111	16253.87
463.316	15944.63
463.522	15610.81
463.727	15805.37
463.932	15715.26
464.138	15475.65
464.343	15639.48
464.549	14859.21
464.754	15705.02
464.959	15424.45
465.165	15528.89
465.37	14771.15
465.575	14351.31
465.781	14881.74
465.986	15014.85
466.191	14523.34
466.397	14281.68
466.602	13538.27
466.807	13706.2
467.012	14021.59
467.218	13921.24
467.423	13853.66
467.628	13724.63
467.833	14685.13
468.038	13845.46
