Data from USB4F104151__19__13-10-32-146.txt Node

Date: Fri Mar 14 13:10:32 EDT 2025
User: louis
Spectrometer: USB4F10415
Trigger mode: 4
Integration Time (sec): 2.000000E-2
Scans to average: 1
Electric dark correction enabled: true
Nonlinearity correction enabled: false
Boxcar width: 0
XAxis mode: Wavelengths
Number of Pixels in Spectrum: 3648
>>>>>Begin Spectral Data<<<<<
178.204	-69.8
178.424	-69.8
178.644	-69.8
178.864	-145.58
179.084	-110.76
179.304	-18.6
179.524	5.97
179.744	20.31
179.964	67.41
180.184	61.27
180.404	18.26
180.624	-28.84
180.844	24.4
181.064	-12.46
181.283	-34.99
181.503	-57.51
181.723	-45.23
181.943	-110.76
182.163	42.84
182.383	18.26
182.602	-10.41
182.822	-2.22
183.042	100.18
183.262	18.26
183.482	12.12
183.701	34.64
183.921	28.5
184.141	-41.13
184.361	22.36
184.58	32.6
184.8	-2.22
185.02	53.08
185.239	-47.27
185.459	75.6
185.679	32.6
185.898	-14.51
186.118	85.84
186.338	59.22
186.557	91.99
186.777	-24.75
186.997	34.64
187.216	-28.84
187.436	83.8
187.655	-28.84
187.875	24.4
188.095	71.51
188.314	44.88
188.534	89.94
188.753	5.97
188.973	46.93
189.192	51.03
189.412	28.5
189.631	26.45
189.851	77.65
190.07	65.36
190.29	-92.33
190.509	46.93
190.729	20.31
190.948	-12.46
191.168	89.94
191.387	63.32
191.607	-67.75
191.826	106.32
192.045	59.22
192.265	75.6
192.484	-37.03
192.704	36.69
192.923	12.12
193.142	110.42
193.362	24.4
193.581	108.37
193.8	100.18
194.02	100.18
194.239	-10.41
194.458	100.18
194.678	48.98
194.897	28.5
195.116	59.22
195.335	42.84
195.555	-4.27
195.774	20.31
195.993	71.51
196.212	32.6
196.432	-2.22
196.651	59.22
196.87	22.36
197.089	44.88
197.308	-47.27
197.528	-0.17
197.747	-8.36
197.966	26.45
198.185	91.99
198.404	-6.31
198.623	89.94
198.842	59.22
199.062	48.98
199.281	44.88
199.5	67.41
199.719	12.12
199.938	36.69
200.157	118.61
200.376	24.4
200.595	22.36
200.814	67.41
201.033	34.64
201.252	16.21
201.471	34.64
201.69	-14.51
201.909	94.04
202.128	-34.99
202.347	61.27
202.566	71.51
202.785	-14.51
203.004	42.84
203.223	75.6
203.442	8.02
203.661	38.74
203.879	42.84
204.098	89.94
204.317	-30.89
204.536	5.97
204.755	20.31
204.974	-34.99
205.193	51.03
205.411	38.74
205.63	-4.27
205.849	42.84
206.068	26.45
206.287	8.02
206.505	83.8
206.724	77.65
206.943	14.17
207.162	12.12
207.381	32.6
207.599	71.51
207.818	-8.36
208.037	48.98
208.255	20.31
208.474	30.55
208.693	34.64
208.911	67.41
209.13	79.7
209.349	-20.65
209.567	24.4
209.786	75.6
210.005	40.79
210.223	18.26
210.442	-32.94
210.661	69.46
210.879	42.84
211.098	18.26
211.316	94.04
211.535	34.64
211.753	83.8
211.972	12.12
212.191	63.32
212.409	-6.31
212.628	28.5
212.846	5.97
213.065	94.04
213.283	12.12
213.502	-53.42
213.72	16.21
213.938	-37.03
214.157	-12.46
214.375	34.64
214.594	18.26
214.812	40.79
215.031	75.6
215.249	10.07
215.467	18.26
215.686	-20.65
215.904	51.03
216.122	42.84
216.341	28.5
216.559	12.12
216.778	128.85
216.996	10.07
217.214	59.22
217.432	59.22
217.651	24.4
217.869	10.07
218.087	-43.18
218.306	36.69
218.524	67.41
218.742	10.07
218.96	32.6
219.179	-63.66
219.397	8.02
219.615	-6.31
219.833	1.88
220.051	-8.36
220.27	36.69
220.488	34.64
220.706	24.4
220.924	1.88
221.142	28.5
221.36	-39.08
221.578	20.31
221.796	-12.46
222.015	28.5
222.233	26.45
222.451	112.47
222.669	10.07
222.887	42.84
223.105	53.08
223.323	3.93
223.541	-28.84
223.759	1.88
223.977	59.22
224.195	51.03
224.413	126.8
224.631	51.03
224.849	61.27
225.067	48.98
225.285	-4.27
225.503	-4.27
225.721	46.93
225.939	132.95
226.157	71.51
226.375	38.74
226.592	48.98
226.81	14.17
227.028	18.26
227.246	67.41
227.464	36.69
227.682	36.69
227.9	42.84
228.117	20.31
228.335	42.84
228.553	-2.22
228.771	-14.51
228.989	44.88
229.206	20.31
229.424	67.41
229.642	18.26
229.86	5.97
230.077	-18.6
230.295	28.5
230.513	8.02
230.731	-55.47
230.948	-8.36
231.166	28.5
231.384	-18.6
231.601	36.69
231.819	77.65
232.037	-0.17
232.254	12.12
232.472	55.12
232.689	38.74
232.907	34.64
233.125	-55.47
233.342	-30.89
233.56	48.98
233.777	10.07
233.995	14.17
234.213	89.94
234.43	38.74
234.648	16.21
234.865	10.07
235.083	40.79
235.3	-41.13
235.518	71.51
235.735	73.56
235.953	42.84
236.17	51.03
236.388	18.26
236.605	-14.51
236.822	46.93
237.04	71.51
237.257	77.65
237.475	69.46
237.692	114.52
237.909	-6.31
238.127	28.5
238.344	28.5
238.562	22.36
238.779	-12.46
238.996	3.93
239.214	-30.89
239.431	51.03
239.648	42.84
239.865	14.17
240.083	-0.17
240.3	44.88
240.517	59.22
240.735	14.17
240.952	81.75
241.169	24.4
241.386	38.74
241.603	3.93
241.821	-18.6
242.038	114.52
242.255	42.84
242.472	-12.46
242.689	53.08
242.907	91.99
243.124	-10.41
243.341	28.5
243.558	30.55
243.775	-8.36
243.992	-22.7
244.209	36.69
244.426	5.97
244.643	55.12
244.86	-14.51
245.078	120.66
245.295	61.27
245.512	53.08
245.729	12.12
245.946	77.65
246.163	-55.47
246.38	55.12
246.597	10.07
246.814	98.13
247.031	-14.51
247.248	8.02
247.464	32.6
247.681	89.94
247.898	26.45
248.115	59.22
248.332	83.8
248.549	14.17
248.766	16.21
248.983	106.32
249.2	-26.79
249.417	36.69
249.633	-4.27
249.85	10.07
250.067	18.26
250.284	91.99
250.501	18.26
250.717	83.8
250.934	-12.46
251.151	36.69
251.368	67.41
251.585	55.12
251.801	8.02
252.018	34.64
252.235	3.93
252.451	-47.27
252.668	-2.22
252.885	53.08
253.102	12.12
253.318	30.55
253.535	55.12
253.752	40.79
253.968	38.74
254.185	-4.27
254.401	46.93
254.618	44.88
254.835	48.98
255.051	18.26
255.268	28.5
255.484	24.4
255.701	53.08
255.917	18.26
256.134	83.8
256.351	57.17
256.567	10.07
256.784	1.88
257	-4.27
257.217	63.32
257.433	-20.65
257.65	87.89
257.866	124.76
258.082	30.55
258.299	-20.65
258.515	22.36
258.732	-73.9
258.948	59.22
259.165	-8.36
259.381	28.5
259.597	3.93
259.814	44.88
260.03	116.56
260.246	10.07
260.463	28.5
260.679	71.51
260.895	69.46
261.112	-6.31
261.328	59.22
261.544	8.02
261.761	96.08
261.977	32.6
262.193	51.03
262.409	51.03
262.626	-26.79
262.842	-4.27
263.058	1.88
263.274	61.27
263.49	85.84
263.707	18.26
263.923	26.45
264.139	-28.84
264.355	40.79
264.571	77.65
264.787	79.7
265.004	34.64
265.22	18.26
265.436	42.84
265.652	59.22
265.868	-14.51
266.084	42.84
266.3	16.21
266.516	8.02
266.732	40.79
266.948	63.32
267.164	24.4
267.38	30.55
267.596	77.65
267.812	53.08
268.028	59.22
268.244	-49.32
268.46	-0.17
268.676	75.6
268.892	16.21
269.108	1.88
269.324	18.26
269.54	-14.51
269.756	67.41
269.972	-65.71
270.188	-22.7
270.403	44.88
270.619	16.21
270.835	55.12
271.051	44.88
271.267	40.79
271.483	-28.84
271.698	46.93
271.914	-6.31
272.13	42.84
272.346	-12.46
272.562	22.36
272.777	100.18
272.993	28.5
273.209	14.17
273.425	94.04
273.64	20.31
273.856	-2.22
274.072	-2.22
274.287	51.03
274.503	59.22
274.719	1.88
274.934	77.65
275.15	-22.7
275.366	-24.75
275.581	-6.31
275.797	73.56
276.012	22.36
276.228	65.36
276.444	-12.46
276.659	44.88
276.875	-39.08
277.09	44.88
277.306	26.45
277.521	73.56
277.737	89.94
277.952	65.36
278.168	-30.89
278.383	48.98
278.599	-18.6
278.814	77.65
279.03	-6.31
279.245	40.79
279.461	75.6
279.676	102.23
279.892	26.45
280.107	-4.27
280.322	3.93
280.538	75.6
280.753	44.88
280.969	-26.79
281.184	3.93
281.399	42.84
281.615	32.6
281.83	-12.46
282.045	-8.36
282.26	-2.22
282.476	28.5
282.691	42.84
282.906	-34.99
283.122	22.36
283.337	-47.27
283.552	51.03
283.767	96.08
283.983	91.99
284.198	-18.6
284.413	57.17
284.628	-18.6
284.843	16.21
285.058	5.97
285.274	1.88
285.489	22.36
285.704	55.12
285.919	-20.65
286.134	-0.17
286.349	28.5
286.564	34.64
286.779	77.65
286.995	65.36
287.21	-8.36
287.425	67.41
287.64	32.6
287.855	46.93
288.07	10.07
288.285	30.55
288.5	91.99
288.715	55.12
288.93	-51.37
289.145	118.61
289.36	34.64
289.575	77.65
289.79	-30.89
290.004	79.7
290.219	14.17
290.434	-20.65
290.649	40.79
290.864	12.12
291.079	34.64
291.294	28.5
291.509	104.28
291.724	5.97
291.938	5.97
292.153	61.27
292.368	12.12
292.583	122.71
292.798	51.03
293.012	73.56
293.227	18.26
293.442	28.5
293.657	71.51
293.871	89.94
294.086	106.32
294.301	-6.31
294.516	65.36
294.73	110.42
294.945	71.51
295.16	-47.27
295.374	-4.27
295.589	12.12
295.804	14.17
296.018	10.07
296.233	24.4
296.447	59.22
296.662	22.36
296.877	59.22
297.091	83.8
297.306	55.12
297.52	16.21
297.735	63.32
297.949	42.84
298.164	61.27
298.378	-16.55
298.593	8.02
298.807	14.17
299.022	87.89
299.236	34.64
299.451	85.84
299.665	-34.99
299.88	36.69
300.094	100.18
300.309	36.69
300.523	59.22
300.737	36.69
300.952	10.07
301.166	42.84
301.381	-20.65
301.595	36.69
301.809	-34.99
302.024	85.84
302.238	38.74
302.452	32.6
302.667	26.45
302.881	85.84
303.095	22.36
303.309	-18.6
303.524	-26.79
303.738	22.36
303.952	75.6
304.166	67.41
304.381	1.88
304.595	69.46
304.809	-8.36
305.023	59.22
305.237	28.5
305.452	42.84
305.666	55.12
305.88	30.55
306.094	55.12
306.308	61.27
306.522	151.38
306.736	-4.27
306.95	79.7
307.164	63.32
307.379	18.26
307.593	87.89
307.807	61.27
308.021	38.74
308.235	61.27
308.449	94.04
308.663	-4.27
308.877	126.8
309.091	42.84
309.305	73.56
309.519	-20.65
309.733	75.6
309.947	-61.61
310.161	22.36
310.374	69.46
310.588	42.84
310.802	18.26
311.016	83.8
311.23	24.4
311.444	-28.84
311.658	53.08
311.872	-4.27
312.085	40.79
312.299	16.21
312.513	96.08
312.727	16.21
312.941	51.03
313.154	46.93
313.368	59.22
313.582	22.36
313.796	-20.65
314.009	69.46
314.223	71.51
314.437	16.21
314.651	132.95
314.864	1.88
315.078	42.84
315.292	10.07
315.505	14.17
315.719	20.31
315.933	8.02
316.146	-51.37
316.36	-14.51
316.573	28.5
316.787	-20.65
317.001	34.64
317.214	40.79
317.428	69.46
317.641	36.69
317.855	59.22
318.068	-24.75
318.282	14.17
318.495	63.32
318.709	57.17
318.922	-0.17
319.136	100.18
319.349	36.69
319.563	-8.36
319.776	-39.08
319.99	10.07
320.203	42.84
320.417	87.89
320.63	-53.42
320.843	59.22
321.057	18.26
321.27	38.74
321.483	118.61
321.697	75.6
321.91	-14.51
322.124	16.21
322.337	46.93
322.55	1.88
322.763	40.79
322.977	10.07
323.19	77.65
323.403	63.32
323.617	38.74
323.83	51.03
324.043	89.94
324.256	42.84
324.469	12.12
324.683	10.07
324.896	83.8
325.109	48.98
325.322	51.03
325.535	85.84
325.748	18.26
325.962	-16.55
326.175	87.89
326.388	26.45
326.601	42.84
326.814	42.84
327.027	3.93
327.24	59.22
327.453	34.64
327.666	110.42
327.879	-24.75
328.092	89.94
328.305	30.55
328.518	91.99
328.731	24.4
328.944	38.74
329.157	61.27
329.37	38.74
329.583	57.17
329.796	18.26
330.009	-6.31
330.222	83.8
330.435	3.93
330.648	-14.51
330.861	20.31
331.073	40.79
331.286	38.74
331.499	51.03
331.712	-6.31
331.925	26.45
332.138	53.08
332.35	100.18
332.563	-45.23
332.776	44.88
332.989	34.64
333.202	-6.31
333.414	75.6
333.627	59.22
333.84	10.07
334.053	-4.27
334.265	-8.36
334.478	3.93
334.691	-20.65
334.903	55.12
335.116	22.36
335.329	28.5
335.541	77.65
335.754	71.51
335.966	-4.27
336.179	14.17
336.392	51.03
336.604	73.56
336.817	-18.6
337.029	26.45
337.242	-18.6
337.454	73.56
337.667	-22.7
337.88	59.22
338.092	59.22
338.305	26.45
338.517	87.89
338.729	79.7
338.942	67.41
339.154	36.69
339.367	55.12
339.579	67.41
339.792	61.27
340.004	40.79
340.217	38.74
340.429	130.9
340.641	-30.89
340.854	10.07
341.066	-0.17
341.278	108.37
341.491	69.46
341.703	18.26
341.915	3.93
342.128	73.56
342.34	42.84
342.552	-6.31
342.764	26.45
342.977	38.74
343.189	30.55
343.401	94.04
343.613	-49.32
343.826	10.07
344.038	12.12
344.25	26.45
344.462	18.26
344.674	63.32
344.886	63.32
345.099	59.22
345.311	10.07
345.523	42.84
345.735	-55.47
345.947	46.93
346.159	57.17
346.371	51.03
346.583	3.93
346.795	46.93
347.007	-4.27
347.219	42.84
347.431	85.84
347.643	51.03
347.855	3.93
348.067	87.89
348.279	-30.89
348.491	55.12
348.703	10.07
348.915	24.4
349.127	-39.08
349.339	-20.65
349.551	18.26
349.763	73.56
349.975	20.31
350.187	34.64
350.399	-8.36
350.61	104.28
350.822	77.65
351.034	75.6
351.246	89.94
351.458	3.93
351.669	20.31
351.881	22.36
352.093	59.22
352.305	53.08
352.517	22.36
352.728	42.84
352.94	-0.17
353.152	75.6
353.363	28.5
353.575	51.03
353.787	63.32
353.999	34.64
354.21	67.41
354.422	-43.18
354.633	-12.46
354.845	38.74
355.057	-4.27
355.268	71.51
355.48	26.45
355.692	-14.51
355.903	38.74
356.115	3.93
356.326	57.17
356.538	53.08
356.749	79.7
356.961	44.88
357.172	30.55
357.384	63.32
357.595	46.93
357.807	79.7
358.018	12.12
358.23	73.56
358.441	91.99
358.653	69.46
358.864	51.03
359.075	16.21
359.287	22.36
359.498	63.32
359.709	18.26
359.921	-37.03
360.132	34.64
360.344	75.6
360.555	-10.41
360.766	-8.36
360.977	18.26
361.189	46.93
361.4	91.99
361.611	59.22
361.823	112.47
362.034	61.27
362.245	77.65
362.456	55.12
362.667	51.03
362.879	22.36
363.09	20.31
363.301	96.08
363.512	38.74
363.723	59.22
363.935	87.89
364.146	69.46
364.357	12.12
364.568	69.46
364.779	-39.08
364.99	65.36
365.201	-6.31
365.412	34.64
365.623	-0.17
365.834	42.84
366.045	22.36
366.256	73.56
366.467	79.7
366.678	57.17
366.889	77.65
367.1	71.51
367.311	75.6
367.522	67.41
367.733	-28.84
367.944	114.52
368.155	30.55
368.366	122.71
368.577	94.04
368.788	104.28
368.999	96.08
369.209	42.84
369.42	-57.51
369.631	145.24
369.842	87.89
370.053	46.93
370.264	10.07
370.474	14.17
370.685	100.18
370.896	34.64
371.107	137.04
371.317	53.08
371.528	53.08
371.739	32.6
371.95	-2.22
372.16	28.5
372.371	42.84
372.582	83.8
372.792	-18.6
373.003	26.45
373.214	-8.36
373.424	5.97
373.635	-2.22
373.846	94.04
374.056	75.6
374.267	55.12
374.477	59.22
374.688	32.6
374.898	77.65
375.109	116.56
375.319	57.17
375.53	-8.36
375.74	32.6
375.951	26.45
376.161	81.75
376.372	-4.27
376.582	71.51
376.793	51.03
377.003	30.55
377.214	-10.41
377.424	100.18
377.635	63.32
377.845	-20.65
378.055	69.46
378.266	16.21
378.476	61.27
378.686	34.64
378.897	87.89
379.107	26.45
379.317	36.69
379.528	3.93
379.738	57.17
379.948	-30.89
380.158	108.37
380.369	83.8
380.579	85.84
380.789	65.36
380.999	79.7
381.21	102.23
381.42	89.94
381.63	59.22
381.84	120.66
382.05	112.47
382.261	46.93
382.471	87.89
382.681	16.21
382.891	114.52
383.101	46.93
383.311	57.17
383.521	12.12
383.731	104.28
383.941	110.42
384.151	75.6
384.361	51.03
384.571	55.12
384.781	96.08
384.991	59.22
385.201	102.23
385.411	38.74
385.621	48.98
385.831	71.51
386.041	51.03
386.251	94.04
386.461	26.45
386.671	67.41
386.881	91.99
387.091	26.45
387.301	91.99
387.511	5.97
387.72	110.42
387.93	57.17
388.14	34.64
388.35	57.17
388.56	81.75
388.769	67.41
388.979	40.79
389.189	102.23
389.399	42.84
389.609	22.36
389.818	53.08
390.028	65.36
390.238	1.88
390.447	26.45
390.657	26.45
390.867	-37.03
391.076	77.65
391.286	3.93
391.496	34.64
391.705	83.8
391.915	100.18
392.125	100.18
392.334	22.36
392.544	98.13
392.753	53.08
392.963	30.55
393.172	130.9
393.382	65.36
393.591	110.42
393.801	63.32
394.01	137.04
394.22	14.17
394.429	96.08
394.639	67.41
394.848	141.14
395.058	61.27
395.267	55.12
395.477	102.23
395.686	67.41
395.895	48.98
396.105	143.19
396.314	98.13
396.524	116.56
396.733	83.8
396.942	122.71
397.152	46.93
397.361	118.61
397.57	122.71
397.78	112.47
397.989	151.38
398.198	132.95
398.407	87.89
398.617	24.4
398.826	59.22
399.035	116.56
399.244	83.8
399.453	30.55
399.663	91.99
399.872	149.33
400.081	89.94
400.29	143.19
400.499	106.32
400.708	145.24
400.917	110.42
401.127	87.89
401.336	122.71
401.545	126.8
401.754	94.04
401.963	108.37
402.172	71.51
402.381	87.89
402.59	81.75
402.799	69.46
403.008	190.29
403.217	108.37
403.426	89.94
403.635	126.8
403.844	141.14
404.053	157.52
404.262	143.19
404.471	132.95
404.68	53.08
404.888	225.11
405.097	165.71
405.306	153.43
405.515	210.77
405.724	153.43
405.933	147.28
406.142	114.52
406.35	139.09
406.559	178
406.768	208.72
406.977	261.97
407.185	231.25
407.394	231.25
407.603	198.48
407.812	259.92
408.02	188.24
408.229	249.68
408.438	118.61
408.646	182.1
408.855	227.15
409.064	237.39
409.272	186.19
409.481	149.33
409.69	223.06
409.898	251.73
410.107	259.92
410.315	274.26
410.524	284.5
410.733	274.26
410.941	257.87
411.15	268.11
411.358	307.02
411.567	380.75
411.775	325.46
411.984	362.32
412.192	368.46
412.401	376.66
412.609	343.89
412.818	325.46
413.026	388.94
413.234	386.9
413.443	386.9
413.651	456.53
413.86	446.29
414.068	505.68
414.276	587.6
414.485	456.53
414.693	679.75
414.901	507.73
415.11	585.55
415.318	577.36
415.526	642.89
415.734	603.98
415.943	646.99
416.151	704.33
416.359	655.18
416.567	776.01
416.776	726.86
416.984	788.3
417.192	786.25
417.4	792.39
417.608	776.01
417.817	808.78
418.025	925.51
418.233	948.04
418.441	872.26
418.649	986.95
418.857	1152.84
419.065	1087.3
419.273	1089.35
419.481	1193.8
419.689	1218.37
419.897	1197.89
420.105	1216.32
420.313	1288
420.521	1347.39
420.729	1275.71
420.937	1390.4
421.145	1439.55
421.353	1412.93
421.561	1615.68
421.769	1666.88
421.977	1732.41
422.185	1656.64
422.393	1791.8
422.601	1990.45
422.809	1820.47
423.017	1849.15
423.224	1935.16
423.432	1959.74
423.64	2090.81
423.848	2248.5
424.056	2189.11
424.263	2316.08
424.471	2336.56
424.679	2322.23
424.887	2436.91
425.094	2574.13
425.302	2608.94
425.51	2682.67
425.718	2811.69
425.925	2901.8
426.133	2950.95
426.341	3024.68
426.548	3161.89
426.756	3303.2
426.964	3217.19
427.171	3460.9
427.379	3589.92
427.586	3573.53
427.794	3817.24
428.001	3936.03
428.209	3985.18
428.417	4024.09
428.624	4312.85
428.832	4333.33
429.039	4220.69
429.247	4347.67
429.454	4622.09
429.662	4962.06
429.869	4833.04
430.076	5023.5
430.284	4763.4
430.491	5170.95
430.699	5385.99
430.906	5275.4
431.114	5445.38
431.321	5508.87
431.528	5760.77
431.736	6065.91
431.943	6461.17
432.15	6186.74
432.358	6371.06
432.565	6532.85
432.772	6764.27
432.979	6735.6
433.187	6993.64
433.394	7132.9
433.601	7444.2
433.808	7526.11
434.016	7382.76
434.223	7816.93
434.43	8396.5
434.637	8226.52
434.844	8666.83
435.052	8816.33
435.259	8830.67
435.466	9012.94
435.673	8824.53
435.88	9266.89
436.087	9825.98
436.294	9920.19
436.501	9496.26
436.708	9772.74
436.915	10000.06
437.122	10471.09
437.329	10583.73
437.537	10964.65
437.743	10913.45
437.95	11050.67
438.157	11472.55
438.364	11865.76
438.571	11966.11
438.778	11986.59
438.985	13129.36
439.192	12416.66
439.399	13035.15
439.606	12584.6
439.813	13534.85
440.02	14122.62
440.227	13946.5
440.433	13862.53
440.64	14143.1
440.847	14288.51
441.054	14552.7
441.261	15607.4
441.467	15629.93
441.674	15769.19
441.881	16115.3
442.088	15994.47
442.294	16236.13
442.501	16606.81
442.708	16789.08
442.914	17512.01
443.121	18525.75
443.328	17688.14
443.534	19408.43
443.741	18292.29
443.948	18228.8
444.154	19715.62
444.361	19818.02
444.568	19865.13
444.774	19727.91
444.981	19936.81
445.187	20784.66
445.394	21409.29
445.6	21296.66
445.807	22959.61
446.013	22021.64
446.22	22457.85
446.426	23432.69
446.633	23559.66
446.839	24286.69
447.046	23444.98
447.252	24462.82
447.459	24919.51
447.665	24483.3
447.871	25605.58
448.078	26932.67
448.284	25529.81
448.491	26265.03
448.697	27346.36
448.903	27950.51
449.11	27776.43
449.316	27592.11
449.522	28067.24
449.728	28777.89
449.935	29025.69
450.141	28892.57
450.347	29377.94
450.553	28863.9
450.76	29336.98
450.966	30262.66
451.172	29883.79
451.378	31004.03
451.584	30260.62
451.791	30819.71
451.997	30705.02
452.203	31116.67
452.409	31417.72
452.615	31217.02
452.821	30145.93
453.027	29429.14
453.233	31294.84
453.44	29912.46
453.646	30358.92
453.852	30573.95
454.058	31206.78
454.264	29666.7
454.47	31102.33
454.676	30131.59
454.882	31294.84
455.088	28401.06
455.294	28781.98
455.5	29549.97
455.705	29191.58
455.911	28468.64
456.117	28065.19
456.323	27502
456.529	26244.55
456.735	27080.12
456.941	26580.42
457.147	26160.58
457.352	25406.93
457.558	24937.94
457.764	25095.64
457.97	24915.42
458.176	24335.84
458.381	24186.34
458.587	22832.63
458.793	22791.67
458.999	21702.15
459.204	23512.56
459.41	22689.28
459.616	21267.98
459.821	21298.7
460.027	21138.96
460.233	20934.17
460.438	19899.94
460.644	20162.08
460.85	18970.16
461.055	18757.18
461.261	18740.79
461.466	17288.78
461.672	16721.49
461.878	17854.02
462.083	17036.88
462.289	16387.68
462.494	16283.23
462.7	15615.59
462.905	15361.64
463.111	15744.61
463.316	15951.46
463.522	15572.58
463.727	15494.76
463.932	15326.83
464.138	15457.9
464.343	15398.51
464.549	14806.64
464.754	15332.97
464.959	15298.16
465.165	15285.87
465.37	14392.95
465.575	14048.89
465.781	14741.11
465.986	14724.72
466.191	14100.09
466.397	13903.49
466.602	13158.03
466.807	13907.59
467.012	13604.49
467.218	13686.4
467.423	13594.25
467.628	13696.64
467.833	14179.96
