Data from USB4F104151__39__13-11-07-662.txt Node

Date: Fri Mar 14 13:11:07 EDT 2025
User: louis
Spectrometer: USB4F10415
Trigger mode: 4
Integration Time (sec): 2.000000E-2
Scans to average: 1
Electric dark correction enabled: true
Nonlinearity correction enabled: false
Boxcar width: 0
XAxis mode: Wavelengths
Number of Pixels in Spectrum: 3648
>>>>>Begin Spectral Data<<<<<
178.204	-146.77
178.424	-146.77
178.644	-146.77
178.864	-124.24
179.084	-152.91
179.304	2.73
179.524	-1.37
179.744	-25.94
179.964	35.5
180.184	-38.23
180.404	12.97
180.624	-19.8
180.844	53.93
181.064	25.26
181.283	-13.65
181.503	-66.9
181.723	35.5
181.943	-71
182.163	-9.56
182.383	-13.65
182.602	84.65
182.822	-21.84
183.042	31.4
183.262	15.02
183.482	4.78
183.701	41.64
183.921	47.79
184.141	-62.8
184.361	41.64
184.58	12.97
184.8	39.59
185.02	-56.66
185.239	6.83
185.459	-71
185.679	12.97
185.898	-58.71
186.118	-30.04
186.338	-5.46
186.557	45.74
186.777	25.26
186.997	-17.75
187.216	43.69
187.436	33.45
187.655	29.35
187.875	25.26
188.095	-71
188.314	23.21
188.534	-13.65
188.753	-15.7
188.973	-66.9
189.192	90.79
189.412	-62.8
189.631	84.65
189.851	-60.76
190.07	8.87
190.29	-34.13
190.509	31.4
190.729	-1.37
190.948	19.11
191.168	31.4
191.387	-23.89
191.607	12.97
191.826	-11.61
192.045	-34.13
192.265	19.11
192.484	-21.84
192.704	10.92
192.923	-5.46
193.142	45.74
193.362	4.78
193.581	53.93
193.8	31.4
194.02	144.04
194.239	47.79
194.458	-17.75
194.678	45.74
194.897	-9.56
195.116	0.68
195.335	-17.75
195.555	76.46
195.774	-13.65
195.993	-7.51
196.212	21.16
196.432	4.78
196.651	68.27
196.87	-17.75
197.089	49.83
197.308	27.31
197.528	27.31
197.747	70.31
197.966	21.16
198.185	113.32
198.404	-21.84
198.623	-21.84
198.842	0.68
199.062	53.93
199.281	43.69
199.5	31.4
199.719	-19.8
199.938	-54.61
200.157	15.02
200.376	51.88
200.595	76.46
200.814	12.97
201.033	-36.18
201.252	23.21
201.471	33.45
201.69	15.02
201.909	29.35
202.128	-17.75
202.347	88.75
202.566	10.92
202.785	-3.41
203.004	-50.52
203.223	117.42
203.442	31.4
203.661	-1.37
203.879	-36.18
204.098	43.69
204.317	72.36
204.536	43.69
204.755	78.51
204.974	27.31
205.193	15.02
205.411	49.83
205.63	2.73
205.849	17.07
206.068	-27.99
206.287	29.35
206.505	109.23
206.724	27.31
206.943	-46.42
207.162	35.5
207.381	2.73
207.599	-9.56
207.818	4.78
208.037	37.55
208.255	-40.28
208.474	-21.84
208.693	-9.56
208.911	12.97
209.13	31.4
209.349	-30.04
209.567	29.35
209.786	31.4
210.005	55.98
210.223	43.69
210.442	-17.75
210.661	-23.89
210.879	43.69
211.098	-27.99
211.316	96.94
211.535	45.74
211.753	39.59
211.972	10.92
212.191	51.88
212.409	10.92
212.628	8.87
212.846	-44.37
213.065	35.5
213.283	-21.84
213.502	27.31
213.72	-34.13
213.938	53.93
214.157	33.45
214.375	37.55
214.594	-32.08
214.812	-15.7
215.031	10.92
215.249	-38.23
215.467	-25.94
215.686	29.35
215.904	21.16
216.122	76.46
216.341	141.99
216.559	29.35
216.778	39.59
216.996	27.31
217.214	60.07
217.432	8.87
217.651	29.35
217.869	35.5
218.087	45.74
218.306	2.73
218.524	-54.61
218.742	-11.61
218.96	29.35
219.179	0.68
219.397	-23.89
219.615	70.31
219.833	-13.65
220.051	45.74
220.27	72.36
220.488	-103.76
220.706	-54.61
220.924	12.97
221.142	6.83
221.36	39.59
221.578	39.59
221.796	51.88
222.015	12.97
222.233	-1.37
222.451	53.93
222.669	0.68
222.887	33.45
223.105	35.5
223.323	27.31
223.541	-48.47
223.759	84.65
223.977	43.69
224.195	-38.23
224.413	17.07
224.631	8.87
224.849	-9.56
225.067	101.03
225.285	-58.71
225.503	47.79
225.721	25.26
225.939	-3.41
226.157	60.07
226.375	35.5
226.592	17.07
226.81	8.87
227.028	-34.13
227.246	47.79
227.464	-3.41
227.682	37.55
227.9	103.08
228.117	-25.94
228.335	0.68
228.553	21.16
228.771	-5.46
228.989	-15.7
229.206	10.92
229.424	74.41
229.642	29.35
229.86	2.73
230.077	39.59
230.295	-36.18
230.513	45.74
230.731	6.83
230.948	125.61
231.166	-1.37
231.384	-21.84
231.601	12.97
231.819	60.07
232.037	37.55
232.254	4.78
232.472	17.07
232.689	72.36
232.907	35.5
233.125	41.64
233.342	-71
233.56	45.74
233.777	68.27
233.995	-52.56
234.213	76.46
234.43	94.89
234.648	-58.71
234.865	109.23
235.083	141.99
235.3	10.92
235.518	23.21
235.735	68.27
235.953	35.5
236.17	35.5
236.388	64.17
236.605	23.21
236.822	53.93
237.04	-9.56
237.257	55.98
237.475	21.16
237.692	10.92
237.909	-17.75
238.127	-73.04
238.344	78.51
238.562	60.07
238.779	-38.23
238.996	-13.65
239.214	25.26
239.431	70.31
239.648	-50.52
239.865	80.55
240.083	76.46
240.3	4.78
240.517	-9.56
240.735	66.22
240.952	12.97
241.169	-5.46
241.386	4.78
241.603	6.83
241.821	19.11
242.038	2.73
242.255	17.07
242.472	-25.94
242.689	-15.7
242.907	43.69
243.124	23.21
243.341	6.83
243.558	2.73
243.775	-42.32
243.992	-44.37
244.209	19.11
244.426	2.73
244.643	60.07
244.86	-48.47
245.078	43.69
245.295	6.83
245.512	43.69
245.729	41.64
245.946	47.79
246.163	25.26
246.38	-54.61
246.597	4.78
246.814	29.35
247.031	-38.23
247.248	45.74
247.464	-17.75
247.681	-13.65
247.898	31.4
248.115	21.16
248.332	47.79
248.549	64.17
248.766	45.74
248.983	-34.13
249.2	-25.94
249.417	86.7
249.633	31.4
249.85	23.21
250.067	-38.23
250.284	12.97
250.501	55.98
250.717	101.03
250.934	-11.61
251.151	0.68
251.368	39.59
251.585	19.11
251.801	55.98
252.018	-66.9
252.235	-36.18
252.451	41.64
252.668	-5.46
252.885	53.93
253.102	37.55
253.318	-3.41
253.535	-38.23
253.752	-62.8
253.968	10.92
254.185	-19.8
254.401	17.07
254.618	27.31
254.835	-27.99
255.051	72.36
255.268	23.21
255.484	135.85
255.701	15.02
255.917	111.27
256.134	58.03
256.351	94.89
256.567	23.21
256.784	21.16
257	-21.84
257.217	0.68
257.433	23.21
257.65	-7.51
257.866	49.83
258.082	43.69
258.299	10.92
258.515	2.73
258.732	-44.37
258.948	2.73
259.165	-11.61
259.381	-36.18
259.597	68.27
259.814	-15.7
260.03	-5.46
260.246	15.02
260.463	39.59
260.679	45.74
260.895	35.5
261.112	43.69
261.328	4.78
261.544	-52.56
261.761	31.4
261.977	-5.46
262.193	-58.71
262.409	-7.51
262.626	78.51
262.842	45.74
263.058	-40.28
263.274	60.07
263.49	45.74
263.707	27.31
263.923	8.87
264.139	-27.99
264.355	-27.99
264.571	51.88
264.787	39.59
265.004	74.41
265.22	25.26
265.436	-56.66
265.652	-19.8
265.868	8.87
266.084	2.73
266.3	19.11
266.516	-5.46
266.732	21.16
266.948	15.02
267.164	53.93
267.38	45.74
267.596	23.21
267.812	111.27
268.028	4.78
268.244	25.26
268.46	53.93
268.676	17.07
268.892	-21.84
269.108	-17.75
269.324	-30.04
269.54	27.31
269.756	35.5
269.972	-62.8
270.188	41.64
270.403	53.93
270.619	68.27
270.835	-5.46
271.051	-17.75
271.267	-17.75
271.483	47.79
271.698	80.55
271.914	-11.61
272.13	33.45
272.346	31.4
272.562	109.23
272.777	-1.37
272.993	49.83
273.209	-27.99
273.425	-83.28
273.64	-13.65
273.856	0.68
274.072	15.02
274.287	-5.46
274.503	-38.23
274.719	70.31
274.934	8.87
275.15	-54.61
275.366	37.55
275.581	49.83
275.797	74.41
276.012	-9.56
276.228	-17.75
276.444	-3.41
276.659	45.74
276.875	-44.37
277.09	31.4
277.306	-42.32
277.521	49.83
277.737	-1.37
277.952	-27.99
278.168	58.03
278.383	27.31
278.599	-107.86
278.814	-32.08
279.03	-56.66
279.245	47.79
279.461	60.07
279.676	21.16
279.892	-44.37
280.107	2.73
280.322	133.8
280.538	0.68
280.753	-126.29
280.969	33.45
281.184	-46.42
281.399	90.79
281.615	72.36
281.83	19.11
282.045	-30.04
282.26	-30.04
282.476	37.55
282.691	62.12
282.906	10.92
283.122	-11.61
283.337	-9.56
283.552	21.16
283.767	15.02
283.983	43.69
284.198	-3.41
284.413	84.65
284.628	0.68
284.843	-9.56
285.058	117.42
285.274	-11.61
285.489	19.11
285.704	29.35
285.919	-13.65
286.134	-36.18
286.349	12.97
286.564	-42.32
286.779	-5.46
286.995	66.22
287.21	-91.48
287.425	2.73
287.64	27.31
287.855	-9.56
288.07	6.83
288.285	-27.99
288.5	10.92
288.715	-3.41
288.93	25.26
289.145	55.98
289.36	105.13
289.575	96.94
289.79	10.92
290.004	-23.89
290.219	86.7
290.434	-5.46
290.649	12.97
290.864	23.21
291.079	-7.51
291.294	29.35
291.509	19.11
291.724	-58.71
291.938	-3.41
292.153	47.79
292.368	-30.04
292.583	-3.41
292.798	12.97
293.012	53.93
293.227	-42.32
293.442	23.21
293.657	-42.32
293.871	53.93
294.086	74.41
294.301	80.55
294.516	58.03
294.73	68.27
294.945	-66.9
295.16	-1.37
295.374	43.69
295.589	68.27
295.804	4.78
296.018	94.89
296.233	86.7
296.447	-30.04
296.662	-1.37
296.877	86.7
297.091	-17.75
297.306	10.92
297.52	-1.37
297.735	0.68
297.949	29.35
298.164	10.92
298.378	17.07
298.593	39.59
298.807	-13.65
299.022	-19.8
299.236	53.93
299.451	60.07
299.665	21.16
299.88	23.21
300.094	19.11
300.309	31.4
300.523	-25.94
300.737	94.89
300.952	-5.46
301.166	0.68
301.381	-23.89
301.595	-38.23
301.809	45.74
302.024	51.88
302.238	29.35
302.452	23.21
302.667	-93.52
302.881	10.92
303.095	-3.41
303.309	-9.56
303.524	19.11
303.738	4.78
303.952	43.69
304.166	76.46
304.381	4.78
304.595	70.31
304.809	10.92
305.023	2.73
305.237	15.02
305.452	15.02
305.666	107.18
305.88	6.83
306.094	-19.8
306.308	43.69
306.522	25.26
306.736	76.46
306.95	-15.7
307.164	-1.37
307.379	17.07
307.593	96.94
307.807	70.31
308.021	47.79
308.235	19.11
308.449	-25.94
308.663	2.73
308.877	35.5
309.091	82.6
309.305	6.83
309.519	-17.75
309.733	25.26
309.947	12.97
310.161	58.03
310.374	49.83
310.588	-38.23
310.802	21.16
311.016	68.27
311.23	2.73
311.444	-1.37
311.658	-50.52
311.872	137.9
312.085	107.18
312.299	-32.08
312.513	23.21
312.727	-15.7
312.941	15.02
313.154	-34.13
313.368	15.02
313.582	76.46
313.796	29.35
314.009	35.5
314.223	29.35
314.437	68.27
314.651	80.55
314.864	23.21
315.078	-21.84
315.292	27.31
315.505	19.11
315.719	-11.61
315.933	64.17
316.146	27.31
316.36	-1.37
316.573	21.16
316.787	55.98
317.001	21.16
317.214	15.02
317.428	33.45
317.641	-32.08
317.855	41.64
318.068	35.5
318.282	10.92
318.495	45.74
318.709	64.17
318.922	-7.51
319.136	51.88
319.349	76.46
319.563	25.26
319.776	6.83
319.99	-36.18
320.203	-5.46
320.417	-15.7
320.63	60.07
320.843	109.23
321.057	43.69
321.27	51.88
321.483	90.79
321.697	10.92
321.91	96.94
322.124	86.7
322.337	10.92
322.55	45.74
322.763	31.4
322.977	4.78
323.19	6.83
323.403	-7.51
323.617	6.83
323.83	94.89
324.043	0.68
324.256	29.35
324.469	-25.94
324.683	19.11
324.896	8.87
325.109	-19.8
325.322	23.21
325.535	64.17
325.748	35.5
325.962	43.69
326.175	12.97
326.388	10.92
326.601	129.7
326.814	76.46
327.027	21.16
327.24	47.79
327.453	-15.7
327.666	-23.89
327.879	27.31
328.092	35.5
328.305	53.93
328.518	53.93
328.731	-30.04
328.944	47.79
329.157	-19.8
329.37	78.51
329.583	62.12
329.796	72.36
330.009	-38.23
330.222	15.02
330.435	62.12
330.648	39.59
330.861	-46.42
331.073	27.31
331.286	0.68
331.499	121.51
331.712	19.11
331.925	-7.51
332.138	-9.56
332.35	51.88
332.563	-46.42
332.776	72.36
332.989	-9.56
333.202	-5.46
333.414	12.97
333.627	37.55
333.84	43.69
334.053	10.92
334.265	49.83
334.478	29.35
334.691	6.83
334.903	23.21
335.116	25.26
335.329	-11.61
335.541	51.88
335.754	-44.37
335.966	-30.04
336.179	39.59
336.392	51.88
336.604	37.55
336.817	60.07
337.029	-42.32
337.242	-27.99
337.454	-19.8
337.667	-3.41
337.88	-19.8
338.092	55.98
338.305	64.17
338.517	-23.89
338.729	92.84
338.942	80.55
339.154	-21.84
339.367	25.26
339.579	4.78
339.792	35.5
340.004	37.55
340.217	53.93
340.429	21.16
340.641	-3.41
340.854	4.78
341.066	43.69
341.278	-1.37
341.491	43.69
341.703	76.46
341.915	19.11
342.128	82.6
342.34	-5.46
342.552	53.93
342.764	29.35
342.977	15.02
343.189	4.78
343.401	131.75
343.613	-48.47
343.826	12.97
344.038	35.5
344.25	86.7
344.462	-30.04
344.674	25.26
344.886	49.83
345.099	70.31
345.311	8.87
345.523	-17.75
345.735	-21.84
345.947	80.55
346.159	-13.65
346.371	35.5
346.583	-7.51
346.795	17.07
347.007	41.64
347.219	68.27
347.431	-27.99
347.643	-13.65
347.855	62.12
348.067	78.51
348.279	-62.8
348.491	27.31
348.703	31.4
348.915	-17.75
349.127	-21.84
349.339	45.74
349.551	-7.51
349.763	23.21
349.975	2.73
350.187	39.59
350.399	29.35
350.61	60.07
350.822	-68.95
351.034	62.12
351.246	37.55
351.458	-17.75
351.669	17.07
351.881	60.07
352.093	-73.04
352.305	92.84
352.517	86.7
352.728	111.27
352.94	2.73
353.152	60.07
353.363	55.98
353.575	43.69
353.787	84.65
353.999	76.46
354.21	119.46
354.422	43.69
354.633	29.35
354.845	43.69
355.057	-13.65
355.268	49.83
355.48	27.31
355.692	27.31
355.903	12.97
356.115	-1.37
356.326	-27.99
356.538	53.93
356.749	82.6
356.961	64.17
357.172	35.5
357.384	10.92
357.595	68.27
357.807	35.5
358.018	31.4
358.23	92.84
358.441	103.08
358.653	10.92
358.864	-11.61
359.075	-19.8
359.287	78.51
359.498	27.31
359.709	37.55
359.921	76.46
360.132	37.55
360.344	-15.7
360.555	43.69
360.766	66.22
360.977	49.83
361.189	74.41
361.4	-7.51
361.611	101.03
361.823	72.36
362.034	15.02
362.245	45.74
362.456	58.03
362.667	72.36
362.879	43.69
363.09	76.46
363.301	8.87
363.512	2.73
363.723	37.55
363.935	-50.52
364.146	55.98
364.357	55.98
364.568	-25.94
364.779	31.4
364.99	10.92
365.201	-27.99
365.412	78.51
365.623	-34.13
365.834	80.55
366.045	53.93
366.256	60.07
366.467	-19.8
366.678	-1.37
366.889	39.59
367.1	23.21
367.311	64.17
367.522	19.11
367.733	10.92
367.944	-62.8
368.155	-17.75
368.366	125.61
368.577	82.6
368.788	78.51
368.999	8.87
369.209	-3.41
369.42	35.5
369.631	43.69
369.842	27.31
370.053	-19.8
370.264	94.89
370.474	41.64
370.685	35.5
370.896	-7.51
371.107	45.74
371.317	88.75
371.528	70.31
371.739	121.51
371.95	25.26
372.16	55.98
372.371	-71
372.582	58.03
372.792	47.79
373.003	29.35
373.214	-3.41
373.424	39.59
373.635	25.26
373.846	-9.56
374.056	117.42
374.267	4.78
374.477	45.74
374.688	-13.65
374.898	33.45
375.109	27.31
375.319	70.31
375.53	27.31
375.74	80.55
375.951	55.98
376.161	39.59
376.372	64.17
376.582	23.21
376.793	23.21
377.003	10.92
377.214	19.11
377.424	55.98
377.635	111.27
377.845	-44.37
378.055	117.42
378.266	-5.46
378.476	17.07
378.686	88.75
378.897	101.03
379.107	6.83
379.317	64.17
379.528	68.27
379.738	60.07
379.948	70.31
380.158	76.46
380.369	109.23
380.579	-9.56
380.789	98.99
380.999	66.22
381.21	39.59
381.42	119.46
381.63	80.55
381.84	39.59
382.05	62.12
382.261	23.21
382.471	68.27
382.681	78.51
382.891	113.32
383.101	41.64
383.311	80.55
383.521	-13.65
383.731	35.5
383.941	19.11
384.151	-15.7
384.361	70.31
384.571	53.93
384.781	60.07
384.991	55.98
385.201	21.16
385.411	49.83
385.621	66.22
385.831	4.78
386.041	15.02
386.251	-19.8
386.461	64.17
386.671	17.07
386.881	60.07
387.091	45.74
387.301	2.73
387.511	92.84
387.72	58.03
387.93	-1.37
388.14	-19.8
388.35	8.87
388.56	27.31
388.769	72.36
388.979	-3.41
389.189	-19.8
389.399	-42.32
389.609	33.45
389.818	70.31
390.028	51.88
390.238	10.92
390.447	-5.46
390.657	82.6
390.867	8.87
391.076	78.51
391.286	76.46
391.496	29.35
391.705	15.02
391.915	86.7
392.125	92.84
392.334	123.56
392.544	12.97
392.753	17.07
392.963	31.4
393.172	37.55
393.382	-19.8
393.591	84.65
393.801	27.31
394.01	92.84
394.22	45.74
394.429	51.88
394.639	10.92
394.848	37.55
395.058	21.16
395.267	74.41
395.477	41.64
395.686	113.32
395.895	25.26
396.105	51.88
396.314	90.79
396.524	37.55
396.733	47.79
396.942	86.7
397.152	25.26
397.361	78.51
397.57	10.92
397.78	53.93
397.989	2.73
398.198	92.84
398.407	6.83
398.617	101.03
398.826	47.79
399.035	82.6
399.244	82.6
399.453	88.75
399.663	37.55
399.872	103.08
400.081	58.03
400.29	84.65
400.499	-13.65
400.708	74.41
400.917	29.35
401.127	53.93
401.336	60.07
401.545	107.18
401.754	70.31
401.963	137.9
402.172	60.07
402.381	31.4
402.59	27.31
402.799	4.78
403.008	129.7
403.217	82.6
403.426	121.51
403.635	23.21
403.844	70.31
404.053	101.03
404.262	107.18
404.471	174.76
404.68	139.94
404.888	74.41
405.097	103.08
405.306	107.18
405.515	55.98
405.724	51.88
405.933	62.12
406.142	113.32
406.35	133.8
406.559	74.41
406.768	137.9
406.977	166.57
407.185	160.42
407.394	113.32
407.603	119.46
407.812	168.62
408.02	164.52
408.229	178.86
408.438	98.99
408.646	139.94
408.855	189.1
409.064	125.61
409.272	135.85
409.481	223.91
409.69	174.76
409.898	129.7
410.107	170.66
410.315	127.66
410.524	182.95
410.733	219.82
410.941	152.23
411.15	225.96
411.358	209.58
411.567	273.06
411.775	262.82
411.984	240.3
412.192	234.15
412.401	273.06
412.609	318.12
412.818	260.77
413.026	281.25
413.234	217.77
413.443	273.06
413.651	250.53
413.86	293.54
414.068	346.79
414.276	387.75
414.485	320.17
414.693	420.52
414.901	445.09
415.11	432.8
415.318	412.32
415.526	365.22
415.734	465.57
415.943	397.99
416.151	510.63
416.359	475.81
416.567	520.87
416.776	572.07
416.984	535.2
417.192	547.49
417.4	500.39
417.608	553.63
417.817	615.07
418.025	658.08
418.233	713.38
418.441	631.46
418.649	635.55
418.857	754.34
419.065	797.34
419.273	696.99
419.481	883.36
419.689	770.72
419.897	838.3
420.105	889.5
420.313	834.21
420.521	1000.09
420.729	889.5
420.937	920.22
421.145	987.8
421.353	1047.19
421.561	1147.55
421.769	1116.83
421.977	1135.26
422.185	1196.7
422.393	1200.79
422.601	1251.99
422.809	1223.32
423.017	1215.13
423.224	1432.21
423.432	1421.97
423.64	1493.65
423.848	1514.13
424.056	1497.75
424.263	1618.58
424.471	1667.73
424.679	1657.49
424.887	1798.8
425.094	1708.69
425.302	1833.61
425.51	1882.77
425.718	1936.01
425.925	1944.2
426.133	1993.36
426.341	2126.47
426.548	2247.3
426.756	2308.74
426.964	2366.09
427.171	2384.52
427.379	2486.92
427.586	2400.9
427.794	2566.79
428.001	2724.48
428.209	2845.31
428.417	2734.72
428.624	2919.04
428.832	3007.1
429.039	2855.55
429.247	2845.31
429.454	3160.7
429.662	3381.88
429.869	3107.45
430.076	3601.01
430.284	3291.77
430.491	3476.09
430.699	3641.97
430.906	3811.95
431.114	3699.31
431.321	3945.07
431.528	3926.64
431.736	4127.34
431.943	4487.78
432.15	4385.38
432.358	4213.35
432.565	4551.27
432.772	4569.7
432.979	4737.63
433.187	4743.78
433.394	4903.52
433.601	5151.32
433.808	5278.3
434.016	5239.39
434.223	5427.8
434.43	5675.6
434.637	5665.36
434.844	5882.45
435.052	5968.46
435.259	5972.56
435.466	6150.73
435.673	6009.42
435.88	6468.17
436.087	6822.47
436.294	6748.74
436.501	6560.33
436.708	6949.44
436.915	7014.98
437.122	7223.87
437.329	7483.96
437.537	7524.92
437.743	7604.79
437.95	7639.61
438.157	7809.59
438.364	8079.92
438.571	8264.24
438.778	8237.61
438.985	9079.33
439.192	8501.8
439.399	9009.7
439.606	8632.87
439.813	9378.33
440.02	9855.51
440.227	9755.16
440.433	9419.29
440.64	9984.53
440.847	9761.3
441.054	10029.59
441.261	10711.56
441.467	10766.85
441.674	10873.35
441.881	11250.17
442.088	11033.09
442.294	10988.03
442.501	11315.71
442.708	11446.78
442.914	12063.22
443.121	12823.01
443.328	12397.04
443.534	13232.61
443.741	12534.25
443.948	12521.96
444.154	13541.85
444.361	13306.34
444.568	13652.44
444.774	13437.41
444.981	13642.2
445.187	14117.33
445.394	14475.73
445.6	14508.49
445.807	15755.71
446.013	15290.82
446.22	15253.95
446.426	16005.56
446.633	16288.18
446.839	16939.43
447.046	15923.64
447.252	17084.84
447.459	16914.86
447.665	17097.13
447.871	17619.36
448.078	18526.61
448.284	17641.89
448.491	18200.98
448.697	18770.32
448.903	19179.91
449.11	19243.4
449.316	18665.87
449.522	19294.6
449.728	19698.05
449.935	19956.09
450.141	20056.44
450.347	20478.32
450.553	19763.58
450.76	20023.67
450.966	20939.12
451.172	20672.88
451.378	21143.91
451.584	20603.25
451.791	21164.39
451.997	21240.17
452.203	21420.39
452.409	21936.48
452.615	21551.46
452.821	20625.78
453.027	20287.86
453.233	21631.33
453.44	20820.33
453.646	21025.13
453.852	21268.84
454.058	21330.28
454.264	21000.55
454.47	21434.72
454.676	20693.36
454.882	21557.6
455.088	19431.81
455.294	19933.56
455.5	20468.08
455.705	20355.44
455.911	19773.82
456.117	19366.28
456.323	18928.01
456.529	17979.8
456.735	18870.67
456.941	18463.12
457.147	17813.91
457.352	17701.28
457.558	17299.87
457.764	17617.31
457.97	17050.02
458.176	16828.84
458.381	16771.5
458.587	16140.72
458.793	15770.04
458.999	15190.47
459.204	16222.64
459.41	15788.47
459.616	14641.61
459.821	14811.59
460.027	14565.84
460.233	14236.11
460.438	13437.41
460.644	13937.11
460.85	13003.24
461.055	13060.58
461.261	13027.81
461.466	12069.36
461.672	11309.57
461.878	12415.47
462.083	11368.96
462.289	11405.82
462.494	11258.37
462.7	10875.4
462.905	10377.74
463.111	10770.95
463.316	10869.25
463.522	10881.54
463.727	10760.71
463.932	10674.7
464.138	10588.68
464.343	10768.9
464.549	10353.16
464.754	10566.15
464.959	10629.64
465.165	10330.64
465.37	9890.32
465.575	9728.53
465.781	10234.38
465.986	10267.15
466.191	9781.78
466.397	9476.63
466.602	9048.61
466.807	9460.25
467.012	9531.93
467.218	9466.39
467.423	9292.32
467.628	9441.82
467.833	9761.3
468.038	9302.56
