Data from USB4F104151__93__13-13-13-469.txt Node

Date: Fri Mar 14 13:13:13 EDT 2025
User: louis
Spectrometer: USB4F10415
Trigger mode: 4
Integration Time (sec): 2.000000E-2
Scans to average: 1
Electric dark correction enabled: true
Nonlinearity correction enabled: false
Boxcar width: 0
XAxis mode: Wavelengths
Number of Pixels in Spectrum: 3648
>>>>>Begin Spectral Data<<<<<
178.204	-83.63
178.424	-83.63
178.644	-83.63
178.864	-118.44
179.084	-59.05
179.304	18.77
179.524	31.06
179.744	-34.47
179.964	49.49
180.184	10.58
180.404	35.16
180.624	-9.9
180.844	22.87
181.064	-46.76
181.283	-18.09
181.503	-22.19
181.723	-36.52
181.943	39.25
182.163	-9.9
182.383	-5.8
182.602	76.12
182.822	43.35
183.042	-13.99
183.262	-20.14
183.482	6.49
183.701	-42.67
183.921	39.25
184.141	49.49
184.361	110.93
184.58	-1.71
184.8	65.88
185.02	-89.77
185.239	20.82
185.459	-40.62
185.679	65.88
185.898	-7.85
186.118	49.49
186.338	-1.71
186.557	41.3
186.777	-1.71
186.997	-50.86
187.216	14.68
187.436	82.26
187.655	-13.99
187.875	-20.14
188.095	59.73
188.314	76.12
188.534	-1.71
188.753	14.68
188.973	14.68
189.192	63.83
189.412	51.54
189.631	47.44
189.851	-24.23
190.07	31.06
190.29	-116.39
190.509	-13.99
190.729	98.64
190.948	31.06
191.168	88.4
191.387	49.49
191.607	-26.28
191.826	47.44
192.045	82.26
192.265	39.25
192.484	49.49
192.704	2.39
192.923	22.87
193.142	39.25
193.362	63.83
193.581	0.34
193.8	14.68
194.02	20.82
194.239	41.3
194.458	67.92
194.678	63.83
194.897	74.07
195.116	-7.85
195.335	35.16
195.555	43.35
195.774	-18.09
195.993	6.49
196.212	35.16
196.432	-30.38
196.651	12.63
196.87	-7.85
197.089	108.88
197.308	22.87
197.528	37.2
197.747	-28.33
197.966	22.87
198.185	2.39
198.404	-18.09
198.623	2.39
198.842	26.96
199.062	55.64
199.281	63.83
199.5	14.68
199.719	67.92
199.938	-32.43
200.157	26.96
200.376	-7.85
200.595	47.44
200.814	41.3
201.033	-81.58
201.252	72.02
201.471	88.4
201.69	49.49
201.909	-32.43
202.128	14.68
202.347	53.59
202.566	26.96
202.785	6.49
203.004	31.06
203.223	47.44
203.442	45.4
203.661	4.44
203.879	-13.99
204.098	-36.52
204.317	29.01
204.536	45.4
204.755	29.01
204.974	121.17
205.193	20.82
205.411	112.98
205.63	4.44
205.849	57.68
206.068	-30.38
206.287	-48.81
206.505	-26.28
206.724	-26.28
206.943	-16.04
207.162	2.39
207.381	96.6
207.599	49.49
207.818	26.96
208.037	-69.29
208.255	-30.38
208.474	-36.52
208.693	37.2
208.911	8.53
209.13	-13.99
209.349	55.64
209.567	35.16
209.786	78.16
210.005	51.54
210.223	14.68
210.442	-5.8
210.661	0.34
210.879	22.87
211.098	6.49
211.316	88.4
211.535	-5.8
211.753	-28.33
211.972	-85.67
212.191	41.3
212.409	51.54
212.628	84.31
212.846	47.44
213.065	-1.71
213.283	-7.85
213.502	14.68
213.72	31.06
213.938	90.45
214.157	51.54
214.375	35.16
214.594	-63.15
214.812	24.92
215.031	18.77
215.249	-40.62
215.467	14.68
215.686	-22.19
215.904	76.12
216.122	2.39
216.341	49.49
216.559	24.92
216.778	14.68
216.996	8.53
217.214	22.87
217.432	20.82
217.651	-5.8
217.869	31.06
218.087	-22.19
218.306	-13.99
218.524	80.21
218.742	18.77
218.96	8.53
219.179	6.49
219.397	18.77
219.615	59.73
219.833	-9.9
220.051	14.68
220.27	65.88
220.488	29.01
220.706	-42.67
220.924	-30.38
221.142	6.49
221.36	39.25
221.578	35.16
221.796	51.54
222.015	0.34
222.233	63.83
222.451	14.68
222.669	-40.62
222.887	117.08
223.105	-26.28
223.323	72.02
223.541	20.82
223.759	24.92
223.977	51.54
224.195	39.25
224.413	-16.04
224.631	55.64
224.849	-7.85
225.067	2.39
225.285	-36.52
225.503	-7.85
225.721	-11.95
225.939	-1.71
226.157	6.49
226.375	72.02
226.592	39.25
226.81	-16.04
227.028	10.58
227.246	84.31
227.464	-7.85
227.682	76.12
227.9	57.68
228.117	22.87
228.335	31.06
228.553	74.07
228.771	18.77
228.989	6.49
229.206	35.16
229.424	59.73
229.642	-13.99
229.86	18.77
230.077	72.02
230.295	41.3
230.513	-7.85
230.731	78.16
230.948	78.16
231.166	59.73
231.384	47.44
231.601	35.16
231.819	16.73
232.037	10.58
232.254	20.82
232.472	-24.23
232.689	-13.99
232.907	2.39
233.125	-65.19
233.342	-1.71
233.56	72.02
233.777	-16.04
233.995	-9.9
234.213	82.26
234.43	47.44
234.648	14.68
234.865	6.49
235.083	88.4
235.3	-5.8
235.518	72.02
235.735	59.73
235.953	45.4
236.17	57.68
236.388	12.63
236.605	-11.95
236.822	69.97
237.04	41.3
237.257	41.3
237.475	-7.85
237.692	55.64
237.909	84.31
238.127	26.96
238.344	4.44
238.562	-5.8
238.779	39.25
238.996	31.06
239.214	-24.23
239.431	67.92
239.648	-46.76
239.865	47.44
240.083	49.49
240.3	-38.57
240.517	-7.85
240.735	-9.9
240.952	67.92
241.169	-7.85
241.386	26.96
241.603	-16.04
241.821	10.58
242.038	51.54
242.255	-16.04
242.472	67.92
242.689	29.01
242.907	16.73
243.124	14.68
243.341	55.64
243.558	-16.04
243.775	-5.8
243.992	14.68
244.209	-5.8
244.426	2.39
244.643	-18.09
244.86	8.53
245.078	22.87
245.295	39.25
245.512	-40.62
245.729	80.21
245.946	10.58
246.163	33.11
246.38	78.16
246.597	135.51
246.814	-1.71
247.031	20.82
247.248	16.73
247.464	-7.85
247.681	-18.09
247.898	16.73
248.115	22.87
248.332	-52.91
248.549	20.82
248.766	57.68
248.983	47.44
249.2	53.59
249.417	24.92
249.633	61.78
249.85	6.49
250.067	31.06
250.284	6.49
250.501	-7.85
250.717	57.68
250.934	29.01
251.151	-7.85
251.368	41.3
251.585	-63.15
251.801	-32.43
252.018	-22.19
252.235	39.25
252.451	-5.8
252.668	-1.71
252.885	20.82
253.102	24.92
253.318	6.49
253.535	33.11
253.752	-11.95
253.968	-18.09
254.185	41.3
254.401	-20.14
254.618	47.44
254.835	43.35
255.051	-11.95
255.268	-50.86
255.484	49.49
255.701	-42.67
255.917	-7.85
256.134	51.54
256.351	35.16
256.567	-7.85
256.784	26.96
257	-77.48
257.217	-9.9
257.433	-5.8
257.65	59.73
257.866	39.25
258.082	-120.49
258.299	-16.04
258.515	6.49
258.732	37.2
258.948	-36.52
259.165	0.34
259.381	-9.9
259.597	49.49
259.814	14.68
260.03	18.77
260.246	61.78
260.463	39.25
260.679	67.92
260.895	-42.67
261.112	43.35
261.328	39.25
261.544	-22.19
261.761	6.49
261.977	-9.9
262.193	18.77
262.409	80.21
262.626	2.39
262.842	82.26
263.058	-7.85
263.274	80.21
263.49	-26.28
263.707	72.02
263.923	14.68
264.139	24.92
264.355	-26.28
264.571	72.02
264.787	-48.81
265.004	63.83
265.22	14.68
265.436	-67.24
265.652	-83.63
265.868	22.87
266.084	12.63
266.3	-20.14
266.516	-110.25
266.732	37.2
266.948	49.49
267.164	65.88
267.38	6.49
267.596	-9.9
267.812	98.64
268.028	-1.71
268.244	45.4
268.46	-9.9
268.676	-16.04
268.892	67.92
269.108	-5.8
269.324	47.44
269.54	47.44
269.756	31.06
269.972	-44.71
270.188	22.87
270.403	-48.81
270.619	49.49
270.835	6.49
271.051	55.64
271.267	53.59
271.483	43.35
271.698	35.16
271.914	-30.38
272.13	-28.33
272.346	-7.85
272.562	-67.24
272.777	102.74
272.993	53.59
273.209	-9.9
273.425	12.63
273.64	2.39
273.856	72.02
274.072	26.96
274.287	14.68
274.503	55.64
274.719	-34.47
274.934	-3.75
275.15	-26.28
275.366	39.25
275.581	35.16
275.797	43.35
276.012	-16.04
276.228	80.21
276.444	57.68
276.659	29.01
276.875	-7.85
277.09	-36.52
277.306	31.06
277.521	-30.38
277.737	26.96
277.952	-32.43
278.168	92.5
278.383	-32.43
278.599	33.11
278.814	-5.8
279.03	69.97
279.245	29.01
279.461	10.58
279.676	6.49
279.892	90.45
280.107	-7.85
280.322	53.59
280.538	-24.23
280.753	22.87
280.969	2.39
281.184	20.82
281.399	51.54
281.615	-30.38
281.83	6.49
282.045	-16.04
282.26	20.82
282.476	-1.71
282.691	74.07
282.906	2.39
283.122	18.77
283.337	35.16
283.552	39.25
283.767	2.39
283.983	-38.57
284.198	47.44
284.413	47.44
284.628	22.87
284.843	39.25
285.058	39.25
285.274	35.16
285.489	16.73
285.704	-1.71
285.919	-5.8
286.134	4.44
286.349	6.49
286.564	51.54
286.779	-1.71
286.995	90.45
287.21	-11.95
287.425	108.88
287.64	33.11
287.855	-9.9
288.07	-57
288.285	14.68
288.5	18.77
288.715	53.59
288.93	-16.04
289.145	-16.04
289.36	37.2
289.575	33.11
289.79	94.55
290.004	51.54
290.219	14.68
290.434	31.06
290.649	-42.67
290.864	115.03
291.079	-7.85
291.294	-20.14
291.509	26.96
291.724	-18.09
291.938	43.35
292.153	0.34
292.368	20.82
292.583	6.49
292.798	39.25
293.012	2.39
293.227	51.54
293.442	35.16
293.657	47.44
293.871	49.49
294.086	80.21
294.301	8.53
294.516	33.11
294.73	-40.62
294.945	0.34
295.16	29.01
295.374	16.73
295.589	45.4
295.804	-38.57
296.018	-24.23
296.233	-22.19
296.447	29.01
296.662	14.68
296.877	65.88
297.091	6.49
297.306	-11.95
297.52	-26.28
297.735	22.87
297.949	20.82
298.164	43.35
298.378	43.35
298.593	10.58
298.807	-24.23
299.022	121.17
299.236	31.06
299.451	6.49
299.665	-73.39
299.88	65.88
300.094	18.77
300.309	33.11
300.523	39.25
300.737	55.64
300.952	-30.38
301.166	31.06
301.381	-52.91
301.595	-11.95
301.809	37.2
302.024	-11.95
302.238	18.77
302.452	133.46
302.667	39.25
302.881	39.25
303.095	-13.99
303.309	41.3
303.524	67.92
303.738	45.4
303.952	-1.71
304.166	12.63
304.381	-9.9
304.595	74.07
304.809	43.35
305.023	76.12
305.237	10.58
305.452	-22.19
305.666	26.96
305.88	39.25
306.094	-18.09
306.308	49.49
306.522	16.73
306.736	47.44
306.95	119.12
307.164	-22.19
307.379	-7.85
307.593	174.42
307.807	37.2
308.021	16.73
308.235	-20.14
308.449	-34.47
308.663	49.49
308.877	88.4
309.091	33.11
309.305	49.49
309.519	-73.39
309.733	-32.43
309.947	-18.09
310.161	55.64
310.374	61.78
310.588	18.77
310.802	-1.71
311.016	33.11
311.23	37.2
311.444	35.16
311.658	41.3
311.872	0.34
312.085	16.73
312.299	-22.19
312.513	-9.9
312.727	6.49
312.941	72.02
313.154	-24.23
313.368	74.07
313.582	-3.75
313.796	8.53
314.009	20.82
314.223	43.35
314.437	55.64
314.651	24.92
314.864	-7.85
315.078	72.02
315.292	26.96
315.505	16.73
315.719	6.49
315.933	76.12
316.146	12.63
316.36	-59.05
316.573	-1.71
316.787	37.2
317.001	-30.38
317.214	-9.9
317.428	-9.9
317.641	-22.19
317.855	-3.75
318.068	2.39
318.282	100.69
318.495	20.82
318.709	39.25
318.922	-13.99
319.136	84.31
319.349	80.21
319.563	72.02
319.776	31.06
319.99	-7.85
320.203	51.54
320.417	112.98
320.63	86.36
320.843	119.12
321.057	-42.67
321.27	-26.28
321.483	41.3
321.697	-18.09
321.91	119.12
322.124	37.2
322.337	8.53
322.55	12.63
322.763	6.49
322.977	-32.43
323.19	-1.71
323.403	4.44
323.617	8.53
323.83	86.36
324.043	31.06
324.256	104.79
324.469	-63.15
324.683	121.17
324.896	55.64
325.109	37.2
325.322	39.25
325.535	20.82
325.748	35.16
325.962	86.36
326.175	63.83
326.388	90.45
326.601	39.25
326.814	14.68
327.027	-1.71
327.24	104.79
327.453	-5.8
327.666	67.92
327.879	-30.38
328.092	67.92
328.305	35.16
328.518	2.39
328.731	-26.28
328.944	-26.28
329.157	117.08
329.37	63.83
329.583	57.68
329.796	41.3
330.009	88.4
330.222	37.2
330.435	20.82
330.648	-13.99
330.861	39.25
331.073	39.25
331.286	-5.8
331.499	63.83
331.712	4.44
331.925	55.64
332.138	-13.99
332.35	43.35
332.563	2.39
332.776	47.44
332.989	-34.47
333.202	-71.34
333.414	-1.71
333.627	-3.75
333.84	-16.04
334.053	-36.52
334.265	-40.62
334.478	10.58
334.691	-7.85
334.903	6.49
335.116	45.4
335.329	45.4
335.541	-22.19
335.754	61.78
335.966	39.25
336.179	41.3
336.392	16.73
336.604	29.01
336.817	16.73
337.029	20.82
337.242	-28.33
337.454	14.68
337.667	14.68
337.88	35.16
338.092	-5.8
338.305	31.06
338.517	-7.85
338.729	18.77
338.942	108.88
339.154	-50.86
339.367	69.97
339.579	47.44
339.792	31.06
340.004	80.21
340.217	41.3
340.429	8.53
340.641	74.07
340.854	-16.04
341.066	-5.8
341.278	65.88
341.491	51.54
341.703	98.64
341.915	24.92
342.128	-26.28
342.34	37.2
342.552	14.68
342.764	72.02
342.977	37.2
343.189	-18.09
343.401	12.63
343.613	-1.71
343.826	6.49
344.038	-73.39
344.25	-13.99
344.462	2.39
344.674	49.49
344.886	-22.19
345.099	-7.85
345.311	39.25
345.523	125.27
345.735	43.35
345.947	43.35
346.159	22.87
346.371	-26.28
346.583	8.53
346.795	61.78
347.007	-7.85
347.219	43.35
347.431	86.36
347.643	104.79
347.855	74.07
348.067	-1.71
348.279	-38.57
348.491	115.03
348.703	76.12
348.915	24.92
349.127	-57
349.339	6.49
349.551	45.4
349.763	88.4
349.975	94.55
350.187	72.02
350.399	49.49
350.61	51.54
350.822	-7.85
351.034	63.83
351.246	0.34
351.458	88.4
351.669	14.68
351.881	43.35
352.093	147.8
352.305	41.3
352.517	45.4
352.728	31.06
352.94	-9.9
353.152	33.11
353.363	-26.28
353.575	14.68
353.787	96.6
353.999	80.21
354.21	100.69
354.422	-11.95
354.633	-9.9
354.845	-1.71
355.057	-1.71
355.268	-50.86
355.48	-40.62
355.692	-22.19
355.903	31.06
356.115	-1.71
356.326	16.73
356.538	98.64
356.749	69.97
356.961	104.79
357.172	45.4
357.384	61.78
357.595	88.4
357.807	-22.19
358.018	67.92
358.23	47.44
358.441	-9.9
358.653	-50.86
358.864	-34.47
359.075	18.77
359.287	-13.99
359.498	22.87
359.709	-11.95
359.921	65.88
360.132	24.92
360.344	51.54
360.555	57.68
360.766	61.78
360.977	55.64
361.189	12.63
361.4	31.06
361.611	117.08
361.823	88.4
362.034	18.77
362.245	31.06
362.456	41.3
362.667	31.06
362.879	-42.67
363.09	8.53
363.301	31.06
363.512	26.96
363.723	22.87
363.935	29.01
364.146	112.98
364.357	31.06
364.568	39.25
364.779	55.64
364.99	61.78
365.201	-9.9
365.412	18.77
365.623	-16.04
365.834	59.73
366.045	61.78
366.256	86.36
366.467	26.96
366.678	102.74
366.889	-9.9
367.1	22.87
367.311	22.87
367.522	6.49
367.733	39.25
367.944	29.01
368.155	47.44
368.366	-46.76
368.577	41.3
368.788	104.79
368.999	2.39
369.209	49.49
369.42	117.08
369.631	72.02
369.842	14.68
370.053	63.83
370.264	74.07
370.474	47.44
370.685	-7.85
370.896	16.73
371.107	2.39
371.317	6.49
371.528	55.64
371.739	33.11
371.95	-26.28
372.16	47.44
372.371	24.92
372.582	-34.47
372.792	96.6
373.003	31.06
373.214	-61.1
373.424	39.25
373.635	-1.71
373.846	26.96
374.056	-46.76
374.267	-34.47
374.477	43.35
374.688	-16.04
374.898	90.45
375.109	53.59
375.319	6.49
375.53	69.97
375.74	-11.95
375.951	84.31
376.161	6.49
376.372	39.25
376.582	-18.09
376.793	65.88
377.003	18.77
377.214	-50.86
377.424	18.77
377.635	39.25
377.845	22.87
378.055	100.69
378.266	20.82
378.476	-50.86
378.686	-22.19
378.897	49.49
379.107	39.25
379.317	41.3
379.528	39.25
379.738	119.12
379.948	37.2
380.158	22.87
380.369	-34.47
380.579	-1.71
380.789	41.3
380.999	6.49
381.21	74.07
381.42	98.64
381.63	22.87
381.84	72.02
382.05	24.92
382.261	41.3
382.471	51.54
382.681	-16.04
382.891	61.78
383.101	35.16
383.311	-26.28
383.521	-11.95
383.731	-32.43
383.941	94.55
384.151	90.45
384.361	29.01
384.571	63.83
384.781	12.63
384.991	98.64
385.201	65.88
385.411	80.21
385.621	115.03
385.831	45.4
386.041	18.77
386.251	6.49
386.461	78.16
386.671	65.88
386.881	31.06
387.091	-13.99
387.301	74.07
387.511	14.68
387.72	55.64
387.93	45.4
388.14	18.77
388.35	100.69
388.56	63.83
388.769	49.49
388.979	55.64
389.189	53.59
389.399	39.25
389.609	12.63
389.818	65.88
390.028	100.69
390.238	41.3
390.447	74.07
390.657	61.78
390.867	41.3
391.076	-24.23
391.286	51.54
391.496	117.08
391.705	24.92
391.915	43.35
392.125	55.64
392.334	-1.71
392.544	57.68
392.753	61.78
392.963	-13.99
393.172	49.49
393.382	-9.9
393.591	76.12
393.801	22.87
394.01	125.27
394.22	80.21
394.429	115.03
394.639	33.11
394.848	80.21
395.058	6.49
395.267	26.96
395.477	98.64
395.686	47.44
395.895	135.51
396.105	57.68
396.314	61.78
396.524	61.78
396.733	2.39
396.942	74.07
397.152	39.25
397.361	80.21
397.57	18.77
397.78	29.01
397.989	92.5
398.198	106.84
398.407	43.35
398.617	31.06
398.826	76.12
399.035	65.88
399.244	125.27
399.453	49.49
399.663	145.75
399.872	90.45
400.081	-9.9
400.29	96.6
400.499	16.73
400.708	14.68
400.917	137.56
401.127	51.54
401.336	18.77
401.545	51.54
401.754	29.01
401.963	76.12
402.172	129.36
402.381	14.68
402.59	12.63
402.799	123.22
403.008	84.31
403.217	26.96
403.426	96.6
403.635	141.65
403.844	41.3
404.053	84.31
404.262	125.27
404.471	117.08
404.68	80.21
404.888	31.06
405.097	-22.19
405.306	74.07
405.515	139.6
405.724	90.45
405.933	117.08
406.142	135.51
406.35	82.26
406.559	88.4
406.768	178.51
406.977	158.03
407.185	139.6
407.394	115.03
407.603	106.84
407.812	180.56
408.02	106.84
408.229	69.97
408.438	121.17
408.646	172.37
408.855	98.64
409.064	180.56
409.272	201.04
409.481	186.71
409.69	192.85
409.898	231.76
410.107	219.47
410.315	194.9
410.524	184.66
410.733	215.38
410.941	301.39
411.15	307.54
411.358	276.82
411.567	301.39
411.775	270.67
411.984	270.67
412.192	256.34
412.401	309.58
412.609	289.1
412.818	348.5
413.026	371.02
413.234	278.87
413.443	389.46
413.651	350.54
413.86	442.7
414.068	446.8
414.276	448.85
414.485	368.98
414.693	477.52
414.901	489.81
415.11	463.18
415.318	420.17
415.526	473.42
415.734	530.77
415.943	524.62
416.151	559.44
416.359	586.06
416.567	545.1
416.776	661.84
416.984	655.69
417.192	637.26
417.4	686.41
417.608	645.45
417.817	631.12
418.025	753.99
418.233	829.77
418.441	719.18
418.649	780.62
418.857	817.48
419.065	860.49
419.273	891.21
419.481	932.17
419.689	999.75
419.897	1038.66
420.105	1100.1
420.313	1018.18
420.521	1083.72
420.729	1114.44
420.937	1136.96
421.145	1114.44
421.353	1132.87
421.561	1286.47
421.769	1345.86
421.977	1442.11
422.185	1341.76
422.393	1417.54
422.601	1585.47
422.809	1503.55
423.017	1456.45
423.224	1646.91
423.432	1648.96
423.64	1663.29
423.848	1818.94
424.056	1706.3
424.263	1870.14
424.471	1792.31
424.679	1970.49
424.887	2007.35
425.094	2046.26
425.302	2093.37
425.51	2081.08
425.718	2330.93
425.925	2304.31
426.133	2351.41
426.341	2644.27
426.548	2685.23
426.756	2662.7
426.964	2677.04
427.171	2863.4
427.379	2992.42
427.586	2971.94
427.794	3068.2
428.001	3117.35
428.209	3217.7
428.417	3209.51
428.624	3498.27
428.832	3416.35
429.039	3397.92
429.247	3426.59
429.454	3678.49
429.662	3946.78
429.869	3854.62
430.076	4065.56
430.284	3981.59
430.491	4292.88
430.699	4323.6
430.906	4305.17
431.114	4555.02
431.321	4466.96
431.528	4456.72
431.736	4940.04
431.943	5150.98
432.15	5013.77
432.358	5118.22
432.565	5345.54
432.772	5308.68
432.979	5685.5
433.187	5662.97
433.394	5693.69
433.601	6113.53
433.808	6093.05
434.016	6021.37
434.223	6414.58
434.43	6881.52
434.637	6678.77
434.844	6985.96
435.052	7160.04
435.259	7176.42
435.466	7293.16
435.673	7063.79
435.88	7600.35
436.087	8042.71
436.294	8134.87
436.501	7733.47
436.708	8067.29
436.915	8550.61
437.122	8562.9
437.329	8413.4
437.537	8956.11
437.743	8972.49
437.95	8995.02
438.157	9304.26
438.364	9836.74
438.571	9685.19
438.778	9881.79
438.985	10643.63
439.192	10053.82
439.399	10623.16
439.606	10342.58
439.813	11012.27
440.02	11710.63
440.227	11335.85
440.433	11231.4
440.64	11679.91
440.847	11745.44
441.054	11921.57
441.261	12720.28
441.467	12421.27
441.674	12677.27
441.881	13291.66
442.088	13379.72
442.294	13158.54
442.501	13308.04
442.708	13695.11
442.914	14483.58
443.121	15100.01
443.328	14530.68
443.534	15499.37
443.741	15220.85
443.948	14753.91
444.154	16048.22
444.361	16162.91
444.568	15972.45
444.774	15986.79
444.981	16320.6
445.187	16697.43
445.394	17459.27
445.6	17344.59
445.807	18944.05
446.013	18044.99
446.22	18505.79
446.426	19230.77
446.633	19259.44
446.839	19970.08
447.046	19169.33
447.252	20111.39
447.459	19986.47
447.665	20353.05
447.871	21260.3
448.078	22118.4
448.284	20889.62
448.491	21583.88
448.697	22482.94
448.903	22960.12
449.11	22874.1
449.316	22521.85
449.522	22966.26
449.728	23435.25
449.935	23627.76
450.141	23681
450.347	24307.68
450.553	23549.93
450.76	24035.3
450.966	24547.29
451.172	24307.68
451.378	24940.5
451.584	24692.7
451.791	25522.13
451.997	25229.27
452.203	25835.47
452.409	25614.29
452.615	25440.21
452.821	24465.38
453.027	24463.33
453.233	25649.1
453.44	24592.35
453.646	25022.42
453.852	25044.95
454.058	25825.23
454.264	24721.37
454.47	25288.66
454.676	24551.39
454.882	25556.94
455.088	23304.18
455.294	23789.55
455.5	24143.84
455.705	24281.06
455.911	23255.03
456.117	23001.08
456.323	22806.52
456.529	21497.87
456.735	22755.32
456.941	21811.21
457.147	21301.26
457.352	20957.21
457.558	20615.19
457.764	20674.59
457.97	20371.49
458.176	19935.27
458.381	19849.25
458.587	18802.74
458.793	18733.11
458.999	17913.92
459.204	19140.66
459.41	18712.63
459.616	17430.6
459.821	17508.43
460.027	17406.03
460.233	17123.41
460.438	16451.67
460.644	16502.87
460.85	15581.29
461.055	15616.1
461.261	15536.23
461.466	14035.07
461.672	13725.83
461.878	14805.11
462.083	14016.64
462.289	13623.43
462.494	13191.31
462.7	12892.3
462.905	12589.21
463.111	12828.82
463.316	12773.52
463.522	12480.66
463.727	12617.88
463.932	12558.49
464.138	12490.9
464.343	12451.99
464.549	12116.12
464.754	12738.71
464.959	12486.81
465.165	12357.78
465.37	11745.44
465.575	11475.11
465.781	12234.91
465.986	12189.85
466.191	11714.72
466.397	11581.6
466.602	11036.84
466.807	11262.12
467.012	11325.61
467.218	11194.54
467.423	11139.24
467.628	11303.08
467.833	11593.89
468.038	11172.01
