Data from USB4F104151__56__13-11-43-678.txt Node

Date: Fri Mar 14 13:11:43 EDT 2025
User: louis
Spectrometer: USB4F10415
Trigger mode: 4
Integration Time (sec): 2.000000E-2
Scans to average: 1
Electric dark correction enabled: true
Nonlinearity correction enabled: false
Boxcar width: 0
XAxis mode: Wavelengths
Number of Pixels in Spectrum: 3648
>>>>>Begin Spectral Data<<<<<
178.204	-106.67
178.424	-106.67
178.644	-106.67
178.864	-149.67
179.084	-215.21
179.304	10.07
179.524	-20.65
179.744	-28.84
179.964	38.74
180.184	-20.65
180.404	36.69
180.624	-10.41
180.844	-10.41
181.064	-43.18
181.283	51.03
181.503	-47.27
181.723	44.88
181.943	46.93
182.163	28.5
182.383	-30.89
182.602	46.93
182.822	-8.36
183.042	-24.75
183.262	-43.18
183.482	-4.27
183.701	-0.17
183.921	69.46
184.141	-41.13
184.361	26.45
184.58	30.55
184.8	36.69
185.02	-12.46
185.239	40.79
185.459	36.69
185.679	-26.79
185.898	22.36
186.118	36.69
186.338	-2.22
186.557	-20.65
186.777	-84.14
186.997	-32.94
187.216	-34.99
187.436	89.94
187.655	22.36
187.875	-6.31
188.095	10.07
188.314	-4.27
188.534	77.65
188.753	22.36
188.973	22.36
189.192	36.69
189.412	91.99
189.631	12.12
189.851	5.97
190.07	1.88
190.29	-55.47
190.509	16.21
190.729	16.21
190.948	30.55
191.168	32.6
191.387	61.27
191.607	32.6
191.826	-0.17
192.045	63.32
192.265	3.93
192.484	-14.51
192.704	26.45
192.923	-12.46
193.142	63.32
193.362	34.64
193.581	28.5
193.8	-57.51
194.02	-53.42
194.239	-20.65
194.458	1.88
194.678	-75.95
194.897	-37.03
195.116	20.31
195.335	34.64
195.555	55.12
195.774	-28.84
195.993	67.41
196.212	-10.41
196.432	-47.27
196.651	-6.31
196.87	1.88
197.089	59.22
197.308	-0.17
197.528	14.17
197.747	-20.65
197.966	12.12
198.185	65.36
198.404	-0.17
198.623	22.36
198.842	-49.32
199.062	65.36
199.281	3.93
199.5	-6.31
199.719	26.45
199.938	34.64
200.157	5.97
200.376	55.12
200.595	34.64
200.814	10.07
201.033	-24.75
201.252	34.64
201.471	18.26
201.69	16.21
201.909	14.17
202.128	34.64
202.347	-14.51
202.566	8.02
202.785	-20.65
203.004	-59.56
203.223	83.8
203.442	32.6
203.661	-20.65
203.879	-61.61
204.098	-22.7
204.317	-30.89
204.536	44.88
204.755	28.5
204.974	-22.7
205.193	-22.7
205.411	30.55
205.63	-18.6
205.849	57.17
206.068	-47.27
206.287	1.88
206.505	1.88
206.724	26.45
206.943	8.02
207.162	32.6
207.381	38.74
207.599	20.31
207.818	-39.08
208.037	-41.13
208.255	40.79
208.474	-24.75
208.693	36.69
208.911	46.93
209.13	30.55
209.349	18.26
209.567	51.03
209.786	67.41
210.005	1.88
210.223	16.21
210.442	-2.22
210.661	53.08
210.879	10.07
211.098	-2.22
211.316	94.04
211.535	22.36
211.753	16.21
211.972	10.07
212.191	-63.66
212.409	18.26
212.628	-24.75
212.846	-6.31
213.065	46.93
213.283	26.45
213.502	14.17
213.72	-63.66
213.938	10.07
214.157	34.64
214.375	26.45
214.594	65.36
214.812	30.55
215.031	5.97
215.249	-20.65
215.467	-14.51
215.686	44.88
215.904	32.6
216.122	30.55
216.341	12.12
216.559	18.26
216.778	26.45
216.996	71.51
217.214	36.69
217.432	-0.17
217.651	-24.75
217.869	-32.94
218.087	8.02
218.306	-20.65
218.524	-47.27
218.742	26.45
218.96	28.5
219.179	-34.99
219.397	18.26
219.615	34.64
219.833	10.07
220.051	-59.56
220.27	104.28
220.488	-39.08
220.706	83.8
220.924	18.26
221.142	-34.99
221.36	3.93
221.578	32.6
221.796	-10.41
222.015	-16.55
222.233	14.17
222.451	30.55
222.669	5.97
222.887	30.55
223.105	-10.41
223.323	-10.41
223.541	12.12
223.759	63.32
223.977	-61.61
224.195	44.88
224.413	14.17
224.631	12.12
224.849	-20.65
225.067	61.27
225.285	5.97
225.503	-16.55
225.721	-112.81
225.939	-20.65
226.157	26.45
226.375	108.37
226.592	26.45
226.81	32.6
227.028	79.7
227.246	46.93
227.464	-4.27
227.682	1.88
227.9	-20.65
228.117	30.55
228.335	-20.65
228.553	30.55
228.771	55.12
228.989	57.17
229.206	18.26
229.424	-26.79
229.642	12.12
229.86	26.45
230.077	-86.19
230.295	-28.84
230.513	44.88
230.731	-55.47
230.948	12.12
231.166	24.4
231.384	8.02
231.601	28.5
231.819	42.84
232.037	28.5
232.254	24.4
232.472	16.21
232.689	83.8
232.907	46.93
233.125	59.22
233.342	-49.32
233.56	-28.84
233.777	75.6
233.995	-69.8
234.213	83.8
234.43	-30.89
234.648	-6.31
234.865	1.88
235.083	38.74
235.3	-20.65
235.518	73.56
235.735	75.6
235.953	-6.31
236.17	28.5
236.388	22.36
236.605	-20.65
236.822	48.98
237.04	36.69
237.257	-22.7
237.475	-12.46
237.692	18.26
237.909	12.12
238.127	-63.66
238.344	71.51
238.562	-45.23
238.779	-69.8
238.996	10.07
239.214	5.97
239.431	3.93
239.648	10.07
239.865	18.26
240.083	48.98
240.3	53.08
240.517	-10.41
240.735	-34.99
240.952	110.42
241.169	30.55
241.386	36.69
241.603	28.5
241.821	-47.27
242.038	40.79
242.255	5.97
242.472	-30.89
242.689	16.21
242.907	32.6
243.124	8.02
243.341	26.45
243.558	-26.79
243.775	-4.27
243.992	-2.22
244.209	-2.22
244.426	38.74
244.643	61.27
244.86	44.88
245.078	-0.17
245.295	-86.19
245.512	71.51
245.729	26.45
245.946	28.5
246.163	-4.27
246.38	28.5
246.597	-28.84
246.814	48.98
247.031	22.36
247.248	42.84
247.464	-12.46
247.681	12.12
247.898	46.93
248.115	-26.79
248.332	-22.7
248.549	38.74
248.766	65.36
248.983	55.12
249.2	-30.89
249.417	1.88
249.633	28.5
249.85	10.07
250.067	16.21
250.284	14.17
250.501	-67.75
250.717	-6.31
250.934	-69.8
251.151	67.41
251.368	-51.37
251.585	-22.7
251.801	-37.03
252.018	1.88
252.235	-6.31
252.451	-30.89
252.668	22.36
252.885	110.42
253.102	-16.55
253.318	30.55
253.535	28.5
253.752	30.55
253.968	18.26
254.185	-67.75
254.401	12.12
254.618	51.03
254.835	22.36
255.051	79.7
255.268	-16.55
255.484	20.31
255.701	-6.31
255.917	106.32
256.134	-43.18
256.351	-37.03
256.567	20.31
256.784	46.93
257	-20.65
257.217	1.88
257.433	30.55
257.65	-6.31
257.866	51.03
258.082	-53.42
258.299	-0.17
258.515	51.03
258.732	-20.65
258.948	3.93
259.165	-16.55
259.381	-71.85
259.597	59.22
259.814	18.26
260.03	-51.37
260.246	-0.17
260.463	46.93
260.679	83.8
260.895	-75.95
261.112	-4.27
261.328	14.17
261.544	-4.27
261.761	1.88
261.977	91.99
262.193	-41.13
262.409	-59.56
262.626	73.56
262.842	3.93
263.058	28.5
263.274	1.88
263.49	-24.75
263.707	14.17
263.923	-41.13
264.139	-20.65
264.355	48.98
264.571	69.46
264.787	-2.22
265.004	-26.79
265.22	-10.41
265.436	106.32
265.652	18.26
265.868	20.31
266.084	-2.22
266.3	12.12
266.516	-96.43
266.732	55.12
266.948	30.55
267.164	12.12
267.38	10.07
267.596	10.07
267.812	69.46
268.028	-0.17
268.244	-26.79
268.46	42.84
268.676	-45.23
268.892	69.46
269.108	57.17
269.324	-20.65
269.54	-90.28
269.756	51.03
269.972	-45.23
270.188	14.17
270.403	91.99
270.619	-28.84
270.835	42.84
271.051	1.88
271.267	-43.18
271.483	67.41
271.698	5.97
271.914	26.45
272.13	48.98
272.346	-4.27
272.562	-55.47
272.777	20.31
272.993	55.12
273.209	73.56
273.425	-26.79
273.64	-45.23
273.856	14.17
274.072	26.45
274.287	-18.6
274.503	-37.03
274.719	24.4
274.934	12.12
275.15	-4.27
275.366	3.93
275.581	-10.41
275.797	24.4
276.012	20.31
276.228	85.84
276.444	-2.22
276.659	12.12
276.875	-67.75
277.09	71.51
277.306	-37.03
277.521	-12.46
277.737	-51.37
277.952	14.17
278.168	44.88
278.383	40.79
278.599	42.84
278.814	3.93
279.03	-49.32
279.245	32.6
279.461	16.21
279.676	18.26
279.892	-14.51
280.107	51.03
280.322	12.12
280.538	1.88
280.753	-18.6
280.969	46.93
281.184	10.07
281.399	-37.03
281.615	26.45
281.83	34.64
282.045	-41.13
282.26	46.93
282.476	-6.31
282.691	-30.89
282.906	110.42
283.122	67.41
283.337	-10.41
283.552	12.12
283.767	-2.22
283.983	8.02
284.198	-37.03
284.413	30.55
284.628	14.17
284.843	28.5
285.058	5.97
285.274	71.51
285.489	-16.55
285.704	1.88
285.919	30.55
286.134	16.21
286.349	40.79
286.564	-14.51
286.779	18.26
286.995	28.5
287.21	-43.18
287.425	18.26
287.64	-41.13
287.855	40.79
288.07	-45.23
288.285	48.98
288.5	42.84
288.715	51.03
288.93	-57.51
289.145	-30.89
289.36	-18.6
289.575	28.5
289.79	12.12
290.004	16.21
290.219	32.6
290.434	20.31
290.649	28.5
290.864	18.26
291.079	-34.99
291.294	53.08
291.509	18.26
291.724	61.27
291.938	30.55
292.153	14.17
292.368	-121
292.583	44.88
292.798	59.22
293.012	36.69
293.227	-12.46
293.442	18.26
293.657	-18.6
293.871	71.51
294.086	10.07
294.301	14.17
294.516	10.07
294.73	14.17
294.945	-12.46
295.16	28.5
295.374	26.45
295.589	108.37
295.804	-61.61
296.018	55.12
296.233	16.21
296.447	1.88
296.662	-20.65
296.877	18.26
297.091	91.99
297.306	73.56
297.52	-16.55
297.735	-6.31
297.949	12.12
298.164	34.64
298.378	-45.23
298.593	-22.7
298.807	-26.79
299.022	-30.89
299.236	42.84
299.451	46.93
299.665	-30.89
299.88	14.17
300.094	14.17
300.309	-47.27
300.523	24.4
300.737	8.02
300.952	-16.55
301.166	-20.65
301.381	-18.6
301.595	-10.41
301.809	67.41
302.024	-4.27
302.238	-6.31
302.452	5.97
302.667	-4.27
302.881	28.5
303.095	48.98
303.309	-12.46
303.524	5.97
303.738	-14.51
303.952	38.74
304.166	26.45
304.381	-18.6
304.595	51.03
304.809	1.88
305.023	69.46
305.237	53.08
305.452	-0.17
305.666	-30.89
305.88	46.93
306.094	-22.7
306.308	67.41
306.522	32.6
306.736	-71.85
306.95	32.6
307.164	-57.51
307.379	-34.99
307.593	-4.27
307.807	24.4
308.021	44.88
308.235	22.36
308.449	40.79
308.663	-8.36
308.877	36.69
309.091	-4.27
309.305	63.32
309.519	-4.27
309.733	81.75
309.947	3.93
310.161	75.6
310.374	-32.94
310.588	30.55
310.802	-2.22
311.016	59.22
311.23	59.22
311.444	10.07
311.658	-12.46
311.872	26.45
312.085	94.04
312.299	-16.55
312.513	36.69
312.727	-30.89
312.941	-57.51
313.154	-10.41
313.368	12.12
313.582	22.36
313.796	51.03
314.009	36.69
314.223	38.74
314.437	55.12
314.651	38.74
314.864	-16.55
315.078	-30.89
315.292	-102.57
315.505	16.21
315.719	-47.27
315.933	3.93
316.146	22.36
316.36	-37.03
316.573	106.32
316.787	67.41
317.001	-14.51
317.214	-0.17
317.428	-14.51
317.641	22.36
317.855	-18.6
318.068	-37.03
318.282	-26.79
318.495	46.93
318.709	1.88
318.922	20.31
319.136	24.4
319.349	55.12
319.563	69.46
319.776	-14.51
319.99	-39.08
320.203	71.51
320.417	30.55
320.63	16.21
320.843	57.17
321.057	10.07
321.27	-55.47
321.483	26.45
321.697	10.07
321.91	59.22
322.124	3.93
322.337	38.74
322.55	5.97
322.763	-28.84
322.977	-12.46
323.19	26.45
323.403	22.36
323.617	18.26
323.83	34.64
324.043	18.26
324.256	53.08
324.469	-37.03
324.683	3.93
324.896	26.45
325.109	-20.65
325.322	-6.31
325.535	12.12
325.748	-39.08
325.962	44.88
326.175	-22.7
326.388	-8.36
326.601	-37.03
326.814	59.22
327.027	-59.56
327.24	40.79
327.453	-75.95
327.666	77.65
327.879	30.55
328.092	53.08
328.305	42.84
328.518	-26.79
328.731	-6.31
328.944	53.08
329.157	61.27
329.37	-14.51
329.583	38.74
329.796	20.31
330.009	40.79
330.222	-0.17
330.435	-4.27
330.648	16.21
330.861	-22.7
331.073	18.26
331.286	1.88
331.499	-55.47
331.712	-2.22
331.925	51.03
332.138	-4.27
332.35	75.6
332.563	26.45
332.776	73.56
332.989	42.84
333.202	-96.43
333.414	-14.51
333.627	-37.03
333.84	48.98
334.053	-12.46
334.265	-47.27
334.478	-63.66
334.691	26.45
334.903	34.64
335.116	16.21
335.329	20.31
335.541	22.36
335.754	-43.18
335.966	-16.55
336.179	1.88
336.392	-63.66
336.604	-43.18
336.817	30.55
337.029	46.93
337.242	-53.42
337.454	-8.36
337.667	26.45
337.88	75.6
338.092	20.31
338.305	22.36
338.517	40.79
338.729	30.55
338.942	96.08
339.154	42.84
339.367	1.88
339.579	61.27
339.792	-39.08
340.004	5.97
340.217	40.79
340.429	36.69
340.641	-26.79
340.854	36.69
341.066	26.45
341.278	36.69
341.491	81.75
341.703	57.17
341.915	-55.47
342.128	34.64
342.34	61.27
342.552	12.12
342.764	16.21
342.977	1.88
343.189	3.93
343.401	-24.75
343.613	-55.47
343.826	-30.89
344.038	3.93
344.25	36.69
344.462	-30.89
344.674	-12.46
344.886	-43.18
345.099	75.6
345.311	18.26
345.523	-32.94
345.735	-22.7
345.947	18.26
346.159	-6.31
346.371	32.6
346.583	38.74
346.795	20.31
347.007	44.88
347.219	18.26
347.431	28.5
347.643	-22.7
347.855	12.12
348.067	51.03
348.279	-8.36
348.491	-10.41
348.703	26.45
348.915	-26.79
349.127	-30.89
349.339	32.6
349.551	-39.08
349.763	85.84
349.975	28.5
350.187	75.6
350.399	1.88
350.61	-6.31
350.822	-32.94
351.034	61.27
351.246	-6.31
351.458	-49.32
351.669	-20.65
351.881	18.26
352.093	67.41
352.305	69.46
352.517	-28.84
352.728	67.41
352.94	8.02
353.152	-24.75
353.363	1.88
353.575	85.84
353.787	5.97
353.999	-10.41
354.21	-22.7
354.422	61.27
354.633	46.93
354.845	38.74
355.057	59.22
355.268	18.26
355.48	-2.22
355.692	-6.31
355.903	42.84
356.115	-28.84
356.326	-4.27
356.538	3.93
356.749	18.26
356.961	1.88
357.172	-30.89
357.384	14.17
357.595	44.88
357.807	-26.79
358.018	-39.08
358.23	1.88
358.441	-6.31
358.653	69.46
358.864	-22.7
359.075	-26.79
359.287	-26.79
359.498	69.46
359.709	20.31
359.921	-4.27
360.132	42.84
360.344	18.26
360.555	-51.37
360.766	42.84
360.977	10.07
361.189	10.07
361.4	59.22
361.611	1.88
361.823	18.26
362.034	28.5
362.245	-63.66
362.456	75.6
362.667	-61.61
362.879	26.45
363.09	36.69
363.301	57.17
363.512	-16.55
363.723	1.88
363.935	-43.18
364.146	106.32
364.357	34.64
364.568	79.7
364.779	40.79
364.99	55.12
365.201	48.98
365.412	26.45
365.623	-53.42
365.834	-10.41
366.045	38.74
366.256	38.74
366.467	55.12
366.678	61.27
366.889	16.21
367.1	51.03
367.311	42.84
367.522	-18.6
367.733	24.4
367.944	20.31
368.155	12.12
368.366	46.93
368.577	44.88
368.788	102.23
368.999	14.17
369.209	1.88
369.42	51.03
369.631	106.32
369.842	30.55
370.053	8.02
370.264	42.84
370.474	-6.31
370.685	46.93
370.896	-20.65
371.107	104.28
371.317	1.88
371.528	53.08
371.739	36.69
371.95	55.12
372.16	59.22
372.371	-8.36
372.582	-8.36
372.792	30.55
373.003	100.18
373.214	36.69
373.424	1.88
373.635	-6.31
373.846	44.88
374.056	-16.55
374.267	67.41
374.477	51.03
374.688	-32.94
374.898	14.17
375.109	20.31
375.319	51.03
375.53	24.4
375.74	63.32
375.951	28.5
376.161	48.98
376.372	22.36
376.582	-41.13
376.793	59.22
377.003	5.97
377.214	5.97
377.424	-43.18
377.635	-4.27
377.845	-2.22
378.055	30.55
378.266	-37.03
378.476	36.69
378.686	42.84
378.897	32.6
379.107	-30.89
379.317	12.12
379.528	-67.75
379.738	91.99
379.948	-0.17
380.158	61.27
380.369	81.75
380.579	-32.94
380.789	91.99
380.999	83.8
381.21	-22.7
381.42	40.79
381.63	-47.27
381.84	18.26
382.05	14.17
382.261	12.12
382.471	10.07
382.681	34.64
382.891	87.89
383.101	73.56
383.311	-24.75
383.521	12.12
383.731	-34.99
383.941	-14.51
384.151	65.36
384.361	18.26
384.571	5.97
384.781	55.12
384.991	-14.51
385.201	34.64
385.411	34.64
385.621	75.6
385.831	-0.17
386.041	85.84
386.251	-37.03
386.461	32.6
386.671	5.97
386.881	8.02
387.091	26.45
387.301	16.21
387.511	106.32
387.72	-18.6
387.93	3.93
388.14	10.07
388.35	-24.75
388.56	69.46
388.769	44.88
388.979	-22.7
389.189	-39.08
389.399	-34.99
389.609	30.55
389.818	-2.22
390.028	94.04
390.238	91.99
390.447	24.4
390.657	34.64
390.867	79.7
391.076	-14.51
391.286	36.69
391.496	-24.75
391.705	57.17
391.915	28.5
392.125	-2.22
392.334	26.45
392.544	-53.42
392.753	28.5
392.963	-2.22
393.172	69.46
393.382	34.64
393.591	77.65
393.801	-26.79
394.01	34.64
394.22	114.52
394.429	-4.27
394.639	42.84
394.848	1.88
395.058	98.13
395.267	32.6
395.477	46.93
395.686	77.65
395.895	85.84
396.105	34.64
396.314	22.36
396.524	8.02
396.733	-22.7
396.942	3.93
397.152	63.32
397.361	61.27
397.57	-4.27
397.78	46.93
397.989	26.45
398.198	91.99
398.407	34.64
398.617	42.84
398.826	28.5
399.035	20.31
399.244	44.88
399.453	-14.51
399.663	94.04
399.872	26.45
400.081	53.08
400.29	87.89
400.499	38.74
400.708	51.03
400.917	24.4
401.127	-28.84
401.336	34.64
401.545	67.41
401.754	89.94
401.963	91.99
402.172	18.26
402.381	5.97
402.59	89.94
402.799	114.52
403.008	75.6
403.217	69.46
403.426	-2.22
403.635	46.93
403.844	16.21
404.053	3.93
404.262	10.07
404.471	73.56
404.68	5.97
404.888	22.36
405.097	36.69
405.306	34.64
405.515	108.37
405.724	83.8
405.933	110.42
406.142	89.94
406.35	98.13
406.559	73.56
406.768	91.99
406.977	149.33
407.185	75.6
407.394	120.66
407.603	34.64
407.812	77.65
408.02	124.76
408.229	112.47
408.438	30.55
408.646	67.41
408.855	116.56
409.064	206.67
409.272	128.85
409.481	120.66
409.69	61.27
409.898	151.38
410.107	124.76
410.315	184.15
410.524	132.95
410.733	147.28
410.941	206.67
411.15	190.29
411.358	163.67
411.567	200.53
411.775	135
411.984	175.95
412.192	149.33
412.401	186.19
412.609	175.95
412.818	167.76
413.026	147.28
413.234	157.52
413.443	173.91
413.651	192.34
413.86	259.92
414.068	280.4
414.276	247.63
414.485	235.35
414.693	298.83
414.901	274.26
415.11	257.87
415.318	266.07
415.526	327.5
415.734	350.03
415.943	329.55
416.151	317.26
416.359	345.94
416.567	257.87
416.776	417.61
416.984	448.33
417.192	470.86
417.4	413.52
417.608	464.72
417.817	470.86
418.025	386.9
418.233	472.91
418.441	423.76
418.649	546.64
418.857	440.14
419.065	665.42
419.273	556.88
419.481	513.87
419.689	626.51
419.897	642.89
420.105	653.13
420.313	632.65
420.521	616.27
420.729	776.01
420.937	675.66
421.145	714.57
421.353	745.29
421.561	771.91
421.769	851.78
421.977	812.87
422.185	845.64
422.393	948.04
422.601	980.81
422.809	997.19
423.017	972.61
423.224	978.76
423.432	1056.58
423.64	1070.92
423.848	1247.04
424.056	1109.83
424.263	1191.75
424.471	1279.81
424.679	1220.42
424.887	1322.82
425.094	1290.05
425.302	1345.34
425.51	1406.78
425.718	1548.09
425.925	1611.58
426.133	1498.94
426.341	1554.24
426.548	1548.09
426.756	1738.55
426.964	1677.12
427.171	1806.14
427.379	1908.54
427.586	1894.2
427.794	1910.58
428.001	2017.08
428.209	2125.62
428.417	2035.51
428.624	2164.53
428.832	2365.23
429.039	2174.77
429.247	2223.92
429.454	2391.86
429.662	2543.41
429.869	2424.62
430.076	2670.38
430.284	2504.5
430.491	2606.89
430.699	2697
430.906	2699.05
431.114	2885.42
431.321	2926.38
431.528	2996.01
431.736	3184.42
431.943	3284.77
432.15	3254.05
432.358	3184.42
432.565	3462.94
432.772	3442.46
432.979	3555.1
433.187	3594.01
433.394	3739.42
433.601	3747.61
433.808	3970.84
434.016	4017.94
434.223	4009.75
434.43	4337.43
434.637	4331.28
434.844	4458.26
435.052	4622.09
435.259	4427.54
435.466	4790.03
435.673	4648.72
435.88	4998.92
436.087	5070.6
436.294	5181.19
436.501	4988.68
436.708	5117.7
436.915	5363.46
437.122	5492.48
437.329	5545.73
437.537	5756.67
437.743	5801.72
437.95	5717.76
438.157	6184.69
438.364	6242.04
438.571	6268.66
438.778	6369.01
438.985	6842.09
439.192	6672.11
439.399	6831.85
439.606	6680.3
439.813	6981.35
440.02	7347.94
440.227	7384.8
440.433	7423.72
440.64	7487.2
440.847	7349.99
441.054	7737.06
441.261	8230.62
441.467	8175.32
441.674	8367.83
441.881	8382.17
442.088	8574.67
442.294	8488.66
442.501	8638.16
442.708	8916.69
442.914	9174.73
443.121	9547.46
443.328	9389.77
443.534	9916.09
443.741	9723.58
443.948	9494.21
444.154	10254.01
444.361	10305.21
444.568	10360.5
444.774	10399.41
444.981	10485.43
445.187	10706.61
445.394	11161.26
445.6	10966.7
445.807	12050.08
446.013	11607.72
446.22	12009.12
446.426	12396.18
446.633	12293.79
446.839	12582.55
447.046	12234.39
447.252	13135.5
447.459	13072.01
447.665	13108.88
447.871	13520.52
448.078	14200.44
448.284	13645.45
448.491	13958.78
448.697	14528.12
448.903	14653.05
449.11	14728.82
449.316	14607.99
449.522	14849.65
449.728	15505
449.935	15328.88
450.141	15398.51
450.347	15652.45
450.553	15230.57
450.76	15312.49
450.966	15885.92
451.172	15703.65
451.378	16131.68
451.584	15656.55
451.791	16270.94
451.997	16262.75
452.203	16442.97
452.409	16483.93
452.615	16598.62
452.821	15838.82
453.027	15683.17
453.233	16537.18
453.44	16000.61
453.646	16060
453.852	16029.28
454.058	16266.85
454.264	15881.83
454.47	16492.12
454.676	15894.11
454.882	16301.66
455.088	15216.24
455.294	15310.44
455.5	15746.66
455.705	15666.79
455.911	15079.02
456.117	14567.03
456.323	14556.79
456.529	13708.93
456.735	14364.28
456.941	14018.18
457.147	13796.99
457.352	13430.41
457.558	13395.59
457.764	13356.68
457.97	13139.6
458.176	12863.12
458.381	12936.85
458.587	12158.62
458.793	12265.11
458.999	11503.27
459.204	12340.89
459.41	12162.72
459.616	11284.14
459.821	11273.9
460.027	11292.33
460.233	10776.24
460.438	10632.88
460.644	10495.67
460.85	10067.64
461.055	9764.54
461.261	10170.04
461.466	9164.49
461.672	9017.04
461.878	9645.76
462.083	8943.31
462.289	8742.61
462.494	8742.61
462.7	8378.07
462.905	7962.33
463.111	8232.66
463.316	8433.36
463.522	8296.15
463.727	8355.54
463.932	8165.08
464.138	8142.55
464.343	8316.63
464.549	7960.28
464.754	8091.35
464.959	8210.14
465.165	7986.91
465.37	7810.78
465.575	7530.21
465.781	7816.93
465.986	7816.93
466.191	7694.05
466.397	7327.46
466.602	7134.95
466.807	7403.24
467.012	7423.72
467.218	7302.89
467.423	7163.62
467.628	7268.07
467.833	7775.97
468.038	7235.3
