Data from USB4F104151__40__13-11-08-062.txt Node

Date: Fri Mar 14 13:11:08 EDT 2025
User: louis
Spectrometer: USB4F10415
Trigger mode: 4
Integration Time (sec): 2.000000E-2
Scans to average: 1
Electric dark correction enabled: true
Nonlinearity correction enabled: false
Boxcar width: 0
XAxis mode: Wavelengths
Number of Pixels in Spectrum: 3648
>>>>>Begin Spectral Data<<<<<
178.204	-176.81
178.424	-176.81
178.644	-176.81
178.864	-88.75
179.084	-86.7
179.304	40.28
179.524	3.41
179.744	7.51
179.964	32.08
180.184	-0.68
180.404	-74.41
180.624	-10.92
180.844	36.18
181.064	-31.4
181.283	-15.02
181.503	-35.5
181.723	48.47
181.943	-66.22
182.163	15.7
182.383	9.56
182.602	-21.16
182.822	-10.92
183.042	48.47
183.262	-84.65
183.482	15.7
183.701	38.23
183.921	-6.83
184.141	-60.07
184.361	11.61
184.58	-37.55
184.8	30.04
185.02	-33.45
185.239	13.65
185.459	-49.83
185.679	1.37
185.898	-0.68
186.118	-43.69
186.338	34.13
186.557	87.38
186.777	-86.7
186.997	58.71
187.216	-25.26
187.436	5.46
187.655	23.89
187.875	30.04
188.095	-25.26
188.314	93.52
188.534	73.04
188.753	-43.69
188.973	32.08
189.192	15.7
189.412	38.23
189.631	75.09
189.851	-17.07
190.07	17.75
190.29	3.41
190.509	-53.93
190.729	-37.55
190.948	44.37
191.168	126.29
191.387	-0.68
191.607	-37.55
191.826	5.46
192.045	-19.11
192.265	1.37
192.484	7.51
192.704	-68.27
192.923	-29.35
193.142	175.44
193.362	-41.64
193.581	85.33
193.8	54.61
194.02	83.28
194.239	-35.5
194.458	46.42
194.678	-45.74
194.897	-10.92
195.116	-66.22
195.335	-53.93
195.555	-21.16
195.774	-27.31
195.993	11.61
196.212	15.7
196.432	-31.4
196.651	-12.97
196.87	23.89
197.089	11.61
197.308	3.41
197.528	68.95
197.747	48.47
197.966	-53.93
198.185	-23.21
198.404	-10.92
198.623	-25.26
198.842	60.76
199.062	-10.92
199.281	9.56
199.5	79.19
199.719	-19.11
199.938	-47.79
200.157	44.37
200.376	-17.07
200.595	7.51
200.814	23.89
201.033	-51.88
201.252	-12.97
201.471	64.85
201.69	5.46
201.909	13.65
202.128	-49.83
202.347	15.7
202.566	-21.16
202.785	64.85
203.004	-58.03
203.223	-8.87
203.442	9.56
203.661	-45.74
203.879	52.56
204.098	3.41
204.317	-6.83
204.536	-29.35
204.755	36.18
204.974	9.56
205.193	-4.78
205.411	36.18
205.63	23.89
205.849	21.85
206.068	-6.83
206.287	9.56
206.505	-17.07
206.724	-33.45
206.943	32.08
207.162	-31.4
207.381	-10.92
207.599	-29.35
207.818	-19.11
208.037	-0.68
208.255	1.37
208.474	17.75
208.693	109.91
208.911	38.23
209.13	-45.74
209.349	-35.5
209.567	-8.87
209.786	-4.78
210.005	52.56
210.223	13.65
210.442	-37.55
210.661	-31.4
210.879	-17.07
211.098	-29.35
211.316	30.04
211.535	44.37
211.753	50.52
211.972	-8.87
212.191	5.46
212.409	21.85
212.628	-0.68
212.846	-23.21
213.065	-8.87
213.283	7.51
213.502	-35.5
213.72	56.66
213.938	40.28
214.157	-39.59
214.375	44.37
214.594	71
214.812	17.75
215.031	32.08
215.249	15.7
215.467	32.08
215.686	-10.92
215.904	-8.87
216.122	-2.73
216.341	-37.55
216.559	54.61
216.778	15.7
216.996	79.19
217.214	-0.68
217.432	-25.26
217.651	44.37
217.869	-84.65
218.087	21.85
218.306	32.08
218.524	27.99
218.742	-74.41
218.96	77.14
219.179	-25.26
219.397	-35.5
219.615	21.85
219.833	-49.83
220.051	-74.41
220.27	77.14
220.488	25.94
220.706	-115.37
220.924	-29.35
221.142	11.61
221.36	32.08
221.578	-29.35
221.796	-33.45
222.015	-37.55
222.233	-17.07
222.451	-4.78
222.669	-35.5
222.887	13.65
223.105	-62.12
223.323	-27.31
223.541	-82.6
223.759	-43.69
223.977	-27.31
224.195	-45.74
224.413	21.85
224.631	21.85
224.849	52.56
225.067	54.61
225.285	-45.74
225.503	-0.68
225.721	-58.03
225.939	54.61
226.157	19.8
226.375	11.61
226.592	-29.35
226.81	-15.02
227.028	-64.17
227.246	23.89
227.464	87.38
227.682	87.38
227.9	-27.31
228.117	21.85
228.335	38.23
228.553	-41.64
228.771	-58.03
228.989	-29.35
229.206	-15.02
229.424	-21.16
229.642	-43.69
229.86	36.18
230.077	-4.78
230.295	15.7
230.513	-35.5
230.731	36.18
230.948	17.75
231.166	73.04
231.384	-0.68
231.601	-2.73
231.819	118.1
232.037	5.46
232.254	-37.55
232.472	-2.73
232.689	-37.55
232.907	97.62
233.125	-39.59
233.342	36.18
233.56	11.61
233.777	-64.17
233.995	-2.73
234.213	3.41
234.43	-21.16
234.648	-49.83
234.865	56.66
235.083	-0.68
235.3	13.65
235.518	27.99
235.735	85.33
235.953	81.24
236.17	68.95
236.388	-29.35
236.605	13.65
236.822	83.28
237.04	-70.31
237.257	105.81
237.475	-6.83
237.692	52.56
237.909	36.18
238.127	21.85
238.344	-0.68
238.562	19.8
238.779	-64.17
238.996	-45.74
239.214	23.89
239.431	27.99
239.648	-39.59
239.865	-58.03
240.083	79.19
240.3	-17.07
240.517	-29.35
240.735	32.08
240.952	-70.31
241.169	36.18
241.386	-58.03
241.603	-49.83
241.821	-17.07
242.038	34.13
242.255	21.85
242.472	-62.12
242.689	15.7
242.907	68.95
243.124	-45.74
243.341	42.32
243.558	-31.4
243.775	-29.35
243.992	1.37
244.209	5.46
244.426	1.37
244.643	5.46
244.86	3.41
245.078	-2.73
245.295	64.85
245.512	11.61
245.729	15.7
245.946	134.48
246.163	30.04
246.38	-53.93
246.597	-21.16
246.814	13.65
247.031	21.85
247.248	15.7
247.464	-58.03
247.681	15.7
247.898	36.18
248.115	-39.59
248.332	-12.97
248.549	-2.73
248.766	-35.5
248.983	111.96
249.2	-29.35
249.417	19.8
249.633	-55.98
249.85	38.23
250.067	-70.31
250.284	-2.73
250.501	-10.92
250.717	-72.36
250.934	-12.97
251.151	-19.11
251.368	-17.07
251.585	11.61
251.801	3.41
252.018	-35.5
252.235	-35.5
252.451	-53.93
252.668	1.37
252.885	-12.97
253.102	5.46
253.318	60.76
253.535	-35.5
253.752	-53.93
253.968	54.61
254.185	42.32
254.401	-31.4
254.618	44.37
254.835	-10.92
255.051	30.04
255.268	-12.97
255.484	15.7
255.701	-49.83
255.917	36.18
256.134	-0.68
256.351	-49.83
256.567	-17.07
256.784	-29.35
257	-19.11
257.217	23.89
257.433	-0.68
257.65	11.61
257.866	-25.26
258.082	-49.83
258.299	32.08
258.515	5.46
258.732	-39.59
258.948	-21.16
259.165	15.7
259.381	-49.83
259.597	-23.21
259.814	-51.88
260.03	21.85
260.246	-21.16
260.463	-62.12
260.679	-62.12
260.895	7.51
261.112	44.37
261.328	44.37
261.544	-35.5
261.761	52.56
261.977	-0.68
262.193	-6.83
262.409	9.56
262.626	9.56
262.842	34.13
263.058	15.7
263.274	-12.97
263.49	-23.21
263.707	77.14
263.923	23.89
264.139	-21.16
264.355	19.8
264.571	-39.59
264.787	27.99
265.004	73.04
265.22	-21.16
265.436	15.7
265.652	-64.17
265.868	-4.78
266.084	-12.97
266.3	-25.26
266.516	38.23
266.732	5.46
266.948	-29.35
267.164	38.23
267.38	40.28
267.596	46.42
267.812	107.86
268.028	-31.4
268.244	-21.16
268.46	7.51
268.676	-92.84
268.892	-25.26
269.108	-43.69
269.324	-23.21
269.54	-58.03
269.756	27.99
269.972	-6.83
270.188	-47.79
270.403	-6.83
270.619	3.41
270.835	5.46
271.051	19.8
271.267	-51.88
271.483	1.37
271.698	-25.26
271.914	77.14
272.13	3.41
272.346	1.37
272.562	27.99
272.777	85.33
272.993	36.18
273.209	-21.16
273.425	3.41
273.64	30.04
273.856	-12.97
274.072	-101.03
274.287	-45.74
274.503	15.7
274.719	-6.83
274.934	23.89
275.15	-37.55
275.366	-0.68
275.581	-33.45
275.797	21.85
276.012	-25.26
276.228	-25.26
276.444	-0.68
276.659	-17.07
276.875	27.99
277.09	-37.55
277.306	46.42
277.521	44.37
277.737	-27.31
277.952	1.37
278.168	-72.36
278.383	-17.07
278.599	27.99
278.814	48.47
279.03	3.41
279.245	87.38
279.461	36.18
279.676	11.61
279.892	25.94
280.107	-60.07
280.322	-12.97
280.538	17.75
280.753	30.04
280.969	38.23
281.184	-53.93
281.399	1.37
281.615	7.51
281.83	7.51
282.045	-58.03
282.26	15.7
282.476	-51.88
282.691	109.91
282.906	-0.68
283.122	19.8
283.337	7.51
283.552	68.95
283.767	5.46
283.983	-43.69
284.198	-68.27
284.413	1.37
284.628	-29.35
284.843	7.51
285.058	-4.78
285.274	32.08
285.489	-60.07
285.704	-33.45
285.919	-31.4
286.134	54.61
286.349	54.61
286.564	-37.55
286.779	75.09
286.995	-58.03
287.21	-31.4
287.425	44.37
287.64	7.51
287.855	17.75
288.07	-6.83
288.285	-25.26
288.5	36.18
288.715	36.18
288.93	21.85
289.145	1.37
289.36	38.23
289.575	5.46
289.79	-49.83
290.004	3.41
290.219	50.52
290.434	23.89
290.649	5.46
290.864	79.19
291.079	-15.02
291.294	-29.35
291.509	46.42
291.724	-17.07
291.938	-62.12
292.153	9.56
292.368	52.56
292.583	48.47
292.798	44.37
293.012	-31.4
293.227	-43.69
293.442	71
293.657	5.46
293.871	11.61
294.086	5.46
294.301	25.94
294.516	15.7
294.73	-64.17
294.945	36.18
295.16	142.68
295.374	44.37
295.589	-17.07
295.804	-17.07
296.018	52.56
296.233	40.28
296.447	-17.07
296.662	3.41
296.877	58.71
297.091	7.51
297.306	-103.08
297.52	77.14
297.735	-33.45
297.949	-64.17
298.164	-27.31
298.378	13.65
298.593	-37.55
298.807	-12.97
299.022	-39.59
299.236	1.37
299.451	-21.16
299.665	-58.03
299.88	3.41
300.094	17.75
300.309	54.61
300.523	-29.35
300.737	27.99
300.952	54.61
301.166	56.66
301.381	5.46
301.595	56.66
301.809	-43.69
302.024	-12.97
302.238	-35.5
302.452	87.38
302.667	15.7
302.881	-10.92
303.095	58.71
303.309	93.52
303.524	5.46
303.738	32.08
303.952	32.08
304.166	3.41
304.381	5.46
304.595	30.04
304.809	40.28
305.023	52.56
305.237	-58.03
305.452	-31.4
305.666	-33.45
305.88	-2.73
306.094	15.7
306.308	-31.4
306.522	-19.11
306.736	27.99
306.95	13.65
307.164	103.76
307.379	15.7
307.593	17.75
307.807	32.08
308.021	-25.26
308.235	60.76
308.449	19.8
308.663	-70.31
308.877	120.15
309.091	3.41
309.305	25.94
309.519	-60.07
309.733	73.04
309.947	-76.46
310.161	30.04
310.374	-4.78
310.588	34.13
310.802	-37.55
311.016	77.14
311.23	3.41
311.444	-17.07
311.658	-33.45
311.872	27.99
312.085	36.18
312.299	-39.59
312.513	-29.35
312.727	13.65
312.941	44.37
313.154	44.37
313.368	34.13
313.582	13.65
313.796	-80.55
314.009	-0.68
314.223	11.61
314.437	25.94
314.651	-2.73
314.864	-21.16
315.078	13.65
315.292	-45.74
315.505	15.7
315.719	-2.73
315.933	1.37
316.146	-2.73
316.36	-12.97
316.573	56.66
316.787	27.99
317.001	44.37
317.214	13.65
317.428	3.41
317.641	-94.89
317.855	7.51
318.068	-21.16
318.282	-43.69
318.495	9.56
318.709	79.19
318.922	-12.97
319.136	40.28
319.349	19.8
319.563	-29.35
319.776	-10.92
319.99	38.23
320.203	21.85
320.417	13.65
320.63	7.51
320.843	19.8
321.057	73.04
321.27	52.56
321.483	-4.78
321.697	60.76
321.91	1.37
322.124	44.37
322.337	21.85
322.55	3.41
322.763	73.04
322.977	-17.07
323.19	-15.02
323.403	-78.51
323.617	68.95
323.83	83.28
324.043	21.85
324.256	-33.45
324.469	19.8
324.683	46.42
324.896	-12.97
325.109	44.37
325.322	-0.68
325.535	34.13
325.748	42.32
325.962	62.8
326.175	19.8
326.388	99.67
326.601	-17.07
326.814	-2.73
327.027	-0.68
327.24	46.42
327.453	-43.69
327.666	85.33
327.879	-41.64
328.092	23.89
328.305	-6.83
328.518	32.08
328.731	-19.11
328.944	-29.35
329.157	-29.35
329.37	-17.07
329.583	64.85
329.796	38.23
330.009	-8.87
330.222	56.66
330.435	5.46
330.648	-19.11
330.861	-27.31
331.073	-33.45
331.286	-33.45
331.499	-4.78
331.712	-53.93
331.925	27.99
332.138	-12.97
332.35	79.19
332.563	-25.26
332.776	-2.73
332.989	-29.35
333.202	13.65
333.414	40.28
333.627	-31.4
333.84	3.41
334.053	-29.35
334.265	-17.07
334.478	19.8
334.691	44.37
334.903	5.46
335.116	-2.73
335.329	15.7
335.541	-12.97
335.754	-0.68
335.966	-31.4
336.179	50.52
336.392	-29.35
336.604	-23.21
336.817	-37.55
337.029	-12.97
337.242	-27.31
337.454	-21.16
337.667	-60.07
337.88	-2.73
338.092	46.42
338.305	9.56
338.517	40.28
338.729	64.85
338.942	27.99
339.154	32.08
339.367	13.65
339.579	-21.16
339.792	-49.83
340.004	-29.35
340.217	38.23
340.429	15.7
340.641	-0.68
340.854	-17.07
341.066	-47.79
341.278	-37.55
341.491	81.24
341.703	-92.84
341.915	-4.78
342.128	27.99
342.34	-41.64
342.552	-21.16
342.764	-33.45
342.977	87.38
343.189	-60.07
343.401	-45.74
343.613	19.8
343.826	13.65
344.038	-19.11
344.25	48.47
344.462	-76.46
344.674	11.61
344.886	21.85
345.099	11.61
345.311	64.85
345.523	-49.83
345.735	-70.31
345.947	36.18
346.159	40.28
346.371	-21.16
346.583	-27.31
346.795	87.38
347.007	7.51
347.219	19.8
347.431	-76.46
347.643	13.65
347.855	-31.4
348.067	23.89
348.279	-21.16
348.491	79.19
348.703	30.04
348.915	-12.97
349.127	5.46
349.339	52.56
349.551	-43.69
349.763	77.14
349.975	46.42
350.187	79.19
350.399	54.61
350.61	-35.5
350.822	-31.4
351.034	9.56
351.246	-27.31
351.458	-25.26
351.669	32.08
351.881	79.19
352.093	25.94
352.305	50.52
352.517	32.08
352.728	66.9
352.94	-19.11
353.152	-2.73
353.363	-35.5
353.575	27.99
353.787	27.99
353.999	52.56
354.21	40.28
354.422	7.51
354.633	-45.74
354.845	36.18
355.057	-66.22
355.268	-60.07
355.48	58.71
355.692	-10.92
355.903	-21.16
356.115	5.46
356.326	-21.16
356.538	-19.11
356.749	68.95
356.961	81.24
357.172	9.56
357.384	64.85
357.595	-15.02
357.807	-53.93
358.018	30.04
358.23	-62.12
358.441	32.08
358.653	7.51
358.864	73.04
359.075	-17.07
359.287	60.76
359.498	17.75
359.709	-19.11
359.921	17.75
360.132	7.51
360.344	-47.79
360.555	17.75
360.766	17.75
360.977	36.18
361.189	21.85
361.4	21.85
361.611	-4.78
361.823	27.99
362.034	-51.88
362.245	1.37
362.456	40.28
362.667	-74.41
362.879	-2.73
363.09	42.32
363.301	44.37
363.512	-10.92
363.723	87.38
363.935	-2.73
364.146	52.56
364.357	5.46
364.568	46.42
364.779	-92.84
364.99	-25.26
365.201	38.23
365.412	40.28
365.623	5.46
365.834	44.37
366.045	25.94
366.256	1.37
366.467	32.08
366.678	66.9
366.889	44.37
367.1	40.28
367.311	48.47
367.522	-17.07
367.733	-10.92
367.944	9.56
368.155	-53.93
368.366	109.91
368.577	21.85
368.788	7.51
368.999	-37.55
369.209	17.75
369.42	73.04
369.631	60.76
369.842	-21.16
370.053	38.23
370.264	15.7
370.474	-53.93
370.685	-8.87
370.896	-27.31
371.107	77.14
371.317	-17.07
371.528	-51.88
371.739	3.41
371.95	32.08
372.16	146.77
372.371	-35.5
372.582	11.61
372.792	-12.97
373.003	58.71
373.214	46.42
373.424	-12.97
373.635	-17.07
373.846	-21.16
374.056	-10.92
374.267	23.89
374.477	36.18
374.688	42.32
374.898	7.51
375.109	48.47
375.319	-21.16
375.53	64.85
375.74	54.61
375.951	27.99
376.161	-39.59
376.372	7.51
376.582	-12.97
376.793	-4.78
377.003	-19.11
377.214	-6.83
377.424	-31.4
377.635	52.56
377.845	-0.68
378.055	11.61
378.266	15.7
378.476	105.81
378.686	58.71
378.897	9.56
379.107	-105.13
379.317	44.37
379.528	52.56
379.738	-70.31
379.948	-8.87
380.158	-29.35
380.369	38.23
380.579	-21.16
380.789	7.51
380.999	48.47
381.21	3.41
381.42	68.95
381.63	9.56
381.84	-64.17
382.05	13.65
382.261	9.56
382.471	36.18
382.681	-45.74
382.891	-37.55
383.101	7.51
383.311	32.08
383.521	19.8
383.731	46.42
383.941	62.8
384.151	68.95
384.361	-12.97
384.571	3.41
384.781	36.18
384.991	1.37
385.201	48.47
385.411	40.28
385.621	27.99
385.831	-4.78
386.041	66.9
386.251	30.04
386.461	15.7
386.671	-29.35
386.881	11.61
387.091	7.51
387.301	27.99
387.511	56.66
387.72	30.04
387.93	40.28
388.14	15.7
388.35	32.08
388.56	7.51
388.769	-19.11
388.979	58.71
389.189	-74.41
389.399	-51.88
389.609	40.28
389.818	-0.68
390.028	7.51
390.238	34.13
390.447	-92.84
390.657	15.7
390.867	17.75
391.076	-55.98
391.286	13.65
391.496	-60.07
391.705	-2.73
391.915	9.56
392.125	9.56
392.334	-6.83
392.544	68.95
392.753	83.28
392.963	-21.16
393.172	-25.26
393.382	27.99
393.591	62.8
393.801	11.61
394.01	120.15
394.22	-27.31
394.429	54.61
394.639	23.89
394.848	7.51
395.058	-43.69
395.267	52.56
395.477	60.76
395.686	44.37
395.895	68.95
396.105	56.66
396.314	25.94
396.524	66.9
396.733	-53.93
396.942	68.95
397.152	66.9
397.361	11.61
397.57	87.38
397.78	60.76
397.989	13.65
398.198	105.81
398.407	-4.78
398.617	25.94
398.826	54.61
399.035	17.75
399.244	68.95
399.453	3.41
399.663	109.91
399.872	7.51
400.081	-12.97
400.29	85.33
400.499	60.76
400.708	87.38
400.917	32.08
401.127	66.9
401.336	40.28
401.545	91.48
401.754	130.39
401.963	64.85
402.172	77.14
402.381	-29.35
402.59	42.32
402.799	66.9
403.008	87.38
403.217	58.71
403.426	105.81
403.635	-60.07
403.844	85.33
404.053	21.85
404.262	36.18
404.471	32.08
404.68	73.04
404.888	103.76
405.097	52.56
405.306	68.95
405.515	118.1
405.724	40.28
405.933	132.44
406.142	30.04
406.35	89.43
406.559	120.15
406.768	71
406.977	109.91
407.185	48.47
407.394	122.2
407.603	114
407.812	130.39
408.02	214.35
408.229	136.53
408.438	159.06
408.646	62.8
408.855	116.05
409.064	126.29
409.272	126.29
409.481	169.3
409.69	91.48
409.898	130.39
410.107	142.68
410.315	253.27
410.524	191.83
410.733	159.06
410.941	163.15
411.15	230.74
411.358	220.5
411.567	179.54
411.775	230.74
411.984	230.74
412.192	265.55
412.401	249.17
412.609	263.51
412.818	226.64
413.026	292.18
413.234	267.6
413.443	249.17
413.651	220.5
413.86	290.13
414.068	218.45
414.276	363.86
414.485	267.6
414.693	376.14
414.901	372.05
415.11	400.72
415.318	396.62
415.526	413.01
415.734	449.87
415.943	476.49
416.151	515.41
416.359	404.82
416.567	552.27
416.776	486.73
416.984	529.74
417.192	505.17
417.4	558.41
417.608	480.59
417.817	539.98
418.025	574.8
418.233	699.72
418.441	531.79
418.649	660.81
418.857	671.05
419.065	642.38
419.273	761.16
419.481	767.31
419.689	836.94
419.897	820.55
420.105	820.55
420.313	980.29
420.521	865.61
420.729	961.86
420.937	959.81
421.145	1019.21
421.353	988.49
421.561	1099.08
421.769	1043.78
421.977	1242.43
422.185	1164.61
422.393	1262.91
422.601	1297.73
422.809	1248.58
423.017	1269.06
423.224	1353.02
423.432	1424.7
423.64	1357.12
423.848	1566.01
424.056	1580.35
424.263	1645.88
424.471	1623.36
424.679	1690.94
424.887	1654.08
425.094	1768.76
425.302	1781.05
425.51	1770.81
425.718	1948.98
425.925	1822.01
426.133	2004.28
426.341	2147.64
426.548	2135.35
426.756	2231.6
426.964	2217.27
427.171	2338.1
427.379	2405.68
427.586	2397.49
427.794	2585.9
428.001	2577.71
428.209	2829.61
428.417	2800.94
428.624	2884.91
428.832	2936.1
429.039	2764.08
429.247	2831.66
429.454	3157.29
429.662	3444
429.869	3099.94
430.076	3444
430.284	3280.16
430.491	3407.14
430.699	3702.04
430.906	3677.47
431.114	3730.72
431.321	3935.51
431.528	3872.03
431.736	4185.37
431.943	4549.9
432.15	4298
432.358	4496.66
432.565	4517.14
432.772	4474.13
432.979	4676.88
433.187	4873.48
433.394	4936.97
433.601	5186.82
433.808	5276.93
434.016	5285.12
434.223	5209.35
434.43	5731.58
434.637	5598.46
434.844	5928.19
435.052	5879.04
435.259	5979.39
435.466	6085.88
435.673	5936.38
435.88	6380.79
436.087	6534.39
436.294	6618.35
436.501	6642.93
436.708	6759.66
436.915	7140.58
437.122	7267.56
437.329	7271.65
437.537	7380.2
437.743	7548.13
437.95	7476.45
438.157	7859.42
438.364	8047.83
438.571	7943.39
438.778	8195.29
438.985	8965.32
439.192	8629.46
439.399	9037
439.606	8705.23
439.813	9233.61
440.02	9809.09
440.227	9632.96
440.433	9716.93
440.64	9907.39
440.847	9782.46
441.054	9870.53
441.261	10675.38
441.467	10476.73
441.674	10785.97
441.881	11259.05
442.088	11093.16
442.294	11048.11
442.501	11158.7
442.708	11625.64
442.914	11934.88
443.121	12567.7
443.328	12027.04
443.534	13016.21
443.741	12614.8
443.948	12436.63
444.154	13440.14
444.361	13331.59
444.568	13225.1
444.774	13485.19
444.981	13405.32
445.187	13874.31
445.394	14613.62
445.6	14460.02
445.807	15848.55
446.013	15060.08
446.22	15352.94
446.426	16223.33
446.633	16245.85
446.839	16614.49
447.046	16161.89
447.252	16989.27
447.459	17085.52
447.665	16860.24
447.871	17347.66
448.078	18193.47
448.284	17546.31
448.491	18265.15
448.697	18852.92
448.903	19067.95
449.11	19164.21
449.316	18979.89
449.522	19182.64
449.728	19823.65
449.935	19749.93
450.141	19850.28
450.347	20415.52
450.553	19604.52
450.76	20237.34
450.966	20622.36
451.172	20468.76
451.378	21132.31
451.584	20788.25
451.791	21269.52
451.997	21308.43
452.203	21693.45
452.409	21373.97
452.615	21433.36
452.821	20616.22
453.027	20386.85
453.233	21654.54
453.44	20945.94
453.646	21150.74
453.852	21253.14
454.058	21437.45
454.264	20931.61
454.47	21177.36
454.676	20655.13
454.882	21427.21
455.088	19573.8
455.294	19803.18
455.5	20126.75
455.705	20311.07
455.911	19452.97
456.117	19211.31
456.323	19149.87
456.529	18086.98
456.735	18719.8
456.941	18254.91
457.147	17982.53
457.352	17603.66
457.558	17488.97
457.764	17386.57
457.97	17400.91
458.176	16647.26
458.381	16784.47
458.587	15922.27
458.793	15740.01
458.999	15314.03
459.204	16303.2
459.41	15707.24
459.616	14564.47
459.821	14718.07
460.027	14699.64
460.233	14247.04
460.438	13716.61
460.644	13864.07
460.85	13069.45
461.055	12774.55
461.261	12999.82
461.466	12014.75
461.672	11572.39
461.878	12299.42
462.083	11562.15
462.289	11236.52
462.494	11224.23
462.7	10753.2
462.905	10284.22
463.111	10871.98
463.316	10736.82
463.522	10669.23
463.727	10472.63
463.932	10697.91
464.138	10466.49
464.343	10646.71
464.549	10253.5
464.754	10636.47
464.959	10300.6
465.165	10478.77
465.37	10011.84
465.575	9565.38
465.781	10220.73
465.986	10230.97
466.191	9686.21
466.397	9483.46
466.602	9166.03
466.807	9549
