Data from USB4F104151__59__13-11-57-957.txt Node

Date: Fri Mar 14 13:11:57 EDT 2025
User: louis
Spectrometer: USB4F10415
Trigger mode: 4
Integration Time (sec): 2.000000E-2
Scans to average: 1
Electric dark correction enabled: true
Nonlinearity correction enabled: false
Boxcar width: 0
XAxis mode: Wavelengths
Number of Pixels in Spectrum: 3648
>>>>>Begin Spectral Data<<<<<
178.204	-73.73
178.424	-73.73
178.644	-73.73
178.864	-114.69
179.084	-102.4
179.304	-34.82
179.524	-12.29
179.744	-69.63
179.964	106.49
180.184	4.1
180.404	-8.19
180.624	6.14
180.844	53.25
181.064	-6.14
181.283	-32.77
181.503	-18.43
181.723	12.29
181.943	51.2
182.163	102.4
182.383	32.77
182.602	63.49
182.822	90.11
183.042	73.73
183.262	-43.01
183.482	67.58
183.701	34.82
183.921	32.77
184.141	10.24
184.361	131.07
184.58	67.58
184.8	2.05
185.02	49.15
185.239	61.44
185.459	32.77
185.679	73.73
185.898	-10.24
186.118	16.38
186.338	28.67
186.557	-18.43
186.777	73.73
186.997	118.78
187.216	53.25
187.436	112.64
187.655	4.1
187.875	104.45
188.095	57.34
188.314	71.68
188.534	110.59
188.753	47.1
188.973	45.06
189.192	53.25
189.412	53.25
189.631	79.87
189.851	-14.34
190.07	12.29
190.29	-77.82
190.509	-22.53
190.729	0
190.948	73.73
191.168	75.77
191.387	65.53
191.607	32.77
191.826	47.1
192.045	71.68
192.265	63.49
192.484	71.68
192.704	34.82
192.923	47.1
193.142	120.83
193.362	34.82
193.581	141.31
193.8	26.62
194.02	57.34
194.239	-26.62
194.458	88.06
194.678	40.96
194.897	14.34
195.116	12.29
195.335	96.25
195.555	14.34
195.774	102.4
195.993	67.58
196.212	36.86
196.432	77.82
196.651	-26.62
196.87	14.34
197.089	71.68
197.308	45.06
197.528	108.54
197.747	59.39
197.966	79.87
198.185	96.25
198.404	34.82
198.623	36.86
198.842	63.49
199.062	79.87
199.281	14.34
199.5	90.11
199.719	16.38
199.938	112.64
200.157	32.77
200.376	10.24
200.595	86.01
200.814	149.5
201.033	-88.06
201.252	75.77
201.471	69.63
201.69	22.53
201.909	28.67
202.128	53.25
202.347	-47.1
202.566	40.96
202.785	51.2
203.004	61.44
203.223	20.48
203.442	63.49
203.661	104.45
203.879	36.86
204.098	104.45
204.317	18.43
204.536	75.77
204.755	12.29
204.974	53.25
205.193	-22.53
205.411	139.26
205.63	24.58
205.849	4.1
206.068	49.15
206.287	55.3
206.505	49.15
206.724	-2.05
206.943	86.01
207.162	43.01
207.381	90.11
207.599	8.19
207.818	110.59
208.037	-26.62
208.255	12.29
208.474	73.73
208.693	83.97
208.911	40.96
209.13	79.87
209.349	110.59
209.567	112.64
209.786	49.15
210.005	57.34
210.223	28.67
210.442	28.67
210.661	77.82
210.879	53.25
211.098	61.44
211.316	77.82
211.535	59.39
211.753	120.83
211.972	92.16
212.191	2.05
212.409	-4.1
212.628	120.83
212.846	71.68
213.065	110.59
213.283	118.78
213.502	63.49
213.72	38.91
213.938	8.19
214.157	63.49
214.375	16.38
214.594	34.82
214.812	43.01
215.031	77.82
215.249	49.15
215.467	133.12
215.686	0
215.904	124.93
216.122	12.29
216.341	28.67
216.559	4.1
216.778	65.53
216.996	106.49
217.214	63.49
217.432	-22.53
217.651	36.86
217.869	77.82
218.087	49.15
218.306	26.62
218.524	94.21
218.742	34.82
218.96	16.38
219.179	-53.25
219.397	12.29
219.615	47.1
219.833	-10.24
220.051	55.3
220.27	126.97
220.488	47.1
220.706	71.68
220.924	18.43
221.142	28.67
221.36	4.1
221.578	65.53
221.796	-20.48
222.015	69.63
222.233	12.29
222.451	122.88
222.669	-28.67
222.887	49.15
223.105	0
223.323	22.53
223.541	-4.1
223.759	30.72
223.977	77.82
224.195	38.91
224.413	49.15
224.631	32.77
224.849	16.38
225.067	0
225.285	34.82
225.503	122.88
225.721	-61.44
225.939	90.11
226.157	26.62
226.375	96.25
226.592	47.1
226.81	94.21
227.028	94.21
227.246	141.31
227.464	53.25
227.682	133.12
227.9	45.06
228.117	90.11
228.335	49.15
228.553	124.93
228.771	-16.38
228.989	65.53
229.206	40.96
229.424	47.1
229.642	47.1
229.86	77.82
230.077	0
230.295	61.44
230.513	98.3
230.731	47.1
230.948	114.69
231.166	-20.48
231.384	16.38
231.601	2.05
231.819	53.25
232.037	40.96
232.254	-16.38
232.472	79.87
232.689	-14.34
232.907	63.49
233.125	32.77
233.342	22.53
233.56	20.48
233.777	24.58
233.995	47.1
234.213	104.45
234.43	98.3
234.648	38.91
234.865	53.25
235.083	36.86
235.3	63.49
235.518	45.06
235.735	83.97
235.953	122.88
236.17	-4.1
236.388	-2.05
236.605	57.34
236.822	88.06
237.04	0
237.257	-32.77
237.475	73.73
237.692	73.73
237.909	-61.44
238.127	18.43
238.344	40.96
238.562	45.06
238.779	-18.43
238.996	-28.67
239.214	83.97
239.431	75.77
239.648	20.48
239.865	12.29
240.083	38.91
240.3	24.58
240.517	83.97
240.735	122.88
240.952	-20.48
241.169	36.86
241.386	-81.92
241.603	51.2
241.821	77.82
242.038	88.06
242.255	153.6
242.472	24.58
242.689	55.3
242.907	69.63
243.124	43.01
243.341	73.73
243.558	98.3
243.775	6.14
243.992	-49.15
244.209	53.25
244.426	69.63
244.643	137.21
244.86	-4.1
245.078	30.72
245.295	100.35
245.512	4.1
245.729	-49.15
245.946	63.49
246.163	40.96
246.38	59.39
246.597	12.29
246.814	61.44
247.031	110.59
247.248	14.34
247.464	63.49
247.681	98.3
247.898	10.24
248.115	120.83
248.332	43.01
248.549	71.68
248.766	43.01
248.983	51.2
249.2	22.53
249.417	12.29
249.633	69.63
249.85	135.17
250.067	51.2
250.284	-6.14
250.501	69.63
250.717	71.68
250.934	34.82
251.151	4.1
251.368	96.25
251.585	67.58
251.801	22.53
252.018	69.63
252.235	47.1
252.451	-18.43
252.668	47.1
252.885	61.44
253.102	-28.67
253.318	98.3
253.535	77.82
253.752	96.25
253.968	36.86
254.185	32.77
254.401	94.21
254.618	88.06
254.835	22.53
255.051	38.91
255.268	28.67
255.484	86.01
255.701	20.48
255.917	6.14
256.134	43.01
256.351	88.06
256.567	-22.53
256.784	118.78
257	61.44
257.217	4.1
257.433	20.48
257.65	28.67
257.866	36.86
258.082	47.1
258.299	55.3
258.515	38.91
258.732	53.25
258.948	-4.1
259.165	126.97
259.381	69.63
259.597	69.63
259.814	71.68
260.03	-18.43
260.246	24.58
260.463	147.45
260.679	38.91
260.895	36.86
261.112	79.87
261.328	16.38
261.544	16.38
261.761	81.92
261.977	38.91
262.193	77.82
262.409	102.4
262.626	49.15
262.842	77.82
263.058	14.34
263.274	-2.05
263.49	18.43
263.707	77.82
263.923	32.77
264.139	55.3
264.355	51.2
264.571	108.54
264.787	122.88
265.004	30.72
265.22	71.68
265.436	86.01
265.652	38.91
265.868	-12.29
266.084	-22.53
266.3	20.48
266.516	16.38
266.732	12.29
266.948	47.1
267.164	77.82
267.38	47.1
267.596	96.25
267.812	108.54
268.028	55.3
268.244	126.97
268.46	47.1
268.676	20.48
268.892	55.3
269.108	63.49
269.324	45.06
269.54	26.62
269.756	61.44
269.972	4.1
270.188	57.34
270.403	30.72
270.619	79.87
270.835	22.53
271.051	71.68
271.267	47.1
271.483	28.67
271.698	63.49
271.914	98.3
272.13	-14.34
272.346	88.06
272.562	-16.38
272.777	90.11
272.993	45.06
273.209	51.2
273.425	90.11
273.64	20.48
273.856	57.34
274.072	2.05
274.287	10.24
274.503	-20.48
274.719	16.38
274.934	45.06
275.15	69.63
275.366	-2.05
275.581	49.15
275.797	49.15
276.012	43.01
276.228	73.73
276.444	-8.19
276.659	114.69
276.875	108.54
277.09	36.86
277.306	8.19
277.521	22.53
277.737	38.91
277.952	40.96
278.168	73.73
278.383	4.1
278.599	28.67
278.814	6.14
279.03	24.58
279.245	73.73
279.461	86.01
279.676	79.87
279.892	10.24
280.107	81.92
280.322	-8.19
280.538	81.92
280.753	53.25
280.969	81.92
281.184	36.86
281.399	0
281.615	53.25
281.83	61.44
282.045	6.14
282.26	24.58
282.476	69.63
282.691	47.1
282.906	18.43
283.122	20.48
283.337	96.25
283.552	40.96
283.767	88.06
283.983	118.78
284.198	57.34
284.413	12.29
284.628	-4.1
284.843	73.73
285.058	10.24
285.274	-28.67
285.489	32.77
285.704	161.79
285.919	36.86
286.134	73.73
286.349	81.92
286.564	20.48
286.779	96.25
286.995	30.72
287.21	28.67
287.425	57.34
287.64	75.77
287.855	73.73
288.07	53.25
288.285	28.67
288.5	92.16
288.715	73.73
288.93	61.44
289.145	71.68
289.36	153.6
289.575	94.21
289.79	20.48
290.004	79.87
290.219	122.88
290.434	22.53
290.649	32.77
290.864	59.39
291.079	30.72
291.294	75.77
291.509	43.01
291.724	18.43
291.938	4.1
292.153	71.68
292.368	22.53
292.583	94.21
292.798	61.44
293.012	59.39
293.227	14.34
293.442	55.3
293.657	12.29
293.871	61.44
294.086	-18.43
294.301	67.58
294.516	77.82
294.73	81.92
294.945	63.49
295.16	-8.19
295.374	71.68
295.589	135.17
295.804	96.25
296.018	92.16
296.233	28.67
296.447	75.77
296.662	59.39
296.877	110.59
297.091	14.34
297.306	-2.05
297.52	-8.19
297.735	59.39
297.949	51.2
298.164	120.83
298.378	-45.06
298.593	36.86
298.807	22.53
299.022	112.64
299.236	12.29
299.451	106.49
299.665	135.17
299.88	24.58
300.094	49.15
300.309	45.06
300.523	63.49
300.737	57.34
300.952	116.73
301.166	118.78
301.381	94.21
301.595	71.68
301.809	22.53
302.024	-12.29
302.238	34.82
302.452	122.88
302.667	-28.67
302.881	133.12
303.095	20.48
303.309	43.01
303.524	63.49
303.738	63.49
303.952	24.58
304.166	-20.48
304.381	8.19
304.595	129.02
304.809	0
305.023	-8.19
305.237	32.77
305.452	18.43
305.666	73.73
305.88	40.96
306.094	28.67
306.308	126.97
306.522	24.58
306.736	79.87
306.95	-8.19
307.164	90.11
307.379	2.05
307.593	73.73
307.807	75.77
308.021	104.45
308.235	112.64
308.449	49.15
308.663	-63.49
308.877	96.25
309.091	-16.38
309.305	26.62
309.519	-57.34
309.733	81.92
309.947	53.25
310.161	6.14
310.374	-10.24
310.588	79.87
310.802	12.29
311.016	86.01
311.23	-4.1
311.444	96.25
311.658	79.87
311.872	143.36
312.085	77.82
312.299	36.86
312.513	131.07
312.727	36.86
312.941	57.34
313.154	36.86
313.368	86.01
313.582	4.1
313.796	63.49
314.009	45.06
314.223	-6.14
314.437	71.68
314.651	40.96
314.864	69.63
315.078	83.97
315.292	32.77
315.505	133.12
315.719	38.91
315.933	40.96
316.146	24.58
316.36	22.53
316.573	14.34
316.787	53.25
317.001	28.67
317.214	40.96
317.428	40.96
317.641	53.25
317.855	55.3
318.068	73.73
318.282	53.25
318.495	90.11
318.709	38.91
318.922	36.86
319.136	110.59
319.349	71.68
319.563	-18.43
319.776	71.68
319.99	69.63
320.203	67.58
320.417	98.3
320.63	88.06
320.843	63.49
321.057	30.72
321.27	122.88
321.483	32.77
321.697	118.78
321.91	28.67
322.124	55.3
322.337	57.34
322.55	38.91
322.763	38.91
322.977	61.44
323.19	-12.29
323.403	-2.05
323.617	16.38
323.83	141.31
324.043	-20.48
324.256	59.39
324.469	94.21
324.683	30.72
324.896	45.06
325.109	61.44
325.322	43.01
325.535	81.92
325.748	102.4
325.962	8.19
326.175	24.58
326.388	49.15
326.601	141.31
326.814	75.77
327.027	30.72
327.24	34.82
327.453	24.58
327.666	135.17
327.879	86.01
328.092	45.06
328.305	10.24
328.518	88.06
328.731	-12.29
328.944	40.96
329.157	8.19
329.37	112.64
329.583	69.63
329.796	49.15
330.009	-65.54
330.222	22.53
330.435	57.34
330.648	12.29
330.861	36.86
331.073	55.3
331.286	34.82
331.499	47.1
331.712	-26.62
331.925	24.58
332.138	-10.24
332.35	88.06
332.563	110.59
332.776	69.63
332.989	116.73
333.202	30.72
333.414	8.19
333.627	118.78
333.84	61.44
334.053	61.44
334.265	86.01
334.478	94.21
334.691	34.82
334.903	-16.38
335.116	69.63
335.329	20.48
335.541	45.06
335.754	40.96
335.966	53.25
336.179	18.43
336.392	92.16
336.604	-45.06
336.817	110.59
337.029	-22.53
337.242	51.2
337.454	55.3
337.667	-2.05
337.88	90.11
338.092	69.63
338.305	53.25
338.517	61.44
338.729	94.21
338.942	81.92
339.154	10.24
339.367	45.06
339.579	59.39
339.792	12.29
340.004	86.01
340.217	108.54
340.429	118.78
340.641	77.82
340.854	116.73
341.066	55.3
341.278	59.39
341.491	69.63
341.703	28.67
341.915	57.34
342.128	69.63
342.34	38.91
342.552	26.62
342.764	28.67
342.977	73.73
343.189	155.65
343.401	-18.43
343.613	24.58
343.826	112.64
344.038	30.72
344.25	40.96
344.462	14.34
344.674	49.15
344.886	14.34
345.099	47.1
345.311	61.44
345.523	71.68
345.735	28.67
345.947	65.53
346.159	71.68
346.371	-12.29
346.583	28.67
346.795	116.73
347.007	69.63
347.219	45.06
347.431	-2.05
347.643	8.19
347.855	77.82
348.067	18.43
348.279	102.4
348.491	36.86
348.703	102.4
348.915	53.25
349.127	59.39
349.339	47.1
349.551	24.58
349.763	73.73
349.975	61.44
350.187	129.02
350.399	-53.25
350.61	55.3
350.822	86.01
351.034	79.87
351.246	61.44
351.458	22.53
351.669	118.78
351.881	108.54
352.093	51.2
352.305	145.41
352.517	96.25
352.728	100.35
352.94	59.39
353.152	-14.34
353.363	63.49
353.575	57.34
353.787	104.45
353.999	8.19
354.21	92.16
354.422	28.67
354.633	57.34
354.845	96.25
355.057	49.15
355.268	22.53
355.48	53.25
355.692	67.58
355.903	96.25
356.115	24.58
356.326	0
356.538	114.69
356.749	86.01
356.961	104.45
357.172	22.53
357.384	55.3
357.595	102.4
357.807	22.53
358.018	36.86
358.23	38.91
358.441	40.96
358.653	65.53
358.864	10.24
359.075	24.58
359.287	8.19
359.498	112.64
359.709	108.54
359.921	61.44
360.132	86.01
360.344	8.19
360.555	-26.62
360.766	106.49
360.977	-12.29
361.189	106.49
361.4	118.78
361.611	73.73
361.823	77.82
362.034	36.86
362.245	22.53
362.456	86.01
362.667	20.48
362.879	153.6
363.09	14.34
363.301	47.1
363.512	53.25
363.723	28.67
363.935	63.49
364.146	129.02
364.357	10.24
364.568	90.11
364.779	53.25
364.99	126.97
365.201	63.49
365.412	102.4
365.623	-32.77
365.834	92.16
366.045	26.62
366.256	83.97
366.467	98.3
366.678	24.58
366.889	75.77
367.1	55.3
367.311	77.82
367.522	47.1
367.733	30.72
367.944	96.25
368.155	45.06
368.366	61.44
368.577	114.69
368.788	65.53
368.999	40.96
369.209	36.86
369.42	57.34
369.631	73.73
369.842	32.77
370.053	90.11
370.264	77.82
370.474	110.59
370.685	4.1
370.896	43.01
371.107	-45.06
371.317	86.01
371.528	57.34
371.739	90.11
371.95	71.68
372.16	155.65
372.371	40.96
372.582	112.64
372.792	96.25
373.003	-8.19
373.214	53.25
373.424	69.63
373.635	71.68
373.846	135.17
374.056	0
374.267	20.48
374.477	67.58
374.688	61.44
374.898	133.12
375.109	40.96
375.319	-14.34
375.53	86.01
375.74	49.15
375.951	71.68
376.161	65.53
376.372	59.39
376.582	69.63
376.793	47.1
377.003	-34.82
377.214	61.44
377.424	86.01
377.635	81.92
377.845	71.68
378.055	98.3
378.266	43.01
378.476	90.11
378.686	92.16
378.897	59.39
379.107	79.87
379.317	88.06
379.528	63.49
379.738	69.63
379.948	-6.14
380.158	77.82
380.369	59.39
380.579	88.06
380.789	-40.96
380.999	92.16
381.21	149.5
381.42	61.44
381.63	126.97
381.84	90.11
382.05	65.53
382.261	149.5
382.471	47.1
382.681	40.96
382.891	96.25
383.101	57.34
383.311	59.39
383.521	114.69
383.731	102.4
383.941	45.06
384.151	71.68
384.361	38.91
384.571	51.2
384.781	71.68
384.991	83.97
385.201	77.82
385.411	53.25
385.621	61.44
385.831	49.15
386.041	55.3
386.251	73.73
386.461	47.1
386.671	12.29
386.881	79.87
387.091	94.21
387.301	53.25
387.511	47.1
387.72	104.45
387.93	88.06
388.14	22.53
388.35	81.92
388.56	124.93
388.769	79.87
388.979	28.67
389.189	22.53
389.399	45.06
389.609	30.72
389.818	104.45
390.028	20.48
390.238	120.83
390.447	45.06
390.657	28.67
390.867	69.63
391.076	96.25
391.286	63.49
391.496	77.82
391.705	30.72
391.915	22.53
392.125	53.25
392.334	24.58
392.544	53.25
392.753	104.45
392.963	47.1
393.172	26.62
393.382	79.87
393.591	94.21
393.801	43.01
394.01	69.63
394.22	118.78
394.429	63.49
394.639	43.01
394.848	75.77
395.058	155.65
395.267	55.3
395.477	147.45
395.686	79.87
395.895	133.12
396.105	77.82
396.314	65.53
396.524	159.74
396.733	26.62
396.942	77.82
397.152	81.92
397.361	129.02
397.57	120.83
397.78	94.21
397.989	69.63
398.198	112.64
398.407	133.12
398.617	28.67
398.826	100.35
399.035	110.59
399.244	102.4
399.453	135.17
399.663	92.16
399.872	79.87
400.081	90.11
400.29	167.93
400.499	32.77
400.708	145.41
400.917	124.93
401.127	100.35
401.336	81.92
401.545	106.49
401.754	184.32
401.963	151.55
402.172	176.13
402.381	151.55
402.59	129.02
402.799	77.82
403.008	102.4
403.217	81.92
403.426	118.78
403.635	94.21
403.844	94.21
404.053	118.78
404.262	165.89
404.471	247.8
404.68	147.45
404.888	161.79
405.097	100.35
405.306	141.31
405.515	120.83
405.724	135.17
405.933	172.03
406.142	188.41
406.35	92.16
406.559	184.32
406.768	208.89
406.977	178.17
407.185	126.97
407.394	188.41
407.603	149.5
407.812	292.86
408.02	180.22
408.229	126.97
408.438	161.79
408.646	100.35
408.855	133.12
409.064	180.22
409.272	178.17
409.481	241.66
409.69	278.52
409.898	143.36
410.107	167.93
410.315	270.33
410.524	231.42
410.733	280.57
410.941	307.2
411.15	270.33
411.358	288.76
411.567	374.78
411.775	284.67
411.984	256
412.192	303.1
412.401	290.81
412.609	391.16
412.818	323.58
413.026	376.83
413.234	432.12
413.443	413.69
413.651	397.31
413.86	448.51
414.068	495.61
414.276	376.83
414.485	405.5
414.693	503.8
414.901	530.42
415.11	448.51
415.318	524.28
415.526	522.23
415.734	524.28
415.943	555
416.151	581.62
416.359	550.9
416.567	604.15
416.776	643.06
416.984	735.22
417.192	706.55
417.4	679.93
417.608	690.17
417.817	661.49
418.025	727.03
418.233	862.19
418.441	856.05
418.649	835.57
418.857	997.36
419.065	970.74
419.273	917.49
419.481	1040.37
419.689	974.83
419.897	993.26
420.105	1060.85
420.313	1081.33
420.521	1112.05
420.729	1114.1
420.937	1208.3
421.145	1273.84
421.353	1288.17
421.561	1322.99
421.769	1347.56
421.977	1417.19
422.185	1478.63
422.393	1546.22
422.601	1574.89
422.809	1562.6
423.017	1589.22
423.224	1658.85
423.432	1677.29
423.64	1734.63
423.848	1853.41
424.056	1855.46
424.263	2107.36
424.471	1939.43
424.679	2037.73
424.887	2111.46
425.094	2224.09
425.302	2138.08
425.51	2396.12
425.718	2344.92
425.925	2301.92
426.133	2461.66
426.341	2602.97
426.548	2783.19
426.756	2772.95
426.964	2830.29
427.171	2893.78
427.379	3033.04
427.586	3082.19
427.794	3162.06
428.001	3313.61
428.209	3428.3
428.417	3291.09
428.624	3612.62
428.832	3616.71
429.039	3702.73
429.247	3649.48
429.454	3993.54
429.662	4247.49
429.869	4020.16
430.076	4294.59
430.284	4100.03
430.491	4364.22
430.699	4415.42
430.906	4440
431.114	4575.16
431.321	4790.2
431.528	4902.84
431.736	5216.18
431.943	5443.5
432.15	5263.28
432.358	5199.79
432.565	5621.67
432.772	5623.72
432.979	5785.51
433.187	5943.21
433.394	5986.21
433.601	6475.68
433.808	6365.09
434.016	6369.18
434.223	6655.9
434.43	7040.92
434.637	6977.43
434.844	7421.84
435.052	7337.87
435.259	7348.11
435.466	7524.24
435.673	7438.22
435.88	7794.57
436.087	8417.15
436.294	8353.66
436.501	8232.83
436.708	8210.31
436.915	8585.08
437.122	9097.08
437.329	9011.06
437.537	9217.91
437.743	9342.83
437.95	9115.51
438.157	9846.63
438.364	10078.05
438.571	10020.71
438.778	10317.67
438.985	11370.32
439.192	10600.29
439.399	11097.94
439.606	10798.94
439.813	11532.11
440.02	12027.72
440.227	11747.15
440.433	11753.29
440.64	12250.95
440.847	12101.45
441.054	12273.48
441.261	13276.98
441.467	13080.38
441.674	13193.01
441.881	13776.69
442.088	13709.1
442.294	13664.05
442.501	14104.36
442.708	14520.1
442.914	14921.5
443.121	15613.71
443.328	15089.43
443.534	16097.03
443.741	15650.58
443.948	15331.09
444.154	16523.01
444.361	16117.51
444.568	16865.02
444.774	16899.84
444.981	16873.21
445.187	17313.53
445.394	18140.91
445.6	17905.39
445.807	19685.08
446.013	19023.58
446.22	18908.9
446.426	20201.16
446.633	20092.62
446.839	20766.4
447.046	19785.43
447.252	20942.53
447.459	21063.36
447.665	20809.41
447.871	21966.51
448.078	22845.09
448.284	21673.65
448.491	22443.69
448.697	23320.22
448.903	23846.55
449.11	23750.29
449.316	23309.98
449.522	23748.25
449.728	24534.67
449.935	24708.74
450.141	24690.31
450.347	25190.02
450.553	24438.41
450.76	24848
450.966	25730.68
451.172	25382.52
451.378	26240.62
451.584	25781.88
451.791	26570.35
451.997	26381.93
452.203	26549.87
452.409	26605.16
452.615	26621.55
452.821	25470.59
453.027	25343.61
453.233	26746.47
453.44	25493.12
453.646	25906.8
453.852	25726.58
454.058	26271.34
454.264	25822.84
454.47	26271.34
454.676	25421.44
454.882	26287.73
455.088	24379.02
455.294	24610.44
455.5	24964.74
455.705	25243.26
455.911	24274.57
456.117	23772.82
456.323	23400.09
456.529	22122.16
456.735	23160.48
456.941	22867.62
457.147	22193.84
457.352	21462.71
457.558	21358.27
457.764	21642.93
457.97	20885.19
458.176	20700.87
458.381	20694.72
458.587	19685.08
458.793	19551.96
458.999	18620.13
459.204	19830.48
459.41	19125.98
459.616	18077.42
459.821	18142.96
460.027	18058.99
460.233	17954.54
460.438	17135.35
460.644	17004.28
460.85	16264.97
461.055	15929.1
461.261	16111.37
461.466	14681.89
461.672	14411.56
461.878	15144.73
462.083	14061.35
462.289	14169.9
462.494	13944.62
462.7	13133.62
462.905	13049.66
463.111	13428.53
463.316	13238.07
463.522	13104.95
463.727	13274.93
463.932	13186.87
464.138	12908.35
464.343	12922.68
464.549	12814.14
464.754	13145.91
464.959	12955.45
465.165	12898.11
465.37	12152.65
465.575	11933.51
465.781	12562.24
465.986	12564.29
466.191	11972.43
466.397	12011.34
466.602	11417.43
466.807	11970.38
467.012	11892.55
467.218	11794.25
467.423	11792.2
467.628	11568.98
467.833	12042.06
