Data from USB4F104151__3__13-10-08-364.txt Node

Date: Fri Mar 14 13:10:08 EDT 2025
User: louis
Spectrometer: USB4F10415
Trigger mode: 4
Integration Time (sec): 2.000000E-2
Scans to average: 1
Electric dark correction enabled: true
Nonlinearity correction enabled: false
Boxcar width: 0
XAxis mode: Wavelengths
Number of Pixels in Spectrum: 3648
>>>>>Begin Spectral Data<<<<<
178.204	-99.67
178.424	-99.67
178.644	-99.67
178.864	-101.72
179.084	-126.29
179.304	-15.7
179.524	39.59
179.744	-13.65
179.964	-17.75
180.184	-64.85
180.404	31.4
180.624	-13.65
180.844	-11.61
181.064	-7.51
181.283	64.17
181.503	-27.99
181.723	37.55
181.943	6.83
182.163	29.35
182.383	41.64
182.602	0.68
182.822	10.92
183.042	64.17
183.262	8.87
183.482	-66.9
183.701	12.97
183.921	39.59
184.141	-38.23
184.361	-1.37
184.58	-9.56
184.8	98.99
185.02	19.11
185.239	74.41
185.459	25.26
185.679	-5.46
185.898	10.92
186.118	-5.46
186.338	53.93
186.557	31.4
186.777	39.59
186.997	-56.66
187.216	4.78
187.436	-21.84
187.655	-15.7
187.875	21.16
188.095	-34.13
188.314	25.26
188.534	19.11
188.753	76.46
188.973	23.21
189.192	29.35
189.412	-32.08
189.631	33.45
189.851	31.4
190.07	-48.47
190.29	-71
190.509	41.64
190.729	31.4
190.948	74.41
191.168	74.41
191.387	33.45
191.607	-25.94
191.826	-17.75
192.045	-34.13
192.265	39.59
192.484	19.11
192.704	17.07
192.923	23.21
193.142	101.03
193.362	19.11
193.581	15.02
193.8	25.26
194.02	31.4
194.239	12.97
194.458	6.83
194.678	31.4
194.897	27.31
195.116	10.92
195.335	2.73
195.555	58.03
195.774	41.64
195.993	8.87
196.212	62.12
196.432	49.83
196.651	-75.09
196.87	-27.99
197.089	51.88
197.308	43.69
197.528	-1.37
197.747	-7.51
197.966	47.79
198.185	-5.46
198.404	27.31
198.623	41.64
198.842	8.87
199.062	6.83
199.281	68.27
199.5	25.26
199.719	31.4
199.938	35.5
200.157	64.17
200.376	23.21
200.595	103.08
200.814	-25.94
201.033	33.45
201.252	29.35
201.471	12.97
201.69	49.83
201.909	115.37
202.128	-23.89
202.347	72.36
202.566	23.21
202.785	6.83
203.004	25.26
203.223	78.51
203.442	33.45
203.661	10.92
203.879	-1.37
204.098	41.64
204.317	2.73
204.536	96.94
204.755	64.17
204.974	41.64
205.193	23.21
205.411	101.03
205.63	6.83
205.849	29.35
206.068	15.02
206.287	55.98
206.505	49.83
206.724	-17.75
206.943	4.78
207.162	37.55
207.381	19.11
207.599	39.59
207.818	43.69
208.037	66.22
208.255	-9.56
208.474	23.21
208.693	84.65
208.911	64.17
209.13	-1.37
209.349	-11.61
209.567	51.88
209.786	41.64
210.005	27.31
210.223	107.18
210.442	8.87
210.661	12.97
210.879	84.65
211.098	15.02
211.316	15.02
211.535	0.68
211.753	123.56
211.972	12.97
212.191	12.97
212.409	33.45
212.628	-46.42
212.846	17.07
213.065	-11.61
213.283	51.88
213.502	-77.14
213.72	41.64
213.938	107.18
214.157	10.92
214.375	6.83
214.594	49.83
214.812	21.16
215.031	6.83
215.249	-9.56
215.467	55.98
215.686	-17.75
215.904	115.37
216.122	39.59
216.341	-34.13
216.559	43.69
216.778	29.35
216.996	58.03
217.214	72.36
217.432	10.92
217.651	-21.84
217.869	15.02
218.087	12.97
218.306	64.17
218.524	72.36
218.742	15.02
218.96	58.03
219.179	-25.94
219.397	6.83
219.615	-1.37
219.833	55.98
220.051	33.45
220.27	86.7
220.488	29.35
220.706	-3.41
220.924	43.69
221.142	51.88
221.36	23.21
221.578	-19.8
221.796	0.68
222.015	60.07
222.233	37.55
222.451	88.75
222.669	-75.09
222.887	8.87
223.105	-66.9
223.323	-5.46
223.541	-30.04
223.759	2.73
223.977	45.74
224.195	72.36
224.413	60.07
224.631	70.31
224.849	39.59
225.067	201.38
225.285	-9.56
225.503	-40.28
225.721	-32.08
225.939	21.16
226.157	-54.61
226.375	45.74
226.592	41.64
226.81	-21.84
227.028	15.02
227.246	105.13
227.464	66.22
227.682	43.69
227.9	-13.65
228.117	51.88
228.335	19.11
228.553	55.98
228.771	60.07
228.989	19.11
229.206	-25.94
229.424	19.11
229.642	10.92
229.86	-5.46
230.077	53.93
230.295	33.45
230.513	80.55
230.731	74.41
230.948	90.79
231.166	-44.37
231.384	-42.32
231.601	31.4
231.819	168.62
232.037	-9.56
232.254	47.79
232.472	-15.7
232.689	60.07
232.907	49.83
233.125	39.59
233.342	15.02
233.56	-27.99
233.777	4.78
233.995	-13.65
234.213	-5.46
234.43	0.68
234.648	39.59
234.865	15.02
235.083	31.4
235.3	51.88
235.518	68.27
235.735	-3.41
235.953	17.07
236.17	-13.65
236.388	-3.41
236.605	-17.75
236.822	45.74
237.04	49.83
237.257	117.42
237.475	-40.28
237.692	17.07
237.909	-46.42
238.127	-25.94
238.344	39.59
238.562	23.21
238.779	35.5
238.996	51.88
239.214	94.89
239.431	45.74
239.648	-34.13
239.865	55.98
240.083	76.46
240.3	47.79
240.517	4.78
240.735	49.83
240.952	47.79
241.169	35.5
241.386	64.17
241.603	15.02
241.821	-75.09
242.038	41.64
242.255	55.98
242.472	35.5
242.689	29.35
242.907	31.4
243.124	17.07
243.341	-38.23
243.558	-13.65
243.775	-42.32
243.992	15.02
244.209	45.74
244.426	70.31
244.643	6.83
244.86	-1.37
245.078	-34.13
245.295	-23.89
245.512	35.5
245.729	-46.42
245.946	-34.13
246.163	23.21
246.38	12.97
246.597	-13.65
246.814	76.46
247.031	80.55
247.248	129.7
247.464	6.83
247.681	6.83
247.898	6.83
248.115	47.79
248.332	10.92
248.549	64.17
248.766	-1.37
248.983	33.45
249.2	15.02
249.417	96.94
249.633	60.07
249.85	-32.08
250.067	66.22
250.284	27.31
250.501	-23.89
250.717	96.94
250.934	-1.37
251.151	17.07
251.368	23.21
251.585	25.26
251.801	8.87
252.018	-9.56
252.235	105.13
252.451	64.17
252.668	23.21
252.885	64.17
253.102	-17.75
253.318	86.7
253.535	39.59
253.752	-13.65
253.968	4.78
254.185	-23.89
254.401	8.87
254.618	-23.89
254.835	17.07
255.051	80.55
255.268	-50.52
255.484	37.55
255.701	10.92
255.917	31.4
256.134	-9.56
256.351	15.02
256.567	-1.37
256.784	82.6
257	-21.84
257.217	25.26
257.433	-15.7
257.65	39.59
257.866	139.94
258.082	-19.8
258.299	-1.37
258.515	-17.75
258.732	39.59
258.948	27.31
259.165	-19.8
259.381	23.21
259.597	55.98
259.814	-13.65
260.03	-15.7
260.246	51.88
260.463	0.68
260.679	72.36
260.895	33.45
261.112	-15.7
261.328	0.68
261.544	33.45
261.761	39.59
261.977	64.17
262.193	-34.13
262.409	33.45
262.626	21.16
262.842	0.68
263.058	29.35
263.274	-25.94
263.49	-21.84
263.707	19.11
263.923	-30.04
264.139	-34.13
264.355	35.5
264.571	86.7
264.787	98.99
265.004	43.69
265.22	-15.7
265.436	70.31
265.652	17.07
265.868	49.83
266.084	-9.56
266.3	96.94
266.516	23.21
266.732	-23.89
266.948	8.87
267.164	74.41
267.38	17.07
267.596	35.5
267.812	53.93
268.028	2.73
268.244	70.31
268.46	101.03
268.676	27.31
268.892	6.83
269.108	86.7
269.324	-13.65
269.54	39.59
269.756	0.68
269.972	31.4
270.188	92.84
270.403	-11.61
270.619	10.92
270.835	-15.7
271.051	96.94
271.267	-23.89
271.483	31.4
271.698	31.4
271.914	-23.89
272.13	0.68
272.346	31.4
272.562	-11.61
272.777	35.5
272.993	33.45
273.209	33.45
273.425	64.17
273.64	15.02
273.856	47.79
274.072	84.65
274.287	55.98
274.503	43.69
274.719	51.88
274.934	70.31
275.15	-27.99
275.366	2.73
275.581	-21.84
275.797	92.84
276.012	10.92
276.228	-17.75
276.444	45.74
276.659	92.84
276.875	-9.56
277.09	-5.46
277.306	4.78
277.521	53.93
277.737	4.78
277.952	72.36
278.168	0.68
278.383	27.31
278.599	-34.13
278.814	37.55
279.03	-50.52
279.245	15.02
279.461	70.31
279.676	107.18
279.892	-3.41
280.107	31.4
280.322	29.35
280.538	6.83
280.753	-42.32
280.969	12.97
281.184	76.46
281.399	-19.8
281.615	15.02
281.83	17.07
282.045	10.92
282.26	-34.13
282.476	41.64
282.691	37.55
282.906	82.6
283.122	39.59
283.337	10.92
283.552	4.78
283.767	-48.47
283.983	19.11
284.198	4.78
284.413	31.4
284.628	-32.08
284.843	51.88
285.058	51.88
285.274	49.83
285.489	68.27
285.704	8.87
285.919	25.26
286.134	39.59
286.349	21.16
286.564	6.83
286.779	58.03
286.995	33.45
287.21	-15.7
287.425	115.37
287.64	53.93
287.855	55.98
288.07	-17.75
288.285	74.41
288.5	107.18
288.715	-7.51
288.93	35.5
289.145	66.22
289.36	76.46
289.575	37.55
289.79	43.69
290.004	-23.89
290.219	-21.84
290.434	8.87
290.649	6.83
290.864	33.45
291.079	-17.75
291.294	-3.41
291.509	43.69
291.724	82.6
291.938	70.31
292.153	49.83
292.368	-32.08
292.583	76.46
292.798	-25.94
293.012	90.79
293.227	64.17
293.442	82.6
293.657	-42.32
293.871	64.17
294.086	64.17
294.301	23.21
294.516	-15.7
294.73	90.79
294.945	19.11
295.16	-23.89
295.374	53.93
295.589	101.03
295.804	43.69
296.018	-17.75
296.233	47.79
296.447	39.59
296.662	-34.13
296.877	43.69
297.091	29.35
297.306	8.87
297.52	0.68
297.735	43.69
297.949	33.45
298.164	-13.65
298.378	25.26
298.593	-17.75
298.807	-5.46
299.022	-5.46
299.236	109.23
299.451	17.07
299.665	35.5
299.88	51.88
300.094	-5.46
300.309	-5.46
300.523	55.98
300.737	51.88
300.952	-1.37
301.166	-81.24
301.381	23.21
301.595	-7.51
301.809	2.73
302.024	31.4
302.238	19.11
302.452	78.51
302.667	31.4
302.881	15.02
303.095	37.55
303.309	15.02
303.524	-54.61
303.738	72.36
303.952	-3.41
304.166	12.97
304.381	-9.56
304.595	82.6
304.809	17.07
305.023	31.4
305.237	62.12
305.452	19.11
305.666	88.75
305.88	17.07
306.094	148.14
306.308	39.59
306.522	43.69
306.736	55.98
306.95	74.41
307.164	33.45
307.379	33.45
307.593	76.46
307.807	47.79
308.021	96.94
308.235	23.21
308.449	-7.51
308.663	90.79
308.877	74.41
309.091	-17.75
309.305	51.88
309.519	12.97
309.733	49.83
309.947	-58.71
310.161	25.26
310.374	60.07
310.588	-9.56
310.802	-38.23
311.016	6.83
311.23	-7.51
311.444	-17.75
311.658	15.02
311.872	8.87
312.085	-13.65
312.299	88.75
312.513	25.26
312.727	0.68
312.941	-38.23
313.154	43.69
313.368	-13.65
313.582	58.03
313.796	37.55
314.009	27.31
314.223	66.22
314.437	55.98
314.651	60.07
314.864	37.55
315.078	-5.46
315.292	-11.61
315.505	-19.8
315.719	55.98
315.933	-27.99
316.146	0.68
316.36	-54.61
316.573	27.31
316.787	51.88
317.001	15.02
317.214	19.11
317.428	62.12
317.641	23.21
317.855	-13.65
318.068	19.11
318.282	6.83
318.495	35.5
318.709	31.4
318.922	19.11
319.136	119.46
319.349	-17.75
319.563	68.27
319.776	15.02
319.99	-11.61
320.203	31.4
320.417	80.55
320.63	70.31
320.843	55.98
321.057	8.87
321.27	51.88
321.483	25.26
321.697	98.99
321.91	29.35
322.124	-9.56
322.337	8.87
322.55	15.02
322.763	70.31
322.977	17.07
323.19	58.03
323.403	131.75
323.617	19.11
323.83	68.27
324.043	33.45
324.256	72.36
324.469	17.07
324.683	33.45
324.896	-7.51
325.109	27.31
325.322	-9.56
325.535	47.79
325.748	80.55
325.962	25.26
326.175	39.59
326.388	47.79
326.601	82.6
326.814	17.07
327.027	2.73
327.24	39.59
327.453	-1.37
327.666	51.88
327.879	31.4
328.092	72.36
328.305	35.5
328.518	101.03
328.731	-66.9
328.944	64.17
329.157	-52.56
329.37	31.4
329.583	41.64
329.796	17.07
330.009	-19.8
330.222	0.68
330.435	58.03
330.648	70.31
330.861	-9.56
331.073	-7.51
331.286	27.31
331.499	-1.37
331.712	-25.94
331.925	68.27
332.138	39.59
332.35	33.45
332.563	29.35
332.776	82.6
332.989	17.07
333.202	8.87
333.414	4.78
333.627	2.73
333.84	74.41
334.053	17.07
334.265	37.55
334.478	58.03
334.691	31.4
334.903	-3.41
335.116	39.59
335.329	15.02
335.541	45.74
335.754	86.7
335.966	47.79
336.179	15.02
336.392	39.59
336.604	19.11
336.817	49.83
337.029	39.59
337.242	-7.51
337.454	58.03
337.667	53.93
337.88	4.78
338.092	-21.84
338.305	10.92
338.517	-40.28
338.729	-34.13
338.942	-30.04
339.154	10.92
339.367	-25.94
339.579	12.97
339.792	-34.13
340.004	-1.37
340.217	19.11
340.429	60.07
340.641	25.26
340.854	92.84
341.066	10.92
341.278	98.99
341.491	121.51
341.703	15.02
341.915	-5.46
342.128	39.59
342.34	0.68
342.552	-21.84
342.764	27.31
342.977	19.11
343.189	33.45
343.401	68.27
343.613	58.03
343.826	43.69
344.038	0.68
344.25	-25.94
344.462	27.31
344.674	60.07
344.886	23.21
345.099	31.4
345.311	72.36
345.523	123.56
345.735	47.79
345.947	19.11
346.159	-32.08
346.371	133.8
346.583	-50.52
346.795	105.13
347.007	23.21
347.219	68.27
347.431	74.41
347.643	55.98
347.855	-30.04
348.067	-3.41
348.279	33.45
348.491	37.55
348.703	15.02
348.915	55.98
349.127	-54.61
349.339	-5.46
349.551	31.4
349.763	-13.65
349.975	17.07
350.187	23.21
350.399	31.4
350.61	39.59
350.822	-15.7
351.034	8.87
351.246	64.17
351.458	35.5
351.669	60.07
351.881	2.73
352.093	84.65
352.305	64.17
352.517	-38.23
352.728	68.27
352.94	76.46
353.152	74.41
353.363	-36.18
353.575	53.93
353.787	35.5
353.999	66.22
354.21	19.11
354.422	19.11
354.633	98.99
354.845	60.07
355.057	-11.61
355.268	-13.65
355.48	101.03
355.692	82.6
355.903	78.51
356.115	-25.94
356.326	-3.41
356.538	92.84
356.749	8.87
356.961	148.14
357.172	72.36
357.384	2.73
357.595	25.26
357.807	-15.7
358.018	-1.37
358.23	2.73
358.441	84.65
358.653	23.21
358.864	-34.13
359.075	10.92
359.287	55.98
359.498	37.55
359.709	-21.84
359.921	35.5
360.132	80.55
360.344	68.27
360.555	88.75
360.766	39.59
360.977	17.07
361.189	98.99
361.4	-5.46
361.611	82.6
361.823	-44.37
362.034	74.41
362.245	-9.56
362.456	17.07
362.667	70.31
362.879	6.83
363.09	-5.46
363.301	31.4
363.512	25.26
363.723	33.45
363.935	12.97
364.146	-7.51
364.357	29.35
364.568	37.55
364.779	45.74
364.99	58.03
365.201	-7.51
365.412	25.26
365.623	0.68
365.834	0.68
366.045	49.83
366.256	78.51
366.467	29.35
366.678	19.11
366.889	-13.65
367.1	17.07
367.311	33.45
367.522	33.45
367.733	41.64
367.944	51.88
368.155	-25.94
368.366	86.7
368.577	105.13
368.788	74.41
368.999	8.87
369.209	47.79
369.42	35.5
369.631	127.66
369.842	47.79
370.053	19.11
370.264	115.37
370.474	-25.94
370.685	68.27
370.896	12.97
371.107	72.36
371.317	92.84
371.528	-40.28
371.739	35.5
371.95	37.55
372.16	25.26
372.371	-48.47
372.582	33.45
372.792	0.68
373.003	66.22
373.214	68.27
373.424	55.98
373.635	-30.04
373.846	113.32
374.056	19.11
374.267	74.41
374.477	-19.8
374.688	-11.61
374.898	55.98
375.109	17.07
375.319	43.69
375.53	64.17
375.74	12.97
375.951	35.5
376.161	66.22
376.372	25.26
376.582	29.35
376.793	-11.61
377.003	64.17
377.214	33.45
377.424	74.41
377.635	96.94
377.845	-9.56
378.055	131.75
378.266	15.02
378.476	12.97
378.686	21.16
378.897	74.41
379.107	-15.7
379.317	96.94
379.528	-5.46
379.738	21.16
379.948	23.21
380.158	96.94
380.369	-5.46
380.579	2.73
380.789	72.36
380.999	45.74
381.21	64.17
381.42	55.98
381.63	33.45
381.84	53.93
382.05	45.74
382.261	66.22
382.471	76.46
382.681	-36.18
382.891	86.7
383.101	39.59
383.311	-17.75
383.521	-7.51
383.731	-15.7
383.941	70.31
384.151	41.64
384.361	82.6
384.571	84.65
384.781	39.59
384.991	-9.56
385.201	150.18
385.411	-3.41
385.621	64.17
385.831	109.23
386.041	4.78
386.251	68.27
386.461	29.35
386.671	47.79
386.881	103.08
387.091	74.41
387.301	125.61
387.511	-1.37
387.72	154.28
387.93	84.65
388.14	2.73
388.35	21.16
388.56	-5.46
388.769	27.31
388.979	94.89
389.189	2.73
389.399	39.59
389.609	2.73
389.818	35.5
390.028	6.83
390.238	68.27
390.447	35.5
390.657	74.41
390.867	21.16
391.076	-17.75
391.286	21.16
391.496	19.11
391.705	-15.7
391.915	29.35
392.125	35.5
392.334	62.12
392.544	66.22
392.753	60.07
392.963	37.55
393.172	19.11
393.382	19.11
393.591	-15.7
393.801	74.41
394.01	19.11
394.22	47.79
394.429	80.55
394.639	47.79
394.848	90.79
395.058	78.51
395.267	45.74
395.477	35.5
395.686	90.79
395.895	45.74
396.105	96.94
396.314	51.88
396.524	2.73
396.733	19.11
396.942	58.03
397.152	139.94
397.361	49.83
397.57	98.99
397.78	27.31
397.989	103.08
398.198	72.36
398.407	43.69
398.617	96.94
398.826	144.04
399.035	64.17
399.244	96.94
399.453	41.64
399.663	19.11
399.872	137.9
400.081	41.64
400.29	55.98
400.499	45.74
400.708	33.45
400.917	107.18
401.127	105.13
401.336	47.79
401.545	154.28
401.754	105.13
401.963	148.14
402.172	125.61
402.381	66.22
402.59	60.07
402.799	135.85
403.008	101.03
403.217	115.37
403.426	78.51
403.635	105.13
403.844	98.99
404.053	133.8
404.262	150.18
404.471	162.47
404.68	55.98
404.888	117.42
405.097	101.03
405.306	92.84
405.515	92.84
405.724	117.42
405.933	168.62
406.142	182.95
406.35	139.94
406.559	160.42
406.768	72.36
406.977	209.58
407.185	94.89
407.394	105.13
407.603	164.52
407.812	205.48
408.02	228.01
408.229	129.7
408.438	125.61
408.646	207.53
408.855	185
409.064	185
409.272	162.47
409.481	244.39
409.69	211.62
409.898	109.23
410.107	275.11
410.315	277.16
410.524	250.53
410.733	201.38
410.941	271.01
411.15	260.77
411.358	209.58
411.567	271.01
411.775	381.6
411.984	285.35
412.192	279.21
412.401	295.59
412.609	277.16
412.818	402.08
413.026	412.32
413.234	367.27
413.443	326.31
413.651	330.41
413.86	303.78
414.068	469.67
414.276	436.9
414.485	467.62
414.693	467.62
414.901	533.15
415.11	504.48
415.318	527.01
415.526	522.91
415.734	514.72
415.943	606.88
416.151	633.5
416.359	641.7
416.567	637.6
416.776	694.94
416.984	674.46
417.192	696.99
417.4	678.56
417.608	668.32
417.817	807.58
418.025	735.9
418.233	844.45
418.441	803.49
418.649	948.89
418.857	883.36
419.065	998.04
419.273	973.47
419.481	1004.19
419.689	1039
419.897	1143.45
420.105	1122.97
420.313	1120.92
420.521	1211.03
420.729	1172.12
420.937	1241.75
421.145	1186.46
421.353	1358.49
421.561	1442.45
421.769	1446.55
421.977	1565.33
422.185	1497.75
422.393	1507.99
422.601	1710.74
422.809	1718.93
423.017	1677.97
423.224	1669.78
423.432	1811.09
423.64	1931.92
423.848	1976.97
424.056	1991.31
424.263	2073.23
424.471	2026.12
424.679	2142.86
424.887	2247.3
425.094	2351.75
425.302	2259.59
425.51	2421.38
425.718	2493.06
425.925	2527.88
426.133	2636.42
426.341	2704
426.548	2826.88
426.756	2898.56
426.964	2933.37
427.171	3093.12
427.379	3152.51
427.586	3199.61
427.794	3287.67
428.001	3533.43
428.209	3564.15
428.417	3531.38
428.624	3676.79
428.832	3809.9
429.039	3713.65
429.247	3850.86
429.454	4166.25
429.662	4409.96
429.869	4180.59
430.076	4346.47
430.284	4162.16
430.491	4512.36
430.699	4622.95
430.906	4581.99
431.114	4688.48
431.321	4967.01
431.528	4967.01
431.736	5356.12
431.943	5605.97
432.15	5489.24
432.358	5438.04
432.565	5720.66
432.772	5786.19
432.979	6177.36
433.187	6175.31
433.394	6318.67
433.601	6654.53
433.808	6670.92
434.016	6613.57
434.223	6771.27
434.43	7340.6
434.637	7359.03
434.844	7621.17
435.052	7750.2
435.259	7793.2
435.466	7985.71
435.673	7692.85
435.88	8303.15
436.087	8792.61
436.294	8761.89
436.501	8446.51
436.708	8600.1
436.915	8927.78
437.122	9364
437.329	9259.55
437.537	9617.94
437.743	9859.6
437.95	9732.63
438.157	10203.66
438.364	10402.32
438.571	10719.75
438.778	10707.46
438.985	11545.08
439.192	11239.94
439.399	11672.06
439.606	11143.68
439.813	11921.91
440.02	12646.89
440.227	12212.72
440.433	12130.8
440.64	12573.16
440.847	12653.03
441.054	12933.61
441.261	13937.11
441.467	13322.72
441.674	13816.28
441.881	14150.1
442.088	14420.43
442.294	14371.28
442.501	14399.95
442.708	14858.7
442.914	15407.55
443.121	15851.96
443.328	15565.25
443.534	16644.52
443.741	16343.47
443.948	15983.03
444.154	17432.99
444.361	17070.5
444.568	17197.48
444.774	17222.05
444.981	17476
445.187	18086.29
445.394	18667.92
445.6	18672.01
445.807	20371.83
446.013	19472.77
446.22	19745.15
446.426	20726.13
446.633	20396.4
446.839	21698.91
447.046	20273.53
447.252	21504.35
447.459	21707.1
447.665	21641.57
447.871	22626.64
448.078	23515.46
448.284	22475.09
448.491	23109.96
448.697	24328.5
448.903	24496.44
449.11	24222.01
449.316	24443.19
449.522	24869.17
449.728	25186.6
449.935	25422.12
450.141	25792.8
450.347	26263.83
450.553	25305.38
450.76	25710.88
450.966	26507.54
451.172	26151.2
451.378	26972.43
451.584	26503.45
451.791	27060.49
451.997	27027.73
452.203	27533.57
452.409	27633.92
452.615	27304.2
452.821	26401.05
453.027	26001.69
453.233	27492.62
453.44	26417.43
453.646	26425.62
453.852	27089.17
454.058	27164.94
454.264	26366.23
454.47	27089.17
454.676	26456.34
454.882	27599.11
455.088	24926.51
455.294	25522.47
455.5	25678.11
455.705	25774.37
455.911	25010.48
456.117	24826.16
456.323	24439.09
456.529	22933.84
456.735	24047.93
456.941	23265.61
457.147	23325
457.352	22106.46
457.558	22417.75
457.764	22098.27
457.97	21907.8
458.176	21418.34
458.381	21242.21
458.587	20312.44
458.793	20081.02
458.999	18971.02
459.204	20605.3
459.41	19970.43
459.616	18672.01
459.821	18602.38
460.027	18643.34
460.233	18303.38
460.438	17334.69
460.644	17662.37
460.85	16961.96
461.055	16331.19
461.261	16384.43
461.466	15190.47
461.672	14916.04
461.878	15956.41
462.083	14758.35
462.289	14412.24
462.494	14561.74
462.7	13367.77
462.905	13461.98
463.111	13742.55
463.316	14078.42
463.522	13531.61
463.727	13670.87
463.932	13574.62
464.138	13289.95
464.343	13435.36
464.549	13003.24
464.754	13449.69
464.959	13330.91
465.165	13070.82
465.37	12583.4
465.575	12392.94
465.781	12847.59
465.986	13009.38
466.191	12476.91
466.397	12229.1
466.602	11465.21
466.807	12089.84
467.012	12108.27
467.218	12016.12
467.423	11985.4
467.628	11743.74
467.833	12474.86
468.038	11719.16
468.244	11459.07
