Data from USB4F104151__21__13-10-32-885.txt Node

Date: Fri Mar 14 13:10:32 EDT 2025
User: louis
Spectrometer: USB4F10415
Trigger mode: 4
Integration Time (sec): 2.000000E-2
Scans to average: 1
Electric dark correction enabled: true
Nonlinearity correction enabled: false
Boxcar width: 0
XAxis mode: Wavelengths
Number of Pixels in Spectrum: 3648
>>>>>Begin Spectral Data<<<<<
178.204	-86.87
178.424	-86.87
178.644	-86.87
178.864	-160.59
179.084	-105.3
179.304	-45.91
179.524	31.91
179.744	-2.9
179.964	42.15
180.184	36.01
180.404	19.63
180.624	-13.14
180.844	11.43
181.064	-93.01
181.283	5.29
181.503	31.91
181.723	-23.38
181.943	-56.15
182.163	79.02
182.383	11.43
182.602	29.87
182.822	85.16
183.042	85.16
183.262	-19.29
183.482	-37.72
183.701	48.3
183.921	3.24
184.141	36.01
184.361	33.96
184.58	38.06
184.8	19.63
185.02	31.91
185.239	124.07
185.459	-43.86
185.679	79.02
185.898	58.54
186.118	79.02
186.338	15.53
186.557	40.11
186.777	56.49
186.997	29.87
187.216	9.39
187.436	58.54
187.655	11.43
187.875	150.7
188.095	50.35
188.314	117.93
188.534	68.78
188.753	25.77
188.973	-2.9
189.192	36.01
189.412	31.91
189.631	64.68
189.851	-27.48
190.07	52.39
190.29	17.58
190.509	62.63
190.729	27.82
190.948	48.3
191.168	97.45
191.387	27.82
191.607	-15.19
191.826	62.63
192.045	19.63
192.265	46.25
192.484	-9.05
192.704	13.48
192.923	-17.24
193.142	17.58
193.362	7.34
193.581	-21.33
193.8	52.39
194.02	83.11
194.239	-2.9
194.458	-19.29
194.678	48.3
194.897	38.06
195.116	1.19
195.335	-37.72
195.555	31.91
195.774	117.93
195.993	124.07
196.212	1.19
196.432	19.63
196.651	40.11
196.87	29.87
197.089	66.73
197.308	122.02
197.528	42.15
197.747	36.01
197.966	1.19
198.185	68.78
198.404	62.63
198.623	58.54
198.842	56.49
199.062	44.2
199.281	27.82
199.5	29.87
199.719	54.44
199.938	91.31
200.157	42.15
200.376	29.87
200.595	62.63
200.814	-27.48
201.033	74.92
201.252	87.21
201.471	87.21
201.69	60.59
201.909	44.2
202.128	31.91
202.347	60.59
202.566	-13.14
202.785	50.35
203.004	31.91
203.223	115.88
203.442	68.78
203.661	17.58
203.879	52.39
204.098	117.93
204.317	85.16
204.536	38.06
204.755	58.54
204.974	-4.95
205.193	-43.86
205.411	5.29
205.63	19.63
205.849	17.58
206.068	79.02
206.287	19.63
206.505	-0.85
206.724	72.87
206.943	-39.76
207.162	3.24
207.381	70.83
207.599	109.74
207.818	-2.9
208.037	-29.52
208.255	-52.05
208.474	33.96
208.693	64.68
208.911	52.39
209.13	70.83
209.349	-21.33
209.567	74.92
209.786	13.48
210.005	29.87
210.223	17.58
210.442	17.58
210.661	38.06
210.879	74.92
211.098	48.3
211.316	9.39
211.535	101.55
211.753	72.87
211.972	15.53
212.191	101.55
212.409	11.43
212.628	40.11
212.846	52.39
213.065	46.25
213.283	105.64
213.502	42.15
213.72	56.49
213.938	-19.29
214.157	38.06
214.375	29.87
214.594	60.59
214.812	-21.33
215.031	42.15
215.249	9.39
215.467	83.11
215.686	1.19
215.904	64.68
216.122	42.15
216.341	25.77
216.559	9.39
216.778	31.91
216.996	122.02
217.214	58.54
217.432	-13.14
217.651	11.43
217.869	42.15
218.087	29.87
218.306	-7
218.524	-15.19
218.742	9.39
218.96	23.72
219.179	50.35
219.397	-4.95
219.615	-9.05
219.833	27.82
220.051	29.87
220.27	119.98
220.488	117.93
220.706	89.26
220.924	19.63
221.142	-2.9
221.36	-2.9
221.578	58.54
221.796	1.19
222.015	-17.24
222.233	103.59
222.451	72.87
222.669	11.43
222.887	56.49
223.105	17.58
223.323	-17.24
223.541	48.3
223.759	74.92
223.977	25.77
224.195	66.73
224.413	83.11
224.631	50.35
224.849	21.67
225.067	74.92
225.285	50.35
225.503	95.4
225.721	33.96
225.939	31.91
226.157	56.49
226.375	144.55
226.592	36.01
226.81	52.39
227.028	72.87
227.246	50.35
227.464	60.59
227.682	54.44
227.9	-27.48
228.117	44.2
228.335	1.19
228.553	70.83
228.771	56.49
228.989	85.16
229.206	48.3
229.424	3.24
229.642	13.48
229.86	38.06
230.077	91.31
230.295	42.15
230.513	44.2
230.731	-2.9
230.948	72.87
231.166	138.41
231.384	17.58
231.601	-11.09
231.819	85.16
232.037	50.35
232.254	54.44
232.472	-27.48
232.689	81.07
232.907	33.96
233.125	11.43
233.342	64.68
233.56	46.25
233.777	19.63
233.995	40.11
234.213	64.68
234.43	38.06
234.648	42.15
234.865	23.72
235.083	27.82
235.3	83.11
235.518	11.43
235.735	85.16
235.953	42.15
236.17	15.53
236.388	38.06
236.605	-29.52
236.822	93.35
237.04	42.15
237.257	66.73
237.475	25.77
237.692	46.25
237.909	54.44
238.127	42.15
238.344	50.35
238.562	27.82
238.779	19.63
238.996	3.24
239.214	48.3
239.431	66.73
239.648	-27.48
239.865	50.35
240.083	3.24
240.3	46.25
240.517	48.3
240.735	-21.33
240.952	17.58
241.169	60.59
241.386	113.83
241.603	42.15
241.821	-82.77
242.038	115.88
242.255	56.49
242.472	42.15
242.689	-43.86
242.907	58.54
243.124	19.63
243.341	23.72
243.558	11.43
243.775	9.39
243.992	1.19
244.209	-13.14
244.426	74.92
244.643	19.63
244.86	33.96
245.078	74.92
245.295	66.73
245.512	40.11
245.729	-7
245.946	66.73
246.163	9.39
246.38	81.07
246.597	42.15
246.814	-15.19
247.031	107.69
247.248	87.21
247.464	46.25
247.681	70.83
247.898	-54.1
248.115	46.25
248.332	-19.29
248.549	40.11
248.766	68.78
248.983	42.15
249.2	3.24
249.417	52.39
249.633	-39.76
249.85	89.26
250.067	-7
250.284	25.77
250.501	54.44
250.717	128.17
250.934	-11.09
251.151	13.48
251.368	52.39
251.585	21.67
251.801	29.87
252.018	9.39
252.235	85.16
252.451	7.34
252.668	46.25
252.885	40.11
253.102	13.48
253.318	7.34
253.535	1.19
253.752	79.02
253.968	54.44
254.185	48.3
254.401	21.67
254.618	-13.14
254.835	40.11
255.051	36.01
255.268	36.01
255.484	40.11
255.701	38.06
255.917	58.54
256.134	25.77
256.351	21.67
256.567	-11.09
256.784	66.73
257	-17.24
257.217	105.64
257.433	11.43
257.65	58.54
257.866	117.93
258.082	9.39
258.299	1.19
258.515	36.01
258.732	-27.48
258.948	44.2
259.165	42.15
259.381	9.39
259.597	15.53
259.814	50.35
260.03	64.68
260.246	60.59
260.463	136.36
260.679	54.44
260.895	25.77
261.112	66.73
261.328	25.77
261.544	1.19
261.761	46.25
261.977	27.82
262.193	17.58
262.409	15.53
262.626	25.77
262.842	99.5
263.058	11.43
263.274	27.82
263.49	-29.52
263.707	93.35
263.923	33.96
264.139	42.15
264.355	31.91
264.571	40.11
264.787	48.3
265.004	-15.19
265.22	79.02
265.436	-2.9
265.652	11.43
265.868	15.53
266.084	66.73
266.3	38.06
266.516	19.63
266.732	113.83
266.948	19.63
267.164	93.35
267.38	-9.05
267.596	15.53
267.812	93.35
268.028	66.73
268.244	42.15
268.46	7.34
268.676	-2.9
268.892	21.67
269.108	74.92
269.324	25.77
269.54	54.44
269.756	25.77
269.972	3.24
270.188	-11.09
270.403	-86.87
270.619	-2.9
270.835	-2.9
271.051	42.15
271.267	3.24
271.483	-21.33
271.698	87.21
271.914	85.16
272.13	66.73
272.346	-19.29
272.562	36.01
272.777	74.92
272.993	25.77
273.209	95.4
273.425	60.59
273.64	-31.57
273.856	146.6
274.072	44.2
274.287	-23.38
274.503	25.77
274.719	66.73
274.934	62.63
275.15	21.67
275.366	81.07
275.581	9.39
275.797	9.39
276.012	-2.9
276.228	66.73
276.444	46.25
276.659	54.44
276.875	-27.48
277.09	85.16
277.306	19.63
277.521	68.78
277.737	7.34
277.952	85.16
278.168	29.87
278.383	29.87
278.599	9.39
278.814	54.44
279.03	17.58
279.245	107.69
279.461	11.43
279.676	3.24
279.892	-15.19
280.107	48.3
280.322	-4.95
280.538	3.24
280.753	19.63
280.969	60.59
281.184	60.59
281.399	79.02
281.615	25.77
281.83	93.35
282.045	50.35
282.26	29.87
282.476	36.01
282.691	25.77
282.906	60.59
283.122	36.01
283.337	36.01
283.552	74.92
283.767	56.49
283.983	81.07
284.198	-7
284.413	148.65
284.628	-4.95
284.843	17.58
285.058	29.87
285.274	68.78
285.489	-41.81
285.704	126.12
285.919	74.92
286.134	64.68
286.349	50.35
286.564	83.11
286.779	81.07
286.995	60.59
287.21	42.15
287.425	5.29
287.64	56.49
287.855	52.39
288.07	36.01
288.285	66.73
288.5	13.48
288.715	5.29
288.93	93.35
289.145	13.48
289.36	38.06
289.575	-13.14
289.79	99.5
290.004	-15.19
290.219	79.02
290.434	44.2
290.649	-33.62
290.864	36.01
291.079	-13.14
291.294	9.39
291.509	72.87
291.724	74.92
291.938	17.58
292.153	5.29
292.368	-27.48
292.583	11.43
292.798	7.34
293.012	54.44
293.227	9.39
293.442	-4.95
293.657	68.78
293.871	54.44
294.086	5.29
294.301	105.64
294.516	72.87
294.73	48.3
294.945	103.59
295.16	42.15
295.374	95.4
295.589	54.44
295.804	66.73
296.018	91.31
296.233	107.69
296.447	9.39
296.662	-23.38
296.877	48.3
297.091	119.98
297.306	17.58
297.52	19.63
297.735	99.5
297.949	-7
298.164	15.53
298.378	25.77
298.593	5.29
298.807	54.44
299.022	40.11
299.236	60.59
299.451	-2.9
299.665	44.2
299.88	-15.19
300.094	66.73
300.309	9.39
300.523	27.82
300.737	29.87
300.952	91.31
301.166	15.53
301.381	50.35
301.595	93.35
301.809	38.06
302.024	27.82
302.238	-4.95
302.452	64.68
302.667	44.2
302.881	126.12
303.095	93.35
303.309	44.2
303.524	3.24
303.738	72.87
303.952	29.87
304.166	74.92
304.381	-37.72
304.595	33.96
304.809	-2.9
305.023	68.78
305.237	54.44
305.452	-9.05
305.666	99.5
305.88	17.58
306.094	107.69
306.308	66.73
306.522	48.3
306.736	33.96
306.95	38.06
307.164	62.63
307.379	48.3
307.593	158.89
307.807	85.16
308.021	44.2
308.235	68.78
308.449	38.06
308.663	42.15
308.877	68.78
309.091	36.01
309.305	19.63
309.519	-23.38
309.733	42.15
309.947	-35.67
310.161	79.02
310.374	5.29
310.588	76.97
310.802	-72.53
311.016	-4.95
311.23	66.73
311.444	42.15
311.658	83.11
311.872	13.48
312.085	56.49
312.299	113.83
312.513	134.31
312.727	25.77
312.941	-13.14
313.154	60.59
313.368	60.59
313.582	122.02
313.796	25.77
314.009	81.07
314.223	54.44
314.437	68.78
314.651	-31.57
314.864	58.54
315.078	29.87
315.292	-23.38
315.505	38.06
315.719	74.92
315.933	44.2
316.146	42.15
316.36	130.22
316.573	-11.09
316.787	23.72
317.001	15.53
317.214	-23.38
317.428	33.96
317.641	64.68
317.855	46.25
318.068	36.01
318.282	25.77
318.495	44.2
318.709	33.96
318.922	95.4
319.136	91.31
319.349	5.29
319.563	103.59
319.776	107.69
319.99	-60.24
320.203	36.01
320.417	81.07
320.63	124.07
320.843	101.55
321.057	27.82
321.27	25.77
321.483	72.87
321.697	60.59
321.91	58.54
322.124	66.73
322.337	66.73
322.55	66.73
322.763	-9.05
322.977	44.2
323.19	-35.67
323.403	50.35
323.617	50.35
323.83	93.35
324.043	52.39
324.256	70.83
324.469	93.35
324.683	70.83
324.896	5.29
325.109	25.77
325.322	42.15
325.535	15.53
325.748	52.39
325.962	-4.95
326.175	40.11
326.388	9.39
326.601	52.39
326.814	56.49
327.027	103.59
327.24	33.96
327.453	44.2
327.666	50.35
327.879	74.92
328.092	29.87
328.305	66.73
328.518	19.63
328.731	-0.85
328.944	60.59
329.157	33.96
329.37	60.59
329.583	93.35
329.796	72.87
330.009	33.96
330.222	70.83
330.435	5.29
330.648	5.29
330.861	17.58
331.073	87.21
331.286	85.16
331.499	93.35
331.712	46.25
331.925	15.53
332.138	46.25
332.35	31.91
332.563	-23.38
332.776	76.97
332.989	81.07
333.202	97.45
333.414	1.19
333.627	109.74
333.84	-2.9
334.053	54.44
334.265	19.63
334.478	72.87
334.691	62.63
334.903	25.77
335.116	36.01
335.329	68.78
335.541	-13.14
335.754	150.7
335.966	40.11
336.179	58.54
336.392	85.16
336.604	58.54
336.817	42.15
337.029	9.39
337.242	7.34
337.454	70.83
337.667	17.58
337.88	5.29
338.092	46.25
338.305	60.59
338.517	7.34
338.729	48.3
338.942	81.07
339.154	50.35
339.367	-23.38
339.579	46.25
339.792	19.63
340.004	1.19
340.217	11.43
340.429	58.54
340.641	44.2
340.854	-27.48
341.066	44.2
341.278	132.26
341.491	70.83
341.703	68.78
341.915	79.02
342.128	81.07
342.34	85.16
342.552	-13.14
342.764	66.73
342.977	50.35
343.189	91.31
343.401	33.96
343.613	29.87
343.826	107.69
344.038	79.02
344.25	40.11
344.462	1.19
344.674	25.77
344.886	33.96
345.099	60.59
345.311	89.26
345.523	23.72
345.735	68.78
345.947	89.26
346.159	97.45
346.371	54.44
346.583	36.01
346.795	83.11
347.007	58.54
347.219	76.97
347.431	31.91
347.643	70.83
347.855	171.18
348.067	62.63
348.279	33.96
348.491	58.54
348.703	-23.38
348.915	19.63
349.127	50.35
349.339	50.35
349.551	-2.9
349.763	33.96
349.975	21.67
350.187	62.63
350.399	74.92
350.61	107.69
350.822	1.19
351.034	3.24
351.246	-2.9
351.458	74.92
351.669	17.58
351.881	93.35
352.093	156.84
352.305	99.5
352.517	15.53
352.728	17.58
352.94	46.25
353.152	74.92
353.363	-13.14
353.575	83.11
353.787	50.35
353.999	66.73
354.21	76.97
354.422	91.31
354.633	15.53
354.845	17.58
355.057	60.59
355.268	95.4
355.48	111.78
355.692	-2.9
355.903	58.54
356.115	58.54
356.326	9.39
356.538	52.39
356.749	72.87
356.961	101.55
357.172	85.16
357.384	29.87
357.595	126.12
357.807	93.35
358.018	33.96
358.23	-17.24
358.441	56.49
358.653	91.31
358.864	48.3
359.075	17.58
359.287	17.58
359.498	-19.29
359.709	27.82
359.921	31.91
360.132	1.19
360.344	-11.09
360.555	44.2
360.766	64.68
360.977	105.64
361.189	7.34
361.4	48.3
361.611	66.73
361.823	50.35
362.034	95.4
362.245	60.59
362.456	70.83
362.667	48.3
362.879	5.29
363.09	33.96
363.301	115.88
363.512	107.69
363.723	13.48
363.935	31.91
364.146	93.35
364.357	17.58
364.568	74.92
364.779	-11.09
364.99	-29.52
365.201	97.45
365.412	142.5
365.623	46.25
365.834	97.45
366.045	-11.09
366.256	60.59
366.467	27.82
366.678	62.63
366.889	83.11
367.1	68.78
367.311	95.4
367.522	17.58
367.733	44.2
367.944	11.43
368.155	124.07
368.366	107.69
368.577	93.35
368.788	91.31
368.999	64.68
369.209	85.16
369.42	99.5
369.631	156.84
369.842	74.92
370.053	40.11
370.264	38.06
370.474	1.19
370.685	-21.33
370.896	25.77
371.107	97.45
371.317	36.01
371.528	76.97
371.739	70.83
371.95	1.19
372.16	21.67
372.371	89.26
372.582	7.34
372.792	-2.9
373.003	85.16
373.214	97.45
373.424	23.72
373.635	-62.29
373.846	91.31
374.056	3.24
374.267	115.88
374.477	85.16
374.688	25.77
374.898	101.55
375.109	27.82
375.319	74.92
375.53	42.15
375.74	54.44
375.951	103.59
376.161	60.59
376.372	115.88
376.582	93.35
376.793	85.16
377.003	23.72
377.214	83.11
377.424	29.87
377.635	165.03
377.845	60.59
378.055	54.44
378.266	64.68
378.476	7.34
378.686	19.63
378.897	48.3
379.107	111.78
379.317	33.96
379.528	33.96
379.738	142.5
379.948	83.11
380.158	25.77
380.369	38.06
380.579	23.72
380.789	29.87
380.999	50.35
381.21	3.24
381.42	93.35
381.63	19.63
381.84	17.58
382.05	42.15
382.261	31.91
382.471	38.06
382.681	-13.14
382.891	101.55
383.101	89.26
383.311	85.16
383.521	68.78
383.731	83.11
383.941	115.88
384.151	72.87
384.361	29.87
384.571	107.69
384.781	74.92
384.991	109.74
385.201	89.26
385.411	74.92
385.621	58.54
385.831	128.17
386.041	66.73
386.251	42.15
386.461	58.54
386.671	38.06
386.881	58.54
387.091	93.35
387.301	44.2
387.511	-2.9
387.72	58.54
387.93	19.63
388.14	38.06
388.35	126.12
388.56	76.97
388.769	107.69
388.979	60.59
389.189	42.15
389.399	42.15
389.609	85.16
389.818	111.78
390.028	44.2
390.238	23.72
390.447	52.39
390.657	23.72
390.867	48.3
391.076	19.63
391.286	93.35
391.496	46.25
391.705	42.15
391.915	115.88
392.125	27.82
392.334	107.69
392.544	122.02
392.753	74.92
392.963	40.11
393.172	109.74
393.382	76.97
393.591	140.46
393.801	36.01
394.01	111.78
394.22	46.25
394.429	99.5
394.639	13.48
394.848	115.88
395.058	13.48
395.267	134.31
395.477	95.4
395.686	85.16
395.895	138.41
396.105	95.4
396.314	95.4
396.524	70.83
396.733	83.11
396.942	42.15
397.152	31.91
397.361	111.78
397.57	64.68
397.78	81.07
397.989	109.74
398.198	150.7
398.407	117.93
398.617	27.82
398.826	142.5
399.035	17.58
399.244	44.2
399.453	19.63
399.663	99.5
399.872	62.63
400.081	40.11
400.29	87.21
400.499	91.31
400.708	122.02
400.917	33.96
401.127	103.59
401.336	124.07
401.545	189.61
401.754	138.41
401.963	107.69
402.172	33.96
402.381	124.07
402.59	70.83
402.799	38.06
403.008	109.74
403.217	148.65
403.426	107.69
403.635	150.7
403.844	105.64
404.053	74.92
404.262	74.92
404.471	144.55
404.68	181.42
404.888	107.69
405.097	83.11
405.306	148.65
405.515	132.26
405.724	113.83
405.933	169.13
406.142	122.02
406.35	158.89
406.559	134.31
406.768	175.27
406.977	183.46
407.185	156.84
407.394	165.03
407.603	150.7
407.812	148.65
408.02	165.03
408.229	208.04
408.438	173.22
408.646	175.27
408.855	203.94
409.064	232.62
409.272	257.19
409.481	255.14
409.69	277.67
409.898	271.53
410.107	195.75
410.315	298.15
410.524	267.43
410.733	298.15
410.941	271.53
411.15	388.26
411.358	341.16
411.567	296.1
411.775	326.82
411.984	375.97
412.192	373.92
412.401	378.02
412.609	292.01
412.818	380.07
413.026	412.84
413.234	418.98
413.443	443.56
413.651	472.23
413.86	427.17
414.068	631.97
414.276	523.43
414.485	556.19
414.693	572.58
414.901	531.62
415.11	531.62
415.318	584.87
415.526	642.21
415.734	691.36
415.943	629.92
416.151	709.79
416.359	728.22
416.567	797.85
416.776	816.29
416.984	816.29
417.192	828.57
417.4	847.01
417.608	765.09
417.817	855.2
418.025	914.59
418.233	930.97
418.441	937.12
418.649	992.41
418.857	1129.63
419.065	1148.06
419.273	945.31
419.481	1121.43
419.689	1186.97
419.897	1287.32
420.105	1279.13
420.313	1328.28
420.521	1324.18
420.729	1451.16
420.937	1428.63
421.145	1514.64
421.353	1465.49
421.561	1518.74
421.769	1582.23
421.977	1688.72
422.185	1680.53
422.393	1815.69
422.601	1860.75
422.809	1969.29
423.017	1918.09
423.224	1940.62
423.432	2049.16
423.64	1907.85
423.848	2292.87
424.056	2260.1
424.263	2421.89
424.471	2382.98
424.679	2425.99
424.887	2425.99
425.094	2606.21
425.302	2618.5
425.51	2749.57
425.718	2790.53
425.925	2843.78
426.133	2942.08
426.341	3112.06
426.548	3300.47
426.756	3214.46
426.964	3261.56
427.171	3468.41
427.379	3591.28
427.586	3777.65
427.794	3718.26
428.001	3951.73
428.209	4015.21
428.417	3943.53
428.624	4476.01
428.832	4283.5
429.039	4205.67
429.247	4197.48
429.454	4656.23
429.662	5031.01
429.869	4623.46
430.076	5096.54
430.284	4838.5
430.491	5047.39
430.699	5385.3
430.906	5307.48
431.114	5450.84
431.321	5573.72
431.528	5774.42
431.736	6259.79
431.943	6464.58
432.15	6106.19
432.358	6300.75
432.565	6648.9
432.772	6550.6
432.979	7033.92
433.187	7244.86
433.394	7038.02
433.601	7513.14
433.808	7449.66
434.016	7382.07
434.223	7969.84
434.43	8268.84
434.637	8383.53
434.844	8578.09
435.052	8969.25
435.259	8676.39
435.466	8909.86
435.673	8873
435.88	9382.94
436.087	9667.61
436.294	10023.95
436.501	9731.09
436.708	9899.03
436.915	10073.1
437.122	10564.62
437.329	10613.77
437.537	10955.78
437.743	10990.59
437.95	11090.95
438.157	11668.47
438.364	11850.74
438.571	11893.75
438.778	12258.29
438.985	13192.16
439.192	12545
439.399	13013.99
439.606	12801
439.813	13380.57
440.02	14287.82
440.227	14203.86
440.433	14087.12
440.64	14466
440.847	14400.46
441.054	14648.27
441.261	15455.17
441.467	15266.75
441.674	15799.23
441.881	16346.03
442.088	16303.03
442.294	15969.21
442.501	16604.08
442.708	16786.35
442.914	17507.23
443.121	18008.98
443.328	17736.6
443.534	19088.26
443.741	18516.88
443.948	18394
444.154	19456.9
444.361	19598.21
444.568	19860.35
444.774	19704.7
444.981	19628.93
445.187	20464.5
445.394	21279.59
445.6	20980.59
445.807	22979.4
446.013	22332.25
446.22	22399.83
446.426	23581.51
446.633	23663.43
446.839	24709.94
447.046	23401.29
447.252	24765.23
447.459	24947.5
447.665	24449.85
447.871	25684.77
448.078	27026.19
448.284	25535.27
448.491	26393.37
448.697	27394.82
448.903	28140.29
449.11	27943.68
449.316	27710.21
449.522	28201.72
449.728	29006.58
449.935	28965.62
450.141	29266.67
450.347	29965.03
450.553	29012.72
450.76	29438.7
450.966	30188.25
451.172	30229.21
451.378	30698.2
451.584	29940.45
451.791	30798.55
451.997	30565.08
452.203	31322.83
452.409	31638.22
452.615	31572.68
452.821	30067.42
453.027	29299.44
453.233	31566.54
453.44	30284.51
453.646	30657.24
453.852	30577.37
454.058	31333.07
454.264	30153.44
454.47	30978.77
454.676	30147.29
454.882	31142.61
455.088	28281.6
455.294	28859.12
455.5	29344.49
455.705	29543.14
455.911	28406.52
456.117	27859.71
456.323	27339.53
456.529	26395.42
456.735	27431.69
456.941	26450.71
457.147	26352.41
457.352	25518.89
457.558	25252.65
457.764	25355.05
457.97	25004.85
458.176	24267.58
458.381	24376.12
458.587	23110.47
458.793	22983.5
458.999	21629.79
459.204	23534.4
459.41	22936.4
459.616	21336.93
459.821	21422.95
460.027	21355.36
460.233	21027.69
460.438	20214.65
460.644	20104.06
460.85	19080.07
461.055	18981.77
461.261	18824.08
461.466	17249.19
461.672	16780.2
461.878	18297.75
462.083	16604.08
462.289	16532.4
462.494	16366.51
462.7	15733.69
462.905	15360.96
463.111	15887.29
463.316	15885.24
463.522	15412.16
463.727	15422.4
463.932	15350.72
464.138	15340.48
464.343	15270.85
464.549	14728.14
464.754	15399.87
464.959	15270.85
465.165	15129.54
465.37	14492.62
465.575	14322.64
465.781	14937.03
465.986	14836.68
466.191	14119.89
466.397	13947.86
466.602	13198.31
466.807	13710.3
467.012	13741.02
467.218	13509.6
467.423	13634.52
467.628	13581.28
467.833	14171.09
468.038	13624.28
468.244	13046.76
