Data from USB4F104151__46__13-11-15-181.txt Node

Date: Fri Mar 14 13:11:15 EDT 2025
User: louis
Spectrometer: USB4F10415
Trigger mode: 4
Integration Time (sec): 2.000000E-2
Scans to average: 1
Electric dark correction enabled: true
Nonlinearity correction enabled: false
Boxcar width: 0
XAxis mode: Wavelengths
Number of Pixels in Spectrum: 3648
>>>>>Begin Spectral Data<<<<<
178.204	-86.7
178.424	-86.7
178.644	-86.7
178.864	-107.18
179.084	-105.13
179.304	30.04
179.524	-12.97
179.744	-33.45
179.964	68.95
180.184	-82.6
180.404	-0.68
180.624	-17.07
180.844	23.89
181.064	52.56
181.283	-0.68
181.503	-66.22
181.723	38.23
181.943	7.51
182.163	40.28
182.383	27.99
182.602	23.89
182.822	46.42
183.042	27.99
183.262	-35.5
183.482	-35.5
183.701	13.65
183.921	-2.73
184.141	-51.88
184.361	-23.21
184.58	9.56
184.8	-19.11
185.02	17.75
185.239	-17.07
185.459	52.56
185.679	89.43
185.898	-19.11
186.118	15.7
186.338	30.04
186.557	-6.83
186.777	-0.68
186.997	9.56
187.216	17.75
187.436	-2.73
187.655	15.7
187.875	46.42
188.095	5.46
188.314	1.37
188.534	68.95
188.753	15.7
188.973	5.46
189.192	114
189.412	7.51
189.631	5.46
189.851	-17.07
190.07	5.46
190.29	1.37
190.509	30.04
190.729	42.32
190.948	25.94
191.168	54.61
191.387	56.66
191.607	-4.78
191.826	34.13
192.045	42.32
192.265	-43.69
192.484	38.23
192.704	36.18
192.923	-37.55
193.142	50.52
193.362	46.42
193.581	87.38
193.8	58.71
194.02	7.51
194.239	-8.87
194.458	32.08
194.678	48.47
194.897	42.32
195.116	38.23
195.335	17.75
195.555	-31.4
195.774	44.37
195.993	46.42
196.212	32.08
196.432	19.8
196.651	13.65
196.87	-35.5
197.089	25.94
197.308	19.8
197.528	124.24
197.747	-31.4
197.966	38.23
198.185	48.47
198.404	17.75
198.623	-4.78
198.842	62.8
199.062	34.13
199.281	34.13
199.5	-2.73
199.719	-12.97
199.938	48.47
200.157	44.37
200.376	-15.02
200.595	30.04
200.814	-37.55
201.033	60.76
201.252	32.08
201.471	-19.11
201.69	-10.92
201.909	-17.07
202.128	25.94
202.347	-0.68
202.566	-23.21
202.785	-74.41
203.004	27.99
203.223	54.61
203.442	1.37
203.661	30.04
203.879	27.99
204.098	-25.26
204.317	-64.17
204.536	38.23
204.755	58.71
204.974	30.04
205.193	30.04
205.411	89.43
205.63	32.08
205.849	-25.26
206.068	44.37
206.287	68.95
206.505	15.7
206.724	46.42
206.943	-47.79
207.162	5.46
207.381	34.13
207.599	30.04
207.818	64.85
208.037	-49.83
208.255	15.7
208.474	46.42
208.693	42.32
208.911	13.65
209.13	44.37
209.349	32.08
209.567	-19.11
209.786	95.57
210.005	52.56
210.223	-21.16
210.442	5.46
210.661	-0.68
210.879	1.37
211.098	-29.35
211.316	71
211.535	17.75
211.753	-15.02
211.972	15.7
212.191	11.61
212.409	3.41
212.628	109.91
212.846	-37.55
213.065	15.7
213.283	81.24
213.502	-21.16
213.72	52.56
213.938	30.04
214.157	71
214.375	34.13
214.594	-8.87
214.812	50.52
215.031	50.52
215.249	-0.68
215.467	34.13
215.686	30.04
215.904	52.56
216.122	9.56
216.341	85.33
216.559	-12.97
216.778	17.75
216.996	1.37
217.214	36.18
217.432	15.7
217.651	-19.11
217.869	9.56
218.087	21.84
218.306	32.08
218.524	-2.73
218.742	-2.73
218.96	30.04
219.179	5.46
219.397	91.48
219.615	25.94
219.833	23.89
220.051	-17.07
220.27	75.09
220.488	3.41
220.706	66.9
220.924	-23.21
221.142	30.04
221.36	-15.02
221.578	-33.45
221.796	32.08
222.015	81.24
222.233	19.8
222.451	44.37
222.669	-49.83
222.887	27.99
223.105	-74.41
223.323	1.37
223.541	-101.03
223.759	-6.83
223.977	54.61
224.195	42.32
224.413	9.56
224.631	60.76
224.849	34.13
225.067	87.38
225.285	-2.73
225.503	5.46
225.721	-88.75
225.939	17.75
226.157	75.09
226.375	81.24
226.592	-58.03
226.81	-27.31
227.028	42.32
227.246	13.65
227.464	-4.78
227.682	89.43
227.9	34.13
228.117	32.08
228.335	42.32
228.553	54.61
228.771	79.19
228.989	36.18
229.206	13.65
229.424	-80.55
229.642	64.85
229.86	15.7
230.077	46.42
230.295	7.51
230.513	42.32
230.731	-2.73
230.948	17.75
231.166	152.91
231.384	56.66
231.601	30.04
231.819	34.13
232.037	23.89
232.254	-0.68
232.472	-49.83
232.689	-10.92
232.907	83.28
233.125	5.46
233.342	5.46
233.56	-35.5
233.777	62.8
233.995	5.46
234.213	34.13
234.43	60.76
234.648	7.51
234.865	15.7
235.083	62.8
235.3	-17.07
235.518	32.08
235.735	95.57
235.953	3.41
236.17	30.04
236.388	36.18
236.605	1.37
236.822	81.24
237.04	50.52
237.257	-4.78
237.475	52.56
237.692	-37.55
237.909	34.13
238.127	73.04
238.344	-31.4
238.562	44.37
238.779	-17.07
238.996	-43.69
239.214	-2.73
239.431	32.08
239.648	21.84
239.865	-19.11
240.083	75.09
240.3	81.24
240.517	-39.59
240.735	50.52
240.952	-29.35
241.169	50.52
241.386	54.61
241.603	3.41
241.821	-66.22
242.038	48.47
242.255	-23.21
242.472	-35.5
242.689	44.37
242.907	19.8
243.124	42.32
243.341	-6.83
243.558	62.8
243.775	-0.68
243.992	-27.31
244.209	34.13
244.426	-35.5
244.643	56.66
244.86	99.67
245.078	40.28
245.295	32.08
245.512	32.08
245.729	-43.69
245.946	13.65
246.163	3.41
246.38	46.42
246.597	64.85
246.814	21.84
247.031	-23.21
247.248	48.47
247.464	30.04
247.681	71
247.898	52.56
248.115	11.61
248.332	-21.16
248.549	38.23
248.766	89.43
248.983	11.61
249.2	-31.4
249.417	40.28
249.633	11.61
249.85	-19.11
250.067	17.75
250.284	50.52
250.501	34.13
250.717	44.37
250.934	-23.21
251.151	32.08
251.368	56.66
251.585	-6.83
251.801	-60.07
252.018	25.94
252.235	15.7
252.451	1.37
252.668	-17.07
252.885	-0.68
253.102	71
253.318	32.08
253.535	-51.88
253.752	-29.35
253.968	27.99
254.185	7.51
254.401	34.13
254.618	-19.11
254.835	3.41
255.051	87.38
255.268	27.99
255.484	56.66
255.701	25.94
255.917	40.28
256.134	-21.16
256.351	21.84
256.567	-43.69
256.784	13.65
257	32.08
257.217	27.99
257.433	9.56
257.65	58.71
257.866	36.18
258.082	3.41
258.299	-35.5
258.515	42.32
258.732	-72.36
258.948	-2.73
259.165	-27.31
259.381	30.04
259.597	-23.21
259.814	15.7
260.03	30.04
260.246	64.85
260.463	54.61
260.679	34.13
260.895	9.56
261.112	-27.31
261.328	-6.83
261.544	56.66
261.761	75.09
261.977	42.32
262.193	-35.5
262.409	25.94
262.626	-4.78
262.842	21.84
263.058	27.99
263.274	-17.07
263.49	-8.87
263.707	-35.5
263.923	17.75
264.139	-47.79
264.355	48.47
264.571	30.04
264.787	48.47
265.004	105.81
265.22	-2.73
265.436	46.42
265.652	11.61
265.868	-8.87
266.084	21.84
266.3	21.84
266.516	30.04
266.732	62.8
266.948	111.96
267.164	48.47
267.38	11.61
267.596	-12.97
267.812	17.75
268.028	23.89
268.244	3.41
268.46	15.7
268.676	5.46
268.892	7.51
269.108	-15.02
269.324	-0.68
269.54	25.94
269.756	21.84
269.972	34.13
270.188	36.18
270.403	7.51
270.619	-6.83
270.835	60.76
271.051	54.61
271.267	-21.16
271.483	-58.03
271.698	-49.83
271.914	34.13
272.13	5.46
272.346	-10.92
272.562	73.04
272.777	3.41
272.993	9.56
273.209	-23.21
273.425	23.89
273.64	54.61
273.856	-39.59
274.072	-10.92
274.287	-12.97
274.503	97.62
274.719	-17.07
274.934	30.04
275.15	3.41
275.366	-35.5
275.581	42.32
275.797	-17.07
276.012	36.18
276.228	-19.11
276.444	-51.88
276.659	71
276.875	5.46
277.09	-17.07
277.306	66.9
277.521	19.8
277.737	36.18
277.952	-35.5
278.168	-12.97
278.383	-2.73
278.599	-4.78
278.814	48.47
279.03	-27.31
279.245	-12.97
279.461	-17.07
279.676	3.41
279.892	56.66
280.107	34.13
280.322	-86.7
280.538	52.56
280.753	5.46
280.969	83.28
281.184	9.56
281.399	30.04
281.615	-8.87
281.83	19.8
282.045	-53.93
282.26	-58.03
282.476	-37.55
282.691	21.84
282.906	5.46
283.122	25.94
283.337	-2.73
283.552	85.33
283.767	68.95
283.983	81.24
284.198	5.46
284.413	68.95
284.628	15.7
284.843	17.75
285.058	79.19
285.274	5.46
285.489	-0.68
285.704	40.28
285.919	46.42
286.134	9.56
286.349	62.8
286.564	95.57
286.779	48.47
286.995	13.65
287.21	-37.55
287.425	71
287.64	30.04
287.855	44.37
288.07	15.7
288.285	15.7
288.5	71
288.715	-19.11
288.93	-29.35
289.145	73.04
289.36	-58.03
289.575	25.94
289.79	-6.83
290.004	-41.64
290.219	71
290.434	7.51
290.649	-15.02
290.864	-33.45
291.079	15.7
291.294	58.71
291.509	56.66
291.724	5.46
291.938	13.65
292.153	-8.87
292.368	9.56
292.583	7.51
292.798	62.8
293.012	19.8
293.227	-10.92
293.442	19.8
293.657	46.42
293.871	-8.87
294.086	5.46
294.301	60.76
294.516	-19.11
294.73	62.8
294.945	50.52
295.16	-27.31
295.374	32.08
295.589	-0.68
295.804	17.75
296.018	-0.68
296.233	89.43
296.447	85.33
296.662	21.84
296.877	77.14
297.091	17.75
297.306	71
297.52	-15.02
297.735	-31.4
297.949	79.19
298.164	-53.93
298.378	-31.4
298.593	34.13
298.807	71
299.022	46.42
299.236	44.37
299.451	7.51
299.665	23.89
299.88	30.04
300.094	-33.45
300.309	73.04
300.523	38.23
300.737	-12.97
300.952	77.14
301.166	52.56
301.381	-2.73
301.595	-29.35
301.809	42.32
302.024	23.89
302.238	-53.93
302.452	-10.92
302.667	15.7
302.881	142.68
303.095	21.84
303.309	124.24
303.524	1.37
303.738	85.33
303.952	27.99
304.166	38.23
304.381	-66.22
304.595	21.84
304.809	-39.59
305.023	62.8
305.237	48.47
305.452	75.09
305.666	52.56
305.88	-10.92
306.094	3.41
306.308	17.75
306.522	3.41
306.736	7.51
306.95	-35.5
307.164	-33.45
307.379	91.48
307.593	36.18
307.807	13.65
308.021	66.9
308.235	13.65
308.449	62.8
308.663	-29.35
308.877	134.48
309.091	38.23
309.305	46.42
309.519	32.08
309.733	30.04
309.947	81.24
310.161	-8.87
310.374	87.38
310.588	13.65
310.802	75.09
311.016	44.37
311.23	56.66
311.444	19.8
311.658	-19.11
311.872	-2.73
312.085	54.61
312.299	21.84
312.513	50.52
312.727	9.56
312.941	-12.97
313.154	38.23
313.368	-21.16
313.582	30.04
313.796	62.8
314.009	-4.78
314.223	42.32
314.437	40.28
314.651	-31.4
314.864	-6.83
315.078	-23.21
315.292	66.9
315.505	30.04
315.719	-4.78
315.933	-43.69
316.146	68.95
316.36	79.19
316.573	40.28
316.787	9.56
317.001	89.43
317.214	11.61
317.428	97.62
317.641	50.52
317.855	-19.11
318.068	-8.87
318.282	-0.68
318.495	5.46
318.709	21.84
318.922	-43.69
319.136	99.67
319.349	38.23
319.563	-60.07
319.776	17.75
319.99	-25.26
320.203	-0.68
320.417	105.81
320.63	42.32
320.843	60.76
321.057	64.85
321.27	7.51
321.483	11.61
321.697	50.52
321.91	-39.59
322.124	13.65
322.337	54.61
322.55	75.09
322.763	1.37
322.977	21.84
323.19	-29.35
323.403	-19.11
323.617	-35.5
323.83	50.52
324.043	9.56
324.256	58.71
324.469	-23.21
324.683	54.61
324.896	-4.78
325.109	17.75
325.322	-31.4
325.535	95.57
325.748	38.23
325.962	5.46
326.175	-27.31
326.388	25.94
326.601	-4.78
326.814	7.51
327.027	23.89
327.24	32.08
327.453	-33.45
327.666	21.84
327.879	62.8
328.092	52.56
328.305	11.61
328.518	19.8
328.731	-84.65
328.944	40.28
329.157	40.28
329.37	-19.11
329.583	42.32
329.796	25.94
330.009	-15.02
330.222	30.04
330.435	95.57
330.648	25.94
330.861	25.94
331.073	105.81
331.286	58.71
331.499	50.52
331.712	-37.55
331.925	-19.11
332.138	9.56
332.35	3.41
332.563	38.23
332.776	-2.73
332.989	-47.79
333.202	58.71
333.414	75.09
333.627	36.18
333.84	68.95
334.053	30.04
334.265	79.19
334.478	54.61
334.691	44.37
334.903	60.76
335.116	87.38
335.329	17.75
335.541	46.42
335.754	17.75
335.966	95.57
336.179	58.71
336.392	13.65
336.604	13.65
336.817	79.19
337.029	68.95
337.242	-6.83
337.454	-19.11
337.667	-60.07
337.88	66.9
338.092	46.42
338.305	34.13
338.517	34.13
338.729	44.37
338.942	52.56
339.154	5.46
339.367	25.94
339.579	89.43
339.792	-55.98
340.004	83.28
340.217	-19.11
340.429	64.85
340.641	-6.83
340.854	62.8
341.066	-0.68
341.278	66.9
341.491	30.04
341.703	25.94
341.915	-17.07
342.128	3.41
342.34	40.28
342.552	42.32
342.764	-2.73
342.977	66.9
343.189	5.46
343.401	23.89
343.613	42.32
343.826	-31.4
344.038	9.56
344.25	71
344.462	-2.73
344.674	-2.73
344.886	15.7
345.099	-27.31
345.311	15.7
345.523	40.28
345.735	44.37
345.947	-29.35
346.159	25.94
346.371	13.65
346.583	-23.21
346.795	42.32
347.007	118.1
347.219	93.52
347.431	-2.73
347.643	126.29
347.855	15.7
348.067	-23.21
348.279	7.51
348.491	38.23
348.703	27.99
348.915	9.56
349.127	-62.12
349.339	21.84
349.551	-10.92
349.763	56.66
349.975	32.08
350.187	75.09
350.399	71
350.61	36.18
350.822	-4.78
351.034	32.08
351.246	56.66
351.458	81.24
351.669	-15.02
351.881	-31.4
352.093	13.65
352.305	71
352.517	1.37
352.728	36.18
352.94	-10.92
353.152	34.13
353.363	-0.68
353.575	71
353.787	75.09
353.999	38.23
354.21	64.85
354.422	50.52
354.633	-37.55
354.845	19.8
355.057	52.56
355.268	-10.92
355.48	-0.68
355.692	68.95
355.903	-15.02
356.115	46.42
356.326	34.13
356.538	44.37
356.749	60.76
356.961	34.13
357.172	60.76
357.384	42.32
357.595	140.63
357.807	46.42
358.018	19.8
358.23	79.19
358.441	75.09
358.653	75.09
358.864	77.14
359.075	54.61
359.287	54.61
359.498	97.62
359.709	25.94
359.921	-55.98
360.132	-4.78
360.344	32.08
360.555	91.48
360.766	34.13
360.977	-0.68
361.189	64.85
361.4	19.8
361.611	68.95
361.823	48.47
362.034	48.47
362.245	-10.92
362.456	38.23
362.667	5.46
362.879	83.28
363.09	19.8
363.301	34.13
363.512	99.67
363.723	5.46
363.935	54.61
364.146	75.09
364.357	46.42
364.568	-33.45
364.779	30.04
364.99	48.47
365.201	-4.78
365.412	122.2
365.623	-29.35
365.834	21.84
366.045	-0.68
366.256	36.18
366.467	114
366.678	15.7
366.889	5.46
367.1	54.61
367.311	17.75
367.522	56.66
367.733	93.52
367.944	54.61
368.155	42.32
368.366	23.89
368.577	34.13
368.788	-2.73
368.999	38.23
369.209	71
369.42	13.65
369.631	89.43
369.842	58.71
370.053	-53.93
370.264	111.96
370.474	-19.11
370.685	15.7
370.896	15.7
371.107	-21.16
371.317	83.28
371.528	21.84
371.739	46.42
371.95	17.75
372.16	64.85
372.371	23.89
372.582	77.14
372.792	21.84
373.003	-19.11
373.214	30.04
373.424	79.19
373.635	36.18
373.846	71
374.056	25.94
374.267	19.8
374.477	-12.97
374.688	38.23
374.898	32.08
375.109	44.37
375.319	32.08
375.53	54.61
375.74	23.89
375.951	62.8
376.161	27.99
376.372	54.61
376.582	15.7
376.793	32.08
377.003	73.04
377.214	77.14
377.424	38.23
377.635	48.47
377.845	66.9
378.055	52.56
378.266	79.19
378.476	32.08
378.686	11.61
378.897	62.8
379.107	81.24
379.317	-23.21
379.528	-33.45
379.738	-10.92
379.948	-121.51
380.158	56.66
380.369	23.89
380.579	81.24
380.789	40.28
380.999	75.09
381.21	38.23
381.42	124.24
381.63	83.28
381.84	13.65
382.05	5.46
382.261	40.28
382.471	81.24
382.681	-4.78
382.891	77.14
383.101	109.91
383.311	25.94
383.521	71
383.731	46.42
383.941	32.08
384.151	-8.87
384.361	-41.64
384.571	54.61
384.781	17.75
384.991	50.52
385.201	40.28
385.411	77.14
385.621	-49.83
385.831	-25.26
386.041	46.42
386.251	50.52
386.461	38.23
386.671	58.71
386.881	66.9
387.091	109.91
387.301	89.43
387.511	85.33
387.72	38.23
387.93	-19.11
388.14	23.89
388.35	64.85
388.56	54.61
388.769	50.52
388.979	52.56
389.189	-27.31
389.399	66.9
389.609	64.85
389.818	75.09
390.028	40.28
390.238	91.48
390.447	58.71
390.657	30.04
390.867	13.65
391.076	13.65
391.286	77.14
391.496	5.46
391.705	-0.68
391.915	42.32
392.125	54.61
392.334	58.71
392.544	54.61
392.753	103.76
392.963	54.61
393.172	79.19
393.382	91.48
393.591	56.66
393.801	52.56
394.01	48.47
394.22	64.85
394.429	-33.45
394.639	32.08
394.848	79.19
395.058	15.7
395.267	101.72
395.477	126.29
395.686	85.33
395.895	5.46
396.105	126.29
396.314	60.76
396.524	11.61
396.733	87.38
396.942	81.24
397.152	95.57
397.361	128.34
397.57	89.43
397.78	58.71
397.989	34.13
398.198	56.66
398.407	87.38
398.617	97.62
398.826	25.94
399.035	-33.45
399.244	87.38
399.453	97.62
399.663	126.29
399.872	73.04
400.081	56.66
400.29	64.85
400.499	68.95
400.708	58.71
400.917	64.85
401.127	85.33
401.336	68.95
401.545	77.14
401.754	44.37
401.963	126.29
402.172	62.8
402.381	58.71
402.59	75.09
402.799	136.53
403.008	103.76
403.217	111.96
403.426	111.96
403.635	83.28
403.844	101.72
404.053	185.68
404.262	134.48
404.471	118.1
404.68	95.57
404.888	140.63
405.097	71
405.306	73.04
405.515	95.57
405.724	114
405.933	173.39
406.142	128.34
406.35	202.07
406.559	212.31
406.768	204.11
406.977	212.31
407.185	128.34
407.394	204.11
407.603	122.2
407.812	83.28
408.02	212.31
408.229	169.3
408.438	255.31
408.646	95.57
408.855	159.06
409.064	255.31
409.272	138.58
409.481	218.45
409.69	220.5
409.898	306.51
410.107	187.73
410.315	318.8
410.524	220.5
410.733	191.83
410.941	267.6
411.15	335.18
411.358	273.75
411.567	349.52
411.775	279.89
411.984	286.03
412.192	380.24
412.401	312.66
412.609	400.72
412.818	441.68
413.026	488.78
413.234	410.96
413.443	365.9
413.651	390.48
413.86	374.1
414.068	447.82
414.276	415.05
414.485	447.82
414.693	521.55
414.901	480.59
415.11	501.07
415.318	408.91
415.526	560.46
415.734	648.52
415.943	509.26
416.151	705.87
416.359	548.17
416.567	701.77
416.776	685.39
416.984	761.16
417.192	769.35
417.4	738.63
417.608	701.77
417.817	677.19
418.025	881.99
418.233	824.65
418.441	845.13
418.649	894.28
418.857	970.05
419.065	982.34
419.273	978.25
419.481	943.43
419.689	1066.31
419.897	1201.47
420.105	1236.29
420.313	1084.74
420.521	1217.86
420.729	1226.05
420.937	1209.67
421.145	1324.35
421.353	1396.03
421.561	1496.38
421.769	1529.15
421.977	1555.77
422.185	1514.81
422.393	1701.18
422.601	1686.84
422.809	1676.6
423.017	1793.34
423.224	1735.99
423.432	1899.83
423.64	1940.79
423.848	2065.72
424.056	2108.73
424.263	2059.57
424.471	2225.46
424.679	2231.6
424.887	2245.94
425.094	2417.97
425.302	2512.17
425.51	2549.04
425.718	2643.24
425.925	2700.59
426.133	2821.42
426.341	2776.36
426.548	2796.84
426.756	2919.72
426.964	2923.82
427.171	3155.24
427.379	3300.64
427.586	3263.78
427.794	3339.55
428.001	3585.31
428.209	3652.89
428.417	3749.15
428.624	3890.46
428.832	3876.12
429.039	4011.29
429.247	3945.75
429.454	4205.85
429.662	4513.04
429.869	4324.63
430.076	4525.33
430.284	4490.51
430.491	4619.53
430.699	4936.97
430.906	4857.1
431.114	5135.62
431.321	5158.15
431.528	5385.48
431.736	5586.18
431.943	5944.57
432.15	5688.57
432.358	5696.77
432.565	6149.37
432.772	5901.56
432.979	6214.9
433.187	6364.4
433.394	6464.75
433.601	6890.73
433.808	6855.92
434.016	6956.27
434.223	7228.65
434.43	7705.82
434.637	7535.84
434.844	7988.44
435.052	7967.96
435.259	8197.34
435.466	8234.2
435.673	8074.46
435.88	8506.58
436.087	9270.47
436.294	9041.1
436.501	8678.61
436.708	9063.63
436.915	9364.68
437.122	9774.27
437.329	9624.77
437.537	9940.16
437.743	10261.69
437.95	10169.53
438.157	10556.6
438.364	11060.4
438.571	11091.12
438.778	11111.6
438.985	12170.4
439.192	11625.64
439.399	11951.26
439.606	11728.03
439.813	12371.1
440.02	13255.82
440.227	12809.36
440.433	12723.35
440.64	13196.43
440.847	13046.93
441.054	13640.84
441.261	14259.32
441.467	14269.56
441.674	14410.87
441.881	14980.21
442.088	14781.56
442.294	14840.95
442.501	15154.29
442.708	15600.74
442.914	16290.91
443.121	16923.73
443.328	16421.98
443.534	17474.63
443.741	17128.53
443.948	16714.84
444.154	18236.48
444.361	18050.11
444.568	18183.23
444.774	18109.5
444.981	18627.64
445.187	19192.88
445.394	19926.05
445.6	19375.15
445.807	20902.93
446.013	20614.17
446.22	20929.56
446.426	21902.34
446.633	21890.06
446.839	22637.56
447.046	21634.06
447.252	22936.57
447.459	22789.11
447.665	22891.51
447.871	24005.61
448.078	24837.08
448.284	23645.16
448.491	24368.1
448.697	25404.37
448.903	25899.98
449.11	25869.26
449.316	25355.22
449.522	25908.17
449.728	26821.56
449.935	27085.75
450.141	27110.33
450.347	27841.45
450.553	26813.37
450.76	27419.57
450.966	28277.67
451.172	27687.85
451.378	28492.71
451.584	28105.64
451.791	28730.27
451.997	28527.52
452.203	29107.1
452.409	29174.68
452.615	29244.31
452.821	28199.85
453.027	27538.35
453.233	29289.37
453.44	28142.5
453.646	28484.51
453.852	28548
454.058	29107.1
454.264	27855.79
454.47	28855.2
454.676	28007.34
454.882	28810.14
455.088	26594.24
455.294	27278.26
455.5	27614.13
455.705	27567.02
455.911	26602.43
456.117	26368.96
456.323	25785.29
456.529	24427.49
456.735	25703.37
456.941	24933.34
457.147	24179.68
457.352	23798.76
457.558	23213.04
457.764	23663.6
457.97	22920.18
458.176	22678.52
458.381	22658.04
458.587	21476.37
458.793	21621.77
458.999	20464.67
459.204	21937.16
459.41	21249.04
459.616	20096.03
459.821	19792.94
460.027	20118.56
460.233	19504.17
460.438	18469.95
460.644	18689.08
460.85	17759.3
461.055	17495.11
461.261	17556.55
461.466	16135.26
461.672	15977.57
461.878	16983.12
462.083	15725.67
462.289	15242.35
462.494	15146.09
462.7	14541.94
462.905	14218.36
463.111	14689.4
463.316	14824.56
463.522	14503.03
463.727	14388.35
463.932	14441.59
464.138	14363.77
464.343	14271.61
464.549	13845.63
464.754	14457.98
464.959	14304.38
465.165	14244.99
465.37	13546.63
465.575	13061.26
465.781	13675.65
465.986	13608.07
466.191	13325.45
466.397	13151.37
466.602	12123.29
466.807	12938.38
467.012	13018.25
467.218	12991.63
467.423	12539.03
467.628	12670.1
467.833	13325.45
468.038	12700.82
468.244	12536.98
468.449	13151.37
468.654	12385.43
