Data from USB4F104151__103__13-22-07-851.txt Node

Date: Fri Mar 14 13:22:07 EDT 2025
User: louis
Spectrometer: USB4F10415
Trigger mode: 4
Integration Time (sec): 3.000000E-2
Scans to average: 1
Electric dark correction enabled: true
Nonlinearity correction enabled: false
Boxcar width: 0
XAxis mode: Wavelengths
Number of Pixels in Spectrum: 3648
>>>>>Begin Spectral Data<<<<<
178.204	-163.15
178.424	-163.15
178.644	-163.15
178.864	-157.01
179.084	-89.43
179.304	43.69
179.524	12.97
179.744	-25.94
179.964	0.68
180.184	-34.13
180.404	-15.7
180.624	2.73
180.844	6.83
181.064	23.21
181.283	-25.94
181.503	37.55
181.723	-25.94
181.943	-116.05
182.163	49.83
182.383	-5.46
182.602	88.75
182.822	-30.04
183.042	-17.75
183.262	12.97
183.482	19.11
183.701	4.78
183.921	21.16
184.141	-50.52
184.361	41.64
184.58	10.92
184.8	47.79
185.02	33.45
185.239	96.94
185.459	47.79
185.679	55.98
185.898	-13.65
186.118	49.83
186.338	-32.08
186.557	72.36
186.777	45.74
186.997	-40.28
187.216	62.12
187.436	121.51
187.655	41.64
187.875	8.87
188.095	-50.52
188.314	-7.51
188.534	15.02
188.753	29.35
188.973	70.31
189.192	107.18
189.412	6.83
189.631	8.87
189.851	74.41
190.07	27.31
190.29	-40.28
190.509	31.4
190.729	-1.37
190.948	-13.65
191.168	217.77
191.387	43.69
191.607	27.31
191.826	-50.52
192.045	12.97
192.265	17.07
192.484	37.55
192.704	-97.62
192.923	-56.66
193.142	137.9
193.362	80.55
193.581	86.7
193.8	41.64
194.02	-3.41
194.239	-17.75
194.458	4.78
194.678	23.21
194.897	-17.75
195.116	10.92
195.335	-5.46
195.555	6.83
195.774	25.26
195.993	53.93
196.212	43.69
196.432	-9.56
196.651	74.41
196.87	-46.42
197.089	58.03
197.308	33.45
197.528	78.51
197.747	15.02
197.966	-23.89
198.185	84.65
198.404	19.11
198.623	25.26
198.842	27.31
199.062	0.68
199.281	39.59
199.5	43.69
199.719	51.88
199.938	66.22
200.157	133.8
200.376	70.31
200.595	27.31
200.814	66.22
201.033	31.4
201.252	19.11
201.471	-7.51
201.69	0.68
201.909	80.55
202.128	68.27
202.347	-1.37
202.566	70.31
202.785	10.92
203.004	-11.61
203.223	129.7
203.442	53.93
203.661	43.69
203.879	58.03
204.098	25.26
204.317	-34.13
204.536	35.5
204.755	-21.84
204.974	-30.04
205.193	8.87
205.411	84.65
205.63	76.46
205.849	47.79
206.068	-9.56
206.287	41.64
206.505	6.83
206.724	-23.89
206.943	-21.84
207.162	0.68
207.381	2.73
207.599	-5.46
207.818	-40.28
208.037	-15.7
208.255	15.02
208.474	86.7
208.693	12.97
208.911	23.21
209.13	-1.37
209.349	25.26
209.567	41.64
209.786	43.69
210.005	-25.94
210.223	29.35
210.442	10.92
210.661	-25.94
210.879	-23.89
211.098	23.21
211.316	8.87
211.535	60.07
211.753	17.07
211.972	64.17
212.191	15.02
212.409	47.79
212.628	47.79
212.846	-17.75
213.065	19.11
213.283	17.07
213.502	53.93
213.72	23.21
213.938	2.73
214.157	66.22
214.375	60.07
214.594	-32.08
214.812	-21.84
215.031	17.07
215.249	33.45
215.467	21.16
215.686	-7.51
215.904	55.98
216.122	31.4
216.341	121.51
216.559	47.79
216.778	31.4
216.996	53.93
217.214	-1.37
217.432	25.26
217.651	8.87
217.869	-58.71
218.087	25.26
218.306	51.88
218.524	23.21
218.742	62.12
218.96	12.97
219.179	-25.94
219.397	-58.71
219.615	105.13
219.833	47.79
220.051	-9.56
220.27	68.27
220.488	39.59
220.706	-13.65
220.924	15.02
221.142	82.6
221.36	19.11
221.578	90.79
221.796	47.79
222.015	6.83
222.233	23.21
222.451	41.64
222.669	-23.89
222.887	-5.46
223.105	29.35
223.323	60.07
223.541	-34.13
223.759	78.51
223.977	45.74
224.195	113.32
224.413	-48.47
224.631	17.07
224.849	94.89
225.067	94.89
225.285	-87.38
225.503	-58.71
225.721	-13.65
225.939	39.59
226.157	80.55
226.375	98.99
226.592	-9.56
226.81	47.79
227.028	49.83
227.246	23.21
227.464	76.46
227.682	45.74
227.9	49.83
228.117	92.84
228.335	123.56
228.553	43.69
228.771	6.83
228.989	-5.46
229.206	51.88
229.424	76.46
229.642	-42.32
229.86	12.97
230.077	31.4
230.295	-23.89
230.513	105.13
230.731	123.56
230.948	21.16
231.166	88.75
231.384	27.31
231.601	8.87
231.819	121.51
232.037	-40.28
232.254	35.5
232.472	49.83
232.689	33.45
232.907	31.4
233.125	68.27
233.342	-9.56
233.56	6.83
233.777	23.21
233.995	-13.65
234.213	125.61
234.43	33.45
234.648	-25.94
234.865	-30.04
235.083	39.59
235.3	23.21
235.518	55.98
235.735	78.51
235.953	19.11
236.17	10.92
236.388	-91.48
236.605	-38.23
236.822	2.73
237.04	72.36
237.257	82.6
237.475	19.11
237.692	33.45
237.909	29.35
238.127	10.92
238.344	49.83
238.562	55.98
238.779	-7.51
238.996	12.97
239.214	-3.41
239.431	27.31
239.648	-23.89
239.865	-11.61
240.083	123.56
240.3	29.35
240.517	27.31
240.735	-5.46
240.952	15.02
241.169	41.64
241.386	8.87
241.603	86.7
241.821	55.98
242.038	39.59
242.255	6.83
242.472	-46.42
242.689	35.5
242.907	47.79
243.124	84.65
243.341	-46.42
243.558	2.73
243.775	-56.66
243.992	-1.37
244.209	25.26
244.426	144.04
244.643	39.59
244.86	49.83
245.078	115.37
245.295	23.21
245.512	33.45
245.729	23.21
245.946	55.98
246.163	41.64
246.38	55.98
246.597	-17.75
246.814	6.83
247.031	72.36
247.248	58.03
247.464	-19.8
247.681	21.16
247.898	105.13
248.115	94.89
248.332	-56.66
248.549	47.79
248.766	98.99
248.983	84.65
249.2	72.36
249.417	8.87
249.633	45.74
249.85	15.02
250.067	31.4
250.284	27.31
250.501	90.79
250.717	98.99
250.934	-46.42
251.151	-27.99
251.368	-32.08
251.585	43.69
251.801	35.5
252.018	8.87
252.235	86.7
252.451	31.4
252.668	-42.32
252.885	4.78
253.102	-5.46
253.318	-32.08
253.535	-32.08
253.752	15.02
253.968	33.45
254.185	10.92
254.401	17.07
254.618	53.93
254.835	10.92
255.051	113.32
255.268	23.21
255.484	25.26
255.701	66.22
255.917	27.31
256.134	-32.08
256.351	12.97
256.567	10.92
256.784	33.45
257	-44.37
257.217	10.92
257.433	37.55
257.65	62.12
257.866	-34.13
258.082	-95.57
258.299	33.45
258.515	-11.61
258.732	-7.51
258.948	0.68
259.165	-58.71
259.381	33.45
259.597	51.88
259.814	23.21
260.03	66.22
260.246	39.59
260.463	-1.37
260.679	105.13
260.895	70.31
261.112	-1.37
261.328	35.5
261.544	15.02
261.761	131.75
261.977	0.68
262.193	4.78
262.409	17.07
262.626	-15.7
262.842	94.89
263.058	2.73
263.274	19.11
263.49	-17.75
263.707	31.4
263.923	33.45
264.139	10.92
264.355	17.07
264.571	98.99
264.787	55.98
265.004	6.83
265.22	15.02
265.436	17.07
265.652	-1.37
265.868	19.11
266.084	-21.84
266.3	47.79
266.516	-15.7
266.732	39.59
266.948	66.22
267.164	21.16
267.38	43.69
267.596	15.02
267.812	107.18
268.028	-9.56
268.244	0.68
268.46	25.26
268.676	25.26
268.892	-27.99
269.108	58.03
269.324	-34.13
269.54	8.87
269.756	80.55
269.972	31.4
270.188	-9.56
270.403	-9.56
270.619	62.12
270.835	25.26
271.051	21.16
271.267	37.55
271.483	49.83
271.698	70.31
271.914	49.83
272.13	45.74
272.346	27.31
272.562	23.21
272.777	21.16
272.993	111.27
273.209	31.4
273.425	-34.13
273.64	2.73
273.856	-21.84
274.072	-60.76
274.287	33.45
274.503	45.74
274.719	80.55
274.934	-58.71
275.15	39.59
275.366	15.02
275.581	-56.66
275.797	-3.41
276.012	27.31
276.228	-1.37
276.444	-15.7
276.659	80.55
276.875	-5.46
277.09	-23.89
277.306	60.07
277.521	4.78
277.737	84.65
277.952	86.7
278.168	-25.94
278.383	-5.46
278.599	68.27
278.814	60.07
279.03	15.02
279.245	23.21
279.461	45.74
279.676	23.21
279.892	-58.71
280.107	37.55
280.322	-34.13
280.538	47.79
280.753	53.93
280.969	41.64
281.184	31.4
281.399	19.11
281.615	23.21
281.83	-1.37
282.045	-48.47
282.26	66.22
282.476	-11.61
282.691	98.99
282.906	33.45
283.122	23.21
283.337	-15.7
283.552	55.98
283.767	39.59
283.983	29.35
284.198	25.26
284.413	-3.41
284.628	33.45
284.843	-9.56
285.058	23.21
285.274	68.27
285.489	-23.89
285.704	45.74
285.919	27.31
286.134	-9.56
286.349	10.92
286.564	19.11
286.779	60.07
286.995	-7.51
287.21	33.45
287.425	2.73
287.64	-32.08
287.855	12.97
288.07	-25.94
288.285	43.69
288.5	31.4
288.715	47.79
288.93	-11.61
289.145	76.46
289.36	8.87
289.575	-27.99
289.79	25.26
290.004	98.99
290.219	47.79
290.434	-7.51
290.649	58.03
290.864	90.79
291.079	88.75
291.294	37.55
291.509	-1.37
291.724	41.64
291.938	17.07
292.153	70.31
292.368	17.07
292.583	23.21
292.798	82.6
293.012	0.68
293.227	33.45
293.442	15.02
293.657	-40.28
293.871	-1.37
294.086	15.02
294.301	117.42
294.516	47.79
294.73	12.97
294.945	-68.95
295.16	39.59
295.374	109.23
295.589	49.83
295.804	-48.47
296.018	-17.75
296.233	72.36
296.447	6.83
296.662	43.69
296.877	150.18
297.091	-40.28
297.306	109.23
297.52	-3.41
297.735	-17.75
297.949	31.4
298.164	8.87
298.378	12.97
298.593	43.69
298.807	37.55
299.022	39.59
299.236	45.74
299.451	39.59
299.665	-64.85
299.88	-23.89
300.094	12.97
300.309	12.97
300.523	-13.65
300.737	25.26
300.952	51.88
301.166	37.55
301.381	-27.99
301.595	-9.56
301.809	8.87
302.024	-27.99
302.238	25.26
302.452	10.92
302.667	-34.13
302.881	98.99
303.095	78.51
303.309	33.45
303.524	17.07
303.738	94.89
303.952	0.68
304.166	68.27
304.381	-7.51
304.595	31.4
304.809	-7.51
305.023	101.03
305.237	55.98
305.452	-25.94
305.666	98.99
305.88	62.12
306.094	47.79
306.308	47.79
306.522	66.22
306.736	-21.84
306.95	23.21
307.164	101.03
307.379	-1.37
307.593	92.84
307.807	72.36
308.021	47.79
308.235	-9.56
308.449	-19.8
308.663	-25.94
308.877	96.94
309.091	68.27
309.305	6.83
309.519	-17.75
309.733	82.6
309.947	21.16
310.161	101.03
310.374	96.94
310.588	51.88
310.802	-30.04
311.016	90.79
311.23	58.03
311.444	-9.56
311.658	-13.65
311.872	31.4
312.085	76.46
312.299	55.98
312.513	39.59
312.727	31.4
312.941	-5.46
313.154	90.79
313.368	47.79
313.582	70.31
313.796	47.79
314.009	0.68
314.223	113.32
314.437	84.65
314.651	72.36
314.864	25.26
315.078	19.11
315.292	-36.18
315.505	-40.28
315.719	55.98
315.933	-27.99
316.146	25.26
316.36	-9.56
316.573	72.36
316.787	78.51
317.001	47.79
317.214	80.55
317.428	78.51
317.641	10.92
317.855	-9.56
318.068	10.92
318.282	27.31
318.495	115.37
318.709	39.59
318.922	35.5
319.136	49.83
319.349	-7.51
319.563	-5.46
319.776	-64.85
319.99	-79.19
320.203	139.94
320.417	45.74
320.63	-19.8
320.843	25.26
321.057	0.68
321.27	-30.04
321.483	15.02
321.697	109.23
321.91	41.64
322.124	6.83
322.337	-62.8
322.55	4.78
322.763	58.03
322.977	53.93
323.19	39.59
323.403	-7.51
323.617	23.21
323.83	107.18
324.043	23.21
324.256	10.92
324.469	15.02
324.683	80.55
324.896	78.51
325.109	29.35
325.322	-25.94
325.535	27.31
325.748	86.7
325.962	-21.84
326.175	15.02
326.388	49.83
326.601	51.88
326.814	-9.56
327.027	60.07
327.24	109.23
327.453	-36.18
327.666	74.41
327.879	55.98
328.092	-13.65
328.305	41.64
328.518	58.03
328.731	-56.66
328.944	66.22
329.157	68.27
329.37	-11.61
329.583	90.79
329.796	45.74
330.009	-48.47
330.222	55.98
330.435	101.03
330.648	-40.28
330.861	29.35
331.073	15.02
331.286	60.07
331.499	55.98
331.712	-17.75
331.925	33.45
332.138	12.97
332.35	88.75
332.563	33.45
332.776	66.22
332.989	-5.46
333.202	21.16
333.414	2.73
333.627	-9.56
333.84	-68.95
334.053	-34.13
334.265	64.17
334.478	-11.61
334.691	43.69
334.903	-9.56
335.116	8.87
335.329	37.55
335.541	0.68
335.754	127.66
335.966	2.73
336.179	39.59
336.392	27.31
336.604	-38.23
336.817	103.08
337.029	68.27
337.242	-46.42
337.454	0.68
337.667	49.83
337.88	23.21
338.092	-3.41
338.305	80.55
338.517	-15.7
338.729	-13.65
338.942	80.55
339.154	31.4
339.367	-3.41
339.579	47.79
339.792	23.21
340.004	6.83
340.217	-13.65
340.429	78.51
340.641	-36.18
340.854	-21.84
341.066	-27.99
341.278	-15.7
341.491	35.5
341.703	66.22
341.915	10.92
342.128	55.98
342.34	17.07
342.552	12.97
342.764	0.68
342.977	-13.65
343.189	-11.61
343.401	58.03
343.613	17.07
343.826	156.33
344.038	-73.04
344.25	80.55
344.462	31.4
344.674	31.4
344.886	-7.51
345.099	8.87
345.311	90.79
345.523	117.42
345.735	-3.41
345.947	-21.84
346.159	80.55
346.371	47.79
346.583	6.83
346.795	12.97
347.007	39.59
347.219	88.75
347.431	-75.09
347.643	88.75
347.855	19.11
348.067	82.6
348.279	-17.75
348.491	25.26
348.703	31.4
348.915	96.94
349.127	25.26
349.339	23.21
349.551	-42.32
349.763	43.69
349.975	94.89
350.187	58.03
350.399	64.17
350.61	62.12
350.822	0.68
351.034	25.26
351.246	-58.71
351.458	39.59
351.669	45.74
351.881	80.55
352.093	43.69
352.305	-9.56
352.517	0.68
352.728	80.55
352.94	27.31
353.152	-7.51
353.363	25.26
353.575	90.79
353.787	119.46
353.999	25.26
354.21	43.69
354.422	-40.28
354.633	19.11
354.845	23.21
355.057	76.46
355.268	41.64
355.48	115.37
355.692	-1.37
355.903	2.73
356.115	-66.9
356.326	-134.48
356.538	88.75
356.749	-48.47
356.961	84.65
357.172	27.31
357.384	-81.24
357.595	2.73
357.807	35.5
358.018	-66.9
358.23	-1.37
358.441	60.07
358.653	10.92
358.864	62.12
359.075	12.97
359.287	4.78
359.498	47.79
359.709	21.16
359.921	35.5
360.132	6.83
360.344	19.11
360.555	64.17
360.766	51.88
360.977	-13.65
361.189	23.21
361.4	33.45
361.611	78.51
361.823	103.08
362.034	10.92
362.245	-79.19
362.456	-32.08
362.667	55.98
362.879	-34.13
363.09	15.02
363.301	4.78
363.512	0.68
363.723	-9.56
363.935	-9.56
364.146	39.59
364.357	6.83
364.568	41.64
364.779	39.59
364.99	72.36
365.201	-11.61
365.412	12.97
365.623	45.74
365.834	98.99
366.045	4.78
366.256	23.21
366.467	-13.65
366.678	39.59
366.889	-1.37
367.1	-34.13
367.311	35.5
367.522	19.11
367.733	-3.41
367.944	31.4
368.155	-58.71
368.366	31.4
368.577	68.27
368.788	43.69
368.999	-7.51
369.209	-1.37
369.42	80.55
369.631	31.4
369.842	74.41
370.053	19.11
370.264	43.69
370.474	-32.08
370.685	29.35
370.896	37.55
371.107	58.03
371.317	17.07
371.528	-7.51
371.739	23.21
371.95	4.78
372.16	25.26
372.371	10.92
372.582	-50.52
372.792	37.55
373.003	88.75
373.214	-42.32
373.424	70.31
373.635	-3.41
373.846	-7.51
374.056	-9.56
374.267	21.16
374.477	62.12
374.688	-34.13
374.898	2.73
375.109	-11.61
375.319	23.21
375.53	43.69
375.74	35.5
375.951	51.88
376.161	23.21
376.372	139.94
376.582	-17.75
376.793	15.02
377.003	-48.47
377.214	15.02
377.424	27.31
377.635	64.17
377.845	45.74
378.055	123.56
378.266	-13.65
378.476	64.17
378.686	27.31
378.897	41.64
379.107	17.07
379.317	31.4
379.528	94.89
379.738	-48.47
379.948	27.31
380.158	33.45
380.369	41.64
380.579	51.88
380.789	94.89
380.999	10.92
381.21	80.55
381.42	72.36
381.63	60.07
381.84	94.89
382.05	113.32
382.261	23.21
382.471	39.59
382.681	-7.51
382.891	31.4
383.101	49.83
383.311	-25.94
383.521	51.88
383.731	45.74
383.941	82.6
384.151	-15.7
384.361	23.21
384.571	53.93
384.781	58.03
384.991	58.03
385.201	133.8
385.411	17.07
385.621	-48.47
385.831	31.4
386.041	154.28
386.251	35.5
386.461	90.79
386.671	37.55
386.881	29.35
387.091	33.45
387.301	74.41
387.511	15.02
387.72	23.21
387.93	4.78
388.14	25.26
388.35	70.31
388.56	74.41
388.769	39.59
388.979	12.97
389.189	-3.41
389.399	35.5
389.609	31.4
389.818	35.5
390.028	39.59
390.238	66.22
390.447	-34.13
390.657	43.69
390.867	53.93
391.076	-62.8
391.286	68.27
391.496	-9.56
391.705	66.22
391.915	55.98
392.125	25.26
392.334	49.83
392.544	43.69
392.753	82.6
392.963	6.83
393.172	35.5
393.382	-44.37
393.591	90.79
393.801	31.4
394.01	96.94
394.22	23.21
394.429	43.69
394.639	47.79
394.848	-7.51
395.058	47.79
395.267	88.75
395.477	55.98
395.686	21.16
395.895	139.94
396.105	146.09
396.314	60.07
396.524	41.64
396.733	12.97
396.942	180.9
397.152	37.55
397.361	121.51
397.57	19.11
397.78	64.17
397.989	60.07
398.198	96.94
398.407	86.7
398.617	78.51
398.826	45.74
399.035	41.64
399.244	129.7
399.453	80.55
399.663	58.03
399.872	150.18
400.081	6.83
400.29	129.7
400.499	25.26
400.708	88.75
400.917	41.64
401.127	60.07
401.336	8.87
401.545	144.04
401.754	29.35
401.963	76.46
402.172	19.11
402.381	-27.99
402.59	-23.89
402.799	25.26
403.008	88.75
403.217	33.45
403.426	41.64
403.635	6.83
403.844	78.51
404.053	72.36
404.262	70.31
404.471	144.04
404.68	41.64
404.888	74.41
405.097	37.55
405.306	76.46
405.515	92.84
405.724	31.4
405.933	203.43
406.142	146.09
406.35	47.79
406.559	27.31
406.768	66.22
406.977	146.09
407.185	98.99
407.394	150.18
407.603	0.68
407.812	98.99
408.02	101.03
408.229	123.56
408.438	17.07
408.646	23.21
408.855	131.75
409.064	170.66
409.272	121.51
409.481	154.28
409.69	109.23
409.898	64.17
410.107	107.18
410.315	244.39
410.524	178.86
410.733	164.52
410.941	84.65
411.15	146.09
411.358	244.39
411.567	211.62
411.775	209.58
411.984	301.73
412.192	156.33
412.401	113.32
412.609	254.63
412.818	311.97
413.026	254.63
413.234	207.53
413.443	258.73
413.651	101.03
413.86	182.95
414.068	291.49
414.276	350.89
414.485	242.34
414.693	277.16
414.901	328.36
415.11	383.65
415.318	350.89
415.526	324.26
415.734	383.65
415.943	404.13
416.151	309.93
416.359	385.7
416.567	461.48
416.776	424.61
416.984	465.57
417.192	471.72
417.4	338.6
417.608	467.62
417.817	498.34
418.025	606.88
418.233	520.87
418.441	514.72
418.649	588.45
418.857	613.03
419.065	533.15
419.273	545.44
419.481	631.46
419.689	666.27
419.897	686.75
420.105	768.67
420.313	735.9
420.521	686.75
420.729	846.49
420.937	795.29
421.145	795.29
421.353	885.41
421.561	875.17
421.769	903.84
421.977	950.94
422.185	977.56
422.393	977.56
422.601	991.9
422.809	1022.62
423.017	1032.86
423.224	1155.74
423.432	1176.22
423.64	1071.77
423.848	1165.98
424.056	1133.21
424.263	1368.73
424.471	1286.81
424.679	1317.53
424.887	1350.29
425.094	1520.28
425.302	1481.36
425.51	1464.98
425.718	1540.76
425.925	1618.58
426.133	1688.21
426.341	1677.97
426.548	1804.94
426.756	1739.41
426.964	1819.28
427.171	1901.2
427.379	1958.54
427.586	1979.02
427.794	2040.46
428.001	2138.76
428.209	2278.02
428.417	2228.87
428.624	2448.01
428.832	2460.29
429.039	2271.88
429.247	2333.32
429.454	2587.27
429.662	2828.93
429.869	2488.96
430.076	2865.79
430.284	2652.8
430.491	2861.7
430.699	2882.17
430.906	2857.6
431.114	2931.33
431.321	3086.97
431.528	3099.26
431.736	3340.92
431.943	3629.68
432.15	3422.84
432.358	3580.53
432.565	3586.68
432.772	3644.02
432.979	3799.66
433.187	3777.14
433.394	3803.76
433.601	4115.05
433.808	4209.26
434.016	4233.83
434.223	4250.22
434.43	4549.22
434.637	4567.65
434.844	4762.21
435.052	4874.85
435.259	4964.96
435.466	4739.68
435.673	4764.26
435.88	5106.27
436.087	5384.79
436.294	5390.94
436.501	5309.02
436.708	5341.79
436.915	5540.44
437.122	5855.83
437.329	5827.15
437.537	5841.49
437.743	6044.24
437.95	5890.64
438.157	6423.11
438.364	6677.06
438.571	6470.22
438.778	6775.36
438.985	7215.68
439.192	6844.99
439.399	7039.55
439.606	6994.5
439.813	7287.36
440.02	7901.75
440.227	7664.18
440.433	7486.01
440.64	7971.38
440.847	7719.48
441.054	7877.17
441.261	8499.75
441.467	8372.78
441.674	8333.87
441.881	8968.74
442.088	8911.39
442.294	8878.63
442.501	8911.39
442.708	9355.8
442.914	9546.26
443.121	10058.26
443.328	9724.44
443.534	10467.85
443.741	10160.66
443.948	9937.43
444.154	10672.65
444.361	10609.16
444.568	10615.3
444.774	10777.09
444.981	10914.31
445.187	11145.73
445.394	11622.91
445.6	11545.08
445.807	12704.23
446.013	12175.86
446.22	12304.88
446.426	12716.52
446.633	13066.72
446.839	13359.58
447.046	12653.03
447.252	13482.46
447.459	13468.13
447.665	13441.5
447.871	14162.39
448.078	14623.18
448.284	13984.21
448.491	14340.56
448.697	15043.01
448.903	15227.33
449.11	15464.89
449.316	15047.11
449.522	15630.78
449.728	15651.26
449.935	15788.47
450.141	15622.59
450.347	16454.06
450.553	15659.45
450.76	16017.85
450.966	16316.85
451.172	16236.98
451.378	16644.52
451.584	16517.55
451.791	16759.21
451.997	16882.09
452.203	16994.73
452.409	16900.52
452.615	16826.79
452.821	16282.03
453.027	15776.19
453.233	16974.25
453.44	16325.04
453.646	16316.85
453.852	16720.3
454.058	16941.48
454.264	16343.47
454.47	16675.24
454.676	16294.32
454.882	16832.94
455.088	15489.47
455.294	15696.32
455.5	15989.17
455.705	15798.71
455.911	15493.57
456.117	14940.61
456.323	14877.13
456.529	14152.15
456.735	14741.96
456.941	14160.34
457.147	14293.46
457.352	14158.29
457.558	13674.97
457.764	13492.7
457.97	13384.16
458.176	13105.63
458.381	13031.91
458.587	12425.71
458.793	12411.37
458.999	11700.73
459.204	12693.99
459.41	12229.1
459.616	11442.68
459.821	11354.62
460.027	11360.77
460.233	10969.6
460.438	10539.53
460.644	10856.97
460.85	10385.93
461.055	9994.77
461.261	10172.94
461.466	9263.65
461.672	9013.79
461.878	9482.78
462.083	9085.47
462.289	8747.56
462.494	8739.37
462.7	8395.31
462.905	8231.47
463.111	8266.28
463.316	8520.23
463.522	8419.88
463.727	8280.62
463.932	8299.05
464.138	8272.43
464.343	8172.08
464.549	7985.71
464.754	8411.69
464.959	8280.62
465.165	8256.04
465.37	7903.79
465.575	7557.69
465.781	7981.62
465.986	8026.67
466.191	7686.71
466.397	7508.54
466.602	7266.88
466.807	7352.89
467.012	7424.57
467.218	7428.67
467.423	7346.75
467.628	7498.3
467.833	7604.79
468.038	7526.97
468.244	7103.04
