Data from USB4F104151__64__13-12-03-596.txt Node

Date: Fri Mar 14 13:12:03 EDT 2025
User: louis
Spectrometer: USB4F10415
Trigger mode: 4
Integration Time (sec): 2.000000E-2
Scans to average: 1
Electric dark correction enabled: true
Nonlinearity correction enabled: false
Boxcar width: 0
XAxis mode: Wavelengths
Number of Pixels in Spectrum: 3648
>>>>>Begin Spectral Data<<<<<
178.204	-137.38
178.424	-137.38
178.644	-137.38
178.864	-94.38
179.084	-2.22
179.304	-0.17
179.524	20.31
179.744	30.55
179.964	22.36
180.184	30.55
180.404	32.6
180.624	-63.66
180.844	-18.6
181.064	20.31
181.283	20.31
181.503	-55.47
181.723	-39.08
181.943	-45.23
182.163	89.94
182.383	-2.22
182.602	18.26
182.822	32.6
183.042	16.21
183.262	20.31
183.482	-20.65
183.701	20.31
183.921	38.74
184.141	65.36
184.361	63.32
184.58	-4.27
184.8	24.4
185.02	16.21
185.239	28.5
185.459	63.32
185.679	18.26
185.898	-4.27
186.118	85.84
186.338	16.21
186.557	53.08
186.777	30.55
186.997	42.84
187.216	-37.03
187.436	8.02
187.655	10.07
187.875	-32.94
188.095	-4.27
188.314	102.23
188.534	110.42
188.753	22.36
188.973	38.74
189.192	20.31
189.412	26.45
189.631	20.31
189.851	57.17
190.07	108.37
190.29	1.88
190.509	20.31
190.729	5.97
190.948	83.8
191.168	149.33
191.387	73.56
191.607	-26.79
191.826	3.93
192.045	36.69
192.265	-28.84
192.484	36.69
192.704	-51.37
192.923	40.79
193.142	124.76
193.362	-57.51
193.581	46.93
193.8	5.97
194.02	16.21
194.239	-67.75
194.458	1.88
194.678	28.5
194.897	28.5
195.116	38.74
195.335	36.69
195.555	32.6
195.774	5.97
195.993	14.17
196.212	-59.56
196.432	-18.6
196.651	28.5
196.87	-43.18
197.089	44.88
197.308	79.7
197.528	85.84
197.747	30.55
197.966	44.88
198.185	55.12
198.404	55.12
198.623	44.88
198.842	26.45
199.062	67.41
199.281	69.46
199.5	18.26
199.719	24.4
199.938	8.02
200.157	-6.31
200.376	73.56
200.595	16.21
200.814	51.03
201.033	53.08
201.252	36.69
201.471	57.17
201.69	5.97
201.909	-26.79
202.128	20.31
202.347	53.08
202.566	65.36
202.785	12.12
203.004	32.6
203.223	87.89
203.442	3.93
203.661	75.6
203.879	46.93
204.098	83.8
204.317	-24.75
204.536	77.65
204.755	55.12
204.974	-20.65
205.193	26.45
205.411	83.8
205.63	-4.27
205.849	71.51
206.068	30.55
206.287	-26.79
206.505	61.27
206.724	-55.47
206.943	-2.22
207.162	61.27
207.381	22.36
207.599	65.36
207.818	-57.51
208.037	-57.51
208.255	-24.75
208.474	65.36
208.693	10.07
208.911	61.27
209.13	32.6
209.349	77.65
209.567	81.75
209.786	77.65
210.005	40.79
210.223	48.98
210.442	18.26
210.661	79.7
210.879	18.26
211.098	63.32
211.316	5.97
211.535	69.46
211.753	73.56
211.972	20.31
212.191	12.12
212.409	71.51
212.628	30.55
212.846	51.03
213.065	89.94
213.283	65.36
213.502	3.93
213.72	-2.22
213.938	44.88
214.157	14.17
214.375	42.84
214.594	44.88
214.812	16.21
215.031	-8.36
215.249	10.07
215.467	98.13
215.686	42.84
215.904	77.65
216.122	-49.32
216.341	1.88
216.559	1.88
216.778	57.17
216.996	73.56
217.214	-18.6
217.432	-39.08
217.651	40.79
217.869	-8.36
218.087	1.88
218.306	61.27
218.524	48.98
218.742	-37.03
218.96	14.17
219.179	53.08
219.397	-22.7
219.615	85.84
219.833	-20.65
220.051	-16.55
220.27	73.56
220.488	48.98
220.706	53.08
220.924	22.36
221.142	-24.75
221.36	30.55
221.578	-4.27
221.796	12.12
222.015	118.61
222.233	77.65
222.451	79.7
222.669	22.36
222.887	24.4
223.105	59.22
223.323	18.26
223.541	-8.36
223.759	57.17
223.977	16.21
224.195	61.27
224.413	53.08
224.631	24.4
224.849	-51.37
225.067	100.18
225.285	12.12
225.503	38.74
225.721	30.55
225.939	-20.65
226.157	40.79
226.375	79.7
226.592	-116.9
226.81	69.46
227.028	22.36
227.246	69.46
227.464	100.18
227.682	100.18
227.9	44.88
228.117	59.22
228.335	83.8
228.553	53.08
228.771	81.75
228.989	53.08
229.206	36.69
229.424	36.69
229.642	53.08
229.86	-34.99
230.077	102.23
230.295	51.03
230.513	53.08
230.731	59.22
230.948	26.45
231.166	87.89
231.384	-20.65
231.601	-32.94
231.819	81.75
232.037	-12.46
232.254	36.69
232.472	16.21
232.689	108.37
232.907	16.21
233.125	-2.22
233.342	12.12
233.56	-49.32
233.777	36.69
233.995	-26.79
234.213	44.88
234.43	40.79
234.648	8.02
234.865	3.93
235.083	26.45
235.3	18.26
235.518	-32.94
235.735	89.94
235.953	48.98
236.17	24.4
236.388	30.55
236.605	-41.13
236.822	22.36
237.04	40.79
237.257	-26.79
237.475	102.23
237.692	44.88
237.909	79.7
238.127	-16.55
238.344	-24.75
238.562	77.65
238.779	3.93
238.996	-51.37
239.214	44.88
239.431	40.79
239.648	55.12
239.865	63.32
240.083	67.41
240.3	28.5
240.517	87.89
240.735	100.18
240.952	143.19
241.169	73.56
241.386	8.02
241.603	36.69
241.821	-37.03
242.038	28.5
242.255	40.79
242.472	-26.79
242.689	71.51
242.907	20.31
243.124	-18.6
243.341	63.32
243.558	-2.22
243.775	-10.41
243.992	10.07
244.209	16.21
244.426	81.75
244.643	38.74
244.86	16.21
245.078	46.93
245.295	36.69
245.512	77.65
245.729	3.93
245.946	32.6
246.163	69.46
246.38	-4.27
246.597	36.69
246.814	3.93
247.031	22.36
247.248	22.36
247.464	34.64
247.681	26.45
247.898	16.21
248.115	-37.03
248.332	-18.6
248.549	30.55
248.766	-4.27
248.983	114.52
249.2	75.6
249.417	65.36
249.633	42.84
249.85	30.55
250.067	53.08
250.284	55.12
250.501	44.88
250.717	36.69
250.934	-26.79
251.151	5.97
251.368	22.36
251.585	61.27
251.801	51.03
252.018	26.45
252.235	8.02
252.451	53.08
252.668	20.31
252.885	34.64
253.102	22.36
253.318	83.8
253.535	44.88
253.752	32.6
253.968	-26.79
254.185	-28.84
254.401	87.89
254.618	-2.22
254.835	12.12
255.051	110.42
255.268	71.51
255.484	51.03
255.701	32.6
255.917	77.65
256.134	5.97
256.351	30.55
256.567	46.93
256.784	-34.99
257	-20.65
257.217	71.51
257.433	38.74
257.65	44.88
257.866	38.74
258.082	59.22
258.299	-0.17
258.515	-4.27
258.732	38.74
258.948	57.17
259.165	16.21
259.381	5.97
259.597	14.17
259.814	18.26
260.03	-37.03
260.246	3.93
260.463	1.88
260.679	63.32
260.895	48.98
261.112	-0.17
261.328	14.17
261.544	20.31
261.761	114.52
261.977	8.02
262.193	24.4
262.409	-69.8
262.626	38.74
262.842	63.32
263.058	-26.79
263.274	67.41
263.49	48.98
263.707	36.69
263.923	36.69
264.139	-49.32
264.355	32.6
264.571	46.93
264.787	34.64
265.004	30.55
265.22	16.21
265.436	48.98
265.652	12.12
265.868	-4.27
266.084	-57.51
266.3	32.6
266.516	-18.6
266.732	-10.41
266.948	-6.31
267.164	38.74
267.38	100.18
267.596	28.5
267.812	61.27
268.028	67.41
268.244	16.21
268.46	30.55
268.676	94.04
268.892	73.56
269.108	3.93
269.324	32.6
269.54	22.36
269.756	102.23
269.972	-59.56
270.188	-47.27
270.403	73.56
270.619	30.55
270.835	24.4
271.051	-20.65
271.267	-16.55
271.483	14.17
271.698	53.08
271.914	69.46
272.13	51.03
272.346	100.18
272.562	-16.55
272.777	38.74
272.993	-45.23
273.209	-32.94
273.425	57.17
273.64	71.51
273.856	94.04
274.072	73.56
274.287	-4.27
274.503	-8.36
274.719	36.69
274.934	-22.7
275.15	-69.8
275.366	-26.79
275.581	-39.08
275.797	1.88
276.012	-37.03
276.228	26.45
276.444	40.79
276.659	44.88
276.875	94.04
277.09	22.36
277.306	42.84
277.521	59.22
277.737	55.12
277.952	94.04
278.168	14.17
278.383	89.94
278.599	32.6
278.814	24.4
279.03	87.89
279.245	73.56
279.461	14.17
279.676	57.17
279.892	12.12
280.107	34.64
280.322	14.17
280.538	94.04
280.753	10.07
280.969	55.12
281.184	-16.55
281.399	126.8
281.615	-2.22
281.83	40.79
282.045	38.74
282.26	-6.31
282.476	-39.08
282.691	-6.31
282.906	32.6
283.122	36.69
283.337	40.79
283.552	44.88
283.767	36.69
283.983	-2.22
284.198	-18.6
284.413	30.55
284.628	-10.41
284.843	89.94
285.058	-0.17
285.274	69.46
285.489	12.12
285.704	53.08
285.919	-18.6
286.134	20.31
286.349	30.55
286.564	79.7
286.779	46.93
286.995	65.36
287.21	46.93
287.425	63.32
287.64	-0.17
287.855	48.98
288.07	20.31
288.285	-6.31
288.5	3.93
288.715	34.64
288.93	-10.41
289.145	57.17
289.36	-0.17
289.575	30.55
289.79	89.94
290.004	24.4
290.219	75.6
290.434	10.07
290.649	-4.27
290.864	22.36
291.079	-4.27
291.294	71.51
291.509	-8.36
291.724	22.36
291.938	48.98
292.153	69.46
292.368	-12.46
292.583	57.17
292.798	18.26
293.012	79.7
293.227	135
293.442	-37.03
293.657	24.4
293.871	46.93
294.086	-16.55
294.301	65.36
294.516	57.17
294.73	-10.41
294.945	-32.94
295.16	-16.55
295.374	85.84
295.589	24.4
295.804	20.31
296.018	36.69
296.233	59.22
296.447	63.32
296.662	-14.51
296.877	48.98
297.091	96.08
297.306	44.88
297.52	-24.75
297.735	10.07
297.949	24.4
298.164	94.04
298.378	100.18
298.593	26.45
298.807	-2.22
299.022	-2.22
299.236	55.12
299.451	24.4
299.665	18.26
299.88	57.17
300.094	55.12
300.309	-2.22
300.523	18.26
300.737	79.7
300.952	8.02
301.166	79.7
301.381	20.31
301.595	8.02
301.809	-8.36
302.024	53.08
302.238	48.98
302.452	18.26
302.667	-18.6
302.881	81.75
303.095	85.84
303.309	46.93
303.524	85.84
303.738	20.31
303.952	28.5
304.166	20.31
304.381	-123.05
304.595	104.28
304.809	28.5
305.023	130.9
305.237	1.88
305.452	51.03
305.666	48.98
305.88	61.27
306.094	57.17
306.308	102.23
306.522	22.36
306.736	87.89
306.95	10.07
307.164	85.84
307.379	1.88
307.593	102.23
307.807	71.51
308.021	69.46
308.235	12.12
308.449	28.5
308.663	30.55
308.877	32.6
309.091	-14.51
309.305	65.36
309.519	-20.65
309.733	61.27
309.947	-34.99
310.161	-45.23
310.374	16.21
310.588	67.41
310.802	30.55
311.016	53.08
311.23	3.93
311.444	-10.41
311.658	12.12
311.872	73.56
312.085	32.6
312.299	110.42
312.513	34.64
312.727	8.02
312.941	1.88
313.154	-4.27
313.368	65.36
313.582	26.45
313.796	61.27
314.009	38.74
314.223	28.5
314.437	65.36
314.651	-4.27
314.864	12.12
315.078	28.5
315.292	18.26
315.505	20.31
315.719	38.74
315.933	110.42
316.146	3.93
316.36	-12.46
316.573	81.75
316.787	-4.27
317.001	32.6
317.214	-26.79
317.428	-2.22
317.641	10.07
317.855	30.55
318.068	57.17
318.282	8.02
318.495	69.46
318.709	65.36
318.922	24.4
319.136	53.08
319.349	48.98
319.563	98.13
319.776	18.26
319.99	77.65
320.203	44.88
320.417	10.07
320.63	16.21
320.843	145.24
321.057	-30.89
321.27	67.41
321.483	53.08
321.697	28.5
321.91	89.94
322.124	20.31
322.337	-30.89
322.55	98.13
322.763	44.88
322.977	20.31
323.19	24.4
323.403	65.36
323.617	51.03
323.83	63.32
324.043	12.12
324.256	20.31
324.469	-73.9
324.683	55.12
324.896	22.36
325.109	-26.79
325.322	34.64
325.535	32.6
325.748	-8.36
325.962	36.69
326.175	69.46
326.388	36.69
326.601	63.32
326.814	30.55
327.027	24.4
327.24	85.84
327.453	-28.84
327.666	3.93
327.879	40.79
328.092	5.97
328.305	46.93
328.518	81.75
328.731	-8.36
328.944	85.84
329.157	28.5
329.37	87.89
329.583	61.27
329.796	5.97
330.009	-0.17
330.222	81.75
330.435	51.03
330.648	24.4
330.861	59.22
331.073	85.84
331.286	153.43
331.499	-0.17
331.712	-20.65
331.925	61.27
332.138	36.69
332.35	46.93
332.563	53.08
332.776	83.8
332.989	8.02
333.202	46.93
333.414	-28.84
333.627	22.36
333.84	-16.55
334.053	-16.55
334.265	14.17
334.478	3.93
334.691	51.03
334.903	1.88
335.116	42.84
335.329	48.98
335.541	46.93
335.754	98.13
335.966	20.31
336.179	-26.79
336.392	28.5
336.604	53.08
336.817	36.69
337.029	3.93
337.242	-12.46
337.454	73.56
337.667	1.88
337.88	20.31
338.092	28.5
338.305	38.74
338.517	-4.27
338.729	153.43
338.942	75.6
339.154	20.31
339.367	22.36
339.579	-6.31
339.792	-20.65
340.004	14.17
340.217	57.17
340.429	40.79
340.641	14.17
340.854	94.04
341.066	5.97
341.278	63.32
341.491	28.5
341.703	20.31
341.915	-10.41
342.128	94.04
342.34	65.36
342.552	85.84
342.764	12.12
342.977	-4.27
343.189	116.56
343.401	-16.55
343.613	8.02
343.826	110.42
344.038	-18.6
344.25	3.93
344.462	-20.65
344.674	59.22
344.886	30.55
345.099	20.31
345.311	-10.41
345.523	59.22
345.735	20.31
345.947	-2.22
346.159	-47.27
346.371	16.21
346.583	-10.41
346.795	98.13
347.007	71.51
347.219	83.8
347.431	8.02
347.643	30.55
347.855	22.36
348.067	102.23
348.279	14.17
348.491	22.36
348.703	20.31
348.915	18.26
349.127	-110.76
349.339	67.41
349.551	71.51
349.763	135
349.975	-24.75
350.187	89.94
350.399	38.74
350.61	28.5
350.822	12.12
351.034	-2.22
351.246	16.21
351.458	59.22
351.669	69.46
351.881	110.42
352.093	22.36
352.305	55.12
352.517	91.99
352.728	98.13
352.94	20.31
353.152	42.84
353.363	-0.17
353.575	-4.27
353.787	-2.22
353.999	36.69
354.21	81.75
354.422	26.45
354.633	14.17
354.845	3.93
355.057	77.65
355.268	44.88
355.48	91.99
355.692	71.51
355.903	24.4
356.115	42.84
356.326	34.64
356.538	46.93
356.749	-4.27
356.961	14.17
357.172	14.17
357.384	16.21
357.595	61.27
357.807	-12.46
358.018	98.13
358.23	38.74
358.441	32.6
358.653	75.6
358.864	22.36
359.075	44.88
359.287	48.98
359.498	55.12
359.709	24.4
359.921	-2.22
360.132	-43.18
360.344	24.4
360.555	53.08
360.766	114.52
360.977	69.46
361.189	55.12
361.4	-4.27
361.611	18.26
361.823	108.37
362.034	-6.31
362.245	-26.79
362.456	85.84
362.667	-30.89
362.879	5.97
363.09	83.8
363.301	38.74
363.512	57.17
363.723	59.22
363.935	55.12
364.146	48.98
364.357	89.94
364.568	85.84
364.779	-18.6
364.99	24.4
365.201	-0.17
365.412	61.27
365.623	65.36
365.834	112.47
366.045	22.36
366.256	112.47
366.467	34.64
366.678	46.93
366.889	16.21
367.1	53.08
367.311	38.74
367.522	98.13
367.733	34.64
367.944	71.51
368.155	24.4
368.366	155.47
368.577	12.12
368.788	114.52
368.999	28.5
369.209	18.26
369.42	53.08
369.631	108.37
369.842	22.36
370.053	77.65
370.264	61.27
370.474	3.93
370.685	22.36
370.896	91.99
371.107	51.03
371.317	102.23
371.528	-2.22
371.739	73.56
371.95	18.26
372.16	65.36
372.371	3.93
372.582	18.26
372.792	110.42
373.003	3.93
373.214	122.71
373.424	67.41
373.635	20.31
373.846	69.46
374.056	40.79
374.267	-0.17
374.477	53.08
374.688	30.55
374.898	1.88
375.109	98.13
375.319	-37.03
375.53	94.04
375.74	51.03
375.951	16.21
376.161	55.12
376.372	59.22
376.582	20.31
376.793	83.8
377.003	-69.8
377.214	44.88
377.424	16.21
377.635	55.12
377.845	26.45
378.055	59.22
378.266	-37.03
378.476	94.04
378.686	59.22
378.897	46.93
379.107	81.75
379.317	59.22
379.528	34.64
379.738	51.03
379.948	16.21
380.158	38.74
380.369	1.88
380.579	69.46
380.789	42.84
380.999	67.41
381.21	8.02
381.42	110.42
381.63	63.32
381.84	20.31
382.05	-12.46
382.261	61.27
382.471	32.6
382.681	20.31
382.891	124.76
383.101	46.93
383.311	28.5
383.521	-4.27
383.731	106.32
383.941	79.7
384.151	26.45
384.361	57.17
384.571	30.55
384.781	79.7
384.991	55.12
385.201	118.61
385.411	110.42
385.621	77.65
385.831	12.12
386.041	18.26
386.251	36.69
386.461	69.46
386.671	-20.65
386.881	122.71
387.091	69.46
387.301	67.41
387.511	20.31
387.72	14.17
387.93	16.21
388.14	44.88
388.35	-16.55
388.56	-4.27
388.769	106.32
388.979	-0.17
389.189	8.02
389.399	38.74
389.609	18.26
389.818	20.31
390.028	10.07
390.238	65.36
390.447	12.12
390.657	94.04
390.867	135
391.076	-2.22
391.286	75.6
391.496	-10.41
391.705	18.26
391.915	83.8
392.125	112.47
392.334	-2.22
392.544	79.7
392.753	20.31
392.963	94.04
393.172	30.55
393.382	73.56
393.591	94.04
393.801	18.26
394.01	65.36
394.22	53.08
394.429	51.03
394.639	-37.03
394.848	89.94
395.058	73.56
395.267	65.36
395.477	83.8
395.686	118.61
395.895	38.74
396.105	67.41
396.314	16.21
396.524	44.88
396.733	120.66
396.942	81.75
397.152	61.27
397.361	65.36
397.57	89.94
397.78	42.84
397.989	83.8
398.198	110.42
398.407	147.28
398.617	83.8
398.826	57.17
399.035	48.98
399.244	81.75
399.453	145.24
399.663	1.88
399.872	94.04
400.081	73.56
400.29	114.52
400.499	32.6
400.708	122.71
400.917	30.55
401.127	194.39
401.336	77.65
401.545	159.57
401.754	102.23
401.963	67.41
402.172	40.79
402.381	40.79
402.59	89.94
402.799	102.23
403.008	89.94
403.217	130.9
403.426	104.28
403.635	44.88
403.844	106.32
404.053	128.85
404.262	89.94
404.471	157.52
404.68	118.61
404.888	71.51
405.097	128.85
405.306	120.66
405.515	98.13
405.724	180.05
405.933	130.9
406.142	186.19
406.35	132.95
406.559	175.95
406.768	249.68
406.977	81.75
407.185	128.85
407.394	163.67
407.603	206.67
407.812	202.58
408.02	192.34
408.229	135
408.438	190.29
408.646	167.76
408.855	208.72
409.064	218.96
409.272	253.78
409.481	196.43
409.69	194.39
409.898	225.11
410.107	259.92
410.315	243.54
410.524	282.45
410.733	280.4
410.941	288.59
411.15	282.45
411.358	300.88
411.567	372.56
411.775	415.57
411.984	350.03
412.192	401.23
412.401	341.84
412.609	386.9
412.818	347.98
413.026	335.7
413.234	399.18
413.443	436.05
413.651	452.43
413.86	477.01
414.068	517.97
414.276	550.73
414.485	495.44
414.693	505.68
414.901	548.68
415.11	581.45
415.318	624.46
415.526	532.3
415.734	698.19
415.943	763.72
416.151	720.71
416.359	673.61
416.567	649.04
416.776	753.48
416.984	782.15
417.192	868.17
417.4	812.87
417.608	868.17
417.817	831.3
418.025	943.94
418.233	1001.29
418.441	952.13
418.649	962.37
418.857	1118.02
419.065	1068.87
419.273	1111.88
419.481	1109.83
419.689	1167.17
419.897	1251.14
420.105	1285.95
420.313	1376.06
420.521	1423.17
420.729	1361.73
420.937	1455.94
421.145	1455.94
421.353	1503.04
421.561	1691.45
421.769	1691.45
421.977	1765.18
422.185	1699.64
422.393	1732.41
422.601	1974.07
422.809	1851.19
423.017	1986.36
423.224	2012.98
423.432	2082.61
423.64	2168.63
423.848	2256.69
424.056	2209.59
424.263	2295.6
424.471	2422.58
424.679	2445.1
424.887	2600.75
425.094	2608.94
425.302	2670.38
425.51	2774.83
425.718	2969.38
425.925	2877.23
426.133	2885.42
426.341	3182.37
426.548	3264.29
426.756	3368.74
426.964	3411.75
427.171	3546.91
427.379	3567.39
427.586	3706.65
427.794	3761.95
428.001	3909.4
428.209	4026.14
428.417	4026.14
428.624	4286.23
428.832	4280.08
429.039	4208.41
429.247	4261.65
429.454	4871.95
429.662	5033.74
429.869	4771.6
430.076	5027.59
430.284	5037.83
430.491	5197.57
430.699	5488.39
430.906	5592.83
431.114	5480.19
431.321	5639.94
431.528	5951.23
431.736	6176.5
431.943	6491.89
432.15	6391.54
432.358	6432.5
432.565	6772.46
432.772	6536.95
432.979	7026.41
433.187	7268.07
433.394	7210.73
433.601	7722.72
433.808	7638.75
434.016	7804.64
434.223	7950.04
434.43	8562.39
434.637	8464.08
434.844	8865.49
435.052	9051.85
435.259	8883.92
435.466	9080.52
435.673	9082.57
435.88	9541.32
436.087	10049.21
436.294	9993.92
436.501	9817.79
436.708	9926.33
436.915	10303.16
437.122	10698.42
437.329	10870.45
437.537	11372.2
437.743	11314.86
437.95	11288.23
438.157	11630.24
438.364	12304.03
438.571	12123.8
438.778	12119.71
438.985	13342.35
439.192	12730
439.399	13334.15
439.606	13137.55
439.813	13796.99
440.02	14663.29
440.227	14450.3
440.433	14237.31
440.64	14540.41
440.847	14681.72
441.054	15150.7
441.261	15855.2
441.467	15535.72
441.674	16166.49
441.881	16414.3
442.088	16670.29
442.294	16334.43
442.501	16842.32
442.708	17026.64
442.914	17899.08
443.121	18677.3
443.328	17962.56
443.534	19045.94
443.741	18875.96
443.948	18394.68
444.154	20162.08
444.361	19750.44
444.568	20010.53
444.774	20149.79
444.981	20055.59
445.187	20782.62
445.394	21536.27
445.6	21442.06
445.807	23377.39
446.013	22404.61
446.22	22912.5
446.426	23655.92
446.633	24014.31
446.839	24872.41
447.046	23801.32
447.252	25118.17
447.459	25322.96
447.665	24968.66
447.871	26310.08
448.078	27467.19
448.284	26181.06
448.491	26627.52
448.697	28108.2
448.903	28263.85
449.11	28663.2
449.316	27966.89
449.522	28417.44
449.728	29439.38
449.935	29296.02
450.141	29683.09
450.347	30188.94
450.553	29214.1
450.76	29810.06
450.966	30823.81
451.172	30514.56
451.378	31059.32
451.584	30395.78
451.791	31225.21
451.997	31159.67
452.203	31616.37
452.409	31587.7
452.615	31526.26
452.821	30303.62
453.027	30164.36
453.233	31911.28
453.44	30694.78
453.646	30829.95
453.852	30877.05
454.058	31516.02
454.264	30678.4
454.47	31257.98
454.676	30379.4
454.882	31448.44
455.088	29013.4
455.294	28908.96
455.5	29955.47
455.705	30033.29
455.911	28837.28
456.117	28370.34
456.323	27915.69
456.529	26627.52
456.735	27938.22
456.941	26975.67
457.147	26584.51
457.352	25845.19
457.558	25325.01
457.764	25587.15
457.97	25415.12
458.176	24487.39
458.381	24679.9
458.587	23330.29
458.793	23281.14
458.999	22087.17
459.204	23811.56
459.41	23193.08
459.616	21331.47
459.821	21544.46
460.027	21622.28
460.233	21222.93
460.438	20055.59
460.644	20565.53
460.85	19041.84
461.055	19265.07
461.261	19279.41
461.466	17663.56
461.672	16952.91
461.878	18206.27
462.083	17036.88
462.289	16563.8
462.494	16469.59
462.7	15697.51
462.905	15310.44
463.111	16025.18
463.316	15986.27
463.522	15339.12
463.727	15562.34
463.932	15640.17
464.138	15474.28
464.343	15646.31
464.549	15064.69
464.754	15588.97
464.959	15681.13
465.165	15345.26
465.37	14747.25
465.575	14202.49
465.781	14775.92
465.986	15169.13
466.191	14413.43
466.397	13835.91
466.602	13360.78
466.807	13829.76
467.012	14061.18
467.218	13837.95
467.423	13618.82
467.628	13555.33
467.833	14407.29
468.038	13778.56
