Data from USB4F104151__41__13-11-08-422.txt Node

Date: Fri Mar 14 13:11:08 EDT 2025
User: louis
Spectrometer: USB4F10415
Trigger mode: 4
Integration Time (sec): 2.000000E-2
Scans to average: 1
Electric dark correction enabled: true
Nonlinearity correction enabled: false
Boxcar width: 0
XAxis mode: Wavelengths
Number of Pixels in Spectrum: 3648
>>>>>Begin Spectral Data<<<<<
178.204	-58.54
178.424	-58.54
178.644	-58.54
178.864	-124.07
179.084	-76.97
179.304	-46.25
179.524	2.9
179.744	2.9
179.964	64.34
180.184	29.52
180.404	-33.96
180.624	15.19
180.844	0.85
181.064	-11.43
181.283	-46.25
181.503	35.67
181.723	-13.48
181.943	-36.01
182.163	-7.34
182.383	23.38
182.602	39.76
182.822	31.57
183.042	35.67
183.262	31.57
183.482	-13.48
183.701	52.05
183.921	15.19
184.141	-50.35
184.361	7
184.58	27.48
184.8	31.57
185.02	-23.72
185.239	58.2
185.459	90.96
185.679	25.43
185.898	-19.63
186.118	43.86
186.338	33.62
186.557	37.72
186.777	-42.15
186.997	4.95
187.216	-36.01
187.436	56.15
187.655	60.24
187.875	-9.39
188.095	23.38
188.314	41.81
188.534	-15.53
188.753	11.09
188.973	15.19
189.192	43.86
189.412	-44.2
189.631	-74.92
189.851	68.44
190.07	-5.29
190.29	-15.53
190.509	76.63
190.729	-3.24
190.948	27.48
191.168	176.98
191.387	33.62
191.607	21.33
191.826	54.1
192.045	35.67
192.265	47.96
192.484	47.96
192.704	60.24
192.923	62.29
193.142	82.77
193.362	7
193.581	11.09
193.8	-17.58
194.02	-29.87
194.239	-1.19
194.458	70.48
194.678	-7.34
194.897	68.44
195.116	74.58
195.335	39.76
195.555	-3.24
195.774	11.09
195.993	62.29
196.212	15.19
196.432	23.38
196.651	39.76
196.87	56.15
197.089	-56.49
197.308	2.9
197.528	15.19
197.747	68.44
197.966	7
198.185	35.67
198.404	58.2
198.623	80.72
198.842	-19.63
199.062	-15.53
199.281	86.87
199.5	-23.72
199.719	72.53
199.938	17.24
200.157	68.44
200.376	68.44
200.595	31.57
200.814	-1.19
201.033	-9.39
201.252	9.05
201.471	29.52
201.69	66.39
201.909	-17.58
202.128	-21.67
202.347	-17.58
202.566	41.81
202.785	-5.29
203.004	-40.11
203.223	105.3
203.442	-3.24
203.661	-23.72
203.879	25.43
204.098	-9.39
204.317	2.9
204.536	31.57
204.755	27.48
204.974	105.3
205.193	0.85
205.411	115.54
205.63	7
205.849	74.58
206.068	-17.58
206.287	19.29
206.505	-11.43
206.724	-74.92
206.943	4.95
207.162	-40.11
207.381	-1.19
207.599	15.19
207.818	31.57
208.037	-7.34
208.255	-31.91
208.474	76.63
208.693	0.85
208.911	15.19
209.13	23.38
209.349	15.19
209.567	-70.83
209.786	72.53
210.005	-9.39
210.223	23.38
210.442	45.91
210.661	47.96
210.879	-19.63
211.098	60.24
211.316	76.63
211.535	-1.19
211.753	13.14
211.972	23.38
212.191	-21.67
212.409	-25.77
212.628	-11.43
212.846	56.15
213.065	-3.24
213.283	15.19
213.502	56.15
213.72	60.24
213.938	11.09
214.157	-72.87
214.375	-29.87
214.594	-42.15
214.812	43.86
215.031	25.43
215.249	39.76
215.467	25.43
215.686	-42.15
215.904	-3.24
216.122	56.15
216.341	-23.72
216.559	43.86
216.778	11.09
216.996	21.33
217.214	54.1
217.432	9.05
217.651	-17.58
217.869	-9.39
218.087	19.29
218.306	82.77
218.524	27.48
218.742	-1.19
218.96	11.09
219.179	43.86
219.397	-27.82
219.615	90.96
219.833	80.72
220.051	-64.68
220.27	52.05
220.488	43.86
220.706	11.09
220.924	25.43
221.142	25.43
221.36	70.48
221.578	-1.19
221.796	13.14
222.015	52.05
222.233	39.76
222.451	90.96
222.669	-40.11
222.887	13.14
223.105	4.95
223.323	93.01
223.541	37.72
223.759	-1.19
223.977	15.19
224.195	-15.53
224.413	-25.77
224.631	33.62
224.849	27.48
225.067	84.82
225.285	25.43
225.503	27.48
225.721	-9.39
225.939	9.05
226.157	109.4
226.375	66.39
226.592	-3.24
226.81	43.86
227.028	58.2
227.246	35.67
227.464	47.96
227.682	95.06
227.9	27.48
228.117	7
228.335	21.33
228.553	-15.53
228.771	-1.19
228.989	2.9
229.206	2.9
229.424	11.09
229.642	-17.58
229.86	11.09
230.077	-1.19
230.295	15.19
230.513	9.05
230.731	-23.72
230.948	50
231.166	23.38
231.384	15.19
231.601	17.24
231.819	25.43
232.037	25.43
232.254	58.2
232.472	17.24
232.689	-5.29
232.907	-31.91
233.125	-40.11
233.342	-72.87
233.56	-15.53
233.777	33.62
233.995	2.9
234.213	-29.87
234.43	107.35
234.648	66.39
234.865	-23.72
235.083	86.87
235.3	-33.96
235.518	-9.39
235.735	41.81
235.953	21.33
236.17	105.3
236.388	-21.67
236.605	66.39
236.822	-7.34
237.04	-15.53
237.257	-52.39
237.475	41.81
237.692	41.81
237.909	-25.77
238.127	-21.67
238.344	35.67
238.562	41.81
238.779	-56.49
238.996	-50.35
239.214	-17.58
239.431	29.52
239.648	47.96
239.865	-31.91
240.083	-23.72
240.3	72.53
240.517	0.85
240.735	76.63
240.952	50
241.169	27.48
241.386	13.14
241.603	82.77
241.821	-40.11
242.038	72.53
242.255	-23.72
242.472	-15.53
242.689	43.86
242.907	25.43
243.124	62.29
243.341	11.09
243.558	21.33
243.775	4.95
243.992	-44.2
244.209	99.16
244.426	45.91
244.643	9.05
244.86	0.85
245.078	23.38
245.295	29.52
245.512	7
245.729	15.19
245.946	19.29
246.163	-5.29
246.38	35.67
246.597	-25.77
246.814	2.9
247.031	74.58
247.248	84.82
247.464	25.43
247.681	25.43
247.898	-19.63
248.115	15.19
248.332	13.14
248.549	-7.34
248.766	52.05
248.983	97.11
249.2	-33.96
249.417	41.81
249.633	56.15
249.85	23.38
250.067	4.95
250.284	23.38
250.501	45.91
250.717	50
250.934	-62.63
251.151	-7.34
251.368	-13.48
251.585	19.29
251.801	50
252.018	19.29
252.235	50
252.451	74.58
252.668	-13.48
252.885	47.96
253.102	-33.96
253.318	90.96
253.535	82.77
253.752	56.15
253.968	21.33
254.185	-50.35
254.401	27.48
254.618	97.11
254.835	15.19
255.051	17.24
255.268	21.33
255.484	-21.67
255.701	19.29
255.917	23.38
256.134	-36.01
256.351	78.68
256.567	-54.44
256.784	-5.29
257	43.86
257.217	0.85
257.433	54.1
257.65	15.19
257.866	-1.19
258.082	-74.92
258.299	11.09
258.515	-15.53
258.732	-31.91
258.948	-21.67
259.165	15.19
259.381	-13.48
259.597	-50.35
259.814	-17.58
260.03	2.9
260.246	-1.19
260.463	39.76
260.679	50
260.895	-1.19
261.112	0.85
261.328	11.09
261.544	56.15
261.761	80.72
261.977	-11.43
262.193	-23.72
262.409	27.48
262.626	37.72
262.842	74.58
263.058	25.43
263.274	17.24
263.49	58.2
263.707	17.24
263.923	9.05
264.139	-42.15
264.355	-25.77
264.571	7
264.787	-1.19
265.004	68.44
265.22	58.2
265.436	-15.53
265.652	-7.34
265.868	47.96
266.084	-31.91
266.3	82.77
266.516	-68.78
266.732	-48.3
266.948	15.19
267.164	-7.34
267.38	-17.58
267.596	58.2
267.812	21.33
268.028	31.57
268.244	7
268.46	45.91
268.676	19.29
268.892	23.38
269.108	-60.59
269.324	-29.87
269.54	15.19
269.756	45.91
269.972	-7.34
270.188	113.49
270.403	-3.24
270.619	84.82
270.835	56.15
271.051	31.57
271.267	39.76
271.483	2.9
271.698	-48.3
271.914	52.05
272.13	33.62
272.346	-33.96
272.562	-62.63
272.777	31.57
272.993	54.1
273.209	64.34
273.425	60.24
273.64	-3.24
273.856	9.05
274.072	27.48
274.287	66.39
274.503	2.9
274.719	54.1
274.934	41.81
275.15	15.19
275.366	-1.19
275.581	17.24
275.797	-52.39
276.012	-5.29
276.228	35.67
276.444	27.48
276.659	2.9
276.875	-7.34
277.09	99.16
277.306	0.85
277.521	37.72
277.737	62.29
277.952	47.96
278.168	101.2
278.383	-3.24
278.599	50
278.814	138.07
279.03	35.67
279.245	47.96
279.461	45.91
279.676	90.96
279.892	19.29
280.107	-5.29
280.322	-29.87
280.538	88.92
280.753	4.95
280.969	-9.39
281.184	-27.82
281.399	54.1
281.615	52.05
281.83	33.62
282.045	-23.72
282.26	-64.68
282.476	-15.53
282.691	-15.53
282.906	17.24
283.122	56.15
283.337	-31.91
283.552	76.63
283.767	58.2
283.983	7
284.198	-107.69
284.413	17.24
284.628	-19.63
284.843	50
285.058	9.05
285.274	9.05
285.489	-7.34
285.704	7
285.919	2.9
286.134	52.05
286.349	-9.39
286.564	-3.24
286.779	93.01
286.995	-1.19
287.21	-17.58
287.425	-1.19
287.64	-5.29
287.855	82.77
288.07	-15.53
288.285	93.01
288.5	19.29
288.715	-17.58
288.93	52.05
289.145	-5.29
289.36	-7.34
289.575	-17.58
289.79	39.76
290.004	39.76
290.219	-7.34
290.434	45.91
290.649	29.52
290.864	33.62
291.079	27.48
291.294	19.29
291.509	-11.43
291.724	37.72
291.938	-13.48
292.153	15.19
292.368	62.29
292.583	4.95
292.798	9.05
293.012	9.05
293.227	80.72
293.442	17.24
293.657	15.19
293.871	50
294.086	60.24
294.301	35.67
294.516	25.43
294.73	23.38
294.945	-9.39
295.16	58.2
295.374	72.53
295.589	41.81
295.804	2.9
296.018	13.14
296.233	43.86
296.447	109.4
296.662	52.05
296.877	50
297.091	80.72
297.306	-40.11
297.52	9.05
297.735	93.01
297.949	-11.43
298.164	47.96
298.378	115.54
298.593	7
298.807	56.15
299.022	19.29
299.236	90.96
299.451	-7.34
299.665	25.43
299.88	56.15
300.094	37.72
300.309	45.91
300.523	70.48
300.737	11.09
300.952	17.24
301.166	33.62
301.381	19.29
301.595	80.72
301.809	-46.25
302.024	-19.63
302.238	-54.44
302.452	43.86
302.667	78.68
302.881	41.81
303.095	52.05
303.309	64.34
303.524	29.52
303.738	-1.19
303.952	23.38
304.166	-1.19
304.381	31.57
304.595	66.39
304.809	-38.06
305.023	15.19
305.237	-3.24
305.452	2.9
305.666	93.01
305.88	39.76
306.094	39.76
306.308	19.29
306.522	33.62
306.736	43.86
306.95	39.76
307.164	47.96
307.379	-7.34
307.593	50
307.807	15.19
308.021	88.92
308.235	-11.43
308.449	-38.06
308.663	19.29
308.877	74.58
309.091	35.67
309.305	72.53
309.519	-58.54
309.733	105.3
309.947	-50.35
310.161	58.2
310.374	-7.34
310.588	70.48
310.802	93.01
311.016	-9.39
311.23	35.67
311.444	-31.91
311.658	68.44
311.872	-3.24
312.085	11.09
312.299	39.76
312.513	105.3
312.727	43.86
312.941	-3.24
313.154	11.09
313.368	15.19
313.582	90.96
313.796	-7.34
314.009	-23.72
314.223	105.3
314.437	19.29
314.651	117.59
314.864	78.68
315.078	-62.63
315.292	19.29
315.505	136.02
315.719	15.19
315.933	56.15
316.146	35.67
316.36	23.38
316.573	105.3
316.787	43.86
317.001	64.34
317.214	78.68
317.428	4.95
317.641	66.39
317.855	-38.06
318.068	64.34
318.282	47.96
318.495	31.57
318.709	56.15
318.922	15.19
319.136	21.33
319.349	31.57
319.563	-25.77
319.776	82.77
319.99	-23.72
320.203	-5.29
320.417	88.92
320.63	13.14
320.843	88.92
321.057	7
321.27	47.96
321.483	60.24
321.697	17.24
321.91	93.01
322.124	41.81
322.337	-11.43
322.55	56.15
322.763	-3.24
322.977	25.43
323.19	-38.06
323.403	-5.29
323.617	60.24
323.83	37.72
324.043	31.57
324.256	-15.53
324.469	43.86
324.683	-15.53
324.896	-3.24
325.109	-7.34
325.322	23.38
325.535	9.05
325.748	58.2
325.962	2.9
326.175	62.29
326.388	70.48
326.601	19.29
326.814	56.15
327.027	21.33
327.24	129.88
327.453	9.05
327.666	66.39
327.879	99.16
328.092	25.43
328.305	9.05
328.518	-54.44
328.731	-7.34
328.944	27.48
329.157	56.15
329.37	23.38
329.583	76.63
329.796	21.33
330.009	74.58
330.222	82.77
330.435	43.86
330.648	-1.19
330.861	-64.68
331.073	50
331.286	39.76
331.499	58.2
331.712	17.24
331.925	15.19
332.138	33.62
332.35	138.07
332.563	54.1
332.776	60.24
332.989	-31.91
333.202	23.38
333.414	31.57
333.627	7
333.84	-31.91
334.053	19.29
334.265	52.05
334.478	27.48
334.691	64.34
334.903	33.62
335.116	-15.53
335.329	41.81
335.541	66.39
335.754	-7.34
335.966	74.58
336.179	0.85
336.392	58.2
336.604	11.09
336.817	84.82
337.029	17.24
337.242	-17.58
337.454	47.96
337.667	43.86
337.88	107.35
338.092	19.29
338.305	27.48
338.517	43.86
338.729	-9.39
338.942	19.29
339.154	52.05
339.367	-40.11
339.579	52.05
339.792	4.95
340.004	41.81
340.217	-33.96
340.429	70.48
340.641	-17.58
340.854	7
341.066	-27.82
341.278	2.9
341.491	21.33
341.703	11.09
341.915	2.9
342.128	84.82
342.34	33.62
342.552	-25.77
342.764	-33.96
342.977	105.3
343.189	66.39
343.401	-50.35
343.613	-115.88
343.826	60.24
344.038	-5.29
344.25	88.92
344.462	-33.96
344.674	41.81
344.886	33.62
345.099	15.19
345.311	68.44
345.523	64.34
345.735	31.57
345.947	64.34
346.159	84.82
346.371	-7.34
346.583	47.96
346.795	50
347.007	-31.91
347.219	127.83
347.431	13.14
347.643	21.33
347.855	-11.43
348.067	13.14
348.279	-40.11
348.491	-31.91
348.703	109.4
348.915	47.96
349.127	-9.39
349.339	84.82
349.551	-46.25
349.763	60.24
349.975	-31.91
350.187	-44.2
350.399	45.91
350.61	-79.02
350.822	39.76
351.034	19.29
351.246	84.82
351.458	-1.19
351.669	39.76
351.881	25.43
352.093	66.39
352.305	56.15
352.517	35.67
352.728	7
352.94	7
353.152	39.76
353.363	-36.01
353.575	107.35
353.787	-25.77
353.999	25.43
354.21	64.34
354.422	23.38
354.633	76.63
354.845	-33.96
355.057	58.2
355.268	11.09
355.48	7
355.692	58.2
355.903	-3.24
356.115	-33.96
356.326	-11.43
356.538	93.01
356.749	21.33
356.961	15.19
357.172	-15.53
357.384	39.76
357.595	82.77
357.807	-5.29
358.018	21.33
358.23	70.48
358.441	25.43
358.653	103.25
358.864	17.24
359.075	-40.11
359.287	52.05
359.498	29.52
359.709	0.85
359.921	-3.24
360.132	-15.53
360.344	4.95
360.555	-5.29
360.766	13.14
360.977	0.85
361.189	45.91
361.4	47.96
361.611	-15.53
361.823	-21.67
362.034	-66.73
362.245	-5.29
362.456	-33.96
362.667	27.48
362.879	23.38
363.09	21.33
363.301	52.05
363.512	-17.58
363.723	-40.11
363.935	64.34
364.146	31.57
364.357	-1.19
364.568	80.72
364.779	27.48
364.99	15.19
365.201	7
365.412	33.62
365.623	-17.58
365.834	17.24
366.045	33.62
366.256	37.72
366.467	31.57
366.678	-15.53
366.889	-11.43
367.1	4.95
367.311	7
367.522	7
367.733	82.77
367.944	11.09
368.155	52.05
368.366	80.72
368.577	19.29
368.788	31.57
368.999	88.92
369.209	7
369.42	23.38
369.631	105.3
369.842	17.24
370.053	47.96
370.264	43.86
370.474	60.24
370.685	-25.77
370.896	93.01
371.107	33.62
371.317	25.43
371.528	88.92
371.739	43.86
371.95	31.57
372.16	88.92
372.371	56.15
372.582	39.76
372.792	9.05
373.003	-87.21
373.214	19.29
373.424	17.24
373.635	70.48
373.846	29.52
374.056	9.05
374.267	29.52
374.477	31.57
374.688	-17.58
374.898	33.62
375.109	23.38
375.319	52.05
375.53	43.86
375.74	15.19
375.951	37.72
376.161	4.95
376.372	60.24
376.582	-9.39
376.793	109.4
377.003	0.85
377.214	23.38
377.424	66.39
377.635	-9.39
377.845	7
378.055	82.77
378.266	50
378.476	-42.15
378.686	9.05
378.897	-1.19
379.107	25.43
379.317	25.43
379.528	-19.63
379.738	25.43
379.948	19.29
380.158	2.9
380.369	4.95
380.579	136.02
380.789	21.33
380.999	45.91
381.21	45.91
381.42	27.48
381.63	-25.77
381.84	7
382.05	17.24
382.261	19.29
382.471	39.76
382.681	19.29
382.891	54.1
383.101	23.38
383.311	-1.19
383.521	84.82
383.731	84.82
383.941	78.68
384.151	60.24
384.361	-9.39
384.571	7
384.781	97.11
384.991	52.05
385.201	56.15
385.411	93.01
385.621	13.14
385.831	60.24
386.041	27.48
386.251	39.76
386.461	7
386.671	15.19
386.881	78.68
387.091	-36.01
387.301	97.11
387.511	-9.39
387.72	60.24
387.93	64.34
388.14	56.15
388.35	-21.67
388.56	86.87
388.769	93.01
388.979	93.01
389.189	7
389.399	-7.34
389.609	0.85
389.818	33.62
390.028	58.2
390.238	52.05
390.447	31.57
390.657	68.44
390.867	35.67
391.076	33.62
391.286	35.67
391.496	127.83
391.705	107.35
391.915	99.16
392.125	-19.63
392.334	50
392.544	50
392.753	21.33
392.963	21.33
393.172	56.15
393.382	-33.96
393.591	84.82
393.801	84.82
394.01	70.48
394.22	84.82
394.429	41.81
394.639	64.34
394.848	82.77
395.058	4.95
395.267	54.1
395.477	109.4
395.686	97.11
395.895	27.48
396.105	23.38
396.314	58.2
396.524	37.72
396.733	-27.82
396.942	76.63
397.152	66.39
397.361	66.39
397.57	72.53
397.78	11.09
397.989	2.9
398.198	117.59
398.407	25.43
398.617	23.38
398.826	50
399.035	52.05
399.244	50
399.453	-5.29
399.663	84.82
399.872	101.2
400.081	68.44
400.29	15.19
400.499	72.53
400.708	39.76
400.917	17.24
401.127	107.35
401.336	56.15
401.545	109.4
401.754	76.63
401.963	19.29
402.172	50
402.381	105.3
402.59	41.81
402.799	74.58
403.008	35.67
403.217	17.24
403.426	35.67
403.635	41.81
403.844	31.57
404.053	131.92
404.262	0.85
404.471	140.12
404.68	113.49
404.888	183.12
405.097	74.58
405.306	113.49
405.515	72.53
405.724	113.49
405.933	142.16
406.142	97.11
406.35	140.12
406.559	140.12
406.768	88.92
406.977	105.3
407.185	136.02
407.394	74.58
407.603	88.92
407.812	123.73
408.02	150.36
408.229	97.11
408.438	95.06
408.646	115.54
408.855	181.07
409.064	93.01
409.272	111.44
409.481	146.26
409.69	72.53
409.898	127.83
410.107	189.27
410.315	115.54
410.524	107.35
410.733	262.99
410.941	197.46
411.15	226.13
411.358	217.94
411.567	269.14
411.775	228.18
411.984	205.65
412.192	191.31
412.401	181.07
412.609	228.18
412.818	283.47
413.026	301.9
413.234	308.05
413.443	338.77
413.651	285.52
413.86	252.75
414.068	377.68
414.276	318.29
414.485	349.01
414.693	330.58
414.901	383.82
415.11	344.91
415.318	367.44
415.526	394.06
415.734	377.68
415.943	408.4
416.151	486.22
416.359	457.55
416.567	432.97
416.776	473.93
416.984	516.94
417.192	475.98
417.4	529.23
417.608	453.45
417.817	572.24
418.025	506.7
418.233	590.67
418.441	613.2
418.649	652.11
418.857	684.87
419.065	707.4
419.273	703.31
419.481	658.25
419.689	772.94
419.897	752.46
420.105	826.18
420.313	858.95
420.521	932.68
420.729	854.86
420.937	891.72
421.145	865.1
421.353	998.21
421.561	1045.32
421.769	973.64
421.977	981.83
422.185	1018.69
422.393	1182.53
422.601	1188.68
422.809	1135.43
423.017	1186.63
423.224	1229.63
423.432	1319.75
423.64	1231.68
423.848	1506.11
424.056	1481.53
424.263	1471.29
424.471	1440.58
424.679	1522.49
424.887	1547.07
425.094	1581.89
425.302	1567.55
425.51	1686.33
425.718	1653.56
425.925	1676.09
426.133	1841.98
426.341	1956.66
426.548	2128.69
426.756	2046.77
426.964	2112.31
427.171	2118.45
427.379	2323.25
427.586	2292.53
427.794	2325.3
428.001	2442.03
428.209	2513.71
428.417	2503.47
428.624	2575.15
428.832	2624.3
429.039	2562.86
429.247	2597.68
429.454	3015.46
429.662	3124.01
429.869	2958.12
430.076	3011.37
430.284	2997.03
430.491	3132.2
430.699	3361.57
430.906	3336.99
431.114	3253.03
431.321	3433.25
431.528	3537.7
431.736	3705.63
431.943	3926.81
432.15	3855.13
432.358	3851.03
432.565	3984.15
432.772	4053.78
432.979	4199.19
433.187	4342.55
433.394	4322.07
433.601	4602.64
433.808	4621.07
434.016	4758.28
434.223	4850.44
434.43	5042.95
434.637	5192.45
434.844	5360.39
435.052	5526.27
435.259	5520.13
435.466	5477.12
435.673	5352.2
435.88	5808.89
436.087	6161.14
436.294	6144.76
436.501	6011.64
436.708	6073.08
436.915	6300.41
437.122	6611.7
437.329	6458.1
437.537	6879.98
437.743	6814.45
437.95	6779.63
438.157	7095.02
438.364	7310.05
438.571	7494.37
438.778	7441.12
438.985	7967.45
439.192	7914.2
439.399	7955.16
439.606	7975.64
439.813	8241.88
440.02	8760.02
440.227	8608.47
440.433	8475.35
440.64	8784.59
440.847	8805.07
441.054	8837.84
441.261	9587.4
441.467	9501.38
441.674	9650.88
441.881	10185.4
442.088	10033.85
442.294	9919.17
442.501	10138.3
442.708	10310.33
442.914	10683.06
443.121	11164.33
443.328	10910.38
443.534	11797.15
443.741	11395.75
443.948	11319.98
444.154	11985.57
444.361	11897.5
444.568	12040.86
444.774	12229.27
444.981	12092.06
445.187	12536.47
445.394	13021.84
445.6	12958.35
445.807	14359.16
446.013	13529.73
446.22	13863.55
446.426	14602.87
446.633	14445.18
446.839	15153.77
447.046	14359.16
447.252	15288.94
447.459	15235.69
447.665	14977.65
447.871	15809.12
448.078	16429.66
448.284	15800.93
448.491	16310.88
448.697	16876.12
448.903	17324.62
449.11	17300.05
449.316	16982.61
449.522	17154.64
449.728	17527.37
449.935	18055.75
450.141	17779.27
450.347	18434.62
450.553	17656.39
450.76	18227.78
450.966	18629.18
451.172	18252.35
451.378	19006
451.584	18723.38
451.791	19194.42
451.997	19114.55
452.203	19092.02
452.409	19212.85
452.615	19151.41
452.821	18606.65
453.027	18571.83
453.233	19374.64
453.44	18487.87
453.646	18721.34
453.852	18864.69
454.058	19413.55
454.264	18776.63
454.47	19313.2
454.676	18790.97
454.882	19274.29
455.088	17625.67
455.294	18004.55
455.5	18434.62
455.705	18461.24
455.911	17697.35
456.117	17373.77
456.323	16982.61
456.529	16231.01
456.735	17015.38
456.941	16679.51
457.147	16181.85
457.352	15663.72
457.558	15592.04
457.764	15604.33
457.97	15272.56
458.176	14727.8
458.381	14707.32
458.587	14453.37
458.793	14219.9
458.999	13427.34
459.204	14469.75
459.41	14043.78
459.616	13290.12
459.821	13193.87
460.027	13185.68
460.233	12954.26
460.438	12233.37
460.644	12268.19
460.85	11844.26
461.055	11537.06
461.261	11637.41
461.466	10760.88
461.672	10414.77
461.878	11139.76
462.083	10705.59
462.289	10263.22
462.494	10324.66
462.7	9685.7
462.905	9294.54
463.111	9697.99
463.316	9675.46
463.522	9605.83
463.727	9544.39
463.932	9695.94
464.138	9409.22
464.343	9538.24
464.549	9394.89
464.754	9503.43
464.959	9390.79
465.165	9413.32
465.37	8848.08
465.575	8854.22
465.781	8874.7
465.986	9077.45
466.191	8737.49
466.397	8549.07
466.602	8366.81
466.807	8465.11
467.012	8651.47
467.218	8495.83
467.423	8211.16
467.628	8583.89
467.833	8647.38
468.038	8379.09
468.244	8284.89
468.449	8264.41
468.654	8354.52
468.859	8188.63
469.064	8280.79
469.269	7789.28
469.474	8182.49
469.679	8004.32
469.885	7910.11
470.09	7887.58
