Data from USB4F104151__48__13-11-15-880.txt Node

Date: Fri Mar 14 13:11:15 EDT 2025
User: louis
Spectrometer: USB4F10415
Trigger mode: 4
Integration Time (sec): 2.000000E-2
Scans to average: 1
Electric dark correction enabled: true
Nonlinearity correction enabled: false
Boxcar width: 0
XAxis mode: Wavelengths
Number of Pixels in Spectrum: 3648
>>>>>Begin Spectral Data<<<<<
178.204	-37.03
178.424	-37.03
178.644	-37.03
178.864	-75.95
179.084	-100.52
179.304	-6.31
179.524	48.98
179.744	-41.13
179.964	-22.7
180.184	59.22
180.404	22.36
180.624	-41.13
180.844	-24.75
181.064	-16.55
181.283	-6.31
181.503	1.88
181.723	26.45
181.943	-86.19
182.163	67.41
182.383	-16.55
182.602	22.36
182.822	38.74
183.042	-6.31
183.262	-10.41
183.482	-14.51
183.701	38.74
183.921	-30.89
184.141	-8.36
184.361	46.93
184.58	-6.31
184.8	46.93
185.02	-2.22
185.239	14.17
185.459	14.17
185.679	-0.17
185.898	-63.66
186.118	46.93
186.338	-2.22
186.557	16.21
186.777	53.08
186.997	14.17
187.216	42.84
187.436	89.94
187.655	30.55
187.875	51.03
188.095	46.93
188.314	-8.36
188.534	42.84
188.753	-0.17
188.973	18.26
189.192	-8.36
189.412	22.36
189.631	77.65
189.851	10.07
190.07	59.22
190.29	-16.55
190.509	46.93
190.729	-18.6
190.948	71.51
191.168	81.75
191.387	20.31
191.607	-45.23
191.826	40.79
192.045	-6.31
192.265	34.64
192.484	-0.17
192.704	-8.36
192.923	-4.27
193.142	67.41
193.362	18.26
193.581	24.4
193.8	53.08
194.02	81.75
194.239	30.55
194.458	57.17
194.678	28.5
194.897	87.89
195.116	24.4
195.335	38.74
195.555	79.7
195.774	5.97
195.993	79.7
196.212	-26.79
196.432	57.17
196.651	14.17
196.87	-8.36
197.089	85.84
197.308	46.93
197.528	24.4
197.747	-63.66
197.966	75.6
198.185	81.75
198.404	-45.23
198.623	120.66
198.842	-41.13
199.062	55.12
199.281	36.69
199.5	-12.46
199.719	73.56
199.938	-14.51
200.157	24.4
200.376	71.51
200.595	-2.22
200.814	-34.99
201.033	26.45
201.252	79.7
201.471	5.97
201.69	63.32
201.909	24.4
202.128	10.07
202.347	46.93
202.566	38.74
202.785	-10.41
203.004	-6.31
203.223	53.08
203.442	57.17
203.661	-22.7
203.879	8.02
204.098	1.88
204.317	1.88
204.536	120.66
204.755	20.31
204.974	-8.36
205.193	5.97
205.411	48.98
205.63	-2.22
205.849	59.22
206.068	-8.36
206.287	55.12
206.505	-4.27
206.724	-53.42
206.943	30.55
207.162	81.75
207.381	34.64
207.599	75.6
207.818	-14.51
208.037	16.21
208.255	-20.65
208.474	-6.31
208.693	51.03
208.911	3.93
209.13	77.65
209.349	-26.79
209.567	24.4
209.786	91.99
210.005	73.56
210.223	34.64
210.442	-39.08
210.661	79.7
210.879	36.69
211.098	-0.17
211.316	20.31
211.535	-0.17
211.753	71.51
211.972	65.36
212.191	32.6
212.409	-28.84
212.628	-10.41
212.846	-43.18
213.065	34.64
213.283	8.02
213.502	46.93
213.72	14.17
213.938	36.69
214.157	5.97
214.375	63.32
214.594	-51.37
214.812	8.02
215.031	34.64
215.249	12.12
215.467	51.03
215.686	67.41
215.904	30.55
216.122	-26.79
216.341	85.84
216.559	40.79
216.778	32.6
216.996	26.45
217.214	1.88
217.432	20.31
217.651	14.17
217.869	14.17
218.087	22.36
218.306	57.17
218.524	38.74
218.742	38.74
218.96	16.21
219.179	14.17
219.397	87.89
219.615	14.17
219.833	1.88
220.051	-20.65
220.27	98.13
220.488	-51.37
220.706	40.79
220.924	89.94
221.142	-8.36
221.36	-4.27
221.578	-10.41
221.796	-0.17
222.015	46.93
222.233	46.93
222.451	8.02
222.669	34.64
222.887	71.51
223.105	-16.55
223.323	16.21
223.541	-14.51
223.759	18.26
223.977	69.46
224.195	-37.03
224.413	18.26
224.631	114.52
224.849	16.21
225.067	89.94
225.285	-8.36
225.503	24.4
225.721	-10.41
225.939	26.45
226.157	1.88
226.375	42.84
226.592	-63.66
226.81	-20.65
227.028	55.12
227.246	32.6
227.464	-18.6
227.682	42.84
227.9	36.69
228.117	108.37
228.335	48.98
228.553	22.36
228.771	-10.41
228.989	16.21
229.206	89.94
229.424	63.32
229.642	-10.41
229.86	-18.6
230.077	16.21
230.295	67.41
230.513	63.32
230.731	16.21
230.948	20.31
231.166	91.99
231.384	40.79
231.601	34.64
231.819	79.7
232.037	-22.7
232.254	18.26
232.472	-22.7
232.689	5.97
232.907	-24.75
233.125	-14.51
233.342	22.36
233.56	10.07
233.777	-18.6
233.995	75.6
234.213	81.75
234.43	81.75
234.648	-24.75
234.865	24.4
235.083	38.74
235.3	20.31
235.518	-16.55
235.735	32.6
235.953	-0.17
236.17	30.55
236.388	-16.55
236.605	55.12
236.822	18.26
237.04	55.12
237.257	81.75
237.475	-0.17
237.692	79.7
237.909	67.41
238.127	100.18
238.344	85.84
238.562	79.7
238.779	3.93
238.996	18.26
239.214	40.79
239.431	57.17
239.648	10.07
239.865	44.88
240.083	110.42
240.3	-14.51
240.517	-10.41
240.735	14.17
240.952	42.84
241.169	73.56
241.386	-24.75
241.603	5.97
241.821	-28.84
242.038	44.88
242.255	83.8
242.472	-4.27
242.689	59.22
242.907	32.6
243.124	51.03
243.341	40.79
243.558	10.07
243.775	18.26
243.992	24.4
244.209	42.84
244.426	87.89
244.643	71.51
244.86	-59.56
245.078	-16.55
245.295	83.8
245.512	71.51
245.729	-6.31
245.946	26.45
246.163	38.74
246.38	14.17
246.597	73.56
246.814	18.26
247.031	-10.41
247.248	51.03
247.464	63.32
247.681	22.36
247.898	20.31
248.115	10.07
248.332	38.74
248.549	63.32
248.766	8.02
248.983	91.99
249.2	55.12
249.417	22.36
249.633	10.07
249.85	-8.36
250.067	-8.36
250.284	8.02
250.501	-28.84
250.717	69.46
250.934	-32.94
251.151	79.7
251.368	-8.36
251.585	87.89
251.801	14.17
252.018	-0.17
252.235	24.4
252.451	16.21
252.668	10.07
252.885	87.89
253.102	67.41
253.318	48.98
253.535	-55.47
253.752	77.65
253.968	-18.6
254.185	-20.65
254.401	5.97
254.618	-14.51
254.835	-18.6
255.051	75.6
255.268	87.89
255.484	83.8
255.701	38.74
255.917	5.97
256.134	51.03
256.351	12.12
256.567	-30.89
256.784	-12.46
257	12.12
257.217	42.84
257.433	55.12
257.65	22.36
257.866	51.03
258.082	48.98
258.299	5.97
258.515	28.5
258.732	71.51
258.948	57.17
259.165	65.36
259.381	63.32
259.597	-26.79
259.814	30.55
260.03	-43.18
260.246	57.17
260.463	36.69
260.679	94.04
260.895	12.12
261.112	24.4
261.328	26.45
261.544	3.93
261.761	26.45
261.977	34.64
262.193	42.84
262.409	42.84
262.626	-2.22
262.842	-10.41
263.058	1.88
263.274	67.41
263.49	22.36
263.707	77.65
263.923	-10.41
264.139	18.26
264.355	-0.17
264.571	20.31
264.787	26.45
265.004	32.6
265.22	3.93
265.436	22.36
265.652	48.98
265.868	38.74
266.084	-43.18
266.3	14.17
266.516	51.03
266.732	69.46
266.948	-6.31
267.164	26.45
267.38	59.22
267.596	-47.27
267.812	51.03
268.028	-18.6
268.244	38.74
268.46	61.27
268.676	-51.37
268.892	100.18
269.108	-59.56
269.324	-22.7
269.54	-12.46
269.756	32.6
269.972	-12.46
270.188	91.99
270.403	1.88
270.619	38.74
270.835	8.02
271.051	65.36
271.267	24.4
271.483	71.51
271.698	85.84
271.914	-0.17
272.13	-34.99
272.346	30.55
272.562	22.36
272.777	79.7
272.993	83.8
273.209	96.08
273.425	96.08
273.64	40.79
273.856	22.36
274.072	10.07
274.287	-41.13
274.503	-8.36
274.719	-34.99
274.934	18.26
275.15	61.27
275.366	-14.51
275.581	-84.14
275.797	94.04
276.012	26.45
276.228	79.7
276.444	46.93
276.659	38.74
276.875	42.84
277.09	63.32
277.306	16.21
277.521	30.55
277.737	67.41
277.952	5.97
278.168	-26.79
278.383	30.55
278.599	3.93
278.814	87.89
279.03	-10.41
279.245	10.07
279.461	69.46
279.676	75.6
279.892	-67.75
280.107	-28.84
280.322	98.13
280.538	16.21
280.753	-20.65
280.969	26.45
281.184	5.97
281.399	48.98
281.615	14.17
281.83	71.51
282.045	5.97
282.26	-0.17
282.476	18.26
282.691	83.8
282.906	34.64
283.122	48.98
283.337	75.6
283.552	14.17
283.767	102.23
283.983	87.89
284.198	28.5
284.413	53.08
284.628	26.45
284.843	40.79
285.058	63.32
285.274	75.6
285.489	40.79
285.704	120.66
285.919	-43.18
286.134	-8.36
286.349	36.69
286.564	53.08
286.779	63.32
286.995	20.31
287.21	42.84
287.425	112.47
287.64	-18.6
287.855	30.55
288.07	-47.27
288.285	59.22
288.5	73.56
288.715	38.74
288.93	-20.65
289.145	59.22
289.36	69.46
289.575	18.26
289.79	55.12
290.004	51.03
290.219	-22.7
290.434	-14.51
290.649	112.47
290.864	20.31
291.079	8.02
291.294	38.74
291.509	63.32
291.724	3.93
291.938	30.55
292.153	20.31
292.368	-6.31
292.583	98.13
292.798	87.89
293.012	-0.17
293.227	-2.22
293.442	65.36
293.657	16.21
293.871	139.09
294.086	77.65
294.301	-6.31
294.516	22.36
294.73	-12.46
294.945	26.45
295.16	65.36
295.374	30.55
295.589	79.7
295.804	5.97
296.018	-0.17
296.233	48.98
296.447	34.64
296.662	38.74
296.877	149.33
297.091	32.6
297.306	104.28
297.52	5.97
297.735	53.08
297.949	42.84
298.164	38.74
298.378	-14.51
298.593	8.02
298.807	53.08
299.022	71.51
299.236	-43.18
299.451	-12.46
299.665	30.55
299.88	-37.03
300.094	28.5
300.309	32.6
300.523	38.74
300.737	-10.41
300.952	44.88
301.166	26.45
301.381	51.03
301.595	98.13
301.809	32.6
302.024	34.64
302.238	55.12
302.452	22.36
302.667	-8.36
302.881	75.6
303.095	57.17
303.309	112.47
303.524	5.97
303.738	18.26
303.952	-18.6
304.166	42.84
304.381	24.4
304.595	67.41
304.809	75.6
305.023	128.85
305.237	67.41
305.452	81.75
305.666	34.64
305.88	55.12
306.094	-2.22
306.308	46.93
306.522	40.79
306.736	16.21
306.95	67.41
307.164	63.32
307.379	14.17
307.593	30.55
307.807	38.74
308.021	63.32
308.235	32.6
308.449	-0.17
308.663	34.64
308.877	81.75
309.091	22.36
309.305	57.17
309.519	-2.22
309.733	40.79
309.947	-16.55
310.161	59.22
310.374	-18.6
310.588	48.98
310.802	-16.55
311.016	38.74
311.23	44.88
311.444	16.21
311.658	55.12
311.872	79.7
312.085	87.89
312.299	130.9
312.513	51.03
312.727	-41.13
312.941	-18.6
313.154	75.6
313.368	24.4
313.582	53.08
313.796	38.74
314.009	100.18
314.223	48.98
314.437	-4.27
314.651	51.03
314.864	30.55
315.078	42.84
315.292	1.88
315.505	3.93
315.719	26.45
315.933	53.08
316.146	-8.36
316.36	28.5
316.573	73.56
316.787	18.26
317.001	77.65
317.214	40.79
317.428	79.7
317.641	8.02
317.855	59.22
318.068	14.17
318.282	30.55
318.495	51.03
318.709	87.89
318.922	-0.17
319.136	77.65
319.349	16.21
319.563	67.41
319.776	46.93
319.99	-22.7
320.203	34.64
320.417	-71.85
320.63	40.79
320.843	59.22
321.057	1.88
321.27	63.32
321.483	53.08
321.697	42.84
321.91	87.89
322.124	65.36
322.337	65.36
322.55	-10.41
322.763	-10.41
322.977	16.21
323.19	-55.47
323.403	1.88
323.617	36.69
323.83	57.17
324.043	-41.13
324.256	38.74
324.469	48.98
324.683	38.74
324.896	16.21
325.109	-6.31
325.322	-6.31
325.535	-10.41
325.748	36.69
325.962	34.64
326.175	40.79
326.388	96.08
326.601	42.84
326.814	77.65
327.027	132.95
327.24	73.56
327.453	28.5
327.666	51.03
327.879	73.56
328.092	71.51
328.305	114.52
328.518	53.08
328.731	128.85
328.944	20.31
329.157	28.5
329.37	55.12
329.583	69.46
329.796	5.97
330.009	-20.65
330.222	40.79
330.435	-28.84
330.648	40.79
330.861	22.36
331.073	1.88
331.286	87.89
331.499	-2.22
331.712	14.17
331.925	63.32
332.138	91.99
332.35	71.51
332.563	63.32
332.776	81.75
332.989	-41.13
333.202	26.45
333.414	55.12
333.627	-6.31
333.84	-8.36
334.053	81.75
334.265	-26.79
334.478	51.03
334.691	32.6
334.903	94.04
335.116	-14.51
335.329	79.7
335.541	65.36
335.754	12.12
335.966	3.93
336.179	63.32
336.392	55.12
336.604	-2.22
336.817	30.55
337.029	87.89
337.242	34.64
337.454	46.93
337.667	51.03
337.88	112.47
338.092	-6.31
338.305	32.6
338.517	8.02
338.729	44.88
338.942	87.89
339.154	69.46
339.367	-8.36
339.579	51.03
339.792	-2.22
340.004	-12.46
340.217	-41.13
340.429	51.03
340.641	55.12
340.854	24.4
341.066	38.74
341.278	34.64
341.491	85.84
341.703	87.89
341.915	-51.37
342.128	71.51
342.34	12.12
342.552	34.64
342.764	-2.22
342.977	-53.42
343.189	87.89
343.401	40.79
343.613	40.79
343.826	67.41
344.038	61.27
344.25	38.74
344.462	5.97
344.674	-18.6
344.886	-0.17
345.099	24.4
345.311	34.64
345.523	42.84
345.735	-10.41
345.947	79.7
346.159	51.03
346.371	5.97
346.583	18.26
346.795	63.32
347.007	-2.22
347.219	38.74
347.431	-22.7
347.643	40.79
347.855	38.74
348.067	46.93
348.279	14.17
348.491	71.51
348.703	8.02
348.915	22.36
349.127	-14.51
349.339	42.84
349.551	40.79
349.763	61.27
349.975	-14.51
350.187	36.69
350.399	51.03
350.61	30.55
350.822	5.97
351.034	38.74
351.246	85.84
351.458	44.88
351.669	79.7
351.881	106.32
352.093	10.07
352.305	71.51
352.517	44.88
352.728	67.41
352.94	22.36
353.152	20.31
353.363	30.55
353.575	5.97
353.787	75.6
353.999	-41.13
354.21	51.03
354.422	79.7
354.633	28.5
354.845	1.88
355.057	44.88
355.268	110.42
355.48	81.75
355.692	-18.6
355.903	30.55
356.115	5.97
356.326	22.36
356.538	42.84
356.749	5.97
356.961	71.51
357.172	10.07
357.384	38.74
357.595	100.18
357.807	-28.84
358.018	73.56
358.23	46.93
358.441	71.51
358.653	73.56
358.864	32.6
359.075	20.31
359.287	28.5
359.498	79.7
359.709	30.55
359.921	46.93
360.132	83.8
360.344	10.07
360.555	18.26
360.766	40.79
360.977	-24.75
361.189	55.12
361.4	-16.55
361.611	155.47
361.823	114.52
362.034	73.56
362.245	5.97
362.456	38.74
362.667	46.93
362.879	65.36
363.09	38.74
363.301	20.31
363.512	46.93
363.723	32.6
363.935	53.08
364.146	22.36
364.357	16.21
364.568	30.55
364.779	44.88
364.99	87.89
365.201	61.27
365.412	104.28
365.623	14.17
365.834	77.65
366.045	22.36
366.256	42.84
366.467	26.45
366.678	100.18
366.889	-30.89
367.1	112.47
367.311	57.17
367.522	59.22
367.733	18.26
367.944	104.28
368.155	57.17
368.366	-4.27
368.577	55.12
368.788	135
368.999	48.98
369.209	63.32
369.42	61.27
369.631	40.79
369.842	126.8
370.053	-16.55
370.264	190.29
370.474	48.98
370.685	89.94
370.896	67.41
371.107	69.46
371.317	55.12
371.528	-24.75
371.739	38.74
371.95	30.55
372.16	32.6
372.371	-26.79
372.582	10.07
372.792	-20.65
373.003	73.56
373.214	89.94
373.424	48.98
373.635	-10.41
373.846	91.99
374.056	-4.27
374.267	102.23
374.477	48.98
374.688	120.66
374.898	-34.99
375.109	34.64
375.319	96.08
375.53	106.32
375.74	-18.6
375.951	44.88
376.161	12.12
376.372	83.8
376.582	69.46
376.793	36.69
377.003	51.03
377.214	73.56
377.424	34.64
377.635	63.32
377.845	73.56
378.055	53.08
378.266	65.36
378.476	16.21
378.686	116.56
378.897	81.75
379.107	143.19
379.317	46.93
379.528	98.13
379.738	38.74
379.948	40.79
380.158	61.27
380.369	69.46
380.579	75.6
380.789	106.32
380.999	57.17
381.21	65.36
381.42	65.36
381.63	1.88
381.84	85.84
382.05	100.18
382.261	128.85
382.471	161.62
382.681	89.94
382.891	30.55
383.101	-2.22
383.311	67.41
383.521	-0.17
383.731	63.32
383.941	87.89
384.151	-10.41
384.361	30.55
384.571	51.03
384.781	46.93
384.991	42.84
385.201	42.84
385.411	53.08
385.621	79.7
385.831	1.88
386.041	22.36
386.251	44.88
386.461	65.36
386.671	-26.79
386.881	32.6
387.091	46.93
387.301	34.64
387.511	38.74
387.72	51.03
387.93	102.23
388.14	40.79
388.35	-4.27
388.56	51.03
388.769	128.85
388.979	14.17
389.189	32.6
389.399	-22.7
389.609	100.18
389.818	73.56
390.028	24.4
390.238	42.84
390.447	46.93
390.657	-2.22
390.867	-0.17
391.076	3.93
391.286	5.97
391.496	77.65
391.705	-0.17
391.915	51.03
392.125	-14.51
392.334	96.08
392.544	85.84
392.753	98.13
392.963	3.93
393.172	98.13
393.382	104.28
393.591	114.52
393.801	91.99
394.01	65.36
394.22	59.22
394.429	55.12
394.639	36.69
394.848	83.8
395.058	71.51
395.267	106.32
395.477	108.37
395.686	112.47
395.895	96.08
396.105	100.18
396.314	44.88
396.524	57.17
396.733	71.51
396.942	79.7
397.152	108.37
397.361	38.74
397.57	59.22
397.78	67.41
397.989	155.47
398.198	200.53
398.407	122.71
398.617	112.47
398.826	73.56
399.035	59.22
399.244	32.6
399.453	5.97
399.663	94.04
399.872	128.85
400.081	89.94
400.29	128.85
400.499	55.12
400.708	171.86
400.917	89.94
401.127	51.03
401.336	112.47
401.545	128.85
401.754	173.91
401.963	94.04
402.172	91.99
402.381	91.99
402.59	89.94
402.799	94.04
403.008	130.9
403.217	71.51
403.426	91.99
403.635	122.71
403.844	104.28
404.053	34.64
404.262	63.32
404.471	122.71
404.68	165.71
404.888	94.04
405.097	81.75
405.306	161.62
405.515	147.28
405.724	112.47
405.933	218.96
406.142	147.28
406.35	141.14
406.559	192.34
406.768	122.71
406.977	204.63
407.185	132.95
407.394	167.76
407.603	167.76
407.812	229.2
408.02	221.01
408.229	255.83
408.438	155.47
408.646	137.04
408.855	221.01
409.064	264.02
409.272	237.39
409.481	227.15
409.69	186.19
409.898	169.81
410.107	245.59
410.315	268.11
410.524	259.92
410.733	216.91
410.941	280.4
411.15	304.98
411.358	276.31
411.567	374.61
411.775	325.46
411.984	313.17
412.192	374.61
412.401	302.93
412.609	384.85
412.818	386.9
413.026	384.85
413.234	333.65
413.443	350.03
413.651	309.07
413.86	436.05
414.068	442.19
414.276	462.67
414.485	466.77
414.693	477.01
414.901	524.11
415.11	509.77
415.318	565.07
415.526	552.78
415.734	544.59
415.943	520.01
416.151	560.97
416.359	655.18
416.567	558.92
416.776	651.08
416.984	677.71
417.192	782.15
417.4	689.99
417.608	751.43
417.817	761.67
418.025	755.53
418.233	847.69
418.441	853.83
418.649	890.7
418.857	974.66
419.065	1054.53
419.273	948.04
419.481	1072.96
419.689	1111.88
419.897	1113.92
420.105	1195.84
420.313	1148.74
420.521	1226.56
420.729	1253.19
420.937	1279.81
421.145	1275.71
421.353	1404.74
421.561	1445.7
421.769	1529.66
421.977	1546.05
422.185	1521.47
422.393	1640.25
422.601	1734.46
422.809	1767.23
423.017	1716.03
423.224	1759.03
423.432	1808.19
423.64	1840.95
423.848	2080.57
424.056	1937.21
424.263	2127.67
424.471	2254.64
424.679	2209.59
424.887	2283.31
425.094	2320.18
425.302	2359.09
425.51	2522.93
425.718	2541.36
425.925	2481.97
426.133	2756.4
426.341	2723.63
426.548	3014.44
426.756	3077.93
426.964	3129.13
427.171	3067.69
427.379	3190.56
427.586	3333.92
427.794	3307.3
428.001	3610.4
428.209	3772.19
428.417	3651.36
428.624	3989.27
428.832	3870.49
429.039	3956.5
429.247	3870.49
429.454	4230.93
429.662	4509.46
429.869	4128.53
430.076	4634.38
430.284	4364.05
430.491	4642.57
430.699	4927.24
430.906	4859.66
431.114	4828.94
431.321	5230.34
431.528	5261.06
431.736	5537.54
431.943	5871.36
432.15	5648.13
432.358	5695.23
432.565	6223.61
432.772	6059.77
432.979	6301.43
433.187	6430.45
433.394	6649.58
433.601	6821.61
433.808	7055.08
434.016	7175.91
434.223	7263.97
434.43	7573.22
434.637	7542.5
434.844	7945.95
435.052	8224.47
435.259	8046.3
435.466	8099.55
435.673	8208.09
435.88	8677.07
436.087	8918.73
436.294	9178.83
436.501	8890.06
436.708	9131.72
436.915	9275.08
437.122	9696.96
437.329	9676.48
437.537	9995.96
437.743	10303.16
437.95	10049.21
438.157	10614.45
438.364	10888.88
438.571	10901.17
438.778	11142.83
438.985	12045.98
439.192	11652.77
439.399	12041.89
439.606	11863.71
439.813	12596.89
440.02	13385.35
440.227	13020.81
440.433	12803.73
440.64	13366.92
440.847	13141.64
441.054	13512.33
441.261	14263.93
441.467	14075.52
441.674	14454.39
441.881	15074.93
442.088	14925.43
442.294	14855.79
442.501	15494.76
442.708	15627.88
442.914	16350.81
443.121	16850.52
443.328	16408.15
443.534	17739.33
443.741	17110.61
443.948	16696.92
444.154	18159.17
444.361	18132.54
444.568	18617.91
444.774	17954.37
444.981	18552.38
445.187	19041.84
445.394	19727.91
445.6	19535.4
445.807	21325.33
446.013	20481.56
446.22	21116.44
446.426	21511.69
446.633	21921.29
446.839	22736.38
447.046	21884.42
447.252	22699.51
447.459	23051.77
447.665	22806.01
447.871	23920.1
448.078	24937.94
448.284	24038.89
448.491	24143.33
448.697	25306.58
448.903	26267.08
449.11	25712.08
449.316	25597.39
449.522	26041.8
449.728	26707.39
449.935	27143.61
450.141	26881.47
450.347	27993.51
450.553	27121.08
450.76	27176.37
450.966	27833.77
451.172	27811.24
451.378	28591.52
451.584	28009.9
451.791	28802.46
451.997	28429.73
452.203	29160.86
452.409	29134.23
452.615	29103.51
452.821	28124.58
453.027	27731.37
453.233	29107.61
453.44	28054.95
453.646	28245.41
453.852	28351.91
454.058	29167
454.264	27905.45
454.47	28945.82
454.676	27813.29
454.882	28972.44
455.088	26592.7
455.294	26953.15
455.5	27438.51
455.705	27766.19
455.911	26469.83
456.117	26187.21
456.323	25800.14
456.529	24337.89
456.735	25794
456.941	25107.93
457.147	24573.41
457.352	23866.86
457.558	23569.9
457.764	23422.45
457.97	22953.46
458.176	22814.2
458.381	22531.58
458.587	21624.33
458.793	21638.67
458.999	20184.61
459.204	21995.01
459.41	21091.86
459.616	19863.08
459.821	19998.24
460.027	20229.66
460.233	19211.82
460.438	18400.83
460.644	18832.95
460.85	17997.38
461.055	17579.59
461.261	17497.67
461.466	16279.13
461.672	15717.99
461.878	16883.28
462.083	15791.72
462.289	15433.32
462.494	15171.18
462.7	14558.84
462.905	13969.02
463.111	14741.11
463.316	14921.33
463.522	14481.02
463.727	14378.62
463.932	14388.86
464.138	14440.06
464.343	14220.92
464.549	13672.07
464.754	14339.71
464.959	14134.91
465.165	14139.01
465.37	13514.38
465.575	13153.93
465.781	13706.88
465.986	13821.57
466.191	13127.31
466.397	13016.72
466.602	12359.32
466.807	12897.94
467.012	12856.98
467.218	12752.53
467.423	12517.01
467.628	12844.69
467.833	13270.67
