Data from USB4F104151__22__13-10-39-306.txt Node

Date: Fri Mar 14 13:10:39 EDT 2025
User: louis
Spectrometer: USB4F10415
Trigger mode: 4
Integration Time (sec): 2.000000E-2
Scans to average: 1
Electric dark correction enabled: true
Nonlinearity correction enabled: false
Boxcar width: 0
XAxis mode: Wavelengths
Number of Pixels in Spectrum: 3648
>>>>>Begin Spectral Data<<<<<
178.204	-52.39
178.424	-52.39
178.644	-52.39
178.864	-89.26
179.084	-103.59
179.304	-46.25
179.524	4.95
179.744	0.85
179.964	-9.39
180.184	19.29
180.404	4.95
180.624	19.29
180.844	-17.58
181.064	-13.48
181.283	-5.29
181.503	23.38
181.723	19.29
181.943	-7.34
182.163	-5.29
182.383	2.9
182.602	-38.06
182.822	35.67
183.042	76.63
183.262	11.09
183.482	29.52
183.701	-9.39
183.921	7
184.141	41.81
184.361	-17.58
184.58	27.48
184.8	47.96
185.02	29.52
185.239	29.52
185.459	-1.19
185.679	50
185.898	-52.39
186.118	68.44
186.338	-56.49
186.557	21.33
186.777	-54.44
186.997	88.92
187.216	15.19
187.436	82.77
187.655	103.25
187.875	56.15
188.095	88.92
188.314	2.9
188.534	95.06
188.753	-13.48
188.973	101.2
189.192	64.34
189.412	-36.01
189.631	70.48
189.851	-7.34
190.07	95.06
190.29	-9.39
190.509	27.48
190.729	2.9
190.948	31.57
191.168	222.03
191.387	9.05
191.607	33.62
191.826	11.09
192.045	74.58
192.265	15.19
192.484	47.96
192.704	64.34
192.923	35.67
193.142	86.87
193.362	43.86
193.581	31.57
193.8	21.33
194.02	27.48
194.239	13.14
194.458	50
194.678	-5.29
194.897	82.77
195.116	15.19
195.335	25.43
195.555	-11.43
195.774	60.24
195.993	60.24
196.212	82.77
196.432	64.34
196.651	31.57
196.87	37.72
197.089	35.67
197.308	-62.63
197.528	2.9
197.747	-1.19
197.966	29.52
198.185	101.2
198.404	-9.39
198.623	15.19
198.842	37.72
199.062	101.2
199.281	41.81
199.5	109.4
199.719	25.43
199.938	23.38
200.157	0.85
200.376	21.33
200.595	93.01
200.814	62.29
201.033	50
201.252	68.44
201.471	-1.19
201.69	-3.24
201.909	84.82
202.128	9.05
202.347	76.63
202.566	27.48
202.785	29.52
203.004	-11.43
203.223	107.35
203.442	68.44
203.661	39.76
203.879	-13.48
204.098	80.72
204.317	-9.39
204.536	72.53
204.755	-79.02
204.974	72.53
205.193	-13.48
205.411	107.35
205.63	117.59
205.849	74.58
206.068	54.1
206.287	2.9
206.505	76.63
206.724	43.86
206.943	-1.19
207.162	56.15
207.381	19.29
207.599	56.15
207.818	-17.58
208.037	52.05
208.255	23.38
208.474	17.24
208.693	7
208.911	62.29
209.13	45.91
209.349	27.48
209.567	39.76
209.786	68.44
210.005	11.09
210.223	17.24
210.442	9.05
210.661	70.48
210.879	-15.53
211.098	62.29
211.316	64.34
211.535	23.38
211.753	-15.53
211.972	17.24
212.191	50
212.409	-7.34
212.628	50
212.846	39.76
213.065	37.72
213.283	52.05
213.502	105.3
213.72	72.53
213.938	43.86
214.157	-25.77
214.375	-29.87
214.594	68.44
214.812	111.44
215.031	0.85
215.249	68.44
215.467	54.1
215.686	-9.39
215.904	9.05
216.122	58.2
216.341	54.1
216.559	76.63
216.778	136.02
216.996	84.82
217.214	95.06
217.432	-9.39
217.651	43.86
217.869	50
218.087	25.43
218.306	-15.53
218.524	17.24
218.742	45.91
218.96	29.52
219.179	99.16
219.397	37.72
219.615	103.25
219.833	50
220.051	7
220.27	68.44
220.488	29.52
220.706	72.53
220.924	13.14
221.142	15.19
221.36	4.95
221.578	-3.24
221.796	-5.29
222.015	68.44
222.233	64.34
222.451	58.2
222.669	37.72
222.887	21.33
223.105	54.1
223.323	-13.48
223.541	82.77
223.759	101.2
223.977	7
224.195	-25.77
224.413	21.33
224.631	43.86
224.849	27.48
225.067	58.2
225.285	109.4
225.503	2.9
225.721	-3.24
225.939	52.05
226.157	-9.39
226.375	90.96
226.592	-60.59
226.81	50
227.028	146.26
227.246	54.1
227.464	31.57
227.682	72.53
227.9	35.67
228.117	93.01
228.335	86.87
228.553	68.44
228.771	84.82
228.989	27.48
229.206	101.2
229.424	11.09
229.642	-3.24
229.86	58.2
230.077	41.81
230.295	23.38
230.513	-15.53
230.731	41.81
230.948	29.52
231.166	103.25
231.384	13.14
231.601	-13.48
231.819	123.73
232.037	43.86
232.254	-15.53
232.472	43.86
232.689	31.57
232.907	43.86
233.125	43.86
233.342	-23.72
233.56	-56.49
233.777	29.52
233.995	-46.25
234.213	97.11
234.43	45.91
234.648	27.48
234.865	74.58
235.083	-36.01
235.3	-23.72
235.518	80.72
235.735	125.78
235.953	95.06
236.17	31.57
236.388	-25.77
236.605	54.1
236.822	60.24
237.04	33.62
237.257	7
237.475	45.91
237.692	4.95
237.909	17.24
238.127	31.57
238.344	58.2
238.562	23.38
238.779	19.29
238.996	-21.67
239.214	54.1
239.431	45.91
239.648	-13.48
239.865	35.67
240.083	99.16
240.3	-7.34
240.517	54.1
240.735	60.24
240.952	101.2
241.169	43.86
241.386	45.91
241.603	-7.34
241.821	60.24
242.038	52.05
242.255	50
242.472	4.95
242.689	62.29
242.907	170.83
243.124	39.76
243.341	62.29
243.558	43.86
243.775	62.29
243.992	-1.19
244.209	-19.63
244.426	43.86
244.643	52.05
244.86	-25.77
245.078	17.24
245.295	74.58
245.512	13.14
245.729	-68.78
245.946	54.1
246.163	-5.29
246.38	-5.29
246.597	56.15
246.814	72.53
247.031	-23.72
247.248	78.68
247.464	47.96
247.681	60.24
247.898	-5.29
248.115	-3.24
248.332	21.33
248.549	-29.87
248.766	86.87
248.983	62.29
249.2	21.33
249.417	70.48
249.633	-50.35
249.85	125.78
250.067	39.76
250.284	207.7
250.501	47.96
250.717	58.2
250.934	-21.67
251.151	76.63
251.368	168.79
251.585	78.68
251.801	-13.48
252.018	-19.63
252.235	52.05
252.451	72.53
252.668	43.86
252.885	-19.63
253.102	138.07
253.318	17.24
253.535	144.21
253.752	4.95
253.968	52.05
254.185	47.96
254.401	19.29
254.618	62.29
254.835	72.53
255.051	88.92
255.268	27.48
255.484	47.96
255.701	119.64
255.917	52.05
256.134	64.34
256.351	52.05
256.567	19.29
256.784	86.87
257	62.29
257.217	93.01
257.433	93.01
257.65	37.72
257.866	99.16
258.082	23.38
258.299	2.9
258.515	125.78
258.732	66.39
258.948	11.09
259.165	23.38
259.381	86.87
259.597	76.63
259.814	21.33
260.03	-7.34
260.246	11.09
260.463	27.48
260.679	76.63
260.895	19.29
261.112	50
261.328	39.76
261.544	56.15
261.761	21.33
261.977	29.52
262.193	78.68
262.409	-1.19
262.626	-38.06
262.842	93.01
263.058	-15.53
263.274	86.87
263.49	66.39
263.707	11.09
263.923	60.24
264.139	31.57
264.355	0.85
264.571	101.2
264.787	37.72
265.004	93.01
265.22	54.1
265.436	64.34
265.652	15.19
265.868	95.06
266.084	-21.67
266.3	47.96
266.516	62.29
266.732	70.48
266.948	60.24
267.164	-38.06
267.38	-15.53
267.596	56.15
267.812	97.11
268.028	37.72
268.244	39.76
268.46	-68.78
268.676	9.05
268.892	-1.19
269.108	9.05
269.324	58.2
269.54	0.85
269.756	35.67
269.972	11.09
270.188	78.68
270.403	97.11
270.619	76.63
270.835	68.44
271.051	58.2
271.267	29.52
271.483	80.72
271.698	70.48
271.914	84.82
272.13	39.76
272.346	0.85
272.562	9.05
272.777	-21.67
272.993	37.72
273.209	56.15
273.425	95.06
273.64	0.85
273.856	115.54
274.072	13.14
274.287	-38.06
274.503	45.91
274.719	17.24
274.934	58.2
275.15	-44.2
275.366	37.72
275.581	66.39
275.797	68.44
276.012	13.14
276.228	29.52
276.444	11.09
276.659	82.77
276.875	-5.29
277.09	11.09
277.306	11.09
277.521	74.58
277.737	35.67
277.952	93.01
278.168	52.05
278.383	86.87
278.599	-27.82
278.814	37.72
279.03	27.48
279.245	68.44
279.461	17.24
279.676	27.48
279.892	0.85
280.107	68.44
280.322	-38.06
280.538	78.68
280.753	35.67
280.969	97.11
281.184	-3.24
281.399	9.05
281.615	52.05
281.83	47.96
282.045	35.67
282.26	35.67
282.476	33.62
282.691	56.15
282.906	19.29
283.122	-3.24
283.337	35.67
283.552	119.64
283.767	27.48
283.983	90.96
284.198	35.67
284.413	29.52
284.628	11.09
284.843	39.76
285.058	99.16
285.274	52.05
285.489	-11.43
285.704	29.52
285.919	76.63
286.134	-15.53
286.349	31.57
286.564	33.62
286.779	56.15
286.995	45.91
287.21	19.29
287.425	125.78
287.64	43.86
287.855	58.2
288.07	-9.39
288.285	43.86
288.5	13.14
288.715	68.44
288.93	11.09
289.145	21.33
289.36	4.95
289.575	84.82
289.79	58.2
290.004	-36.01
290.219	68.44
290.434	33.62
290.649	-19.63
290.864	21.33
291.079	43.86
291.294	86.87
291.509	11.09
291.724	37.72
291.938	-11.43
292.153	95.06
292.368	17.24
292.583	82.77
292.798	-11.43
293.012	52.05
293.227	-13.48
293.442	2.9
293.657	60.24
293.871	29.52
294.086	82.77
294.301	41.81
294.516	47.96
294.73	-33.96
294.945	-5.29
295.16	43.86
295.374	109.4
295.589	47.96
295.804	37.72
296.018	43.86
296.233	54.1
296.447	-1.19
296.662	23.38
296.877	37.72
297.091	-5.29
297.306	52.05
297.52	-19.63
297.735	2.9
297.949	-1.19
298.164	72.53
298.378	84.82
298.593	80.72
298.807	17.24
299.022	45.91
299.236	86.87
299.451	117.59
299.665	35.67
299.88	47.96
300.094	105.3
300.309	2.9
300.523	78.68
300.737	84.82
300.952	29.52
301.166	52.05
301.381	66.39
301.595	76.63
301.809	37.72
302.024	66.39
302.238	39.76
302.452	86.87
302.667	-9.39
302.881	33.62
303.095	82.77
303.309	95.06
303.524	54.1
303.738	72.53
303.952	66.39
304.166	37.72
304.381	11.09
304.595	90.96
304.809	-7.34
305.023	43.86
305.237	43.86
305.452	80.72
305.666	84.82
305.88	107.35
306.094	27.48
306.308	19.29
306.522	76.63
306.736	95.06
306.95	127.83
307.164	70.48
307.379	7
307.593	76.63
307.807	56.15
308.021	35.67
308.235	23.38
308.449	15.19
308.663	-50.35
308.877	142.16
309.091	-50.35
309.305	82.77
309.519	-66.73
309.733	86.87
309.947	74.58
310.161	66.39
310.374	45.91
310.588	52.05
310.802	43.86
311.016	-46.25
311.23	17.24
311.444	11.09
311.658	4.95
311.872	72.53
312.085	50
312.299	88.92
312.513	93.01
312.727	43.86
312.941	54.1
313.154	11.09
313.368	37.72
313.582	62.29
313.796	70.48
314.009	45.91
314.223	119.64
314.437	62.29
314.651	11.09
314.864	50
315.078	7
315.292	31.57
315.505	76.63
315.719	105.3
315.933	7
316.146	54.1
316.36	27.48
316.573	43.86
316.787	37.72
317.001	-9.39
317.214	-27.82
317.428	4.95
317.641	84.82
317.855	33.62
318.068	50
318.282	37.72
318.495	84.82
318.709	62.29
318.922	13.14
319.136	97.11
319.349	78.68
319.563	52.05
319.776	54.1
319.99	11.09
320.203	0.85
320.417	35.67
320.63	-11.43
320.843	76.63
321.057	7
321.27	52.05
321.483	129.88
321.697	9.05
321.91	11.09
322.124	-17.58
322.337	15.19
322.55	64.34
322.763	50
322.977	105.3
323.19	-19.63
323.403	-1.19
323.617	37.72
323.83	70.48
324.043	86.87
324.256	56.15
324.469	-5.29
324.683	64.34
324.896	56.15
325.109	72.53
325.322	23.38
325.535	78.68
325.748	90.96
325.962	-7.34
326.175	23.38
326.388	33.62
326.601	125.78
326.814	-5.29
327.027	52.05
327.24	68.44
327.453	-1.19
327.666	113.49
327.879	45.91
328.092	136.02
328.305	47.96
328.518	-13.48
328.731	-17.58
328.944	62.29
329.157	37.72
329.37	2.9
329.583	97.11
329.796	13.14
330.009	45.91
330.222	95.06
330.435	45.91
330.648	62.29
330.861	50
331.073	4.95
331.286	39.76
331.499	70.48
331.712	-33.96
331.925	43.86
332.138	25.43
332.35	70.48
332.563	95.06
332.776	68.44
332.989	54.1
333.202	52.05
333.414	7
333.627	33.62
333.84	111.44
334.053	125.78
334.265	60.24
334.478	111.44
334.691	45.91
334.903	78.68
335.116	37.72
335.329	72.53
335.541	41.81
335.754	52.05
335.966	7
336.179	35.67
336.392	60.24
336.604	-25.77
336.817	64.34
337.029	52.05
337.242	43.86
337.454	103.25
337.667	4.95
337.88	103.25
338.092	21.33
338.305	43.86
338.517	-5.29
338.729	66.39
338.942	166.74
339.154	-27.82
339.367	-3.24
339.579	27.48
339.792	47.96
340.004	70.48
340.217	-21.67
340.429	50
340.641	25.43
340.854	23.38
341.066	-25.77
341.278	54.1
341.491	31.57
341.703	64.34
341.915	117.59
342.128	27.48
342.34	64.34
342.552	54.1
342.764	29.52
342.977	23.38
343.189	56.15
343.401	52.05
343.613	33.62
343.826	80.72
344.038	47.96
344.25	13.14
344.462	52.05
344.674	37.72
344.886	76.63
345.099	47.96
345.311	43.86
345.523	4.95
345.735	-25.77
345.947	35.67
346.159	78.68
346.371	47.96
346.583	95.06
346.795	72.53
347.007	68.44
347.219	99.16
347.431	113.49
347.643	54.1
347.855	0.85
348.067	101.2
348.279	88.92
348.491	60.24
348.703	78.68
348.915	35.67
349.127	-1.19
349.339	125.78
349.551	52.05
349.763	64.34
349.975	-50.35
350.187	119.64
350.399	60.24
350.61	105.3
350.822	11.09
351.034	4.95
351.246	50
351.458	105.3
351.669	70.48
351.881	101.2
352.093	64.34
352.305	74.58
352.517	93.01
352.728	58.2
352.94	127.83
353.152	78.68
353.363	109.4
353.575	90.96
353.787	86.87
353.999	43.86
354.21	111.44
354.422	60.24
354.633	37.72
354.845	58.2
355.057	68.44
355.268	95.06
355.48	56.15
355.692	37.72
355.903	-3.24
356.115	-3.24
356.326	-3.24
356.538	54.1
356.749	95.06
356.961	119.64
357.172	41.81
357.384	60.24
357.595	58.2
357.807	50
358.018	2.9
358.23	-3.24
358.441	19.29
358.653	76.63
358.864	80.72
359.075	13.14
359.287	23.38
359.498	90.96
359.709	82.77
359.921	78.68
360.132	99.16
360.344	76.63
360.555	-36.01
360.766	62.29
360.977	64.34
361.189	86.87
361.4	47.96
361.611	156.5
361.823	78.68
362.034	109.4
362.245	43.86
362.456	-50.35
362.667	74.58
362.879	11.09
363.09	60.24
363.301	15.19
363.512	9.05
363.723	45.91
363.935	-21.67
364.146	93.01
364.357	-58.54
364.568	68.44
364.779	43.86
364.99	78.68
365.201	33.62
365.412	68.44
365.623	4.95
365.834	35.67
366.045	35.67
366.256	109.4
366.467	113.49
366.678	0.85
366.889	50
367.1	45.91
367.311	43.86
367.522	80.72
367.733	72.53
367.944	68.44
368.155	52.05
368.366	35.67
368.577	2.9
368.788	58.2
368.999	21.33
369.209	84.82
369.42	142.16
369.631	93.01
369.842	80.72
370.053	41.81
370.264	52.05
370.474	133.97
370.685	60.24
370.896	95.06
371.107	17.24
371.317	136.02
371.528	33.62
371.739	45.91
371.95	70.48
372.16	93.01
372.371	17.24
372.582	2.9
372.792	35.67
373.003	50
373.214	-27.82
373.424	101.2
373.635	29.52
373.846	50
374.056	-54.44
374.267	68.44
374.477	80.72
374.688	-1.19
374.898	68.44
375.109	21.33
375.319	93.01
375.53	60.24
375.74	19.29
375.951	70.48
376.161	105.3
376.372	70.48
376.582	52.05
376.793	84.82
377.003	86.87
377.214	119.64
377.424	33.62
377.635	80.72
377.845	21.33
378.055	82.77
378.266	68.44
378.476	150.36
378.686	41.81
378.897	82.77
379.107	76.63
379.317	99.16
379.528	111.44
379.738	113.49
379.948	33.62
380.158	105.3
380.369	11.09
380.579	168.79
380.789	54.1
380.999	70.48
381.21	78.68
381.42	109.4
381.63	76.63
381.84	170.83
382.05	95.06
382.261	117.59
382.471	123.73
382.681	68.44
382.891	125.78
383.101	107.35
383.311	37.72
383.521	19.29
383.731	9.05
383.941	64.34
384.151	80.72
384.361	76.63
384.571	90.96
384.781	66.39
384.991	82.77
385.201	99.16
385.411	119.64
385.621	19.29
385.831	64.34
386.041	33.62
386.251	45.91
386.461	111.44
386.671	50
386.881	127.83
387.091	111.44
387.301	109.4
387.511	52.05
387.72	68.44
387.93	76.63
388.14	2.9
388.35	86.87
388.56	123.73
388.769	52.05
388.979	33.62
389.189	45.91
389.399	119.64
389.609	84.82
389.818	136.02
390.028	39.76
390.238	127.83
390.447	41.81
390.657	86.87
390.867	101.2
391.076	45.91
391.286	33.62
391.496	115.54
391.705	168.79
391.915	129.88
392.125	115.54
392.334	60.24
392.544	111.44
392.753	64.34
392.963	41.81
393.172	60.24
393.382	119.64
393.591	195.41
393.801	21.33
394.01	123.73
394.22	129.88
394.429	70.48
394.639	97.11
394.848	129.88
395.058	66.39
395.267	72.53
395.477	131.92
395.686	43.86
395.895	133.97
396.105	129.88
396.314	80.72
396.524	62.29
396.733	93.01
396.942	84.82
397.152	142.16
397.361	158.55
397.57	68.44
397.78	68.44
397.989	142.16
398.198	86.87
398.407	97.11
398.617	119.64
398.826	86.87
399.035	119.64
399.244	127.83
399.453	70.48
399.663	101.2
399.872	21.33
400.081	103.25
400.29	191.31
400.499	90.96
400.708	136.02
400.917	86.87
401.127	133.97
401.336	78.68
401.545	140.12
401.754	242.51
401.963	172.88
402.172	117.59
402.381	90.96
402.59	64.34
402.799	90.96
403.008	152.4
403.217	195.41
403.426	95.06
403.635	95.06
403.844	93.01
404.053	76.63
404.262	84.82
404.471	211.79
404.68	111.44
404.888	191.31
405.097	179.03
405.306	219.99
405.515	183.12
405.724	201.55
405.933	86.87
406.142	140.12
406.35	148.31
406.559	117.59
406.768	148.31
406.977	242.51
407.185	195.41
407.394	168.79
407.603	72.53
407.812	265.04
408.02	242.51
408.229	297.81
408.438	148.31
408.646	289.62
408.855	201.55
409.064	246.61
409.272	301.9
409.481	244.56
409.69	371.54
409.898	244.56
410.107	232.27
410.315	275.28
410.524	283.47
410.733	250.71
410.941	281.43
411.15	385.87
411.358	344.91
411.567	414.54
411.775	359.25
411.984	408.4
412.192	387.92
412.401	398.16
412.609	426.83
412.818	461.65
413.026	424.78
413.234	422.73
413.443	478.03
413.651	437.07
413.86	461.65
414.068	531.28
414.276	539.47
414.485	578.38
414.693	535.37
414.901	568.14
415.11	615.24
415.318	547.66
415.526	701.26
415.734	719.69
415.943	711.5
416.151	729.93
416.359	686.92
416.567	805.71
416.776	738.12
416.984	871.24
417.192	807.75
417.4	871.24
417.608	826.18
417.817	934.73
418.025	1004.36
418.233	1053.51
418.441	998.21
418.649	899.91
418.857	1151.81
419.065	1133.38
419.273	1090.37
419.481	1127.24
419.689	1200.96
419.897	1295.17
420.105	1338.18
420.313	1463.1
420.521	1461.06
420.729	1432.38
420.937	1471.29
421.145	1346.37
421.353	1528.64
421.561	1741.63
421.769	1641.28
421.977	1846.07
422.185	1696.57
422.393	1850.17
422.601	1923.9
422.809	1944.38
423.017	2028.34
423.224	2145.08
423.432	2259.76
423.64	2202.42
423.848	2319.15
424.056	2413.36
424.263	2396.98
424.471	2521.9
424.679	2439.98
424.887	2509.62
425.094	2669.36
425.302	2759.47
425.51	2958.12
425.718	2978.6
425.925	2964.26
426.133	3083.05
426.341	3300.13
426.548	3328.8
426.756	3369.76
426.964	3605.28
427.171	3584.8
427.379	3697.44
427.586	3910.43
427.794	3971.86
428.001	4047.64
428.209	4291.35
428.417	4287.25
428.624	4619.02
428.832	4584.21
429.039	4496.14
429.247	4449.04
429.454	5014.28
429.662	5292.8
429.869	4883.21
430.076	5274.37
430.284	5004.04
430.491	5290.76
430.699	5597.95
430.906	5589.76
431.114	5688.06
431.321	5798.65
431.528	6042.36
431.736	6378.23
431.943	6601.46
432.15	6488.82
432.358	6548.21
432.565	6841.07
432.772	6900.46
432.979	7203.56
433.187	7430.88
433.394	7414.5
433.601	7998.17
433.808	7920.35
434.016	7940.83
434.223	8100.57
434.43	8776.4
434.637	8501.97
434.844	9069.26
435.052	9036.49
435.259	9267.91
435.466	9202.38
435.673	9224.9
435.88	9689.79
436.087	10345.14
436.294	10406.58
436.501	10033.85
436.708	10353.34
436.915	10697.39
437.122	11285.16
437.329	11111.08
437.537	11471.53
437.743	11733.67
437.95	11399.85
438.157	12290.71
438.364	12505.75
438.571	12438.17
438.778	12665.49
438.985	13904.51
439.192	13388.43
439.399	13728.39
439.606	13419.14
439.813	14035.58
440.02	15000.18
440.227	14652.02
440.433	14830.2
440.64	15299.18
440.847	14903.92
441.054	15264.36
441.261	16202.33
441.467	16142.94
441.674	16417.37
441.881	17154.64
442.088	17304.14
442.294	16923.22
442.501	17545.8
442.708	17734.21
442.914	18410.04
443.121	19155.51
443.328	18786.87
443.534	19915.3
443.741	19556.91
443.948	19597.87
444.154	20562.46
444.361	20560.41
444.568	20390.43
444.774	20785.69
444.981	21066.26
445.187	21639.69
445.394	22452.73
445.6	22342.14
445.807	24392.16
446.013	23202.29
446.22	23712.24
446.426	24689.12
446.633	25100.76
446.839	25663.95
447.046	24844.76
447.252	26225.09
447.459	26180.04
447.665	25829.84
447.871	27359.67
448.078	28129.7
448.284	26554.82
448.491	27767.21
448.697	29002.14
448.903	29473.17
449.11	29245.85
449.316	29249.94
449.522	29565.33
449.728	30386.57
449.935	30409.09
450.141	30652.8
450.347	31334.78
450.553	30194.06
450.76	30685.57
450.966	31668.59
451.172	31299.96
451.378	32436.58
451.584	31607.16
451.791	32373.1
451.997	32627.04
452.203	33237.34
452.409	32860.51
452.615	32889.18
452.821	31299.96
453.027	31394.17
453.233	32946.53
453.44	31945.07
453.646	32029.04
453.852	32180.59
454.058	32854.37
454.264	31779.18
454.47	32545.12
454.676	31547.76
454.882	32115.05
455.088	29829.52
455.294	30394.76
455.5	30941.57
455.705	31510.9
455.911	30081.42
456.117	29522.32
456.323	28985.76
456.529	27918.76
456.735	28813.73
456.941	28103.08
457.147	27386.29
457.352	26823.1
457.558	26362.31
457.764	26421.7
457.97	25723.34
458.176	25608.65
458.381	25311.7
458.587	24156.64
458.793	24576.48
458.999	23040.5
459.204	24791.52
459.41	24283.62
459.616	22559.23
459.821	22714.87
460.027	22354.43
460.233	21762.57
460.438	20718.11
460.644	21092.88
460.85	19890.73
461.055	19741.22
461.261	19489.32
461.466	18221.63
461.672	18035.27
461.878	18944.56
462.083	17818.18
462.289	17236.56
462.494	17193.55
462.7	16345.69
462.905	15987.3
463.111	16620.12
463.316	16685.65
463.522	16302.68
463.727	16386.65
463.932	16235.1
464.138	16030.3
464.343	16321.12
464.549	15727.21
464.754	16235.1
464.959	15913.57
465.165	15921.76
465.37	15200.88
465.575	14801.52
465.781	15463.02
465.986	15487.59
466.191	14871.15
466.397	14590.58
466.602	13748.87
466.807	14756.47
467.012	14463.61
467.218	14336.63
467.423	14185.08
467.628	14099.07
467.833	14881.39
468.038	14281.34
468.244	13914.75
468.449	14477.94
468.654	14078.59
