Data from USB4F104151__76__13-12-22-094.txt Node

Date: Fri Mar 14 13:12:22 EDT 2025
User: louis
Spectrometer: USB4F10415
Trigger mode: 4
Integration Time (sec): 2.000000E-2
Scans to average: 1
Electric dark correction enabled: true
Nonlinearity correction enabled: false
Boxcar width: 0
XAxis mode: Wavelengths
Number of Pixels in Spectrum: 3648
>>>>>Begin Spectral Data<<<<<
178.204	-133.63
178.424	-133.63
178.644	-133.63
178.864	-100.86
179.084	-141.82
179.304	-55.81
179.524	-45.57
179.744	-23.04
179.964	30.21
180.184	-14.85
180.404	-25.09
180.624	54.78
180.844	19.97
181.064	87.55
181.283	-31.23
181.503	-6.66
181.723	9.73
181.943	-20.99
182.163	46.59
182.383	-18.94
182.602	7.68
182.822	-33.28
183.042	-18.94
183.262	-35.33
183.482	-6.66
183.701	-66.05
183.921	-14.85
184.141	58.88
184.361	89.6
184.58	13.82
184.8	-18.94
185.02	-80.38
185.239	-41.47
185.459	-0.51
185.679	-23.04
185.898	-64
186.118	7.68
186.338	-90.62
186.557	-43.52
186.777	-66.05
186.997	-80.38
187.216	13.82
187.436	-20.99
187.655	-2.56
187.875	75.26
188.095	-10.75
188.314	44.54
188.534	-41.47
188.753	5.63
188.973	30.21
189.192	7.68
189.412	-6.66
189.631	-43.52
189.851	60.93
190.07	50.69
190.29	-27.14
190.509	77.31
190.729	46.59
190.948	-6.66
191.168	40.45
191.387	5.63
191.607	-90.62
191.826	19.97
192.045	-74.24
192.265	46.59
192.484	-33.28
192.704	-10.75
192.923	89.6
193.142	7.68
193.362	-27.14
193.581	-16.9
193.8	-20.99
194.02	-16.9
194.239	15.87
194.458	26.11
194.678	-98.81
194.897	-20.99
195.116	-33.28
195.335	-35.33
195.555	38.4
195.774	-16.9
195.993	-10.75
196.212	-8.7
196.432	17.92
196.651	-10.75
196.87	13.82
197.089	71.17
197.308	-4.61
197.528	48.64
197.747	-18.94
197.966	-80.38
198.185	79.36
198.404	-49.66
198.623	40.45
198.842	9.73
199.062	11.78
199.281	38.4
199.5	1.54
199.719	-35.33
199.938	-14.85
200.157	-23.04
200.376	-37.38
200.595	62.98
200.814	-2.56
201.033	-0.51
201.252	62.98
201.471	-23.04
201.69	30.21
201.909	-6.66
202.128	-0.51
202.347	-8.7
202.566	-47.62
202.785	19.97
203.004	-35.33
203.223	19.97
203.442	15.87
203.661	-18.94
203.879	-39.42
204.098	-20.99
204.317	-31.23
204.536	-8.7
204.755	-35.33
204.974	-51.71
205.193	40.45
205.411	46.59
205.63	36.35
205.849	-51.71
206.068	1.54
206.287	40.45
206.505	13.82
206.724	-6.66
206.943	-25.09
207.162	-0.51
207.381	-43.52
207.599	3.58
207.818	-18.94
208.037	19.97
208.255	17.92
208.474	81.41
208.693	-27.14
208.911	30.21
209.13	3.58
209.349	1.54
209.567	58.88
209.786	42.5
210.005	9.73
210.223	22.02
210.442	-80.38
210.661	15.87
210.879	-23.04
211.098	32.26
211.316	-31.23
211.535	-27.14
211.753	13.82
211.972	38.4
212.191	-18.94
212.409	-0.51
212.628	7.68
212.846	-51.71
213.065	65.02
213.283	-76.29
213.502	62.98
213.72	42.5
213.938	5.63
214.157	7.68
214.375	-0.51
214.594	42.5
214.812	-0.51
215.031	-20.99
215.249	-16.9
215.467	-20.99
215.686	44.54
215.904	-29.18
216.122	-18.94
216.341	26.11
216.559	-12.8
216.778	26.11
216.996	69.12
217.214	-29.18
217.432	-20.99
217.651	38.4
217.869	-2.56
218.087	1.54
218.306	-35.33
218.524	15.87
218.742	13.82
218.96	-49.66
219.179	40.45
219.397	-76.29
219.615	40.45
219.833	5.63
220.051	17.92
220.27	46.59
220.488	-25.09
220.706	30.21
220.924	-49.66
221.142	-12.8
221.36	5.63
221.578	-0.51
221.796	26.11
222.015	-16.9
222.233	-49.66
222.451	-10.75
222.669	-8.7
222.887	-0.51
223.105	56.83
223.323	-33.28
223.541	-14.85
223.759	24.06
223.977	40.45
224.195	40.45
224.413	69.12
224.631	48.64
224.849	34.3
225.067	71.17
225.285	-12.8
225.503	95.74
225.721	71.17
225.939	79.36
226.157	-4.61
226.375	118.27
226.592	-25.09
226.81	22.02
227.028	11.78
227.246	-29.18
227.464	73.21
227.682	-37.38
227.9	101.89
228.117	50.69
228.335	-4.61
228.553	44.54
228.771	-2.56
228.989	44.54
229.206	-2.56
229.424	40.45
229.642	-2.56
229.86	19.97
230.077	48.64
230.295	-14.85
230.513	-55.81
230.731	54.78
230.948	30.21
231.166	22.02
231.384	34.3
231.601	-16.9
231.819	75.26
232.037	-10.75
232.254	19.97
232.472	-6.66
232.689	-2.56
232.907	-2.56
233.125	13.82
233.342	17.92
233.56	-0.51
233.777	5.63
233.995	-10.75
234.213	38.4
234.43	26.11
234.648	-49.66
234.865	38.4
235.083	-0.51
235.3	-20.99
235.518	24.06
235.735	-47.62
235.953	-70.14
236.17	17.92
236.388	30.21
236.605	52.74
236.822	26.11
237.04	71.17
237.257	-35.33
237.475	-41.47
237.692	1.54
237.909	79.36
238.127	58.88
238.344	3.58
238.562	-10.75
238.779	-82.43
238.996	15.87
239.214	26.11
239.431	3.58
239.648	-47.62
239.865	-18.94
240.083	15.87
240.3	38.4
240.517	-25.09
240.735	50.69
240.952	-0.51
241.169	1.54
241.386	-39.42
241.603	-6.66
241.821	-23.04
242.038	-0.51
242.255	58.88
242.472	-16.9
242.689	13.82
242.907	-43.52
243.124	17.92
243.341	22.02
243.558	-20.99
243.775	-0.51
243.992	85.5
244.209	-16.9
244.426	40.45
244.643	54.78
244.86	-68.09
245.078	-27.14
245.295	26.11
245.512	28.16
245.729	-47.62
245.946	26.11
246.163	-59.9
246.38	13.82
246.597	40.45
246.814	32.26
247.031	32.26
247.248	-84.48
247.464	110.08
247.681	-2.56
247.898	-16.9
248.115	1.54
248.332	-64
248.549	9.73
248.766	79.36
248.983	-39.42
249.2	30.21
249.417	-2.56
249.633	-23.04
249.85	-35.33
250.067	-0.51
250.284	-4.61
250.501	-31.23
250.717	-2.56
250.934	17.92
251.151	-35.33
251.368	50.69
251.585	-10.75
251.801	-18.94
252.018	3.58
252.235	116.22
252.451	3.58
252.668	-18.94
252.885	13.82
253.102	56.83
253.318	-12.8
253.535	17.92
253.752	5.63
253.968	-2.56
254.185	-2.56
254.401	-39.42
254.618	48.64
254.835	-53.76
255.051	-29.18
255.268	62.98
255.484	-59.9
255.701	-25.09
255.917	-27.14
256.134	-70.14
256.351	71.17
256.567	-35.33
256.784	30.21
257	17.92
257.217	24.06
257.433	3.58
257.65	13.82
257.866	38.4
258.082	-39.42
258.299	-31.23
258.515	-6.66
258.732	-12.8
258.948	-64
259.165	22.02
259.381	24.06
259.597	13.82
259.814	-49.66
260.03	-8.7
260.246	-20.99
260.463	-16.9
260.679	44.54
260.895	48.64
261.112	50.69
261.328	-31.23
261.544	28.16
261.761	13.82
261.977	-33.28
262.193	-18.94
262.409	19.97
262.626	40.45
262.842	1.54
263.058	-27.14
263.274	-8.7
263.49	17.92
263.707	30.21
263.923	1.54
264.139	54.78
264.355	36.35
264.571	-16.9
264.787	24.06
265.004	48.64
265.22	-18.94
265.436	-57.86
265.652	58.88
265.868	-33.28
266.084	-59.9
266.3	-39.42
266.516	38.4
266.732	34.3
266.948	-6.66
267.164	38.4
267.38	-6.66
267.596	48.64
267.812	-10.75
268.028	-16.9
268.244	28.16
268.46	32.26
268.676	-10.75
268.892	-12.8
269.108	17.92
269.324	15.87
269.54	-18.94
269.756	-76.29
269.972	28.16
270.188	5.63
270.403	1.54
270.619	-43.52
270.835	19.97
271.051	24.06
271.267	38.4
271.483	30.21
271.698	-68.09
271.914	28.16
272.13	58.88
272.346	-23.04
272.562	1.54
272.777	-33.28
272.993	26.11
273.209	-20.99
273.425	24.06
273.64	56.83
273.856	15.87
274.072	1.54
274.287	-82.43
274.503	13.82
274.719	-23.04
274.934	-66.05
275.15	-57.86
275.366	42.5
275.581	26.11
275.797	32.26
276.012	-31.23
276.228	19.97
276.444	-78.33
276.659	32.26
276.875	-70.14
277.09	-25.09
277.306	28.16
277.521	-8.7
277.737	40.45
277.952	62.98
278.168	7.68
278.383	24.06
278.599	-10.75
278.814	97.79
279.03	-6.66
279.245	5.63
279.461	62.98
279.676	32.26
279.892	-33.28
280.107	3.58
280.322	-18.94
280.538	-10.75
280.753	-80.38
280.969	-0.51
281.184	101.89
281.399	81.41
281.615	30.21
281.83	38.4
282.045	-68.09
282.26	-55.81
282.476	30.21
282.691	-2.56
282.906	-55.81
283.122	79.36
283.337	71.17
283.552	34.3
283.767	-18.94
283.983	-86.53
284.198	-8.7
284.413	52.74
284.628	28.16
284.843	48.64
285.058	38.4
285.274	-64
285.489	-10.75
285.704	19.97
285.919	-18.94
286.134	36.35
286.349	28.16
286.564	-4.61
286.779	13.82
286.995	7.68
287.21	-23.04
287.425	-35.33
287.64	-68.09
287.855	-10.75
288.07	-76.29
288.285	13.82
288.5	67.07
288.715	34.3
288.93	-0.51
289.145	22.02
289.36	30.21
289.575	22.02
289.79	9.73
290.004	9.73
290.219	-45.57
290.434	-66.05
290.649	19.97
290.864	1.54
291.079	-6.66
291.294	-33.28
291.509	5.63
291.724	50.69
291.938	-35.33
292.153	-51.71
292.368	-43.52
292.583	77.31
292.798	-27.14
293.012	5.63
293.227	-10.75
293.442	-0.51
293.657	73.21
293.871	93.69
294.086	118.27
294.301	9.73
294.516	-23.04
294.73	17.92
294.945	-37.38
295.16	30.21
295.374	1.54
295.589	136.7
295.804	-2.56
296.018	9.73
296.233	17.92
296.447	-35.33
296.662	-53.76
296.877	-14.85
297.091	71.17
297.306	-35.33
297.52	-72.19
297.735	34.3
297.949	24.06
298.164	83.45
298.378	17.92
298.593	17.92
298.807	-12.8
299.022	-27.14
299.236	54.78
299.451	54.78
299.665	40.45
299.88	112.13
300.094	-53.76
300.309	11.78
300.523	42.5
300.737	38.4
300.952	-14.85
301.166	-23.04
301.381	5.63
301.595	30.21
301.809	38.4
302.024	-20.99
302.238	7.68
302.452	-68.09
302.667	11.78
302.881	58.88
303.095	38.4
303.309	-2.56
303.524	40.45
303.738	99.84
303.952	-10.75
304.166	40.45
304.381	-14.85
304.595	24.06
304.809	-41.47
305.023	62.98
305.237	-25.09
305.452	42.5
305.666	26.11
305.88	30.21
306.094	87.55
306.308	-18.94
306.522	15.87
306.736	-6.66
306.95	11.78
307.164	24.06
307.379	30.21
307.593	-8.7
307.807	26.11
308.021	50.69
308.235	32.26
308.449	-47.62
308.663	-57.86
308.877	77.31
309.091	-16.9
309.305	-2.56
309.519	-0.51
309.733	15.87
309.947	-33.28
310.161	38.4
310.374	19.97
310.588	36.35
310.802	-4.61
311.016	22.02
311.23	32.26
311.444	9.73
311.658	-68.09
311.872	3.58
312.085	1.54
312.299	-14.85
312.513	1.54
312.727	13.82
312.941	-96.77
313.154	-2.56
313.368	3.58
313.582	26.11
313.796	54.78
314.009	34.3
314.223	-10.75
314.437	-45.57
314.651	60.93
314.864	-55.81
315.078	-49.66
315.292	-55.81
315.505	1.54
315.719	5.63
315.933	48.64
316.146	-2.56
316.36	-29.18
316.573	38.4
316.787	13.82
317.001	-45.57
317.214	26.11
317.428	30.21
317.641	11.78
317.855	-10.75
318.068	11.78
318.282	5.63
318.495	17.92
318.709	56.83
318.922	-33.28
319.136	40.45
319.349	58.88
319.563	-27.14
319.776	30.21
319.99	-18.94
320.203	89.6
320.417	1.54
320.63	32.26
320.843	26.11
321.057	58.88
321.27	-43.52
321.483	-66.05
321.697	13.82
321.91	-12.8
322.124	-35.33
322.337	-18.94
322.55	38.4
322.763	-10.75
322.977	-23.04
323.19	-20.99
323.403	48.64
323.617	11.78
323.83	32.26
324.043	26.11
324.256	-45.57
324.469	-121.34
324.683	-4.61
324.896	-0.51
325.109	40.45
325.322	60.93
325.535	17.92
325.748	44.54
325.962	24.06
326.175	15.87
326.388	-16.9
326.601	-10.75
326.814	5.63
327.027	-53.76
327.24	36.35
327.453	1.54
327.666	-43.52
327.879	5.63
328.092	5.63
328.305	32.26
328.518	-18.94
328.731	79.36
328.944	89.6
329.157	-18.94
329.37	-43.52
329.583	-27.14
329.796	62.98
330.009	-0.51
330.222	-14.85
330.435	38.4
330.648	-27.14
330.861	-2.56
331.073	24.06
331.286	17.92
331.499	34.3
331.712	7.68
331.925	5.63
332.138	-39.42
332.35	32.26
332.563	67.07
332.776	-4.61
332.989	15.87
333.202	-41.47
333.414	50.69
333.627	30.21
333.84	9.73
334.053	17.92
334.265	-47.62
334.478	83.45
334.691	-4.61
334.903	58.88
335.116	-16.9
335.329	1.54
335.541	32.26
335.754	62.98
335.966	-0.51
336.179	79.36
336.392	26.11
336.604	22.02
336.817	30.21
337.029	5.63
337.242	-31.23
337.454	5.63
337.667	44.54
337.88	54.78
338.092	-47.62
338.305	9.73
338.517	-27.14
338.729	54.78
338.942	38.4
339.154	-0.51
339.367	5.63
339.579	38.4
339.792	-53.76
340.004	-23.04
340.217	-41.47
340.429	-6.66
340.641	7.68
340.854	22.02
341.066	-10.75
341.278	77.31
341.491	13.82
341.703	-27.14
341.915	-41.47
342.128	54.78
342.34	-6.66
342.552	-41.47
342.764	-47.62
342.977	60.93
343.189	69.12
343.401	-49.66
343.613	-47.62
343.826	46.59
344.038	-51.71
344.25	-27.14
344.462	22.02
344.674	87.55
344.886	-25.09
345.099	-31.23
345.311	30.21
345.523	-18.94
345.735	22.02
345.947	13.82
346.159	24.06
346.371	114.17
346.583	32.26
346.795	-14.85
347.007	52.74
347.219	32.26
347.431	-6.66
347.643	17.92
347.855	-27.14
348.067	54.78
348.279	13.82
348.491	-57.86
348.703	-8.7
348.915	19.97
349.127	-4.61
349.339	-33.28
349.551	-59.9
349.763	-16.9
349.975	44.54
350.187	30.21
350.399	79.36
350.61	26.11
350.822	60.93
351.034	48.64
351.246	15.87
351.458	26.11
351.669	-14.85
351.881	42.5
352.093	-10.75
352.305	62.98
352.517	40.45
352.728	67.07
352.94	79.36
353.152	-14.85
353.363	-16.9
353.575	-10.75
353.787	-18.94
353.999	69.12
354.21	56.83
354.422	3.58
354.633	42.5
354.845	30.21
355.057	-2.56
355.268	60.93
355.48	-23.04
355.692	32.26
355.903	62.98
356.115	97.79
356.326	-23.04
356.538	17.92
356.749	91.65
356.961	87.55
357.172	-20.99
357.384	30.21
357.595	62.98
357.807	-16.9
358.018	-0.51
358.23	-14.85
358.441	5.63
358.653	7.68
358.864	9.73
359.075	60.93
359.287	-2.56
359.498	40.45
359.709	7.68
359.921	97.79
360.132	42.5
360.344	79.36
360.555	1.54
360.766	-82.43
360.977	1.54
361.189	97.79
361.4	-18.94
361.611	-10.75
361.823	87.55
362.034	22.02
362.245	-0.51
362.456	-12.8
362.667	46.59
362.879	38.4
363.09	46.59
363.301	-27.14
363.512	67.07
363.723	-4.61
363.935	30.21
364.146	48.64
364.357	-55.81
364.568	112.13
364.779	-4.61
364.99	-12.8
365.201	-43.52
365.412	101.89
365.623	-39.42
365.834	65.02
366.045	30.21
366.256	56.83
366.467	-55.81
366.678	-8.7
366.889	13.82
367.1	62.98
367.311	-2.56
367.522	-33.28
367.733	-12.8
367.944	15.87
368.155	24.06
368.366	75.26
368.577	52.74
368.788	13.82
368.999	15.87
369.209	9.73
369.42	42.5
369.631	-2.56
369.842	-20.99
370.053	38.4
370.264	44.54
370.474	93.69
370.685	-27.14
370.896	-35.33
371.107	42.5
371.317	40.45
371.528	-31.23
371.739	32.26
371.95	13.82
372.16	-6.66
372.371	-29.18
372.582	-31.23
372.792	73.21
373.003	19.97
373.214	7.68
373.424	30.21
373.635	-66.05
373.846	46.59
374.056	67.07
374.267	-4.61
374.477	-18.94
374.688	-0.51
374.898	-16.9
375.109	89.6
375.319	26.11
375.53	5.63
375.74	17.92
375.951	44.54
376.161	-18.94
376.372	71.17
376.582	62.98
376.793	-2.56
377.003	-18.94
377.214	-47.62
377.424	5.63
377.635	15.87
377.845	44.54
378.055	114.17
378.266	-6.66
378.476	7.68
378.686	83.45
378.897	13.82
379.107	30.21
379.317	-23.04
379.528	93.69
379.738	62.98
379.948	-59.9
380.158	5.63
380.369	105.98
380.579	42.5
380.789	-37.38
380.999	48.64
381.21	-18.94
381.42	130.56
381.63	40.45
381.84	-4.61
382.05	15.87
382.261	46.59
382.471	-2.56
382.681	62.98
382.891	46.59
383.101	46.59
383.311	11.78
383.521	-10.75
383.731	73.21
383.941	95.74
384.151	9.73
384.361	-20.99
384.571	17.92
384.781	67.07
384.991	97.79
385.201	34.3
385.411	91.65
385.621	50.69
385.831	15.87
386.041	42.5
386.251	44.54
386.461	46.59
386.671	-25.09
386.881	56.83
387.091	22.02
387.301	97.79
387.511	30.21
387.72	38.4
387.93	153.09
388.14	22.02
388.35	26.11
388.56	-37.38
388.769	11.78
388.979	-31.23
389.189	34.3
389.399	36.35
389.609	9.73
389.818	52.74
390.028	34.3
390.238	60.93
390.447	40.45
390.657	28.16
390.867	46.59
391.076	38.4
391.286	67.07
391.496	44.54
391.705	-29.18
391.915	7.68
392.125	81.41
392.334	-47.62
392.544	132.61
392.753	81.41
392.963	54.78
393.172	19.97
393.382	48.64
393.591	75.26
393.801	15.87
394.01	54.78
394.22	50.69
394.429	56.83
394.639	11.78
394.848	36.35
395.058	15.87
395.267	54.78
395.477	101.89
395.686	9.73
395.895	65.02
396.105	114.17
396.314	77.31
396.524	30.21
396.733	-16.9
396.942	67.07
397.152	40.45
397.361	99.84
397.57	9.73
397.78	71.17
397.989	71.17
398.198	93.69
398.407	42.5
398.617	77.31
398.826	91.65
399.035	15.87
399.244	95.74
399.453	87.55
399.663	9.73
399.872	85.5
400.081	36.35
400.29	85.5
400.499	91.65
400.708	73.21
400.917	42.5
401.127	71.17
401.336	48.64
401.545	161.28
401.754	153.09
401.963	71.17
402.172	46.59
402.381	28.16
402.59	134.65
402.799	130.56
403.008	105.98
403.217	87.55
403.426	58.88
403.635	108.03
403.844	54.78
404.053	32.26
404.262	30.21
404.471	144.89
404.68	128.51
404.888	140.8
405.097	91.65
405.306	157.18
405.515	28.16
405.724	62.98
405.933	126.46
406.142	148.99
406.35	161.28
406.559	157.18
406.768	34.3
406.977	228.86
407.185	177.66
407.394	120.32
407.603	91.65
407.812	136.7
408.02	165.37
408.229	200.19
408.438	157.18
408.646	99.84
408.855	196.09
409.064	232.96
409.272	179.71
409.481	208.38
409.69	192
409.898	153.09
410.107	206.33
410.315	296.44
410.524	165.37
410.733	196.09
410.941	284.16
411.15	292.35
411.358	245.24
411.567	316.92
411.775	308.73
411.984	308.73
412.192	321.02
412.401	341.5
412.609	370.17
412.818	404.99
413.026	382.46
413.234	404.99
413.443	382.46
413.651	415.23
413.86	470.52
414.068	507.38
414.276	466.42
414.485	540.15
414.693	519.67
414.901	529.91
415.11	570.87
415.318	581.11
415.526	630.26
415.734	589.3
415.943	663.03
416.151	642.55
416.359	656.89
416.567	728.56
416.776	742.9
416.984	728.56
417.192	900.59
417.4	810.48
417.608	843.25
417.817	851.44
418.025	945.65
418.233	943.6
418.441	916.98
418.649	1046
418.857	1002.99
419.065	1015.28
419.273	1074.67
419.481	1140.21
419.689	1199.6
419.897	1287.66
420.105	1258.99
420.313	1273.32
420.521	1318.38
420.729	1347.05
420.937	1398.25
421.145	1433.07
421.353	1435.11
421.561	1615.34
421.769	1627.62
421.977	1646.05
422.185	1603.05
422.393	1760.74
422.601	1758.69
422.809	1914.34
423.017	1816.04
423.224	2022.88
423.432	2156
423.64	1994.21
423.848	2207.2
424.056	2229.73
424.263	2379.23
424.471	2397.66
424.679	2373.08
424.887	2584.02
425.094	2649.56
425.302	2596.31
425.51	2747.86
425.718	2713.05
425.925	2665.94
426.133	2766.29
426.341	3157.46
426.548	3200.46
426.756	3212.75
426.964	3415.5
427.171	3513.8
427.379	3624.39
427.586	3548.62
427.794	3741.13
428.001	3825.09
428.209	4060.61
428.417	3913.16
428.624	4246.98
428.832	4365.76
429.039	4316.61
429.247	4193.73
429.454	4650.43
429.662	4961.72
429.869	4775.35
430.076	5021.11
430.284	4826.55
430.491	5029.3
430.699	5291.44
430.906	5277.1
431.114	5449.13
431.321	5651.88
431.528	5713.32
431.736	6090.15
431.943	6378.91
432.15	6127.01
432.358	6370.72
432.565	6643.1
432.772	6466.97
432.979	7015.83
433.187	7107.99
433.394	7015.83
433.601	7568.78
433.808	7640.46
434.016	7427.47
434.223	7972.23
434.43	8265.09
434.637	8226.18
434.844	8725.88
435.052	8930.68
435.259	8820.09
435.466	8914.3
435.673	8646.01
435.88	9399.66
436.087	9903.46
436.294	9674.09
436.501	9573.74
436.708	9823.59
436.915	10251.62
437.122	10593.63
437.329	10548.58
437.537	11111.77
437.743	11222.36
437.95	11193.69
438.157	11715.92
438.364	11914.57
438.571	12000.58
438.778	12197.19
438.985	13149.5
439.192	12606.78
439.399	12991.8
439.606	12707.13
439.813	13624.62
440.02	14322.98
440.227	14132.52
440.433	14353.7
440.64	14388.52
440.847	14425.38
441.054	14636.32
441.261	15684.88
441.467	15635.73
441.674	15674.64
441.881	16088.33
442.088	16317.7
442.294	16332.04
442.501	16452.87
442.708	16872.7
442.914	17425.65
443.121	18447.59
443.328	17802.48
443.534	19111.13
443.741	18617.57
443.948	18468.07
444.154	19674.32
444.361	19674.32
444.568	19813.59
444.774	19533.01
444.981	19973.33
445.187	20356.3
445.394	21365.95
445.6	20966.59
445.807	23370.91
446.013	22097.07
446.22	22500.52
446.426	23426.2
446.633	23592.09
446.839	24355.98
447.046	23581.85
447.252	24747.14
447.459	24855.68
447.665	24906.88
447.871	25920.63
448.078	27018.34
448.284	25746.55
448.491	26621.03
448.697	27356.25
448.903	28032.08
449.11	28144.72
449.316	27720.79
449.522	28140.63
449.728	28712.01
449.935	29056.07
450.141	29318.21
450.347	29500.48
450.553	28910.66
450.76	28929.09
450.966	30340.15
451.172	30180.4
451.378	30932.01
451.584	30303.28
451.791	30876.71
451.997	30669.87
452.203	30997.54
452.409	31216.68
452.615	31355.94
452.821	30004.28
453.027	29504.57
453.233	31544.35
453.44	30192.69
453.646	30508.08
453.852	30755.88
454.058	31269.92
454.264	30207.03
454.47	31028.26
454.676	30078.01
454.882	31405.09
455.088	28372.05
455.294	29088.84
455.5	29434.94
455.705	29733.95
455.911	28519.5
456.117	27962.45
456.323	27604.06
456.529	26027.12
456.735	27358.3
456.941	26680.42
457.147	26444.91
457.352	25531.51
457.558	25060.48
457.764	25343.1
457.97	24470.67
458.176	24239.25
458.381	24265.87
458.587	23127.2
458.793	23225.5
458.999	21834.93
459.204	23663.77
459.41	22903.97
459.616	21316.79
459.821	21281.98
460.027	21482.68
460.233	20800.71
460.438	19827.92
460.644	20026.57
460.85	19246.3
461.055	18998.49
461.261	18576.61
461.466	17315.06
461.672	16864.51
461.878	18040.04
462.083	17026.3
462.289	16592.13
462.494	16354.57
462.7	15619.35
462.905	15449.36
463.111	15836.43
463.316	15768.85
463.522	15414.55
463.727	15519
463.932	15400.21
464.138	15240.47
464.343	15412.5
464.549	14968.09
464.754	15287.57
464.959	15408.4
465.165	15289.62
465.37	14400.8
465.575	13944.11
465.781	14540.07
465.986	14771.49
466.191	14071.08
466.397	13960.49
466.602	13274.42
466.807	13817.13
