Data from USB4F104151__51__13-11-27-960.txt Node

Date: Fri Mar 14 13:11:27 EDT 2025
User: louis
Spectrometer: USB4F10415
Trigger mode: 4
Integration Time (sec): 2.000000E-2
Scans to average: 1
Electric dark correction enabled: true
Nonlinearity correction enabled: false
Boxcar width: 0
XAxis mode: Wavelengths
Number of Pixels in Spectrum: 3648
>>>>>Begin Spectral Data<<<<<
178.204	-62.12
178.424	-62.12
178.644	-62.12
178.864	-131.75
179.084	-111.27
179.304	-29.35
179.524	44.37
179.744	-35.5
179.964	-51.88
180.184	-15.02
180.404	-2.73
180.624	-12.97
180.844	50.52
181.064	34.13
181.283	38.23
181.503	17.75
181.723	-37.55
181.943	-25.26
182.163	109.91
182.383	-17.07
182.602	-15.02
182.822	40.28
183.042	32.08
183.262	-27.31
183.482	-21.16
183.701	-74.41
183.921	5.46
184.141	-103.08
184.361	-25.26
184.58	21.85
184.8	17.75
185.02	44.37
185.239	103.76
185.459	42.32
185.679	68.95
185.898	42.32
186.118	50.52
186.338	-2.73
186.557	-43.69
186.777	-45.74
186.997	27.99
187.216	-37.55
187.436	54.61
187.655	7.51
187.875	11.61
188.095	52.56
188.314	3.41
188.534	23.89
188.753	52.56
188.973	27.99
189.192	44.37
189.412	-6.83
189.631	75.09
189.851	52.56
190.07	-35.5
190.29	-23.21
190.509	34.13
190.729	-8.87
190.948	34.13
191.168	13.65
191.387	-0.68
191.607	77.14
191.826	60.76
192.045	95.57
192.265	40.28
192.484	93.52
192.704	13.65
192.923	-27.31
193.142	32.08
193.362	-55.98
193.581	-10.92
193.8	-31.4
194.02	-2.73
194.239	85.33
194.458	38.23
194.678	-23.21
194.897	30.04
195.116	27.99
195.335	-51.88
195.555	7.51
195.774	75.09
195.993	17.75
196.212	48.47
196.432	-47.79
196.651	15.7
196.87	-15.02
197.089	77.14
197.308	15.7
197.528	19.8
197.747	30.04
197.966	93.52
198.185	11.61
198.404	-96.94
198.623	54.61
198.842	15.7
199.062	-2.73
199.281	19.8
199.5	-41.64
199.719	81.24
199.938	-6.83
200.157	27.99
200.376	60.76
200.595	58.71
200.814	38.23
201.033	-27.31
201.252	-6.83
201.471	-47.79
201.69	48.47
201.909	73.04
202.128	40.28
202.347	60.76
202.566	46.42
202.785	73.04
203.004	32.08
203.223	109.91
203.442	64.85
203.661	-0.68
203.879	36.18
204.098	21.85
204.317	-41.64
204.536	36.18
204.755	-41.64
204.974	-47.79
205.193	-12.97
205.411	64.85
205.63	36.18
205.849	32.08
206.068	21.85
206.287	9.56
206.505	79.19
206.724	-0.68
206.943	44.37
207.162	21.85
207.381	77.14
207.599	5.46
207.818	3.41
208.037	48.47
208.255	44.37
208.474	36.18
208.693	77.14
208.911	44.37
209.13	3.41
209.349	19.8
209.567	-8.87
209.786	42.32
210.005	52.56
210.223	3.41
210.442	36.18
210.661	46.42
210.879	-12.97
211.098	-0.68
211.316	15.7
211.535	56.66
211.753	13.65
211.972	15.7
212.191	21.85
212.409	-4.78
212.628	13.65
212.846	40.28
213.065	34.13
213.283	44.37
213.502	-15.02
213.72	-2.73
213.938	-12.97
214.157	-8.87
214.375	58.71
214.594	114
214.812	89.43
215.031	-37.55
215.249	-49.83
215.467	89.43
215.686	-19.11
215.904	23.89
216.122	13.65
216.341	83.28
216.559	48.47
216.778	40.28
216.996	89.43
217.214	77.14
217.432	-6.83
217.651	46.42
217.869	-51.88
218.087	-0.68
218.306	25.94
218.524	71
218.742	-41.64
218.96	30.04
219.179	30.04
219.397	11.61
219.615	73.04
219.833	54.61
220.051	32.08
220.27	66.9
220.488	89.43
220.706	34.13
220.924	30.04
221.142	30.04
221.36	11.61
221.578	23.89
221.796	48.47
222.015	105.81
222.233	3.41
222.451	38.23
222.669	-31.4
222.887	21.85
223.105	-10.92
223.323	-4.78
223.541	71
223.759	19.8
223.977	23.89
224.195	-37.55
224.413	36.18
224.631	11.61
224.849	48.47
225.067	19.8
225.285	77.14
225.503	15.7
225.721	-33.45
225.939	-62.12
226.157	-10.92
226.375	150.87
226.592	-68.27
226.81	44.37
227.028	-53.93
227.246	64.85
227.464	-31.4
227.682	19.8
227.9	-21.16
228.117	23.89
228.335	-21.16
228.553	60.76
228.771	40.28
228.989	-23.21
229.206	25.94
229.424	60.76
229.642	13.65
229.86	-25.26
230.077	60.76
230.295	81.24
230.513	19.8
230.731	54.61
230.948	30.04
231.166	56.66
231.384	77.14
231.601	-27.31
231.819	79.19
232.037	54.61
232.254	48.47
232.472	13.65
232.689	52.56
232.907	30.04
233.125	-6.83
233.342	58.71
233.56	114
233.777	-15.02
233.995	48.47
234.213	7.51
234.43	-78.51
234.648	79.19
234.865	-17.07
235.083	9.56
235.3	3.41
235.518	64.85
235.735	81.24
235.953	79.19
236.17	-6.83
236.388	3.41
236.605	21.85
236.822	-2.73
237.04	107.86
237.257	-53.93
237.475	-37.55
237.692	-4.78
237.909	-19.11
238.127	27.99
238.344	64.85
238.562	32.08
238.779	30.04
238.996	58.71
239.214	54.61
239.431	50.52
239.648	40.28
239.865	19.8
240.083	52.56
240.3	56.66
240.517	11.61
240.735	81.24
240.952	56.66
241.169	36.18
241.386	-6.83
241.603	21.85
241.821	13.65
242.038	1.37
242.255	3.41
242.472	17.75
242.689	-25.26
242.907	73.04
243.124	19.8
243.341	-53.93
243.558	1.37
243.775	9.56
243.992	-25.26
244.209	68.95
244.426	120.15
244.643	5.46
244.86	-49.83
245.078	58.71
245.295	13.65
245.512	19.8
245.729	27.99
245.946	-35.5
246.163	-41.64
246.38	25.94
246.597	44.37
246.814	21.85
247.031	79.19
247.248	81.24
247.464	30.04
247.681	5.46
247.898	13.65
248.115	23.89
248.332	-33.45
248.549	46.42
248.766	27.99
248.983	32.08
249.2	19.8
249.417	-19.11
249.633	9.56
249.85	40.28
250.067	-25.26
250.284	36.18
250.501	52.56
250.717	27.99
250.934	13.65
251.151	1.37
251.368	-23.21
251.585	32.08
251.801	17.75
252.018	54.61
252.235	15.7
252.451	-45.74
252.668	-2.73
252.885	95.57
253.102	7.51
253.318	15.7
253.535	7.51
253.752	-53.93
253.968	27.99
254.185	-31.4
254.401	3.41
254.618	46.42
254.835	44.37
255.051	3.41
255.268	-10.92
255.484	-2.73
255.701	71
255.917	38.23
256.134	-27.31
256.351	-17.07
256.567	-101.03
256.784	9.56
257	-2.73
257.217	-21.16
257.433	21.85
257.65	36.18
257.866	15.7
258.082	-31.4
258.299	56.66
258.515	-21.16
258.732	13.65
258.948	5.46
259.165	15.7
259.381	-82.6
259.597	107.86
259.814	-35.5
260.03	11.61
260.246	34.13
260.463	-8.87
260.679	58.71
260.895	42.32
261.112	-10.92
261.328	-6.83
261.544	1.37
261.761	60.76
261.977	95.57
262.193	40.28
262.409	7.51
262.626	68.95
262.842	23.89
263.058	-15.02
263.274	-0.68
263.49	-29.35
263.707	13.65
263.923	79.19
264.139	17.75
264.355	36.18
264.571	87.38
264.787	7.51
265.004	68.95
265.22	79.19
265.436	-29.35
265.652	68.95
265.868	46.42
266.084	-6.83
266.3	91.48
266.516	-19.11
266.732	38.23
266.948	81.24
267.164	52.56
267.38	75.09
267.596	27.99
267.812	66.9
268.028	5.46
268.244	-29.35
268.46	-21.16
268.676	27.99
268.892	83.28
269.108	64.85
269.324	-12.97
269.54	11.61
269.756	21.85
269.972	-19.11
270.188	5.46
270.403	60.76
270.619	21.85
270.835	-51.88
271.051	56.66
271.267	-21.16
271.483	-35.5
271.698	3.41
271.914	9.56
272.13	17.75
272.346	-6.83
272.562	73.04
272.777	54.61
272.993	40.28
273.209	3.41
273.425	21.85
273.64	40.28
273.856	-51.88
274.072	34.13
274.287	-90.79
274.503	58.71
274.719	48.47
274.934	32.08
275.15	-4.78
275.366	58.71
275.581	-10.92
275.797	93.52
276.012	60.76
276.228	81.24
276.444	17.75
276.659	52.56
276.875	-55.98
277.09	11.61
277.306	-19.11
277.521	79.19
277.737	3.41
277.952	99.67
278.168	-15.02
278.383	-4.78
278.599	-29.35
278.814	34.13
279.03	-58.03
279.245	7.51
279.461	-6.83
279.676	44.37
279.892	-53.93
280.107	5.46
280.322	17.75
280.538	77.14
280.753	62.8
280.969	52.56
281.184	40.28
281.399	21.85
281.615	11.61
281.83	-27.31
282.045	13.65
282.26	1.37
282.476	-12.97
282.691	27.99
282.906	1.37
283.122	-12.97
283.337	89.43
283.552	5.46
283.767	-31.4
283.983	-29.35
284.198	-17.07
284.413	40.28
284.628	-10.92
284.843	-10.92
285.058	7.51
285.274	-12.97
285.489	11.61
285.704	44.37
285.919	-41.64
286.134	3.41
286.349	60.76
286.564	-10.92
286.779	64.85
286.995	30.04
287.21	44.37
287.425	32.08
287.64	34.13
287.855	44.37
288.07	52.56
288.285	-21.16
288.5	11.61
288.715	66.9
288.93	-23.21
289.145	17.75
289.36	3.41
289.575	32.08
289.79	1.37
290.004	-43.69
290.219	9.56
290.434	-8.87
290.649	15.7
290.864	-17.07
291.079	15.7
291.294	89.43
291.509	66.9
291.724	54.61
291.938	36.18
292.153	97.62
292.368	-58.03
292.583	-0.68
292.798	38.23
293.012	-19.11
293.227	36.18
293.442	-19.11
293.657	-19.11
293.871	77.14
294.086	-53.93
294.301	36.18
294.516	81.24
294.73	48.47
294.945	23.89
295.16	-35.5
295.374	44.37
295.589	11.61
295.804	-31.4
296.018	44.37
296.233	7.51
296.447	34.13
296.662	68.95
296.877	32.08
297.091	66.9
297.306	23.89
297.52	3.41
297.735	44.37
297.949	-6.83
298.164	38.23
298.378	-2.73
298.593	1.37
298.807	15.7
299.022	-31.4
299.236	23.89
299.451	-70.31
299.665	40.28
299.88	68.95
300.094	9.56
300.309	25.94
300.523	27.99
300.737	38.23
300.952	-19.11
301.166	87.38
301.381	116.05
301.595	25.94
301.809	-6.83
302.024	91.48
302.238	-6.83
302.452	5.46
302.667	-12.97
302.881	83.28
303.095	68.95
303.309	107.86
303.524	34.13
303.738	5.46
303.952	-31.4
304.166	71
304.381	-39.59
304.595	52.56
304.809	30.04
305.023	-6.83
305.237	9.56
305.452	-19.11
305.666	38.23
305.88	-6.83
306.094	103.76
306.308	27.99
306.522	-27.31
306.736	46.42
306.95	5.46
307.164	-15.02
307.379	-4.78
307.593	126.29
307.807	71
308.021	25.94
308.235	32.08
308.449	19.8
308.663	-51.88
308.877	-27.31
309.091	48.47
309.305	91.48
309.519	21.85
309.733	62.8
309.947	-45.74
310.161	27.99
310.374	-27.31
310.588	36.18
310.802	-23.21
311.016	50.52
311.23	64.85
311.444	32.08
311.658	-49.83
311.872	97.62
312.085	21.85
312.299	54.61
312.513	42.32
312.727	40.28
312.941	-4.78
313.154	-47.79
313.368	40.28
313.582	-17.07
313.796	85.33
314.009	89.43
314.223	34.13
314.437	-21.16
314.651	46.42
314.864	9.56
315.078	-6.83
315.292	15.7
315.505	5.46
315.719	36.18
315.933	30.04
316.146	19.8
316.36	71
316.573	19.8
316.787	23.89
317.001	52.56
317.214	-8.87
317.428	54.61
317.641	34.13
317.855	27.99
318.068	42.32
318.282	136.53
318.495	15.7
318.709	15.7
318.922	-17.07
319.136	75.09
319.349	-10.92
319.563	-2.73
319.776	60.76
319.99	36.18
320.203	7.51
320.417	34.13
320.63	-6.83
320.843	25.94
321.057	21.85
321.27	-23.21
321.483	-2.73
321.697	-41.64
321.91	-10.92
322.124	3.41
322.337	-70.31
322.55	27.99
322.763	-41.64
322.977	27.99
323.19	13.65
323.403	-15.02
323.617	21.85
323.83	60.76
324.043	21.85
324.256	15.7
324.469	21.85
324.683	27.99
324.896	-15.02
325.109	44.37
325.322	-27.31
325.535	68.95
325.748	-0.68
325.962	83.28
326.175	42.32
326.388	66.9
326.601	52.56
326.814	-27.31
327.027	62.8
327.24	54.61
327.453	-0.68
327.666	32.08
327.879	62.8
328.092	5.46
328.305	-45.74
328.518	-23.21
328.731	-35.5
328.944	-43.69
329.157	13.65
329.37	44.37
329.583	23.89
329.796	52.56
330.009	-21.16
330.222	27.99
330.435	77.14
330.648	-0.68
330.861	-15.02
331.073	91.48
331.286	36.18
331.499	25.94
331.712	15.7
331.925	11.61
332.138	38.23
332.35	77.14
332.563	7.51
332.776	60.76
332.989	27.99
333.202	9.56
333.414	-21.16
333.627	-2.73
333.84	-6.83
334.053	-4.78
334.265	-60.07
334.478	-27.31
334.691	30.04
334.903	-25.26
335.116	27.99
335.329	34.13
335.541	25.94
335.754	54.61
335.966	1.37
336.179	79.19
336.392	15.7
336.604	38.23
336.817	42.32
337.029	1.37
337.242	36.18
337.454	83.28
337.667	-8.87
337.88	48.47
338.092	64.85
338.305	34.13
338.517	40.28
338.729	52.56
338.942	32.08
339.154	-4.78
339.367	9.56
339.579	25.94
339.792	-17.07
340.004	44.37
340.217	75.09
340.429	5.46
340.641	-2.73
340.854	25.94
341.066	11.61
341.278	97.62
341.491	87.38
341.703	-19.11
341.915	23.89
342.128	-25.26
342.34	-4.78
342.552	46.42
342.764	-21.16
342.977	56.66
343.189	97.62
343.401	71
343.613	36.18
343.826	60.76
344.038	-51.88
344.25	38.23
344.462	-10.92
344.674	87.38
344.886	-58.03
345.099	44.37
345.311	-43.69
345.523	50.52
345.735	79.19
345.947	87.38
346.159	73.04
346.371	27.99
346.583	5.46
346.795	58.71
347.007	-12.97
347.219	85.33
347.431	-4.78
347.643	-31.4
347.855	-21.16
348.067	3.41
348.279	5.46
348.491	79.19
348.703	66.9
348.915	32.08
349.127	42.32
349.339	27.99
349.551	-17.07
349.763	27.99
349.975	38.23
350.187	27.99
350.399	13.65
350.61	73.04
350.822	15.7
351.034	11.61
351.246	126.29
351.458	64.85
351.669	27.99
351.881	114
352.093	105.81
352.305	-2.73
352.517	13.65
352.728	75.09
352.94	48.47
353.152	15.7
353.363	-0.68
353.575	68.95
353.787	93.52
353.999	71
354.21	40.28
354.422	-39.59
354.633	3.41
354.845	30.04
355.057	36.18
355.268	34.13
355.48	7.51
355.692	13.65
355.903	38.23
356.115	38.23
356.326	23.89
356.538	46.42
356.749	30.04
356.961	-2.73
357.172	38.23
357.384	1.37
357.595	109.91
357.807	-21.16
358.018	19.8
358.23	-53.93
358.441	36.18
358.653	56.66
358.864	3.41
359.075	83.28
359.287	25.94
359.498	101.72
359.709	-10.92
359.921	3.41
360.132	36.18
360.344	5.46
360.555	1.37
360.766	-4.78
360.977	-39.59
361.189	15.7
361.4	-33.45
361.611	-10.92
361.823	-4.78
362.034	64.85
362.245	46.42
362.456	-29.35
362.667	23.89
362.879	54.61
363.09	68.95
363.301	-2.73
363.512	23.89
363.723	66.9
363.935	11.61
364.146	9.56
364.357	13.65
364.568	77.14
364.779	-29.35
364.99	97.62
365.201	56.66
365.412	60.76
365.623	58.71
365.834	62.8
366.045	87.38
366.256	79.19
366.467	77.14
366.678	77.14
366.889	-66.22
367.1	-12.97
367.311	48.47
367.522	32.08
367.733	27.99
367.944	73.04
368.155	111.96
368.366	7.51
368.577	56.66
368.788	23.89
368.999	-62.12
369.209	46.42
369.42	-49.83
369.631	83.28
369.842	64.85
370.053	30.04
370.264	-2.73
370.474	-10.92
370.685	15.7
370.896	27.99
371.107	77.14
371.317	87.38
371.528	58.71
371.739	85.33
371.95	32.08
372.16	-0.68
372.371	-37.55
372.582	25.94
372.792	50.52
373.003	1.37
373.214	89.43
373.424	25.94
373.635	48.47
373.846	-49.83
374.056	-51.88
374.267	52.56
374.477	52.56
374.688	85.33
374.898	19.8
375.109	56.66
375.319	-15.02
375.53	-12.97
375.74	30.04
375.951	-2.73
376.161	-41.64
376.372	101.72
376.582	44.37
376.793	56.66
377.003	9.56
377.214	44.37
377.424	36.18
377.635	-4.78
377.845	-8.87
378.055	3.41
378.266	7.51
378.476	-19.11
378.686	13.65
378.897	60.76
379.107	44.37
379.317	-2.73
379.528	9.56
379.738	36.18
379.948	79.19
380.158	58.71
380.369	11.61
380.579	5.46
380.789	71
380.999	-0.68
381.21	64.85
381.42	40.28
381.63	-8.87
381.84	-10.92
382.05	97.62
382.261	64.85
382.471	124.24
382.681	54.61
382.891	48.47
383.101	-12.97
383.311	-37.55
383.521	-0.68
383.731	-4.78
383.941	-12.97
384.151	42.32
384.361	-27.31
384.571	40.28
384.781	87.38
384.991	5.46
385.201	77.14
385.411	36.18
385.621	1.37
385.831	36.18
386.041	15.7
386.251	17.75
386.461	95.57
386.671	17.75
386.881	23.89
387.091	-37.55
387.301	36.18
387.511	30.04
387.72	62.8
387.93	50.52
388.14	-19.11
388.35	13.65
388.56	79.19
388.769	15.7
388.979	-31.4
389.189	44.37
389.399	95.57
389.609	-12.97
389.818	60.76
390.028	-27.31
390.238	-25.26
390.447	-58.03
390.657	124.24
390.867	-10.92
391.076	-23.21
391.286	93.52
391.496	27.99
391.705	58.71
391.915	66.9
392.125	-12.97
392.334	56.66
392.544	50.52
392.753	9.56
392.963	118.1
393.172	77.14
393.382	7.51
393.591	71
393.801	32.08
394.01	128.34
394.22	85.33
394.429	109.91
394.639	34.13
394.848	38.23
395.058	89.43
395.267	60.76
395.477	60.76
395.686	52.56
395.895	56.66
396.105	105.81
396.314	13.65
396.524	42.32
396.733	85.33
396.942	91.48
397.152	54.61
397.361	5.46
397.57	71
397.78	46.42
397.989	50.52
398.198	126.29
398.407	25.94
398.617	52.56
398.826	93.52
399.035	40.28
399.244	52.56
399.453	46.42
399.663	103.76
399.872	83.28
400.081	32.08
400.29	1.37
400.499	-21.16
400.708	87.38
400.917	38.23
401.127	13.65
401.336	85.33
401.545	30.04
401.754	54.61
401.963	77.14
402.172	38.23
402.381	17.75
402.59	-19.11
402.799	85.33
403.008	103.76
403.217	27.99
403.426	75.09
403.635	3.41
403.844	15.7
404.053	91.48
404.262	-4.78
404.471	128.34
404.68	111.96
404.888	56.66
405.097	52.56
405.306	54.61
405.515	60.76
405.724	126.29
405.933	81.24
406.142	79.19
406.35	124.24
406.559	40.28
406.768	27.99
406.977	130.39
407.185	99.67
407.394	71
407.603	144.72
407.812	144.72
408.02	107.86
408.229	163.15
408.438	114
408.646	144.72
408.855	101.72
409.064	97.62
409.272	111.96
409.481	185.68
409.69	95.57
409.898	97.62
410.107	40.28
410.315	173.39
410.524	93.52
410.733	157.01
410.941	150.87
411.15	202.07
411.358	210.26
411.567	161.11
411.775	101.72
411.984	200.02
412.192	161.11
412.401	195.92
412.609	228.69
412.818	234.83
413.026	230.74
413.234	183.63
413.443	238.93
413.651	216.4
413.86	279.89
414.068	290.13
414.276	310.61
414.485	396.62
414.693	253.27
414.901	331.09
415.11	310.61
415.318	314.7
415.526	306.51
415.734	380.24
415.943	316.75
416.151	443.73
416.359	419.15
416.567	376.14
416.776	408.91
416.984	415.05
417.192	431.44
417.4	472.4
417.608	449.87
417.817	480.59
418.025	464.21
418.233	589.13
418.441	562.51
418.649	593.23
418.857	560.46
419.065	597.32
419.273	564.56
419.481	593.23
419.689	601.42
419.897	728.39
420.105	724.3
420.313	757.07
420.521	699.72
420.729	793.93
420.937	886.09
421.145	867.66
421.353	748.87
421.561	896.33
421.769	906.57
421.977	1000.77
422.185	902.47
422.393	1015.11
422.601	961.86
422.809	1094.98
423.017	1097.03
423.224	1125.7
423.432	1144.13
423.64	1174.85
423.848	1289.54
424.056	1238.34
424.263	1363.26
424.471	1365.31
424.679	1301.83
424.887	1443.14
425.094	1449.28
425.302	1523.01
425.51	1606.97
425.718	1596.73
425.925	1572.16
426.133	1781.05
426.341	1785.15
426.548	1817.91
426.756	1873.21
426.964	1799.48
427.171	1944.89
427.379	1938.74
427.586	2012.47
427.794	2118.97
428.001	2202.93
428.209	2340.15
428.417	2178.36
428.624	2323.76
428.832	2463.02
429.039	2393.39
429.247	2477.36
429.454	2600.24
429.662	2739.5
429.869	2544.94
430.076	2802.99
430.284	2821.42
430.491	2823.47
430.699	2968.87
430.906	3032.36
431.114	3036.45
431.321	3118.37
431.528	3317.03
431.736	3444
431.943	3648.8
432.15	3429.66
432.358	3597.6
432.565	3829.02
432.772	3603.74
432.979	3751.2
433.187	3947.8
433.394	3863.83
433.601	4222.23
433.808	4277.52
434.016	4189.46
434.223	4216.09
434.43	4631.82
434.637	4605.2
434.844	4771.08
435.052	4885.77
435.259	4822.28
435.466	5027.08
435.673	4910.35
435.88	5319.94
436.087	5596.42
436.294	5571.84
436.501	5397.76
436.708	5467.39
436.915	5782.78
437.122	5821.69
437.329	5876.99
437.537	6016.25
437.743	6321.4
437.95	6329.59
438.157	6352.12
438.364	6634.74
438.571	6616.3
438.778	6671.6
438.985	7437.54
439.192	6995.18
439.399	7187.69
439.606	7304.42
439.813	7519.46
440.02	7976.16
440.227	7769.31
440.433	7783.65
440.64	8099.03
440.847	8041.69
441.054	8162.52
441.261	8555.73
441.467	8449.24
441.674	8615.12
441.881	9145.55
442.088	9141.45
442.294	8950.99
442.501	9297.1
442.708	9483.46
442.914	9727.17
443.121	10269.88
443.328	9827.52
443.534	10669.23
443.741	10265.78
443.948	10196.15
444.154	10736.82
444.361	10917.04
444.568	10855.6
444.774	11142.32
444.981	11066.54
445.187	11463.85
445.394	11797.67
445.6	11793.57
445.807	12895.38
446.013	12342.42
446.22	12534.93
446.426	12997.77
446.633	13464.71
446.839	13501.58
447.046	12950.67
447.252	13751.43
447.459	13831.3
447.665	13689.99
447.871	14290.04
448.078	15019.12
448.284	14427.26
448.491	14601.33
448.697	15383.66
448.903	15529.06
449.11	15574.12
449.316	15434.86
449.522	15555.69
449.728	16100.45
449.935	16139.36
450.141	16075.87
450.347	16634.97
450.553	16086.11
450.76	16391.26
450.966	17034.32
451.172	16720.98
451.378	16954.45
451.584	16714.84
451.791	17286.22
451.997	17095.76
452.203	17507.4
452.409	17212.49
452.615	17482.83
452.821	16876.63
453.027	16682.07
453.233	17704.01
453.44	16821.33
453.646	17065.04
453.852	17194.06
454.058	17267.79
454.264	17009.75
454.47	17480.78
454.676	16622.68
454.882	17448.01
455.088	15907.94
455.294	16198.75
455.5	16436.31
455.705	16505.95
455.911	16008.29
456.117	15617.13
456.323	15484.01
456.529	14574.71
456.735	15529.06
456.941	14797.94
457.147	14806.13
457.352	14222.46
457.558	13929.6
457.764	14206.08
457.97	13683.84
458.176	13536.39
458.381	13687.94
458.587	12745.87
458.793	12713.11
458.999	12199.07
459.204	13020.3
459.41	12668.05
459.616	12022.94
459.821	11881.63
460.027	11859.1
460.233	11525.29
460.438	11103.4
460.644	11058.35
460.85	10597.56
461.055	10329.27
461.261	10486.97
461.466	9592
461.672	9387.21
461.878	10077.37
462.083	9356.49
462.289	9395.4
462.494	9014.48
462.7	8721.62
462.905	8619.22
463.111	8803.53
463.316	8705.23
463.522	8672.46
463.727	8776.91
463.932	8641.75
464.138	8365.27
464.343	8541.39
464.549	8469.72
464.754	8441.04
464.959	8369.37
465.165	8447.19
465.37	8121.56
465.575	7789.79
465.781	8309.97
465.986	8133.85
466.191	7918.81
466.397	7783.65
466.602	7365.86
466.807	7576.8
467.012	7722.21
467.218	7820.51
467.423	7544.03
467.628	7711.97
467.833	7886.04
468.038	7623.9
468.244	7279.85
468.449	7666.91
468.654	7523.55
468.859	7404.77
469.064	7421.16
