Data from USB4F104151__10__13-10-21-866.txt Node

Date: Fri Mar 14 13:10:21 EDT 2025
User: louis
Spectrometer: USB4F10415
Trigger mode: 4
Integration Time (sec): 2.000000E-2
Scans to average: 1
Electric dark correction enabled: true
Nonlinearity correction enabled: false
Boxcar width: 0
XAxis mode: Wavelengths
Number of Pixels in Spectrum: 3648
>>>>>Begin Spectral Data<<<<<
178.204	-136.53
178.424	-136.53
178.644	-136.53
178.864	-81.24
179.084	-60.76
179.304	19.11
179.524	12.97
179.744	-1.37
179.964	2.73
180.184	-1.37
180.404	-44.37
180.624	27.31
180.844	-17.75
181.064	-38.23
181.283	29.35
181.503	-44.37
181.723	55.98
181.943	-46.42
182.163	29.35
182.383	-11.61
182.602	-23.89
182.822	-9.56
183.042	90.79
183.262	-36.18
183.482	25.26
183.701	-5.46
183.921	45.74
184.141	23.21
184.361	31.4
184.58	-27.99
184.8	37.55
185.02	15.02
185.239	-3.41
185.459	-30.04
185.679	80.55
185.898	12.97
186.118	76.46
186.338	55.98
186.557	82.6
186.777	55.98
186.997	80.55
187.216	39.59
187.436	84.65
187.655	47.79
187.875	98.99
188.095	27.31
188.314	2.73
188.534	66.22
188.753	51.88
188.973	131.75
189.192	23.21
189.412	25.26
189.631	4.78
189.851	19.11
190.07	12.97
190.29	31.4
190.509	-25.94
190.729	-19.8
190.948	39.59
191.168	88.75
191.387	47.79
191.607	12.97
191.826	25.26
192.045	19.11
192.265	92.84
192.484	53.93
192.704	60.07
192.923	31.4
193.142	19.11
193.362	-11.61
193.581	51.88
193.8	33.45
194.02	78.51
194.239	51.88
194.458	98.99
194.678	29.35
194.897	-15.7
195.116	-11.61
195.335	76.46
195.555	78.51
195.774	92.84
195.993	80.55
196.212	37.55
196.432	76.46
196.651	4.78
196.87	96.94
197.089	117.42
197.308	31.4
197.528	86.7
197.747	31.4
197.966	55.98
198.185	94.89
198.404	2.73
198.623	23.21
198.842	158.38
199.062	45.74
199.281	123.56
199.5	41.64
199.719	10.92
199.938	60.07
200.157	10.92
200.376	47.79
200.595	109.23
200.814	70.31
201.033	23.21
201.252	103.08
201.471	2.73
201.69	4.78
201.909	55.98
202.128	62.12
202.347	68.27
202.566	60.07
202.785	-19.8
203.004	-11.61
203.223	135.85
203.442	51.88
203.661	88.75
203.879	35.5
204.098	82.6
204.317	-38.23
204.536	8.87
204.755	35.5
204.974	-27.99
205.193	21.16
205.411	68.27
205.63	2.73
205.849	33.45
206.068	-15.7
206.287	41.64
206.505	152.23
206.724	49.83
206.943	-21.84
207.162	49.83
207.381	76.46
207.599	29.35
207.818	70.31
208.037	37.55
208.255	-27.99
208.474	58.03
208.693	-13.65
208.911	39.59
209.13	72.36
209.349	62.12
209.567	94.89
209.786	74.41
210.005	-36.18
210.223	135.85
210.442	88.75
210.661	15.02
210.879	-1.37
211.098	107.18
211.316	31.4
211.535	6.83
211.753	-44.37
211.972	68.27
212.191	64.17
212.409	76.46
212.628	-13.65
212.846	6.83
213.065	86.7
213.283	141.99
213.502	-21.84
213.72	94.89
213.938	55.98
214.157	92.84
214.375	80.55
214.594	15.02
214.812	43.69
215.031	80.55
215.249	17.07
215.467	101.03
215.686	-19.8
215.904	92.84
216.122	-1.37
216.341	39.59
216.559	39.59
216.778	72.36
216.996	43.69
217.214	45.74
217.432	21.16
217.651	12.97
217.869	86.7
218.087	82.6
218.306	129.7
218.524	80.55
218.742	64.17
218.96	8.87
219.179	58.03
219.397	107.18
219.615	86.7
219.833	84.65
220.051	23.21
220.27	86.7
220.488	82.6
220.706	68.27
220.924	-5.46
221.142	-36.18
221.36	45.74
221.578	101.03
221.796	-3.41
222.015	-21.84
222.233	25.26
222.451	96.94
222.669	37.55
222.887	29.35
223.105	23.21
223.323	49.83
223.541	33.45
223.759	45.74
223.977	43.69
224.195	94.89
224.413	111.27
224.631	19.11
224.849	41.64
225.067	94.89
225.285	19.11
225.503	2.73
225.721	2.73
225.939	-17.75
226.157	51.88
226.375	62.12
226.592	51.88
226.81	35.5
227.028	55.98
227.246	125.61
227.464	17.07
227.682	62.12
227.9	53.93
228.117	15.02
228.335	31.4
228.553	58.03
228.771	68.27
228.989	27.31
229.206	21.16
229.424	-38.23
229.642	15.02
229.86	10.92
230.077	43.69
230.295	53.93
230.513	35.5
230.731	39.59
230.948	27.31
231.166	39.59
231.384	21.16
231.601	51.88
231.819	35.5
232.037	-5.46
232.254	-21.84
232.472	51.88
232.689	27.31
232.907	55.98
233.125	39.59
233.342	60.07
233.56	-5.46
233.777	62.12
233.995	31.4
234.213	109.23
234.43	23.21
234.648	78.51
234.865	8.87
235.083	90.79
235.3	21.16
235.518	92.84
235.735	84.65
235.953	58.03
236.17	41.64
236.388	39.59
236.605	80.55
236.822	139.94
237.04	47.79
237.257	45.74
237.475	27.31
237.692	-3.41
237.909	41.64
238.127	19.11
238.344	-17.75
238.562	68.27
238.779	0.68
238.996	-36.18
239.214	76.46
239.431	35.5
239.648	6.83
239.865	64.17
240.083	88.75
240.3	35.5
240.517	0.68
240.735	70.31
240.952	43.69
241.169	76.46
241.386	37.55
241.603	51.88
241.821	10.92
242.038	47.79
242.255	68.27
242.472	-1.37
242.689	49.83
242.907	49.83
243.124	80.55
243.341	51.88
243.558	-19.8
243.775	27.31
243.992	15.02
244.209	2.73
244.426	107.18
244.643	-3.41
244.86	2.73
245.078	90.79
245.295	53.93
245.512	82.6
245.729	8.87
245.946	43.69
246.163	41.64
246.38	45.74
246.597	-11.61
246.814	35.5
247.031	10.92
247.248	76.46
247.464	45.74
247.681	101.03
247.898	41.64
248.115	55.98
248.332	-13.65
248.549	19.11
248.766	-5.46
248.983	92.84
249.2	-27.99
249.417	45.74
249.633	27.31
249.85	33.45
250.067	27.31
250.284	39.59
250.501	-25.94
250.717	123.56
250.934	51.88
251.151	68.27
251.368	60.07
251.585	39.59
251.801	80.55
252.018	47.79
252.235	113.32
252.451	-21.84
252.668	-42.32
252.885	15.02
253.102	8.87
253.318	55.98
253.535	-21.84
253.752	15.02
253.968	53.93
254.185	78.51
254.401	31.4
254.618	12.97
254.835	27.31
255.051	113.32
255.268	49.83
255.484	66.22
255.701	15.02
255.917	31.4
256.134	47.79
256.351	82.6
256.567	-34.13
256.784	84.65
257	12.97
257.217	4.78
257.433	64.17
257.65	47.79
257.866	64.17
258.082	43.69
258.299	12.97
258.515	60.07
258.732	72.36
258.948	19.11
259.165	21.16
259.381	31.4
259.597	21.16
259.814	23.21
260.03	-13.65
260.246	10.92
260.463	2.73
260.679	70.31
260.895	58.03
261.112	72.36
261.328	55.98
261.544	29.35
261.761	62.12
261.977	66.22
262.193	-27.99
262.409	117.42
262.626	-7.51
262.842	-3.41
263.058	47.79
263.274	-95.57
263.49	47.79
263.707	15.02
263.923	33.45
264.139	6.83
264.355	74.41
264.571	84.65
264.787	43.69
265.004	88.75
265.22	60.07
265.436	53.93
265.652	21.16
265.868	-9.56
266.084	-13.65
266.3	68.27
266.516	-44.37
266.732	47.79
266.948	64.17
267.164	-11.61
267.38	21.16
267.596	21.16
267.812	127.66
268.028	125.61
268.244	-9.56
268.46	2.73
268.676	35.5
268.892	41.64
269.108	62.12
269.324	121.51
269.54	2.73
269.756	123.56
269.972	-13.65
270.188	43.69
270.403	82.6
270.619	53.93
270.835	70.31
271.051	25.26
271.267	35.5
271.483	68.27
271.698	15.02
271.914	72.36
272.13	51.88
272.346	-13.65
272.562	-38.23
272.777	49.83
272.993	64.17
273.209	-7.51
273.425	78.51
273.64	-38.23
273.856	49.83
274.072	27.31
274.287	29.35
274.503	53.93
274.719	-1.37
274.934	35.5
275.15	49.83
275.366	25.26
275.581	12.97
275.797	66.22
276.012	2.73
276.228	60.07
276.444	-25.94
276.659	82.6
276.875	33.45
277.09	37.55
277.306	19.11
277.521	82.6
277.737	12.97
277.952	27.31
278.168	47.79
278.383	55.98
278.599	92.84
278.814	103.08
279.03	82.6
279.245	125.61
279.461	35.5
279.676	27.31
279.892	39.59
280.107	15.02
280.322	-36.18
280.538	39.59
280.753	6.83
280.969	6.83
281.184	53.93
281.399	137.9
281.615	-54.61
281.83	29.35
282.045	-1.37
282.26	-17.75
282.476	113.32
282.691	90.79
282.906	43.69
283.122	62.12
283.337	-9.56
283.552	164.52
283.767	-9.56
283.983	96.94
284.198	-3.41
284.413	64.17
284.628	6.83
284.843	31.4
285.058	12.97
285.274	64.17
285.489	29.35
285.704	125.61
285.919	21.16
286.134	8.87
286.349	109.23
286.564	29.35
286.779	62.12
286.995	-5.46
287.21	-19.8
287.425	51.88
287.64	-32.08
287.855	49.83
288.07	43.69
288.285	68.27
288.5	35.5
288.715	49.83
288.93	8.87
289.145	109.23
289.36	33.45
289.575	-19.8
289.79	19.11
290.004	80.55
290.219	55.98
290.434	39.59
290.649	70.31
290.864	58.03
291.079	111.27
291.294	101.03
291.509	76.46
291.724	2.73
291.938	64.17
292.153	37.55
292.368	29.35
292.583	82.6
292.798	92.84
293.012	84.65
293.227	0.68
293.442	86.7
293.657	101.03
293.871	127.66
294.086	133.8
294.301	139.94
294.516	78.51
294.73	-17.75
294.945	43.69
295.16	62.12
295.374	-7.51
295.589	103.08
295.804	8.87
296.018	19.11
296.233	51.88
296.447	72.36
296.662	33.45
296.877	-13.65
297.091	72.36
297.306	21.16
297.52	21.16
297.735	111.27
297.949	66.22
298.164	60.07
298.378	103.08
298.593	-15.7
298.807	25.26
299.022	-17.75
299.236	35.5
299.451	82.6
299.665	53.93
299.88	150.18
300.094	64.17
300.309	66.22
300.523	88.75
300.737	43.69
300.952	31.4
301.166	84.65
301.381	80.55
301.595	72.36
301.809	-11.61
302.024	84.65
302.238	27.31
302.452	47.79
302.667	72.36
302.881	150.18
303.095	12.97
303.309	45.74
303.524	15.02
303.738	31.4
303.952	64.17
304.166	29.35
304.381	4.78
304.595	76.46
304.809	37.55
305.023	105.13
305.237	8.87
305.452	68.27
305.666	35.5
305.88	31.4
306.094	19.11
306.308	-5.46
306.522	12.97
306.736	35.5
306.95	17.07
307.164	6.83
307.379	4.78
307.593	55.98
307.807	47.79
308.021	84.65
308.235	47.79
308.449	37.55
308.663	-15.7
308.877	90.79
309.091	72.36
309.305	17.07
309.519	64.17
309.733	23.21
309.947	60.07
310.161	70.31
310.374	45.74
310.588	74.41
310.802	6.83
311.016	76.46
311.23	12.97
311.444	27.31
311.658	58.03
311.872	92.84
312.085	31.4
312.299	62.12
312.513	103.08
312.727	125.61
312.941	62.12
313.154	25.26
313.368	70.31
313.582	125.61
313.796	68.27
314.009	78.51
314.223	125.61
314.437	137.9
314.651	-13.65
314.864	45.74
315.078	19.11
315.292	33.45
315.505	64.17
315.719	55.98
315.933	76.46
316.146	103.08
316.36	88.75
316.573	105.13
316.787	-46.42
317.001	62.12
317.214	27.31
317.428	82.6
317.641	-32.08
317.855	2.73
318.068	39.59
318.282	84.65
318.495	72.36
318.709	101.03
318.922	115.37
319.136	76.46
319.349	88.75
319.563	68.27
319.776	92.84
319.99	62.12
320.203	19.11
320.417	53.93
320.63	101.03
320.843	15.02
321.057	70.31
321.27	51.88
321.483	78.51
321.697	117.42
321.91	105.13
322.124	76.46
322.337	47.79
322.55	68.27
322.763	45.74
322.977	84.65
323.19	29.35
323.403	72.36
323.617	8.87
323.83	51.88
324.043	64.17
324.256	31.4
324.469	72.36
324.683	33.45
324.896	68.27
325.109	64.17
325.322	10.92
325.535	144.04
325.748	23.21
325.962	15.02
326.175	12.97
326.388	70.31
326.601	98.99
326.814	33.45
327.027	90.79
327.24	51.88
327.453	4.78
327.666	27.31
327.879	117.42
328.092	-27.99
328.305	55.98
328.518	31.4
328.731	23.21
328.944	70.31
329.157	-52.56
329.37	66.22
329.583	98.99
329.796	70.31
330.009	-42.32
330.222	45.74
330.435	19.11
330.648	90.79
330.861	76.46
331.073	58.03
331.286	2.73
331.499	0.68
331.712	-62.8
331.925	60.07
332.138	109.23
332.35	76.46
332.563	2.73
332.776	148.14
332.989	76.46
333.202	-13.65
333.414	70.31
333.627	72.36
333.84	76.46
334.053	25.26
334.265	37.55
334.478	4.78
334.691	37.55
334.903	80.55
335.116	78.51
335.329	76.46
335.541	51.88
335.754	25.26
335.966	45.74
336.179	12.97
336.392	27.31
336.604	101.03
336.817	19.11
337.029	141.99
337.242	0.68
337.454	6.83
337.667	58.03
337.88	19.11
338.092	0.68
338.305	90.79
338.517	29.35
338.729	21.16
338.942	101.03
339.154	33.45
339.367	64.17
339.579	92.84
339.792	-21.84
340.004	51.88
340.217	15.02
340.429	-7.51
340.641	43.69
340.854	35.5
341.066	41.64
341.278	31.4
341.491	103.08
341.703	51.88
341.915	58.03
342.128	92.84
342.34	90.79
342.552	15.02
342.764	19.11
342.977	10.92
343.189	41.64
343.401	76.46
343.613	8.87
343.826	84.65
344.038	49.83
344.25	58.03
344.462	19.11
344.674	68.27
344.886	82.6
345.099	53.93
345.311	51.88
345.523	68.27
345.735	-9.56
345.947	70.31
346.159	35.5
346.371	96.94
346.583	27.31
346.795	84.65
347.007	37.55
347.219	53.93
347.431	64.17
347.643	62.12
347.855	4.78
348.067	62.12
348.279	-30.04
348.491	35.5
348.703	33.45
348.915	37.55
349.127	43.69
349.339	6.83
349.551	2.73
349.763	53.93
349.975	123.56
350.187	53.93
350.399	80.55
350.61	137.9
350.822	64.17
351.034	49.83
351.246	31.4
351.458	53.93
351.669	35.5
351.881	92.84
352.093	119.46
352.305	133.8
352.517	86.7
352.728	125.61
352.94	35.5
353.152	51.88
353.363	-13.65
353.575	82.6
353.787	76.46
353.999	66.22
354.21	168.62
354.422	64.17
354.633	-5.46
354.845	64.17
355.057	37.55
355.268	80.55
355.48	86.7
355.692	43.69
355.903	68.27
356.115	-27.99
356.326	25.26
356.538	64.17
356.749	76.46
356.961	103.08
357.172	74.41
357.384	72.36
357.595	168.62
357.807	64.17
358.018	105.13
358.23	86.7
358.441	84.65
358.653	60.07
358.864	55.98
359.075	58.03
359.287	39.59
359.498	103.08
359.709	72.36
359.921	6.83
360.132	55.98
360.344	55.98
360.555	78.51
360.766	94.89
360.977	137.9
361.189	141.99
361.4	64.17
361.611	35.5
361.823	148.14
362.034	70.31
362.245	74.41
362.456	74.41
362.667	101.03
362.879	21.16
363.09	6.83
363.301	135.85
363.512	35.5
363.723	21.16
363.935	29.35
364.146	82.6
364.357	125.61
364.568	29.35
364.779	-15.7
364.99	53.93
365.201	33.45
365.412	119.46
365.623	78.51
365.834	80.55
366.045	70.31
366.256	88.75
366.467	51.88
366.678	33.45
366.889	53.93
367.1	-1.37
367.311	39.59
367.522	23.21
367.733	27.31
367.944	103.08
368.155	0.68
368.366	47.79
368.577	15.02
368.788	47.79
368.999	86.7
369.209	141.99
369.42	103.08
369.631	92.84
369.842	51.88
370.053	10.92
370.264	96.94
370.474	53.93
370.685	103.08
370.896	17.07
371.107	82.6
371.317	66.22
371.528	160.42
371.739	96.94
371.95	27.31
372.16	43.69
372.371	51.88
372.582	31.4
372.792	-19.8
373.003	103.08
373.214	68.27
373.424	80.55
373.635	41.64
373.846	53.93
374.056	55.98
374.267	49.83
374.477	-7.51
374.688	103.08
374.898	72.36
375.109	47.79
375.319	62.12
375.53	86.7
375.74	58.03
375.951	70.31
376.161	43.69
376.372	72.36
376.582	51.88
376.793	6.83
377.003	49.83
377.214	43.69
377.424	60.07
377.635	80.55
377.845	84.65
378.055	86.7
378.266	15.02
378.476	62.12
378.686	123.56
378.897	96.94
379.107	125.61
379.317	148.14
379.528	19.11
379.738	37.55
379.948	62.12
380.158	70.31
380.369	101.03
380.579	125.61
380.789	53.93
380.999	76.46
381.21	109.23
381.42	105.13
381.63	35.5
381.84	74.41
382.05	70.31
382.261	45.74
382.471	70.31
382.681	64.17
382.891	84.65
383.101	168.62
383.311	10.92
383.521	62.12
383.731	133.8
383.941	105.13
384.151	49.83
384.361	21.16
384.571	29.35
384.781	103.08
384.991	82.6
385.201	111.27
385.411	113.32
385.621	119.46
385.831	107.18
386.041	37.55
386.251	60.07
386.461	135.85
386.671	74.41
386.881	41.64
387.091	31.4
387.301	103.08
387.511	49.83
387.72	58.03
387.93	82.6
388.14	17.07
388.35	35.5
388.56	160.42
388.769	92.84
388.979	103.08
389.189	92.84
389.399	90.79
389.609	121.51
389.818	150.18
390.028	62.12
390.238	117.42
390.447	66.22
390.657	43.69
390.867	47.79
391.076	35.5
391.286	-36.18
391.496	27.31
391.705	43.69
391.915	137.9
392.125	76.46
392.334	51.88
392.544	105.13
392.753	72.36
392.963	162.47
393.172	113.32
393.382	62.12
393.591	164.52
393.801	94.89
394.01	170.66
394.22	68.27
394.429	125.61
394.639	94.89
394.848	76.46
395.058	119.46
395.267	135.85
395.477	123.56
395.686	101.03
395.895	172.71
396.105	141.99
396.314	43.69
396.524	125.61
396.733	80.55
396.942	150.18
397.152	107.18
397.361	117.42
397.57	68.27
397.78	70.31
397.989	90.79
398.198	113.32
398.407	62.12
398.617	150.18
398.826	139.94
399.035	152.23
399.244	144.04
399.453	131.75
399.663	150.18
399.872	107.18
400.081	103.08
400.29	158.38
400.499	146.09
400.708	115.37
400.917	146.09
401.127	94.89
401.336	119.46
401.545	135.85
401.754	74.41
401.963	113.32
402.172	135.85
402.381	84.65
402.59	127.66
402.799	101.03
403.008	152.23
403.217	137.9
403.426	131.75
403.635	135.85
403.844	96.94
404.053	166.57
404.262	111.27
404.471	256.68
404.68	209.58
404.888	154.28
405.097	182.95
405.306	137.9
405.515	234.15
405.724	135.85
405.933	232.1
406.142	199.34
406.35	199.34
406.559	215.72
406.768	242.34
406.977	240.3
407.185	193.19
407.394	211.62
407.603	230.06
407.812	217.77
408.02	291.49
408.229	256.68
408.438	336.55
408.646	242.34
408.855	197.29
409.064	326.31
409.272	246.44
409.481	283.3
409.69	264.87
409.898	285.35
410.107	400.04
410.315	342.69
410.524	346.79
410.733	322.21
410.941	465.57
411.15	436.9
411.358	340.65
411.567	453.28
411.775	469.67
411.984	389.8
412.192	441
412.401	465.57
412.609	518.82
412.818	518.82
413.026	547.49
413.234	641.7
413.443	508.58
413.651	490.15
413.86	608.93
414.068	586.4
414.276	678.56
414.485	512.67
414.693	668.32
414.901	723.62
415.11	686.75
415.318	752.29
415.526	746.14
415.734	844.45
415.943	760.48
416.151	856.73
416.359	924.32
416.567	858.78
416.776	934.56
416.984	1020.57
417.192	1108.63
417.4	1075.87
417.608	1100.44
417.817	1116.83
418.025	1176.22
418.233	1258.14
418.441	1211.03
418.649	1219.22
418.857	1284.76
419.065	1321.62
419.273	1335.96
419.481	1503.89
419.689	1550.99
419.897	1526.42
420.105	1589.91
420.313	1530.52
420.521	1663.63
420.729	1800.85
420.937	1796.75
421.145	1847.95
421.353	1850
421.561	1970.83
421.769	2028.17
421.977	2134.67
422.185	2212.49
422.393	2245.26
422.601	2325.13
422.809	2372.23
423.017	2366.09
423.224	2544.26
423.432	2513.54
423.64	2632.32
423.848	2804.35
424.056	2730.62
424.263	3048.06
424.471	2951.81
424.679	2994.81
424.887	3123.84
425.094	3238.52
425.302	3306.1
425.51	3467.89
425.718	3551.86
425.925	3564.15
426.133	3691.12
426.341	3801.71
426.548	4090.48
426.756	3973.74
426.964	4262.51
427.171	4461.16
427.379	4403.82
427.586	4598.37
427.794	4799.07
428.001	4936.29
428.209	5239.39
428.417	5057.12
428.624	5540.44
428.832	5392.98
429.039	5329.5
429.247	5554.77
429.454	5886.54
429.662	6359.63
429.869	5761.62
430.076	6189.64
430.284	6130.25
430.491	6412.87
430.699	6689.35
430.906	6591.05
431.114	6883.91
431.321	7057.98
431.528	7316.03
431.736	7522.87
431.943	8116.78
432.15	7815.73
432.358	7721.52
432.565	8516.14
432.772	8317.48
432.979	8878.63
433.187	8890.92
433.394	8960.55
433.601	9533.98
433.808	9527.83
434.016	9566.74
434.223	9863.7
434.43	10553.87
434.637	10328.59
434.844	10865.16
435.052	11162.11
435.259	11076.1
435.466	11078.15
435.673	11082.24
435.88	11764.22
436.087	12165.62
436.294	12610.03
436.501	12306.93
436.708	12689.9
436.915	13033.96
437.122	13302.24
437.329	13312.48
437.537	13812.18
437.743	13969.88
437.95	14051.8
438.157	14592.46
438.364	15184.32
438.571	15135.17
438.778	15411.65
438.985	16669.1
439.192	15944.12
439.399	16382.38
439.606	16015.8
439.813	17248.68
440.02	18035.1
440.227	17584.54
440.433	17418.66
440.64	18243.99
440.847	18127.25
441.054	18622.86
441.261	19601.79
441.467	19546.5
441.674	19853.69
441.881	20361.59
442.088	20298.1
442.294	20351.35
442.501	20750.7
442.708	21301.61
442.914	22219.1
443.121	23298.38
443.328	22444.37
443.534	24281.4
443.741	23251.27
443.948	22942.03
444.154	24981.81
444.361	24443.19
444.568	24901.93
444.774	24639.79
444.981	25076.01
445.187	25794.85
445.394	27123.98
445.6	26663.19
445.807	29292.78
446.013	28023.04
446.22	28813.55
446.426	29634.79
446.633	29954.27
446.839	30755.03
447.046	29380.84
447.252	31922.37
447.459	31115.47
447.665	31293.65
447.871	32508.09
448.078	33929.38
448.284	32667.83
448.491	33491.12
448.697	34689.18
448.903	35457.17
449.11	35410.06
449.316	34842.78
449.522	35129.49
449.728	36587.64
449.935	36405.38
450.141	36835.45
450.347	37351.54
450.553	36368.51
450.76	36937.85
450.966	38334.56
451.172	37771.37
451.378	38897.75
451.584	37945.45
451.791	39077.97
451.997	38881.37
452.203	39481.42
452.409	39485.52
452.615	39430.22
452.821	38240.36
453.027	37675.12
453.233	39442.51
453.44	38377.57
453.646	38477.92
453.852	38981.72
454.058	39555.15
454.264	38025.32
454.47	39065.69
454.676	38334.56
454.882	39360.59
455.088	36040.84
455.294	36919.42
455.5	37597.29
455.705	37181.56
455.911	36157.57
456.117	35260.56
456.323	34750.62
456.529	33284.27
456.735	34793.62
456.941	33974.44
457.147	33208.5
457.352	32360.64
457.558	32346.3
457.764	32135.36
457.97	31690.95
458.176	30746.84
458.381	30925.01
458.587	29290.73
458.793	29374.7
458.999	28027.13
459.204	30148.83
459.41	29032.69
459.616	27377.93
459.821	27048.21
460.027	26761.49
460.233	26429.72
460.438	25098.54
460.644	25295.14
460.85	24363.32
461.055	23857.47
461.261	23726.4
461.466	21614.94
461.672	21250.41
461.878	23140.68
462.083	21270.89
462.289	21096.81
462.494	20711.79
462.7	19935.61
462.905	19614.08
463.111	20134.26
463.316	20074.87
463.522	19640.7
463.727	19777.92
463.932	19476.87
464.138	19403.14
464.343	19167.62
464.549	18864.52
464.754	19648.89
464.959	19396.99
465.165	19519.87
465.37	18426.26
465.575	17836.44
465.781	18586
465.986	18991.5
466.191	18311.57
466.397	17742.24
466.602	16736.68
466.807	17570.21
467.012	17631.65
467.218	17334.69
