Data from USB4F104151__32__13-10-56-023.txt Node

Date: Fri Mar 14 13:10:56 EDT 2025
User: louis
Spectrometer: USB4F10415
Trigger mode: 4
Integration Time (sec): 2.000000E-2
Scans to average: 1
Electric dark correction enabled: true
Nonlinearity correction enabled: false
Boxcar width: 0
XAxis mode: Wavelengths
Number of Pixels in Spectrum: 3648
>>>>>Begin Spectral Data<<<<<
178.204	-101.72
178.424	-101.72
178.644	-101.72
178.864	-103.76
179.084	-62.8
179.304	15.02
179.524	-44.37
179.744	6.83
179.964	15.02
180.184	45.74
180.404	-17.75
180.624	19.11
180.844	33.45
181.064	-19.8
181.283	-34.13
181.503	-30.04
181.723	10.92
181.943	15.02
182.163	-17.75
182.383	-56.66
182.602	55.98
182.822	8.87
183.042	19.11
183.262	-13.65
183.482	27.31
183.701	39.59
183.921	68.27
184.141	-1.37
184.361	70.31
184.58	27.31
184.8	31.4
185.02	19.11
185.239	29.35
185.459	12.97
185.679	51.88
185.898	21.16
186.118	66.22
186.338	8.87
186.557	105.13
186.777	43.69
186.997	51.88
187.216	27.31
187.436	60.07
187.655	111.27
187.875	43.69
188.095	27.31
188.314	47.79
188.534	49.83
188.753	33.45
188.973	25.26
189.192	27.31
189.412	31.4
189.631	125.61
189.851	-48.47
190.07	68.27
190.29	23.21
190.509	37.55
190.729	10.92
190.948	45.74
191.168	150.18
191.387	119.46
191.607	41.64
191.826	15.02
192.045	58.03
192.265	12.97
192.484	-44.37
192.704	60.07
192.923	8.87
193.142	41.64
193.362	15.02
193.581	29.35
193.8	15.02
194.02	101.03
194.239	37.55
194.458	15.02
194.678	74.41
194.897	78.51
195.116	-13.65
195.335	12.97
195.555	17.07
195.774	-17.75
195.993	96.94
196.212	12.97
196.432	105.13
196.651	60.07
196.87	90.79
197.089	92.84
197.308	53.93
197.528	66.22
197.747	41.64
197.966	29.35
198.185	80.55
198.404	82.6
198.623	96.94
198.842	4.78
199.062	58.03
199.281	76.46
199.5	-54.61
199.719	33.45
199.938	10.92
200.157	15.02
200.376	-7.51
200.595	-13.65
200.814	35.5
201.033	-27.99
201.252	55.98
201.471	-13.65
201.69	19.11
201.909	-13.65
202.128	45.74
202.347	107.18
202.566	80.55
202.785	27.31
203.004	70.31
203.223	94.89
203.442	12.97
203.661	-27.99
203.879	74.41
204.098	94.89
204.317	2.73
204.536	-21.85
204.755	70.31
204.974	60.07
205.193	35.5
205.411	96.94
205.63	29.35
205.849	27.31
206.068	53.93
206.287	41.64
206.505	70.31
206.724	12.97
206.943	58.03
207.162	76.46
207.381	74.41
207.599	76.46
207.818	-23.89
208.037	62.12
208.255	37.55
208.474	25.26
208.693	4.78
208.911	12.97
209.13	25.26
209.349	19.11
209.567	55.98
209.786	8.87
210.005	68.27
210.223	-11.61
210.442	10.92
210.661	33.45
210.879	37.55
211.098	60.07
211.316	80.55
211.535	101.03
211.753	33.45
211.972	58.03
212.191	15.02
212.409	47.79
212.628	8.87
212.846	64.17
213.065	101.03
213.283	17.07
213.502	37.55
213.72	64.17
213.938	0.68
214.157	86.7
214.375	-13.65
214.594	-21.85
214.812	109.22
215.031	21.16
215.249	84.65
215.467	19.11
215.686	76.46
215.904	35.5
216.122	92.84
216.341	72.36
216.559	-13.65
216.778	27.31
216.996	2.73
217.214	-11.61
217.432	31.4
217.651	-34.13
217.869	29.35
218.087	-19.8
218.306	10.92
218.524	35.5
218.742	66.22
218.96	58.03
219.179	117.42
219.397	60.07
219.615	37.55
219.833	105.13
220.051	45.74
220.27	4.78
220.488	68.27
220.706	10.92
220.924	31.4
221.142	66.22
221.36	60.07
221.578	4.78
221.796	-1.37
222.015	37.55
222.233	68.27
222.451	68.27
222.669	-23.89
222.887	12.97
223.105	10.92
223.323	27.31
223.541	78.51
223.759	84.65
223.977	35.5
224.195	58.03
224.413	17.07
224.631	0.68
224.849	55.98
225.067	94.89
225.285	21.16
225.503	80.55
225.721	-83.28
225.939	29.35
226.157	-19.8
226.375	96.94
226.592	12.97
226.81	96.94
227.028	33.45
227.246	76.46
227.464	37.55
227.682	70.31
227.9	51.88
228.117	84.65
228.335	19.11
228.553	21.16
228.771	-1.37
228.989	21.16
229.206	70.31
229.424	-5.46
229.642	55.98
229.86	6.83
230.077	-7.51
230.295	-27.99
230.513	66.22
230.731	10.92
230.948	64.17
231.166	72.36
231.384	-3.41
231.601	27.31
231.819	82.6
232.037	10.92
232.254	49.83
232.472	70.31
232.689	58.03
232.907	19.11
233.125	98.99
233.342	-54.61
233.56	37.55
233.777	55.98
233.995	55.98
234.213	10.92
234.43	15.02
234.648	0.68
234.865	103.08
235.083	92.84
235.3	43.69
235.518	62.12
235.735	60.07
235.953	37.55
236.17	35.5
236.388	6.83
236.605	12.97
236.822	60.07
237.04	39.59
237.257	80.55
237.475	82.6
237.692	51.88
237.909	37.55
238.127	43.69
238.344	23.21
238.562	80.55
238.779	-1.37
238.996	117.42
239.214	4.78
239.431	19.11
239.648	-15.7
239.865	-11.61
240.083	86.7
240.3	113.32
240.517	-32.08
240.735	113.32
240.952	103.08
241.169	76.46
241.386	68.27
241.603	12.97
241.821	43.69
242.038	51.88
242.255	113.32
242.472	21.16
242.689	35.5
242.907	66.22
243.124	68.27
243.341	92.84
243.558	88.75
243.775	53.93
243.992	-71
244.209	98.99
244.426	66.22
244.643	53.93
244.86	-5.46
245.078	6.83
245.295	29.35
245.512	-1.37
245.729	51.88
245.946	-9.56
246.163	39.59
246.38	64.17
246.597	12.97
246.814	68.27
247.031	94.89
247.248	80.55
247.464	60.07
247.681	10.92
247.898	55.98
248.115	55.98
248.332	-60.76
248.549	92.84
248.766	25.26
248.983	117.42
249.2	-1.37
249.417	31.4
249.633	62.12
249.85	109.22
250.067	35.5
250.284	58.03
250.501	43.69
250.717	88.75
250.934	-27.99
251.151	82.6
251.368	8.87
251.585	35.5
251.801	27.31
252.018	68.27
252.235	27.31
252.451	-3.41
252.668	0.68
252.885	60.07
253.102	-19.8
253.318	53.93
253.535	60.07
253.752	45.74
253.968	8.87
254.185	-21.85
254.401	37.55
254.618	86.7
254.835	17.07
255.051	19.11
255.268	45.74
255.484	47.79
255.701	-7.51
255.917	86.7
256.134	39.59
256.351	17.07
256.567	-68.95
256.784	12.97
257	15.02
257.217	72.36
257.433	55.98
257.65	101.03
257.866	68.27
258.082	8.87
258.299	37.55
258.515	88.75
258.732	15.02
258.948	-13.65
259.165	86.7
259.381	0.68
259.597	64.17
259.814	68.27
260.03	115.37
260.246	-36.18
260.463	101.03
260.679	66.22
260.895	64.17
261.112	101.03
261.328	49.83
261.544	19.11
261.761	-13.65
261.977	-17.75
262.193	29.35
262.409	55.98
262.626	25.26
262.842	64.17
263.058	-5.46
263.274	-5.46
263.49	68.27
263.707	29.35
263.923	31.4
264.139	31.4
264.355	41.64
264.571	29.35
264.787	68.27
265.004	19.11
265.22	35.5
265.436	43.69
265.652	8.87
265.868	37.55
266.084	70.31
266.3	70.31
266.516	-11.61
266.732	4.78
266.948	80.55
267.164	12.97
267.38	78.51
267.596	135.85
267.812	10.92
268.028	-5.46
268.244	2.73
268.46	-9.56
268.676	43.69
268.892	41.64
269.108	15.02
269.324	29.35
269.54	84.65
269.756	-3.41
269.972	4.78
270.188	23.21
270.403	62.12
270.619	31.4
270.835	74.41
271.051	-23.89
271.267	45.74
271.483	41.64
271.698	92.84
271.914	84.65
272.13	72.36
272.346	-3.41
272.562	74.41
272.777	43.69
272.993	-17.75
273.209	107.18
273.425	21.16
273.64	117.42
273.856	111.27
274.072	-3.41
274.287	-36.18
274.503	90.79
274.719	82.6
274.934	43.69
275.15	-40.28
275.366	39.59
275.581	-9.56
275.797	-3.41
276.012	78.51
276.228	10.92
276.444	74.41
276.659	62.12
276.875	6.83
277.09	-42.32
277.306	2.73
277.521	47.79
277.737	90.79
277.952	68.27
278.168	88.75
278.383	105.13
278.599	4.78
278.814	86.7
279.03	70.31
279.245	49.83
279.461	29.35
279.676	51.88
279.892	37.55
280.107	55.98
280.322	-75.09
280.538	84.65
280.753	-19.8
280.969	60.07
281.184	25.26
281.399	146.09
281.615	55.98
281.83	68.27
282.045	43.69
282.26	-7.51
282.476	58.03
282.691	58.03
282.906	55.98
283.122	39.59
283.337	-5.46
283.552	-5.46
283.767	2.73
283.983	0.68
284.198	29.35
284.413	53.93
284.628	-85.33
284.843	-9.56
285.058	78.51
285.274	68.27
285.489	10.92
285.704	68.27
285.919	88.75
286.134	60.07
286.349	10.92
286.564	23.21
286.779	27.31
286.995	60.07
287.21	10.92
287.425	101.03
287.64	64.17
287.855	6.83
288.07	27.31
288.285	58.03
288.5	47.79
288.715	-27.99
288.93	58.03
289.145	-9.56
289.36	17.07
289.575	103.08
289.79	103.08
290.004	-1.37
290.219	-3.41
290.434	41.64
290.649	21.16
290.864	39.59
291.079	27.31
291.294	-34.13
291.509	39.59
291.724	41.64
291.938	43.69
292.153	76.46
292.368	39.59
292.583	31.4
292.798	-13.65
293.012	64.17
293.227	62.12
293.442	51.88
293.657	76.46
293.871	101.03
294.086	35.5
294.301	51.88
294.516	158.38
294.73	35.5
294.945	41.64
295.16	58.03
295.374	96.94
295.589	90.79
295.804	12.97
296.018	64.17
296.233	70.31
296.447	43.69
296.662	31.4
296.877	35.5
297.091	88.75
297.306	64.17
297.52	2.73
297.735	45.74
297.949	12.97
298.164	96.94
298.378	2.73
298.593	-11.61
298.807	15.02
299.022	101.03
299.236	27.31
299.451	45.74
299.665	12.97
299.88	49.83
300.094	-15.7
300.309	49.83
300.523	2.73
300.737	37.55
300.952	70.31
301.166	60.07
301.381	41.64
301.595	29.35
301.809	-25.94
302.024	35.5
302.238	-68.95
302.452	53.93
302.667	12.97
302.881	41.64
303.095	78.51
303.309	0.68
303.524	21.16
303.738	49.83
303.952	23.21
304.166	60.07
304.381	-25.94
304.595	8.87
304.809	8.87
305.023	64.17
305.237	6.83
305.452	47.79
305.666	17.07
305.88	103.08
306.094	94.89
306.308	51.88
306.522	-17.75
306.736	62.12
306.95	25.26
307.164	45.74
307.379	-1.37
307.593	53.93
307.807	27.31
308.021	84.65
308.235	-23.89
308.449	27.31
308.663	82.6
308.877	92.84
309.091	62.12
309.305	-15.7
309.519	-1.37
309.733	117.42
309.947	2.73
310.161	53.93
310.374	62.12
310.588	68.27
310.802	37.55
311.016	19.11
311.23	27.31
311.444	62.12
311.658	64.17
311.872	60.07
312.085	29.35
312.299	103.08
312.513	55.98
312.727	139.94
312.941	-50.52
313.154	21.16
313.368	12.97
313.582	10.92
313.796	41.64
314.009	-9.56
314.223	64.17
314.437	117.42
314.651	55.98
314.864	78.51
315.078	53.93
315.292	27.31
315.505	41.64
315.719	58.03
315.933	76.46
316.146	-7.51
316.36	-42.32
316.573	55.98
316.787	84.65
317.001	76.46
317.214	76.46
317.428	80.55
317.641	53.93
317.855	25.26
318.068	2.73
318.282	101.03
318.495	101.03
318.709	39.59
318.922	10.92
319.136	27.31
319.349	51.88
319.563	117.42
319.776	47.79
319.99	49.83
320.203	76.46
320.417	47.79
320.63	37.55
320.843	125.61
321.057	68.27
321.27	-5.46
321.483	43.69
321.697	35.5
321.91	12.97
322.124	19.11
322.337	33.45
322.55	39.59
322.763	27.31
322.977	-21.85
323.19	-7.51
323.403	29.35
323.617	10.92
323.83	29.35
324.043	-11.61
324.256	39.59
324.469	12.97
324.683	98.99
324.896	70.31
325.109	6.83
325.322	41.64
325.535	94.89
325.748	70.31
325.962	117.42
326.175	45.74
326.388	88.75
326.601	29.35
326.814	-36.18
327.027	84.65
327.24	107.18
327.453	31.4
327.666	82.6
327.879	60.07
328.092	119.46
328.305	12.97
328.518	23.21
328.731	68.27
328.944	49.83
329.157	92.84
329.37	33.45
329.583	76.46
329.796	92.84
330.009	37.55
330.222	74.41
330.435	4.78
330.648	60.07
330.861	53.93
331.073	43.69
331.286	39.59
331.499	4.78
331.712	15.02
331.925	45.74
332.138	70.31
332.35	60.07
332.563	10.92
332.776	121.51
332.989	76.46
333.202	94.89
333.414	-7.51
333.627	58.03
333.84	8.87
334.053	25.26
334.265	98.99
334.478	0.68
334.691	45.74
334.903	64.17
335.116	-19.8
335.329	31.4
335.541	64.17
335.754	113.32
335.966	39.59
336.179	27.31
336.392	55.98
336.604	29.35
336.817	15.02
337.029	101.03
337.242	60.07
337.454	74.41
337.667	66.22
337.88	4.78
338.092	-38.23
338.305	76.46
338.517	78.51
338.729	15.02
338.942	64.17
339.154	41.64
339.367	84.65
339.579	19.11
339.792	41.64
340.004	66.22
340.217	68.27
340.429	6.83
340.641	-3.41
340.854	10.92
341.066	133.8
341.278	37.55
341.491	80.55
341.703	58.03
341.915	78.51
342.128	68.27
342.34	45.74
342.552	-13.65
342.764	70.31
342.977	-11.61
343.189	90.79
343.401	60.07
343.613	19.11
343.826	27.31
344.038	10.92
344.25	47.79
344.462	64.17
344.674	74.41
344.886	94.89
345.099	86.7
345.311	2.73
345.523	76.46
345.735	12.97
345.947	23.21
346.159	76.46
346.371	19.11
346.583	-17.75
346.795	94.89
347.007	111.27
347.219	58.03
347.431	2.73
347.643	64.17
347.855	-9.56
348.067	45.74
348.279	53.93
348.491	127.66
348.703	-1.37
348.915	33.45
349.127	62.12
349.339	45.74
349.551	92.84
349.763	70.31
349.975	21.16
350.187	62.12
350.399	55.98
350.61	86.7
350.822	27.31
351.034	94.89
351.246	82.6
351.458	103.08
351.669	51.88
351.881	72.36
352.093	41.64
352.305	49.83
352.517	82.6
352.728	35.5
352.94	33.45
353.152	80.55
353.363	53.93
353.575	109.22
353.787	51.88
353.999	141.99
354.21	15.02
354.422	66.22
354.633	62.12
354.845	68.27
355.057	53.93
355.268	72.36
355.48	60.07
355.692	35.5
355.903	103.08
356.115	68.27
356.326	-13.65
356.538	105.13
356.749	84.65
356.961	152.23
357.172	12.97
357.384	37.55
357.595	109.22
357.807	51.88
358.018	92.84
358.23	10.92
358.441	82.6
358.653	70.31
358.864	53.93
359.075	-38.23
359.287	43.69
359.498	78.51
359.709	82.6
359.921	10.92
360.132	31.4
360.344	43.69
360.555	12.97
360.766	80.55
360.977	84.65
361.189	27.31
361.4	15.02
361.611	49.83
361.823	121.51
362.034	96.94
362.245	31.4
362.456	62.12
362.667	80.55
362.879	6.83
363.09	76.46
363.301	70.31
363.512	47.79
363.723	78.51
363.935	-17.75
364.146	21.16
364.357	2.73
364.568	41.64
364.779	0.68
364.99	62.12
365.201	35.5
365.412	68.27
365.623	25.26
365.834	84.65
366.045	27.31
366.256	37.55
366.467	-13.65
366.678	82.6
366.889	45.74
367.1	76.46
367.311	23.21
367.522	41.64
367.733	17.07
367.944	113.32
368.155	53.93
368.366	103.08
368.577	94.89
368.788	70.31
368.999	27.31
369.209	51.88
369.42	144.04
369.631	66.22
369.842	37.55
370.053	68.27
370.264	43.69
370.474	-13.65
370.685	74.41
370.896	27.31
371.107	135.85
371.317	92.84
371.528	55.98
371.739	86.7
371.95	60.07
372.16	78.51
372.371	19.11
372.582	70.31
372.792	72.36
373.003	43.69
373.214	76.46
373.424	86.7
373.635	-30.04
373.846	109.22
374.056	66.22
374.267	10.92
374.477	19.11
374.688	45.74
374.898	-5.46
375.109	70.31
375.319	80.55
375.53	68.27
375.74	33.45
375.951	60.07
376.161	72.36
376.372	10.92
376.582	-7.51
376.793	64.17
377.003	4.78
377.214	53.93
377.424	115.37
377.635	43.69
377.845	-7.51
378.055	53.93
378.266	-5.46
378.476	53.93
378.686	86.7
378.897	35.5
379.107	45.74
379.317	64.17
379.528	31.4
379.738	43.69
379.948	43.69
380.158	76.46
380.369	21.16
380.579	45.74
380.789	27.31
380.999	82.6
381.21	-9.56
381.42	47.79
381.63	43.69
381.84	141.99
382.05	133.8
382.261	60.07
382.471	68.27
382.681	31.4
382.891	76.46
383.101	23.21
383.311	41.64
383.521	58.03
383.731	66.22
383.941	51.88
384.151	90.79
384.361	64.17
384.571	131.75
384.781	78.51
384.991	51.88
385.201	115.37
385.411	37.55
385.621	103.08
385.831	101.03
386.041	15.02
386.251	43.69
386.461	191.14
386.671	23.21
386.881	66.22
387.091	39.59
387.301	51.88
387.511	76.46
387.72	88.75
387.93	-7.51
388.14	88.75
388.35	80.55
388.56	64.17
388.769	35.5
388.979	70.31
389.189	55.98
389.399	86.7
389.609	86.7
389.818	94.89
390.028	23.21
390.238	41.64
390.447	76.46
390.657	119.46
390.867	92.84
391.076	103.08
391.286	51.88
391.496	105.13
391.705	64.17
391.915	19.11
392.125	84.65
392.334	64.17
392.544	35.5
392.753	12.97
392.963	47.79
393.172	49.83
393.382	58.03
393.591	182.95
393.801	35.5
394.01	113.32
394.22	74.41
394.429	94.89
394.639	51.88
394.848	109.22
395.058	135.85
395.267	66.22
395.477	23.21
395.686	123.56
395.895	33.45
396.105	111.27
396.314	98.99
396.524	51.88
396.733	76.46
396.942	62.12
397.152	-1.37
397.361	98.99
397.57	60.07
397.78	107.18
397.989	84.65
398.198	176.81
398.407	119.46
398.617	133.8
398.826	66.22
399.035	113.32
399.244	160.42
399.453	154.28
399.663	84.65
399.872	105.13
400.081	68.27
400.29	117.42
400.499	101.03
400.708	109.22
400.917	109.22
401.127	84.65
401.336	10.92
401.545	162.47
401.754	96.94
401.963	47.79
402.172	43.69
402.381	86.7
402.59	86.7
402.799	82.6
403.008	207.53
403.217	64.17
403.426	144.04
403.635	205.48
403.844	133.8
404.053	170.66
404.262	103.08
404.471	84.65
404.68	70.31
404.888	133.8
405.097	117.42
405.306	117.42
405.515	168.62
405.724	158.38
405.933	137.9
406.142	152.23
406.35	248.49
406.559	164.52
406.768	166.57
406.977	223.91
407.185	158.38
407.394	160.42
407.603	90.79
407.812	217.77
408.02	201.38
408.229	170.66
408.438	187.05
408.646	182.95
408.855	187.05
409.064	215.72
409.272	211.62
409.481	246.44
409.69	141.99
409.898	228.01
410.107	211.62
410.315	244.39
410.524	285.35
410.733	279.21
410.941	221.86
411.15	361.13
411.358	334.5
411.567	365.22
411.775	299.69
411.984	307.88
412.192	260.77
412.401	289.45
412.609	344.74
412.818	420.52
413.026	416.42
413.234	383.65
413.443	381.6
413.651	424.61
413.86	455.33
414.068	469.67
414.276	404.13
414.485	475.81
414.693	535.2
414.901	582.31
415.11	555.68
415.318	504.48
415.526	471.72
415.734	484
415.943	555.68
416.151	686.75
416.359	598.69
416.567	639.65
416.776	586.4
416.984	729.76
417.192	719.52
417.4	627.36
417.608	674.46
417.817	785.05
418.025	821.92
418.233	875.17
418.441	774.81
418.649	903.84
418.857	848.54
419.065	946.84
419.273	1002.14
419.481	1039
419.689	1020.57
419.897	1139.35
420.105	1088.15
420.313	1141.4
420.521	1198.74
420.729	1190.55
420.937	1174.17
421.145	1297.05
421.353	1335.96
421.561	1393.3
421.769	1397.4
421.977	1501.84
422.185	1428.12
422.393	1522.32
422.601	1688.21
422.809	1690.26
423.017	1669.78
423.224	1704.59
423.432	1786.51
423.64	1858.19
423.848	1895.05
424.056	1948.3
424.263	2019.98
424.471	2165.39
424.679	2110.09
424.887	2130.57
425.094	2312.84
425.302	2263.69
425.51	2337.41
425.718	2511.49
425.925	2374.28
426.133	2478.72
426.341	2620.03
426.548	2822.78
426.756	2747.01
426.964	2882.17
427.171	3058.3
427.379	3197.56
427.586	3140.22
427.794	3142.27
428.001	3369.59
428.209	3670.64
428.417	3443.32
428.624	3748.47
428.832	3709.55
429.039	3838.58
429.247	3811.95
429.454	4033.13
429.662	4338.28
429.869	3979.89
430.076	4463.21
430.284	4256.36
430.491	4323.94
430.699	4635.24
430.906	4721.25
431.114	4844.13
431.321	4956.77
431.528	4921.95
431.736	5306.97
431.943	5755.47
432.15	5317.21
432.358	5519.96
432.565	5782.1
432.772	5775.95
432.979	5978.7
433.187	6212.17
433.394	6117.97
433.601	6580.81
433.808	6505.03
434.016	6593.09
434.223	6941.25
434.43	7342.65
434.637	7250.49
434.844	7467.58
435.052	7758.39
435.259	7834.16
435.466	7658.04
435.673	7674.42
435.88	8286.76
436.087	8596.01
436.294	8651.3
436.501	8329.77
436.708	8641.06
436.915	8927.78
437.122	9163.29
437.329	9234.97
437.537	9574.94
437.743	9890.32
437.95	9583.13
438.157	10146.32
438.364	10549.77
438.571	10390.03
438.778	10566.15
438.985	11426.3
439.192	10983.94
439.399	11401.72
439.606	11207.17
439.813	11821.56
440.02	12585.45
440.227	12452.33
440.433	12179.95
440.64	12737
440.847	12423.66
441.054	12648.94
441.261	13636.06
441.467	13738.46
441.674	13818.33
441.881	14328.27
442.088	14281.17
442.294	14303.7
442.501	14371.28
442.708	14639.56
442.914	15315.39
443.121	15811
443.328	15690.17
443.534	16767.4
443.741	16081.33
443.948	15780.28
444.154	17246.63
444.361	17019.3
444.568	17340.83
444.774	17197.48
444.981	17373.6
445.187	17985.94
445.394	18661.77
445.6	18485.65
445.807	20308.34
446.013	19386.75
446.22	19829.12
446.426	20822.38
446.633	20730.22
446.839	21490.02
447.046	20574.58
447.252	21598.56
447.459	22026.59
447.665	21721.44
447.871	22546.77
448.078	23537.99
448.284	22409.56
448.491	23183.69
448.697	24123.71
448.903	24435
449.11	24764.72
449.316	24219.96
449.522	24742.19
449.728	25268.52
449.935	25575.72
450.141	25692.45
450.347	26351.9
450.553	25497.89
450.76	25870.62
450.966	26728.72
451.172	26454.29
451.378	26896.66
451.584	26712.34
451.791	26976.53
451.997	27285.77
452.203	27400.46
452.409	27787.52
452.615	27572.49
452.821	26568.98
453.027	26331.42
453.233	27752.71
453.44	26777.87
453.646	26745.11
453.852	26941.71
454.058	27271.43
454.264	26849.55
454.47	27486.47
454.676	26544.41
454.882	27789.57
455.088	25030.96
455.294	25239.85
455.5	26032.41
455.705	26206.49
455.911	25172.27
456.117	24764.72
456.323	24516.92
456.529	23386.44
456.735	23894.33
456.941	23671.11
457.147	22892.88
457.352	22485.33
457.558	22245.72
457.764	22407.51
457.97	22040.92
458.176	21322.09
458.381	21426.53
458.587	20281.72
458.793	20560.24
458.999	19214.73
459.204	20488.56
459.41	19933.56
459.616	18907.53
459.821	19030.41
460.027	18975.11
460.233	18639.25
460.438	17658.27
460.644	17799.58
460.85	16767.4
461.055	16855.47
461.261	16697.77
461.466	15481.28
461.672	14825.93
461.878	16085.43
462.083	14782.92
462.289	14584.27
462.494	14701
462.7	13724.12
462.905	13222.37
463.111	14043.6
463.316	14025.17
463.522	13593.05
463.727	13666.78
463.932	13689.31
464.138	13638.11
464.343	13529.56
464.549	13015.52
464.754	13687.26
464.959	13461.98
465.165	13181.41
465.37	12982.76
465.575	12315.12
465.781	13021.67
465.986	13011.43
466.191	12433.9
466.397	12411.37
466.602	11651.58
466.807	12249.58
467.012	12188.14
467.218	12077.55
467.423	11895.29
467.628	12225.01
467.833	12698.09
468.038	12270.06
