Data from USB4F104151__88__13-13-03-450.txt Node

Date: Fri Mar 14 13:13:03 EDT 2025
User: louis
Spectrometer: USB4F10415
Trigger mode: 4
Integration Time (sec): 2.000000E-2
Scans to average: 1
Electric dark correction enabled: true
Nonlinearity correction enabled: false
Boxcar width: 0
XAxis mode: Wavelengths
Number of Pixels in Spectrum: 3648
>>>>>Begin Spectral Data<<<<<
178.204	-27.99
178.424	-27.99
178.644	-27.99
178.864	-114
179.084	-101.72
179.304	-19.8
179.524	0.68
179.744	-15.7
179.964	-11.61
180.184	-38.23
180.404	68.27
180.624	4.78
180.844	17.07
181.064	-1.37
181.283	-1.37
181.503	-1.37
181.723	-1.37
181.943	-21.85
182.163	68.27
182.383	10.92
182.602	19.11
182.822	15.02
183.042	-23.89
183.262	15.02
183.482	60.07
183.701	25.26
183.921	19.11
184.141	6.83
184.361	55.98
184.58	43.69
184.8	33.45
185.02	-38.23
185.239	15.02
185.459	47.79
185.679	-17.75
185.898	-7.51
186.118	2.73
186.338	-7.51
186.557	-21.85
186.777	-13.65
186.997	-15.7
187.216	47.79
187.436	41.64
187.655	-21.85
187.875	33.45
188.095	-30.04
188.314	41.64
188.534	33.45
188.753	51.88
188.973	49.83
189.192	80.55
189.412	41.64
189.631	39.59
189.851	88.75
190.07	6.83
190.29	8.87
190.509	94.89
190.729	-64.85
190.948	70.31
191.168	115.37
191.387	25.26
191.607	35.5
191.826	-15.7
192.045	-13.65
192.265	2.73
192.484	19.11
192.704	127.66
192.923	19.11
193.142	123.56
193.362	-5.46
193.581	109.22
193.8	-5.46
194.02	58.03
194.239	78.51
194.458	6.83
194.678	51.88
194.897	-1.37
195.116	51.88
195.335	55.98
195.555	51.88
195.774	0.68
195.993	-9.56
196.212	82.6
196.432	-60.76
196.651	27.31
196.87	-23.89
197.089	15.02
197.308	68.27
197.528	66.22
197.747	-11.61
197.966	80.55
198.185	90.79
198.404	-25.94
198.623	0.68
198.842	-36.18
199.062	6.83
199.281	84.65
199.5	39.59
199.719	47.79
199.938	90.79
200.157	29.35
200.376	-68.95
200.595	-1.37
200.814	51.88
201.033	31.4
201.252	70.31
201.471	53.93
201.69	-15.7
201.909	21.16
202.128	64.17
202.347	39.59
202.566	21.16
202.785	-7.51
203.004	-32.08
203.223	51.88
203.442	-23.89
203.661	-1.37
203.879	15.02
204.098	68.27
204.317	31.4
204.536	-32.08
204.755	35.5
204.974	15.02
205.193	21.16
205.411	-1.37
205.63	53.93
205.849	-23.89
206.068	4.78
206.287	76.46
206.505	19.11
206.724	-17.75
206.943	-34.13
207.162	15.02
207.381	33.45
207.599	-21.85
207.818	2.73
208.037	37.55
208.255	15.02
208.474	10.92
208.693	-25.94
208.911	47.79
209.13	64.17
209.349	94.89
209.567	101.03
209.786	31.4
210.005	35.5
210.223	-23.89
210.442	-21.85
210.661	92.84
210.879	60.07
211.098	37.55
211.316	19.11
211.535	19.11
211.753	-7.51
211.972	64.17
212.191	2.73
212.409	4.78
212.628	21.16
212.846	-27.99
213.065	-11.61
213.283	47.79
213.502	37.55
213.72	37.55
213.938	27.31
214.157	49.83
214.375	64.17
214.594	15.02
214.812	-27.99
215.031	55.98
215.249	58.03
215.467	4.78
215.686	49.83
215.904	39.59
216.122	8.87
216.341	55.98
216.559	35.5
216.778	51.88
216.996	17.07
217.214	-13.65
217.432	17.07
217.651	39.59
217.869	64.17
218.087	27.31
218.306	17.07
218.524	45.74
218.742	41.64
218.96	39.59
219.179	-71
219.397	96.94
219.615	76.46
219.833	-25.94
220.051	-48.47
220.27	25.26
220.488	109.22
220.706	62.12
220.924	88.75
221.142	51.88
221.36	25.26
221.578	15.02
221.796	41.64
222.015	27.31
222.233	21.16
222.451	55.98
222.669	39.59
222.887	29.35
223.105	4.78
223.323	10.92
223.541	2.73
223.759	121.51
223.977	80.55
224.195	129.7
224.413	82.6
224.631	80.55
224.849	0.68
225.067	-13.65
225.285	12.97
225.503	23.21
225.721	41.64
225.939	15.02
226.157	25.26
226.375	84.65
226.592	47.79
226.81	80.55
227.028	8.87
227.246	47.79
227.464	60.07
227.682	49.83
227.9	2.73
228.117	72.36
228.335	23.21
228.553	70.31
228.771	-23.89
228.989	86.7
229.206	55.98
229.424	23.21
229.642	33.45
229.86	10.92
230.077	58.03
230.295	43.69
230.513	-5.46
230.731	25.26
230.948	51.88
231.166	15.02
231.384	25.26
231.601	-56.66
231.819	47.79
232.037	-21.85
232.254	25.26
232.472	-13.65
232.689	-17.75
232.907	2.73
233.125	17.07
233.342	51.88
233.56	-9.56
233.777	55.98
233.995	-15.7
234.213	72.36
234.43	62.12
234.648	21.16
234.865	33.45
235.083	105.13
235.3	35.5
235.518	96.94
235.735	-3.41
235.953	31.4
236.17	53.93
236.388	25.26
236.605	-3.41
236.822	47.79
237.04	66.22
237.257	15.02
237.475	-21.85
237.692	-19.8
237.909	12.97
238.127	4.78
238.344	23.21
238.562	-1.37
238.779	25.26
238.996	6.83
239.214	39.59
239.431	-1.37
239.648	39.59
239.865	35.5
240.083	76.46
240.3	12.97
240.517	76.46
240.735	4.78
240.952	39.59
241.169	64.17
241.386	27.31
241.603	37.55
241.821	-73.04
242.038	55.98
242.255	-44.37
242.472	-71
242.689	51.88
242.907	19.11
243.124	-11.61
243.341	25.26
243.558	0.68
243.775	15.02
243.992	19.11
244.209	23.21
244.426	51.88
244.643	58.03
244.86	60.07
245.078	64.17
245.295	37.55
245.512	19.11
245.729	53.93
245.946	19.11
246.163	47.79
246.38	41.64
246.597	-3.41
246.814	70.31
247.031	17.07
247.248	19.11
247.464	27.31
247.681	-13.65
247.898	0.68
248.115	-9.56
248.332	23.21
248.549	55.98
248.766	47.79
248.983	84.65
249.2	31.4
249.417	55.98
249.633	2.73
249.85	33.45
250.067	31.4
250.284	23.21
250.501	-15.7
250.717	76.46
250.934	-21.85
251.151	-9.56
251.368	39.59
251.585	15.02
251.801	31.4
252.018	-30.04
252.235	43.69
252.451	33.45
252.668	0.68
252.885	94.89
253.102	62.12
253.318	-7.51
253.535	0.68
253.752	-38.23
253.968	8.87
254.185	27.31
254.401	15.02
254.618	66.22
254.835	23.21
255.051	25.26
255.268	-34.13
255.484	19.11
255.701	-36.18
255.917	15.02
256.134	-60.76
256.351	15.02
256.567	-21.85
256.784	-52.56
257	-13.65
257.217	8.87
257.433	41.64
257.65	31.4
257.866	41.64
258.082	-40.28
258.299	-19.8
258.515	62.12
258.732	23.21
258.948	-21.85
259.165	78.51
259.381	4.78
259.597	41.64
259.814	0.68
260.03	60.07
260.246	-7.51
260.463	0.68
260.679	72.36
260.895	25.26
261.112	27.31
261.328	51.88
261.544	-7.51
261.761	82.6
261.977	55.98
262.193	8.87
262.409	0.68
262.626	19.11
262.842	-19.8
263.058	-27.99
263.274	84.65
263.49	33.45
263.707	80.55
263.923	19.11
264.139	-25.94
264.355	21.16
264.571	88.75
264.787	41.64
265.004	33.45
265.22	10.92
265.436	2.73
265.652	92.84
265.868	8.87
266.084	0.68
266.3	51.88
266.516	-3.41
266.732	90.79
266.948	23.21
267.164	6.83
267.38	39.59
267.596	-23.89
267.812	64.17
268.028	64.17
268.244	-27.99
268.46	68.27
268.676	31.4
268.892	-9.56
269.108	-9.56
269.324	88.75
269.54	53.93
269.756	17.07
269.972	-60.76
270.188	-1.37
270.403	25.26
270.619	78.51
270.835	39.59
271.051	74.41
271.267	23.21
271.483	-7.51
271.698	103.08
271.914	72.36
272.13	8.87
272.346	74.41
272.562	-66.9
272.777	4.78
272.993	74.41
273.209	-36.18
273.425	15.02
273.64	-32.08
273.856	51.88
274.072	6.83
274.287	2.73
274.503	31.4
274.719	105.13
274.934	62.12
275.15	-23.89
275.366	-40.28
275.581	-27.99
275.797	-9.56
276.012	-34.13
276.228	0.68
276.444	60.07
276.659	107.18
276.875	49.83
277.09	17.07
277.306	-15.7
277.521	88.75
277.737	-9.56
277.952	-9.56
278.168	12.97
278.383	74.41
278.599	80.55
278.814	-3.41
279.03	27.31
279.245	66.22
279.461	47.79
279.676	-15.7
279.892	31.4
280.107	19.11
280.322	33.45
280.538	88.75
280.753	-19.8
280.969	78.51
281.184	68.27
281.399	111.27
281.615	-30.04
281.83	31.4
282.045	8.87
282.26	84.65
282.476	68.27
282.691	47.79
282.906	27.31
283.122	25.26
283.337	-64.85
283.552	23.21
283.767	33.45
283.983	39.59
284.198	58.03
284.413	-11.61
284.628	19.11
284.843	-83.28
285.058	55.98
285.274	-21.85
285.489	8.87
285.704	82.6
285.919	33.45
286.134	-36.18
286.349	58.03
286.564	-34.13
286.779	55.98
286.995	101.03
287.21	-1.37
287.425	29.35
287.64	37.55
287.855	17.07
288.07	12.97
288.285	80.55
288.5	66.22
288.715	127.66
288.93	-27.99
289.145	51.88
289.36	72.36
289.575	4.78
289.79	35.5
290.004	33.45
290.219	15.02
290.434	0.68
290.649	-25.94
290.864	-19.8
291.079	-23.89
291.294	39.59
291.509	39.59
291.724	8.87
291.938	19.11
292.153	-40.28
292.368	23.21
292.583	49.83
292.798	2.73
293.012	23.21
293.227	31.4
293.442	88.75
293.657	101.03
293.871	21.16
294.086	37.55
294.301	-1.37
294.516	101.03
294.73	0.68
294.945	55.98
295.16	-7.51
295.374	78.51
295.589	51.88
295.804	25.26
296.018	47.79
296.233	27.31
296.447	70.31
296.662	27.31
296.877	8.87
297.091	115.37
297.306	-1.37
297.52	60.07
297.735	21.16
297.949	-32.08
298.164	76.46
298.378	51.88
298.593	80.55
298.807	-40.28
299.022	45.74
299.236	64.17
299.451	47.79
299.665	25.26
299.88	31.4
300.094	51.88
300.309	92.84
300.523	98.99
300.737	27.31
300.952	-9.56
301.166	96.94
301.381	-1.37
301.595	107.18
301.809	-7.51
302.024	12.97
302.238	-9.56
302.452	121.51
302.667	53.93
302.881	88.75
303.095	80.55
303.309	21.16
303.524	25.26
303.738	60.07
303.952	15.02
304.166	115.37
304.381	2.73
304.595	88.75
304.809	49.83
305.023	68.27
305.237	27.31
305.452	-21.85
305.666	-25.94
305.88	29.35
306.094	21.16
306.308	51.88
306.522	90.79
306.736	55.98
306.95	23.21
307.164	19.11
307.379	33.45
307.593	76.46
307.807	103.08
308.021	109.22
308.235	-36.18
308.449	-5.46
308.663	21.16
308.877	23.21
309.091	-36.18
309.305	23.21
309.519	-46.42
309.733	41.64
309.947	-50.52
310.161	55.98
310.374	78.51
310.588	27.31
310.802	-13.65
311.016	64.17
311.23	29.35
311.444	-9.56
311.658	15.02
311.872	33.45
312.085	29.35
312.299	-1.37
312.513	-30.04
312.727	21.16
312.941	23.21
313.154	27.31
313.368	78.51
313.582	-30.04
313.796	-13.65
314.009	-34.13
314.223	-9.56
314.437	-5.46
314.651	-38.23
314.864	25.26
315.078	15.02
315.292	-13.65
315.505	-34.13
315.719	8.87
315.933	47.79
316.146	60.07
316.36	2.73
316.573	49.83
316.787	96.94
317.001	23.21
317.214	53.93
317.428	10.92
317.641	-46.42
317.855	-34.13
318.068	62.12
318.282	60.07
318.495	162.47
318.709	31.4
318.922	-5.46
319.136	27.31
319.349	-13.65
319.563	53.93
319.776	41.64
319.99	8.87
320.203	41.64
320.417	37.55
320.63	-17.75
320.843	37.55
321.057	60.07
321.27	17.07
321.483	-7.51
321.697	25.26
321.91	94.89
322.124	74.41
322.337	33.45
322.55	-19.8
322.763	80.55
322.977	78.51
323.19	-19.8
323.403	74.41
323.617	55.98
323.83	25.26
324.043	78.51
324.256	15.02
324.469	19.11
324.683	72.36
324.896	-23.89
325.109	31.4
325.322	-34.13
325.535	-40.28
325.748	35.5
325.962	80.55
326.175	88.75
326.388	31.4
326.601	-23.89
326.814	29.35
327.027	21.16
327.24	33.45
327.453	27.31
327.666	33.45
327.879	101.03
328.092	45.74
328.305	47.79
328.518	-1.37
328.731	33.45
328.944	60.07
329.157	0.68
329.37	64.17
329.583	27.31
329.796	15.02
330.009	2.73
330.222	27.31
330.435	47.79
330.648	6.83
330.861	31.4
331.073	58.03
331.286	60.07
331.499	60.07
331.712	-5.46
331.925	25.26
332.138	33.45
332.35	49.83
332.563	-91.48
332.776	21.16
332.989	-9.56
333.202	105.13
333.414	47.79
333.627	35.5
333.84	39.59
334.053	29.35
334.265	-15.7
334.478	45.74
334.691	35.5
334.903	-15.7
335.116	72.36
335.329	96.94
335.541	12.97
335.754	80.55
335.966	64.17
336.179	2.73
336.392	-5.46
336.604	51.88
336.817	27.31
337.029	41.64
337.242	17.07
337.454	41.64
337.667	6.83
337.88	41.64
338.092	17.07
338.305	19.11
338.517	-19.8
338.729	-23.89
338.942	66.22
339.154	-17.75
339.367	21.16
339.579	58.03
339.792	55.98
340.004	90.79
340.217	19.11
340.429	25.26
340.641	58.03
340.854	8.87
341.066	-23.89
341.278	66.22
341.491	51.88
341.703	58.03
341.915	-27.99
342.128	66.22
342.34	25.26
342.552	8.87
342.764	25.26
342.977	-27.99
343.189	82.6
343.401	64.17
343.613	15.02
343.826	78.51
344.038	113.32
344.25	76.46
344.462	17.07
344.674	-25.94
344.886	-27.99
345.099	55.98
345.311	-32.08
345.523	-9.56
345.735	-11.61
345.947	25.26
346.159	35.5
346.371	0.68
346.583	-23.89
346.795	41.64
347.007	-30.04
347.219	53.93
347.431	84.65
347.643	80.55
347.855	-1.37
348.067	15.02
348.279	2.73
348.491	27.31
348.703	70.31
348.915	64.17
349.127	6.83
349.339	41.64
349.551	-1.37
349.763	43.69
349.975	88.75
350.187	58.03
350.399	92.84
350.61	-1.37
350.822	-36.18
351.034	88.75
351.246	-81.24
351.458	88.75
351.669	-13.65
351.881	41.64
352.093	2.73
352.305	27.31
352.517	60.07
352.728	88.75
352.94	27.31
353.152	96.94
353.363	80.55
353.575	-5.46
353.787	68.27
353.999	39.59
354.21	55.98
354.422	31.4
354.633	29.35
354.845	58.03
355.057	6.83
355.268	47.79
355.48	45.74
355.692	47.79
355.903	8.87
356.115	23.21
356.326	-30.04
356.538	27.31
356.749	4.78
356.961	47.79
357.172	72.36
357.384	2.73
357.595	66.22
357.807	12.97
358.018	-11.61
358.23	-73.04
358.441	55.98
358.653	107.18
358.864	6.83
359.075	2.73
359.287	137.9
359.498	60.07
359.709	84.65
359.921	-17.75
360.132	-15.7
360.344	-25.94
360.555	17.07
360.766	88.75
360.977	117.42
361.189	80.55
361.4	47.79
361.611	19.11
361.823	66.22
362.034	55.98
362.245	-23.89
362.456	-17.75
362.667	33.45
362.879	-13.65
363.09	-11.61
363.301	82.6
363.512	23.21
363.723	49.83
363.935	-38.23
364.146	15.02
364.357	96.94
364.568	23.21
364.779	33.45
364.99	25.26
365.201	2.73
365.412	43.69
365.623	-13.65
365.834	-38.23
366.045	70.31
366.256	86.7
366.467	12.97
366.678	47.79
366.889	92.84
367.1	2.73
367.311	-50.52
367.522	115.37
367.733	8.87
367.944	23.21
368.155	96.94
368.366	62.12
368.577	-30.04
368.788	74.41
368.999	58.03
369.209	39.59
369.42	98.99
369.631	55.98
369.842	17.07
370.053	-34.13
370.264	62.12
370.474	10.92
370.685	17.07
370.896	-34.13
371.107	35.5
371.317	31.4
371.528	25.26
371.739	58.03
371.95	31.4
372.16	-38.23
372.371	31.4
372.582	60.07
372.792	23.21
373.003	55.98
373.214	55.98
373.424	82.6
373.635	88.75
373.846	74.41
374.056	23.21
374.267	51.88
374.477	51.88
374.688	-38.23
374.898	-30.04
375.109	17.07
375.319	88.75
375.53	90.79
375.74	96.94
375.951	154.28
376.161	8.87
376.372	31.4
376.582	49.83
376.793	-7.51
377.003	-34.13
377.214	23.21
377.424	-1.37
377.635	53.93
377.845	-7.51
378.055	115.37
378.266	33.45
378.476	-30.04
378.686	152.23
378.897	10.92
379.107	-25.94
379.317	58.03
379.528	0.68
379.738	12.97
379.948	25.26
380.158	74.41
380.369	25.26
380.579	166.57
380.789	109.22
380.999	58.03
381.21	49.83
381.42	55.98
381.63	-58.71
381.84	23.21
382.05	66.22
382.261	35.5
382.471	84.65
382.681	21.16
382.891	72.36
383.101	31.4
383.311	12.97
383.521	37.55
383.731	84.65
383.941	76.46
384.151	39.59
384.361	23.21
384.571	74.41
384.781	68.27
384.991	43.69
385.201	88.75
385.411	37.55
385.621	21.16
385.831	-13.65
386.041	51.88
386.251	23.21
386.461	68.27
386.671	19.11
386.881	55.98
387.091	92.84
387.301	15.02
387.511	45.74
387.72	25.26
387.93	-13.65
388.14	96.94
388.35	109.22
388.56	19.11
388.769	119.46
388.979	90.79
389.189	51.88
389.399	45.74
389.609	23.21
389.818	19.11
390.028	64.17
390.238	6.83
390.447	-1.37
390.657	41.64
390.867	-54.61
391.076	-75.09
391.286	-48.47
391.496	72.36
391.705	19.11
391.915	123.56
392.125	-7.51
392.334	-25.94
392.544	39.59
392.753	49.83
392.963	23.21
393.172	27.31
393.382	-17.75
393.591	92.84
393.801	31.4
394.01	19.11
394.22	58.03
394.429	82.6
394.639	64.17
394.848	39.59
395.058	82.6
395.267	19.11
395.477	0.68
395.686	10.92
395.895	72.36
396.105	98.99
396.314	96.94
396.524	158.38
396.733	41.64
396.942	88.75
397.152	82.6
397.361	23.21
397.57	31.4
397.78	66.22
397.989	6.83
398.198	76.46
398.407	-23.89
398.617	55.98
398.826	74.41
399.035	53.93
399.244	58.03
399.453	98.99
399.663	10.92
399.872	58.03
400.081	78.51
400.29	96.94
400.499	78.51
400.708	107.18
400.917	74.41
401.127	115.37
401.336	70.31
401.545	154.28
401.754	70.31
401.963	72.36
402.172	-64.85
402.381	2.73
402.59	109.22
402.799	84.65
403.008	115.37
403.217	101.03
403.426	37.55
403.635	23.21
403.844	144.04
404.053	107.18
404.262	70.31
404.471	70.31
404.68	127.66
404.888	88.75
405.097	121.51
405.306	146.09
405.515	178.86
405.724	80.55
405.933	74.41
406.142	185
406.35	139.94
406.559	187.05
406.768	148.14
406.977	187.05
407.185	47.79
407.394	55.98
407.603	92.84
407.812	123.56
408.02	92.84
408.229	178.86
408.438	109.22
408.646	146.09
408.855	111.27
409.064	121.51
409.272	55.98
409.481	117.42
409.69	215.72
409.898	111.27
410.107	191.14
410.315	262.82
410.524	55.98
410.733	277.16
410.941	166.57
411.15	244.39
411.358	228.01
411.567	254.63
411.775	203.43
411.984	178.86
412.192	219.82
412.401	172.71
412.609	361.13
412.818	236.2
413.026	318.12
413.234	219.82
413.443	248.49
413.651	234.15
413.86	340.65
414.068	346.79
414.276	361.13
414.485	328.36
414.693	320.17
414.901	377.51
415.11	459.43
415.318	373.41
415.526	373.41
415.734	383.65
415.943	377.51
416.151	430.76
416.359	412.32
416.567	447.14
416.776	447.14
416.984	434.85
417.192	516.77
417.4	516.77
417.608	488.1
417.817	529.06
418.025	641.7
418.233	629.41
418.441	613.03
418.649	555.68
418.857	604.83
419.065	688.8
419.273	670.37
419.481	684.7
419.689	772.77
419.897	744.1
420.105	797.34
420.313	797.34
420.521	858.78
420.729	879.26
420.937	850.59
421.145	914.08
421.353	1018.52
421.561	940.7
421.769	959.13
421.977	1051.29
422.185	1063.58
422.393	1137.31
422.601	1172.12
422.809	1139.35
423.017	1200.79
423.224	1270.42
423.432	1303.19
423.64	1288.85
423.848	1383.06
424.056	1344.15
424.263	1493.65
424.471	1548.95
424.679	1481.36
424.887	1649.3
425.094	1643.15
425.302	1720.98
425.51	1620.63
425.718	1763.98
425.925	1747.6
426.133	1841.81
426.341	1915.53
426.548	2003.6
426.756	2067.08
426.964	1991.31
427.171	2185.87
427.379	2251.4
427.586	2241.16
427.794	2374.28
428.001	2472.58
428.209	2448.01
428.417	2581.12
428.624	2628.23
428.832	2673.28
429.039	2636.42
429.247	2613.89
429.454	2951.81
429.662	3211.9
429.869	2906.75
430.076	3201.66
430.284	3095.16
430.491	3109.5
430.699	3334.78
430.906	3322.49
431.114	3334.78
431.321	3541.62
431.528	3482.23
431.736	3857.01
431.943	4006.51
432.15	3875.44
432.358	3902.06
432.565	4055.66
432.772	4010.61
432.979	4412.01
433.187	4297.32
433.394	4364.9
433.601	4692.58
433.808	4743.78
434.016	4678.24
434.223	4856.42
434.43	5093.98
434.637	5110.36
434.844	5372.5
435.052	5593.69
435.259	5403.22
435.466	5483.09
435.673	5503.57
435.88	5841.49
436.087	6150.73
436.294	6175.31
436.501	6044.24
436.708	6353.48
436.915	6502.98
437.122	6638.15
437.329	6830.66
437.537	6683.2
437.743	6754.88
437.95	6996.54
438.157	7223.87
438.364	7399.99
438.571	7500.34
438.778	7365.18
438.985	8243.76
439.192	7830.07
439.399	8092.21
439.606	7711.28
439.813	8380.97
440.02	8972.83
440.227	8618.54
440.433	8573.48
440.64	8962.59
440.847	9069.09
441.054	9271.84
441.261	9726.49
441.467	9574.94
441.674	9908.76
441.881	9968.15
442.088	10138.13
442.294	9986.58
442.501	10492.43
442.708	10639.88
442.914	11072
443.121	11090.43
443.328	10824.2
443.534	11493.88
443.741	11608.57
443.948	11414.01
444.154	12130.8
444.361	12239.34
444.568	12251.63
444.774	12192.24
444.981	12466.67
445.187	12732.9
445.394	13031.91
445.6	13185.51
445.807	14453.2
446.013	13701.59
446.22	13826.52
446.426	14586.32
446.633	14721.48
446.839	15350.21
447.046	14475.73
447.252	15518.14
447.459	15475.13
447.665	15233.47
447.871	16263.6
448.078	16597.42
448.284	16032.18
448.491	16482.74
448.697	17023.4
448.903	17152.42
449.11	17463.71
449.316	17246.63
449.522	17639.84
449.728	17901.98
449.935	18069.91
450.141	18127.25
450.347	18846.09
450.553	17938.84
450.76	18184.6
450.966	18747.79
451.172	18547.09
451.378	19186.05
451.584	18995.59
451.791	19306.88
451.997	19315.08
452.203	19642.75
452.409	19448.19
452.615	19632.51
452.821	18557.33
453.027	18360.72
453.233	19638.65
453.44	18880.91
453.646	18909.58
453.852	19020.17
454.058	19526.02
454.264	18801.04
454.47	19327.36
454.676	18553.23
454.882	19519.87
455.088	17914.27
455.294	18049.43
455.5	18368.91
455.705	18803.08
455.911	17846.68
456.117	17643.93
456.323	17258.92
456.529	16161.2
456.735	16998.82
456.941	16615.85
457.147	16626.09
457.352	15892.92
457.558	15720.89
457.764	15874.49
457.97	15372.74
458.176	15192.51
458.381	15260.1
458.587	14346.7
458.793	14322.13
458.999	13541.85
459.204	14660.04
459.41	14125.52
459.616	13435.36
459.821	13259.23
460.027	13277.66
460.233	12886.5
460.438	12446.19
460.644	12575.21
460.85	11936.24
461.055	11860.47
461.261	11934.2
461.466	10781.19
461.672	10531.34
461.878	11352.57
462.083	10740.23
462.289	10189.33
462.494	10181.14
462.7	9867.8
462.905	9640.47
463.111	9900.56
463.316	9724.44
463.522	9398.81
463.727	9730.58
463.932	9581.08
464.138	9466.39
464.343	9716.25
464.549	9208.35
464.754	9538.07
464.959	9374.24
465.165	9488.92
465.37	9116.19
465.575	8675.88
465.781	9093.66
465.986	9167.39
466.191	8895.01
466.397	8659.49
466.602	8153.65
466.807	8509.99
467.012	8679.97
467.218	8473.13
467.423	8315.44
467.628	8471.08
467.833	8813.09
468.038	8464.94
468.244	8276.52
468.449	8698.41
468.654	8520.23
