Data from USB4F104151__2__13-10-07-988.txt Node

Date: Fri Mar 14 13:10:07 EDT 2025
User: louis
Spectrometer: USB4F10415
Trigger mode: 4
Integration Time (sec): 2.000000E-2
Scans to average: 1
Electric dark correction enabled: true
Nonlinearity correction enabled: false
Boxcar width: 0
XAxis mode: Wavelengths
Number of Pixels in Spectrum: 3648
>>>>>Begin Spectral Data<<<<<
178.204	-96.08
178.424	-96.08
178.644	-96.08
178.864	-67.41
179.084	-100.18
179.304	-16.21
179.524	2.22
179.744	39.08
179.964	6.31
180.184	-57.17
180.404	-12.12
180.624	47.27
180.844	26.79
181.064	-75.6
181.283	41.13
181.503	-14.17
181.723	12.46
181.943	-38.74
182.163	114.86
182.383	55.47
182.602	41.13
182.822	-22.36
183.042	47.27
183.262	6.31
183.482	82.09
183.701	51.37
183.921	63.66
184.141	-36.69
184.361	30.89
184.58	65.71
184.8	-16.21
185.02	49.32
185.239	55.47
185.459	80.04
185.679	94.38
185.898	-5.97
186.118	2.22
186.338	80.04
186.557	47.27
186.777	14.51
186.997	57.51
187.216	88.23
187.436	59.56
187.655	112.81
187.875	-10.07
188.095	4.27
188.314	32.94
188.534	69.8
188.753	-40.79
188.973	92.33
189.192	39.08
189.412	-24.4
189.631	47.27
189.851	26.79
190.07	71.85
190.29	-48.98
190.509	32.94
190.729	20.65
190.948	26.79
191.168	123.05
191.387	75.95
191.607	-16.21
191.826	-16.21
192.045	20.65
192.265	39.08
192.484	10.41
192.704	-36.69
192.923	39.08
193.142	161.96
193.362	22.7
193.581	0.17
193.8	41.13
194.02	123.05
194.239	20.65
194.458	22.7
194.678	53.42
194.897	90.28
195.116	18.6
195.335	-8.02
195.555	45.23
195.774	32.94
195.993	-16.21
196.212	-32.6
196.432	20.65
196.651	22.7
196.87	39.08
197.089	63.66
197.308	71.85
197.528	-8.02
197.747	-48.98
197.966	24.75
198.185	65.71
198.404	4.27
198.623	102.57
198.842	47.27
199.062	147.62
199.281	88.23
199.5	6.31
199.719	49.32
199.938	82.09
200.157	2.22
200.376	98.47
200.595	94.38
200.814	16.55
201.033	71.85
201.252	16.55
201.471	32.94
201.69	57.51
201.909	6.31
202.128	-16.21
202.347	88.23
202.566	63.66
202.785	37.03
203.004	-5.97
203.223	145.58
203.442	-10.07
203.661	41.13
203.879	53.42
204.098	26.79
204.317	39.08
204.536	57.51
204.755	24.75
204.974	39.08
205.193	18.6
205.411	55.47
205.63	108.71
205.849	41.13
206.068	18.6
206.287	34.99
206.505	104.62
206.724	20.65
206.943	45.23
207.162	-14.17
207.381	80.04
207.599	37.03
207.818	-1.88
208.037	84.14
208.255	37.03
208.474	47.27
208.693	125.1
208.911	34.99
209.13	-8.02
209.349	67.75
209.567	55.47
209.786	45.23
210.005	20.65
210.223	-5.97
210.442	-24.4
210.661	16.55
210.879	18.6
211.098	-1.88
211.316	65.71
211.535	20.65
211.753	-55.12
211.972	67.75
212.191	20.65
212.409	-26.45
212.628	37.03
212.846	-8.02
213.065	-55.12
213.283	106.67
213.502	-32.6
213.72	4.27
213.938	14.51
214.157	88.23
214.375	20.65
214.594	61.61
214.812	14.51
215.031	41.13
215.249	-8.02
215.467	20.65
215.686	6.31
215.904	63.66
216.122	-24.4
216.341	75.95
216.559	20.65
216.778	100.52
216.996	4.27
217.214	39.08
217.432	4.27
217.651	-32.6
217.869	20.65
218.087	34.99
218.306	-3.93
218.524	102.57
218.742	18.6
218.96	71.85
219.179	-3.93
219.397	18.6
219.615	73.9
219.833	57.51
220.051	24.75
220.27	121
220.488	106.67
220.706	12.46
220.924	51.37
221.142	2.22
221.36	8.36
221.578	61.61
221.796	22.7
222.015	6.31
222.233	61.61
222.451	39.08
222.669	59.56
222.887	-10.07
223.105	-20.31
223.323	-8.02
223.541	12.46
223.759	80.04
223.977	-5.97
224.195	94.38
224.413	84.14
224.631	34.99
224.849	82.09
225.067	75.95
225.285	8.36
225.503	24.75
225.721	-20.31
225.939	108.71
226.157	28.84
226.375	155.82
226.592	96.43
226.81	71.85
227.028	55.47
227.246	77.99
227.464	-28.5
227.682	100.52
227.9	65.71
228.117	39.08
228.335	32.94
228.553	22.7
228.771	-30.55
228.989	82.09
229.206	28.84
229.424	-34.64
229.642	-57.17
229.86	30.89
230.077	32.94
230.295	12.46
230.513	49.32
230.731	26.79
230.948	8.36
231.166	77.99
231.384	-30.55
231.601	-8.02
231.819	82.09
232.037	57.51
232.254	86.19
232.472	47.27
232.689	51.37
232.907	92.33
233.125	104.62
233.342	16.55
233.56	2.22
233.777	39.08
233.995	6.31
234.213	63.66
234.43	34.99
234.648	86.19
234.865	100.52
235.083	118.95
235.3	41.13
235.518	47.27
235.735	-14.17
235.953	-1.88
236.17	28.84
236.388	14.51
236.605	-1.88
236.822	88.23
237.04	57.51
237.257	30.89
237.475	39.08
237.692	10.41
237.909	-1.88
238.127	-40.79
238.344	39.08
238.562	16.55
238.779	94.38
238.996	-75.6
239.214	45.23
239.431	-36.69
239.648	57.51
239.865	41.13
240.083	69.8
240.3	12.46
240.517	-5.97
240.735	69.8
240.952	147.62
241.169	77.99
241.386	55.47
241.603	14.51
241.821	75.95
242.038	39.08
242.255	63.66
242.472	47.27
242.689	53.42
242.907	98.47
243.124	77.99
243.341	92.33
243.558	-14.17
243.775	-1.88
243.992	24.75
244.209	20.65
244.426	116.9
244.643	57.51
244.86	34.99
245.078	30.89
245.295	4.27
245.512	28.84
245.729	12.46
245.946	63.66
246.163	110.76
246.38	18.6
246.597	12.46
246.814	34.99
247.031	82.09
247.248	-3.93
247.464	55.47
247.681	65.71
247.898	30.89
248.115	159.91
248.332	20.65
248.549	45.23
248.766	139.43
248.983	14.51
249.2	43.18
249.417	43.18
249.633	20.65
249.85	108.71
250.067	26.79
250.284	51.37
250.501	55.47
250.717	84.14
250.934	-51.03
251.151	10.41
251.368	80.04
251.585	98.47
251.801	14.51
252.018	18.6
252.235	14.51
252.451	82.09
252.668	39.08
252.885	80.04
253.102	77.99
253.318	41.13
253.535	-24.4
253.752	4.27
253.968	82.09
254.185	71.85
254.401	14.51
254.618	82.09
254.835	30.89
255.051	6.31
255.268	55.47
255.484	-14.17
255.701	-32.6
255.917	112.81
256.134	71.85
256.351	34.99
256.567	45.23
256.784	55.47
257	39.08
257.217	106.67
257.433	47.27
257.65	18.6
257.866	88.23
258.082	0.17
258.299	6.31
258.515	49.32
258.732	77.99
258.948	-16.21
259.165	69.8
259.381	39.08
259.597	34.99
259.814	55.47
260.03	104.62
260.246	28.84
260.463	0.17
260.679	67.75
260.895	26.79
261.112	18.6
261.328	63.66
261.544	57.51
261.761	116.9
261.977	-3.93
262.193	71.85
262.409	65.71
262.626	43.18
262.842	41.13
263.058	-51.03
263.274	41.13
263.49	65.71
263.707	157.86
263.923	110.76
264.139	26.79
264.355	39.08
264.571	73.9
264.787	28.84
265.004	86.19
265.22	-34.64
265.436	24.75
265.652	2.22
265.868	-14.17
266.084	47.27
266.3	55.47
266.516	47.27
266.732	84.14
266.948	0.17
267.164	24.75
267.38	0.17
267.596	39.08
267.812	71.85
268.028	-18.26
268.244	8.36
268.46	47.27
268.676	100.52
268.892	26.79
269.108	47.27
269.324	49.32
269.54	65.71
269.756	32.94
269.972	104.62
270.188	20.65
270.403	26.79
270.619	30.89
270.835	32.94
271.051	80.04
271.267	12.46
271.483	32.94
271.698	69.8
271.914	69.8
272.13	10.41
272.346	30.89
272.562	45.23
272.777	88.23
272.993	37.03
273.209	-1.88
273.425	51.37
273.64	57.51
273.856	22.7
274.072	30.89
274.287	32.94
274.503	39.08
274.719	88.23
274.934	30.89
275.15	39.08
275.366	55.47
275.581	14.51
275.797	63.66
276.012	45.23
276.228	96.43
276.444	-30.55
276.659	53.42
276.875	10.41
277.09	86.19
277.306	-1.88
277.521	10.41
277.737	43.18
277.952	12.46
278.168	53.42
278.383	43.18
278.599	6.31
278.814	43.18
279.03	26.79
279.245	18.6
279.461	51.37
279.676	28.84
279.892	-30.55
280.107	22.7
280.322	24.75
280.538	24.75
280.753	39.08
280.969	84.14
281.184	10.41
281.399	57.51
281.615	47.27
281.83	-18.26
282.045	22.7
282.26	67.75
282.476	22.7
282.691	2.22
282.906	59.56
283.122	106.67
283.337	37.03
283.552	112.81
283.767	34.99
283.983	114.86
284.198	55.47
284.413	-14.17
284.628	14.51
284.843	88.23
285.058	65.71
285.274	45.23
285.489	0.17
285.704	96.43
285.919	57.51
286.134	37.03
286.349	43.18
286.564	-24.4
286.779	12.46
286.995	61.61
287.21	6.31
287.425	98.47
287.64	-16.21
287.855	49.32
288.07	84.14
288.285	102.57
288.5	-5.97
288.715	55.47
288.93	32.94
289.145	22.7
289.36	82.09
289.575	39.08
289.79	37.03
290.004	-10.07
290.219	-30.55
290.434	34.99
290.649	34.99
290.864	18.6
291.079	45.23
291.294	98.47
291.509	-1.88
291.724	-26.45
291.938	-8.02
292.153	45.23
292.368	18.6
292.583	47.27
292.798	47.27
293.012	82.09
293.227	37.03
293.442	63.66
293.657	32.94
293.871	100.52
294.086	80.04
294.301	80.04
294.516	63.66
294.73	41.13
294.945	63.66
295.16	73.9
295.374	129.19
295.589	51.37
295.804	28.84
296.018	39.08
296.233	73.9
296.447	43.18
296.662	63.66
296.877	106.67
297.091	30.89
297.306	65.71
297.52	-18.26
297.735	51.37
297.949	45.23
298.164	69.8
298.378	51.37
298.593	45.23
298.807	63.66
299.022	6.31
299.236	88.23
299.451	22.7
299.665	176.3
299.88	0.17
300.094	71.85
300.309	-30.55
300.523	55.47
300.737	37.03
300.952	121
301.166	127.14
301.381	-26.45
301.595	-22.36
301.809	108.71
302.024	112.81
302.238	6.31
302.452	108.71
302.667	55.47
302.881	80.04
303.095	43.18
303.309	6.31
303.524	49.32
303.738	10.41
303.952	-55.12
304.166	43.18
304.381	18.6
304.595	96.43
304.809	45.23
305.023	26.79
305.237	14.51
305.452	8.36
305.666	45.23
305.88	37.03
306.094	39.08
306.308	75.95
306.522	47.27
306.736	73.9
306.95	-34.64
307.164	30.89
307.379	59.56
307.593	106.67
307.807	51.37
308.021	-67.41
308.235	-20.31
308.449	-10.07
308.663	-22.36
308.877	41.13
309.091	30.89
309.305	112.81
309.519	-12.12
309.733	112.81
309.947	14.51
310.161	47.27
310.374	112.81
310.588	92.33
310.802	88.23
311.016	104.62
311.23	71.85
311.444	-3.93
311.658	34.99
311.872	84.14
312.085	10.41
312.299	77.99
312.513	139.43
312.727	-51.03
312.941	57.51
313.154	53.42
313.368	-40.79
313.582	90.28
313.796	28.84
314.009	61.61
314.223	14.51
314.437	118.95
314.651	96.43
314.864	65.71
315.078	-24.4
315.292	24.75
315.505	-1.88
315.719	22.7
315.933	39.08
316.146	-59.22
316.36	2.22
316.573	77.99
316.787	71.85
317.001	61.61
317.214	41.13
317.428	65.71
317.641	-8.02
317.855	75.95
318.068	57.51
318.282	77.99
318.495	39.08
318.709	16.55
318.922	-32.6
319.136	53.42
319.349	77.99
319.563	12.46
319.776	61.61
319.99	32.94
320.203	18.6
320.417	14.51
320.63	47.27
320.843	82.09
321.057	57.51
321.27	43.18
321.483	41.13
321.697	53.42
321.91	59.56
322.124	16.55
322.337	16.55
322.55	8.36
322.763	69.8
322.977	16.55
323.19	24.75
323.403	28.84
323.617	14.51
323.83	30.89
324.043	14.51
324.256	114.86
324.469	34.99
324.683	96.43
324.896	96.43
325.109	22.7
325.322	16.55
325.535	45.23
325.748	67.75
325.962	32.94
326.175	14.51
326.388	-3.93
326.601	-8.02
326.814	8.36
327.027	4.27
327.24	41.13
327.453	-18.26
327.666	10.41
327.879	75.95
328.092	104.62
328.305	39.08
328.518	43.18
328.731	-26.45
328.944	61.61
329.157	82.09
329.37	53.42
329.583	51.37
329.796	49.32
330.009	71.85
330.222	55.47
330.435	51.37
330.648	-24.4
330.861	53.42
331.073	53.42
331.286	41.13
331.499	90.28
331.712	30.89
331.925	49.32
332.138	20.65
332.35	88.23
332.563	53.42
332.776	10.41
332.989	-26.45
333.202	80.04
333.414	41.13
333.627	67.75
333.84	6.31
334.053	41.13
334.265	-28.5
334.478	20.65
334.691	49.32
334.903	6.31
335.116	16.55
335.329	69.8
335.541	104.62
335.754	73.9
335.966	34.99
336.179	-26.45
336.392	14.51
336.604	6.31
336.817	59.56
337.029	67.75
337.242	32.94
337.454	47.27
337.667	37.03
337.88	41.13
338.092	133.29
338.305	80.04
338.517	-18.26
338.729	39.08
338.942	59.56
339.154	-22.36
339.367	88.23
339.579	75.95
339.792	32.94
340.004	69.8
340.217	98.47
340.429	-32.6
340.641	63.66
340.854	49.32
341.066	37.03
341.278	43.18
341.491	53.42
341.703	57.51
341.915	57.51
342.128	39.08
342.34	37.03
342.552	41.13
342.764	67.75
342.977	-1.88
343.189	14.51
343.401	51.37
343.613	51.37
343.826	41.13
344.038	-26.45
344.25	16.55
344.462	-5.97
344.674	88.23
344.886	-8.02
345.099	102.57
345.311	18.6
345.523	71.85
345.735	6.31
345.947	14.51
346.159	55.47
346.371	41.13
346.583	-1.88
346.795	71.85
347.007	90.28
347.219	127.14
347.431	43.18
347.643	88.23
347.855	61.61
348.067	164.01
348.279	16.55
348.491	69.8
348.703	37.03
348.915	86.19
349.127	10.41
349.339	92.33
349.551	45.23
349.763	94.38
349.975	47.27
350.187	-32.6
350.399	90.28
350.61	82.09
350.822	57.51
351.034	131.24
351.246	80.04
351.458	92.33
351.669	123.05
351.881	65.71
352.093	53.42
352.305	77.99
352.517	145.58
352.728	47.27
352.94	75.95
353.152	-40.79
353.363	63.66
353.575	75.95
353.787	84.14
353.999	71.85
354.21	92.33
354.422	-1.88
354.633	-12.12
354.845	-14.17
355.057	26.79
355.268	67.75
355.48	-42.84
355.692	4.27
355.903	41.13
356.115	-28.5
356.326	51.37
356.538	135.34
356.749	-40.79
356.961	108.71
357.172	92.33
357.384	2.22
357.595	94.38
357.807	57.51
358.018	96.43
358.23	20.65
358.441	14.51
358.653	131.24
358.864	30.89
359.075	69.8
359.287	57.51
359.498	34.99
359.709	49.32
359.921	0.17
360.132	18.6
360.344	90.28
360.555	18.6
360.766	47.27
360.977	55.47
361.189	86.19
361.4	71.85
361.611	80.04
361.823	51.37
362.034	63.66
362.245	47.27
362.456	57.51
362.667	47.27
362.879	73.9
363.09	49.32
363.301	59.56
363.512	22.7
363.723	-28.5
363.935	14.51
364.146	63.66
364.357	182.44
364.568	6.31
364.779	30.89
364.99	90.28
365.201	30.89
365.412	41.13
365.623	51.37
365.834	12.46
366.045	84.14
366.256	8.36
366.467	57.51
366.678	16.55
366.889	51.37
367.1	24.75
367.311	14.51
367.522	12.46
367.733	90.28
367.944	133.29
368.155	10.41
368.366	49.32
368.577	166.06
368.788	-14.17
368.999	8.36
369.209	26.79
369.42	139.43
369.631	63.66
369.842	57.51
370.053	106.67
370.264	4.27
370.474	90.28
370.685	112.81
370.896	-24.4
371.107	4.27
371.317	63.66
371.528	121
371.739	71.85
371.95	104.62
372.16	94.38
372.371	71.85
372.582	77.99
372.792	0.17
373.003	49.32
373.214	67.75
373.424	57.51
373.635	26.79
373.846	77.99
374.056	84.14
374.267	80.04
374.477	100.52
374.688	34.99
374.898	10.41
375.109	4.27
375.319	-5.97
375.53	63.66
375.74	112.81
375.951	112.81
376.161	104.62
376.372	28.84
376.582	121
376.793	80.04
377.003	80.04
377.214	32.94
377.424	2.22
377.635	94.38
377.845	57.51
378.055	69.8
378.266	71.85
378.476	63.66
378.686	47.27
378.897	71.85
379.107	59.56
379.317	0.17
379.528	88.23
379.738	121
379.948	84.14
380.158	63.66
380.369	102.57
380.579	8.36
380.789	88.23
380.999	73.9
381.21	47.27
381.42	114.86
381.63	39.08
381.84	77.99
382.05	131.24
382.261	65.71
382.471	49.32
382.681	2.22
382.891	65.71
383.101	39.08
383.311	69.8
383.521	47.27
383.731	102.57
383.941	178.34
384.151	55.47
384.361	71.85
384.571	75.95
384.781	22.7
384.991	90.28
385.201	123.05
385.411	123.05
385.621	114.86
385.831	43.18
386.041	-1.88
386.251	110.76
386.461	84.14
386.671	41.13
386.881	-10.07
387.091	47.27
387.301	116.9
387.511	57.51
387.72	100.52
387.93	39.08
388.14	-40.79
388.35	94.38
388.56	18.6
388.769	94.38
388.979	112.81
389.189	39.08
389.399	129.19
389.609	114.86
389.818	51.37
390.028	151.72
390.238	88.23
390.447	94.38
390.657	45.23
390.867	94.38
391.076	80.04
391.286	41.13
391.496	55.47
391.705	51.37
391.915	47.27
392.125	63.66
392.334	88.23
392.544	65.71
392.753	63.66
392.963	67.75
393.172	94.38
393.382	96.43
393.591	80.04
393.801	96.43
394.01	41.13
394.22	55.47
394.429	67.75
394.639	94.38
394.848	80.04
395.058	147.62
395.267	82.09
395.477	86.19
395.686	139.43
395.895	86.19
396.105	168.1
396.314	67.75
396.524	82.09
396.733	98.47
396.942	57.51
397.152	73.9
397.361	-5.97
397.57	14.51
397.78	116.9
397.989	102.57
398.198	121
398.407	186.54
398.617	88.23
398.826	104.62
399.035	67.75
399.244	118.95
399.453	88.23
399.663	41.13
399.872	145.58
400.081	43.18
400.29	98.47
400.499	90.28
400.708	88.23
400.917	57.51
401.127	90.28
401.336	24.75
401.545	149.67
401.754	118.95
401.963	88.23
402.172	106.67
402.381	139.43
402.59	121
402.799	121
403.008	157.86
403.217	112.81
403.426	161.96
403.635	75.95
403.844	125.1
404.053	90.28
404.262	166.06
404.471	112.81
404.68	127.14
404.888	98.47
405.097	127.14
405.306	153.77
405.515	180.39
405.724	129.19
405.933	51.37
406.142	116.9
406.35	166.06
406.559	211.11
406.768	114.86
406.977	127.14
407.185	202.92
407.394	278.69
407.603	211.11
407.812	229.54
408.02	155.82
408.229	204.97
408.438	192.68
408.646	227.5
408.855	180.39
409.064	190.63
409.272	178.34
409.481	252.07
409.69	110.76
409.898	231.59
410.107	219.3
410.315	198.82
410.524	276.65
410.733	323.75
410.941	231.59
411.15	268.45
411.358	333.99
411.567	358.57
411.775	344.23
411.984	274.6
412.192	344.23
412.401	325.8
412.609	299.17
412.818	387.24
413.026	409.76
413.234	377
413.443	374.95
413.651	460.96
413.86	362.66
414.068	450.72
414.276	510.11
414.485	434.34
414.693	532.64
414.901	493.73
415.11	606.37
415.318	616.61
415.526	549.03
415.734	557.22
415.943	637.09
416.151	587.94
416.359	663.71
416.567	594.08
416.776	682.14
416.984	729.25
417.192	741.54
417.4	694.43
417.608	755.87
417.817	833.69
418.025	837.79
418.233	891.04
418.441	848.03
418.649	909.47
418.857	936.09
419.065	868.51
419.273	893.09
419.481	1030.3
419.689	1054.87
419.897	1046.68
420.105	1194.14
420.313	1167.51
420.521	1136.79
420.729	1300.63
420.937	1140.89
421.145	1357.97
421.353	1284.25
421.561	1446.04
421.769	1407.13
421.977	1482.9
422.185	1568.91
422.393	1667.22
422.601	1759.38
422.809	1732.75
423.017	1796.24
423.224	1734.8
423.432	1853.58
423.64	1820.81
423.848	1931.41
424.056	1945.74
424.263	2089.1
424.471	2062.48
424.679	2173.07
424.887	2197.64
425.094	2336.9
425.302	2273.42
425.51	2324.62
425.718	2453.64
425.925	2588.8
426.133	2496.64
426.341	2822.27
426.548	2949.25
426.756	2826.37
426.964	2883.71
427.171	2920.57
427.379	3156.09
427.586	3201.15
427.794	3321.98
428.001	3440.76
428.209	3483.77
428.417	3518.58
428.624	3930.22
428.832	3852.4
429.039	3756.15
429.247	3717.23
429.454	4276.33
429.662	4452.45
429.869	4204.65
430.076	4282.47
430.284	4356.2
430.491	4348.01
430.699	4608.1
430.906	4708.45
431.114	4814.95
431.321	4896.86
431.528	5138.52
431.736	5312.6
431.943	5648.47
432.15	5472.34
432.358	5408.86
432.565	5644.37
432.772	5617.75
432.979	6037.58
433.187	6291.53
433.394	6217.8
433.601	6592.58
433.808	6731.84
434.016	6654.02
434.223	6774.85
434.43	7381.05
434.637	7133.25
434.844	7635
435.052	7852.08
435.259	7774.26
435.466	7837.75
435.673	7659.57
435.88	8376.36
436.087	8665.13
436.294	8591.4
436.501	8445.99
436.708	8450.09
436.915	8900.64
437.122	9256.99
437.329	9197.6
437.537	9658.39
437.743	9818.13
437.95	9820.18
438.157	10172.43
438.364	10696.71
438.571	10598.41
438.778	10582.03
438.985	11608.06
439.192	11118.59
439.399	11370.49
439.606	11182.08
439.813	11859.96
440.02	12613.61
440.227	12392.43
440.433	12154.87
440.64	12670.95
440.847	12562.41
441.054	12830.69
441.261	13664.22
441.467	13582.3
441.674	13772.76
441.881	14284.75
442.088	14507.98
442.294	14104.53
442.501	14319.57
442.708	14946.25
442.914	15482.81
443.121	15890.36
443.328	15329.22
443.534	16789.42
443.741	16500.65
443.948	16046.01
444.154	17184.68
444.361	17190.82
444.568	17123.24
444.774	17039.27
444.981	17414.05
445.187	17735.58
445.394	18851.72
445.6	18384.79
445.807	20313.97
446.013	19527.55
446.22	19761.02
446.426	20619.12
446.633	20578.16
446.839	21395.3
447.046	20375.41
447.252	21669.73
447.459	21765.98
447.665	21372.77
447.871	22503.25
448.078	23549.76
448.284	22591.31
448.491	23050.06
448.697	23967.55
448.903	24573.75
449.11	24495.92
449.316	24330.04
449.522	24768.3
449.728	25542.44
449.935	25362.22
450.141	25591.59
450.347	26228.51
450.553	25270.06
450.76	25536.29
450.966	26431.26
451.172	26347.29
451.378	26836.75
451.584	26545.94
451.791	27096.85
451.997	26978.06
452.203	27174.67
452.409	27221.77
452.615	27049.74
452.821	26187.55
453.027	25718.56
453.233	27336.46
453.44	26484.5
453.646	26435.35
453.852	26517.27
454.058	27189
454.264	26414.87
454.47	27090.7
454.676	26482.45
454.882	27490.06
455.088	25034.54
455.294	25317.16
455.5	25755.43
455.705	26113.82
455.911	25235.24
456.117	24500.02
456.323	24491.83
456.529	23220.04
456.735	23861.05
456.941	23293.77
457.147	23228.23
457.352	21987.16
457.558	21862.24
457.764	22214.49
457.97	21661.54
458.176	21225.32
458.381	21485.41
458.587	20211.57
458.793	19677.05
458.999	18917.26
459.204	20567.92
459.41	19965.82
459.616	18716.56
459.821	18788.24
460.027	18675.6
460.233	18053.02
460.438	17305.51
460.644	17495.97
460.85	16727.98
461.055	16187.32
461.261	16582.57
461.466	15292.35
461.672	14835.66
461.878	15962.04
462.083	14917.58
462.289	14282.7
462.494	14153.68
462.7	13776.86
462.905	13228
463.111	13834.2
463.316	13895.64
463.522	13477.85
463.727	13443.04
463.932	13508.57
464.138	13414.37
464.343	13238.24
464.549	12908.52
464.754	13453.28
464.959	13252.58
465.165	13402.08
465.37	12660.71
465.575	12224.5
465.781	12902.37
465.986	12885.99
466.191	12357.61
466.397	12083.19
466.602	11442.17
466.807	11933.68
467.012	11876.34
467.218	11980.79
467.423	11933.68
467.628	12050.42
467.833	12410.86
468.038	11931.64
