Data from USB4F104151__4__13-10-08-389.txt Node

Date: Fri Mar 14 13:10:08 EDT 2025
User: louis
Spectrometer: USB4F10415
Trigger mode: 4
Integration Time (sec): 2.000000E-2
Scans to average: 1
Electric dark correction enabled: true
Nonlinearity correction enabled: false
Boxcar width: 0
XAxis mode: Wavelengths
Number of Pixels in Spectrum: 3648
>>>>>Begin Spectral Data<<<<<
178.204	-54.78
178.424	-54.78
178.644	-54.78
178.864	-60.93
179.084	-185.85
179.304	-15.87
179.524	27.14
179.744	-13.82
179.964	-52.74
180.184	66.05
180.404	-36.35
180.624	-46.59
180.844	-22.02
181.064	45.57
181.283	-60.93
181.503	4.61
181.723	104.96
181.943	-42.5
182.163	-5.63
182.383	-30.21
182.602	14.85
182.822	2.56
183.042	10.75
183.262	-34.3
183.482	59.9
183.701	-13.82
183.921	18.94
184.141	-24.06
184.361	-28.16
184.58	-34.3
184.8	8.7
185.02	4.61
185.239	96.77
185.459	55.81
185.679	59.9
185.898	-32.26
186.118	10.75
186.338	4.61
186.557	57.86
186.777	-44.54
186.997	51.71
187.216	-19.97
187.436	55.81
187.655	41.47
187.875	61.95
188.095	10.75
188.314	18.94
188.534	-56.83
188.753	8.7
188.973	41.47
189.192	96.77
189.412	20.99
189.631	37.38
189.851	68.09
190.07	10.75
190.29	-62.98
190.509	18.94
190.729	82.43
190.948	-42.5
191.168	92.67
191.387	59.9
191.607	8.7
191.826	20.99
192.045	-17.92
192.265	8.7
192.484	-46.59
192.704	78.33
192.923	-50.69
193.142	64
193.362	-28.16
193.581	-46.59
193.8	16.9
194.02	-32.26
194.239	66.05
194.458	35.33
194.678	51.71
194.897	18.94
195.116	45.57
195.335	-24.06
195.555	57.86
195.774	-60.93
195.993	-7.68
196.212	18.94
196.432	0.51
196.651	4.61
196.87	16.9
197.089	51.71
197.308	4.61
197.528	57.86
197.747	-44.54
197.966	51.71
198.185	23.04
198.404	-19.97
198.623	51.71
198.842	20.99
199.062	18.94
199.281	12.8
199.5	18.94
199.719	0.51
199.938	16.9
200.157	16.9
200.376	-11.78
200.595	59.9
200.814	23.04
201.033	-1.54
201.252	68.09
201.471	-30.21
201.69	59.9
201.909	53.76
202.128	14.85
202.347	35.33
202.566	-22.02
202.785	20.99
203.004	-44.54
203.223	86.53
203.442	-13.82
203.661	-19.97
203.879	-95.74
204.098	139.77
204.317	12.8
204.536	43.52
204.755	14.85
204.974	135.68
205.193	-44.54
205.411	117.25
205.63	0.51
205.849	-42.5
206.068	-3.58
206.287	25.09
206.505	41.47
206.724	49.66
206.943	4.61
207.162	-28.16
207.381	37.38
207.599	4.61
207.818	10.75
208.037	-11.78
208.255	-30.21
208.474	4.61
208.693	47.62
208.911	68.09
209.13	-1.54
209.349	14.85
209.567	-3.58
209.786	-28.16
210.005	-19.97
210.223	0.51
210.442	-13.82
210.661	47.62
210.879	2.56
211.098	12.8
211.316	-5.63
211.535	41.47
211.753	37.38
211.972	55.81
212.191	45.57
212.409	6.66
212.628	55.81
212.846	-34.3
213.065	-46.59
213.283	64
213.502	49.66
213.72	37.38
213.938	20.99
214.157	94.72
214.375	49.66
214.594	35.33
214.812	31.23
215.031	-22.02
215.249	61.95
215.467	-1.54
215.686	76.29
215.904	31.23
216.122	12.8
216.341	109.05
216.559	84.48
216.778	12.8
216.996	4.61
217.214	-36.35
217.432	-11.78
217.651	20.99
217.869	68.09
218.087	-38.4
218.306	10.75
218.524	12.8
218.742	12.8
218.96	25.09
219.179	-5.63
219.397	-15.87
219.615	6.66
219.833	18.94
220.051	-5.63
220.27	23.04
220.488	12.8
220.706	59.9
220.924	25.09
221.142	0.51
221.36	35.33
221.578	47.62
221.796	-3.58
222.015	16.9
222.233	70.14
222.451	27.14
222.669	-11.78
222.887	47.62
223.105	6.66
223.323	59.9
223.541	-13.82
223.759	2.56
223.977	-46.59
224.195	70.14
224.413	39.42
224.631	92.67
224.849	43.52
225.067	82.43
225.285	18.94
225.503	80.38
225.721	-7.68
225.939	23.04
226.157	20.99
226.375	166.4
226.592	16.9
226.81	47.62
227.028	-1.54
227.246	41.47
227.464	74.24
227.682	20.99
227.9	39.42
228.117	-9.73
228.335	4.61
228.553	-26.11
228.771	47.62
228.989	4.61
229.206	-26.11
229.424	61.95
229.642	20.99
229.86	-3.58
230.077	92.67
230.295	-11.78
230.513	-32.26
230.731	31.23
230.948	-7.68
231.166	80.38
231.384	-48.64
231.601	-9.73
231.819	10.75
232.037	-38.4
232.254	39.42
232.472	29.18
232.689	-5.63
232.907	27.14
233.125	-36.35
233.342	20.99
233.56	-52.74
233.777	10.75
233.995	-32.26
234.213	18.94
234.43	98.81
234.648	61.95
234.865	-22.02
235.083	59.9
235.3	0.51
235.518	29.18
235.735	47.62
235.953	-9.73
236.17	-13.82
236.388	29.18
236.605	4.61
236.822	-5.63
237.04	92.67
237.257	27.14
237.475	-5.63
237.692	-24.06
237.909	8.7
238.127	14.85
238.344	-9.73
238.562	47.62
238.779	23.04
238.996	33.28
239.214	35.33
239.431	35.33
239.648	-30.21
239.865	39.42
240.083	6.66
240.3	94.72
240.517	64
240.735	47.62
240.952	31.23
241.169	27.14
241.386	-44.54
241.603	41.47
241.821	-9.73
242.038	-44.54
242.255	18.94
242.472	-30.21
242.689	51.71
242.907	2.56
243.124	14.85
243.341	43.52
243.558	59.9
243.775	-13.82
243.992	-34.3
244.209	33.28
244.426	27.14
244.643	41.47
244.86	29.18
245.078	-11.78
245.295	-9.73
245.512	-3.58
245.729	-44.54
245.946	76.29
246.163	-34.3
246.38	27.14
246.597	27.14
246.814	23.04
247.031	53.76
247.248	53.76
247.464	6.66
247.681	14.85
247.898	29.18
248.115	8.7
248.332	47.62
248.549	20.99
248.766	47.62
248.983	76.29
249.2	-24.06
249.417	-5.63
249.633	6.66
249.85	20.99
250.067	-62.98
250.284	-1.54
250.501	18.94
250.717	51.71
250.934	68.09
251.151	-56.83
251.368	-19.97
251.585	16.9
251.801	72.19
252.018	-56.83
252.235	14.85
252.451	-1.54
252.668	39.42
252.885	100.86
253.102	33.28
253.318	-50.69
253.535	-3.58
253.752	-28.16
253.968	-28.16
254.185	20.99
254.401	-7.68
254.618	27.14
254.835	-30.21
255.051	82.43
255.268	45.57
255.484	-5.63
255.701	18.94
255.917	51.71
256.134	6.66
256.351	25.09
256.567	10.75
256.784	18.94
257	-13.82
257.217	10.75
257.433	6.66
257.65	23.04
257.866	-30.21
258.082	-5.63
258.299	-40.45
258.515	-42.5
258.732	-32.26
258.948	-28.16
259.165	66.05
259.381	-28.16
259.597	39.42
259.814	-11.78
260.03	80.38
260.246	150.01
260.463	45.57
260.679	41.47
260.895	-17.92
261.112	27.14
261.328	-17.92
261.544	-24.06
261.761	115.2
261.977	102.91
262.193	-9.73
262.409	59.9
262.626	-15.87
262.842	2.56
263.058	35.33
263.274	68.09
263.49	39.42
263.707	53.76
263.923	2.56
264.139	35.33
264.355	49.66
264.571	76.29
264.787	39.42
265.004	18.94
265.22	61.95
265.436	92.67
265.652	2.56
265.868	-1.54
266.084	-3.58
266.3	80.38
266.516	94.72
266.732	20.99
266.948	18.94
267.164	47.62
267.38	61.95
267.596	37.38
267.812	111.1
268.028	59.9
268.244	47.62
268.46	27.14
268.676	14.85
268.892	20.99
269.108	14.85
269.324	-5.63
269.54	-46.59
269.756	49.66
269.972	20.99
270.188	76.29
270.403	-24.06
270.619	20.99
270.835	70.14
271.051	-19.97
271.267	18.94
271.483	12.8
271.698	23.04
271.914	18.94
272.13	43.52
272.346	-3.58
272.562	43.52
272.777	82.43
272.993	55.81
273.209	64
273.425	-69.12
273.64	94.72
273.856	68.09
274.072	18.94
274.287	25.09
274.503	39.42
274.719	70.14
274.934	20.99
275.15	4.61
275.366	92.67
275.581	33.28
275.797	33.28
276.012	-19.97
276.228	20.99
276.444	39.42
276.659	6.66
276.875	8.7
277.09	43.52
277.306	-60.93
277.521	12.8
277.737	-24.06
277.952	70.14
278.168	20.99
278.383	59.9
278.599	-3.58
278.814	4.61
279.03	18.94
279.245	12.8
279.461	6.66
279.676	-9.73
279.892	18.94
280.107	-11.78
280.322	-56.83
280.538	29.18
280.753	57.86
280.969	0.51
281.184	27.14
281.399	-17.92
281.615	43.52
281.83	51.71
282.045	10.75
282.26	27.14
282.476	-22.02
282.691	72.19
282.906	-7.68
283.122	4.61
283.337	43.52
283.552	-36.35
283.767	18.94
283.983	135.68
284.198	-38.4
284.413	39.42
284.628	0.51
284.843	25.09
285.058	-13.82
285.274	-36.35
285.489	-5.63
285.704	35.33
285.919	41.47
286.134	76.29
286.349	70.14
286.564	31.23
286.779	49.66
286.995	-17.92
287.21	2.56
287.425	47.62
287.64	84.48
287.855	-26.11
288.07	-60.93
288.285	49.66
288.5	90.62
288.715	43.52
288.93	23.04
289.145	8.7
289.36	47.62
289.575	35.33
289.79	70.14
290.004	53.76
290.219	20.99
290.434	10.75
290.649	72.19
290.864	-22.02
291.079	-13.82
291.294	4.61
291.509	10.75
291.724	41.47
291.938	-5.63
292.153	47.62
292.368	53.76
292.583	104.96
292.798	-36.35
293.012	68.09
293.227	-42.5
293.442	-28.16
293.657	-13.82
293.871	37.38
294.086	4.61
294.301	51.71
294.516	96.77
294.73	59.9
294.945	20.99
295.16	4.61
295.374	76.29
295.589	20.99
295.804	37.38
296.018	-7.68
296.233	55.81
296.447	-1.54
296.662	51.71
296.877	35.33
297.091	-32.26
297.306	51.71
297.52	14.85
297.735	23.04
297.949	41.47
298.164	20.99
298.378	0.51
298.593	84.48
298.807	-38.4
299.022	0.51
299.236	107.01
299.451	6.66
299.665	-40.45
299.88	45.57
300.094	100.86
300.309	-15.87
300.523	64
300.737	23.04
300.952	-32.26
301.166	41.47
301.381	6.66
301.595	-22.02
301.809	82.43
302.024	27.14
302.238	-95.74
302.452	-7.68
302.667	-1.54
302.881	-7.68
303.095	20.99
303.309	51.71
303.524	55.81
303.738	76.29
303.952	12.8
304.166	49.66
304.381	-50.69
304.595	70.14
304.809	25.09
305.023	2.56
305.237	10.75
305.452	-13.82
305.666	43.52
305.88	47.62
306.094	72.19
306.308	10.75
306.522	33.28
306.736	18.94
306.95	18.94
307.164	-13.82
307.379	33.28
307.593	59.9
307.807	-1.54
308.021	14.85
308.235	-32.26
308.449	10.75
308.663	31.23
308.877	-5.63
309.091	-11.78
309.305	94.72
309.519	27.14
309.733	-7.68
309.947	-5.63
310.161	53.76
310.374	41.47
310.588	94.72
310.802	0.51
311.016	41.47
311.23	-36.35
311.444	0.51
311.658	-3.58
311.872	78.33
312.085	16.9
312.299	8.7
312.513	47.62
312.727	37.38
312.941	-13.82
313.154	2.56
313.368	8.7
313.582	8.7
313.796	-32.26
314.009	39.42
314.223	115.2
314.437	61.95
314.651	-1.54
314.864	14.85
315.078	14.85
315.292	12.8
315.505	96.77
315.719	92.67
315.933	-13.82
316.146	166.4
316.36	-5.63
316.573	59.9
316.787	57.86
317.001	59.9
317.214	-17.92
317.428	98.81
317.641	-30.21
317.855	4.61
318.068	76.29
318.282	33.28
318.495	18.94
318.709	49.66
318.922	25.09
319.136	53.76
319.349	49.66
319.563	45.57
319.776	29.18
319.99	92.67
320.203	70.14
320.417	41.47
320.63	37.38
320.843	59.9
321.057	12.8
321.27	68.09
321.483	66.05
321.697	59.9
321.91	31.23
322.124	-19.97
322.337	49.66
322.55	-17.92
322.763	76.29
322.977	39.42
323.19	-1.54
323.403	55.81
323.617	12.8
323.83	55.81
324.043	-1.54
324.256	-40.45
324.469	-13.82
324.683	39.42
324.896	14.85
325.109	70.14
325.322	-30.21
325.535	100.86
325.748	-9.73
325.962	49.66
326.175	53.76
326.388	84.48
326.601	12.8
326.814	39.42
327.027	53.76
327.24	76.29
327.453	43.52
327.666	-30.21
327.879	66.05
328.092	-3.58
328.305	4.61
328.518	74.24
328.731	-24.06
328.944	23.04
329.157	0.51
329.37	2.56
329.583	47.62
329.796	53.76
330.009	20.99
330.222	53.76
330.435	45.57
330.648	-1.54
330.861	39.42
331.073	96.77
331.286	66.05
331.499	0.51
331.712	-30.21
331.925	-71.17
332.138	18.94
332.35	100.86
332.563	45.57
332.776	35.33
332.989	57.86
333.202	66.05
333.414	49.66
333.627	-19.97
333.84	53.76
334.053	25.09
334.265	-58.88
334.478	102.91
334.691	18.94
334.903	96.77
335.116	-19.97
335.329	18.94
335.541	10.75
335.754	6.66
335.966	80.38
336.179	41.47
336.392	100.86
336.604	-38.4
336.817	43.52
337.029	102.91
337.242	14.85
337.454	78.33
337.667	57.86
337.88	4.61
338.092	47.62
338.305	20.99
338.517	-9.73
338.729	100.86
338.942	80.38
339.154	10.75
339.367	37.38
339.579	61.95
339.792	-15.87
340.004	90.62
340.217	59.9
340.429	41.47
340.641	-60.93
340.854	10.75
341.066	4.61
341.278	84.48
341.491	117.25
341.703	66.05
341.915	6.66
342.128	2.56
342.34	80.38
342.552	51.71
342.764	41.47
342.977	-62.98
343.189	-9.73
343.401	41.47
343.613	-9.73
343.826	47.62
344.038	-9.73
344.25	37.38
344.462	-11.78
344.674	14.85
344.886	61.95
345.099	29.18
345.311	35.33
345.523	-32.26
345.735	27.14
345.947	66.05
346.159	-15.87
346.371	94.72
346.583	35.33
346.795	72.19
347.007	-17.92
347.219	129.53
347.431	2.56
347.643	35.33
347.855	31.23
348.067	18.94
348.279	-56.83
348.491	6.66
348.703	41.47
348.915	0.51
349.127	35.33
349.339	-28.16
349.551	-48.64
349.763	35.33
349.975	-30.21
350.187	14.85
350.399	-5.63
350.61	14.85
350.822	-5.63
351.034	-9.73
351.246	72.19
351.458	-13.82
351.669	-3.58
351.881	72.19
352.093	35.33
352.305	35.33
352.517	-32.26
352.728	18.94
352.94	-3.58
353.152	-46.59
353.363	29.18
353.575	51.71
353.787	27.14
353.999	12.8
354.21	29.18
354.422	27.14
354.633	18.94
354.845	-30.21
355.057	25.09
355.268	68.09
355.48	43.52
355.692	-36.35
355.903	-30.21
356.115	27.14
356.326	23.04
356.538	78.33
356.749	90.62
356.961	59.9
357.172	23.04
357.384	-9.73
357.595	27.14
357.807	18.94
358.018	14.85
358.23	51.71
358.441	53.76
358.653	8.7
358.864	35.33
359.075	98.81
359.287	45.57
359.498	100.86
359.709	35.33
359.921	66.05
360.132	70.14
360.344	39.42
360.555	57.86
360.766	-9.73
360.977	-3.58
361.189	47.62
361.4	-38.4
361.611	37.38
361.823	61.95
362.034	23.04
362.245	37.38
362.456	-42.5
362.667	18.94
362.879	-38.4
363.09	14.85
363.301	-5.63
363.512	18.94
363.723	55.81
363.935	25.09
364.146	-5.63
364.357	39.42
364.568	49.66
364.779	12.8
364.99	37.38
365.201	27.14
365.412	64
365.623	35.33
365.834	90.62
366.045	119.29
366.256	92.67
366.467	27.14
366.678	59.9
366.889	16.9
367.1	133.63
367.311	35.33
367.522	12.8
367.733	29.18
367.944	72.19
368.155	86.53
368.366	84.48
368.577	76.29
368.788	37.38
368.999	-44.54
369.209	92.67
369.42	49.66
369.631	68.09
369.842	2.56
370.053	53.76
370.264	20.99
370.474	-26.11
370.685	27.14
370.896	41.47
371.107	88.57
371.317	78.33
371.528	66.05
371.739	41.47
371.95	-1.54
372.16	80.38
372.371	78.33
372.582	74.24
372.792	59.9
373.003	66.05
373.214	-24.06
373.424	117.25
373.635	47.62
373.846	76.29
374.056	47.62
374.267	2.56
374.477	74.24
374.688	51.71
374.898	84.48
375.109	82.43
375.319	35.33
375.53	47.62
375.74	39.42
375.951	55.81
376.161	10.75
376.372	51.71
376.582	51.71
376.793	55.81
377.003	16.9
377.214	-13.82
377.424	70.14
377.635	88.57
377.845	31.23
378.055	55.81
378.266	23.04
378.476	35.33
378.686	102.91
378.897	96.77
379.107	-5.63
379.317	-42.5
379.528	47.62
379.738	76.29
379.948	49.66
380.158	43.52
380.369	27.14
380.579	35.33
380.789	8.7
380.999	47.62
381.21	10.75
381.42	94.72
381.63	33.28
381.84	57.86
382.05	76.29
382.261	45.57
382.471	66.05
382.681	-1.54
382.891	8.7
383.101	20.99
383.311	57.86
383.521	61.95
383.731	43.52
383.941	72.19
384.151	59.9
384.361	59.9
384.571	51.71
384.781	29.18
384.991	88.57
385.201	123.39
385.411	78.33
385.621	27.14
385.831	43.52
386.041	84.48
386.251	41.47
386.461	8.7
386.671	39.42
386.881	84.48
387.091	-5.63
387.301	-19.97
387.511	20.99
387.72	53.76
387.93	6.66
388.14	-11.78
388.35	2.56
388.56	45.57
388.769	31.23
388.979	0.51
389.189	-13.82
389.399	70.14
389.609	59.9
389.818	43.52
390.028	45.57
390.238	55.81
390.447	80.38
390.657	96.77
390.867	64
391.076	-36.35
391.286	47.62
391.496	-7.68
391.705	43.52
391.915	119.29
392.125	55.81
392.334	20.99
392.544	66.05
392.753	51.71
392.963	72.19
393.172	72.19
393.382	31.23
393.591	90.62
393.801	-26.11
394.01	43.52
394.22	104.96
394.429	47.62
394.639	51.71
394.848	72.19
395.058	31.23
395.267	111.1
395.477	12.8
395.686	35.33
395.895	129.53
396.105	135.68
396.314	27.14
396.524	125.44
396.733	27.14
396.942	111.1
397.152	88.57
397.361	102.91
397.57	121.34
397.78	0.51
397.989	76.29
398.198	47.62
398.407	37.38
398.617	51.71
398.826	82.43
399.035	49.66
399.244	55.81
399.453	53.76
399.663	68.09
399.872	68.09
400.081	10.75
400.29	84.48
400.499	-1.54
400.708	51.71
400.917	16.9
401.127	68.09
401.336	59.9
401.545	201.21
401.754	61.95
401.963	88.57
402.172	113.15
402.381	92.67
402.59	111.1
402.799	158.21
403.008	86.53
403.217	115.2
403.426	127.49
403.635	123.39
403.844	84.48
404.053	64
404.262	-19.97
404.471	119.29
404.68	43.52
404.888	61.95
405.097	115.2
405.306	88.57
405.515	68.09
405.724	160.25
405.933	98.81
406.142	158.21
406.35	135.68
406.559	182.78
406.768	133.63
406.977	195.07
407.185	55.81
407.394	113.15
407.603	182.78
407.812	135.68
408.02	150.01
408.229	182.78
408.438	176.64
408.646	123.39
408.855	176.64
409.064	193.02
409.272	256.51
409.481	162.3
409.69	135.68
409.898	225.79
410.107	211.45
410.315	250.36
410.524	252.41
410.733	203.26
410.941	205.31
411.15	297.47
411.358	246.27
411.567	293.37
411.775	254.46
411.984	238.08
412.192	219.64
412.401	287.23
412.609	340.47
412.818	320
413.026	375.29
413.234	338.43
413.443	356.86
413.651	356.86
413.86	346.62
414.068	422.39
414.276	469.5
414.485	424.44
414.693	436.73
414.901	584.18
415.11	526.84
415.318	524.79
415.526	559.61
415.734	573.94
415.943	535.03
416.151	674.29
416.359	561.66
416.567	721.4
416.776	578.04
416.984	676.34
417.192	698.87
417.4	823.8
417.608	780.79
417.817	705.01
418.025	819.7
418.233	895.47
418.441	862.71
418.649	879.09
418.857	922.1
419.065	950.77
419.273	858.61
419.481	993.78
419.689	987.63
419.897	1075.7
420.105	1069.55
420.313	1094.13
420.521	1169.9
420.729	1165.81
420.937	1184.24
421.145	1282.54
421.353	1241.58
421.561	1419.75
421.769	1358.32
421.977	1485.29
422.185	1503.72
422.393	1599.98
422.601	1632.74
422.809	1675.75
423.017	1716.71
423.224	1706.47
423.432	1831.4
423.64	1765.86
423.848	1884.64
424.056	1952.23
424.263	1984.99
424.471	2150.88
424.679	2077.15
424.887	2279.9
425.094	2259.42
425.302	2292.19
425.51	2306.52
425.718	2478.55
425.925	2527.71
426.133	2705.88
426.341	2722.26
426.548	2849.24
426.756	2877.91
426.964	2853.33
427.171	2972.11
427.379	3049.94
427.586	3185.1
427.794	3183.06
428.001	3445.2
428.209	3566.03
428.417	3473.87
428.624	3764.68
428.832	3733.96
429.039	3781.06
429.247	3815.88
429.454	4114.88
429.662	4303.29
429.869	4161.98
430.076	4356.54
430.284	4221.38
430.491	4428.22
430.699	4704.7
430.906	4729.27
431.114	4858.29
431.321	4913.59
431.528	5210.54
431.736	5382.57
431.943	5583.27
432.15	5470.64
432.358	5568.94
432.565	5700.01
432.772	5796.26
432.979	6029.73
433.187	6123.94
433.394	6310.3
433.601	6640.03
433.808	6650.27
434.016	6764.95
434.223	6918.55
434.43	7330.19
434.637	7160.21
434.844	7549.32
435.052	7684.49
435.259	7573.9
435.466	7881.1
435.673	7768.46
435.88	8305.03
436.087	8628.6
436.294	8581.5
436.501	8589.69
436.708	8735.1
436.915	8952.18
437.122	9361.78
437.329	9421.17
437.537	9691.5
437.743	9736.56
437.95	9677.16
438.157	10193.25
438.364	10533.22
438.571	10412.39
438.778	10645.85
438.985	11557.2
439.192	10897.75
439.399	11497.81
439.606	11016.54
439.813	11735.37
440.02	12464.45
440.227	12116.3
440.433	12380.48
440.64	12812.6
440.847	12562.75
441.054	12775.74
441.261	13846.83
441.467	13535.54
441.674	13957.42
441.881	14258.47
442.088	14262.57
442.294	14360.87
442.501	14631.2
442.708	14922.01
442.914	15380.76
443.121	15921.42
443.328	15802.64
443.534	16689.41
443.741	16312.58
443.948	16163.08
444.154	17582.32
444.361	17180.92
444.568	17395.96
444.774	17412.34
444.981	17379.57
445.187	18010.35
445.394	19009.76
445.6	18598.12
445.807	19976.4
446.013	19579.09
446.22	19699.92
446.426	20449.48
446.633	20940.99
446.839	21405.88
447.046	20854.98
447.252	21596.34
447.459	21711.03
447.665	21717.17
447.871	22657.19
448.078	23564.44
448.284	22642.85
448.491	23251.1
448.697	24023.19
448.903	24627.34
449.11	24285.33
449.316	24248.46
449.522	24615.05
449.728	25393.28
449.935	25632.89
450.141	25319.55
450.347	26105.97
450.553	25358.46
450.76	25942.13
450.966	26304.62
451.172	26386.54
451.378	27191.39
451.584	26267.76
451.791	27056.23
451.997	26853.48
452.203	27314.27
452.409	27506.78
452.615	27715.67
452.821	26353.77
453.027	26212.46
453.233	27664.47
453.44	26556.52
453.646	26951.78
453.852	26849.38
454.058	27132
454.264	26466.41
454.47	27011.17
454.676	26447.98
454.882	27570.27
455.088	24539.27
455.294	25323.65
455.5	25704.57
455.705	25989.24
455.911	25020.55
456.117	24434.83
456.323	24492.17
456.529	23005.34
456.735	24019.09
456.941	23365.79
457.147	22732.97
457.352	22493.35
457.558	21987.5
457.764	22014.13
457.97	21561.53
458.176	21117.12
458.381	21309.63
458.587	20209.87
458.793	20412.62
458.999	19130.59
459.204	20328.65
459.41	19867.86
459.616	18426.09
459.821	18553.06
460.027	18841.82
460.233	18409.7
460.438	17307.9
460.644	17469.69
460.85	16613.63
461.055	16486.66
461.261	16271.62
461.466	15124.76
461.672	14684.45
461.878	15964.43
462.083	14788.89
462.289	14442.79
462.494	14332.2
462.7	13859.12
462.905	13300.02
463.111	13855.02
463.316	13836.59
463.522	13594.93
463.727	13898.03
463.932	13494.58
464.138	13732.14
464.343	13578.54
464.549	12994.87
464.754	13431.09
464.959	13334.84
465.165	13324.6
465.37	12773.69
465.575	12333.38
465.781	12843.32
465.986	12890.43
466.191	12452.16
466.397	12149.06
466.602	11790.67
466.807	12085.58
467.012	12306.76
467.218	12005.7
467.423	11958.6
467.628	11856.2
467.833	12308.8
468.038	11694.41
468.244	11604.3
468.449	12147.01
