Data from USB4F104151__6__13-10-09-068.txt Node

Date: Fri Mar 14 13:10:09 EDT 2025
User: louis
Spectrometer: USB4F10415
Trigger mode: 4
Integration Time (sec): 2.000000E-2
Scans to average: 1
Electric dark correction enabled: true
Nonlinearity correction enabled: false
Boxcar width: 0
XAxis mode: Wavelengths
Number of Pixels in Spectrum: 3648
>>>>>Begin Spectral Data<<<<<
178.204	-53.08
178.424	-53.08
178.644	-53.08
178.864	-94.04
179.084	-69.46
179.304	14.51
179.524	14.51
179.744	12.46
179.964	24.75
180.184	-16.21
180.404	-5.97
180.624	12.46
180.844	-14.17
181.064	-38.74
181.283	-22.36
181.503	-44.88
181.723	63.66
181.943	-63.32
182.163	82.09
182.383	53.42
182.602	34.99
182.822	92.33
183.042	106.67
183.262	26.79
183.482	-16.21
183.701	49.32
183.921	59.56
184.141	-24.4
184.361	80.04
184.58	45.23
184.8	84.14
185.02	51.37
185.239	121
185.459	51.37
185.679	67.75
185.898	37.03
186.118	86.19
186.338	24.75
186.557	118.95
186.777	6.31
186.997	-65.36
187.216	26.79
187.436	43.18
187.655	61.61
187.875	43.18
188.095	34.99
188.314	14.51
188.534	43.18
188.753	39.08
188.973	45.23
189.192	73.9
189.412	-5.97
189.631	-61.27
189.851	-1.88
190.07	51.37
190.29	43.18
190.509	12.46
190.729	8.36
190.948	98.47
191.168	80.04
191.387	102.57
191.607	47.27
191.826	10.41
192.045	26.79
192.265	71.85
192.484	71.85
192.704	24.75
192.923	75.95
193.142	92.33
193.362	57.51
193.581	80.04
193.8	41.13
194.02	114.86
194.239	139.43
194.458	100.52
194.678	-10.07
194.897	61.61
195.116	-38.74
195.335	51.37
195.555	10.41
195.774	67.75
195.993	30.89
196.212	22.7
196.432	51.37
196.651	65.71
196.87	32.94
197.089	75.95
197.308	75.95
197.528	30.89
197.747	-10.07
197.966	6.31
198.185	116.9
198.404	34.99
198.623	10.41
198.842	12.46
199.062	149.67
199.281	55.47
199.5	71.85
199.719	59.56
199.938	90.28
200.157	53.42
200.376	20.65
200.595	51.37
200.814	8.36
201.033	51.37
201.252	92.33
201.471	26.79
201.69	-3.93
201.909	28.84
202.128	51.37
202.347	18.6
202.566	0.17
202.785	-18.26
203.004	-34.64
203.223	73.9
203.442	51.37
203.661	67.75
203.879	6.31
204.098	51.37
204.317	0.17
204.536	-3.93
204.755	84.14
204.974	75.95
205.193	-40.79
205.411	131.24
205.63	-38.74
205.849	20.65
206.068	-38.74
206.287	53.42
206.505	57.51
206.724	18.6
206.943	37.03
207.162	39.08
207.381	-30.55
207.599	-3.93
207.818	18.6
208.037	14.51
208.255	14.51
208.474	14.51
208.693	55.47
208.911	12.46
209.13	69.8
209.349	121
209.567	24.75
209.786	133.29
210.005	49.32
210.223	37.03
210.442	20.65
210.661	26.79
210.879	57.51
211.098	-3.93
211.316	41.13
211.535	121
211.753	-1.88
211.972	-3.93
212.191	26.79
212.409	34.99
212.628	-3.93
212.846	-12.12
213.065	34.99
213.283	141.48
213.502	-5.97
213.72	-51.03
213.938	-20.31
214.157	-5.97
214.375	65.71
214.594	32.94
214.812	12.46
215.031	110.76
215.249	4.27
215.467	67.75
215.686	0.17
215.904	20.65
216.122	45.23
216.341	75.95
216.559	43.18
216.778	28.84
216.996	-3.93
217.214	53.42
217.432	-28.5
217.651	39.08
217.869	26.79
218.087	10.41
218.306	-55.12
218.524	6.31
218.742	-18.26
218.96	28.84
219.179	-26.45
219.397	45.23
219.615	69.8
219.833	69.8
220.051	-3.93
220.27	129.19
220.488	41.13
220.706	84.14
220.924	131.24
221.142	10.41
221.36	8.36
221.578	43.18
221.796	63.66
222.015	57.51
222.233	41.13
222.451	30.89
222.669	-36.69
222.887	41.13
223.105	-5.97
223.323	39.08
223.541	-10.07
223.759	28.84
223.977	32.94
224.195	28.84
224.413	32.94
224.631	51.37
224.849	84.14
225.067	96.43
225.285	116.9
225.503	-26.45
225.721	24.75
225.939	59.56
226.157	71.85
226.375	98.47
226.592	59.56
226.81	4.27
227.028	63.66
227.246	108.71
227.464	10.41
227.682	90.28
227.9	53.42
228.117	26.79
228.335	41.13
228.553	14.51
228.771	14.51
228.989	84.14
229.206	53.42
229.424	4.27
229.642	41.13
229.86	-5.97
230.077	69.8
230.295	116.9
230.513	34.99
230.731	-5.97
230.948	133.29
231.166	57.51
231.384	92.33
231.601	10.41
231.819	30.89
232.037	6.31
232.254	41.13
232.472	47.27
232.689	94.38
232.907	14.51
233.125	94.38
233.342	32.94
233.56	-12.12
233.777	-1.88
233.995	69.8
234.213	26.79
234.43	-10.07
234.648	-10.07
234.865	73.9
235.083	75.95
235.3	6.31
235.518	-5.97
235.735	75.95
235.953	75.95
236.17	73.9
236.388	41.13
236.605	16.55
236.822	77.99
237.04	26.79
237.257	55.47
237.475	14.51
237.692	94.38
237.909	49.32
238.127	-75.6
238.344	67.75
238.562	67.75
238.779	-1.88
238.996	-16.21
239.214	67.75
239.431	14.51
239.648	4.27
239.865	34.99
240.083	41.13
240.3	32.94
240.517	47.27
240.735	18.6
240.952	39.08
241.169	16.55
241.386	45.23
241.603	37.03
241.821	41.13
242.038	69.8
242.255	59.56
242.472	67.75
242.689	2.22
242.907	67.75
243.124	57.51
243.341	59.56
243.558	100.52
243.775	6.31
243.992	43.18
244.209	12.46
244.426	-24.4
244.643	30.89
244.86	41.13
245.078	-5.97
245.295	8.36
245.512	-34.64
245.729	-44.88
245.946	28.84
246.163	67.75
246.38	26.79
246.597	-26.45
246.814	28.84
247.031	6.31
247.248	39.08
247.464	22.7
247.681	32.94
247.898	61.61
248.115	84.14
248.332	-89.94
248.549	14.51
248.766	69.8
248.983	82.09
249.2	59.56
249.417	-18.26
249.633	2.22
249.85	53.42
250.067	18.6
250.284	67.75
250.501	24.75
250.717	41.13
250.934	0.17
251.151	65.71
251.368	43.18
251.585	57.51
251.801	26.79
252.018	26.79
252.235	26.79
252.451	-10.07
252.668	-18.26
252.885	34.99
253.102	55.47
253.318	43.18
253.535	24.75
253.752	67.75
253.968	-20.31
254.185	41.13
254.401	98.47
254.618	90.28
254.835	20.65
255.051	43.18
255.268	94.38
255.484	59.56
255.701	-48.98
255.917	86.19
256.134	43.18
256.351	61.61
256.567	-8.02
256.784	135.34
257	32.94
257.217	61.61
257.433	45.23
257.65	86.19
257.866	-3.93
258.082	18.6
258.299	-5.97
258.515	110.76
258.732	10.41
258.948	84.14
259.165	96.43
259.381	-10.07
259.597	82.09
259.814	59.56
260.03	55.47
260.246	53.42
260.463	84.14
260.679	90.28
260.895	24.75
261.112	34.99
261.328	12.46
261.544	-53.08
261.761	94.38
261.977	90.28
262.193	14.51
262.409	63.66
262.626	-12.12
262.842	20.65
263.058	51.37
263.274	26.79
263.49	18.6
263.707	26.79
263.923	18.6
264.139	65.71
264.355	-8.02
264.571	100.52
264.787	61.61
265.004	135.34
265.22	26.79
265.436	88.23
265.652	2.22
265.868	32.94
266.084	6.31
266.3	55.47
266.516	18.6
266.732	-1.88
266.948	28.84
267.164	18.6
267.38	32.94
267.596	34.99
267.812	84.14
268.028	18.6
268.244	16.55
268.46	61.61
268.676	12.46
268.892	41.13
269.108	55.47
269.324	20.65
269.54	71.85
269.756	20.65
269.972	55.47
270.188	43.18
270.403	-34.64
270.619	53.42
270.835	34.99
271.051	73.9
271.267	-8.02
271.483	28.84
271.698	20.65
271.914	-14.17
272.13	80.04
272.346	-14.17
272.562	55.47
272.777	30.89
272.993	-16.21
273.209	125.1
273.425	59.56
273.64	32.94
273.856	92.33
274.072	-12.12
274.287	41.13
274.503	18.6
274.719	51.37
274.934	92.33
275.15	4.27
275.366	-30.55
275.581	14.51
275.797	37.03
276.012	18.6
276.228	118.95
276.444	8.36
276.659	10.41
276.875	41.13
277.09	53.42
277.306	10.41
277.521	84.14
277.737	12.46
277.952	53.42
278.168	26.79
278.383	106.67
278.599	41.13
278.814	98.47
279.03	20.65
279.245	96.43
279.461	67.75
279.676	24.75
279.892	34.99
280.107	45.23
280.322	14.51
280.538	32.94
280.753	77.99
280.969	53.42
281.184	-44.88
281.399	80.04
281.615	-38.74
281.83	102.57
282.045	61.61
282.26	18.6
282.476	69.8
282.691	63.66
282.906	37.03
283.122	86.19
283.337	18.6
283.552	24.75
283.767	47.27
283.983	16.55
284.198	0.17
284.413	10.41
284.628	-22.36
284.843	-8.02
285.058	20.65
285.274	-53.08
285.489	-22.36
285.704	-3.93
285.919	98.47
286.134	20.65
286.349	20.65
286.564	-5.97
286.779	4.27
286.995	10.41
287.21	4.27
287.425	125.1
287.64	26.79
287.855	14.51
288.07	28.84
288.285	84.14
288.5	51.37
288.715	49.32
288.93	-10.07
289.145	57.51
289.36	30.89
289.575	34.99
289.79	24.75
290.004	-36.69
290.219	37.03
290.434	61.61
290.649	-36.69
290.864	-5.97
291.079	-10.07
291.294	61.61
291.509	12.46
291.724	67.75
291.938	-18.26
292.153	63.66
292.368	67.75
292.583	37.03
292.798	104.62
293.012	39.08
293.227	18.6
293.442	26.79
293.657	137.38
293.871	67.75
294.086	69.8
294.301	153.77
294.516	127.14
294.73	61.61
294.945	-30.55
295.16	-12.12
295.374	77.99
295.589	88.23
295.804	39.08
296.018	-3.93
296.233	22.7
296.447	116.9
296.662	24.75
296.877	118.95
297.091	45.23
297.306	18.6
297.52	14.51
297.735	80.04
297.949	-3.93
298.164	28.84
298.378	12.46
298.593	59.56
298.807	67.75
299.022	47.27
299.236	94.38
299.451	22.7
299.665	45.23
299.88	-8.02
300.094	92.33
300.309	-12.12
300.523	51.37
300.737	12.46
300.952	69.8
301.166	24.75
301.381	59.56
301.595	-10.07
301.809	45.23
302.024	6.31
302.238	20.65
302.452	100.52
302.667	28.84
302.881	49.32
303.095	73.9
303.309	106.67
303.524	16.55
303.738	100.52
303.952	26.79
304.166	47.27
304.381	41.13
304.595	84.14
304.809	34.99
305.023	-46.93
305.237	77.99
305.452	49.32
305.666	67.75
305.88	63.66
306.094	47.27
306.308	22.7
306.522	30.89
306.736	57.51
306.95	2.22
307.164	14.51
307.379	37.03
307.593	57.51
307.807	63.66
308.021	30.89
308.235	47.27
308.449	98.47
308.663	53.42
308.877	82.09
309.091	6.31
309.305	125.1
309.519	-89.94
309.733	98.47
309.947	-69.46
310.161	43.18
310.374	63.66
310.588	61.61
310.802	43.18
311.016	41.13
311.23	108.71
311.444	69.8
311.658	37.03
311.872	43.18
312.085	63.66
312.299	90.28
312.513	26.79
312.727	137.38
312.941	-22.36
313.154	-10.07
313.368	59.56
313.582	22.7
313.796	6.31
314.009	53.42
314.223	84.14
314.437	37.03
314.651	118.95
314.864	26.79
315.078	61.61
315.292	26.79
315.505	30.89
315.719	77.99
315.933	34.99
316.146	88.23
316.36	59.56
316.573	39.08
316.787	43.18
317.001	34.99
317.214	34.99
317.428	96.43
317.641	-1.88
317.855	34.99
318.068	28.84
318.282	26.79
318.495	77.99
318.709	22.7
318.922	16.55
319.136	61.61
319.349	92.33
319.563	51.37
319.776	26.79
319.99	67.75
320.203	-34.64
320.417	129.19
320.63	61.61
320.843	61.61
321.057	20.65
321.27	63.66
321.483	12.46
321.697	88.23
321.91	65.71
322.124	53.42
322.337	20.65
322.55	28.84
322.763	92.33
322.977	-5.97
323.19	-36.69
323.403	-55.12
323.617	53.42
323.83	47.27
324.043	34.99
324.256	127.14
324.469	-34.64
324.683	32.94
324.896	43.18
325.109	77.99
325.322	28.84
325.535	22.7
325.748	30.89
325.962	51.37
326.175	34.99
326.388	118.95
326.601	84.14
326.814	80.04
327.027	8.36
327.24	39.08
327.453	6.31
327.666	37.03
327.879	43.18
328.092	75.95
328.305	75.95
328.518	149.67
328.731	65.71
328.944	2.22
329.157	24.75
329.37	34.99
329.583	34.99
329.796	94.38
330.009	34.99
330.222	57.51
330.435	45.23
330.648	6.31
330.861	24.75
331.073	116.9
331.286	57.51
331.499	67.75
331.712	-14.17
331.925	32.94
332.138	45.23
332.35	57.51
332.563	151.72
332.776	10.41
332.989	2.22
333.202	67.75
333.414	43.18
333.627	80.04
333.84	43.18
334.053	51.37
334.265	34.99
334.478	18.6
334.691	88.23
334.903	4.27
335.116	63.66
335.329	43.18
335.541	30.89
335.754	80.04
335.966	94.38
336.179	-22.36
336.392	61.61
336.604	104.62
336.817	10.41
337.029	30.89
337.242	39.08
337.454	6.31
337.667	28.84
337.88	39.08
338.092	82.09
338.305	118.95
338.517	41.13
338.729	20.65
338.942	69.8
339.154	51.37
339.367	-44.88
339.579	59.56
339.792	43.18
340.004	123.05
340.217	18.6
340.429	28.84
340.641	53.42
340.854	-5.97
341.066	-36.69
341.278	2.22
341.491	141.48
341.703	24.75
341.915	45.23
342.128	51.37
342.34	30.89
342.552	69.8
342.764	106.67
342.977	100.52
343.189	39.08
343.401	59.56
343.613	4.27
343.826	28.84
344.038	-22.36
344.25	90.28
344.462	69.8
344.674	26.79
344.886	82.09
345.099	-14.17
345.311	-38.74
345.523	45.23
345.735	-10.07
345.947	59.56
346.159	55.47
346.371	30.89
346.583	10.41
346.795	43.18
347.007	18.6
347.219	176.3
347.431	82.09
347.643	108.71
347.855	26.79
348.067	63.66
348.279	67.75
348.491	12.46
348.703	20.65
348.915	-42.84
349.127	-63.32
349.339	14.51
349.551	10.41
349.763	55.47
349.975	22.7
350.187	137.38
350.399	94.38
350.61	47.27
350.822	4.27
351.034	75.95
351.246	63.66
351.458	22.7
351.669	39.08
351.881	116.9
352.093	51.37
352.305	80.04
352.517	34.99
352.728	73.9
352.94	43.18
353.152	55.47
353.363	30.89
353.575	-3.93
353.787	96.43
353.999	71.85
354.21	34.99
354.422	32.94
354.633	39.08
354.845	106.67
355.057	55.47
355.268	-5.97
355.48	53.42
355.692	63.66
355.903	4.27
356.115	32.94
356.326	-26.45
356.538	14.51
356.749	75.95
356.961	-24.4
357.172	-1.88
357.384	12.46
357.595	82.09
357.807	73.9
358.018	67.75
358.23	100.52
358.441	77.99
358.653	104.62
358.864	51.37
359.075	57.51
359.287	75.95
359.498	55.47
359.709	110.76
359.921	22.7
360.132	28.84
360.344	20.65
360.555	37.03
360.766	45.23
360.977	41.13
361.189	16.55
361.4	18.6
361.611	22.7
361.823	61.61
362.034	34.99
362.245	12.46
362.456	37.03
362.667	59.56
362.879	-10.07
363.09	108.71
363.301	32.94
363.512	22.7
363.723	28.84
363.935	55.47
364.146	86.19
364.357	94.38
364.568	26.79
364.779	-1.88
364.99	65.71
365.201	84.14
365.412	84.14
365.623	43.18
365.834	98.47
366.045	106.67
366.256	61.61
366.467	47.27
366.678	39.08
366.889	166.06
367.1	22.7
367.311	67.75
367.522	75.95
367.733	45.23
367.944	133.29
368.155	30.89
368.366	41.13
368.577	168.1
368.788	37.03
368.999	18.6
369.209	59.56
369.42	102.57
369.631	71.85
369.842	82.09
370.053	92.33
370.264	98.47
370.474	61.61
370.685	84.14
370.896	53.42
371.107	45.23
371.317	20.65
371.528	71.85
371.739	16.55
371.95	55.47
372.16	86.19
372.371	51.37
372.582	14.51
372.792	59.56
373.003	55.47
373.214	59.56
373.424	24.75
373.635	-3.93
373.846	59.56
374.056	26.79
374.267	26.79
374.477	2.22
374.688	69.8
374.898	47.27
375.109	59.56
375.319	28.84
375.53	18.6
375.74	84.14
375.951	14.51
376.161	88.23
376.372	10.41
376.582	28.84
376.793	51.37
377.003	65.71
377.214	-1.88
377.424	30.89
377.635	67.75
377.845	12.46
378.055	143.53
378.266	65.71
378.476	-26.45
378.686	49.32
378.897	-12.12
379.107	102.57
379.317	86.19
379.528	10.41
379.738	53.42
379.948	-57.17
380.158	-12.12
380.369	43.18
380.579	59.56
380.789	49.32
380.999	110.76
381.21	51.37
381.42	84.14
381.63	-10.07
381.84	63.66
382.05	22.7
382.261	104.62
382.471	112.81
382.681	59.56
382.891	77.99
383.101	127.14
383.311	22.7
383.521	51.37
383.731	53.42
383.941	96.43
384.151	71.85
384.361	112.81
384.571	26.79
384.781	108.71
384.991	123.05
385.201	125.1
385.411	61.61
385.621	161.96
385.831	39.08
386.041	55.47
386.251	51.37
386.461	92.33
386.671	32.94
386.881	55.47
387.091	26.79
387.301	-5.97
387.511	-67.41
387.72	94.38
387.93	43.18
388.14	55.47
388.35	69.8
388.56	51.37
388.769	77.99
388.979	82.09
389.189	34.99
389.399	47.27
389.609	30.89
389.818	149.67
390.028	77.99
390.238	45.23
390.447	18.6
390.657	39.08
390.867	61.61
391.076	98.47
391.286	65.71
391.496	84.14
391.705	57.51
391.915	100.52
392.125	61.61
392.334	65.71
392.544	61.61
392.753	100.52
392.963	80.04
393.172	55.47
393.382	69.8
393.591	34.99
393.801	34.99
394.01	125.1
394.22	92.33
394.429	45.23
394.639	61.61
394.848	108.71
395.058	49.32
395.267	71.85
395.477	102.57
395.686	92.33
395.895	84.14
396.105	161.96
396.314	188.58
396.524	47.27
396.733	151.72
396.942	53.42
397.152	77.99
397.361	82.09
397.57	92.33
397.78	84.14
397.989	129.19
398.198	127.14
398.407	61.61
398.617	30.89
398.826	75.95
399.035	127.14
399.244	118.95
399.453	100.52
399.663	84.14
399.872	137.38
400.081	67.75
400.29	34.99
400.499	98.47
400.708	166.06
400.917	67.75
401.127	96.43
401.336	69.8
401.545	153.77
401.754	71.85
401.963	88.23
402.172	127.14
402.381	94.38
402.59	98.47
402.799	22.7
403.008	73.9
403.217	65.71
403.426	110.76
403.635	96.43
403.844	53.42
404.053	96.43
404.262	110.76
404.471	217.26
404.68	82.09
404.888	174.25
405.097	69.8
405.306	166.06
405.515	168.1
405.724	145.58
405.933	196.78
406.142	108.71
406.35	207.02
406.559	84.14
406.768	125.1
406.977	155.82
407.185	161.96
407.394	143.53
407.603	65.71
407.812	192.68
408.02	196.78
408.229	192.68
408.438	180.39
408.646	143.53
408.855	192.68
409.064	188.58
409.272	231.59
409.481	258.21
409.69	243.88
409.898	141.48
410.107	295.08
410.315	305.32
410.524	153.77
410.733	295.08
410.941	207.02
411.15	286.89
411.358	256.17
411.567	286.89
411.775	311.46
411.984	252.07
412.192	379.04
412.401	338.09
412.609	372.9
412.818	426.15
413.026	362.66
413.234	379.04
413.443	358.57
413.651	454.82
413.86	442.53
414.068	393.38
414.276	450.72
414.485	395.43
414.693	530.59
414.901	538.79
415.11	520.35
415.318	495.78
415.526	559.27
415.734	561.31
415.943	575.65
416.151	575.65
416.359	577.7
416.567	612.51
416.776	622.75
416.984	678.05
417.192	737.44
417.4	702.62
417.608	678.05
417.817	843.93
418.025	839.84
418.233	948.38
418.441	850.08
418.649	907.42
418.857	895.13
419.065	1085.59
419.273	950.43
419.481	1005.72
419.689	1091.74
419.897	1063.07
420.105	1165.46
420.313	1058.97
420.521	1169.56
420.729	1235.1
420.937	1243.29
421.145	1300.63
421.353	1382.55
421.561	1427.6
421.769	1425.56
421.977	1450.13
422.185	1560.72
422.393	1634.45
422.601	1575.06
422.809	1708.18
423.017	1665.17
423.224	1699.98
423.432	1724.56
423.64	1740.94
423.848	2095.24
424.056	2001.04
424.263	2123.91
424.471	2166.92
424.679	2164.87
424.887	2209.93
425.094	2285.7
425.302	2435.21
425.51	2384.01
425.718	2316.42
425.925	2467.97
426.133	2529.41
426.341	2713.73
426.548	2855.04
426.756	2916.48
426.964	2924.67
427.171	3190.91
427.379	3149.95
427.586	3139.71
427.794	3377.27
428.001	3438.71
428.209	3641.46
428.417	3588.21
428.624	3813.49
428.832	3768.43
429.039	3676.27
429.247	3666.03
429.454	4077.68
429.662	4393.06
429.869	4061.29
430.076	4305
430.284	4239.47
430.491	4567.14
430.699	4741.22
430.906	4776.03
431.114	4782.18
431.321	5017.69
431.528	5089.37
431.736	5367.9
431.943	5566.55
432.15	5343.32
432.358	5533.78
432.565	5822.55
432.772	5830.74
432.979	6082.64
433.187	6096.97
433.394	6010.96
433.601	6568.01
433.808	6668.36
434.016	6717.51
434.223	6793.28
434.43	7319.61
434.637	7163.97
434.844	7747.64
435.052	7794.74
435.259	7798.84
435.466	8011.82
435.673	7827.51
435.88	8267.82
436.087	8687.65
436.294	8630.31
436.501	8405.03
436.708	8622.12
436.915	9007.14
437.122	9248.8
437.329	9439.26
437.537	9639.96
437.743	9775.13
437.95	9609.24
438.157	10207.25
438.364	10536.97
438.571	10598.41
438.778	10557.45
438.985	11597.82
439.192	11245.57
439.399	11528.19
439.606	11419.64
439.813	12099.57
440.02	12627.95
440.227	12412.91
440.433	12269.55
440.64	12543.98
440.847	12543.98
441.054	12806.12
441.261	13887.45
441.467	13367.26
441.674	13963.22
441.881	14522.32
442.088	14352.34
442.294	14249.94
442.501	14747.59
442.708	14964.68
442.914	15462.33
443.121	15964.09
443.328	15812.54
443.534	16859.05
443.741	16111.54
443.948	16031.67
444.154	17260.45
444.361	17106.85
444.568	17313.7
444.774	17293.22
444.981	17549.21
445.187	18071.45
445.394	18859.91
445.6	18628.49
445.807	20121.46
446.013	19416.96
446.22	19777.4
446.426	20717.42
446.633	20692.85
446.839	21589.86
447.046	20326.26
447.252	21747.55
447.459	21639.01
447.665	21774.17
447.871	22718.29
448.078	23564.1
448.284	22331.22
448.491	23127.88
448.697	24348.47
448.903	24424.25
449.11	24667.95
449.316	24500.02
449.522	24643.38
449.728	25159.47
449.935	25648.93
450.141	25446.18
450.347	26156.83
450.553	25794.34
450.76	25823.01
450.966	26793.75
451.172	25984.8
451.378	26892.05
451.584	26308.38
451.791	27105.04
451.997	27096.85
452.203	27567.88
452.409	27846.4
452.615	27301.64
452.821	26406.68
453.027	26087.2
453.233	27250.44
453.44	26275.61
453.646	26789.65
453.852	26892.05
454.058	27121.42
454.264	26629.91
454.47	27092.75
454.676	26201.88
454.882	27475.72
455.088	24864.56
455.294	25401.13
455.5	25702.18
455.705	25794.34
455.911	25003.82
456.117	24557.36
456.323	24272.7
456.529	22972.24
456.735	24231.74
456.941	23338.82
457.147	22728.53
457.352	22171.48
457.558	22218.58
457.764	22173.53
457.97	21878.62
458.176	21247.85
458.381	21268.33
458.587	19894.14
458.793	20424.56
458.999	19054.47
459.204	20549.49
459.41	19969.91
459.616	18745.23
459.821	18638.73
460.027	18558.86
460.233	18149.27
460.438	17432.48
460.644	17524.64
460.85	16521.13
461.055	16381.87
461.261	16451.5
461.466	15271.87
461.672	14872.52
461.878	16037.81
462.083	14688.2
462.289	14516.17
462.494	14317.52
462.7	13893.59
462.905	13307.87
463.111	14059.48
463.316	13770.71
463.522	13709.27
463.727	13486.04
463.932	13400.03
464.138	13342.69
464.343	13428.7
464.549	12939.24
464.754	13467.61
464.959	13332.45
465.165	13336.54
465.37	12748.78
465.575	12390.38
465.781	12804.07
465.986	12900.33
466.191	12541.93
466.397	12355.57
466.602	11739.13
466.807	12136.43
467.012	12130.29
467.218	11868.15
467.423	11898.87
467.628	12095.47
