Data from USB4F104151__84__13-12-35-652.txt Node

Date: Fri Mar 14 13:12:35 EDT 2025
User: louis
Spectrometer: USB4F10415
Trigger mode: 4
Integration Time (sec): 2.000000E-2
Scans to average: 1
Electric dark correction enabled: true
Nonlinearity correction enabled: false
Boxcar width: 0
XAxis mode: Wavelengths
Number of Pixels in Spectrum: 3648
>>>>>Begin Spectral Data<<<<<
178.204	-110.76
178.424	-110.76
178.644	-110.76
178.864	-84.14
179.084	-73.9
179.304	-30.89
179.524	-55.47
179.744	-14.51
179.964	34.64
180.184	26.45
180.404	46.93
180.624	-2.22
180.844	8.02
181.064	-30.89
181.283	-6.31
181.503	18.26
181.723	5.97
181.943	-90.28
182.163	40.79
182.383	-92.33
182.602	16.21
182.822	91.99
183.042	-26.79
183.262	42.84
183.482	1.88
183.701	40.79
183.921	75.6
184.141	5.97
184.361	38.74
184.58	8.02
184.8	-88.23
185.02	-41.13
185.239	75.6
185.459	-12.46
185.679	67.41
185.898	12.12
186.118	104.28
186.338	30.55
186.557	57.17
186.777	75.6
186.997	30.55
187.216	-6.31
187.436	32.6
187.655	-10.41
187.875	153.43
188.095	-22.7
188.314	61.27
188.534	-37.03
188.753	38.74
188.973	81.75
189.192	22.36
189.412	28.5
189.631	5.97
189.851	18.26
190.07	10.07
190.29	-55.47
190.509	51.03
190.729	59.22
190.948	91.99
191.168	8.02
191.387	98.13
191.607	-10.41
191.826	5.97
192.045	42.84
192.265	-49.32
192.484	46.93
192.704	46.93
192.923	-51.37
193.142	-24.75
193.362	73.56
193.581	-8.36
193.8	-47.27
194.02	14.17
194.239	-51.37
194.458	-24.75
194.678	14.17
194.897	14.17
195.116	20.31
195.335	57.17
195.555	79.7
195.774	28.5
195.993	110.42
196.212	38.74
196.432	-20.65
196.651	-67.75
196.87	30.55
197.089	83.8
197.308	-0.17
197.528	-28.84
197.747	63.32
197.966	55.12
198.185	24.4
198.404	-2.22
198.623	61.27
198.842	-24.75
199.062	57.17
199.281	-12.46
199.5	-4.27
199.719	61.27
199.938	1.88
200.157	71.51
200.376	-82.09
200.595	30.55
200.814	30.55
201.033	1.88
201.252	-2.22
201.471	34.64
201.69	-34.99
201.909	-2.22
202.128	14.17
202.347	-24.75
202.566	-0.17
202.785	-26.79
203.004	63.32
203.223	65.36
203.442	8.02
203.661	10.07
203.879	3.93
204.098	22.36
204.317	36.69
204.536	22.36
204.755	75.6
204.974	-73.9
205.193	83.8
205.411	79.7
205.63	-18.6
205.849	-0.17
206.068	-28.84
206.287	-26.79
206.505	-10.41
206.724	5.97
206.943	-30.89
207.162	63.32
207.381	30.55
207.599	73.56
207.818	14.17
208.037	30.55
208.255	38.74
208.474	73.56
208.693	51.03
208.911	-34.99
209.13	55.12
209.349	-4.27
209.567	12.12
209.786	42.84
210.005	36.69
210.223	-39.08
210.442	53.08
210.661	38.74
210.879	16.21
211.098	-12.46
211.316	77.65
211.535	53.08
211.753	10.07
211.972	-8.36
212.191	44.88
212.409	65.36
212.628	63.32
212.846	71.51
213.065	40.79
213.283	57.17
213.502	12.12
213.72	-65.71
213.938	-10.41
214.157	14.17
214.375	42.84
214.594	-41.13
214.812	-0.17
215.031	-84.14
215.249	-18.6
215.467	-12.46
215.686	28.5
215.904	22.36
216.122	-8.36
216.341	42.84
216.559	36.69
216.778	12.12
216.996	42.84
217.214	22.36
217.432	40.79
217.651	-10.41
217.869	-59.56
218.087	-32.94
218.306	36.69
218.524	38.74
218.742	-24.75
218.96	-2.22
219.179	-32.94
219.397	81.75
219.615	-4.27
219.833	38.74
220.051	8.02
220.27	30.55
220.488	61.27
220.706	5.97
220.924	-24.75
221.142	-2.22
221.36	-32.94
221.578	-10.41
221.796	-14.51
222.015	22.36
222.233	44.88
222.451	-45.23
222.669	-41.13
222.887	26.45
223.105	48.98
223.323	-92.33
223.541	-26.79
223.759	32.6
223.977	-53.42
224.195	38.74
224.413	40.79
224.631	-14.51
224.849	-10.41
225.067	26.45
225.285	42.84
225.503	5.97
225.721	-4.27
225.939	24.4
226.157	-6.31
226.375	10.07
226.592	34.64
226.81	26.45
227.028	65.36
227.246	63.32
227.464	40.79
227.682	46.93
227.9	34.64
228.117	-24.75
228.335	-26.79
228.553	18.26
228.771	30.55
228.989	-0.17
229.206	44.88
229.424	51.03
229.642	-2.22
229.86	16.21
230.077	106.32
230.295	38.74
230.513	-18.6
230.731	-24.75
230.948	83.8
231.166	100.18
231.384	-30.89
231.601	24.4
231.819	-2.22
232.037	-51.37
232.254	16.21
232.472	5.97
232.689	-73.9
232.907	14.17
233.125	-20.65
233.342	-12.46
233.56	-2.22
233.777	10.07
233.995	24.4
234.213	96.08
234.43	-12.46
234.648	-75.95
234.865	22.36
235.083	32.6
235.3	16.21
235.518	28.5
235.735	38.74
235.953	40.79
236.17	18.26
236.388	38.74
236.605	-6.31
236.822	104.28
237.04	5.97
237.257	48.98
237.475	-24.75
237.692	-2.22
237.909	36.69
238.127	1.88
238.344	5.97
238.562	57.17
238.779	5.97
238.996	18.26
239.214	48.98
239.431	48.98
239.648	-32.94
239.865	-0.17
240.083	5.97
240.3	55.12
240.517	55.12
240.735	40.79
240.952	3.93
241.169	40.79
241.386	63.32
241.603	30.55
241.821	-28.84
242.038	59.22
242.255	-12.46
242.472	-14.51
242.689	32.6
242.907	20.31
243.124	67.41
243.341	20.31
243.558	-43.18
243.775	71.51
243.992	14.17
244.209	26.45
244.426	65.36
244.643	-55.47
244.86	48.98
245.078	100.18
245.295	5.97
245.512	30.55
245.729	-34.99
245.946	71.51
246.163	-26.79
246.38	-47.27
246.597	14.17
246.814	-39.08
247.031	40.79
247.248	55.12
247.464	1.88
247.681	22.36
247.898	-4.27
248.115	18.26
248.332	24.4
248.549	57.17
248.766	18.26
248.983	34.64
249.2	30.55
249.417	44.88
249.633	-6.31
249.85	34.64
250.067	-43.18
250.284	38.74
250.501	44.88
250.717	12.12
250.934	12.12
251.151	-37.03
251.368	5.97
251.585	57.17
251.801	8.02
252.018	-41.13
252.235	-37.03
252.451	-57.51
252.668	14.17
252.885	10.07
253.102	-22.7
253.318	26.45
253.535	-18.6
253.752	34.64
253.968	-2.22
254.185	24.4
254.401	-18.6
254.618	40.79
254.835	16.21
255.051	42.84
255.268	67.41
255.484	36.69
255.701	34.64
255.917	-24.75
256.134	22.36
256.351	89.94
256.567	-24.75
256.784	98.13
257	-34.99
257.217	38.74
257.433	22.36
257.65	59.22
257.866	26.45
258.082	-10.41
258.299	30.55
258.515	38.74
258.732	96.08
258.948	-2.22
259.165	34.64
259.381	14.17
259.597	38.74
259.814	48.98
260.03	10.07
260.246	32.6
260.463	38.74
260.679	1.88
260.895	34.64
261.112	-14.51
261.328	-59.56
261.544	14.17
261.761	63.32
261.977	57.17
262.193	14.17
262.409	34.64
262.626	67.41
262.842	10.07
263.058	-20.65
263.274	51.03
263.49	81.75
263.707	38.74
263.923	-14.51
264.139	24.4
264.355	-65.71
264.571	67.41
264.787	-28.84
265.004	8.02
265.22	79.7
265.436	18.26
265.652	-12.46
265.868	10.07
266.084	-6.31
266.3	-53.42
266.516	5.97
266.732	10.07
266.948	-0.17
267.164	-39.08
267.38	122.71
267.596	42.84
267.812	81.75
268.028	51.03
268.244	-24.75
268.46	-12.46
268.676	-28.84
268.892	-16.55
269.108	59.22
269.324	24.4
269.54	-63.66
269.756	91.99
269.972	-30.89
270.188	24.4
270.403	-61.61
270.619	55.12
270.835	-32.94
271.051	-8.36
271.267	-32.94
271.483	-0.17
271.698	24.4
271.914	79.7
272.13	55.12
272.346	1.88
272.562	32.6
272.777	-26.79
272.993	46.93
273.209	69.46
273.425	55.12
273.64	51.03
273.856	-2.22
274.072	18.26
274.287	8.02
274.503	38.74
274.719	28.5
274.934	30.55
275.15	-49.32
275.366	-4.27
275.581	-8.36
275.797	55.12
276.012	91.99
276.228	-47.27
276.444	48.98
276.659	65.36
276.875	-59.56
277.09	5.97
277.306	1.88
277.521	48.98
277.737	8.02
277.952	79.7
278.168	12.12
278.383	8.02
278.599	-6.31
278.814	-26.79
279.03	-14.51
279.245	75.6
279.461	1.88
279.676	67.41
279.892	-30.89
280.107	16.21
280.322	1.88
280.538	-43.18
280.753	-24.75
280.969	-14.51
281.184	-8.36
281.399	14.17
281.615	22.36
281.83	-47.27
282.045	108.37
282.26	8.02
282.476	-55.47
282.691	8.02
282.906	14.17
283.122	-18.6
283.337	-26.79
283.552	-8.36
283.767	-34.99
283.983	1.88
284.198	55.12
284.413	51.03
284.628	46.93
284.843	14.17
285.058	3.93
285.274	28.5
285.489	-22.7
285.704	22.36
285.919	22.36
286.134	10.07
286.349	32.6
286.564	-18.6
286.779	16.21
286.995	34.64
287.21	-49.32
287.425	8.02
287.64	48.98
287.855	51.03
288.07	-51.37
288.285	-43.18
288.5	8.02
288.715	-0.17
288.93	-14.51
289.145	-22.7
289.36	-18.6
289.575	22.36
289.79	40.79
290.004	10.07
290.219	8.02
290.434	10.07
290.649	-8.36
290.864	22.36
291.079	-51.37
291.294	5.97
291.509	-18.6
291.724	8.02
291.938	-14.51
292.153	51.03
292.368	-43.18
292.583	1.88
292.798	-32.94
293.012	48.98
293.227	48.98
293.442	-71.85
293.657	53.08
293.871	128.85
294.086	63.32
294.301	44.88
294.516	1.88
294.73	-10.41
294.945	-41.13
295.16	18.26
295.374	51.03
295.589	59.22
295.804	-18.6
296.018	67.41
296.233	42.84
296.447	59.22
296.662	-24.75
296.877	28.5
297.091	18.26
297.306	63.32
297.52	-59.56
297.735	22.36
297.949	12.12
298.164	12.12
298.378	1.88
298.593	1.88
298.807	-6.31
299.022	55.12
299.236	-16.55
299.451	-51.37
299.665	10.07
299.88	-32.94
300.094	-51.37
300.309	26.45
300.523	-24.75
300.737	20.31
300.952	22.36
301.166	36.69
301.381	-20.65
301.595	-14.51
301.809	-8.36
302.024	-10.41
302.238	14.17
302.452	30.55
302.667	-34.99
302.881	61.27
303.095	32.6
303.309	18.26
303.524	-8.36
303.738	20.31
303.952	20.31
304.166	-12.46
304.381	-26.79
304.595	1.88
304.809	-59.56
305.023	1.88
305.237	22.36
305.452	5.97
305.666	-18.6
305.88	42.84
306.094	-26.79
306.308	-8.36
306.522	57.17
306.736	3.93
306.95	14.17
307.164	-63.66
307.379	-75.95
307.593	59.22
307.807	18.26
308.021	22.36
308.235	22.36
308.449	36.69
308.663	44.88
308.877	-0.17
309.091	5.97
309.305	-2.22
309.519	-34.99
309.733	63.32
309.947	-18.6
310.161	-4.27
310.374	34.64
310.588	55.12
310.802	-10.41
311.016	5.97
311.23	-8.36
311.444	28.5
311.658	-8.36
311.872	96.08
312.085	91.99
312.299	44.88
312.513	10.07
312.727	53.08
312.941	-71.85
313.154	-26.79
313.368	46.93
313.582	63.32
313.796	-26.79
314.009	42.84
314.223	59.22
314.437	22.36
314.651	16.21
314.864	-0.17
315.078	-39.08
315.292	36.69
315.505	20.31
315.719	-0.17
315.933	94.04
316.146	28.5
316.36	28.5
316.573	5.97
316.787	51.03
317.001	30.55
317.214	-30.89
317.428	51.03
317.641	14.17
317.855	30.55
318.068	34.64
318.282	-0.17
318.495	42.84
318.709	48.98
318.922	36.69
319.136	91.99
319.349	22.36
319.563	-57.51
319.776	-14.51
319.99	-34.99
320.203	20.31
320.417	-67.75
320.63	98.13
320.843	55.12
321.057	83.8
321.27	12.12
321.483	20.31
321.697	32.6
321.91	14.17
322.124	-6.31
322.337	53.08
322.55	30.55
322.763	34.64
322.977	38.74
323.19	16.21
323.403	40.79
323.617	48.98
323.83	30.55
324.043	65.36
324.256	-2.22
324.469	-2.22
324.683	55.12
324.896	34.64
325.109	48.98
325.322	5.97
325.535	-26.79
325.748	36.69
325.962	14.17
326.175	-22.7
326.388	-8.36
326.601	44.88
326.814	24.4
327.027	40.79
327.24	139.09
327.453	-22.7
327.666	44.88
327.879	40.79
328.092	-16.55
328.305	-6.31
328.518	-8.36
328.731	38.74
328.944	85.84
329.157	3.93
329.37	28.5
329.583	-18.6
329.796	59.22
330.009	-34.99
330.222	55.12
330.435	40.79
330.648	51.03
330.861	55.12
331.073	28.5
331.286	59.22
331.499	10.07
331.712	-18.6
331.925	16.21
332.138	42.84
332.35	51.03
332.563	-16.55
332.776	-30.89
332.989	-57.51
333.202	14.17
333.414	63.32
333.627	-22.7
333.84	-10.41
334.053	-28.84
334.265	-8.36
334.478	53.08
334.691	24.4
334.903	14.17
335.116	18.26
335.329	12.12
335.541	-26.79
335.754	1.88
335.966	-30.89
336.179	40.79
336.392	-18.6
336.604	57.17
336.817	16.21
337.029	46.93
337.242	-75.95
337.454	81.75
337.667	-28.84
337.88	63.32
338.092	-32.94
338.305	16.21
338.517	16.21
338.729	36.69
338.942	30.55
339.154	55.12
339.367	-92.33
339.579	-16.55
339.792	-14.51
340.004	26.45
340.217	36.69
340.429	34.64
340.641	-37.03
340.854	8.02
341.066	48.98
341.278	81.75
341.491	85.84
341.703	16.21
341.915	-0.17
342.128	1.88
342.34	53.08
342.552	-28.84
342.764	14.17
342.977	1.88
343.189	-10.41
343.401	-20.65
343.613	-59.56
343.826	1.88
344.038	5.97
344.25	-16.55
344.462	-51.37
344.674	-18.6
344.886	32.6
345.099	38.74
345.311	-0.17
345.523	-41.13
345.735	-82.09
345.947	-12.46
346.159	18.26
346.371	57.17
346.583	8.02
346.795	-32.94
347.007	-2.22
347.219	24.4
347.431	42.84
347.643	30.55
347.855	22.36
348.067	22.36
348.279	24.4
348.491	10.07
348.703	46.93
348.915	85.84
349.127	26.45
349.339	20.31
349.551	20.31
349.763	83.8
349.975	5.97
350.187	-6.31
350.399	55.12
350.61	24.4
350.822	-71.85
351.034	59.22
351.246	34.64
351.458	-14.51
351.669	55.12
351.881	67.41
352.093	20.31
352.305	-20.65
352.517	-8.36
352.728	48.98
352.94	-24.75
353.152	24.4
353.363	-8.36
353.575	71.51
353.787	-18.6
353.999	30.55
354.21	8.02
354.422	46.93
354.633	73.56
354.845	46.93
355.057	-59.56
355.268	10.07
355.48	40.79
355.692	-18.6
355.903	30.55
356.115	-10.41
356.326	-8.36
356.538	87.89
356.749	38.74
356.961	18.26
357.172	51.03
357.384	14.17
357.595	59.22
357.807	-2.22
358.018	5.97
358.23	-51.37
358.441	91.99
358.653	-30.89
358.864	5.97
359.075	-16.55
359.287	-43.18
359.498	100.18
359.709	67.41
359.921	38.74
360.132	-12.46
360.344	30.55
360.555	-30.89
360.766	42.84
360.977	42.84
361.189	69.46
361.4	57.17
361.611	12.12
361.823	61.27
362.034	20.31
362.245	-57.51
362.456	-24.75
362.667	14.17
362.879	24.4
363.09	20.31
363.301	-6.31
363.512	42.84
363.723	46.93
363.935	-12.46
364.146	124.76
364.357	30.55
364.568	83.8
364.779	48.98
364.99	5.97
365.201	-57.51
365.412	48.98
365.623	24.4
365.834	8.02
366.045	-6.31
366.256	5.97
366.467	-24.75
366.678	8.02
366.889	20.31
367.1	18.26
367.311	-12.46
367.522	-28.84
367.733	85.84
367.944	38.74
368.155	98.13
368.366	-14.51
368.577	40.79
368.788	-0.17
368.999	-6.31
369.209	-55.47
369.42	38.74
369.631	28.5
369.842	44.88
370.053	-6.31
370.264	53.08
370.474	65.36
370.685	10.07
370.896	-0.17
371.107	44.88
371.317	57.17
371.528	-80.04
371.739	-34.99
371.95	-18.6
372.16	65.36
372.371	-2.22
372.582	-63.66
372.792	3.93
373.003	65.36
373.214	-4.27
373.424	38.74
373.635	-55.47
373.846	87.89
374.056	-43.18
374.267	-10.41
374.477	14.17
374.688	63.32
374.898	-16.55
375.109	8.02
375.319	-12.46
375.53	71.51
375.74	-14.51
375.951	38.74
376.161	30.55
376.372	5.97
376.582	-37.03
376.793	20.31
377.003	12.12
377.214	40.79
377.424	18.26
377.635	48.98
377.845	28.5
378.055	38.74
378.266	42.84
378.476	65.36
378.686	75.6
378.897	5.97
379.107	8.02
379.317	32.6
379.528	20.31
379.738	10.07
379.948	-86.19
380.158	16.21
380.369	-2.22
380.579	89.94
380.789	-6.31
380.999	5.97
381.21	8.02
381.42	-2.22
381.63	63.32
381.84	-24.75
382.05	-14.51
382.261	-0.17
382.471	-0.17
382.681	-2.22
382.891	55.12
383.101	40.79
383.311	-41.13
383.521	71.51
383.731	10.07
383.941	44.88
384.151	87.89
384.361	-30.89
384.571	94.04
384.781	91.99
384.991	-18.6
385.201	-2.22
385.411	24.4
385.621	-20.65
385.831	-8.36
386.041	14.17
386.251	-16.55
386.461	14.17
386.671	-28.84
386.881	69.46
387.091	40.79
387.301	36.69
387.511	-2.22
387.72	1.88
387.93	18.26
388.14	-55.47
388.35	24.4
388.56	14.17
388.769	24.4
388.979	-2.22
389.189	24.4
389.399	83.8
389.609	40.79
389.818	44.88
390.028	38.74
390.238	81.75
390.447	16.21
390.657	53.08
390.867	3.93
391.076	57.17
391.286	22.36
391.496	-6.31
391.705	36.69
391.915	22.36
392.125	-28.84
392.334	-47.27
392.544	55.12
392.753	69.46
392.963	3.93
393.172	81.75
393.382	1.88
393.591	59.22
393.801	-6.31
394.01	71.51
394.22	24.4
394.429	26.45
394.639	18.26
394.848	12.12
395.058	-28.84
395.267	26.45
395.477	22.36
395.686	22.36
395.895	94.04
396.105	-2.22
396.314	51.03
396.524	14.17
396.733	-26.79
396.942	44.88
397.152	14.17
397.361	75.6
397.57	-14.51
397.78	-2.22
397.989	1.88
398.198	112.47
398.407	32.6
398.617	81.75
398.826	-6.31
399.035	63.32
399.244	16.21
399.453	40.79
399.663	38.74
399.872	42.84
400.081	-43.18
400.29	16.21
400.499	-37.03
400.708	151.38
400.917	16.21
401.127	55.12
401.336	30.55
401.545	147.28
401.754	5.97
401.963	-10.41
402.172	-41.13
402.381	8.02
402.59	63.32
402.799	14.17
403.008	67.41
403.217	67.41
403.426	28.5
403.635	-10.41
403.844	12.12
404.053	-0.17
404.262	51.03
404.471	73.56
404.68	104.28
404.888	-8.36
405.097	34.64
405.306	73.56
405.515	157.52
405.724	30.55
405.933	-22.7
406.142	36.69
406.35	55.12
406.559	63.32
406.768	36.69
406.977	118.61
407.185	59.22
407.394	46.93
407.603	63.32
407.812	32.6
408.02	149.33
408.229	46.93
408.438	69.46
408.646	104.28
408.855	63.32
409.064	79.7
409.272	-8.36
409.481	116.56
409.69	55.12
409.898	116.56
410.107	116.56
410.315	161.62
410.524	114.52
410.733	81.75
410.941	89.94
411.15	124.76
411.358	128.85
411.567	194.39
411.775	153.43
411.984	216.91
412.192	178
412.401	245.59
412.609	210.77
412.818	204.63
413.026	223.06
413.234	182.1
413.443	257.87
413.651	227.15
413.86	304.98
414.068	307.02
414.276	376.66
414.485	347.98
414.693	333.65
414.901	350.03
415.11	401.23
415.318	413.52
415.526	380.75
415.734	386.9
415.943	448.33
416.151	472.91
416.359	327.5
416.567	397.14
416.776	358.22
416.984	489.29
417.192	460.62
417.4	530.25
417.608	509.77
417.817	507.73
418.025	540.49
418.233	624.46
418.441	522.06
418.649	657.23
418.857	571.21
419.065	735.05
419.273	683.85
419.481	792.39
419.689	747.34
419.897	778.06
420.105	866.12
420.313	849.74
420.521	874.31
420.729	882.5
420.937	974.66
421.145	937.8
421.353	1019.72
421.561	1101.64
421.769	1013.57
421.977	1058.63
422.185	1064.77
422.393	1140.55
422.601	1283.91
422.809	1214.27
423.017	1242.95
423.224	1312.58
423.432	1326.91
423.64	1394.5
423.848	1382.21
424.056	1365.82
424.263	1562.43
424.471	1599.29
424.679	1595.2
424.887	1556.29
425.094	1644.35
425.302	1615.68
425.51	1830.71
425.718	1873.72
425.925	1771.32
426.133	1799.99
426.341	2099
426.548	2121.52
426.756	2187.06
426.964	2070.33
427.171	2268.98
427.379	2350.9
427.586	2363.19
427.794	2389.81
428.001	2477.87
428.209	2561.84
428.417	2660.14
428.624	2848.55
428.832	2801.45
429.039	2807.59
429.247	2783.02
429.454	3088.17
429.662	3209
429.869	3012.39
430.076	3346.21
430.284	3200.8
430.491	3329.83
430.699	3569.44
430.906	3538.72
431.114	3614.49
431.321	3677.98
431.528	3802.91
431.736	3901.21
431.943	4189.97
432.15	3999.51
432.358	4122.39
432.565	4435.73
432.772	4261.65
432.979	4601.62
433.187	4857.61
433.394	4708.11
433.601	4994.83
433.808	5013.26
434.016	4996.87
434.223	5093.13
434.43	5484.29
434.637	5320.45
434.844	5828.35
435.052	5764.86
435.259	5752.57
435.466	6033.15
435.673	5748.48
435.88	6184.69
436.087	6426.36
436.294	6465.27
436.501	6432.5
436.708	6596.34
436.915	6579.95
437.122	7184.1
437.329	7036.65
437.537	7196.39
437.743	7284.45
437.95	7214.82
438.157	7630.56
438.364	7890.65
438.571	7755.49
438.778	8007.39
438.985	8828.62
439.192	8210.14
439.399	8713.94
439.606	8437.46
439.813	9002.7
440.02	9301.7
440.227	9336.52
440.433	9117.39
440.64	9504.45
440.847	9361.09
441.054	9604.8
441.261	10303.16
441.467	10245.82
441.674	10331.83
441.881	10868.4
442.088	10757.81
442.294	10497.72
442.501	10825.39
442.708	11065
442.914	11556.52
443.121	11855.52
443.328	11490.98
443.534	12627.6
443.741	12328.6
443.948	11941.54
444.154	12828.31
444.361	12777.11
444.568	12811.92
444.774	12949.14
444.981	13006.48
445.187	13409.93
445.394	14057.09
445.6	13883.01
445.807	15079.02
446.013	14587.51
446.22	14753.4
446.426	15402.6
446.633	15568.49
446.839	16086.62
447.046	15371.88
447.252	16207.45
447.459	16166.49
447.665	16113.25
447.871	16930.39
448.078	17765.96
448.284	16643.67
448.491	17344.08
448.697	18136.64
448.903	18312.77
449.11	18503.23
449.316	18169.41
449.522	18509.37
449.728	19021.36
449.935	19207.73
450.141	19082.8
450.347	19428.91
450.553	19045.94
450.76	19435.05
450.966	19777.06
451.172	19592.75
451.378	19994.15
451.584	19805.74
451.791	20289.06
451.997	20160.03
452.203	20520.48
452.409	20604.44
452.615	20442.65
452.821	19754.54
453.027	19660.33
453.233	20667.93
453.44	19938.85
453.646	19945
453.852	19916.33
454.058	20403.74
454.264	19815.97
454.47	20129.31
454.676	19713.58
454.882	20307.49
455.088	18863.67
455.294	18826.81
455.5	18972.21
455.705	19353.13
455.911	18456.12
456.117	18179.65
456.323	18079.3
456.529	17098.32
456.735	17811.01
456.941	17487.43
457.147	16930.39
457.352	16479.83
457.558	16209.5
457.764	16395.87
457.97	16125.54
458.176	15853.16
458.381	15847.01
458.587	15156.85
458.793	15064.69
458.999	13997.7
459.204	15345.26
459.41	14917.23
459.616	13796.99
459.821	13823.62
460.027	13747.84
460.233	13502.09
460.438	12992.14
460.644	12949.14
460.85	12510.87
461.055	12113.56
461.261	12224.15
461.466	11323.05
461.672	10999.47
461.878	11603.62
462.083	10976.94
462.289	10634.93
462.494	10620.6
462.7	10190.52
462.905	9672.39
463.111	10077.88
463.316	10290.87
463.522	10002.11
463.727	9934.53
463.932	9854.65
464.138	10077.88
464.343	9942.72
464.549	9707.2
464.754	10213.05
464.959	9934.53
465.165	9875.13
465.37	9322.18
465.575	9344.71
465.781	9477.83
465.986	9563.84
466.191	9211.59
466.397	9049.8
466.602	8715.98
466.807	8926.93
467.012	9017.04
467.218	9051.85
467.423	8625.87
467.628	8859.34
467.833	9213.64
468.038	8750.8
468.244	8781.52
