Data from USB4F104151__90__13-13-11-688.txt Node

Date: Fri Mar 14 13:13:11 EDT 2025
User: louis
Spectrometer: USB4F10415
Trigger mode: 4
Integration Time (sec): 2.000000E-2
Scans to average: 1
Electric dark correction enabled: true
Nonlinearity correction enabled: false
Boxcar width: 0
XAxis mode: Wavelengths
Number of Pixels in Spectrum: 3648
>>>>>Begin Spectral Data<<<<<
178.204	-38.23
178.424	-38.23
178.644	-38.23
178.864	-111.96
179.084	-122.2
179.304	6.83
179.524	4.78
179.744	0.68
179.964	51.88
180.184	-32.08
180.404	2.73
180.624	33.45
180.844	-3.41
181.064	-19.8
181.283	25.26
181.503	-42.32
181.723	-27.99
181.943	-56.66
182.163	90.79
182.383	12.97
182.602	12.97
182.822	101.03
183.042	43.69
183.262	31.4
183.482	-52.56
183.701	8.87
183.921	33.45
184.141	-30.04
184.361	41.64
184.58	19.11
184.8	53.93
185.02	58.03
185.239	27.31
185.459	15.02
185.679	-13.65
185.898	39.59
186.118	12.97
186.338	98.99
186.557	-15.7
186.777	-7.51
186.997	15.02
187.216	-79.19
187.436	66.22
187.655	37.55
187.875	53.93
188.095	-48.47
188.314	23.21
188.534	12.97
188.753	31.4
188.973	17.07
189.192	41.64
189.412	-21.84
189.631	2.73
189.851	37.55
190.07	41.64
190.29	-30.04
190.509	-30.04
190.729	49.83
190.948	39.59
191.168	123.56
191.387	8.87
191.607	-40.28
191.826	12.97
192.045	-9.56
192.265	31.4
192.484	-13.65
192.704	-36.18
192.923	12.97
193.142	19.11
193.362	10.92
193.581	68.27
193.8	82.6
194.02	139.94
194.239	74.41
194.458	105.13
194.678	0.68
194.897	8.87
195.116	49.83
195.335	33.45
195.555	105.13
195.774	53.93
195.993	68.27
196.212	17.07
196.432	27.31
196.651	-21.84
196.87	4.78
197.089	21.16
197.308	-40.28
197.528	74.41
197.747	-62.8
197.966	68.27
198.185	51.88
198.404	58.03
198.623	58.03
198.842	33.45
199.062	45.74
199.281	47.79
199.5	72.36
199.719	43.69
199.938	-17.75
200.157	70.31
200.376	66.22
200.595	8.87
200.814	-7.51
201.033	-46.42
201.252	-7.51
201.471	29.35
201.69	74.41
201.909	27.31
202.128	-15.7
202.347	12.97
202.566	60.07
202.785	-11.61
203.004	49.83
203.223	154.28
203.442	33.45
203.661	-15.7
203.879	29.35
204.098	-3.41
204.317	17.07
204.536	-1.37
204.755	21.16
204.974	33.45
205.193	27.31
205.411	19.11
205.63	33.45
205.849	25.26
206.068	17.07
206.287	70.31
206.505	17.07
206.724	35.5
206.943	12.97
207.162	-9.56
207.381	-44.37
207.599	53.93
207.818	82.6
208.037	0.68
208.255	58.03
208.474	33.45
208.693	49.83
208.911	-21.84
209.13	-89.43
209.349	10.92
209.567	37.55
209.786	60.07
210.005	58.03
210.223	43.69
210.442	-9.56
210.661	10.92
210.879	-3.41
211.098	19.11
211.316	-23.89
211.535	41.64
211.753	29.35
211.972	2.73
212.191	68.27
212.409	41.64
212.628	98.99
212.846	0.68
213.065	-23.89
213.283	25.26
213.502	-73.04
213.72	25.26
213.938	17.07
214.157	41.64
214.375	31.4
214.594	-56.66
214.812	6.83
215.031	25.26
215.249	23.21
215.467	115.37
215.686	17.07
215.904	31.4
216.122	-15.7
216.341	74.41
216.559	-40.28
216.778	45.74
216.996	64.17
217.214	37.55
217.432	37.55
217.651	82.6
217.869	-21.84
218.087	68.27
218.306	-19.8
218.524	-46.42
218.742	51.88
218.96	33.45
219.179	-52.56
219.397	88.75
219.615	62.12
219.833	68.27
220.051	64.17
220.27	8.87
220.488	90.79
220.706	139.94
220.924	17.07
221.142	49.83
221.36	-32.08
221.578	41.64
221.796	58.03
222.015	51.88
222.233	-36.18
222.451	76.46
222.669	-11.61
222.887	17.07
223.105	45.74
223.323	-13.65
223.541	29.35
223.759	4.78
223.977	-25.94
224.195	60.07
224.413	23.21
224.631	29.35
224.849	33.45
225.067	98.99
225.285	19.11
225.503	51.88
225.721	25.26
225.939	41.64
226.157	-7.51
226.375	125.61
226.592	45.74
226.81	-9.56
227.028	-7.51
227.246	84.65
227.464	-50.52
227.682	-5.46
227.9	41.64
228.117	25.26
228.335	98.99
228.553	35.5
228.771	27.31
228.989	4.78
229.206	10.92
229.424	10.92
229.642	53.93
229.86	6.83
230.077	-3.41
230.295	33.45
230.513	-62.8
230.731	101.03
230.948	-30.04
231.166	47.79
231.384	90.79
231.601	2.73
231.819	39.59
232.037	-48.47
232.254	-27.99
232.472	-15.7
232.689	53.93
232.907	-30.04
233.125	88.75
233.342	27.31
233.56	60.07
233.777	-15.7
233.995	-7.51
234.213	35.5
234.43	-60.76
234.648	33.45
234.865	10.92
235.083	49.83
235.3	-54.61
235.518	6.83
235.735	90.79
235.953	125.61
236.17	-23.89
236.388	-73.04
236.605	45.74
236.822	113.32
237.04	17.07
237.257	-19.8
237.475	4.78
237.692	23.21
237.909	-56.66
238.127	-38.23
238.344	80.55
238.562	17.07
238.779	-40.28
238.996	23.21
239.214	0.68
239.431	15.02
239.648	-7.51
239.865	27.31
240.083	-11.61
240.3	25.26
240.517	17.07
240.735	23.21
240.952	2.73
241.169	47.79
241.386	49.83
241.603	33.45
241.821	-64.85
242.038	-25.94
242.255	53.93
242.472	76.46
242.689	107.18
242.907	68.27
243.124	55.98
243.341	51.88
243.558	-19.8
243.775	94.89
243.992	2.73
244.209	-36.18
244.426	76.46
244.643	115.37
244.86	-52.56
245.078	-40.28
245.295	17.07
245.512	39.59
245.729	6.83
245.946	8.87
246.163	-11.61
246.38	6.83
246.597	55.98
246.814	66.22
247.031	39.59
247.248	31.4
247.464	58.03
247.681	-19.8
247.898	49.83
248.115	31.4
248.332	23.21
248.549	88.75
248.766	-11.61
248.983	55.98
249.2	76.46
249.417	78.51
249.633	35.5
249.85	-21.84
250.067	-1.37
250.284	2.73
250.501	-7.51
250.717	47.79
250.934	12.97
251.151	-36.18
251.368	35.5
251.585	2.73
251.801	-32.08
252.018	-68.95
252.235	8.87
252.451	-77.14
252.668	-15.7
252.885	29.35
253.102	-40.28
253.318	113.32
253.535	-13.65
253.752	107.18
253.968	76.46
254.185	129.7
254.401	35.5
254.618	35.5
254.835	-36.18
255.051	35.5
255.268	-3.41
255.484	33.45
255.701	-3.41
255.917	27.31
256.134	-5.46
256.351	23.21
256.567	27.31
256.784	58.03
257	68.27
257.217	45.74
257.433	27.31
257.65	33.45
257.866	105.13
258.082	-40.28
258.299	2.73
258.515	29.35
258.732	2.73
258.948	8.87
259.165	45.74
259.381	15.02
259.597	35.5
259.814	8.87
260.03	43.69
260.246	4.78
260.463	41.64
260.679	10.92
260.895	17.07
261.112	70.31
261.328	119.46
261.544	41.64
261.761	27.31
261.977	41.64
262.193	47.79
262.409	2.73
262.626	35.5
262.842	49.83
263.058	37.55
263.274	25.26
263.49	-30.04
263.707	86.7
263.923	51.88
264.139	-36.18
264.355	-25.94
264.571	17.07
264.787	58.03
265.004	35.5
265.22	8.87
265.436	21.16
265.652	-5.46
265.868	37.55
266.084	-40.28
266.3	94.89
266.516	17.07
266.732	68.27
266.948	37.55
267.164	4.78
267.38	-30.04
267.596	41.64
267.812	41.64
268.028	27.31
268.244	-46.42
268.46	43.69
268.676	37.55
268.892	41.64
269.108	-68.95
269.324	-17.75
269.54	60.07
269.756	-19.8
269.972	-21.84
270.188	105.13
270.403	0.68
270.619	23.21
270.835	78.51
271.051	21.16
271.267	10.92
271.483	8.87
271.698	-11.61
271.914	92.84
272.13	-7.51
272.346	-5.46
272.562	45.74
272.777	-17.75
272.993	29.35
273.209	37.55
273.425	8.87
273.64	74.41
273.856	0.68
274.072	82.6
274.287	0.68
274.503	74.41
274.719	-44.37
274.934	29.35
275.15	-36.18
275.366	-1.37
275.581	15.02
275.797	53.93
276.012	55.98
276.228	12.97
276.444	41.64
276.659	43.69
276.875	8.87
277.09	-19.8
277.306	-17.75
277.521	41.64
277.737	8.87
277.952	47.79
278.168	-21.84
278.383	27.31
278.599	19.11
278.814	-27.99
279.03	41.64
279.245	82.6
279.461	64.17
279.676	25.26
279.892	4.78
280.107	37.55
280.322	19.11
280.538	51.88
280.753	43.69
280.969	23.21
281.184	60.07
281.399	96.94
281.615	60.07
281.83	8.87
282.045	21.16
282.26	51.88
282.476	62.12
282.691	66.22
282.906	55.98
283.122	41.64
283.337	-7.51
283.552	90.79
283.767	-21.84
283.983	-1.37
284.198	55.98
284.413	35.5
284.628	33.45
284.843	70.31
285.058	55.98
285.274	51.88
285.489	-52.56
285.704	41.64
285.919	-9.56
286.134	53.93
286.349	35.5
286.564	27.31
286.779	49.83
286.995	84.65
287.21	25.26
287.425	-11.61
287.64	66.22
287.855	68.27
288.07	12.97
288.285	68.27
288.5	25.26
288.715	25.26
288.93	27.31
289.145	-44.37
289.36	66.22
289.575	-30.04
289.79	-13.65
290.004	27.31
290.219	4.78
290.434	37.55
290.649	0.68
290.864	-25.94
291.079	4.78
291.294	8.87
291.509	21.16
291.724	70.31
291.938	19.11
292.153	80.55
292.368	76.46
292.583	-23.89
292.798	-3.41
293.012	82.6
293.227	10.92
293.442	-19.8
293.657	129.7
293.871	107.18
294.086	45.74
294.301	21.16
294.516	-9.56
294.73	39.59
294.945	-32.08
295.16	47.79
295.374	-13.65
295.589	43.69
295.804	35.5
296.018	80.55
296.233	-19.8
296.447	62.12
296.662	19.11
296.877	6.83
297.091	0.68
297.306	25.26
297.52	8.87
297.735	64.17
297.949	-25.94
298.164	49.83
298.378	15.02
298.593	-60.76
298.807	-23.89
299.022	27.31
299.236	-3.41
299.451	25.26
299.665	21.16
299.88	29.35
300.094	10.92
300.309	-5.46
300.523	72.36
300.737	23.21
300.952	43.69
301.166	25.26
301.381	-44.37
301.595	-11.61
301.809	-7.51
302.024	-27.99
302.238	0.68
302.452	55.98
302.667	0.68
302.881	92.84
303.095	-17.75
303.309	70.31
303.524	86.7
303.738	35.5
303.952	27.31
304.166	41.64
304.381	-5.46
304.595	84.65
304.809	39.59
305.023	76.46
305.237	25.26
305.452	-19.8
305.666	0.68
305.88	45.74
306.094	23.21
306.308	62.12
306.522	84.65
306.736	47.79
306.95	19.11
307.164	-73.04
307.379	4.78
307.593	80.55
307.807	43.69
308.021	-15.7
308.235	-40.28
308.449	10.92
308.663	29.35
308.877	41.64
309.091	84.65
309.305	33.45
309.519	25.26
309.733	25.26
309.947	49.83
310.161	23.21
310.374	78.51
310.588	17.07
310.802	58.03
311.016	41.64
311.23	49.83
311.444	-95.57
311.658	41.64
311.872	58.03
312.085	51.88
312.299	4.78
312.513	10.92
312.727	2.73
312.941	-15.7
313.154	45.74
313.368	-21.84
313.582	0.68
313.796	58.03
314.009	-3.41
314.223	90.79
314.437	-32.08
314.651	33.45
314.864	8.87
315.078	39.59
315.292	62.12
315.505	6.83
315.719	17.07
315.933	8.87
316.146	0.68
316.36	-7.51
316.573	107.18
316.787	2.73
317.001	-5.46
317.214	-32.08
317.428	58.03
317.641	-48.47
317.855	49.83
318.068	70.31
318.282	-73.04
318.495	66.22
318.709	19.11
318.922	62.12
319.136	31.4
319.349	39.59
319.563	10.92
319.776	2.73
319.99	12.97
320.203	-15.7
320.417	35.5
320.63	23.21
320.843	101.03
321.057	17.07
321.27	51.88
321.483	0.68
321.697	109.23
321.91	27.31
322.124	94.89
322.337	6.83
322.55	27.31
322.763	-32.08
322.977	49.83
323.19	15.02
323.403	76.46
323.617	37.55
323.83	49.83
324.043	-7.51
324.256	-3.41
324.469	8.87
324.683	33.45
324.896	64.17
325.109	25.26
325.322	-21.84
325.535	88.75
325.748	27.31
325.962	-17.75
326.175	-9.56
326.388	-5.46
326.601	96.94
326.814	49.83
327.027	33.45
327.24	68.27
327.453	-44.37
327.666	8.87
327.879	127.66
328.092	-7.51
328.305	-34.13
328.518	12.97
328.731	-36.18
328.944	17.07
329.157	53.93
329.37	53.93
329.583	33.45
329.796	8.87
330.009	-7.51
330.222	27.31
330.435	82.6
330.648	-40.28
330.861	80.55
331.073	10.92
331.286	-7.51
331.499	17.07
331.712	31.4
331.925	49.83
332.138	33.45
332.35	82.6
332.563	60.07
332.776	84.65
332.989	6.83
333.202	10.92
333.414	-1.37
333.627	10.92
333.84	41.64
334.053	84.65
334.265	-19.8
334.478	37.55
334.691	47.79
334.903	74.41
335.116	-3.41
335.329	51.88
335.541	47.79
335.754	29.35
335.966	19.11
336.179	8.87
336.392	29.35
336.604	49.83
336.817	58.03
337.029	-17.75
337.242	-19.8
337.454	10.92
337.667	21.16
337.88	45.74
338.092	33.45
338.305	51.88
338.517	72.36
338.729	72.36
338.942	76.46
339.154	49.83
339.367	0.68
339.579	107.18
339.792	27.31
340.004	115.37
340.217	-3.41
340.429	-5.46
340.641	-7.51
340.854	8.87
341.066	-23.89
341.278	60.07
341.491	33.45
341.703	68.27
341.915	-27.99
342.128	60.07
342.34	4.78
342.552	19.11
342.764	43.69
342.977	25.26
343.189	-30.04
343.401	-5.46
343.613	47.79
343.826	37.55
344.038	0.68
344.25	25.26
344.462	-40.28
344.674	19.11
344.886	74.41
345.099	51.88
345.311	58.03
345.523	2.73
345.735	6.83
345.947	101.03
346.159	15.02
346.371	-25.94
346.583	41.64
346.795	82.6
347.007	23.21
347.219	58.03
347.431	23.21
347.643	45.74
347.855	12.97
348.067	101.03
348.279	-19.8
348.491	8.87
348.703	68.27
348.915	41.64
349.127	-73.04
349.339	-7.51
349.551	10.92
349.763	88.75
349.975	55.98
350.187	53.93
350.399	-5.46
350.61	10.92
350.822	60.07
351.034	41.64
351.246	-19.8
351.458	17.07
351.669	121.51
351.881	53.93
352.093	78.51
352.305	90.79
352.517	0.68
352.728	41.64
352.94	58.03
353.152	-1.37
353.363	31.4
353.575	-34.13
353.787	72.36
353.999	-42.32
354.21	92.84
354.422	90.79
354.633	53.93
354.845	53.93
355.057	10.92
355.268	115.37
355.48	43.69
355.692	19.11
355.903	-25.94
356.115	27.31
356.326	-126.29
356.538	8.87
356.749	17.07
356.961	47.79
357.172	72.36
357.384	-11.61
357.595	19.11
357.807	33.45
358.018	-23.89
358.23	12.97
358.441	49.83
358.653	0.68
358.864	29.35
359.075	-36.18
359.287	0.68
359.498	53.93
359.709	53.93
359.921	19.11
360.132	113.32
360.344	43.69
360.555	53.93
360.766	15.02
360.977	0.68
361.189	2.73
361.4	64.17
361.611	60.07
361.823	-21.84
362.034	49.83
362.245	-44.37
362.456	8.87
362.667	37.55
362.879	35.5
363.09	66.22
363.301	10.92
363.512	35.5
363.723	2.73
363.935	51.88
364.146	55.98
364.357	33.45
364.568	21.16
364.779	-1.37
364.99	17.07
365.201	12.97
365.412	41.64
365.623	8.87
365.834	-13.65
366.045	-85.33
366.256	60.07
366.467	45.74
366.678	21.16
366.889	131.75
367.1	10.92
367.311	47.79
367.522	60.07
367.733	27.31
367.944	33.45
368.155	41.64
368.366	-58.71
368.577	25.26
368.788	82.6
368.999	-21.84
369.209	58.03
369.42	92.84
369.631	66.22
369.842	45.74
370.053	2.73
370.264	-15.7
370.474	17.07
370.685	29.35
370.896	35.5
371.107	78.51
371.317	23.21
371.528	-34.13
371.739	78.51
371.95	78.51
372.16	51.88
372.371	53.93
372.582	60.07
372.792	78.51
373.003	53.93
373.214	76.46
373.424	29.35
373.635	10.92
373.846	49.83
374.056	68.27
374.267	-21.84
374.477	25.26
374.688	-3.41
374.898	23.21
375.109	58.03
375.319	25.26
375.53	62.12
375.74	74.41
375.951	-23.89
376.161	49.83
376.372	60.07
376.582	55.98
376.793	-1.37
377.003	45.74
377.214	33.45
377.424	72.36
377.635	41.64
377.845	17.07
378.055	98.99
378.266	27.31
378.476	76.46
378.686	21.16
378.897	109.23
379.107	41.64
379.317	109.23
379.528	-3.41
379.738	-21.84
379.948	25.26
380.158	58.03
380.369	25.26
380.579	12.97
380.789	15.02
380.999	74.41
381.21	37.55
381.42	148.14
381.63	12.97
381.84	82.6
382.05	53.93
382.261	84.65
382.471	19.11
382.681	-77.14
382.891	86.7
383.101	76.46
383.311	27.31
383.521	-19.8
383.731	33.45
383.941	98.99
384.151	94.89
384.361	66.22
384.571	10.92
384.781	60.07
384.991	107.18
385.201	88.75
385.411	-5.46
385.621	82.6
385.831	68.27
386.041	29.35
386.251	-75.09
386.461	103.08
386.671	21.16
386.881	43.69
387.091	49.83
387.301	107.18
387.511	55.98
387.72	86.7
387.93	39.59
388.14	29.35
388.35	2.73
388.56	27.31
388.769	64.17
388.979	53.93
389.189	29.35
389.399	-13.65
389.609	-27.99
389.818	109.23
390.028	23.21
390.238	19.11
390.447	66.22
390.657	-25.94
390.867	6.83
391.076	-54.61
391.286	103.08
391.496	88.75
391.705	2.73
391.915	58.03
392.125	92.84
392.334	0.68
392.544	41.64
392.753	-30.04
392.963	0.68
393.172	92.84
393.382	-23.89
393.591	92.84
393.801	23.21
394.01	62.12
394.22	109.23
394.429	-23.89
394.639	-5.46
394.848	88.75
395.058	86.7
395.267	41.64
395.477	58.03
395.686	27.31
395.895	86.7
396.105	80.55
396.314	76.46
396.524	70.31
396.733	15.02
396.942	64.17
397.152	82.6
397.361	96.94
397.57	96.94
397.78	33.45
397.989	80.55
398.198	90.79
398.407	88.75
398.617	-11.61
398.826	27.31
399.035	60.07
399.244	101.03
399.453	92.84
399.663	117.42
399.872	-9.56
400.081	64.17
400.29	60.07
400.499	49.83
400.708	82.6
400.917	33.45
401.127	172.71
401.336	74.41
401.545	115.37
401.754	74.41
401.963	66.22
402.172	66.22
402.381	70.31
402.59	49.83
402.799	45.74
403.008	82.6
403.217	8.87
403.426	86.7
403.635	74.41
403.844	60.07
404.053	51.88
404.262	80.55
404.471	123.56
404.68	152.23
404.888	117.42
405.097	189.1
405.306	101.03
405.515	123.56
405.724	154.28
405.933	53.93
406.142	205.48
406.35	154.28
406.559	121.51
406.768	64.17
406.977	109.23
407.185	164.52
407.394	84.65
407.603	88.75
407.812	123.56
408.02	135.85
408.229	182.95
408.438	182.95
408.646	160.42
408.855	168.62
409.064	187.05
409.272	174.76
409.481	260.77
409.69	150.18
409.898	189.1
410.107	232.1
410.315	221.86
410.524	219.82
410.733	189.1
410.941	291.49
411.15	271.01
411.358	283.3
411.567	273.06
411.775	254.63
411.984	309.93
412.192	336.55
412.401	289.45
412.609	369.32
412.818	352.93
413.026	346.79
413.234	307.88
413.443	305.83
413.651	375.46
413.86	348.84
414.068	402.08
414.276	391.84
414.485	492.2
414.693	418.47
414.901	461.48
415.11	375.46
415.318	516.77
415.526	486.05
415.734	484
415.943	586.4
416.151	570.02
416.359	553.63
416.567	543.39
416.776	606.88
416.984	647.84
417.192	645.79
417.4	619.17
417.608	688.8
417.817	731.81
418.025	717.47
418.233	731.81
418.441	770.72
418.649	805.53
418.857	840.35
419.065	869.02
419.273	860.83
419.481	940.7
419.689	879.26
419.897	955.04
420.105	1004.19
420.313	979.61
420.521	1120.92
420.729	1143.45
420.937	1182.36
421.145	1215.13
421.353	1176.22
421.561	1280.66
421.769	1383.06
421.977	1358.49
422.185	1487.51
422.393	1364.63
422.601	1598.1
422.809	1499.8
423.017	1518.23
423.224	1544.85
423.432	1604.24
423.64	1673.87
423.848	1714.83
424.056	1751.7
424.263	1958.54
424.471	1954.44
424.679	2022.03
424.887	2181.77
425.094	2069.13
425.302	2155.15
425.51	2204.3
425.718	2286.22
425.925	2384.52
426.133	2298.5
426.341	2540.16
426.548	2613.89
426.756	2552.45
426.964	2599.56
427.171	2826.88
427.379	2873.98
427.586	2957.95
427.794	3183.23
428.001	3142.27
428.209	3410.55
428.417	3359.35
428.624	3512.95
428.832	3465.85
429.039	3539.57
429.247	3459.7
429.454	3822.19
429.662	4139.63
429.869	3859.06
430.076	4033.13
430.284	4084.33
430.491	4098.67
430.699	4328.04
430.906	4358.76
431.114	4389.48
431.321	4569.7
431.528	4688.48
431.736	4924
431.943	5136.99
432.15	4962.91
432.358	5323.35
432.565	5386.84
432.772	5489.24
432.979	5798.48
433.187	5798.48
433.394	5778
433.601	6003.28
433.808	6169.16
434.016	6298.19
434.223	6302.28
434.43	6857.28
434.637	6634.05
434.844	7049.79
435.052	7225.92
435.259	7215.68
435.466	7123.52
435.673	7209.53
435.88	7696.95
436.087	8061.49
436.294	8112.69
436.501	7881.27
436.708	7891.51
436.915	8223.28
437.122	8722.98
437.329	8561.19
437.537	8845.86
437.743	9007.65
437.95	9130.53
438.157	9490.97
438.364	9925.14
438.571	9738.77
438.778	9867.8
438.985	10359.31
439.192	10494.47
439.399	10715.66
439.606	10306.06
439.813	11213.31
440.02	11555.32
440.227	11545.08
440.433	11430.4
440.64	11819.51
440.847	11727.35
441.054	12040.69
441.261	12917.22
441.467	12534.25
441.674	12780.01
441.881	13457.89
442.088	13269.47
442.294	13273.57
442.501	13562.33
442.708	13720.03
442.914	14432.72
443.121	14891.46
443.328	14488.01
443.534	15616.44
443.741	15387.07
443.948	14944.71
444.154	16052.66
444.361	15913.4
444.568	16044.47
444.774	15819.19
444.981	16390.58
445.187	16763.31
445.394	17310.11
445.6	17117.61
445.807	19194.25
446.013	18123.16
446.22	18467.22
446.426	19147.14
446.633	19333.51
446.839	20027.77
447.046	19278.21
447.252	20205.94
447.459	20345.2
447.665	20255.09
447.871	21490.02
448.078	22233.43
448.284	21031.27
448.491	21842.27
448.697	22610.26
448.903	23019.85
449.11	23064.91
449.316	22194.52
449.522	23052.62
449.728	23888.19
449.935	23820.61
450.141	23822.66
450.347	24471.86
450.553	23867.71
450.76	24211.77
450.966	25172.27
451.172	24695.09
451.378	25442.6
451.584	24903.98
451.791	25395.5
451.997	25538.85
452.203	25688.35
452.409	25762.08
452.615	25712.93
452.821	24662.32
453.027	24418.61
453.233	25714.98
453.44	24734
453.646	25092.4
453.852	25293.1
454.058	25555.24
454.264	24946.99
454.47	25526.57
454.676	24695.09
454.882	25745.7
455.088	23843.13
455.294	23810.37
455.5	24310.07
455.705	24707.38
455.911	23578.95
456.117	23103.82
456.323	22681.94
456.529	21432.68
456.735	22665.55
456.941	21942.62
457.147	21578.08
457.352	20910.44
457.558	20584.82
457.764	20767.09
457.97	20562.29
458.176	20142.46
458.381	19976.57
458.587	18909.58
458.793	18827.66
458.999	18268.56
459.204	19509.63
459.41	18860.43
459.616	17582.49
459.821	17686.94
460.027	17725.85
460.233	17002.92
460.438	16400.82
460.644	16503.21
460.85	15704.51
461.055	15612.35
461.261	15376.83
461.466	14363.09
461.672	14000.6
461.878	14651.85
462.083	13808.09
462.289	13615.58
462.494	13554.14
462.7	13101.54
462.905	12413.42
463.111	12808.68
463.316	13076.96
463.522	12882.41
463.727	12605.93
463.932	12802.54
464.138	12532.2
464.343	12485.1
464.549	12337.65
464.754	12769.77
464.959	12413.42
465.165	12524.01
465.37	12055.03
465.575	11696.63
465.781	12147.19
465.986	12085.75
466.191	11631.1
466.397	11522.55
466.602	10881.54
466.807	11336.19
467.012	11620.86
467.218	11237.89
467.423	11115.01
467.628	11162.11
467.833	11692.54
468.038	11205.12
468.244	10863.11
