Data from USB4F104151__52__13-11-28-280.txt Node

Date: Fri Mar 14 13:11:28 EDT 2025
User: louis
Spectrometer: USB4F10415
Trigger mode: 4
Integration Time (sec): 2.000000E-2
Scans to average: 1
Electric dark correction enabled: true
Nonlinearity correction enabled: false
Boxcar width: 0
XAxis mode: Wavelengths
Number of Pixels in Spectrum: 3648
>>>>>Begin Spectral Data<<<<<
178.204	-88.06
178.424	-88.06
178.644	-88.06
178.864	-145.41
179.084	-73.73
179.304	-47.1
179.524	-28.67
179.744	22.53
179.964	8.19
180.184	49.15
180.404	-6.14
180.624	-24.58
180.844	57.34
181.064	24.58
181.283	-16.38
181.503	-67.58
181.723	28.67
181.943	-24.58
182.163	112.64
182.383	67.58
182.602	47.1
182.822	0
183.042	-4.1
183.262	-22.53
183.482	81.92
183.701	22.53
183.921	61.44
184.141	8.19
184.361	-26.62
184.58	24.58
184.8	38.91
185.02	-22.53
185.239	59.39
185.459	16.38
185.679	-16.38
185.898	-6.14
186.118	-8.19
186.338	43.01
186.557	-12.29
186.777	-14.34
186.997	-43.01
187.216	63.49
187.436	59.39
187.655	16.38
187.875	45.06
188.095	38.91
188.314	28.67
188.534	-36.86
188.753	-24.58
188.973	75.77
189.192	77.82
189.412	30.72
189.631	6.14
189.851	75.77
190.07	38.91
190.29	-22.53
190.509	-40.96
190.729	-14.34
190.948	61.44
191.168	151.55
191.387	116.73
191.607	36.86
191.826	0
192.045	90.11
192.265	40.96
192.484	51.2
192.704	57.34
192.923	-71.68
193.142	98.3
193.362	-24.58
193.581	98.3
193.8	47.1
194.02	116.73
194.239	40.96
194.458	106.49
194.678	10.24
194.897	45.06
195.116	-16.38
195.335	14.34
195.555	59.39
195.774	-24.58
195.993	92.16
196.212	57.34
196.432	49.15
196.651	14.34
196.87	38.91
197.089	38.91
197.308	18.43
197.528	24.58
197.747	63.49
197.966	-61.44
198.185	57.34
198.404	38.91
198.623	26.62
198.842	40.96
199.062	32.77
199.281	53.25
199.5	-20.48
199.719	98.3
199.938	8.19
200.157	40.96
200.376	16.38
200.595	36.86
200.814	49.15
201.033	-30.72
201.252	100.35
201.471	43.01
201.69	83.97
201.909	108.54
202.128	14.34
202.347	104.45
202.566	-6.14
202.785	67.58
203.004	-36.86
203.223	24.58
203.442	34.82
203.661	20.48
203.879	45.06
204.098	92.16
204.317	-20.48
204.536	32.77
204.755	0
204.974	16.38
205.193	-36.86
205.411	73.73
205.63	-24.58
205.849	30.72
206.068	-2.05
206.287	-24.58
206.505	73.73
206.724	43.01
206.943	38.91
207.162	6.14
207.381	2.05
207.599	-16.38
207.818	61.44
208.037	16.38
208.255	-43.01
208.474	18.43
208.693	-10.24
208.911	-8.19
209.13	14.34
209.349	36.86
209.567	73.73
209.786	-4.1
210.005	75.77
210.223	8.19
210.442	-22.53
210.661	26.62
210.879	47.1
211.098	47.1
211.316	-20.48
211.535	71.68
211.753	43.01
211.972	114.69
212.191	24.58
212.409	-10.24
212.628	16.38
212.846	-32.77
213.065	-57.34
213.283	65.53
213.502	36.86
213.72	12.29
213.938	86.01
214.157	12.29
214.375	83.97
214.594	51.2
214.812	59.39
215.031	-24.58
215.249	-24.58
215.467	-22.53
215.686	-8.19
215.904	61.44
216.122	2.05
216.341	81.92
216.559	59.39
216.778	77.82
216.996	30.72
217.214	-18.43
217.432	71.68
217.651	12.29
217.869	4.1
218.087	-57.34
218.306	43.01
218.524	10.24
218.742	-30.72
218.96	49.15
219.179	18.43
219.397	45.06
219.615	65.53
219.833	32.77
220.051	18.43
220.27	34.82
220.488	16.38
220.706	0
220.924	2.05
221.142	90.11
221.36	-26.62
221.578	4.1
221.796	83.97
222.015	-38.91
222.233	71.68
222.451	-6.14
222.669	49.15
222.887	86.01
223.105	-8.19
223.323	69.63
223.541	-22.53
223.759	36.86
223.977	10.24
224.195	106.49
224.413	4.1
224.631	67.58
224.849	57.34
225.067	-40.96
225.285	38.91
225.503	18.43
225.721	12.29
225.939	18.43
226.157	-24.58
226.375	45.06
226.592	0
226.81	2.05
227.028	49.15
227.246	34.82
227.464	73.73
227.682	92.16
227.9	69.63
228.117	59.39
228.335	2.05
228.553	8.19
228.771	16.38
228.989	18.43
229.206	30.72
229.424	36.86
229.642	83.97
229.86	51.2
230.077	67.58
230.295	-14.34
230.513	57.34
230.731	-8.19
230.948	22.53
231.166	51.2
231.384	-6.14
231.601	-32.77
231.819	10.24
232.037	4.1
232.254	-24.58
232.472	106.49
232.689	0
232.907	53.25
233.125	-36.86
233.342	71.68
233.56	88.06
233.777	98.3
233.995	65.53
234.213	16.38
234.43	32.77
234.648	24.58
234.865	51.2
235.083	-4.1
235.3	34.82
235.518	45.06
235.735	102.4
235.953	112.64
236.17	55.3
236.388	10.24
236.605	-6.14
236.822	65.53
237.04	10.24
237.257	16.38
237.475	4.1
237.692	14.34
237.909	59.39
238.127	32.77
238.344	34.82
238.562	67.58
238.779	28.67
238.996	20.48
239.214	-8.19
239.431	40.96
239.648	22.53
239.865	71.68
240.083	-20.48
240.3	-6.14
240.517	77.82
240.735	26.62
240.952	32.77
241.169	98.3
241.386	26.62
241.603	45.06
241.821	32.77
242.038	47.1
242.255	4.1
242.472	2.05
242.689	98.3
242.907	45.06
243.124	12.29
243.341	-2.05
243.558	6.14
243.775	28.67
243.992	-67.58
244.209	34.82
244.426	104.45
244.643	57.34
244.86	18.43
245.078	92.16
245.295	75.77
245.512	63.49
245.729	43.01
245.946	18.43
246.163	51.2
246.38	51.2
246.597	43.01
246.814	67.58
247.031	88.06
247.248	40.96
247.464	98.3
247.681	-14.34
247.898	71.68
248.115	28.67
248.332	-18.43
248.549	32.77
248.766	71.68
248.983	36.86
249.2	71.68
249.417	116.73
249.633	-38.91
249.85	51.2
250.067	88.06
250.284	98.3
250.501	65.53
250.717	69.63
250.934	8.19
251.151	24.58
251.368	40.96
251.585	49.15
251.801	69.63
252.018	-36.86
252.235	69.63
252.451	-67.58
252.668	49.15
252.885	65.53
253.102	6.14
253.318	55.3
253.535	69.63
253.752	8.19
253.968	28.67
254.185	-47.1
254.401	38.91
254.618	30.72
254.835	-20.48
255.051	102.4
255.268	49.15
255.484	-16.38
255.701	-10.24
255.917	69.63
256.134	10.24
256.351	32.77
256.567	4.1
256.784	61.44
257	-65.54
257.217	63.49
257.433	32.77
257.65	47.1
257.866	14.34
258.082	4.1
258.299	98.3
258.515	-20.48
258.732	45.06
258.948	-55.3
259.165	16.38
259.381	24.58
259.597	-30.72
259.814	47.1
260.03	79.87
260.246	47.1
260.463	34.82
260.679	59.39
260.895	69.63
261.112	55.3
261.328	28.67
261.544	14.34
261.761	65.53
261.977	-14.34
262.193	49.15
262.409	16.38
262.626	102.4
262.842	69.63
263.058	0
263.274	28.67
263.49	65.53
263.707	20.48
263.923	28.67
264.139	-28.67
264.355	57.34
264.571	131.07
264.787	32.77
265.004	38.91
265.22	8.19
265.436	28.67
265.652	24.58
265.868	83.97
266.084	69.63
266.3	-12.29
266.516	49.15
266.732	63.49
266.948	40.96
267.164	49.15
267.38	57.34
267.596	32.77
267.812	69.63
268.028	8.19
268.244	69.63
268.46	-34.82
268.676	-6.14
268.892	61.44
269.108	-32.77
269.324	8.19
269.54	-30.72
269.756	73.73
269.972	24.58
270.188	69.63
270.403	-86.01
270.619	16.38
270.835	114.69
271.051	34.82
271.267	30.72
271.483	-28.67
271.698	38.91
271.914	-10.24
272.13	-20.48
272.346	0
272.562	4.1
272.777	34.82
272.993	75.77
273.209	45.06
273.425	4.1
273.64	59.39
273.856	14.34
274.072	61.44
274.287	-28.67
274.503	40.96
274.719	43.01
274.934	32.77
275.15	24.58
275.366	43.01
275.581	-32.77
275.797	20.48
276.012	-18.43
276.228	34.82
276.444	-36.86
276.659	-18.43
276.875	-16.38
277.09	18.43
277.306	16.38
277.521	94.21
277.737	32.77
277.952	122.88
278.168	10.24
278.383	10.24
278.599	26.62
278.814	32.77
279.03	28.67
279.245	49.15
279.461	28.67
279.676	40.96
279.892	63.49
280.107	16.38
280.322	20.48
280.538	10.24
280.753	-20.48
280.969	22.53
281.184	2.05
281.399	65.53
281.615	12.29
281.83	-2.05
282.045	24.58
282.26	12.29
282.476	-4.1
282.691	24.58
282.906	88.06
283.122	49.15
283.337	61.44
283.552	-10.24
283.767	24.58
283.983	26.62
284.198	94.21
284.413	-38.91
284.628	6.14
284.843	-22.53
285.058	43.01
285.274	14.34
285.489	51.2
285.704	71.68
285.919	10.24
286.134	30.72
286.349	-6.14
286.564	10.24
286.779	53.25
286.995	16.38
287.21	-24.58
287.425	14.34
287.64	18.43
287.855	18.43
288.07	-30.72
288.285	34.82
288.5	12.29
288.715	57.34
288.93	8.19
289.145	-61.44
289.36	81.92
289.575	-57.34
289.79	32.77
290.004	2.05
290.219	-40.96
290.434	59.39
290.649	61.44
290.864	32.77
291.079	14.34
291.294	-36.86
291.509	67.58
291.724	30.72
291.938	16.38
292.153	4.1
292.368	-18.43
292.583	108.54
292.798	43.01
293.012	79.87
293.227	67.58
293.442	45.06
293.657	10.24
293.871	81.92
294.086	51.2
294.301	102.4
294.516	12.29
294.73	4.1
294.945	36.86
295.16	8.19
295.374	36.86
295.589	79.87
295.804	32.77
296.018	12.29
296.233	65.53
296.447	12.29
296.662	-10.24
296.877	38.91
297.091	-63.49
297.306	49.15
297.52	12.29
297.735	81.92
297.949	10.24
298.164	45.06
298.378	-24.58
298.593	94.21
298.807	79.87
299.022	43.01
299.236	45.06
299.451	69.63
299.665	43.01
299.88	102.4
300.094	40.96
300.309	-4.1
300.523	100.35
300.737	-6.14
300.952	-8.19
301.166	104.45
301.381	-10.24
301.595	20.48
301.809	61.44
302.024	32.77
302.238	16.38
302.452	114.69
302.667	12.29
302.881	18.43
303.095	-40.96
303.309	45.06
303.524	26.62
303.738	55.3
303.952	-4.1
304.166	32.77
304.381	-6.14
304.595	51.2
304.809	28.67
305.023	83.97
305.237	-6.14
305.452	-4.1
305.666	51.2
305.88	6.14
306.094	6.14
306.308	110.59
306.522	67.58
306.736	36.86
306.95	12.29
307.164	-12.29
307.379	65.53
307.593	67.58
307.807	10.24
308.021	-6.14
308.235	32.77
308.449	4.1
308.663	40.96
308.877	92.16
309.091	0
309.305	-24.58
309.519	81.92
309.733	86.01
309.947	30.72
310.161	57.34
310.374	0
310.588	88.06
310.802	26.62
311.016	34.82
311.23	65.53
311.444	53.25
311.658	32.77
311.872	45.06
312.085	69.63
312.299	59.39
312.513	36.86
312.727	110.59
312.941	-47.1
313.154	0
313.368	-12.29
313.582	-28.67
313.796	28.67
314.009	20.48
314.223	65.53
314.437	75.77
314.651	-32.77
314.864	10.24
315.078	63.49
315.292	12.29
315.505	16.38
315.719	40.96
315.933	-22.53
316.146	12.29
316.36	32.77
316.573	30.72
316.787	124.93
317.001	34.82
317.214	-47.1
317.428	26.62
317.641	0
317.855	16.38
318.068	40.96
318.282	63.49
318.495	69.63
318.709	24.58
318.922	65.53
319.136	63.49
319.349	-34.82
319.563	73.73
319.776	75.77
319.99	4.1
320.203	73.73
320.417	67.58
320.63	77.82
320.843	106.49
321.057	57.34
321.27	-12.29
321.483	-12.29
321.697	40.96
321.91	63.49
322.124	90.11
322.337	49.15
322.55	-6.14
322.763	38.91
322.977	135.17
323.19	-14.34
323.403	2.05
323.617	40.96
323.83	38.91
324.043	38.91
324.256	14.34
324.469	22.53
324.683	40.96
324.896	-12.29
325.109	73.73
325.322	12.29
325.535	-24.58
325.748	2.05
325.962	88.06
326.175	79.87
326.388	69.63
326.601	-49.15
326.814	14.34
327.027	98.3
327.24	45.06
327.453	-26.62
327.666	100.35
327.879	26.62
328.092	49.15
328.305	12.29
328.518	16.38
328.731	0
328.944	-16.38
329.157	24.58
329.37	12.29
329.583	112.64
329.796	51.2
330.009	36.86
330.222	20.48
330.435	112.64
330.648	6.14
330.861	83.97
331.073	14.34
331.286	75.77
331.499	28.67
331.712	-14.34
331.925	32.77
332.138	-12.29
332.35	49.15
332.563	57.34
332.776	65.53
332.989	36.86
333.202	4.1
333.414	102.4
333.627	36.86
333.84	16.38
334.053	6.14
334.265	36.86
334.478	51.2
334.691	-2.05
334.903	40.96
335.116	-10.24
335.329	51.2
335.541	32.77
335.754	141.31
335.966	16.38
336.179	51.2
336.392	28.67
336.604	26.62
336.817	73.73
337.029	51.2
337.242	-18.43
337.454	102.4
337.667	14.34
337.88	98.3
338.092	12.29
338.305	34.82
338.517	51.2
338.729	26.62
338.942	16.38
339.154	30.72
339.367	-4.1
339.579	69.63
339.792	28.67
340.004	51.2
340.217	-36.86
340.429	67.58
340.641	30.72
340.854	65.53
341.066	-10.24
341.278	104.45
341.491	71.68
341.703	116.73
341.915	75.77
342.128	-20.48
342.34	-32.77
342.552	71.68
342.764	24.58
342.977	57.34
343.189	-22.53
343.401	57.34
343.613	-43.01
343.826	51.2
344.038	-16.38
344.25	18.43
344.462	26.62
344.674	38.91
344.886	-53.25
345.099	65.53
345.311	53.25
345.523	73.73
345.735	-32.77
345.947	71.68
346.159	51.2
346.371	14.34
346.583	-28.67
346.795	98.3
347.007	28.67
347.219	53.25
347.431	0
347.643	79.87
347.855	55.3
348.067	57.34
348.279	16.38
348.491	40.96
348.703	10.24
348.915	81.92
349.127	24.58
349.339	34.82
349.551	-24.58
349.763	73.73
349.975	36.86
350.187	139.26
350.399	73.73
350.61	30.72
350.822	24.58
351.034	73.73
351.246	0
351.458	67.58
351.669	2.05
351.881	24.58
352.093	10.24
352.305	69.63
352.517	4.1
352.728	65.53
352.94	16.38
353.152	10.24
353.363	30.72
353.575	-4.1
353.787	88.06
353.999	75.77
354.21	57.34
354.422	65.53
354.633	18.43
354.845	67.58
355.057	-28.67
355.268	73.73
355.48	20.48
355.692	-8.19
355.903	73.73
356.115	65.53
356.326	-18.43
356.538	106.49
356.749	49.15
356.961	118.78
357.172	49.15
357.384	26.62
357.595	86.01
357.807	81.92
358.018	20.48
358.23	36.86
358.441	112.64
358.653	53.25
358.864	26.62
359.075	26.62
359.287	45.06
359.498	83.97
359.709	26.62
359.921	65.53
360.132	36.86
360.344	18.43
360.555	75.77
360.766	90.11
360.977	26.62
361.189	16.38
361.4	8.19
361.611	8.19
361.823	104.45
362.034	-16.38
362.245	-34.82
362.456	40.96
362.667	53.25
362.879	20.48
363.09	10.24
363.301	26.62
363.512	-16.38
363.723	102.4
363.935	22.53
364.146	53.25
364.357	10.24
364.568	53.25
364.779	-34.82
364.99	32.77
365.201	16.38
365.412	38.91
365.623	40.96
365.834	71.68
366.045	20.48
366.256	51.2
366.467	77.82
366.678	-36.86
366.889	32.77
367.1	-6.14
367.311	49.15
367.522	-30.72
367.733	26.62
367.944	77.82
368.155	34.82
368.366	-8.19
368.577	8.19
368.788	53.25
368.999	-45.06
369.209	51.2
369.42	-10.24
369.631	45.06
369.842	65.53
370.053	36.86
370.264	83.97
370.474	-24.58
370.685	57.34
370.896	81.92
371.107	116.73
371.317	108.54
371.528	-4.1
371.739	81.92
371.95	57.34
372.16	98.3
372.371	24.58
372.582	118.78
372.792	65.53
373.003	28.67
373.214	67.58
373.424	12.29
373.635	36.86
373.846	51.2
374.056	69.63
374.267	90.11
374.477	57.34
374.688	-4.1
374.898	30.72
375.109	114.69
375.319	-2.05
375.53	61.44
375.74	90.11
375.951	26.62
376.161	34.82
376.372	151.55
376.582	79.87
376.793	98.3
377.003	83.97
377.214	49.15
377.424	30.72
377.635	14.34
377.845	67.58
378.055	-2.05
378.266	-32.77
378.476	110.59
378.686	16.38
378.897	59.39
379.107	32.77
379.317	-4.1
379.528	43.01
379.738	118.78
379.948	40.96
380.158	81.92
380.369	102.4
380.579	32.77
380.789	83.97
380.999	73.73
381.21	32.77
381.42	92.16
381.63	14.34
381.84	73.73
382.05	-24.58
382.261	63.49
382.471	34.82
382.681	12.29
382.891	61.44
383.101	81.92
383.311	-14.34
383.521	4.1
383.731	65.53
383.941	57.34
384.151	49.15
384.361	118.78
384.571	12.29
384.781	106.49
384.991	118.78
385.201	47.1
385.411	-6.14
385.621	45.06
385.831	102.4
386.041	28.67
386.251	10.24
386.461	14.34
386.671	57.34
386.881	20.48
387.091	28.67
387.301	32.77
387.511	-8.19
387.72	53.25
387.93	77.82
388.14	2.05
388.35	55.3
388.56	86.01
388.769	139.26
388.979	24.58
389.189	34.82
389.399	57.34
389.609	83.97
389.818	61.44
390.028	24.58
390.238	116.73
390.447	51.2
390.657	102.4
390.867	61.44
391.076	57.34
391.286	59.39
391.496	-20.48
391.705	77.82
391.915	79.87
392.125	55.3
392.334	16.38
392.544	36.86
392.753	55.3
392.963	16.38
393.172	-20.48
393.382	57.34
393.591	12.29
393.801	32.77
394.01	86.01
394.22	26.62
394.429	67.58
394.639	69.63
394.848	65.53
395.058	32.77
395.267	73.73
395.477	45.06
395.686	36.86
395.895	63.49
396.105	63.49
396.314	122.88
396.524	24.58
396.733	-16.38
396.942	118.78
397.152	55.3
397.361	43.01
397.57	55.3
397.78	61.44
397.989	86.01
398.198	43.01
398.407	102.4
398.617	51.2
398.826	51.2
399.035	86.01
399.244	49.15
399.453	63.49
399.663	92.16
399.872	98.3
400.081	26.62
400.29	69.63
400.499	-16.38
400.708	145.41
400.917	69.63
401.127	83.97
401.336	63.49
401.545	112.64
401.754	131.07
401.963	92.16
402.172	61.44
402.381	0
402.59	98.3
402.799	139.26
403.008	75.77
403.217	18.43
403.426	-8.19
403.635	104.45
403.844	108.54
404.053	59.39
404.262	81.92
404.471	124.93
404.68	98.3
404.888	65.53
405.097	49.15
405.306	102.4
405.515	36.86
405.724	49.15
405.933	53.25
406.142	114.69
406.35	151.55
406.559	92.16
406.768	96.25
406.977	112.64
407.185	34.82
407.394	88.06
407.603	81.92
407.812	118.78
408.02	67.58
408.229	147.45
408.438	92.16
408.646	116.73
408.855	184.32
409.064	94.21
409.272	169.98
409.481	212.99
409.69	137.21
409.898	188.41
410.107	174.08
410.315	157.69
410.524	157.69
410.733	239.61
410.941	106.49
411.15	165.89
411.358	186.37
411.567	163.84
411.775	196.61
411.984	196.61
412.192	196.61
412.401	155.65
412.609	241.66
412.818	352.25
413.026	251.9
413.234	225.28
413.443	192.51
413.651	262.14
413.86	311.29
414.068	288.76
414.276	264.19
414.485	237.56
414.693	323.58
414.901	380.92
415.11	339.96
415.318	387.07
415.526	342.01
415.734	415.74
415.943	387.07
416.151	399.35
416.359	339.96
416.567	385.02
416.776	487.42
416.984	501.75
417.192	487.42
417.4	503.8
417.608	464.89
417.817	491.51
418.025	511.99
418.233	606.2
418.441	511.99
418.649	577.53
418.857	638.97
419.065	671.73
419.273	681.97
419.481	540.66
419.689	722.93
419.897	720.88
420.105	671.73
420.313	802.8
420.521	745.46
420.729	813.04
420.937	802.8
421.145	849.91
421.353	903.15
421.561	993.26
421.769	860.15
421.977	1015.79
422.185	966.64
422.393	1019.89
422.601	1101.81
422.809	1087.47
423.017	1179.63
423.224	1191.92
423.432	1187.82
423.64	1206.25
423.848	1335.28
424.056	1230.83
424.263	1413.1
424.471	1384.43
424.679	1409
424.887	1421.29
425.094	1495.02
425.302	1593.32
425.51	1550.31
425.718	1621.99
425.925	1656.81
426.133	1679.33
426.341	1734.63
426.548	1851.36
426.756	1755.11
426.964	1933.28
427.171	2047.97
427.379	1935.33
427.586	2211.81
427.794	2066.4
428.001	2234.33
428.209	2369.5
428.417	2351.07
428.624	2482.14
428.832	2447.32
429.039	2412.51
429.247	2402.27
429.454	2594.78
429.662	2916.31
429.869	2760.66
430.076	2826.2
430.284	2734.04
430.491	3000.27
430.699	3119.06
430.906	3129.3
431.114	3143.63
431.321	3301.33
431.528	3336.14
431.736	3495.88
431.943	3647.43
432.15	3696.58
432.358	3688.39
432.565	3700.68
432.772	3852.23
432.979	4153.28
433.187	3950.53
433.394	4100.03
433.601	4308.93
433.808	4345.79
434.016	4497.34
434.223	4534.2
434.43	4798.39
434.637	4521.91
434.844	5066.67
435.052	5033.91
435.259	5169.07
435.466	4986.8
435.673	5078.96
435.88	5363.63
436.087	5631.91
436.294	5717.93
436.501	5572.52
436.708	5691.31
436.915	5869.48
437.122	6229.92
437.329	6021.03
437.537	6201.25
437.743	6479.77
437.95	6324.13
438.157	6825.88
438.364	6866.84
438.571	6907.8
438.778	6989.72
438.985	7481.23
439.192	7169.94
439.399	7636.88
439.606	7249.81
439.813	7896.97
440.02	8320.9
440.227	7987.08
440.433	8255.36
440.64	8269.7
440.847	8275.84
441.054	8347.52
441.261	9105.27
441.467	8814.46
441.674	9072.5
441.881	9396.08
442.088	9383.79
442.294	9357.17
442.501	9463.66
442.708	9727.85
442.914	10272.61
443.121	10522.46
443.328	10153.83
443.534	11081.56
443.741	10788.7
443.948	10495.84
444.154	11302.74
444.361	11431.76
444.568	11312.98
444.774	11261.78
444.981	11558.74
445.187	11652.94
445.394	12027.72
445.6	12306.24
445.807	13256.5
446.013	12724.03
446.22	12945.21
446.426	13528.88
446.633	13559.6
446.839	14358.31
447.046	13727.53
447.252	14339.88
447.459	14116.65
447.665	14413.6
447.871	14810.91
448.078	15472.4
448.284	14663.46
448.491	15267.61
448.697	15685.39
448.903	16283.4
449.11	16277.26
449.316	15736.59
449.522	16244.49
449.728	16699.14
449.935	16803.58
450.141	16604.93
450.347	17055.48
450.553	16529.16
450.76	16729.86
450.966	17264.38
451.172	17366.77
451.378	17905.39
451.584	17405.69
451.791	17719.03
451.997	17706.74
452.203	17856.24
452.409	18159.34
452.615	18024.17
452.821	17331.96
453.027	16940.8
453.233	18085.61
453.44	17327.86
453.646	17696.5
453.852	17913.58
454.058	17907.44
454.264	17495.8
454.47	17690.35
454.676	17368.82
454.882	18210.54
455.088	16486.15
455.294	16813.82
455.5	17166.07
455.705	17104.63
455.911	16269.06
456.117	16162.57
456.323	15793.93
456.529	15099.67
456.735	15626
456.941	15511.32
457.147	15200.02
457.352	14712.61
457.558	14425.89
457.764	14577.44
457.97	14343.97
458.176	13903.66
458.381	13920.04
458.587	13383.48
458.793	13459.25
458.999	12533.57
459.204	13612.85
459.41	13174.58
459.616	12150.6
459.821	12394.31
460.027	12212.04
460.233	11968.33
460.438	11308.88
460.644	11497.3
460.85	11034.46
461.055	10997.59
461.261	10870.62
461.466	10041.19
461.672	9662.32
461.878	10456.93
462.083	9914.22
462.289	9428.85
462.494	9572.21
462.7	9123.7
462.905	8804.22
463.111	9246.58
463.316	8994.68
463.522	9019.25
463.727	8892.28
463.932	8941.43
464.138	8638.33
464.343	8904.57
464.549	8642.43
464.754	9047.93
464.959	8683.39
465.165	8722.3
465.37	8470.4
465.575	8044.42
465.781	8413.06
465.986	8374.14
466.191	8183.68
466.397	8152.96
466.602	7536.52
466.807	7884.68
467.012	7978.89
467.218	7845.77
467.423	7677.83
467.628	7878.54
467.833	8228.74
468.038	7724.94
468.244	7800.71
468.449	7790.47
468.654	7679.88
468.859	7690.12
469.064	7581.58
469.269	7339.92
469.474	7372.69
469.679	7597.96
