Data from USB4F104151__22__12-27-09-795.txt Node

Date: Fri Mar 14 12:27:09 EDT 2025
User: louis
Spectrometer: USB4F10415
Trigger mode: 4
Integration Time (sec): 2.000000E-2
Scans to average: 1
Electric dark correction enabled: true
Nonlinearity correction enabled: false
Boxcar width: 0
XAxis mode: Wavelengths
Number of Pixels in Spectrum: 3648
>>>>>Begin Spectral Data<<<<<
178.204	-61.27
178.424	-61.27
178.644	-61.27
178.864	-48.98
179.084	-112.47
179.304	-24.4
179.524	-30.55
179.744	28.84
179.964	-8.02
180.184	-51.03
180.404	49.32
180.624	61.61
180.844	4.27
181.064	10.41
181.283	2.22
181.503	-34.64
181.723	-8.02
181.943	-100.18
182.163	-24.4
182.383	45.23
182.602	-32.6
182.822	-3.93
183.042	16.55
183.262	-18.26
183.482	-24.4
183.701	-12.12
183.921	32.94
184.141	-59.22
184.361	41.13
184.58	20.65
184.8	-3.93
185.02	28.84
185.239	73.9
185.459	43.18
185.679	45.23
185.898	4.27
186.118	4.27
186.338	-5.97
186.557	102.57
186.777	-24.4
186.997	-55.12
187.216	12.46
187.436	84.14
187.655	57.51
187.875	114.86
188.095	43.18
188.314	-30.55
188.534	112.81
188.753	26.79
188.973	32.94
189.192	20.65
189.412	41.13
189.631	43.18
189.851	26.79
190.07	37.03
190.29	-32.6
190.509	39.08
190.729	-26.45
190.948	4.27
191.168	12.46
191.387	-12.12
191.607	2.22
191.826	57.51
192.045	-8.02
192.265	-22.36
192.484	47.27
192.704	2.22
192.923	-20.31
193.142	53.42
193.362	2.22
193.581	88.23
193.8	-59.22
194.02	37.03
194.239	55.47
194.458	20.65
194.678	41.13
194.897	37.03
195.116	10.41
195.335	32.94
195.555	37.03
195.774	41.13
195.993	2.22
196.212	-42.84
196.432	-67.41
196.651	-104.28
196.87	-10.07
197.089	49.32
197.308	63.66
197.528	45.23
197.747	-26.45
197.966	47.27
198.185	73.9
198.404	8.36
198.623	10.41
198.842	14.51
199.062	30.89
199.281	-14.17
199.5	37.03
199.719	47.27
199.938	30.89
200.157	86.19
200.376	67.75
200.595	22.7
200.814	94.38
201.033	14.51
201.252	-71.51
201.471	69.8
201.69	63.66
201.909	43.18
202.128	30.89
202.347	24.75
202.566	49.32
202.785	28.84
203.004	39.08
203.223	-22.36
203.442	47.27
203.661	-51.03
203.879	51.37
204.098	43.18
204.317	-94.04
204.536	135.34
204.755	34.99
204.974	104.62
205.193	28.84
205.411	55.47
205.63	-30.55
205.849	67.75
206.068	2.22
206.287	-16.21
206.505	24.75
206.724	26.79
206.943	41.13
207.162	108.71
207.381	-1.88
207.599	-8.02
207.818	24.75
208.037	61.61
208.255	20.65
208.474	16.55
208.693	-42.84
208.911	8.36
209.13	51.37
209.349	59.56
209.567	49.32
209.786	63.66
210.005	41.13
210.223	20.65
210.442	-14.17
210.661	37.03
210.879	-46.93
211.098	98.47
211.316	-16.21
211.535	41.13
211.753	39.08
211.972	-42.84
212.191	57.51
212.409	53.42
212.628	77.99
212.846	-61.27
213.065	92.33
213.283	59.56
213.502	51.37
213.72	39.08
213.938	57.51
214.157	-16.21
214.375	-5.97
214.594	-20.31
214.812	34.99
215.031	8.36
215.249	8.36
215.467	47.27
215.686	65.71
215.904	28.84
216.122	47.27
216.341	63.66
216.559	-3.93
216.778	-8.02
216.996	94.38
217.214	18.6
217.432	-8.02
217.651	-12.12
217.869	-61.27
218.087	-1.88
218.306	-5.97
218.524	102.57
218.742	49.32
218.96	45.23
219.179	6.31
219.397	41.13
219.615	53.42
219.833	8.36
220.051	24.75
220.27	55.47
220.488	43.18
220.706	69.8
220.924	26.79
221.142	-18.26
221.36	-73.56
221.578	75.95
221.796	-40.79
222.015	-24.4
222.233	32.94
222.451	59.56
222.669	82.09
222.887	26.79
223.105	-10.07
223.323	20.65
223.541	-40.79
223.759	26.79
223.977	4.27
224.195	34.99
224.413	45.23
224.631	61.61
224.849	-22.36
225.067	24.75
225.285	-18.26
225.503	18.6
225.721	14.51
225.939	41.13
226.157	-5.97
226.375	43.18
226.592	-14.17
226.81	28.84
227.028	47.27
227.246	77.99
227.464	-12.12
227.682	-3.93
227.9	71.85
228.117	12.46
228.335	-28.5
228.553	30.89
228.771	67.75
228.989	16.55
229.206	-91.99
229.424	-30.55
229.642	37.03
229.86	69.8
230.077	4.27
230.295	45.23
230.513	63.66
230.731	92.33
230.948	100.52
231.166	-10.07
231.384	61.61
231.601	43.18
231.819	67.75
232.037	20.65
232.254	28.84
232.472	96.43
232.689	-8.02
232.907	-24.4
233.125	2.22
233.342	69.8
233.56	67.75
233.777	22.7
233.995	-20.31
234.213	34.99
234.43	41.13
234.648	30.89
234.865	45.23
235.083	104.62
235.3	28.84
235.518	-42.84
235.735	30.89
235.953	71.85
236.17	-18.26
236.388	-30.55
236.605	-36.69
236.822	-10.07
237.04	51.37
237.257	22.7
237.475	-71.51
237.692	22.7
237.909	-10.07
238.127	63.66
238.344	22.7
238.562	18.6
238.779	-87.89
238.996	67.75
239.214	69.8
239.431	57.51
239.648	-12.12
239.865	69.8
240.083	55.47
240.3	80.04
240.517	77.99
240.735	-44.88
240.952	100.52
241.169	61.61
241.386	-10.07
241.603	-26.45
241.821	30.89
242.038	0.17
242.255	18.6
242.472	51.37
242.689	41.13
242.907	39.08
243.124	18.6
243.341	43.18
243.558	-5.97
243.775	-46.93
243.992	-14.17
244.209	67.75
244.426	82.09
244.643	28.84
244.86	47.27
245.078	-12.12
245.295	-65.36
245.512	39.08
245.729	8.36
245.946	-3.93
246.163	26.79
246.38	45.23
246.597	12.46
246.814	86.19
247.031	22.7
247.248	-14.17
247.464	59.56
247.681	45.23
247.898	18.6
248.115	24.75
248.332	18.6
248.549	8.36
248.766	-3.93
248.983	37.03
249.2	47.27
249.417	73.9
249.633	45.23
249.85	47.27
250.067	59.56
250.284	2.22
250.501	88.23
250.717	57.51
250.934	-8.02
251.151	24.75
251.368	18.6
251.585	61.61
251.801	104.62
252.018	-12.12
252.235	104.62
252.451	8.36
252.668	67.75
252.885	16.55
253.102	-20.31
253.318	22.7
253.535	-8.02
253.752	20.65
253.968	24.75
254.185	-10.07
254.401	4.27
254.618	28.84
254.835	10.41
255.051	94.38
255.268	30.89
255.484	18.6
255.701	30.89
255.917	28.84
256.134	-79.7
256.351	-14.17
256.567	22.7
256.784	92.33
257	26.79
257.217	116.9
257.433	0.17
257.65	8.36
257.866	61.61
258.082	43.18
258.299	18.6
258.515	16.55
258.732	-42.84
258.948	92.33
259.165	16.55
259.381	12.46
259.597	45.23
259.814	2.22
260.03	4.27
260.246	67.75
260.463	41.13
260.679	80.04
260.895	12.46
261.112	4.27
261.328	-1.88
261.544	30.89
261.761	92.33
261.977	24.75
262.193	-3.93
262.409	-36.69
262.626	41.13
262.842	20.65
263.058	20.65
263.274	-3.93
263.49	4.27
263.707	51.37
263.923	6.31
264.139	8.36
264.355	28.84
264.571	47.27
264.787	43.18
265.004	-1.88
265.22	14.51
265.436	51.37
265.652	37.03
265.868	-10.07
266.084	16.55
266.3	61.61
266.516	-18.26
266.732	12.46
266.948	16.55
267.164	59.56
267.38	30.89
267.596	-8.02
267.812	102.57
268.028	69.8
268.244	-71.51
268.46	86.19
268.676	37.03
268.892	57.51
269.108	12.46
269.324	-1.88
269.54	-26.45
269.756	-5.97
269.972	-1.88
270.188	-16.21
270.403	20.65
270.619	55.47
270.835	16.55
271.051	34.99
271.267	2.22
271.483	59.56
271.698	73.9
271.914	47.27
272.13	-40.79
272.346	14.51
272.562	39.08
272.777	-24.4
272.993	-22.36
273.209	45.23
273.425	10.41
273.64	-8.02
273.856	-16.21
274.072	18.6
274.287	-18.26
274.503	20.65
274.719	-12.12
274.934	43.18
275.15	-1.88
275.366	4.27
275.581	0.17
275.797	6.31
276.012	53.42
276.228	-14.17
276.444	-24.4
276.659	88.23
276.875	37.03
277.09	2.22
277.306	2.22
277.521	4.27
277.737	96.43
277.952	30.89
278.168	22.7
278.383	8.36
278.599	-48.98
278.814	47.27
279.03	-10.07
279.245	12.46
279.461	49.32
279.676	57.51
279.892	-14.17
280.107	37.03
280.322	-5.97
280.538	6.31
280.753	51.37
280.969	-28.5
281.184	26.79
281.399	41.13
281.615	84.14
281.83	12.46
282.045	-59.22
282.26	39.08
282.476	73.9
282.691	71.85
282.906	-55.12
283.122	77.99
283.337	6.31
283.552	49.32
283.767	53.42
283.983	86.19
284.198	-59.22
284.413	41.13
284.628	-42.84
284.843	71.85
285.058	92.33
285.274	-5.97
285.489	26.79
285.704	90.28
285.919	16.55
286.134	28.84
286.349	34.99
286.564	-63.32
286.779	51.37
286.995	-3.93
287.21	4.27
287.425	77.99
287.64	43.18
287.855	80.04
288.07	-48.98
288.285	47.27
288.5	100.52
288.715	77.99
288.93	4.27
289.145	34.99
289.36	45.23
289.575	14.51
289.79	82.09
290.004	26.79
290.219	116.9
290.434	20.65
290.649	-40.79
290.864	28.84
291.079	10.41
291.294	-5.97
291.509	-28.5
291.724	59.56
291.938	104.62
292.153	94.38
292.368	8.36
292.583	32.94
292.798	-14.17
293.012	39.08
293.227	-3.93
293.442	26.79
293.657	90.28
293.871	69.8
294.086	24.75
294.301	63.66
294.516	92.33
294.73	137.38
294.945	-26.45
295.16	-75.6
295.374	34.99
295.589	55.47
295.804	-36.69
296.018	6.31
296.233	32.94
296.447	98.47
296.662	12.46
296.877	12.46
297.091	-20.31
297.306	49.32
297.52	65.71
297.735	94.38
297.949	2.22
298.164	-1.88
298.378	-79.7
298.593	4.27
298.807	-28.5
299.022	24.75
299.236	20.65
299.451	22.7
299.665	28.84
299.88	45.23
300.094	71.85
300.309	30.89
300.523	0.17
300.737	6.31
300.952	59.56
301.166	80.04
301.381	-1.88
301.595	8.36
301.809	4.27
302.024	-20.31
302.238	41.13
302.452	20.65
302.667	77.99
302.881	22.7
303.095	-14.17
303.309	49.32
303.524	8.36
303.738	106.67
303.952	34.99
304.166	30.89
304.381	-12.12
304.595	18.6
304.809	28.84
305.023	86.19
305.237	-22.36
305.452	63.66
305.666	73.9
305.88	49.32
306.094	57.51
306.308	73.9
306.522	-8.02
306.736	14.51
306.95	63.66
307.164	-16.21
307.379	14.51
307.593	32.94
307.807	47.27
308.021	84.14
308.235	14.51
308.449	-51.03
308.663	-18.26
308.877	125.1
309.091	53.42
309.305	18.6
309.519	-36.69
309.733	-10.07
309.947	-38.74
310.161	59.56
310.374	49.32
310.588	8.36
310.802	-14.17
311.016	-1.88
311.23	28.84
311.444	-69.46
311.658	18.6
311.872	43.18
312.085	-36.69
312.299	77.99
312.513	53.42
312.727	53.42
312.941	-28.5
313.154	59.56
313.368	-34.64
313.582	-8.02
313.796	-8.02
314.009	114.86
314.223	45.23
314.437	-67.41
314.651	10.41
314.864	2.22
315.078	4.27
315.292	20.65
315.505	14.51
315.719	-26.45
315.933	10.41
316.146	14.51
316.36	61.61
316.573	-3.93
316.787	8.36
317.001	49.32
317.214	6.31
317.428	22.7
317.641	51.37
317.855	86.19
318.068	53.42
318.282	53.42
318.495	108.71
318.709	18.6
318.922	-18.26
319.136	57.51
319.349	-5.97
319.563	65.71
319.776	14.51
319.99	110.76
320.203	26.79
320.417	-32.6
320.63	30.89
320.843	80.04
321.057	12.46
321.27	43.18
321.483	39.08
321.697	75.95
321.91	10.41
322.124	8.36
322.337	-3.93
322.55	53.42
322.763	22.7
322.977	41.13
323.19	41.13
323.403	4.27
323.617	34.99
323.83	32.94
324.043	24.75
324.256	16.55
324.469	-53.08
324.683	26.79
324.896	75.95
325.109	39.08
325.322	71.85
325.535	131.24
325.748	2.22
325.962	73.9
326.175	-5.97
326.388	39.08
326.601	-20.31
326.814	18.6
327.027	26.79
327.24	39.08
327.453	-28.5
327.666	14.51
327.879	110.76
328.092	-10.07
328.305	28.84
328.518	43.18
328.731	-8.02
328.944	28.84
329.157	43.18
329.37	45.23
329.583	41.13
329.796	14.51
330.009	6.31
330.222	22.7
330.435	-3.93
330.648	32.94
330.861	45.23
331.073	8.36
331.286	49.32
331.499	57.51
331.712	34.99
331.925	43.18
332.138	47.27
332.35	43.18
332.563	80.04
332.776	12.46
332.989	67.75
333.202	-57.17
333.414	-12.12
333.627	34.99
333.84	-8.02
334.053	69.8
334.265	86.19
334.478	24.75
334.691	45.23
334.903	0.17
335.116	45.23
335.329	-32.6
335.541	14.51
335.754	75.95
335.966	-3.93
336.179	-57.17
336.392	73.9
336.604	43.18
336.817	84.14
337.029	45.23
337.242	10.41
337.454	55.47
337.667	53.42
337.88	39.08
338.092	59.56
338.305	43.18
338.517	14.51
338.729	32.94
338.942	4.27
339.154	57.51
339.367	57.51
339.579	61.61
339.792	2.22
340.004	14.51
340.217	47.27
340.429	57.51
340.641	49.32
340.854	59.56
341.066	0.17
341.278	90.28
341.491	12.46
341.703	-5.97
341.915	55.47
342.128	14.51
342.34	55.47
342.552	-12.12
342.764	61.61
342.977	30.89
343.189	8.36
343.401	-32.6
343.613	-32.6
343.826	14.51
344.038	57.51
344.25	96.43
344.462	8.36
344.674	82.09
344.886	16.55
345.099	88.23
345.311	12.46
345.523	67.75
345.735	37.03
345.947	-22.36
346.159	53.42
346.371	16.55
346.583	14.51
346.795	30.89
347.007	2.22
347.219	41.13
347.431	43.18
347.643	59.56
347.855	16.55
348.067	49.32
348.279	4.27
348.491	28.84
348.703	32.94
348.915	53.42
349.127	43.18
349.339	-46.93
349.551	0.17
349.763	37.03
349.975	-24.4
350.187	30.89
350.399	12.46
350.61	41.13
350.822	-24.4
351.034	30.89
351.246	49.32
351.458	57.51
351.669	24.75
351.881	-18.26
352.093	43.18
352.305	94.38
352.517	-24.4
352.728	55.47
352.94	2.22
353.152	32.94
353.363	2.22
353.575	-14.17
353.787	28.84
353.999	49.32
354.21	92.33
354.422	34.99
354.633	28.84
354.845	73.9
355.057	16.55
355.268	-5.97
355.48	69.8
355.692	37.03
355.903	73.9
356.115	4.27
356.326	61.61
356.538	-3.93
356.749	90.28
356.961	86.19
357.172	63.66
357.384	73.9
357.595	16.55
357.807	65.71
358.018	24.75
358.23	49.32
358.441	43.18
358.653	37.03
358.864	6.31
359.075	-3.93
359.287	8.36
359.498	-20.31
359.709	-28.5
359.921	8.36
360.132	28.84
360.344	63.66
360.555	26.79
360.766	123.05
360.977	-10.07
361.189	30.89
361.4	-51.03
361.611	57.51
361.823	-3.93
362.034	71.85
362.245	84.14
362.456	28.84
362.667	47.27
362.879	6.31
363.09	26.79
363.301	45.23
363.512	20.65
363.723	61.61
363.935	59.56
364.146	41.13
364.357	26.79
364.568	49.32
364.779	55.47
364.99	37.03
365.201	57.51
365.412	20.65
365.623	-24.4
365.834	59.56
366.045	24.75
366.256	12.46
366.467	53.42
366.678	61.61
366.889	22.7
367.1	-10.07
367.311	88.23
367.522	-28.5
367.733	2.22
367.944	26.79
368.155	37.03
368.366	24.75
368.577	12.46
368.788	53.42
368.999	-1.88
369.209	53.42
369.42	8.36
369.631	18.6
369.842	16.55
370.053	-55.12
370.264	100.52
370.474	59.56
370.685	41.13
370.896	4.27
371.107	69.8
371.317	114.86
371.528	55.47
371.739	49.32
371.95	26.79
372.16	34.99
372.371	22.7
372.582	75.95
372.792	6.31
373.003	6.31
373.214	55.47
373.424	39.08
373.635	61.61
373.846	28.84
374.056	88.23
374.267	45.23
374.477	-53.08
374.688	73.9
374.898	69.8
375.109	-3.93
375.319	73.9
375.53	22.7
375.74	-5.97
375.951	86.19
376.161	12.46
376.372	100.52
376.582	-28.5
376.793	6.31
377.003	8.36
377.214	8.36
377.424	2.22
377.635	39.08
377.845	45.23
378.055	63.66
378.266	47.27
378.476	53.42
378.686	32.94
378.897	92.33
379.107	0.17
379.317	-42.84
379.528	-8.02
379.738	63.66
379.948	57.51
380.158	110.76
380.369	16.55
380.579	108.71
380.789	-8.02
380.999	4.27
381.21	30.89
381.42	141.48
381.63	16.55
381.84	55.47
382.05	0.17
382.261	20.65
382.471	-22.36
382.681	-26.45
382.891	-10.07
383.101	32.94
383.311	47.27
383.521	49.32
383.731	71.85
383.941	80.04
384.151	28.84
384.361	55.47
384.571	39.08
384.781	43.18
384.991	61.61
385.201	86.19
385.411	59.56
385.621	80.04
385.831	43.18
386.041	86.19
386.251	59.56
386.461	22.7
386.671	14.51
386.881	41.13
387.091	30.89
387.301	-1.88
387.511	22.7
387.72	84.14
387.93	20.65
388.14	45.23
388.35	30.89
388.56	86.19
388.769	92.33
388.979	77.99
389.189	39.08
389.399	-30.55
389.609	22.7
389.818	2.22
390.028	20.65
390.238	61.61
390.447	30.89
390.657	98.47
390.867	39.08
391.076	-12.12
391.286	28.84
391.496	37.03
391.705	39.08
391.915	47.27
392.125	20.65
392.334	43.18
392.544	39.08
392.753	26.79
392.963	61.61
393.172	28.84
393.382	41.13
393.591	98.47
393.801	55.47
394.01	43.18
394.22	43.18
394.429	71.85
394.639	45.23
394.848	118.95
395.058	127.14
395.267	65.71
395.477	55.47
395.686	12.46
395.895	100.52
396.105	86.19
396.314	71.85
396.524	118.95
396.733	49.32
396.942	123.05
397.152	51.37
397.361	45.23
397.57	71.85
397.78	98.47
397.989	12.46
398.198	59.56
398.407	84.14
398.617	135.34
398.826	47.27
399.035	102.57
399.244	53.42
399.453	110.76
399.663	59.56
399.872	57.51
400.081	-24.4
400.29	143.53
400.499	104.62
400.708	104.62
400.917	28.84
401.127	92.33
401.336	34.99
401.545	116.9
401.754	61.61
401.963	108.71
402.172	41.13
402.381	53.42
402.59	86.19
402.799	14.51
403.008	102.57
403.217	168.1
403.426	112.81
403.635	59.56
403.844	116.9
404.053	65.71
404.262	141.48
404.471	131.24
404.68	75.95
404.888	149.67
405.097	57.51
405.306	125.1
405.515	135.34
405.724	168.1
405.933	92.33
406.142	118.95
406.35	137.38
406.559	164.01
406.768	116.9
406.977	184.49
407.185	125.1
407.394	198.82
407.603	133.29
407.812	102.57
408.02	178.34
408.229	69.8
408.438	194.73
408.646	172.2
408.855	155.82
409.064	182.44
409.272	143.53
409.481	196.78
409.69	280.74
409.898	219.3
410.107	204.97
410.315	211.11
410.524	221.35
410.733	196.78
410.941	235.69
411.15	276.65
411.358	233.64
411.567	299.17
411.775	309.41
411.984	338.09
412.192	333.99
412.401	309.41
412.609	368.81
412.818	383.14
413.026	348.33
413.234	288.93
413.443	356.52
413.651	338.09
413.86	469.16
414.068	454.82
414.276	432.29
414.485	391.33
414.693	463.01
414.901	508.07
415.11	536.74
415.318	583.84
415.526	493.73
415.734	577.7
415.943	612.51
416.151	575.65
416.359	551.07
416.567	612.51
416.776	612.51
416.984	653.47
417.192	747.68
417.4	721.06
417.608	661.66
417.817	739.49
418.025	743.58
418.233	888.99
418.441	790.69
418.649	860.32
418.857	952.48
419.065	997.53
419.273	1046.68
419.481	995.48
419.689	1075.35
419.897	1104.03
420.105	1032.35
420.313	1159.32
420.521	1190.04
420.729	1224.86
420.937	1183.9
421.145	1304.73
421.353	1390.74
421.561	1351.83
421.769	1501.33
421.977	1448.08
422.185	1491.09
422.393	1554.58
422.601	1618.07
422.809	1683.6
423.017	1691.79
423.224	1646.74
423.432	1798.29
423.64	1761.42
423.848	1984.65
424.056	1912.97
424.263	2087.05
424.471	2056.33
424.679	2074.76
424.887	2257.03
425.094	2412.68
425.302	2314.38
425.51	2455.69
425.718	2564.23
425.925	2496.64
426.133	2646.15
426.341	2859.14
426.548	2859.14
426.756	2961.53
426.964	2906.24
427.171	3121.28
427.379	3147.9
427.586	3240.06
427.794	3319.93
428.001	3403.89
428.209	3506.29
428.417	3557.49
428.624	3858.54
428.832	3909.74
429.039	3866.74
429.247	3606.64
429.454	4051.05
429.662	4366.44
429.869	4006
430.076	4440.17
430.284	4427.88
430.491	4528.23
430.699	4767.84
430.906	4692.07
431.114	4847.71
431.321	4968.54
431.528	4984.93
431.736	5415
431.943	5632.08
432.15	5410.9
432.358	5568.6
432.565	5892.18
432.772	5871.7
432.979	6076.49
433.187	6160.46
433.394	6316.11
433.601	6656.07
433.808	6627.4
434.016	6721.6
434.223	7104.57
434.43	7348.28
434.637	7325.75
434.844	7751.73
435.052	7880.75
435.259	7780.4
435.466	7974.96
435.673	7735.35
435.88	8366.12
436.087	8847.4
436.294	8933.41
436.501	8558.63
436.708	8579.11
436.915	9091.1
437.122	9517.08
437.329	9578.52
437.537	9728.02
437.743	9975.83
437.95	9768.98
438.157	10373.13
438.364	10885.12
438.571	10801.16
438.778	10973.19
438.985	11786.23
439.192	11382.78
439.399	11595.77
439.606	11511.8
439.813	12066.8
440.02	12816.36
440.227	12640.23
440.433	12623.85
440.64	12875.75
440.847	12900.33
441.054	13225.95
441.261	13989.85
441.467	13785.05
441.674	14211.03
441.881	14626.76
442.088	14745.55
442.294	14323.66
442.501	15069.12
442.708	15093.7
442.914	15794.11
443.121	16404.4
443.328	15964.09
443.534	17153.96
443.741	16627.63
443.948	16373.68
444.154	17725.34
444.361	17661.85
444.568	17616.8
444.774	17528.74
444.981	17952.66
445.187	18489.23
445.394	19179.4
445.6	19007.37
445.807	20557.68
446.013	19758.97
446.22	20217.72
446.426	20959.08
446.633	20940.65
446.839	22009.69
447.046	20991.85
447.252	22214.49
447.459	22376.28
447.665	22515.54
447.871	23320.39
448.078	24444.73
448.284	23424.84
448.491	23772.99
448.697	24758.06
448.903	25265.96
449.11	25259.82
449.316	24948.53
449.522	25317.16
449.728	25933.6
449.935	26234.65
450.141	25923.36
450.347	26840.85
450.553	25919.26
450.76	26220.31
450.966	27193.1
451.172	26640.15
451.378	27612.93
451.584	26722.07
451.791	27657.99
451.997	27754.24
452.203	28049.15
452.409	28382.97
452.615	27959.04
452.821	27000.59
453.027	26771.22
453.233	27940.61
453.44	26939.15
453.646	27569.93
453.852	27528.97
454.058	28081.92
454.264	27016.97
454.47	27393.8
454.676	26937.1
454.882	28012.29
455.088	25456.42
455.294	25954.08
455.5	26261.27
455.705	26840.85
455.911	25427.75
456.117	25214.76
456.323	24751.92
456.529	23336.77
456.735	24350.52
456.941	23662.4
457.147	23650.11
457.352	22732.62
457.558	22234.97
457.764	22654.8
457.97	22122.33
458.176	21450.6
458.381	21393.25
458.587	20426.61
458.793	20778.86
458.999	19445.63
459.204	20903.79
459.41	20221.81
459.616	19027.85
459.821	19089.29
460.027	18657.17
460.233	18354.07
460.438	17641.37
460.644	17868.7
460.85	16908.2
461.055	16930.73
461.261	16840.62
461.466	15480.77
461.672	15019.97
461.878	16332.72
462.083	15189.95
462.289	14784.46
462.494	14446.54
462.7	14010.32
462.905	13623.26
463.111	14032.85
463.316	14174.16
463.522	13813.72
463.727	13803.48
463.932	13760.47
464.138	13676.51
464.343	13651.93
464.549	13301.73
464.754	13653.98
464.959	13563.87
465.165	13531.1
465.37	12918.76
465.575	12617.71
465.781	12890.09
465.986	13256.67
466.191	12695.53
466.397	12531.69
466.602	11937.78
466.807	12308.46
467.012	12470.25
467.218	12367.85
467.423	12036.08
467.628	12187.63
467.833	12627.95
468.038	12357.61
468.244	11681.78
