Data from USB4F104151__51__12-27-31-753.txt Node

Date: Fri Mar 14 12:27:31 EDT 2025
User: louis
Spectrometer: USB4F10415
Trigger mode: 4
Integration Time (sec): 2.000000E-2
Scans to average: 1
Electric dark correction enabled: true
Nonlinearity correction enabled: false
Boxcar width: 0
XAxis mode: Wavelengths
Number of Pixels in Spectrum: 3648
>>>>>Begin Spectral Data<<<<<
178.204	-77.31
178.424	-77.31
178.644	-77.31
178.864	-79.36
179.084	-97.79
179.304	-44.54
179.524	12.8
179.744	-65.02
179.964	-13.82
180.184	33.28
180.404	37.38
180.624	18.94
180.844	-32.26
181.064	-77.31
181.283	41.47
181.503	80.38
181.723	8.7
181.943	-87.55
182.163	35.33
182.383	-22.02
182.602	4.61
182.822	70.14
183.042	-13.82
183.262	-32.26
183.482	84.48
183.701	23.04
183.921	61.95
184.141	-28.16
184.361	33.28
184.58	37.38
184.8	-32.26
185.02	64
185.239	84.48
185.459	39.42
185.679	29.18
185.898	0.51
186.118	78.33
186.338	-5.63
186.557	76.29
186.777	14.85
186.997	-13.82
187.216	-17.92
187.436	53.76
187.655	-5.63
187.875	20.99
188.095	68.09
188.314	4.61
188.534	-11.78
188.753	88.57
188.973	-1.54
189.192	68.09
189.412	-32.26
189.631	76.29
189.851	-40.45
190.07	10.75
190.29	27.14
190.509	-1.54
190.729	8.7
190.948	55.81
191.168	74.24
191.387	-13.82
191.607	-5.63
191.826	76.29
192.045	41.47
192.265	41.47
192.484	-28.16
192.704	41.47
192.923	-17.92
193.142	49.66
193.362	76.29
193.581	20.99
193.8	47.62
194.02	2.56
194.239	-19.97
194.458	12.8
194.678	41.47
194.897	-7.68
195.116	-22.02
195.335	94.72
195.555	0.51
195.774	8.7
195.993	61.95
196.212	59.9
196.432	53.76
196.651	25.09
196.87	33.28
197.089	70.14
197.308	-19.97
197.528	12.8
197.747	68.09
197.966	-36.35
198.185	92.67
198.404	4.61
198.623	102.91
198.842	49.66
199.062	-36.35
199.281	29.18
199.5	-19.97
199.719	72.19
199.938	53.76
200.157	-30.21
200.376	4.61
200.595	-36.35
200.814	6.66
201.033	27.14
201.252	-3.58
201.471	64
201.69	96.77
201.909	55.81
202.128	61.95
202.347	72.19
202.566	23.04
202.785	-11.78
203.004	25.09
203.223	107.01
203.442	-9.73
203.661	-5.63
203.879	20.99
204.098	82.43
204.317	43.52
204.536	-28.16
204.755	6.66
204.974	10.75
205.193	-24.06
205.411	12.8
205.63	61.95
205.849	16.9
206.068	-24.06
206.287	27.14
206.505	84.48
206.724	37.38
206.943	-30.21
207.162	-7.68
207.381	-7.68
207.599	12.8
207.818	8.7
208.037	-36.35
208.255	33.28
208.474	2.56
208.693	37.38
208.911	49.66
209.13	45.57
209.349	-50.69
209.567	98.81
209.786	43.52
210.005	39.42
210.223	29.18
210.442	31.23
210.661	-36.35
210.879	78.33
211.098	-13.82
211.316	0.51
211.535	0.51
211.753	111.1
211.972	68.09
212.191	39.42
212.409	-32.26
212.628	10.75
212.846	16.9
213.065	111.1
213.283	10.75
213.502	27.14
213.72	88.57
213.938	68.09
214.157	-15.87
214.375	43.52
214.594	-26.11
214.812	74.24
215.031	53.76
215.249	14.85
215.467	-22.02
215.686	31.23
215.904	51.71
216.122	-7.68
216.341	115.2
216.559	-19.97
216.778	0.51
216.996	47.62
217.214	39.42
217.432	59.9
217.651	23.04
217.869	35.33
218.087	-13.82
218.306	6.66
218.524	80.38
218.742	31.23
218.96	16.9
219.179	-17.92
219.397	12.8
219.615	18.94
219.833	80.38
220.051	-13.82
220.27	0.51
220.488	14.85
220.706	39.42
220.924	-19.97
221.142	47.62
221.36	35.33
221.578	25.09
221.796	33.28
222.015	78.33
222.233	8.7
222.451	74.24
222.669	-36.35
222.887	78.33
223.105	86.53
223.323	4.61
223.541	-17.92
223.759	10.75
223.977	61.95
224.195	18.94
224.413	23.04
224.631	23.04
224.849	57.86
225.067	49.66
225.285	51.71
225.503	39.42
225.721	-7.68
225.939	20.99
226.157	20.99
226.375	35.33
226.592	0.51
226.81	31.23
227.028	31.23
227.246	74.24
227.464	8.7
227.682	49.66
227.9	20.99
228.117	59.9
228.335	109.05
228.553	92.67
228.771	41.47
228.989	66.05
229.206	29.18
229.424	10.75
229.642	16.9
229.86	33.28
230.077	61.95
230.295	45.57
230.513	29.18
230.731	90.62
230.948	-5.63
231.166	6.66
231.384	25.09
231.601	-13.82
231.819	51.71
232.037	-58.88
232.254	18.94
232.472	20.99
232.689	-5.63
232.907	12.8
233.125	-5.63
233.342	33.28
233.56	-7.68
233.777	55.81
233.995	-56.83
234.213	6.66
234.43	25.09
234.648	-7.68
234.865	20.99
235.083	39.42
235.3	-17.92
235.518	-9.73
235.735	57.86
235.953	37.38
236.17	2.56
236.388	-36.35
236.605	74.24
236.822	84.48
237.04	53.76
237.257	16.9
237.475	53.76
237.692	-54.78
237.909	78.33
238.127	27.14
238.344	8.7
238.562	-1.54
238.779	33.28
238.996	-32.26
239.214	35.33
239.431	29.18
239.648	-48.64
239.865	-42.5
240.083	76.29
240.3	8.7
240.517	57.86
240.735	45.57
240.952	72.19
241.169	41.47
241.386	27.14
241.603	37.38
241.821	-5.63
242.038	4.61
242.255	43.52
242.472	59.9
242.689	2.56
242.907	57.86
243.124	-19.97
243.341	41.47
243.558	16.9
243.775	23.04
243.992	70.14
244.209	49.66
244.426	29.18
244.643	14.85
244.86	27.14
245.078	123.39
245.295	29.18
245.512	33.28
245.729	6.66
245.946	16.9
246.163	14.85
246.38	16.9
246.597	4.61
246.814	18.94
247.031	-13.82
247.248	18.94
247.464	27.14
247.681	-9.73
247.898	92.67
248.115	84.48
248.332	-11.78
248.549	53.76
248.766	64
248.983	66.05
249.2	-24.06
249.417	20.99
249.633	2.56
249.85	41.47
250.067	53.76
250.284	-19.97
250.501	37.38
250.717	2.56
250.934	-3.58
251.151	14.85
251.368	61.95
251.585	82.43
251.801	78.33
252.018	14.85
252.235	-26.11
252.451	-11.78
252.668	-28.16
252.885	27.14
253.102	31.23
253.318	33.28
253.535	-22.02
253.752	-22.02
253.968	12.8
254.185	37.38
254.401	-1.54
254.618	-7.68
254.835	16.9
255.051	80.38
255.268	14.85
255.484	35.33
255.701	-1.54
255.917	-1.54
256.134	18.94
256.351	12.8
256.567	20.99
256.784	23.04
257	-7.68
257.217	12.8
257.433	76.29
257.65	-1.54
257.866	78.33
258.082	14.85
258.299	4.61
258.515	131.58
258.732	41.47
258.948	-34.3
259.165	-22.02
259.381	51.71
259.597	25.09
259.814	43.52
260.03	23.04
260.246	-15.87
260.463	86.53
260.679	41.47
260.895	-34.3
261.112	4.61
261.328	-15.87
261.544	61.95
261.761	25.09
261.977	-30.21
262.193	123.39
262.409	-1.54
262.626	8.7
262.842	41.47
263.058	41.47
263.274	-9.73
263.49	53.76
263.707	41.47
263.923	-32.26
264.139	0.51
264.355	0.51
264.571	27.14
264.787	25.09
265.004	37.38
265.22	16.9
265.436	-13.82
265.652	29.18
265.868	41.47
266.084	-3.58
266.3	35.33
266.516	39.42
266.732	57.86
266.948	10.75
267.164	66.05
267.38	49.66
267.596	20.99
267.812	131.58
268.028	47.62
268.244	47.62
268.46	29.18
268.676	45.57
268.892	100.86
269.108	33.28
269.324	-36.35
269.54	-28.16
269.756	43.52
269.972	2.56
270.188	119.29
270.403	-7.68
270.619	43.52
270.835	-3.58
271.051	59.9
271.267	-1.54
271.483	82.43
271.698	47.62
271.914	39.42
272.13	74.24
272.346	84.48
272.562	-28.16
272.777	-11.78
272.993	16.9
273.209	10.75
273.425	45.57
273.64	12.8
273.856	111.1
274.072	10.75
274.287	-40.45
274.503	23.04
274.719	-34.3
274.934	51.71
275.15	-32.26
275.366	27.14
275.581	-13.82
275.797	70.14
276.012	20.99
276.228	-5.63
276.444	6.66
276.659	88.57
276.875	35.33
277.09	98.81
277.306	-1.54
277.521	59.9
277.737	33.28
277.952	96.77
278.168	86.53
278.383	49.66
278.599	-1.54
278.814	68.09
279.03	-36.35
279.245	76.29
279.461	59.9
279.676	37.38
279.892	39.42
280.107	0.51
280.322	39.42
280.538	39.42
280.753	-40.45
280.969	25.09
281.184	31.23
281.399	59.9
281.615	47.62
281.83	37.38
282.045	-44.54
282.26	8.7
282.476	76.29
282.691	84.48
282.906	45.57
283.122	14.85
283.337	4.61
283.552	100.86
283.767	72.19
283.983	12.8
284.198	-5.63
284.413	16.9
284.628	-5.63
284.843	80.38
285.058	37.38
285.274	49.66
285.489	-38.4
285.704	82.43
285.919	8.7
286.134	25.09
286.349	47.62
286.564	53.76
286.779	88.57
286.995	68.09
287.21	-114.17
287.425	27.14
287.64	27.14
287.855	-19.97
288.07	8.7
288.285	33.28
288.5	49.66
288.715	72.19
288.93	31.23
289.145	-13.82
289.36	53.76
289.575	0.51
289.79	43.52
290.004	16.9
290.219	23.04
290.434	20.99
290.649	43.52
290.864	2.56
291.079	14.85
291.294	27.14
291.509	55.81
291.724	66.05
291.938	35.33
292.153	12.8
292.368	10.75
292.583	37.38
292.798	-17.92
293.012	6.66
293.227	18.94
293.442	6.66
293.657	35.33
293.871	59.9
294.086	-1.54
294.301	39.42
294.516	80.38
294.73	84.48
294.945	84.48
295.16	86.53
295.374	39.42
295.589	-1.54
295.804	-30.21
296.018	-50.69
296.233	49.66
296.447	55.81
296.662	43.52
296.877	66.05
297.091	-1.54
297.306	35.33
297.52	49.66
297.735	86.53
297.949	31.23
298.164	51.71
298.378	-11.78
298.593	37.38
298.807	33.28
299.022	55.81
299.236	98.81
299.451	61.95
299.665	-13.82
299.88	33.28
300.094	-30.21
300.309	78.33
300.523	-1.54
300.737	10.75
300.952	0.51
301.166	76.29
301.381	51.71
301.595	51.71
301.809	61.95
302.024	-11.78
302.238	39.42
302.452	-3.58
302.667	74.24
302.881	57.86
303.095	74.24
303.309	20.99
303.524	41.47
303.738	16.9
303.952	-36.35
304.166	82.43
304.381	37.38
304.595	74.24
304.809	33.28
305.023	66.05
305.237	-54.78
305.452	12.8
305.666	31.23
305.88	64
306.094	10.75
306.308	96.77
306.522	-17.92
306.736	109.05
306.95	53.76
307.164	6.66
307.379	49.66
307.593	111.1
307.807	29.18
308.021	88.57
308.235	76.29
308.449	59.9
308.663	18.94
308.877	12.8
309.091	-11.78
309.305	51.71
309.519	-1.54
309.733	59.9
309.947	-26.11
310.161	82.43
310.374	61.95
310.588	39.42
310.802	-26.11
311.016	16.9
311.23	86.53
311.444	-56.83
311.658	27.14
311.872	76.29
312.085	47.62
312.299	72.19
312.513	94.72
312.727	25.09
312.941	-38.4
313.154	-32.26
313.368	18.94
313.582	-3.58
313.796	23.04
314.009	41.47
314.223	68.09
314.437	29.18
314.651	14.85
314.864	84.48
315.078	-32.26
315.292	35.33
315.505	16.9
315.719	33.28
315.933	10.75
316.146	16.9
316.36	-62.98
316.573	55.81
316.787	-5.63
317.001	47.62
317.214	2.56
317.428	25.09
317.641	25.09
317.855	14.85
318.068	49.66
318.282	115.2
318.495	-19.97
318.709	39.42
318.922	47.62
319.136	16.9
319.349	39.42
319.563	37.38
319.776	82.43
319.99	-1.54
320.203	-9.73
320.417	6.66
320.63	-60.93
320.843	84.48
321.057	49.66
321.27	33.28
321.483	0.51
321.697	76.29
321.91	64
322.124	23.04
322.337	41.47
322.55	2.56
322.763	29.18
322.977	-30.21
323.19	64
323.403	45.57
323.617	55.81
323.83	88.57
324.043	33.28
324.256	12.8
324.469	31.23
324.683	-7.68
324.896	37.38
325.109	31.23
325.322	27.14
325.535	72.19
325.748	133.63
325.962	-9.73
326.175	39.42
326.388	41.47
326.601	59.9
326.814	51.71
327.027	96.77
327.24	23.04
327.453	0.51
327.666	57.86
327.879	53.76
328.092	39.42
328.305	76.29
328.518	18.94
328.731	47.62
328.944	29.18
329.157	66.05
329.37	-15.87
329.583	90.62
329.796	135.68
330.009	8.7
330.222	25.09
330.435	16.9
330.648	12.8
330.861	16.9
331.073	55.81
331.286	35.33
331.499	82.43
331.712	61.95
331.925	25.09
332.138	-1.54
332.35	47.62
332.563	31.23
332.776	137.73
332.989	88.57
333.202	4.61
333.414	49.66
333.627	84.48
333.84	27.14
334.053	61.95
334.265	70.14
334.478	-7.68
334.691	127.49
334.903	25.09
335.116	33.28
335.329	98.81
335.541	4.61
335.754	8.7
335.966	104.96
336.179	57.86
336.392	-7.68
336.604	98.81
336.817	20.99
337.029	94.72
337.242	66.05
337.454	70.14
337.667	18.94
337.88	127.49
338.092	-11.78
338.305	68.09
338.517	37.38
338.729	49.66
338.942	70.14
339.154	78.33
339.367	55.81
339.579	84.48
339.792	-48.64
340.004	23.04
340.217	-11.78
340.429	66.05
340.641	-19.97
340.854	94.72
341.066	2.56
341.278	20.99
341.491	10.75
341.703	27.14
341.915	16.9
342.128	66.05
342.34	57.86
342.552	78.33
342.764	20.99
342.977	37.38
343.189	80.38
343.401	43.52
343.613	23.04
343.826	94.72
344.038	-1.54
344.25	39.42
344.462	-30.21
344.674	41.47
344.886	-5.63
345.099	25.09
345.311	78.33
345.523	107.01
345.735	-3.58
345.947	39.42
346.159	-40.45
346.371	68.09
346.583	49.66
346.795	160.25
347.007	-13.82
347.219	8.7
347.431	-13.82
347.643	66.05
347.855	49.66
348.067	74.24
348.279	57.86
348.491	72.19
348.703	-19.97
348.915	4.61
349.127	68.09
349.339	66.05
349.551	23.04
349.763	49.66
349.975	0.51
350.187	31.23
350.399	18.94
350.61	39.42
350.822	-3.58
351.034	-17.92
351.246	12.8
351.458	37.38
351.669	-9.73
351.881	35.33
352.093	27.14
352.305	68.09
352.517	-24.06
352.728	86.53
352.94	68.09
353.152	55.81
353.363	64
353.575	68.09
353.787	98.81
353.999	76.29
354.21	111.1
354.422	64
354.633	39.42
354.845	59.9
355.057	27.14
355.268	59.9
355.48	10.75
355.692	23.04
355.903	78.33
356.115	-9.73
356.326	25.09
356.538	39.42
356.749	31.23
356.961	70.14
357.172	-9.73
357.384	-11.78
357.595	51.71
357.807	98.81
358.018	16.9
358.23	98.81
358.441	29.18
358.653	37.38
358.864	86.53
359.075	35.33
359.287	59.9
359.498	94.72
359.709	20.99
359.921	139.77
360.132	86.53
360.344	31.23
360.555	59.9
360.766	25.09
360.977	29.18
361.189	143.87
361.4	-13.82
361.611	8.7
361.823	64
362.034	53.76
362.245	39.42
362.456	72.19
362.667	107.01
362.879	41.47
363.09	55.81
363.301	80.38
363.512	27.14
363.723	0.51
363.935	43.52
364.146	86.53
364.357	18.94
364.568	68.09
364.779	68.09
364.99	55.81
365.201	100.86
365.412	18.94
365.623	-50.69
365.834	98.81
366.045	0.51
366.256	33.28
366.467	39.42
366.678	68.09
366.889	-3.58
367.1	84.48
367.311	43.52
367.522	88.57
367.733	84.48
367.944	29.18
368.155	6.66
368.366	45.57
368.577	135.68
368.788	-22.02
368.999	64
369.209	74.24
369.42	100.86
369.631	131.58
369.842	121.34
370.053	-28.16
370.264	12.8
370.474	4.61
370.685	174.59
370.896	61.95
371.107	57.86
371.317	41.47
371.528	92.67
371.739	6.66
371.95	29.18
372.16	-1.54
372.371	80.38
372.582	51.71
372.792	82.43
373.003	57.86
373.214	-11.78
373.424	104.96
373.635	39.42
373.846	129.53
374.056	31.23
374.267	37.38
374.477	31.23
374.688	-7.68
374.898	20.99
375.109	59.9
375.319	88.57
375.53	49.66
375.74	14.85
375.951	33.28
376.161	39.42
376.372	109.05
376.582	27.14
376.793	98.81
377.003	-9.73
377.214	53.76
377.424	68.09
377.635	66.05
377.845	113.15
378.055	90.62
378.266	61.95
378.476	84.48
378.686	-30.21
378.897	-1.54
379.107	45.57
379.317	35.33
379.528	8.7
379.738	86.53
379.948	84.48
380.158	76.29
380.369	55.81
380.579	-38.4
380.789	-5.63
380.999	129.53
381.21	-11.78
381.42	78.33
381.63	18.94
381.84	76.29
382.05	20.99
382.261	55.81
382.471	49.66
382.681	59.9
382.891	129.53
383.101	94.72
383.311	2.56
383.521	74.24
383.731	61.95
383.941	61.95
384.151	-26.11
384.361	39.42
384.571	-17.92
384.781	23.04
384.991	76.29
385.201	115.2
385.411	43.52
385.621	84.48
385.831	82.43
386.041	100.86
386.251	86.53
386.461	70.14
386.671	84.48
386.881	92.67
387.091	31.23
387.301	68.09
387.511	76.29
387.72	84.48
387.93	-24.06
388.14	-15.87
388.35	94.72
388.56	109.05
388.769	127.49
388.979	139.77
389.189	94.72
389.399	90.62
389.609	123.39
389.818	35.33
390.028	86.53
390.238	96.77
390.447	51.71
390.657	47.62
390.867	23.04
391.076	37.38
391.286	2.56
391.496	14.85
391.705	8.7
391.915	92.67
392.125	12.8
392.334	47.62
392.544	139.77
392.753	88.57
392.963	88.57
393.172	94.72
393.382	78.33
393.591	29.18
393.801	51.71
394.01	66.05
394.22	55.81
394.429	90.62
394.639	86.53
394.848	78.33
395.058	104.96
395.267	49.66
395.477	53.76
395.686	29.18
395.895	213.5
396.105	14.85
396.314	68.09
396.524	133.63
396.733	74.24
396.942	117.25
397.152	78.33
397.361	76.29
397.57	197.12
397.78	49.66
397.989	72.19
398.198	98.81
398.407	64
398.617	137.73
398.826	145.92
399.035	107.01
399.244	98.81
399.453	117.25
399.663	113.15
399.872	76.29
400.081	131.58
400.29	154.11
400.499	121.34
400.708	139.77
400.917	90.62
401.127	100.86
401.336	139.77
401.545	125.44
401.754	109.05
401.963	64
402.172	121.34
402.381	172.54
402.59	117.25
402.799	141.82
403.008	133.63
403.217	104.96
403.426	143.87
403.635	96.77
403.844	137.73
404.053	203.26
404.262	107.01
404.471	170.49
404.68	152.06
404.888	162.3
405.097	107.01
405.306	166.4
405.515	166.4
405.724	188.93
405.933	141.82
406.142	209.4
406.35	197.12
406.559	213.5
406.768	195.07
406.977	254.46
407.185	215.55
407.394	207.36
407.603	199.16
407.812	330.23
408.02	205.31
408.229	215.55
408.438	231.93
408.646	225.79
408.855	203.26
409.064	248.32
409.272	272.89
409.481	322.04
409.69	311.8
409.898	283.13
410.107	383.48
410.315	334.33
410.524	315.9
410.733	305.66
410.941	299.52
411.15	463.35
411.358	412.15
411.567	375.29
411.775	387.58
411.984	479.74
412.192	459.26
412.401	393.72
412.609	545.27
412.818	518.65
413.026	426.49
413.234	520.7
413.443	655.86
413.651	586.23
413.86	616.95
414.068	678.39
414.276	629.24
414.485	696.82
414.693	723.44
414.901	793.08
415.11	745.97
415.318	694.77
415.526	831.99
415.734	784.88
415.943	866.8
416.151	905.71
416.359	913.91
416.567	942.58
416.776	971.25
416.984	1083.89
417.192	1030.64
417.4	1065.46
417.608	1047.02
417.817	1233.39
418.025	1137.13
418.233	1257.96
418.441	1235.44
418.649	1360.36
418.857	1307.12
419.065	1354.22
419.273	1325.55
419.481	1442.28
419.689	1520.1
419.897	1626.6
420.105	1556.97
420.313	1622.5
420.521	1702.37
420.729	1671.65
420.937	1761.77
421.145	1890.79
421.353	1966.56
421.561	2075.1
421.769	2138.59
421.977	2079.2
422.185	2212.32
422.393	2286.05
422.601	2470.36
422.809	2400.73
423.017	2523.61
423.224	2644.44
423.432	2638.3
423.64	2738.65
423.848	2859.48
424.056	2830.8
424.263	3090.9
424.471	3027.41
424.679	3127.76
424.887	3340.75
425.094	3453.39
425.302	3424.72
425.51	3516.87
425.718	3637.7
425.925	3707.34
426.133	3903.94
426.341	4078.02
426.548	4239.81
426.756	4151.74
426.964	4172.22
427.171	4510.14
427.379	4620.73
427.586	4790.71
427.794	4893.11
428.001	4989.36
428.209	5300.66
428.417	5147.06
428.624	5560.75
428.832	5552.56
429.039	5556.65
429.247	5468.59
429.454	6205.86
429.662	6562.2
429.869	6023.59
430.076	6478.24
430.284	6351.26
430.491	6515.1
430.699	7043.48
430.906	7043.48
431.114	7246.23
431.321	7405.97
431.528	7600.52
431.736	8083.84
431.943	8235.39
432.15	8155.52
432.358	8145.28
432.565	8700.28
432.772	8647.04
432.979	8931.7
433.187	9257.33
433.394	9331.06
433.601	10045.8
433.808	9855.34
434.016	10070.37
434.223	10537.31
434.43	11026.78
434.637	10617.18
434.844	11290.96
435.052	11702.61
435.259	11575.63
435.466	11708.75
435.673	11520.34
435.88	12261.7
436.087	12874.04
436.294	12929.34
436.501	12542.27
436.708	12966.2
436.915	13429.04
437.122	13920.56
437.329	14008.62
437.537	14340.39
437.743	14410.02
437.95	14371.11
438.157	15272.21
438.364	15747.34
438.571	15552.79
438.778	15806.73
438.985	17381.62
439.192	16664.83
439.399	16750.85
439.606	16806.14
439.813	17760.5
440.02	18819.3
440.227	18249.96
440.433	18290.92
440.64	18987.23
440.847	18573.54
441.054	19046.62
441.261	20371.66
441.467	20625.61
441.674	20840.64
441.881	21641.4
442.088	21502.14
442.294	21178.56
442.501	21674.17
442.708	22220.97
442.914	23337.12
443.121	24369.29
443.328	23462.04
443.534	25180.29
443.741	24455.31
443.948	24203.41
444.154	26022
444.361	25806.97
444.568	25907.32
444.774	25847.93
444.981	26398.83
445.187	27013.22
445.394	28012.63
445.6	28135.51
445.807	30429.23
446.013	29194.31
446.22	29825.08
446.426	30777.39
446.633	30914.6
446.839	32344.08
447.046	30775.34
447.252	32344.08
447.459	32663.57
447.665	32448.53
447.871	33929.21
448.078	35936.22
448.284	33718.27
448.491	34476.02
448.697	36227.03
448.903	36464.6
449.11	36700.11
449.316	36005.85
449.522	36976.59
449.728	37742.53
449.935	38234.04
450.141	38105.02
450.347	39241.64
450.553	37658.56
450.76	38555.57
450.966	39620.52
451.172	39329.7
451.378	40279.96
451.584	39133.1
451.791	40062.88
451.997	40241.05
452.203	40761.23
452.409	40806.29
452.615	40753.04
452.821	39260.07
453.027	38707.12
453.233	40923.02
453.44	39045.04
453.646	39428.01
453.852	39911.33
454.058	40466.33
454.264	39182.25
454.47	40069.02
454.676	39276.46
454.882	40566.68
455.088	37367.75
455.294	37541.83
455.5	38033.34
455.705	38653.87
455.911	37347.27
456.117	36061.15
456.323	35909.6
456.529	34400.24
456.735	35856.35
456.941	34646
457.147	33873.92
457.352	33118.21
457.558	32796.68
457.764	32888.84
457.97	32194.58
458.176	31430.69
458.381	31610.91
458.587	30111.8
458.793	29880.38
458.999	28403.79
459.204	30447.66
459.41	29763.64
459.616	27525.21
459.821	27752.54
460.027	27506.78
460.233	26908.77
460.438	25702.52
460.644	26026.1
460.85	24897.67
461.055	24746.12
461.261	24293.52
461.466	22610.09
461.672	21813.43
461.878	23580.82
462.083	22040.75
462.289	21227.71
462.494	21057.73
462.7	20328.65
462.905	19646.68
463.111	20469.96
463.316	20603.08
463.522	20048.08
463.727	20203.72
463.932	20291.79
464.138	19679.44
464.343	19742.93
464.549	19362.01
464.754	20082.89
464.959	19912.91
465.165	19994.83
465.37	18680.03
465.575	18151.66
465.781	19128.54
465.986	19214.55
466.191	18602.21
466.397	17950.96
466.602	17142.01
466.807	17862.9
467.012	17936.62
467.218	18079.98
467.423	17651.95
467.628	17838.32
467.833	18292.97
468.038	17983.73
