Data from USB4F104151__7__12-26-57-717.txt Node

Date: Fri Mar 14 12:26:57 EDT 2025
User: louis
Spectrometer: USB4F10415
Trigger mode: 4
Integration Time (sec): 2.000000E-2
Scans to average: 1
Electric dark correction enabled: true
Nonlinearity correction enabled: false
Boxcar width: 0
XAxis mode: Wavelengths
Number of Pixels in Spectrum: 3648
>>>>>Begin Spectral Data<<<<<
178.204	-105.81
178.424	-105.81
178.644	-105.81
178.864	-46.42
179.084	-44.37
179.304	47.79
179.524	-48.47
179.744	31.4
179.964	31.4
180.184	45.74
180.404	27.31
180.624	-21.85
180.844	-27.99
181.064	-62.8
181.283	-7.51
181.503	-5.46
181.723	-9.56
181.943	2.73
182.163	41.64
182.383	12.97
182.602	-32.08
182.822	-3.41
183.042	66.22
183.262	-30.04
183.482	0.68
183.701	25.26
183.921	53.93
184.141	2.73
184.361	72.36
184.58	4.78
184.8	39.59
185.02	12.97
185.239	90.79
185.459	12.97
185.679	98.99
185.898	-105.81
186.118	62.12
186.338	-19.8
186.557	41.64
186.777	47.79
186.997	15.02
187.216	-21.85
187.436	53.93
187.655	23.21
187.875	27.31
188.095	74.41
188.314	-50.52
188.534	60.07
188.753	64.17
188.973	41.64
189.192	74.41
189.412	17.07
189.631	70.31
189.851	15.02
190.07	55.98
190.29	15.02
190.509	0.68
190.729	43.69
190.948	66.22
191.168	129.7
191.387	10.92
191.607	-25.94
191.826	80.55
192.045	47.79
192.265	68.27
192.484	53.93
192.704	66.22
192.923	8.87
193.142	107.18
193.362	88.75
193.581	29.35
193.8	-52.56
194.02	84.65
194.239	98.99
194.458	76.46
194.678	-19.8
194.897	43.69
195.116	68.27
195.335	33.45
195.555	107.18
195.774	17.07
195.993	96.94
196.212	49.83
196.432	2.73
196.651	55.98
196.87	31.4
197.089	146.09
197.308	35.5
197.528	53.93
197.747	-19.8
197.966	17.07
198.185	35.5
198.404	27.31
198.623	29.35
198.842	12.97
199.062	72.36
199.281	47.79
199.5	17.07
199.719	27.31
199.938	53.93
200.157	23.21
200.376	17.07
200.595	-27.99
200.814	19.11
201.033	45.74
201.252	43.69
201.471	4.78
201.69	84.65
201.909	25.26
202.128	51.88
202.347	19.11
202.566	45.74
202.785	41.64
203.004	21.16
203.223	113.32
203.442	19.11
203.661	-38.23
203.879	53.93
204.098	84.65
204.317	-46.42
204.536	129.7
204.755	43.69
204.974	68.27
205.193	41.64
205.411	121.51
205.63	6.83
205.849	53.93
206.068	-17.75
206.287	35.5
206.505	78.51
206.724	82.6
206.943	76.46
207.162	64.17
207.381	35.5
207.599	27.31
207.818	29.35
208.037	-5.46
208.255	25.26
208.474	35.5
208.693	84.65
208.911	21.16
209.13	-21.85
209.349	45.74
209.567	25.26
209.786	94.89
210.005	53.93
210.223	45.74
210.442	-7.51
210.661	41.64
210.879	19.11
211.098	37.55
211.316	33.45
211.535	0.68
211.753	2.73
211.972	84.65
212.191	27.31
212.409	70.31
212.628	103.08
212.846	-36.18
213.065	37.55
213.283	74.41
213.502	-30.04
213.72	49.83
213.938	21.16
214.157	37.55
214.375	125.61
214.594	4.78
214.812	49.83
215.031	49.83
215.249	37.55
215.467	45.74
215.686	64.17
215.904	98.99
216.122	51.88
216.341	86.7
216.559	31.4
216.778	55.98
216.996	31.4
217.214	6.83
217.432	47.79
217.651	49.83
217.869	-62.8
218.087	90.79
218.306	27.31
218.524	8.87
218.742	19.11
218.96	23.21
219.179	23.21
219.397	68.27
219.615	41.64
219.833	-25.94
220.051	-1.37
220.27	76.46
220.488	-7.51
220.706	17.07
220.924	-1.37
221.142	-7.51
221.36	17.07
221.578	19.11
221.796	76.46
222.015	-7.51
222.233	10.92
222.451	31.4
222.669	37.55
222.887	27.31
223.105	-23.89
223.323	-1.37
223.541	6.83
223.759	12.97
223.977	62.12
224.195	86.7
224.413	-13.65
224.631	84.65
224.849	17.07
225.067	19.11
225.285	53.93
225.503	94.89
225.721	-23.89
225.939	53.93
226.157	17.07
226.375	117.42
226.592	-77.14
226.81	68.27
227.028	12.97
227.246	-7.51
227.464	41.64
227.682	80.55
227.9	49.83
228.117	33.45
228.335	96.94
228.553	64.17
228.771	29.35
228.989	51.88
229.206	78.51
229.424	-27.99
229.642	-46.42
229.86	35.5
230.077	0.68
230.295	49.83
230.513	58.03
230.731	45.74
230.948	35.5
231.166	60.07
231.384	60.07
231.601	25.26
231.819	98.99
232.037	31.4
232.254	6.83
232.472	43.69
232.689	53.93
232.907	82.6
233.125	4.78
233.342	25.26
233.56	-17.75
233.777	-27.99
233.995	-3.41
234.213	-89.43
234.43	-15.7
234.648	58.03
234.865	21.16
235.083	146.09
235.3	15.02
235.518	-21.85
235.735	53.93
235.953	70.31
236.17	4.78
236.388	45.74
236.605	33.45
236.822	72.36
237.04	45.74
237.257	21.16
237.475	29.35
237.692	64.17
237.909	68.27
238.127	37.55
238.344	2.73
238.562	45.74
238.779	27.31
238.996	62.12
239.214	23.21
239.431	43.69
239.648	25.26
239.865	23.21
240.083	12.97
240.3	49.83
240.517	15.02
240.735	-42.32
240.952	121.51
241.169	-9.56
241.386	68.27
241.603	-25.94
241.821	15.02
242.038	64.17
242.255	-5.46
242.472	58.03
242.689	4.78
242.907	51.88
243.124	66.22
243.341	17.07
243.558	0.68
243.775	-25.94
243.992	2.73
244.209	43.69
244.426	105.13
244.643	31.4
244.86	41.64
245.078	135.85
245.295	60.07
245.512	58.03
245.729	-40.28
245.946	72.36
246.163	105.13
246.38	4.78
246.597	62.12
246.814	74.41
247.031	37.55
247.248	72.36
247.464	53.93
247.681	51.88
247.898	150.18
248.115	4.78
248.332	-23.89
248.549	68.27
248.766	55.98
248.983	68.27
249.2	62.12
249.417	72.36
249.633	72.36
249.85	76.46
250.067	-30.04
250.284	43.69
250.501	43.69
250.717	23.21
250.934	-15.7
251.151	-73.04
251.368	53.93
251.585	12.97
251.801	35.5
252.018	-23.89
252.235	111.27
252.451	-9.56
252.668	2.73
252.885	66.22
253.102	66.22
253.318	10.92
253.535	-50.52
253.752	35.5
253.968	10.92
254.185	-21.85
254.401	-3.41
254.618	74.41
254.835	17.07
255.051	109.22
255.268	88.75
255.484	15.02
255.701	25.26
255.917	27.31
256.134	19.11
256.351	62.12
256.567	10.92
256.784	-23.89
257	76.46
257.217	47.79
257.433	39.59
257.65	53.93
257.866	96.94
258.082	12.97
258.299	-1.37
258.515	66.22
258.732	19.11
258.948	45.74
259.165	39.59
259.381	41.64
259.597	74.41
259.814	29.35
260.03	27.31
260.246	72.36
260.463	66.22
260.679	72.36
260.895	43.69
261.112	-19.8
261.328	12.97
261.544	35.5
261.761	135.85
261.977	39.59
262.193	4.78
262.409	76.46
262.626	25.26
262.842	62.12
263.058	74.41
263.274	6.83
263.49	53.93
263.707	92.84
263.923	58.03
264.139	74.41
264.355	15.02
264.571	21.16
264.787	-46.42
265.004	-66.9
265.22	-15.7
265.436	60.07
265.652	41.64
265.868	-1.37
266.084	-11.61
266.3	23.21
266.516	-23.89
266.732	47.79
266.948	27.31
267.164	62.12
267.38	53.93
267.596	-17.75
267.812	80.55
268.028	29.35
268.244	-87.38
268.46	49.83
268.676	19.11
268.892	8.87
269.108	19.11
269.324	53.93
269.54	41.64
269.756	35.5
269.972	4.78
270.188	117.42
270.403	23.21
270.619	39.59
270.835	27.31
271.051	39.59
271.267	8.87
271.483	98.99
271.698	158.38
271.914	19.11
272.13	92.84
272.346	55.98
272.562	41.64
272.777	96.94
272.993	47.79
273.209	-25.94
273.425	2.73
273.64	-3.41
273.856	107.18
274.072	51.88
274.287	21.16
274.503	31.4
274.719	37.55
274.934	23.21
275.15	33.45
275.366	21.16
275.581	8.87
275.797	8.87
276.012	33.45
276.228	0.68
276.444	17.07
276.659	39.59
276.875	-5.46
277.09	51.88
277.306	90.79
277.521	25.26
277.737	43.69
277.952	68.27
278.168	39.59
278.383	10.92
278.599	80.55
278.814	10.92
279.03	19.11
279.245	64.17
279.461	60.07
279.676	92.84
279.892	-25.94
280.107	55.98
280.322	51.88
280.538	-38.23
280.753	35.5
280.969	39.59
281.184	72.36
281.399	35.5
281.615	-17.75
281.83	115.37
282.045	-32.08
282.26	-52.56
282.476	12.97
282.691	72.36
282.906	-44.37
283.122	31.4
283.337	-11.61
283.552	70.31
283.767	84.65
283.983	33.45
284.198	17.07
284.413	47.79
284.628	-23.89
284.843	19.11
285.058	49.83
285.274	74.41
285.489	27.31
285.704	51.88
285.919	58.03
286.134	92.84
286.349	21.16
286.564	-32.08
286.779	-5.46
286.995	84.65
287.21	-9.56
287.425	10.92
287.64	-1.37
287.855	6.83
288.07	-60.76
288.285	6.83
288.5	72.36
288.715	27.31
288.93	-27.99
289.145	-3.41
289.36	0.68
289.575	19.11
289.79	39.59
290.004	43.69
290.219	47.79
290.434	-38.23
290.649	8.87
290.864	47.79
291.079	92.84
291.294	41.64
291.509	37.55
291.724	98.99
291.938	23.21
292.153	23.21
292.368	-3.41
292.583	25.26
292.798	47.79
293.012	74.41
293.227	4.78
293.442	4.78
293.657	31.4
293.871	35.5
294.086	41.64
294.301	64.17
294.516	84.65
294.73	150.18
294.945	21.16
295.16	72.36
295.374	35.5
295.589	25.26
295.804	31.4
296.018	82.6
296.233	31.4
296.447	98.99
296.662	62.12
296.877	45.74
297.091	-7.51
297.306	-1.37
297.52	37.55
297.735	64.17
297.949	31.4
298.164	117.42
298.378	12.97
298.593	101.03
298.807	53.93
299.022	60.07
299.236	-7.51
299.451	10.92
299.665	23.21
299.88	107.18
300.094	35.5
300.309	19.11
300.523	-21.85
300.737	47.79
300.952	19.11
301.166	90.79
301.381	37.55
301.595	4.78
301.809	33.45
302.024	-5.46
302.238	10.92
302.452	-7.51
302.667	4.78
302.881	-9.56
303.095	25.26
303.309	64.17
303.524	-7.51
303.738	47.79
303.952	88.75
304.166	6.83
304.381	0.68
304.595	103.08
304.809	21.16
305.023	12.97
305.237	27.31
305.452	86.7
305.666	35.5
305.88	43.69
306.094	51.88
306.308	12.97
306.522	27.31
306.736	41.64
306.95	-15.7
307.164	72.36
307.379	25.26
307.593	35.5
307.807	8.87
308.021	82.6
308.235	35.5
308.449	-13.65
308.663	74.41
308.877	98.99
309.091	78.51
309.305	64.17
309.519	60.07
309.733	68.27
309.947	-1.37
310.161	41.64
310.374	-15.7
310.588	19.11
310.802	21.16
311.016	-30.04
311.23	66.22
311.444	29.35
311.658	39.59
311.872	4.78
312.085	37.55
312.299	6.83
312.513	33.45
312.727	-52.56
312.941	39.59
313.154	55.98
313.368	49.83
313.582	15.02
313.796	103.08
314.009	47.79
314.223	37.55
314.437	31.4
314.651	-23.89
314.864	58.03
315.078	66.22
315.292	76.46
315.505	64.17
315.719	121.51
315.933	8.87
316.146	51.88
316.36	-34.13
316.573	39.59
316.787	129.7
317.001	29.35
317.214	31.4
317.428	162.47
317.641	-44.37
317.855	78.51
318.068	25.26
318.282	101.03
318.495	90.79
318.709	131.75
318.922	8.87
319.136	41.64
319.349	70.31
319.563	31.4
319.776	49.83
319.99	33.45
320.203	49.83
320.417	78.51
320.63	-30.04
320.843	55.98
321.057	39.59
321.27	74.41
321.483	45.74
321.697	96.94
321.91	60.07
322.124	139.94
322.337	45.74
322.55	49.83
322.763	72.36
322.977	31.4
323.19	58.03
323.403	103.08
323.617	58.03
323.83	45.74
324.043	-34.13
324.256	29.35
324.469	47.79
324.683	17.07
324.896	49.83
325.109	60.07
325.322	41.64
325.535	45.74
325.748	33.45
325.962	72.36
326.175	60.07
326.388	-9.56
326.601	139.94
326.814	107.18
327.027	-36.18
327.24	21.16
327.453	55.98
327.666	90.79
327.879	55.98
328.092	15.02
328.305	41.64
328.518	23.21
328.731	80.55
328.944	25.26
329.157	86.7
329.37	15.02
329.583	51.88
329.796	31.4
330.009	49.83
330.222	25.26
330.435	68.27
330.648	76.46
330.861	6.83
331.073	-25.94
331.286	0.68
331.499	53.93
331.712	115.37
331.925	78.51
332.138	45.74
332.35	45.74
332.563	-27.99
332.776	-30.04
332.989	-3.41
333.202	55.98
333.414	76.46
333.627	33.45
333.84	98.99
334.053	4.78
334.265	17.07
334.478	27.31
334.691	111.27
334.903	19.11
335.116	-21.85
335.329	70.31
335.541	74.41
335.754	62.12
335.966	0.68
336.179	86.7
336.392	6.83
336.604	39.59
336.817	27.31
337.029	21.16
337.242	49.83
337.454	53.93
337.667	21.16
337.88	74.41
338.092	127.66
338.305	53.93
338.517	70.31
338.729	86.7
338.942	49.83
339.154	74.41
339.367	64.17
339.579	103.08
339.792	-1.37
340.004	111.27
340.217	4.78
340.429	62.12
340.641	2.73
340.854	31.4
341.066	51.88
341.278	2.73
341.491	19.11
341.703	51.88
341.915	43.69
342.128	62.12
342.34	78.51
342.552	133.8
342.764	86.7
342.977	23.21
343.189	41.64
343.401	72.36
343.613	21.16
343.826	21.16
344.038	58.03
344.25	62.12
344.462	-13.65
344.674	-23.89
344.886	27.31
345.099	41.64
345.311	66.22
345.523	60.07
345.735	-23.89
345.947	72.36
346.159	47.79
346.371	55.98
346.583	27.31
346.795	94.89
347.007	62.12
347.219	103.08
347.431	12.97
347.643	82.6
347.855	58.03
348.067	96.94
348.279	27.31
348.491	62.12
348.703	43.69
348.915	74.41
349.127	-25.94
349.339	113.32
349.551	29.35
349.763	90.79
349.975	35.5
350.187	60.07
350.399	141.99
350.61	51.88
350.822	43.69
351.034	41.64
351.246	64.17
351.458	45.74
351.669	66.22
351.881	121.51
352.093	109.22
352.305	105.13
352.517	10.92
352.728	-5.46
352.94	37.55
353.152	86.7
353.363	4.78
353.575	88.75
353.787	39.59
353.999	111.27
354.21	43.69
354.422	35.5
354.633	74.41
354.845	47.79
355.057	21.16
355.268	23.21
355.48	15.02
355.692	39.59
355.903	47.79
356.115	66.22
356.326	33.45
356.538	27.31
356.749	98.99
356.961	80.55
357.172	8.87
357.384	15.02
357.595	29.35
357.807	45.74
358.018	17.07
358.23	21.16
358.441	72.36
358.653	66.22
358.864	45.74
359.075	62.12
359.287	109.22
359.498	51.88
359.709	84.65
359.921	31.4
360.132	-44.37
360.344	12.97
360.555	76.46
360.766	15.02
360.977	-1.37
361.189	96.94
361.4	55.98
361.611	2.73
361.823	-1.37
362.034	19.11
362.245	6.83
362.456	-9.56
362.667	53.93
362.879	68.27
363.09	86.7
363.301	39.59
363.512	74.41
363.723	41.64
363.935	8.87
364.146	39.59
364.357	-1.37
364.568	35.5
364.779	-3.41
364.99	68.27
365.201	70.31
365.412	21.16
365.623	-32.08
365.834	107.18
366.045	-7.51
366.256	51.88
366.467	64.17
366.678	64.17
366.889	25.26
367.1	80.55
367.311	70.31
367.522	41.64
367.733	98.99
367.944	15.02
368.155	45.74
368.366	31.4
368.577	98.99
368.788	86.7
368.999	121.51
369.209	35.5
369.42	-15.7
369.631	92.84
369.842	51.88
370.053	105.13
370.264	-23.89
370.474	27.31
370.685	64.17
370.896	51.88
371.107	47.79
371.317	94.89
371.528	127.66
371.739	53.93
371.95	33.45
372.16	27.31
372.371	8.87
372.582	58.03
372.792	68.27
373.003	23.21
373.214	-25.94
373.424	25.26
373.635	82.6
373.846	84.65
374.056	76.46
374.267	51.88
374.477	21.16
374.688	49.83
374.898	58.03
375.109	49.83
375.319	17.07
375.53	35.5
375.74	17.07
375.951	62.12
376.161	58.03
376.372	41.64
376.582	10.92
376.793	98.99
377.003	41.64
377.214	47.79
377.424	88.75
377.635	82.6
377.845	33.45
378.055	90.79
378.266	64.17
378.476	41.64
378.686	86.7
378.897	37.55
379.107	45.74
379.317	33.45
379.528	21.16
379.738	88.75
379.948	86.7
380.158	76.46
380.369	35.5
380.579	41.64
380.789	62.12
380.999	78.51
381.21	27.31
381.42	19.11
381.63	8.87
381.84	23.21
382.05	35.5
382.261	49.83
382.471	55.98
382.681	10.92
382.891	25.26
383.101	58.03
383.311	31.4
383.521	33.45
383.731	98.99
383.941	78.51
384.151	103.08
384.361	2.73
384.571	-7.51
384.781	51.88
384.991	58.03
385.201	154.28
385.411	113.32
385.621	37.55
385.831	90.79
386.041	58.03
386.251	25.26
386.461	148.14
386.671	70.31
386.881	141.99
387.091	62.12
387.301	123.56
387.511	35.5
387.72	45.74
387.93	86.7
388.14	-1.37
388.35	21.16
388.56	29.35
388.769	41.64
388.979	74.41
389.189	88.75
389.399	82.6
389.609	53.93
389.818	98.99
390.028	-30.04
390.238	105.13
390.447	78.51
390.657	76.46
390.867	88.75
391.076	29.35
391.286	35.5
391.496	125.61
391.705	31.4
391.915	80.55
392.125	88.75
392.334	41.64
392.544	78.51
392.753	64.17
392.963	29.35
393.172	-9.56
393.382	64.17
393.591	47.79
393.801	80.55
394.01	119.46
394.22	58.03
394.429	70.31
394.639	35.5
394.848	62.12
395.058	156.33
395.267	92.84
395.477	115.37
395.686	166.57
395.895	74.41
396.105	137.9
396.314	49.83
396.524	51.88
396.733	23.21
396.942	111.27
397.152	84.65
397.361	92.84
397.57	90.79
397.78	60.07
397.989	-21.85
398.198	98.99
398.407	92.84
398.617	43.69
398.826	117.42
399.035	82.6
399.244	55.98
399.453	70.31
399.663	72.36
399.872	82.6
400.081	92.84
400.29	123.56
400.499	107.18
400.708	135.85
400.917	127.66
401.127	47.79
401.336	19.11
401.545	96.94
401.754	96.94
401.963	123.56
402.172	129.7
402.381	123.56
402.59	160.42
402.799	66.22
403.008	78.51
403.217	152.23
403.426	131.75
403.635	162.47
403.844	133.8
404.053	131.75
404.262	111.27
404.471	96.94
404.68	98.99
404.888	160.42
405.097	94.89
405.306	117.42
405.515	111.27
405.724	109.22
405.933	94.89
406.142	113.32
406.35	187.05
406.559	135.85
406.768	168.62
406.977	133.8
407.185	103.08
407.394	158.38
407.603	121.51
407.812	182.95
408.02	260.77
408.229	248.49
408.438	266.92
408.646	107.18
408.855	146.09
409.064	193.19
409.272	228.01
409.481	248.49
409.69	223.91
409.898	166.57
410.107	262.82
410.315	238.25
410.524	279.21
410.733	219.82
410.941	320.17
411.15	285.35
411.358	342.69
411.567	279.21
411.775	381.6
411.984	295.59
412.192	307.88
412.401	305.83
412.609	361.13
412.818	441
413.026	426.66
413.234	451.24
413.443	375.46
413.651	352.93
413.86	457.38
414.068	457.38
414.276	488.1
414.485	510.63
414.693	477.86
414.901	510.63
415.11	588.45
415.318	500.39
415.526	438.95
415.734	565.92
415.943	514.72
416.151	613.03
416.359	600.74
416.567	637.6
416.776	666.27
416.984	756.38
417.192	729.76
417.4	692.9
417.608	686.75
417.817	768.67
418.025	819.87
418.233	873.12
418.441	828.06
418.649	826.01
418.857	981.66
419.065	952.99
419.273	838.3
419.481	1016.48
419.689	1104.54
419.897	1133.21
420.105	1122.97
420.313	1200.79
420.521	1190.55
420.729	1182.36
420.937	1251.99
421.145	1213.08
421.353	1372.82
421.561	1434.26
421.769	1450.64
421.977	1516.18
422.185	1374.87
422.393	1608.34
422.601	1653.39
422.809	1667.73
423.017	1708.69
423.224	1780.37
423.432	1854.09
423.64	1835.66
423.848	2015.88
424.056	1956.49
424.263	2159.24
424.471	2093.71
424.679	2165.39
424.887	2245.26
425.094	2269.83
425.302	2361.99
425.51	2402.95
425.718	2525.83
425.925	2568.84
426.133	2554.5
426.341	2765.44
426.548	2859.65
426.756	2869.89
426.964	2914.94
427.171	3095.16
427.379	3293.82
427.586	3232.38
427.794	3291.77
428.001	3506.81
428.209	3619.44
428.417	3560.05
428.624	3928.69
428.832	3766.9
429.039	3830.38
429.247	3887.73
429.454	4330.09
429.662	4401.77
429.869	4217.45
430.076	4512.36
430.284	4409.96
430.491	4733.54
430.699	4833.89
430.906	4866.66
431.114	4780.64
431.321	5194.33
431.528	5120.6
431.736	5347.93
431.943	5696.08
432.15	5651.03
432.358	5655.12
432.565	6054.48
432.772	5759.57
432.979	6351.43
433.187	6402.63
433.394	6466.12
433.601	6871.62
433.808	6949.44
434.016	6726.21
434.223	7123.52
434.43	7592.5
434.637	7424.57
434.844	7799.35
435.052	8061.49
435.259	7901.75
435.466	8135.21
435.673	7967.28
435.88	8526.38
436.087	8747.56
436.294	8921.63
436.501	8864.29
436.708	9001.51
436.915	9200.16
437.122	9654.81
437.329	9583.13
437.537	10058.26
437.743	9992.72
437.95	9865.75
438.157	10557.96
438.364	10805.77
438.571	10813.96
438.778	10977.8
438.985	12198.38
439.192	11493.88
439.399	11827.7
439.606	11590.14
439.813	12347.89
440.02	13117.92
440.227	12882.41
440.433	12706.28
440.64	12931.56
440.847	12906.98
441.054	13267.42
441.261	14387.66
441.467	14084.56
441.674	14461.39
441.881	14895.56
442.088	14961.09
442.294	14885.32
442.501	15141.32
442.708	15391.17
442.914	16017.85
443.121	16699.82
443.328	16232.88
443.534	17471.9
443.741	16863.66
443.948	17086.89
444.154	18108.82
444.361	18100.63
444.568	18063.77
444.774	18104.73
444.981	18155.93
445.187	18891.15
445.394	19698.05
445.6	19147.14
445.807	21006.7
446.013	20259.19
446.22	20578.67
446.426	21401.96
446.633	21528.93
446.839	22450.52
447.046	21483.87
447.252	22956.36
447.459	22905.17
447.665	22516.05
447.871	23925.05
448.078	24754.48
448.284	23755.07
448.491	24222.01
448.697	25305.38
448.903	25567.52
449.11	25671.97
449.316	25403.69
449.522	25897.25
449.728	26401.05
449.935	26700.05
450.141	26489.11
450.347	27359.5
450.553	26372.38
450.76	26712.34
450.966	27750.66
451.172	27353.35
451.378	27977.98
451.584	27275.53
451.791	28297.47
451.997	28264.7
452.203	28842.23
452.409	28424.44
452.615	28614.9
452.821	27339.02
453.027	27111.69
453.233	28717.3
453.44	27787.52
453.646	27922.69
453.852	27601.16
454.058	28496.12
454.264	27787.52
454.47	28338.43
454.676	27377.93
454.882	28424.44
455.088	25743.65
455.294	26399
455.5	26634.52
455.705	26949.9
455.911	26280.22
456.117	25592.1
456.323	25041.2
456.529	23939.39
456.735	24992.05
456.941	24189.24
457.147	23777.6
457.352	22939.98
457.558	22870.35
457.764	22761.81
457.97	22542.67
458.176	22030.68
458.381	21911.9
458.587	20900.2
458.793	20732.27
458.999	20023.67
459.204	21090.66
459.41	20490.61
459.616	19333.51
459.821	19349.89
460.027	19245.44
460.233	18999.69
460.438	17840.54
460.644	18076.05
460.85	17512.86
461.055	17113.51
461.261	16957.86
461.466	15880.63
461.672	15180.23
461.878	16429.49
462.083	15231.43
462.289	15002.05
462.494	14967.24
462.7	14361.04
462.905	13717.98
463.111	14254.55
463.316	14383.57
463.522	13933.01
463.727	14053.84
463.932	14010.84
464.138	13949.4
464.343	13941.21
464.549	13474.27
464.754	14082.52
464.959	13965.78
465.165	13615.58
465.37	13205.99
465.575	12902.89
465.781	13392.35
465.986	13591
466.191	13031.91
466.397	12567.02
466.602	12145.14
466.807	12671.47
467.012	12591.59
467.218	12577.26
467.423	12397.04
467.628	12351.98
467.833	12843.49
468.038	12339.69
468.244	12200.43
