Data from USB4F104151__79__12-27-52-550.txt Node

Date: Fri Mar 14 12:27:52 EDT 2025
User: louis
Spectrometer: USB4F10415
Trigger mode: 4
Integration Time (sec): 2.000000E-2
Scans to average: 1
Electric dark correction enabled: true
Nonlinearity correction enabled: false
Boxcar width: 0
XAxis mode: Wavelengths
Number of Pixels in Spectrum: 3648
>>>>>Begin Spectral Data<<<<<
178.204	-112.64
178.424	-112.64
178.644	-112.64
178.864	-131.07
179.084	-100.35
179.304	0
179.524	-6.14
179.744	32.77
179.964	40.96
180.184	36.86
180.404	81.92
180.624	-12.29
180.844	-77.82
181.064	-26.62
181.283	-2.05
181.503	-6.14
181.723	-61.44
181.943	12.29
182.163	75.77
182.383	51.2
182.602	10.24
182.822	57.34
183.042	38.91
183.262	-34.82
183.482	-10.24
183.701	6.14
183.921	-65.54
184.141	-20.48
184.361	10.24
184.58	-32.77
184.8	-12.29
185.02	6.14
185.239	43.01
185.459	-45.06
185.679	-2.05
185.898	40.96
186.118	53.25
186.338	24.58
186.557	20.48
186.777	-55.3
186.997	-14.34
187.216	53.25
187.436	59.39
187.655	20.48
187.875	65.53
188.095	-38.91
188.314	-18.43
188.534	16.38
188.753	-10.24
188.973	28.67
189.192	77.82
189.412	45.06
189.631	-32.77
189.851	14.34
190.07	18.43
190.29	47.1
190.509	-16.38
190.729	20.48
190.948	88.06
191.168	67.58
191.387	14.34
191.607	-10.24
191.826	-8.19
192.045	-34.82
192.265	47.1
192.484	-24.58
192.704	71.68
192.923	-38.91
193.142	69.63
193.362	16.38
193.581	16.38
193.8	45.06
194.02	63.49
194.239	34.82
194.458	10.24
194.678	-18.43
194.897	-45.06
195.116	-51.2
195.335	-51.2
195.555	20.48
195.774	-30.72
195.993	-2.05
196.212	10.24
196.432	79.87
196.651	4.1
196.87	45.06
197.089	106.49
197.308	61.44
197.528	-18.43
197.747	-14.34
197.966	-59.39
198.185	63.49
198.404	-24.58
198.623	4.1
198.842	-10.24
199.062	49.15
199.281	61.44
199.5	57.34
199.719	-22.53
199.938	14.34
200.157	61.44
200.376	0
200.595	-6.14
200.814	36.86
201.033	-14.34
201.252	24.58
201.471	22.53
201.69	49.15
201.909	47.1
202.128	0
202.347	0
202.566	26.62
202.785	-26.62
203.004	14.34
203.223	18.43
203.442	18.43
203.661	83.97
203.879	-30.72
204.098	61.44
204.317	-20.48
204.536	63.49
204.755	10.24
204.974	34.82
205.193	14.34
205.411	-28.67
205.63	-16.38
205.849	96.25
206.068	43.01
206.287	-30.72
206.505	-34.82
206.724	47.1
206.943	12.29
207.162	53.25
207.381	12.29
207.599	8.19
207.818	49.15
208.037	40.96
208.255	-20.48
208.474	67.58
208.693	53.25
208.911	12.29
209.13	65.53
209.349	49.15
209.567	67.58
209.786	100.35
210.005	8.19
210.223	26.62
210.442	-45.06
210.661	12.29
210.879	-6.14
211.098	-28.67
211.316	-14.34
211.535	77.82
211.753	10.24
211.972	100.35
212.191	32.77
212.409	8.19
212.628	73.73
212.846	16.38
213.065	0
213.283	67.58
213.502	18.43
213.72	67.58
213.938	2.05
214.157	28.67
214.375	-6.14
214.594	69.63
214.812	49.15
215.031	-2.05
215.249	-24.58
215.467	57.34
215.686	69.63
215.904	-49.15
216.122	-43.01
216.341	43.01
216.559	24.58
216.778	38.91
216.996	14.34
217.214	-22.53
217.432	-38.91
217.651	69.63
217.869	47.1
218.087	69.63
218.306	8.19
218.524	57.34
218.742	-16.38
218.96	61.44
219.179	30.72
219.397	6.14
219.615	63.49
219.833	36.86
220.051	-38.91
220.27	34.82
220.488	36.86
220.706	-18.43
220.924	16.38
221.142	6.14
221.36	10.24
221.578	65.53
221.796	0
222.015	-28.67
222.233	-38.91
222.451	43.01
222.669	-26.62
222.887	-28.67
223.105	-47.1
223.323	30.72
223.541	-38.91
223.759	20.48
223.977	-75.77
224.195	47.1
224.413	51.2
224.631	2.05
224.849	30.72
225.067	77.82
225.285	10.24
225.503	26.62
225.721	-69.63
225.939	53.25
226.157	-10.24
226.375	94.21
226.592	2.05
226.81	12.29
227.028	-28.67
227.246	96.25
227.464	53.25
227.682	16.38
227.9	-12.29
228.117	18.43
228.335	16.38
228.553	-49.15
228.771	16.38
228.989	83.97
229.206	81.92
229.424	40.96
229.642	36.86
229.86	59.39
230.077	26.62
230.295	30.72
230.513	4.1
230.731	-30.72
230.948	24.58
231.166	45.06
231.384	-28.67
231.601	65.53
231.819	69.63
232.037	-32.77
232.254	-16.38
232.472	73.73
232.689	32.77
232.907	-65.54
233.125	34.82
233.342	14.34
233.56	-8.19
233.777	40.96
233.995	-18.43
234.213	28.67
234.43	4.1
234.648	-2.05
234.865	-73.73
235.083	26.62
235.3	-8.19
235.518	10.24
235.735	36.86
235.953	26.62
236.17	71.68
236.388	43.01
236.605	16.38
236.822	100.35
237.04	47.1
237.257	20.48
237.475	12.29
237.692	-36.86
237.909	-10.24
238.127	0
238.344	110.59
238.562	-8.19
238.779	26.62
238.996	61.44
239.214	34.82
239.431	-2.05
239.648	-75.77
239.865	71.68
240.083	49.15
240.3	108.54
240.517	49.15
240.735	18.43
240.952	-26.62
241.169	-30.72
241.386	47.1
241.603	-20.48
241.821	-38.91
242.038	61.44
242.255	18.43
242.472	40.96
242.689	-14.34
242.907	51.2
243.124	14.34
243.341	16.38
243.558	10.24
243.775	61.44
243.992	-40.96
244.209	6.14
244.426	36.86
244.643	6.14
244.86	6.14
245.078	-6.14
245.295	-79.87
245.512	118.78
245.729	-61.44
245.946	43.01
246.163	4.1
246.38	59.39
246.597	43.01
246.814	43.01
247.031	-28.67
247.248	114.69
247.464	10.24
247.681	65.53
247.898	-71.68
248.115	49.15
248.332	28.67
248.549	53.25
248.766	6.14
248.983	36.86
249.2	-14.34
249.417	14.34
249.633	36.86
249.85	-30.72
250.067	18.43
250.284	36.86
250.501	36.86
250.717	61.44
250.934	28.67
251.151	18.43
251.368	20.48
251.585	108.54
251.801	10.24
252.018	-34.82
252.235	24.58
252.451	4.1
252.668	75.77
252.885	40.96
253.102	12.29
253.318	-14.34
253.535	12.29
253.752	63.49
253.968	-34.82
254.185	-34.82
254.401	86.01
254.618	55.3
254.835	34.82
255.051	100.35
255.268	14.34
255.484	-18.43
255.701	43.01
255.917	32.77
256.134	57.34
256.351	32.77
256.567	24.58
256.784	75.77
257	30.72
257.217	34.82
257.433	65.53
257.65	-36.86
257.866	-32.77
258.082	73.73
258.299	-45.06
258.515	-8.19
258.732	-38.91
258.948	-2.05
259.165	24.58
259.381	-45.06
259.597	8.19
259.814	0
260.03	-16.38
260.246	22.53
260.463	69.63
260.679	32.77
260.895	10.24
261.112	38.91
261.328	53.25
261.544	-2.05
261.761	4.1
261.977	28.67
262.193	16.38
262.409	49.15
262.626	47.1
262.842	30.72
263.058	-24.58
263.274	-22.53
263.49	26.62
263.707	22.53
263.923	47.1
264.139	-28.67
264.355	18.43
264.571	108.54
264.787	18.43
265.004	90.11
265.22	-34.82
265.436	16.38
265.652	-32.77
265.868	92.16
266.084	-65.54
266.3	-12.29
266.516	-63.49
266.732	30.72
266.948	14.34
267.164	36.86
267.38	102.4
267.596	-53.25
267.812	20.48
268.028	57.34
268.244	49.15
268.46	8.19
268.676	112.64
268.892	40.96
269.108	16.38
269.324	-2.05
269.54	-18.43
269.756	4.1
269.972	22.53
270.188	8.19
270.403	-38.91
270.619	4.1
270.835	-32.77
271.051	77.82
271.267	-36.86
271.483	61.44
271.698	40.96
271.914	55.3
272.13	53.25
272.346	4.1
272.562	59.39
272.777	59.39
272.993	18.43
273.209	12.29
273.425	57.34
273.64	0
273.856	61.44
274.072	20.48
274.287	-12.29
274.503	-2.05
274.719	24.58
274.934	38.91
275.15	-24.58
275.366	61.44
275.581	-43.01
275.797	12.29
276.012	-55.3
276.228	36.86
276.444	38.91
276.659	32.77
276.875	22.53
277.09	53.25
277.306	26.62
277.521	16.38
277.737	36.86
277.952	-20.48
278.168	53.25
278.383	61.44
278.599	43.01
278.814	43.01
279.03	0
279.245	94.21
279.461	45.06
279.676	-6.14
279.892	47.1
280.107	-69.63
280.322	6.14
280.538	75.77
280.753	-12.29
280.969	12.29
281.184	73.73
281.399	94.21
281.615	10.24
281.83	77.82
282.045	-12.29
282.26	30.72
282.476	51.2
282.691	8.19
282.906	34.82
283.122	20.48
283.337	63.49
283.552	18.43
283.767	8.19
283.983	53.25
284.198	16.38
284.413	63.49
284.628	14.34
284.843	30.72
285.058	57.34
285.274	71.68
285.489	16.38
285.704	51.2
285.919	-18.43
286.134	12.29
286.349	51.2
286.564	30.72
286.779	-12.29
286.995	57.34
287.21	10.24
287.425	106.49
287.64	45.06
287.855	75.77
288.07	34.82
288.285	106.49
288.5	-32.77
288.715	69.63
288.93	40.96
289.145	-69.63
289.36	45.06
289.575	-53.25
289.79	-6.14
290.004	12.29
290.219	116.73
290.434	47.1
290.649	-30.72
290.864	34.82
291.079	8.19
291.294	18.43
291.509	-49.15
291.724	-12.29
291.938	0
292.153	-75.77
292.368	-36.86
292.583	-8.19
292.798	16.38
293.012	88.06
293.227	-26.62
293.442	24.58
293.657	16.38
293.871	18.43
294.086	2.05
294.301	73.73
294.516	18.43
294.73	79.87
294.945	28.67
295.16	-47.1
295.374	83.97
295.589	83.97
295.804	16.38
296.018	18.43
296.233	61.44
296.447	45.06
296.662	83.97
296.877	53.25
297.091	2.05
297.306	-4.1
297.52	38.91
297.735	22.53
297.949	75.77
298.164	67.58
298.378	59.39
298.593	-10.24
298.807	36.86
299.022	20.48
299.236	57.34
299.451	4.1
299.665	49.15
299.88	18.43
300.094	-2.05
300.309	-12.29
300.523	36.86
300.737	14.34
300.952	81.92
301.166	67.58
301.381	20.48
301.595	67.58
301.809	20.48
302.024	61.44
302.238	24.58
302.452	75.77
302.667	69.63
302.881	75.77
303.095	67.58
303.309	49.15
303.524	-8.19
303.738	90.11
303.952	-10.24
304.166	34.82
304.381	-34.82
304.595	-12.29
304.809	4.1
305.023	34.82
305.237	55.3
305.452	30.72
305.666	73.73
305.88	45.06
306.094	12.29
306.308	45.06
306.522	6.14
306.736	20.48
306.95	-12.29
307.164	34.82
307.379	-18.43
307.593	-18.43
307.807	14.34
308.021	30.72
308.235	4.1
308.449	30.72
308.663	14.34
308.877	-45.06
309.091	8.19
309.305	4.1
309.519	28.67
309.733	118.78
309.947	-32.77
310.161	6.14
310.374	65.53
310.588	110.59
310.802	8.19
311.016	-10.24
311.23	-30.72
311.444	24.58
311.658	18.43
311.872	0
312.085	-14.34
312.299	67.58
312.513	92.16
312.727	-12.29
312.941	36.86
313.154	63.49
313.368	38.91
313.582	26.62
313.796	38.91
314.009	77.82
314.223	34.82
314.437	61.44
314.651	61.44
314.864	-61.44
315.078	-20.48
315.292	4.1
315.505	53.25
315.719	-34.82
315.933	112.64
316.146	65.53
316.36	-36.86
316.573	83.97
316.787	-28.67
317.001	-6.14
317.214	53.25
317.428	55.3
317.641	-24.58
317.855	40.96
318.068	83.97
318.282	26.62
318.495	98.3
318.709	55.3
318.922	61.44
319.136	116.73
319.349	12.29
319.563	10.24
319.776	71.68
319.99	-49.15
320.203	92.16
320.417	-12.29
320.63	36.86
320.843	71.68
321.057	6.14
321.27	40.96
321.483	51.2
321.697	-2.05
321.91	49.15
322.124	49.15
322.337	26.62
322.55	-8.19
322.763	30.72
322.977	30.72
323.19	-26.62
323.403	-6.14
323.617	32.77
323.83	26.62
324.043	18.43
324.256	79.87
324.469	-10.24
324.683	24.58
324.896	24.58
325.109	77.82
325.322	6.14
325.535	75.77
325.748	73.73
325.962	-2.05
326.175	-16.38
326.388	45.06
326.601	57.34
326.814	18.43
327.027	10.24
327.24	-14.34
327.453	-20.48
327.666	65.53
327.879	18.43
328.092	67.58
328.305	-14.34
328.518	20.48
328.731	38.91
328.944	38.91
329.157	43.01
329.37	36.86
329.583	67.58
329.796	26.62
330.009	0
330.222	63.49
330.435	63.49
330.648	-36.86
330.861	63.49
331.073	26.62
331.286	53.25
331.499	34.82
331.712	12.29
331.925	114.69
332.138	26.62
332.35	65.53
332.563	-16.38
332.776	22.53
332.989	-45.06
333.202	73.73
333.414	-6.14
333.627	83.97
333.84	-12.29
334.053	22.53
334.265	-10.24
334.478	34.82
334.691	22.53
334.903	96.25
335.116	10.24
335.329	49.15
335.541	20.48
335.754	45.06
335.966	-43.01
336.179	47.1
336.392	12.29
336.604	10.24
336.817	36.86
337.029	110.59
337.242	-2.05
337.454	73.73
337.667	8.19
337.88	86.01
338.092	45.06
338.305	45.06
338.517	0
338.729	124.93
338.942	6.14
339.154	-59.39
339.367	86.01
339.579	63.49
339.792	24.58
340.004	28.67
340.217	32.77
340.429	4.1
340.641	59.39
340.854	12.29
341.066	55.3
341.278	-8.19
341.491	-8.19
341.703	32.77
341.915	67.58
342.128	73.73
342.34	30.72
342.552	22.53
342.764	65.53
342.977	45.06
343.189	38.91
343.401	26.62
343.613	-22.53
343.826	-14.34
344.038	-6.14
344.25	30.72
344.462	32.77
344.674	0
344.886	51.2
345.099	-16.38
345.311	73.73
345.523	10.24
345.735	-28.67
345.947	75.77
346.159	45.06
346.371	81.92
346.583	71.68
346.795	47.1
347.007	30.72
347.219	22.53
347.431	81.92
347.643	57.34
347.855	34.82
348.067	133.12
348.279	-4.1
348.491	-30.72
348.703	86.01
348.915	65.53
349.127	-6.14
349.339	14.34
349.551	0
349.763	94.21
349.975	47.1
350.187	79.87
350.399	-36.86
350.61	18.43
350.822	4.1
351.034	92.16
351.246	32.77
351.458	55.3
351.669	36.86
351.881	20.48
352.093	16.38
352.305	-16.38
352.517	0
352.728	94.21
352.94	36.86
353.152	77.82
353.363	43.01
353.575	32.77
353.787	34.82
353.999	98.3
354.21	104.45
354.422	63.49
354.633	-2.05
354.845	-30.72
355.057	49.15
355.268	53.25
355.48	10.24
355.692	47.1
355.903	8.19
356.115	77.82
356.326	77.82
356.538	57.34
356.749	96.25
356.961	47.1
357.172	-49.15
357.384	-8.19
357.595	75.77
357.807	83.97
358.018	30.72
358.23	18.43
358.441	69.63
358.653	2.05
358.864	-26.62
359.075	63.49
359.287	71.68
359.498	20.48
359.709	45.06
359.921	43.01
360.132	6.14
360.344	32.77
360.555	53.25
360.766	36.86
360.977	30.72
361.189	81.92
361.4	81.92
361.611	10.24
361.823	6.14
362.034	28.67
362.245	36.86
362.456	104.45
362.667	49.15
362.879	75.77
363.09	88.06
363.301	36.86
363.512	4.1
363.723	38.91
363.935	65.53
364.146	-10.24
364.357	28.67
364.568	32.77
364.779	-65.54
364.99	73.73
365.201	-43.01
365.412	45.06
365.623	10.24
365.834	51.2
366.045	-4.1
366.256	38.91
366.467	77.82
366.678	36.86
366.889	53.25
367.1	69.63
367.311	40.96
367.522	2.05
367.733	51.2
367.944	92.16
368.155	28.67
368.366	53.25
368.577	65.53
368.788	-14.34
368.999	-28.67
369.209	32.77
369.42	61.44
369.631	96.25
369.842	45.06
370.053	4.1
370.264	55.3
370.474	0
370.685	53.25
370.896	88.06
371.107	81.92
371.317	22.53
371.528	24.58
371.739	116.73
371.95	53.25
372.16	104.45
372.371	47.1
372.582	36.86
372.792	86.01
373.003	47.1
373.214	30.72
373.424	118.78
373.635	0
373.846	75.77
374.056	4.1
374.267	40.96
374.477	79.87
374.688	-28.67
374.898	24.58
375.109	57.34
375.319	71.68
375.53	63.49
375.74	8.19
375.951	-12.29
376.161	104.45
376.372	69.63
376.582	55.3
376.793	55.3
377.003	34.82
377.214	18.43
377.424	71.68
377.635	32.77
377.845	71.68
378.055	79.87
378.266	92.16
378.476	20.48
378.686	73.73
378.897	67.58
379.107	49.15
379.317	16.38
379.528	6.14
379.738	63.49
379.948	-2.05
380.158	131.07
380.369	67.58
380.579	98.3
380.789	0
380.999	77.82
381.21	8.19
381.42	92.16
381.63	51.2
381.84	75.77
382.05	63.49
382.261	63.49
382.471	100.35
382.681	34.82
382.891	59.39
383.101	-8.19
383.311	-22.53
383.521	141.31
383.731	43.01
383.941	73.73
384.151	-49.15
384.361	61.44
384.571	67.58
384.781	-2.05
384.991	92.16
385.201	102.4
385.411	43.01
385.621	86.01
385.831	-6.14
386.041	100.35
386.251	61.44
386.461	86.01
386.671	-2.05
386.881	-18.43
387.091	83.97
387.301	118.78
387.511	-4.1
387.72	88.06
387.93	88.06
388.14	4.1
388.35	26.62
388.56	67.58
388.769	92.16
388.979	81.92
389.189	59.39
389.399	65.53
389.609	30.72
389.818	147.45
390.028	90.11
390.238	40.96
390.447	-2.05
390.657	145.41
390.867	26.62
391.076	59.39
391.286	43.01
391.496	90.11
391.705	49.15
391.915	79.87
392.125	69.63
392.334	40.96
392.544	40.96
392.753	65.53
392.963	49.15
393.172	16.38
393.382	106.49
393.591	118.78
393.801	53.25
394.01	92.16
394.22	43.01
394.429	43.01
394.639	45.06
394.848	100.35
395.058	98.3
395.267	63.49
395.477	88.06
395.686	61.44
395.895	71.68
396.105	92.16
396.314	63.49
396.524	126.97
396.733	49.15
396.942	36.86
397.152	79.87
397.361	59.39
397.57	77.82
397.78	79.87
397.989	112.64
398.198	139.26
398.407	139.26
398.617	122.88
398.826	67.58
399.035	53.25
399.244	174.08
399.453	137.21
399.663	77.82
399.872	96.25
400.081	135.17
400.29	73.73
400.499	32.77
400.708	133.12
400.917	102.4
401.127	110.59
401.336	26.62
401.545	100.35
401.754	151.55
401.963	79.87
402.172	145.41
402.381	106.49
402.59	55.3
402.799	104.45
403.008	145.41
403.217	92.16
403.426	137.21
403.635	102.4
403.844	108.54
404.053	163.84
404.262	118.78
404.471	116.73
404.68	186.37
404.888	151.55
405.097	155.65
405.306	192.51
405.515	153.6
405.724	198.65
405.933	147.45
406.142	165.89
406.35	178.17
406.559	219.13
406.768	225.28
406.977	174.08
407.185	190.46
407.394	174.08
407.603	180.22
407.812	215.04
408.02	155.65
408.229	204.8
408.438	268.28
408.646	245.76
408.855	225.28
409.064	299
409.272	174.08
409.481	192.51
409.69	192.51
409.898	264.19
410.107	356.35
410.315	344.06
410.524	339.96
410.733	258.04
410.941	387.07
411.15	391.16
411.358	366.59
411.567	356.35
411.775	421.88
411.984	374.78
412.192	423.93
412.401	397.31
412.609	438.27
412.818	491.51
413.026	485.37
413.234	483.32
413.443	526.33
413.651	575.48
413.86	526.33
414.068	614.39
414.276	653.3
414.485	610.29
414.693	604.15
414.901	794.61
415.11	798.71
415.318	727.03
415.526	671.73
415.734	700.41
415.943	729.08
416.151	774.13
416.359	808.95
416.567	835.57
416.776	907.25
416.984	948.21
417.192	978.93
417.4	933.87
417.608	935.92
417.817	1118.19
418.025	1134.57
418.233	1198.06
418.441	1212.4
418.649	1259.5
418.857	1366
419.065	1298.41
419.273	1325.04
419.481	1329.13
419.689	1359.85
419.897	1507.3
420.105	1482.73
420.313	1626.09
420.521	1605.61
420.729	1638.38
420.937	1632.23
421.145	1769.44
421.353	1824.74
421.561	1927.14
421.769	2002.91
421.977	2078.69
422.185	2050.02
422.393	2133.98
422.601	2293.72
422.809	2324.44
423.017	2269.15
423.224	2510.81
423.432	2506.71
423.64	2416.6
423.848	2703.32
424.056	2635.74
424.263	2930.64
424.471	2858.96
424.679	2910.16
424.887	3069.91
425.094	3176.4
425.302	3153.87
425.51	3289.04
425.718	3340.24
425.925	3499.98
426.133	3686.34
426.341	3639.24
426.548	3860.42
426.756	3889.09
426.964	4093.89
427.171	4224.96
427.379	4331.45
427.586	4429.76
427.794	4683.7
428.001	4779.96
428.209	4851.64
428.417	5013.43
428.624	5263.28
428.832	5265.33
429.039	5121.97
429.247	5353.39
429.454	5750.7
429.662	6168.48
429.869	5892.01
430.076	6182.82
430.284	5992.36
430.491	6295.46
430.699	6590.36
430.906	6766.49
431.114	6723.48
431.321	6946.71
431.528	6983.57
431.736	7491.47
431.943	7880.58
432.15	7659.4
432.358	7784.33
432.565	8191.87
432.772	8189.83
432.979	8314.75
433.187	8660.86
433.394	8654.72
433.601	9363.31
433.808	9521.01
434.016	9377.65
434.223	9707.37
434.43	10217.32
434.637	10037.09
434.844	10588
435.052	10913.63
435.259	10860.38
435.466	11145.05
435.673	10762.08
435.88	11614.03
436.087	12013.38
436.294	12154.69
436.501	12109.64
436.708	12193.61
436.915	12605.25
437.122	13139.77
437.329	13088.57
437.537	13455.15
437.743	13864.75
437.95	13811.5
438.157	14479.14
438.364	15179.54
438.571	14913.31
438.778	14708.51
438.985	16185.1
439.192	15681.3
439.399	16264.97
439.606	15789.84
439.813	16895.74
440.02	17651.44
440.227	17389.3
440.433	17374.97
440.64	17819.38
440.847	18011.89
441.054	18202.35
441.261	19562.2
441.467	19431.13
441.674	19562.2
441.881	20418.25
442.088	20213.45
442.294	20156.11
442.501	20475.59
442.708	21257.92
442.914	21769.91
443.121	23140
443.328	22181.55
443.534	24094.35
443.741	23301.79
443.948	23041.7
444.154	24858.24
444.361	24487.56
444.568	24628.87
444.774	24934.02
444.981	24979.07
445.187	25570.94
445.394	26771.05
445.6	26549.87
445.807	29277.76
446.013	27559.52
446.22	28257.87
446.426	29322.82
446.633	29873.72
446.839	30271.03
447.046	29429.31
447.252	30926.38
447.459	31069.73
447.665	30897.7
447.871	32609.81
448.078	33703.42
448.284	32341.52
448.491	33148.42
448.697	34461.17
448.903	34825.71
449.11	35286.5
449.316	34887.15
449.522	34866.67
449.728	36021.72
449.935	36169.18
450.141	36210.14
450.347	37131.72
450.553	35948
450.76	36650.45
450.966	37567.94
451.172	37316.04
451.378	38462.9
451.584	37447.11
451.791	37924.29
451.997	38045.12
452.203	38864.3
452.409	39255.46
452.615	38471.09
452.821	37516.74
453.027	36615.63
453.233	39136.68
453.44	37586.37
453.646	38020.54
453.852	37914.05
454.058	38802.86
454.264	37373.38
454.47	38196.67
454.676	37041.61
454.882	38591.92
455.088	35272.17
455.294	35911.13
455.5	36167.13
455.705	36965.84
455.911	35245.54
456.117	34604.53
456.323	34051.58
456.529	32534.03
456.735	33791.48
456.941	33263.11
457.147	32304.66
457.352	31407.65
457.558	31100.45
457.764	31131.17
457.97	30604.84
458.176	29974.07
458.381	29593.15
458.587	28538.44
458.793	28206.67
458.999	27016.8
459.204	28980.81
459.41	27833.94
459.616	26232.43
459.821	26228.34
460.027	26232.43
460.233	25585.27
460.438	24280.72
460.644	24364.68
460.85	23299.74
461.055	23107.23
461.261	23117.47
461.466	21305.02
461.672	20844.23
461.878	22400.68
462.083	20874.95
462.289	20453.06
462.494	20401.86
462.7	19308.25
462.905	18624.23
463.111	19672.79
463.316	19597.01
463.522	19183.32
463.727	19375.83
463.932	19062.49
464.138	18984.67
464.343	19007.2
464.549	18255.59
464.754	19066.59
464.959	18947.81
465.165	18714.34
465.37	18147.05
465.575	17460.98
465.781	18345.7
465.986	18151.15
466.191	17725.17
466.397	17377.01
466.602	16385.8
466.807	17108.73
467.012	17170.17
467.218	16926.46
467.423	16772.86
467.628	16862.97
467.833	17671.92
