Data from USB4F104151__25__12-27-10-616.txt Node

Date: Fri Mar 14 12:27:10 EDT 2025
User: louis
Spectrometer: USB4F10415
Trigger mode: 4
Integration Time (sec): 2.000000E-2
Scans to average: 1
Electric dark correction enabled: true
Nonlinearity correction enabled: false
Boxcar width: 0
XAxis mode: Wavelengths
Number of Pixels in Spectrum: 3648
>>>>>Begin Spectral Data<<<<<
178.204	-55.47
178.424	-55.47
178.644	-55.47
178.864	-16.55
179.084	-26.79
179.304	-98.47
179.524	34.64
179.744	36.69
179.964	55.12
180.184	-53.42
180.404	10.07
180.624	1.88
180.844	-41.13
181.064	-41.13
181.283	30.55
181.503	-51.37
181.723	116.56
181.943	8.02
182.163	65.36
182.383	48.98
182.602	14.17
182.822	-18.6
183.042	40.79
183.262	-2.22
183.482	1.88
183.701	26.45
183.921	-22.7
184.141	-34.99
184.361	57.17
184.58	38.74
184.8	-28.84
185.02	-12.46
185.239	53.08
185.459	-104.62
185.679	57.17
185.898	91.99
186.118	28.5
186.338	-4.27
186.557	24.4
186.777	10.07
186.997	-75.95
187.216	61.27
187.436	77.65
187.655	30.55
187.875	16.21
188.095	-6.31
188.314	69.46
188.534	110.42
188.753	63.32
188.973	32.6
189.192	5.97
189.412	5.97
189.631	14.17
189.851	-47.27
190.07	46.93
190.29	38.74
190.509	-28.84
190.729	-26.79
190.948	46.93
191.168	81.75
191.387	75.6
191.607	32.6
191.826	3.93
192.045	-16.55
192.265	79.7
192.484	3.93
192.704	38.74
192.923	12.12
193.142	55.12
193.362	-49.32
193.581	16.21
193.8	81.75
194.02	48.98
194.239	14.17
194.458	59.22
194.678	-10.41
194.897	16.21
195.116	-59.56
195.335	-6.31
195.555	55.12
195.774	-14.51
195.993	57.17
196.212	-20.65
196.432	-47.27
196.651	36.69
196.87	3.93
197.089	67.41
197.308	12.12
197.528	-12.46
197.747	22.36
197.966	26.45
198.185	79.7
198.404	71.51
198.623	77.65
198.842	51.03
199.062	36.69
199.281	98.13
199.5	20.31
199.719	106.32
199.938	14.17
200.157	100.18
200.376	26.45
200.595	89.94
200.814	122.71
201.033	-22.7
201.252	-10.41
201.471	-4.27
201.69	98.13
201.909	79.7
202.128	87.89
202.347	8.02
202.566	22.36
202.785	87.89
203.004	-47.27
203.223	-22.7
203.442	28.5
203.661	24.4
203.879	36.69
204.098	32.6
204.317	8.02
204.536	34.64
204.755	71.51
204.974	30.55
205.193	53.08
205.411	69.46
205.63	-14.51
205.849	36.69
206.068	77.65
206.287	5.97
206.505	40.79
206.724	12.12
206.943	-43.18
207.162	-22.7
207.381	8.02
207.599	28.5
207.818	-18.6
208.037	-22.7
208.255	28.5
208.474	91.99
208.693	-34.99
208.911	-8.36
209.13	26.45
209.349	-6.31
209.567	61.27
209.786	36.69
210.005	-12.46
210.223	59.22
210.442	-16.55
210.661	38.74
210.879	-28.84
211.098	-22.7
211.316	14.17
211.535	106.32
211.753	51.03
211.972	34.64
212.191	-34.99
212.409	91.99
212.628	14.17
212.846	-90.28
213.065	-49.32
213.283	108.37
213.502	63.32
213.72	-47.27
213.938	-2.22
214.157	63.32
214.375	3.93
214.594	-45.23
214.812	10.07
215.031	-26.79
215.249	-6.31
215.467	-2.22
215.686	96.08
215.904	12.12
216.122	61.27
216.341	63.32
216.559	1.88
216.778	14.17
216.996	71.51
217.214	-4.27
217.432	57.17
217.651	-0.17
217.869	36.69
218.087	26.45
218.306	38.74
218.524	20.31
218.742	-16.55
218.96	1.88
219.179	26.45
219.397	118.61
219.615	104.28
219.833	16.21
220.051	5.97
220.27	38.74
220.488	48.98
220.706	10.07
220.924	40.79
221.142	91.99
221.36	-10.41
221.578	53.08
221.796	-2.22
222.015	-18.6
222.233	36.69
222.451	24.4
222.669	63.32
222.887	44.88
223.105	1.88
223.323	-59.56
223.541	-39.08
223.759	-69.8
223.977	22.36
224.195	110.42
224.413	30.55
224.631	42.84
224.849	28.5
225.067	83.8
225.285	77.65
225.503	120.66
225.721	-61.61
225.939	30.55
226.157	30.55
226.375	112.47
226.592	38.74
226.81	34.64
227.028	8.02
227.246	108.37
227.464	73.56
227.682	1.88
227.9	83.8
228.117	75.6
228.335	26.45
228.553	61.27
228.771	-8.36
228.989	-45.23
229.206	-4.27
229.424	-2.22
229.642	-8.36
229.86	-12.46
230.077	38.74
230.295	8.02
230.513	20.31
230.731	14.17
230.948	38.74
231.166	-8.36
231.384	40.79
231.601	38.74
231.819	79.7
232.037	8.02
232.254	46.93
232.472	36.69
232.689	-0.17
232.907	81.75
233.125	63.32
233.342	71.51
233.56	-10.41
233.777	8.02
233.995	32.6
234.213	120.66
234.43	24.4
234.648	44.88
234.865	1.88
235.083	30.55
235.3	32.6
235.518	102.23
235.735	126.8
235.953	10.07
236.17	10.07
236.388	1.88
236.605	-0.17
236.822	110.42
237.04	28.5
237.257	42.84
237.475	34.64
237.692	118.61
237.909	20.31
238.127	32.6
238.344	-57.51
238.562	175.95
238.779	46.93
238.996	30.55
239.214	20.31
239.431	135
239.648	32.6
239.865	65.36
240.083	46.93
240.3	-6.31
240.517	42.84
240.735	53.08
240.952	75.6
241.169	22.36
241.386	36.69
241.603	26.45
241.821	44.88
242.038	-41.13
242.255	26.45
242.472	-24.75
242.689	48.98
242.907	20.31
243.124	16.21
243.341	44.88
243.558	-84.14
243.775	38.74
243.992	16.21
244.209	18.26
244.426	65.36
244.643	69.46
244.86	8.02
245.078	83.8
245.295	135
245.512	116.56
245.729	53.08
245.946	42.84
246.163	85.84
246.38	14.17
246.597	79.7
246.814	42.84
247.031	81.75
247.248	36.69
247.464	26.45
247.681	46.93
247.898	22.36
248.115	44.88
248.332	22.36
248.549	-47.27
248.766	16.21
248.983	75.6
249.2	24.4
249.417	73.56
249.633	14.17
249.85	30.55
250.067	46.93
250.284	48.98
250.501	24.4
250.717	69.46
250.934	46.93
251.151	-20.65
251.368	12.12
251.585	100.18
251.801	5.97
252.018	34.64
252.235	75.6
252.451	-18.6
252.668	-14.51
252.885	28.5
253.102	38.74
253.318	65.36
253.535	48.98
253.752	5.97
253.968	1.88
254.185	61.27
254.401	1.88
254.618	83.8
254.835	1.88
255.051	51.03
255.268	71.51
255.484	20.31
255.701	32.6
255.917	48.98
256.134	24.4
256.351	61.27
256.567	-22.7
256.784	26.45
257	34.64
257.217	10.07
257.433	30.55
257.65	61.27
257.866	98.13
258.082	-8.36
258.299	81.75
258.515	120.66
258.732	38.74
258.948	89.94
259.165	1.88
259.381	-14.51
259.597	30.55
259.814	118.61
260.03	-18.6
260.246	3.93
260.463	12.12
260.679	67.41
260.895	-2.22
261.112	91.99
261.328	-45.23
261.544	1.88
261.761	85.84
261.977	96.08
262.193	-14.51
262.409	67.41
262.626	14.17
262.842	-12.46
263.058	40.79
263.274	10.07
263.49	42.84
263.707	40.79
263.923	77.65
264.139	-24.75
264.355	-4.27
264.571	30.55
264.787	77.65
265.004	48.98
265.22	-18.6
265.436	18.26
265.652	-20.65
265.868	51.03
266.084	48.98
266.3	42.84
266.516	-2.22
266.732	65.36
266.948	104.28
267.164	-8.36
267.38	30.55
267.596	16.21
267.812	79.7
268.028	61.27
268.244	-16.55
268.46	-20.65
268.676	51.03
268.892	48.98
269.108	-4.27
269.324	81.75
269.54	14.17
269.756	38.74
269.972	53.08
270.188	30.55
270.403	18.26
270.619	14.17
270.835	61.27
271.051	48.98
271.267	32.6
271.483	24.4
271.698	71.51
271.914	104.28
272.13	-10.41
272.346	-39.08
272.562	32.6
272.777	16.21
272.993	59.22
273.209	-12.46
273.425	14.17
273.64	-47.27
273.856	5.97
274.072	36.69
274.287	38.74
274.503	51.03
274.719	61.27
274.934	-8.36
275.15	51.03
275.366	77.65
275.581	46.93
275.797	26.45
276.012	32.6
276.228	10.07
276.444	42.84
276.659	-4.27
276.875	1.88
277.09	44.88
277.306	-26.79
277.521	-22.7
277.737	-8.36
277.952	-4.27
278.168	42.84
278.383	87.89
278.599	3.93
278.814	-12.46
279.03	28.5
279.245	38.74
279.461	16.21
279.676	42.84
279.892	-12.46
280.107	57.17
280.322	46.93
280.538	14.17
280.753	14.17
280.969	18.26
281.184	36.69
281.399	102.23
281.615	55.12
281.83	34.64
282.045	-14.51
282.26	48.98
282.476	79.7
282.691	38.74
282.906	-30.89
283.122	24.4
283.337	32.6
283.552	85.84
283.767	-26.79
283.983	48.98
284.198	18.26
284.413	46.93
284.628	48.98
284.843	-32.94
285.058	-0.17
285.274	1.88
285.489	-45.23
285.704	36.69
285.919	46.93
286.134	-16.55
286.349	32.6
286.564	44.88
286.779	94.04
286.995	-20.65
287.21	-22.7
287.425	-8.36
287.64	-47.27
287.855	77.65
288.07	34.64
288.285	51.03
288.5	79.7
288.715	28.5
288.93	-30.89
289.145	36.69
289.36	87.89
289.575	24.4
289.79	14.17
290.004	1.88
290.219	24.4
290.434	5.97
290.649	28.5
290.864	-69.8
291.079	102.23
291.294	59.22
291.509	10.07
291.724	30.55
291.938	87.89
292.153	18.26
292.368	22.36
292.583	53.08
292.798	67.41
293.012	57.17
293.227	3.93
293.442	77.65
293.657	44.88
293.871	34.64
294.086	24.4
294.301	69.46
294.516	24.4
294.73	87.89
294.945	65.36
295.16	20.31
295.374	48.98
295.589	-18.6
295.804	59.22
296.018	28.5
296.233	-20.65
296.447	12.12
296.662	-18.6
296.877	-2.22
297.091	71.51
297.306	-8.36
297.52	63.32
297.735	14.17
297.949	24.4
298.164	36.69
298.378	-30.89
298.593	-45.23
298.807	89.94
299.022	28.5
299.236	46.93
299.451	-22.7
299.665	-45.23
299.88	3.93
300.094	14.17
300.309	36.69
300.523	28.5
300.737	30.55
300.952	40.79
301.166	63.32
301.381	-47.27
301.595	10.07
301.809	-18.6
302.024	61.27
302.238	-49.32
302.452	30.55
302.667	51.03
302.881	46.93
303.095	16.21
303.309	59.22
303.524	73.56
303.738	30.55
303.952	-28.84
304.166	73.56
304.381	-104.62
304.595	126.8
304.809	12.12
305.023	53.08
305.237	-2.22
305.452	126.8
305.666	-2.22
305.88	108.37
306.094	132.95
306.308	18.26
306.522	77.65
306.736	-8.36
306.95	-30.89
307.164	18.26
307.379	63.32
307.593	38.74
307.807	79.7
308.021	83.8
308.235	96.08
308.449	5.97
308.663	83.8
308.877	96.08
309.091	46.93
309.305	18.26
309.519	77.65
309.733	63.32
309.947	5.97
310.161	61.27
310.374	40.79
310.588	79.7
310.802	18.26
311.016	-26.79
311.23	-18.6
311.444	36.69
311.658	85.84
311.872	139.09
312.085	5.97
312.299	40.79
312.513	77.65
312.727	53.08
312.941	32.6
313.154	51.03
313.368	22.36
313.582	55.12
313.796	32.6
314.009	-73.9
314.223	12.12
314.437	20.31
314.651	85.84
314.864	-6.31
315.078	79.7
315.292	34.64
315.505	20.31
315.719	40.79
315.933	16.21
316.146	-4.27
316.36	53.08
316.573	53.08
316.787	67.41
317.001	53.08
317.214	51.03
317.428	38.74
317.641	34.64
317.855	22.36
318.068	10.07
318.282	34.64
318.495	5.97
318.709	-6.31
318.922	10.07
319.136	87.89
319.349	59.22
319.563	-8.36
319.776	65.36
319.99	-12.46
320.203	-0.17
320.417	22.36
320.63	30.55
320.843	24.4
321.057	94.04
321.27	5.97
321.483	12.12
321.697	30.55
321.91	-14.51
322.124	96.08
322.337	36.69
322.55	20.31
322.763	112.47
322.977	85.84
323.19	-0.17
323.403	36.69
323.617	30.55
323.83	53.08
324.043	16.21
324.256	32.6
324.469	28.5
324.683	114.52
324.896	114.52
325.109	59.22
325.322	-34.99
325.535	28.5
325.748	73.56
325.962	10.07
326.175	61.27
326.388	87.89
326.601	57.17
326.814	63.32
327.027	26.45
327.24	118.61
327.453	3.93
327.666	1.88
327.879	55.12
328.092	42.84
328.305	16.21
328.518	10.07
328.731	81.75
328.944	63.32
329.157	40.79
329.37	102.23
329.583	36.69
329.796	44.88
330.009	30.55
330.222	51.03
330.435	16.21
330.648	34.64
330.861	98.13
331.073	44.88
331.286	102.23
331.499	61.27
331.712	36.69
331.925	-20.65
332.138	46.93
332.35	51.03
332.563	28.5
332.776	87.89
332.989	-8.36
333.202	67.41
333.414	18.26
333.627	110.42
333.84	71.51
334.053	20.31
334.265	38.74
334.478	3.93
334.691	22.36
334.903	61.27
335.116	-4.27
335.329	40.79
335.541	94.04
335.754	46.93
335.966	57.17
336.179	73.56
336.392	-41.13
336.604	1.88
336.817	59.22
337.029	96.08
337.242	-47.27
337.454	98.13
337.667	126.8
337.88	63.32
338.092	83.8
338.305	53.08
338.517	1.88
338.729	57.17
338.942	-22.7
339.154	8.02
339.367	-69.8
339.579	10.07
339.792	-24.75
340.004	46.93
340.217	63.32
340.429	85.84
340.641	75.6
340.854	55.12
341.066	20.31
341.278	46.93
341.491	30.55
341.703	26.45
341.915	8.02
342.128	87.89
342.34	34.64
342.552	-6.31
342.764	36.69
342.977	-18.6
343.189	-8.36
343.401	42.84
343.613	-75.95
343.826	20.31
344.038	14.17
344.25	24.4
344.462	-63.66
344.674	57.17
344.886	16.21
345.099	67.41
345.311	32.6
345.523	10.07
345.735	130.9
345.947	61.27
346.159	51.03
346.371	53.08
346.583	65.36
346.795	48.98
347.007	79.7
347.219	71.51
347.431	34.64
347.643	40.79
347.855	59.22
348.067	24.4
348.279	48.98
348.491	44.88
348.703	51.03
348.915	14.17
349.127	28.5
349.339	30.55
349.551	-45.23
349.763	75.6
349.975	-14.51
350.187	53.08
350.399	87.89
350.61	36.69
350.822	104.28
351.034	20.31
351.246	3.93
351.458	63.32
351.669	75.6
351.881	53.08
352.093	18.26
352.305	-26.79
352.517	116.56
352.728	71.51
352.94	73.56
353.152	126.8
353.363	40.79
353.575	14.17
353.787	26.45
353.999	46.93
354.21	63.32
354.422	73.56
354.633	67.41
354.845	-16.55
355.057	16.21
355.268	48.98
355.48	-16.55
355.692	38.74
355.903	-20.65
356.115	36.69
356.326	-8.36
356.538	-16.55
356.749	12.12
356.961	34.64
357.172	-16.55
357.384	59.22
357.595	36.69
357.807	20.31
358.018	34.64
358.23	-6.31
358.441	44.88
358.653	91.99
358.864	30.55
359.075	79.7
359.287	10.07
359.498	135
359.709	48.98
359.921	28.5
360.132	32.6
360.344	30.55
360.555	132.95
360.766	26.45
360.977	-28.84
361.189	63.32
361.4	5.97
361.611	102.23
361.823	116.56
362.034	24.4
362.245	8.02
362.456	40.79
362.667	110.42
362.879	10.07
363.09	36.69
363.301	59.22
363.512	61.27
363.723	36.69
363.935	30.55
364.146	59.22
364.357	40.79
364.568	85.84
364.779	22.36
364.99	85.84
365.201	48.98
365.412	85.84
365.623	-32.94
365.834	18.26
366.045	-16.55
366.256	46.93
366.467	48.98
366.678	22.36
366.889	67.41
367.1	67.41
367.311	14.17
367.522	-6.31
367.733	-14.51
367.944	81.75
368.155	71.51
368.366	-6.31
368.577	61.27
368.788	79.7
368.999	-12.46
369.209	44.88
369.42	48.98
369.631	87.89
369.842	106.32
370.053	59.22
370.264	55.12
370.474	-12.46
370.685	-0.17
370.896	53.08
371.107	40.79
371.317	42.84
371.528	83.8
371.739	85.84
371.95	8.02
372.16	51.03
372.371	48.98
372.582	102.23
372.792	55.12
373.003	34.64
373.214	69.46
373.424	12.12
373.635	-32.94
373.846	116.56
374.056	87.89
374.267	36.69
374.477	153.43
374.688	79.7
374.898	12.12
375.109	10.07
375.319	108.37
375.53	112.47
375.74	34.64
375.951	32.6
376.161	53.08
376.372	132.95
376.582	8.02
376.793	96.08
377.003	20.31
377.214	73.56
377.424	53.08
377.635	55.12
377.845	20.31
378.055	38.74
378.266	77.65
378.476	108.37
378.686	34.64
378.897	28.5
379.107	5.97
379.317	59.22
379.528	16.21
379.738	67.41
379.948	20.31
380.158	55.12
380.369	42.84
380.579	102.23
380.789	53.08
380.999	53.08
381.21	32.6
381.42	94.04
381.63	44.88
381.84	65.36
382.05	57.17
382.261	65.36
382.471	16.21
382.681	16.21
382.891	120.66
383.101	85.84
383.311	61.27
383.521	83.8
383.731	89.94
383.941	106.32
384.151	55.12
384.361	87.89
384.571	83.8
384.781	40.79
384.991	22.36
385.201	-14.51
385.411	12.12
385.621	55.12
385.831	-22.7
386.041	-2.22
386.251	77.65
386.461	120.66
386.671	-51.37
386.881	16.21
387.091	18.26
387.301	110.42
387.511	89.94
387.72	32.6
387.93	100.18
388.14	63.32
388.35	-14.51
388.56	10.07
388.769	55.12
388.979	44.88
389.189	-28.84
389.399	124.76
389.609	30.55
389.818	77.65
390.028	42.84
390.238	61.27
390.447	22.36
390.657	67.41
390.867	79.7
391.076	96.08
391.286	83.8
391.496	30.55
391.705	30.55
391.915	-6.31
392.125	46.93
392.334	36.69
392.544	69.46
392.753	34.64
392.963	-10.41
393.172	-10.41
393.382	10.07
393.591	34.64
393.801	18.26
394.01	69.46
394.22	71.51
394.429	128.85
394.639	24.4
394.848	89.94
395.058	77.65
395.267	108.37
395.477	89.94
395.686	143.19
395.895	83.8
396.105	59.22
396.314	87.89
396.524	94.04
396.733	132.95
396.942	100.18
397.152	110.42
397.361	122.71
397.57	-20.65
397.78	116.56
397.989	10.07
398.198	118.61
398.407	44.88
398.617	153.43
398.826	30.55
399.035	91.99
399.244	98.13
399.453	59.22
399.663	112.47
399.872	61.27
400.081	102.23
400.29	153.43
400.499	77.65
400.708	102.23
400.917	104.28
401.127	85.84
401.336	139.09
401.545	153.43
401.754	126.8
401.963	108.37
402.172	59.22
402.381	48.98
402.59	120.66
402.799	102.23
403.008	128.85
403.217	110.42
403.426	108.37
403.635	48.98
403.844	63.32
404.053	112.47
404.262	163.67
404.471	124.76
404.68	120.66
404.888	94.04
405.097	118.61
405.306	69.46
405.515	204.63
405.724	94.04
405.933	135
406.142	118.61
406.35	171.86
406.559	180.05
406.768	96.08
406.977	216.91
407.185	137.04
407.394	118.61
407.603	184.15
407.812	114.52
408.02	204.63
408.229	100.18
408.438	276.31
408.646	102.23
408.855	167.76
409.064	190.29
409.272	175.95
409.481	229.2
409.69	227.15
409.898	161.62
410.107	218.96
410.315	272.21
410.524	233.3
410.733	307.02
410.941	255.83
411.15	212.82
411.358	282.45
411.567	333.65
411.775	313.17
411.984	284.5
412.192	331.6
412.401	337.74
412.609	384.85
412.818	413.52
413.026	335.7
413.234	292.69
413.443	390.99
413.651	350.03
413.86	413.52
414.068	468.81
414.276	462.67
414.485	485.2
414.693	495.44
414.901	487.25
415.11	423.76
415.318	599.88
415.526	577.36
415.734	653.13
415.943	712.52
416.151	571.21
416.359	511.82
416.567	657.23
416.776	661.32
416.984	741.19
417.192	704.33
417.4	720.71
417.608	771.91
417.817	716.62
418.025	757.58
418.233	827.21
418.441	839.5
418.649	978.76
418.857	880.46
419.065	976.71
419.273	894.79
419.481	976.71
419.689	1040.2
419.897	1050.44
420.105	1015.62
420.313	1240.9
420.521	1132.36
420.729	1316.67
420.937	1167.17
421.145	1367.87
421.353	1322.82
421.561	1363.78
421.769	1337.15
421.977	1386.3
422.185	1572.67
422.393	1500.99
422.601	1677.12
422.809	1638.2
423.017	1679.16
423.224	1793.85
423.432	1818.43
423.64	1783.61
423.848	2002.74
424.056	1963.83
424.263	2066.23
424.471	2129.72
424.679	2162.48
424.887	2248.5
425.094	2305.84
425.302	2447.15
425.51	2402.1
425.718	2465.58
425.925	2463.54
426.133	2598.7
426.341	2754.35
426.548	2920.23
426.756	2924.33
426.964	2989.86
427.171	3114.79
427.379	3118.89
427.586	3176.23
427.794	3426.08
428.001	3534.62
428.209	3508
428.417	3544.86
428.624	3899.16
428.832	3807
429.039	3776.28
429.247	3735.32
429.454	4042.52
429.662	4335.38
429.869	4005.66
430.076	4521.74
430.284	4394.77
430.491	4329.24
430.699	4734.73
430.906	4642.57
431.114	4781.84
431.321	5015.3
431.528	5181.19
431.736	5420.8
431.943	5572.35
432.15	5543.68
432.358	5437.19
432.565	5803.77
432.772	5836.54
432.979	6125.3
433.187	6403.83
433.394	6248.18
433.601	6674.16
433.808	6678.26
434.016	6696.69
434.223	6928.11
434.43	7419.62
434.637	7259.88
434.844	7743.2
435.052	7773.92
435.259	7767.77
435.466	7986.91
435.673	7757.53
435.88	8371.93
436.087	8918.73
436.294	8722.13
436.501	8668.88
436.708	8621.78
436.915	9289.42
437.122	9510.6
437.329	9535.17
437.537	9860.8
437.743	9832.13
437.95	9850.56
438.157	10358.46
438.364	10718.9
438.571	10567.35
438.778	10815.15
438.985	11769.51
439.192	11321
439.399	11871.9
439.606	11458.21
439.813	11910.82
440.02	12879.5
440.227	12646.04
440.433	12453.53
440.64	12840.59
440.847	12822.16
441.054	13147.79
441.261	14073.47
441.467	13731.46
441.674	14276.22
441.881	14661.24
442.088	14667.38
442.294	14511.74
442.501	14734.96
442.708	15033.97
442.914	15591.02
443.121	16365.15
443.328	16082.53
443.534	17477.19
443.741	16602.71
443.948	16514.65
444.154	17573.45
444.361	17749.57
444.568	17651.27
444.774	17632.84
444.981	17878.6
445.187	18677.3
445.394	18970.16
445.6	18908.72
445.807	20772.38
446.013	19881.51
446.22	20381.21
446.426	21165.59
446.633	21341.71
446.839	21990.92
447.046	20989.46
447.252	22251.01
447.459	22253.06
447.665	22441.47
447.871	23229.94
448.078	24298.98
448.284	23080.44
448.491	23819.75
448.697	24501.73
448.903	25148.89
449.11	25122.26
449.316	24821.21
449.522	25212.37
449.728	26019.27
449.935	26154.44
450.141	26078.66
450.347	26834.36
450.553	25933.26
450.76	26248.64
450.966	27123.13
451.172	26727.87
451.378	27293.11
451.584	27151.8
451.791	27866.54
451.997	27481.52
452.203	27981.23
452.409	28097.96
452.615	28235.17
452.821	26779.07
453.027	26920.38
453.233	28292.52
453.44	26875.32
453.646	27352.5
453.852	27364.79
454.058	27970.99
454.264	26899.9
454.47	27753.9
454.676	26660.29
454.882	27876.78
455.088	25642.45
455.294	26140.1
455.5	26260.93
455.705	26504.64
455.911	25609.68
456.117	25478.61
456.323	24800.73
456.529	23285.23
456.735	24522.21
456.941	23766.51
457.147	23514.61
457.352	22638.08
457.558	22486.53
457.764	22808.06
457.97	21775.88
458.176	21904.9
458.381	21749.26
458.587	20557.34
458.793	20686.36
458.999	19699.24
459.204	20885.01
459.41	20330.02
459.616	19203.63
459.821	18982.45
460.027	18921.01
460.233	18392.64
460.438	17737.29
460.644	17811.01
460.85	17262.16
461.055	16862.8
461.261	16676.44
461.466	15494.76
461.672	14878.32
461.878	16016.99
462.083	15081.07
462.289	15036.02
462.494	14589.56
462.7	13960.83
462.905	13647.49
463.111	14069.37
463.316	14362.23
463.522	13766.28
463.727	13901.44
463.932	13725.32
464.138	13629.06
464.343	13635.21
464.549	13395.59
464.754	13710.98
464.959	13643.4
465.165	13549.19
465.37	13010.57
465.575	12760.72
465.781	12981.9
465.986	13274.76
466.191	12758.67
466.397	12439.19
466.602	12179.1
466.807	12502.68
467.012	12418.71
467.218	12299.93
467.423	12281.5
467.628	12179.1
467.833	12678.8
468.038	12152.48
468.244	12002.97
