Data from USB4F104151__35__12-27-18-394.txt Node

Date: Fri Mar 14 12:27:18 EDT 2025
User: louis
Spectrometer: USB4F10415
Trigger mode: 4
Integration Time (sec): 2.000000E-2
Scans to average: 1
Electric dark correction enabled: true
Nonlinearity correction enabled: false
Boxcar width: 0
XAxis mode: Wavelengths
Number of Pixels in Spectrum: 3648
>>>>>Begin Spectral Data<<<<<
178.204	-122.54
178.424	-122.54
178.644	-122.54
178.864	-87.72
179.084	-149.16
179.304	-13.99
179.524	-7.85
179.744	-59.05
179.964	16.73
180.184	-16.04
180.404	6.49
180.624	10.58
180.844	51.54
181.064	-57
181.283	-3.75
181.503	-13.99
181.723	86.36
181.943	-65.19
182.163	-9.9
182.383	8.53
182.602	2.39
182.822	82.26
183.042	65.88
183.262	-18.09
183.482	59.73
183.701	82.26
183.921	33.11
184.141	-9.9
184.361	84.31
184.58	51.54
184.8	-7.85
185.02	-38.57
185.239	55.64
185.459	78.16
185.679	49.49
185.898	4.44
186.118	14.68
186.338	57.68
186.557	-28.33
186.777	14.68
186.997	8.53
187.216	-18.09
187.436	112.98
187.655	-69.29
187.875	-24.23
188.095	22.87
188.314	2.39
188.534	57.68
188.753	16.73
188.973	20.82
189.192	20.82
189.412	-16.04
189.631	53.59
189.851	33.11
190.07	35.16
190.29	-3.75
190.509	-9.9
190.729	16.73
190.948	80.21
191.168	43.35
191.387	18.77
191.607	98.64
191.826	-13.99
192.045	-5.8
192.265	61.78
192.484	-65.19
192.704	-16.04
192.923	55.64
193.142	24.92
193.362	57.68
193.581	119.12
193.8	57.68
194.02	0.34
194.239	53.59
194.458	35.16
194.678	-5.8
194.897	-1.71
195.116	63.83
195.335	-1.71
195.555	2.39
195.774	18.77
195.993	69.97
196.212	57.68
196.432	22.87
196.651	33.11
196.87	16.73
197.089	74.07
197.308	-30.38
197.528	16.73
197.747	-3.75
197.966	65.88
198.185	53.59
198.404	51.54
198.623	82.26
198.842	43.35
199.062	108.88
199.281	-9.9
199.5	-36.52
199.719	35.16
199.938	24.92
200.157	55.64
200.376	-13.99
200.595	4.44
200.814	96.6
201.033	-3.75
201.252	72.02
201.471	0.34
201.69	-32.43
201.909	63.83
202.128	31.06
202.347	37.2
202.566	-48.81
202.785	45.4
203.004	-11.95
203.223	63.83
203.442	6.49
203.661	-52.91
203.879	16.73
204.098	63.83
204.317	-42.67
204.536	86.36
204.755	-11.95
204.974	22.87
205.193	41.3
205.411	22.87
205.63	59.73
205.849	98.64
206.068	24.92
206.287	35.16
206.505	65.88
206.724	59.73
206.943	-5.8
207.162	-28.33
207.381	20.82
207.599	33.11
207.818	-1.71
208.037	10.58
208.255	2.39
208.474	22.87
208.693	10.58
208.911	6.49
209.13	-3.75
209.349	78.16
209.567	-7.85
209.786	26.96
210.005	10.58
210.223	102.74
210.442	12.63
210.661	12.63
210.879	18.77
211.098	39.25
211.316	43.35
211.535	45.4
211.753	-16.04
211.972	86.36
212.191	20.82
212.409	65.88
212.628	35.16
212.846	-1.71
213.065	67.92
213.283	12.63
213.502	-18.09
213.72	29.01
213.938	35.16
214.157	92.5
214.375	35.16
214.594	67.92
214.812	35.16
215.031	37.2
215.249	80.21
215.467	0.34
215.686	67.92
215.904	49.49
216.122	-5.8
216.341	131.41
216.559	26.96
216.778	94.55
216.996	69.97
217.214	18.77
217.432	18.77
217.651	29.01
217.869	43.35
218.087	31.06
218.306	41.3
218.524	76.12
218.742	-7.85
218.96	63.83
219.179	26.96
219.397	6.49
219.615	98.64
219.833	74.07
220.051	-52.91
220.27	20.82
220.488	18.77
220.706	37.2
220.924	8.53
221.142	10.58
221.36	6.49
221.578	-22.19
221.796	29.01
222.015	18.77
222.233	-5.8
222.451	41.3
222.669	104.79
222.887	49.49
223.105	20.82
223.323	-11.95
223.541	-9.9
223.759	-20.14
223.977	12.63
224.195	78.16
224.413	-1.71
224.631	86.36
224.849	-1.71
225.067	88.4
225.285	-1.71
225.503	6.49
225.721	-30.38
225.939	31.06
226.157	59.73
226.375	-5.8
226.592	35.16
226.81	-28.33
227.028	-18.09
227.246	45.4
227.464	12.63
227.682	10.58
227.9	26.96
228.117	45.4
228.335	-42.67
228.553	53.59
228.771	29.01
228.989	55.64
229.206	45.4
229.424	8.53
229.642	29.01
229.86	-3.75
230.077	-22.19
230.295	-1.71
230.513	14.68
230.731	8.53
230.948	-7.85
231.166	106.84
231.384	57.68
231.601	-57
231.819	82.26
232.037	-20.14
232.254	-18.09
232.472	22.87
232.689	37.2
232.907	47.44
233.125	35.16
233.342	84.31
233.56	61.78
233.777	55.64
233.995	12.63
234.213	45.4
234.43	65.88
234.648	22.87
234.865	49.49
235.083	24.92
235.3	47.44
235.518	39.25
235.735	41.3
235.953	37.2
236.17	20.82
236.388	29.01
236.605	43.35
236.822	16.73
237.04	18.77
237.257	49.49
237.475	-44.71
237.692	20.82
237.909	-30.38
238.127	18.77
238.344	24.92
238.562	49.49
238.779	-36.52
238.996	57.68
239.214	-11.95
239.431	49.49
239.648	-1.71
239.865	59.73
240.083	41.3
240.3	74.07
240.517	-40.62
240.735	20.82
240.952	2.39
241.169	143.7
241.386	18.77
241.603	-9.9
241.821	-20.14
242.038	26.96
242.255	108.88
242.472	72.02
242.689	-16.04
242.907	86.36
243.124	57.68
243.341	8.53
243.558	29.01
243.775	24.92
243.992	35.16
244.209	102.74
244.426	76.12
244.643	12.63
244.86	0.34
245.078	63.83
245.295	94.55
245.512	12.63
245.729	4.44
245.946	53.59
246.163	10.58
246.38	43.35
246.597	43.35
246.814	63.83
247.031	4.44
247.248	47.44
247.464	39.25
247.681	51.54
247.898	117.08
248.115	51.54
248.332	55.64
248.549	43.35
248.766	51.54
248.983	65.88
249.2	35.16
249.417	-5.8
249.633	-24.23
249.85	12.63
250.067	65.88
250.284	-7.85
250.501	96.6
250.717	-7.85
250.934	-7.85
251.151	-5.8
251.368	35.16
251.585	86.36
251.801	78.16
252.018	2.39
252.235	108.88
252.451	45.4
252.668	18.77
252.885	-7.85
253.102	37.2
253.318	41.3
253.535	53.59
253.752	10.58
253.968	-20.14
254.185	8.53
254.401	-20.14
254.618	59.73
254.835	31.06
255.051	49.49
255.268	35.16
255.484	35.16
255.701	55.64
255.917	16.73
256.134	-79.53
256.351	67.92
256.567	12.63
256.784	24.92
257	18.77
257.217	88.4
257.433	10.58
257.65	26.96
257.866	88.4
258.082	6.49
258.299	-9.9
258.515	20.82
258.732	-11.95
258.948	-30.38
259.165	-1.71
259.381	47.44
259.597	18.77
259.814	4.44
260.03	61.78
260.246	33.11
260.463	55.64
260.679	37.2
260.895	72.02
261.112	80.21
261.328	-1.71
261.544	-11.95
261.761	90.45
261.977	0.34
262.193	65.88
262.409	100.69
262.626	57.68
262.842	29.01
263.058	-9.9
263.274	18.77
263.49	82.26
263.707	0.34
263.923	8.53
264.139	72.02
264.355	61.78
264.571	55.64
264.787	53.59
265.004	20.82
265.22	10.58
265.436	-9.9
265.652	29.01
265.868	72.02
266.084	-28.33
266.3	-5.8
266.516	41.3
266.732	20.82
266.948	74.07
267.164	8.53
267.38	35.16
267.596	65.88
267.812	26.96
268.028	-16.04
268.244	0.34
268.46	6.49
268.676	37.2
268.892	29.01
269.108	-18.09
269.324	-13.99
269.54	8.53
269.756	18.77
269.972	10.58
270.188	31.06
270.403	-38.57
270.619	100.69
270.835	22.87
271.051	55.64
271.267	20.82
271.483	84.31
271.698	31.06
271.914	82.26
272.13	-1.71
272.346	2.39
272.562	63.83
272.777	72.02
272.993	20.82
273.209	39.25
273.425	78.16
273.64	-5.8
273.856	33.11
274.072	72.02
274.287	-9.9
274.503	45.4
274.719	24.92
274.934	-36.52
275.15	12.63
275.366	-5.8
275.581	-20.14
275.797	86.36
276.012	-9.9
276.228	-18.09
276.444	-24.23
276.659	-26.28
276.875	-32.43
277.09	33.11
277.306	24.92
277.521	20.82
277.737	41.3
277.952	63.83
278.168	35.16
278.383	65.88
278.599	76.12
278.814	84.31
279.03	10.58
279.245	10.58
279.461	121.17
279.676	102.74
279.892	-30.38
280.107	4.44
280.322	-1.71
280.538	92.5
280.753	2.39
280.969	26.96
281.184	-3.75
281.399	88.4
281.615	45.4
281.83	39.25
282.045	-9.9
282.26	80.21
282.476	55.64
282.691	74.07
282.906	35.16
283.122	6.49
283.337	2.39
283.552	78.16
283.767	-3.75
283.983	65.88
284.198	8.53
284.413	20.82
284.628	22.87
284.843	16.73
285.058	31.06
285.274	31.06
285.489	51.54
285.704	20.82
285.919	-54.95
286.134	76.12
286.349	61.78
286.564	31.06
286.779	51.54
286.995	-20.14
287.21	-22.19
287.425	76.12
287.64	57.68
287.855	8.53
288.07	8.53
288.285	41.3
288.5	-57
288.715	53.59
288.93	41.3
289.145	-7.85
289.36	-28.33
289.575	98.64
289.79	74.07
290.004	31.06
290.219	-1.71
290.434	12.63
290.649	78.16
290.864	31.06
291.079	53.59
291.294	33.11
291.509	110.93
291.724	24.92
291.938	65.88
292.153	43.35
292.368	96.6
292.583	37.2
292.798	41.3
293.012	37.2
293.227	47.44
293.442	31.06
293.657	55.64
293.871	76.12
294.086	20.82
294.301	88.4
294.516	100.69
294.73	51.54
294.945	59.73
295.16	4.44
295.374	49.49
295.589	61.78
295.804	18.77
296.018	78.16
296.233	61.78
296.447	67.92
296.662	12.63
296.877	29.01
297.091	59.73
297.306	41.3
297.52	22.87
297.735	16.73
297.949	55.64
298.164	82.26
298.378	-1.71
298.593	24.92
298.807	-13.99
299.022	112.98
299.236	94.55
299.451	51.54
299.665	84.31
299.88	51.54
300.094	74.07
300.309	92.5
300.523	59.73
300.737	37.2
300.952	67.92
301.166	67.92
301.381	-5.8
301.595	47.44
301.809	45.4
302.024	-22.19
302.238	12.63
302.452	106.84
302.667	-36.52
302.881	2.39
303.095	39.25
303.309	-32.43
303.524	53.59
303.738	24.92
303.952	51.54
304.166	59.73
304.381	-20.14
304.595	67.92
304.809	-20.14
305.023	8.53
305.237	76.12
305.452	45.4
305.666	57.68
305.88	-9.9
306.094	-61.1
306.308	0.34
306.522	125.27
306.736	-9.9
306.95	61.78
307.164	10.58
307.379	10.58
307.593	57.68
307.807	137.56
308.021	102.74
308.235	51.54
308.449	8.53
308.663	65.88
308.877	47.44
309.091	16.73
309.305	55.64
309.519	-26.28
309.733	67.92
309.947	24.92
310.161	78.16
310.374	55.64
310.588	123.22
310.802	-1.71
311.016	-13.99
311.23	22.87
311.444	29.01
311.658	76.12
311.872	57.68
312.085	61.78
312.299	-24.23
312.513	90.45
312.727	51.54
312.941	-3.75
313.154	92.5
313.368	22.87
313.582	35.16
313.796	49.49
314.009	78.16
314.223	37.2
314.437	47.44
314.651	63.83
314.864	20.82
315.078	0.34
315.292	61.78
315.505	16.73
315.719	29.01
315.933	86.36
316.146	35.16
316.36	4.44
316.573	39.25
316.787	29.01
317.001	117.08
317.214	39.25
317.428	22.87
317.641	26.96
317.855	29.01
318.068	88.4
318.282	51.54
318.495	65.88
318.709	72.02
318.922	10.58
319.136	10.58
319.349	26.96
319.563	-13.99
319.776	57.68
319.99	67.92
320.203	88.4
320.417	-11.95
320.63	43.35
320.843	29.01
321.057	43.35
321.27	61.78
321.483	112.98
321.697	47.44
321.91	-13.99
322.124	82.26
322.337	65.88
322.55	41.3
322.763	57.68
322.977	72.02
323.19	63.83
323.403	57.68
323.617	29.01
323.83	61.78
324.043	-36.52
324.256	45.4
324.469	-16.04
324.683	-13.99
324.896	37.2
325.109	10.58
325.322	20.82
325.535	104.79
325.748	45.4
325.962	61.78
326.175	45.4
326.388	80.21
326.601	65.88
326.814	-1.71
327.027	94.55
327.24	22.87
327.453	63.83
327.666	22.87
327.879	24.92
328.092	92.5
328.305	55.64
328.518	63.83
328.731	20.82
328.944	-50.86
329.157	12.63
329.37	31.06
329.583	35.16
329.796	47.44
330.009	-63.15
330.222	43.35
330.435	72.02
330.648	76.12
330.861	-18.09
331.073	10.58
331.286	-3.75
331.499	63.83
331.712	12.63
331.925	45.4
332.138	63.83
332.35	45.4
332.563	0.34
332.776	43.35
332.989	49.49
333.202	14.68
333.414	37.2
333.627	39.25
333.84	-1.71
334.053	74.07
334.265	10.58
334.478	72.02
334.691	82.26
334.903	8.53
335.116	8.53
335.329	35.16
335.541	72.02
335.754	59.73
335.966	47.44
336.179	39.25
336.392	51.54
336.604	4.44
336.817	80.21
337.029	45.4
337.242	10.58
337.454	59.73
337.667	119.12
337.88	55.64
338.092	20.82
338.305	151.89
338.517	86.36
338.729	143.7
338.942	86.36
339.154	6.49
339.367	63.83
339.579	39.25
339.792	67.92
340.004	26.96
340.217	0.34
340.429	35.16
340.641	6.49
340.854	8.53
341.066	-9.9
341.278	53.59
341.491	151.89
341.703	90.45
341.915	37.2
342.128	61.78
342.34	20.82
342.552	29.01
342.764	-3.75
342.977	26.96
343.189	67.92
343.401	63.83
343.613	33.11
343.826	104.79
344.038	18.77
344.25	18.77
344.462	88.4
344.674	14.68
344.886	-13.99
345.099	33.11
345.311	-30.38
345.523	22.87
345.735	-16.04
345.947	123.22
346.159	37.2
346.371	29.01
346.583	-3.75
346.795	-40.62
347.007	35.16
347.219	72.02
347.431	2.39
347.643	35.16
347.855	41.3
348.067	35.16
348.279	0.34
348.491	14.68
348.703	6.49
348.915	14.68
349.127	-3.75
349.339	67.92
349.551	6.49
349.763	63.83
349.975	72.02
350.187	35.16
350.399	78.16
350.61	74.07
350.822	76.12
351.034	49.49
351.246	-20.14
351.458	41.3
351.669	170.32
351.881	-16.04
352.093	102.74
352.305	80.21
352.517	2.39
352.728	67.92
352.94	49.49
353.152	53.59
353.363	45.4
353.575	72.02
353.787	0.34
353.999	98.64
354.21	98.64
354.422	18.77
354.633	92.5
354.845	80.21
355.057	78.16
355.268	22.87
355.48	57.68
355.692	-36.52
355.903	53.59
356.115	84.31
356.326	-65.19
356.538	-24.23
356.749	43.35
356.961	16.73
357.172	-1.71
357.384	-34.47
357.595	41.3
357.807	61.78
358.018	8.53
358.23	4.44
358.441	96.6
358.653	8.53
358.864	63.83
359.075	6.49
359.287	16.73
359.498	100.69
359.709	24.92
359.921	74.07
360.132	51.54
360.344	-42.67
360.555	0.34
360.766	0.34
360.977	-9.9
361.189	94.55
361.4	8.53
361.611	29.01
361.823	92.5
362.034	53.59
362.245	-9.9
362.456	65.88
362.667	63.83
362.879	16.73
363.09	33.11
363.301	72.02
363.512	12.63
363.723	-52.91
363.935	84.31
364.146	80.21
364.357	12.63
364.568	53.59
364.779	26.96
364.99	102.74
365.201	12.63
365.412	49.49
365.623	-13.99
365.834	24.92
366.045	2.39
366.256	35.16
366.467	29.01
366.678	16.73
366.889	49.49
367.1	-40.62
367.311	53.59
367.522	96.6
367.733	104.79
367.944	67.92
368.155	47.44
368.366	57.68
368.577	26.96
368.788	33.11
368.999	-9.9
369.209	-16.04
369.42	74.07
369.631	98.64
369.842	16.73
370.053	61.78
370.264	24.92
370.474	63.83
370.685	96.6
370.896	63.83
371.107	10.58
371.317	84.31
371.528	6.49
371.739	22.87
371.95	69.97
372.16	108.88
372.371	10.58
372.582	53.59
372.792	43.35
373.003	88.4
373.214	63.83
373.424	98.64
373.635	-44.71
373.846	53.59
374.056	24.92
374.267	59.73
374.477	94.55
374.688	67.92
374.898	24.92
375.109	33.11
375.319	76.12
375.53	57.68
375.74	94.55
375.951	74.07
376.161	22.87
376.372	80.21
376.582	76.12
376.793	59.73
377.003	-32.43
377.214	82.26
377.424	14.68
377.635	49.49
377.845	10.58
378.055	112.98
378.266	-32.43
378.476	-7.85
378.686	37.2
378.897	41.3
379.107	31.06
379.317	0.34
379.528	-22.19
379.738	35.16
379.948	72.02
380.158	-18.09
380.369	88.4
380.579	4.44
380.789	12.63
380.999	18.77
381.21	98.64
381.42	102.74
381.63	100.69
381.84	59.73
382.05	-3.75
382.261	90.45
382.471	94.55
382.681	31.06
382.891	33.11
383.101	20.82
383.311	-3.75
383.521	78.16
383.731	51.54
383.941	90.45
384.151	106.84
384.361	69.97
384.571	16.73
384.781	12.63
384.991	80.21
385.201	127.32
385.411	69.97
385.621	43.35
385.831	26.96
386.041	39.25
386.251	78.16
386.461	72.02
386.671	45.4
386.881	24.92
387.091	90.45
387.301	158.03
387.511	90.45
387.72	92.5
387.93	18.77
388.14	-26.28
388.35	47.44
388.56	102.74
388.769	29.01
388.979	53.59
389.189	86.36
389.399	82.26
389.609	86.36
389.818	94.55
390.028	78.16
390.238	76.12
390.447	-16.04
390.657	88.4
390.867	92.5
391.076	39.25
391.286	63.83
391.496	72.02
391.705	8.53
391.915	16.73
392.125	65.88
392.334	12.63
392.544	41.3
392.753	47.44
392.963	24.92
393.172	35.16
393.382	76.12
393.591	67.92
393.801	86.36
394.01	106.84
394.22	2.39
394.429	65.88
394.639	84.31
394.848	14.68
395.058	115.03
395.267	94.55
395.477	45.4
395.686	59.73
395.895	53.59
396.105	137.56
396.314	82.26
396.524	135.51
396.733	33.11
396.942	37.2
397.152	10.58
397.361	76.12
397.57	24.92
397.78	80.21
397.989	145.75
398.198	84.31
398.407	117.08
398.617	166.23
398.826	131.41
399.035	117.08
399.244	143.7
399.453	90.45
399.663	94.55
399.872	125.27
400.081	45.4
400.29	211.28
400.499	51.54
400.708	33.11
400.917	88.4
401.127	112.98
401.336	39.25
401.545	260.43
401.754	155.99
401.963	188.75
402.172	139.6
402.381	190.8
402.59	37.2
402.799	104.79
403.008	29.01
403.217	86.36
403.426	127.32
403.635	88.4
403.844	84.31
404.053	135.51
404.262	41.3
404.471	223.57
404.68	98.64
404.888	108.88
405.097	166.23
405.306	123.22
405.515	108.88
405.724	117.08
405.933	153.94
406.142	192.85
406.35	151.89
406.559	178.51
406.768	217.43
406.977	174.42
407.185	213.33
407.394	145.75
407.603	164.18
407.812	252.24
408.02	166.23
408.229	227.67
408.438	182.61
408.646	174.42
408.855	254.29
409.064	188.75
409.272	201.04
409.481	270.67
409.69	78.16
409.898	274.77
410.107	258.39
410.315	297.3
410.524	227.67
410.733	272.72
410.941	293.2
411.15	297.3
411.358	305.49
411.567	203.09
411.775	293.2
411.984	356.69
412.192	297.3
412.401	336.21
412.609	352.59
412.818	426.32
413.026	362.83
413.234	446.8
413.443	414.03
413.651	446.8
413.86	461.13
414.068	457.04
414.276	522.57
414.485	553.29
414.693	536.91
414.901	514.38
415.11	577.87
415.318	504.14
415.526	614.73
415.734	618.83
415.943	584.01
416.151	594.25
416.359	665.93
416.567	743.75
416.776	639.31
416.984	690.51
417.192	856.39
417.4	790.86
417.608	678.22
417.817	805.19
418.025	893.26
418.233	915.78
418.441	880.97
418.649	1003.85
418.857	1087.81
419.065	1118.53
419.273	1034.57
419.481	1061.19
419.689	1001.8
419.897	1167.68
420.105	1241.41
420.313	1296.71
420.521	1253.7
420.729	1358.14
420.937	1253.7
421.145	1388.86
421.353	1382.72
421.561	1493.31
421.769	1579.33
421.977	1620.28
422.185	1663.29
422.393	1657.15
422.601	1802.55
422.809	1800.51
423.017	1868.09
423.224	1790.27
423.432	1984.82
423.64	2036.02
423.848	2138.42
424.056	2056.5
424.263	2238.77
424.471	2251.06
424.679	2234.68
424.887	2404.66
425.094	2427.18
425.302	2447.66
425.51	2728.24
425.718	2670.89
425.925	2687.28
426.133	2808.11
426.341	2924.84
426.548	3019.05
426.756	3094.82
426.964	3146.02
427.171	3359.01
427.379	3426.59
427.586	3473.7
427.794	3539.23
428.001	3778.84
428.209	3981.59
428.417	3879.19
428.624	4096.28
428.832	4026.65
429.039	4266.26
429.247	4118.81
429.454	4473.11
429.662	4878.6
429.869	4458.77
430.076	4663.57
430.284	4647.18
430.491	4860.17
430.699	5222.66
430.906	5273.86
431.114	5185.8
431.321	5437.7
431.528	5523.71
431.736	5849.34
431.943	6101.24
432.15	5923.07
432.358	5935.35
432.565	6381.81
432.772	6430.96
432.979	6568.18
433.187	6691.06
433.394	6877.42
433.601	7217.38
433.808	7272.68
434.016	7106.79
434.223	7528.67
434.43	7768.29
434.637	7905.5
434.844	8399.06
435.052	8495.32
435.259	8556.75
435.466	8483.03
435.673	8276.18
435.88	9023.69
436.087	9482.44
436.294	9482.44
436.501	9074.89
436.708	9457.86
436.915	9871.55
437.122	10221.75
437.329	10176.7
437.537	10598.58
437.743	10770.61
437.95	10416.31
438.157	11298.98
438.364	11585.7
438.571	11489.45
438.778	11665.57
438.985	12562.58
439.192	12126.36
439.399	12791.95
439.606	12204.19
439.813	13103.25
440.02	13836.42
440.227	13828.23
440.433	13521.03
440.64	13793.41
440.847	13766.79
441.054	14153.85
441.261	15196.27
441.467	14903.41
441.674	15063.15
441.881	15718.5
442.088	15720.55
442.294	15636.58
442.501	15980.64
442.708	16425.05
442.914	16959.57
443.121	17641.54
443.328	17184.85
443.534	18387
443.741	17838.15
443.948	17768.52
444.154	19036.21
444.361	18909.24
444.568	19304.49
444.774	18921.52
444.981	19167.28
445.187	19703.85
445.394	20742.17
445.6	20504.6
445.807	22167.56
446.013	21307.41
446.22	21499.92
446.426	22898.68
446.633	22761.47
446.839	23474.16
447.046	22585.34
447.252	24195.04
447.459	24115.17
447.665	23896.04
447.871	24741.85
448.078	25800.65
448.284	25020.38
448.491	25137.11
448.697	26277.83
448.903	27011
449.11	26728.38
449.316	26425.28
449.522	26996.67
449.728	27688.88
449.935	28082.09
450.141	27985.83
450.347	28823.45
450.553	28082.09
450.76	28114.86
450.966	28936.09
451.172	28891.04
451.378	29462.42
451.584	28680.1
451.791	29470.61
451.997	29007.77
452.203	30054.28
452.409	29984.65
452.615	29974.41
452.821	28848.03
453.027	28436.39
453.233	29857.68
453.44	28653.47
453.646	29126.55
453.852	29130.65
454.058	29644.69
454.264	28798.88
454.47	29349.78
454.676	28682.14
454.882	29904.78
455.088	27328.44
455.294	27566
455.5	28241.83
455.705	28168.1
455.911	27176.89
456.117	26529.73
456.323	25960.39
456.529	25049.05
456.735	25987.02
456.941	25231.32
457.147	24938.46
457.352	23980.01
457.558	23902.18
457.764	23949.29
457.97	23404.53
458.176	22992.89
458.381	23244.79
458.587	21948.42
458.793	21884.94
458.999	20621.34
459.204	22288.39
459.41	21596.17
459.616	20088.87
459.821	20107.3
460.027	20240.42
460.233	19648.55
460.438	18878.52
460.644	18882.61
460.85	18282.56
461.055	17715.27
461.261	17829.96
461.466	16713.81
461.672	16132.19
461.878	17066.06
462.083	15917.15
462.289	15270
462.494	15452.27
462.7	14715
462.905	14413.95
463.111	14979.18
463.316	14905.46
463.522	14844.02
463.727	14614.65
463.932	14616.69
464.138	14471.29
464.343	14446.71
464.549	14014.59
464.754	14665.85
464.959	14297.21
465.165	14395.51
465.37	13705.35
465.575	13389.96
465.781	14037.12
465.986	13906.05
466.191	13594.76
466.397	13133.96
466.602	12581.01
466.807	13133.96
467.012	13209.74
467.218	13039.76
467.423	12796.05
467.628	12703.89
467.833	13557.89
468.038	12949.65
468.244	12802.19
468.449	13054.09
468.654	12615.83
468.859	12675.22
