Data from USB4F104151__3__12-26-54-178.txt Node

Date: Fri Mar 14 12:26:54 EDT 2025
User: louis
Spectrometer: USB4F10415
Trigger mode: 4
Integration Time (sec): 2.000000E-2
Scans to average: 1
Electric dark correction enabled: true
Nonlinearity correction enabled: false
Boxcar width: 0
XAxis mode: Wavelengths
Number of Pixels in Spectrum: 3648
>>>>>Begin Spectral Data<<<<<
178.204	-45.06
178.424	-45.06
178.644	-45.06
178.864	-94.21
179.084	-38.91
179.304	10.24
179.524	-26.62
179.744	18.43
179.964	65.53
180.184	-32.77
180.404	-8.19
180.624	63.49
180.844	-32.77
181.064	-81.92
181.283	-49.15
181.503	-10.24
181.723	83.97
181.943	-18.43
182.163	57.34
182.383	8.19
182.602	59.39
182.822	63.49
183.042	43.01
183.262	43.01
183.482	43.01
183.701	-18.43
183.921	30.72
184.141	-8.19
184.361	34.82
184.58	88.06
184.8	-26.62
185.02	-36.86
185.239	96.25
185.459	0
185.679	14.34
185.898	2.05
186.118	-61.44
186.338	6.14
186.557	18.43
186.777	-4.1
186.997	47.1
187.216	26.62
187.436	81.92
187.655	28.67
187.875	75.77
188.095	-6.14
188.314	-4.1
188.534	34.82
188.753	-36.86
188.973	77.82
189.192	12.29
189.412	2.05
189.631	-24.58
189.851	18.43
190.07	24.58
190.29	10.24
190.509	28.67
190.729	-45.06
190.948	47.1
191.168	96.25
191.387	38.91
191.607	-18.43
191.826	-6.14
192.045	-18.43
192.265	-14.34
192.484	0
192.704	45.06
192.923	12.29
193.142	16.38
193.362	14.34
193.581	65.53
193.8	34.82
194.02	65.53
194.239	28.67
194.458	30.72
194.678	16.38
194.897	34.82
195.116	51.2
195.335	59.39
195.555	24.58
195.774	92.16
195.993	38.91
196.212	59.39
196.432	53.25
196.651	30.72
196.87	-30.72
197.089	108.54
197.308	22.53
197.528	6.14
197.747	-75.77
197.966	22.53
198.185	47.1
198.404	30.72
198.623	81.92
198.842	53.25
199.062	59.39
199.281	30.72
199.5	10.24
199.719	61.44
199.938	20.48
200.157	45.06
200.376	16.38
200.595	-16.38
200.814	-43.01
201.033	83.97
201.252	12.29
201.471	49.15
201.69	32.77
201.909	24.58
202.128	55.3
202.347	47.1
202.566	16.38
202.785	-34.82
203.004	-51.2
203.223	-14.34
203.442	34.82
203.661	12.29
203.879	-53.25
204.098	75.77
204.317	-24.58
204.536	12.29
204.755	-8.19
204.974	12.29
205.193	-8.19
205.411	45.06
205.63	55.3
205.849	28.67
206.068	79.87
206.287	57.34
206.505	24.58
206.724	34.82
206.943	4.1
207.162	92.16
207.381	12.29
207.599	96.25
207.818	30.72
208.037	6.14
208.255	8.19
208.474	83.97
208.693	32.77
208.911	59.39
209.13	8.19
209.349	-2.05
209.567	106.49
209.786	51.2
210.005	71.68
210.223	6.14
210.442	-20.48
210.661	22.53
210.879	26.62
211.098	18.43
211.316	-38.91
211.535	49.15
211.753	45.06
211.972	49.15
212.191	28.67
212.409	30.72
212.628	38.91
212.846	18.43
213.065	40.96
213.283	-2.05
213.502	-12.29
213.72	69.63
213.938	40.96
214.157	-4.1
214.375	53.25
214.594	14.34
214.812	38.91
215.031	43.01
215.249	2.05
215.467	26.62
215.686	34.82
215.904	94.21
216.122	-4.1
216.341	67.58
216.559	45.06
216.778	38.91
216.996	47.1
217.214	69.63
217.432	26.62
217.651	-16.38
217.869	6.14
218.087	14.34
218.306	102.4
218.524	40.96
218.742	-22.53
218.96	49.15
219.179	22.53
219.397	53.25
219.615	124.93
219.833	-24.58
220.051	45.06
220.27	69.63
220.488	94.21
220.706	-6.14
220.924	-12.29
221.142	16.38
221.36	45.06
221.578	57.34
221.796	28.67
222.015	36.86
222.233	26.62
222.451	79.87
222.669	-16.38
222.887	59.39
223.105	2.05
223.323	6.14
223.541	-53.25
223.759	53.25
223.977	38.91
224.195	43.01
224.413	18.43
224.631	24.58
224.849	77.82
225.067	47.1
225.285	38.91
225.503	24.58
225.721	2.05
225.939	10.24
226.157	61.44
226.375	55.3
226.592	45.06
226.81	34.82
227.028	49.15
227.246	131.07
227.464	45.06
227.682	18.43
227.9	79.87
228.117	34.82
228.335	-12.29
228.553	8.19
228.771	32.77
228.989	57.34
229.206	2.05
229.424	26.62
229.642	26.62
229.86	36.86
230.077	81.92
230.295	67.58
230.513	8.19
230.731	47.1
230.948	32.77
231.166	63.49
231.384	16.38
231.601	26.62
231.819	86.01
232.037	65.53
232.254	-26.62
232.472	6.14
232.689	43.01
232.907	61.44
233.125	22.53
233.342	16.38
233.56	-4.1
233.777	34.82
233.995	10.24
234.213	-30.72
234.43	36.86
234.648	38.91
234.865	-8.19
235.083	61.44
235.3	59.39
235.518	-10.24
235.735	12.29
235.953	53.25
236.17	-22.53
236.388	32.77
236.605	108.54
236.822	36.86
237.04	75.77
237.257	45.06
237.475	-12.29
237.692	-10.24
237.909	26.62
238.127	51.2
238.344	59.39
238.562	65.53
238.779	40.96
238.996	-10.24
239.214	75.77
239.431	24.58
239.648	-2.05
239.865	53.25
240.083	-18.43
240.3	30.72
240.517	28.67
240.735	36.86
240.952	49.15
241.169	55.3
241.386	59.39
241.603	26.62
241.821	18.43
242.038	75.77
242.255	-10.24
242.472	16.38
242.689	96.25
242.907	22.53
243.124	24.58
243.341	-26.62
243.558	-32.77
243.775	30.72
243.992	12.29
244.209	53.25
244.426	20.48
244.643	69.63
244.86	16.38
245.078	47.1
245.295	63.49
245.512	-55.3
245.729	63.49
245.946	49.15
246.163	-4.1
246.38	18.43
246.597	57.34
246.814	20.48
247.031	57.34
247.248	69.63
247.464	20.48
247.681	53.25
247.898	34.82
248.115	-51.2
248.332	26.62
248.549	47.1
248.766	-8.19
248.983	30.72
249.2	10.24
249.417	38.91
249.633	53.25
249.85	34.82
250.067	61.44
250.284	14.34
250.501	45.06
250.717	38.91
250.934	10.24
251.151	-16.38
251.368	26.62
251.585	-59.39
251.801	22.53
252.018	-26.62
252.235	6.14
252.451	34.82
252.668	-36.86
252.885	12.29
253.102	36.86
253.318	49.15
253.535	34.82
253.752	55.3
253.968	-32.77
254.185	26.62
254.401	57.34
254.618	36.86
254.835	75.77
255.051	63.49
255.268	26.62
255.484	108.54
255.701	73.73
255.917	79.87
256.134	34.82
256.351	51.2
256.567	-16.38
256.784	32.77
257	-18.43
257.217	-4.1
257.433	32.77
257.65	16.38
257.866	4.1
258.082	43.01
258.299	-55.3
258.515	34.82
258.732	57.34
258.948	96.25
259.165	4.1
259.381	45.06
259.597	53.25
259.814	22.53
260.03	10.24
260.246	112.64
260.463	12.29
260.679	22.53
260.895	34.82
261.112	51.2
261.328	30.72
261.544	-30.72
261.761	-71.68
261.977	32.77
262.193	20.48
262.409	10.24
262.626	6.14
262.842	38.91
263.058	24.58
263.274	32.77
263.49	38.91
263.707	-2.05
263.923	-10.24
264.139	-6.14
264.355	22.53
264.571	47.1
264.787	43.01
265.004	75.77
265.22	26.62
265.436	137.21
265.652	-36.86
265.868	16.38
266.084	81.92
266.3	63.49
266.516	-2.05
266.732	40.96
266.948	86.01
267.164	38.91
267.38	32.77
267.596	24.58
267.812	79.87
268.028	43.01
268.244	-4.1
268.46	-26.62
268.676	45.06
268.892	100.35
269.108	8.19
269.324	-55.3
269.54	71.68
269.756	88.06
269.972	-16.38
270.188	22.53
270.403	0
270.619	0
270.835	112.64
271.051	43.01
271.267	45.06
271.483	51.2
271.698	135.17
271.914	65.53
272.13	45.06
272.346	40.96
272.562	65.53
272.777	26.62
272.993	40.96
273.209	40.96
273.425	137.21
273.64	24.58
273.856	38.91
274.072	69.63
274.287	28.67
274.503	96.25
274.719	51.2
274.934	49.15
275.15	47.1
275.366	10.24
275.581	18.43
275.797	4.1
276.012	14.34
276.228	36.86
276.444	14.34
276.659	92.16
276.875	-16.38
277.09	65.53
277.306	63.49
277.521	112.64
277.737	26.62
277.952	22.53
278.168	8.19
278.383	59.39
278.599	94.21
278.814	90.11
279.03	-16.38
279.245	43.01
279.461	10.24
279.676	40.96
279.892	-4.1
280.107	24.58
280.322	-69.63
280.538	61.44
280.753	2.05
280.969	-2.05
281.184	180.22
281.399	126.97
281.615	32.77
281.83	36.86
282.045	47.1
282.26	-6.14
282.476	38.91
282.691	98.3
282.906	49.15
283.122	47.1
283.337	49.15
283.552	28.67
283.767	-24.58
283.983	57.34
284.198	-6.14
284.413	94.21
284.628	0
284.843	6.14
285.058	45.06
285.274	69.63
285.489	-40.96
285.704	14.34
285.919	-43.01
286.134	22.53
286.349	-2.05
286.564	90.11
286.779	106.49
286.995	40.96
287.21	36.86
287.425	24.58
287.64	-28.67
287.855	49.15
288.07	20.48
288.285	53.25
288.5	4.1
288.715	79.87
288.93	-30.72
289.145	8.19
289.36	38.91
289.575	98.3
289.79	45.06
290.004	24.58
290.219	36.86
290.434	-73.73
290.649	57.34
290.864	36.86
291.079	43.01
291.294	-8.19
291.509	59.39
291.724	22.53
291.938	43.01
292.153	2.05
292.368	-34.82
292.583	34.82
292.798	28.67
293.012	47.1
293.227	40.96
293.442	12.29
293.657	32.77
293.871	-30.72
294.086	71.68
294.301	75.77
294.516	63.49
294.73	51.2
294.945	75.77
295.16	32.77
295.374	6.14
295.589	63.49
295.804	26.62
296.018	104.45
296.233	43.01
296.447	-22.53
296.662	26.62
296.877	49.15
297.091	114.69
297.306	18.43
297.52	8.19
297.735	6.14
297.949	22.53
298.164	-4.1
298.378	61.44
298.593	18.43
298.807	16.38
299.022	49.15
299.236	57.34
299.451	32.77
299.665	34.82
299.88	94.21
300.094	16.38
300.309	49.15
300.523	47.1
300.737	32.77
300.952	30.72
301.166	8.19
301.381	-4.1
301.595	26.62
301.809	55.3
302.024	16.38
302.238	-18.43
302.452	63.49
302.667	36.86
302.881	133.12
303.095	32.77
303.309	112.64
303.524	67.58
303.738	40.96
303.952	8.19
304.166	51.2
304.381	22.53
304.595	-10.24
304.809	59.39
305.023	112.64
305.237	24.58
305.452	51.2
305.666	53.25
305.88	100.35
306.094	-20.48
306.308	51.2
306.522	34.82
306.736	79.87
306.95	86.01
307.164	8.19
307.379	-18.43
307.593	49.15
307.807	98.3
308.021	120.83
308.235	-12.29
308.449	-12.29
308.663	18.43
308.877	14.34
309.091	-8.19
309.305	-4.1
309.519	-2.05
309.733	24.58
309.947	47.1
310.161	49.15
310.374	47.1
310.588	59.39
310.802	8.19
311.016	4.1
311.23	14.34
311.444	-16.38
311.658	0
311.872	94.21
312.085	133.12
312.299	57.34
312.513	61.44
312.727	22.53
312.941	34.82
313.154	-45.06
313.368	-4.1
313.582	28.67
313.796	-65.54
314.009	-43.01
314.223	43.01
314.437	30.72
314.651	67.58
314.864	-20.48
315.078	-12.29
315.292	14.34
315.505	32.77
315.719	22.53
315.933	63.49
316.146	14.34
316.36	67.58
316.573	-8.19
316.787	-12.29
317.001	22.53
317.214	43.01
317.428	88.06
317.641	18.43
317.855	43.01
318.068	0
318.282	40.96
318.495	40.96
318.709	-10.24
318.922	-30.72
319.136	40.96
319.349	94.21
319.563	59.39
319.776	65.53
319.99	-12.29
320.203	59.39
320.417	-36.86
320.63	71.68
320.843	47.1
321.057	-12.29
321.27	96.25
321.483	49.15
321.697	83.97
321.91	26.62
322.124	-4.1
322.337	71.68
322.55	-8.19
322.763	49.15
322.977	-16.38
323.19	57.34
323.403	57.34
323.617	90.11
323.83	137.21
324.043	8.19
324.256	67.58
324.469	26.62
324.683	-20.48
324.896	12.29
325.109	4.1
325.322	79.87
325.535	53.25
325.748	34.82
325.962	30.72
326.175	40.96
326.388	40.96
326.601	86.01
326.814	57.34
327.027	-49.15
327.24	61.44
327.453	-12.29
327.666	65.53
327.879	16.38
328.092	-16.38
328.305	100.35
328.518	63.49
328.731	10.24
328.944	61.44
329.157	-71.68
329.37	24.58
329.583	102.4
329.796	43.01
330.009	16.38
330.222	22.53
330.435	-8.19
330.648	0
330.861	30.72
331.073	-18.43
331.286	43.01
331.499	49.15
331.712	16.38
331.925	14.34
332.138	106.49
332.35	118.78
332.563	-6.14
332.776	43.01
332.989	40.96
333.202	22.53
333.414	28.67
333.627	30.72
333.84	40.96
334.053	45.06
334.265	4.1
334.478	36.86
334.691	-20.48
334.903	-40.96
335.116	28.67
335.329	-2.05
335.541	20.48
335.754	90.11
335.966	86.01
336.179	86.01
336.392	61.44
336.604	63.49
336.817	75.77
337.029	36.86
337.242	116.73
337.454	61.44
337.667	24.58
337.88	61.44
338.092	65.53
338.305	92.16
338.517	77.82
338.729	79.87
338.942	53.25
339.154	24.58
339.367	53.25
339.579	88.06
339.792	38.91
340.004	102.4
340.217	10.24
340.429	43.01
340.641	26.62
340.854	133.12
341.066	65.53
341.278	96.25
341.491	63.49
341.703	65.53
341.915	-6.14
342.128	57.34
342.34	26.62
342.552	-2.05
342.764	45.06
342.977	83.97
343.189	51.2
343.401	20.48
343.613	28.67
343.826	77.82
344.038	16.38
344.25	57.34
344.462	-20.48
344.674	112.64
344.886	28.67
345.099	63.49
345.311	0
345.523	45.06
345.735	-32.77
345.947	26.62
346.159	-6.14
346.371	71.68
346.583	2.05
346.795	51.2
347.007	65.53
347.219	59.39
347.431	18.43
347.643	104.45
347.855	32.77
348.067	47.1
348.279	30.72
348.491	34.82
348.703	55.3
348.915	96.25
349.127	4.1
349.339	61.44
349.551	65.53
349.763	40.96
349.975	6.14
350.187	47.1
350.399	20.48
350.61	10.24
350.822	4.1
351.034	8.19
351.246	32.77
351.458	45.06
351.669	43.01
351.881	104.45
352.093	110.59
352.305	38.91
352.517	59.39
352.728	104.45
352.94	36.86
353.152	51.2
353.363	61.44
353.575	38.91
353.787	59.39
353.999	8.19
354.21	49.15
354.422	16.38
354.633	-18.43
354.845	61.44
355.057	65.53
355.268	6.14
355.48	51.2
355.692	20.48
355.903	55.3
356.115	79.87
356.326	-38.91
356.538	16.38
356.749	51.2
356.961	57.34
357.172	67.58
357.384	73.73
357.595	24.58
357.807	32.77
358.018	81.92
358.23	65.53
358.441	47.1
358.653	69.63
358.864	67.58
359.075	26.62
359.287	49.15
359.498	38.91
359.709	112.64
359.921	-24.58
360.132	49.15
360.344	110.59
360.555	79.87
360.766	40.96
360.977	75.77
361.189	36.86
361.4	63.49
361.611	114.69
361.823	92.16
362.034	14.34
362.245	81.92
362.456	55.3
362.667	30.72
362.879	24.58
363.09	75.77
363.301	18.43
363.512	-26.62
363.723	55.3
363.935	36.86
364.146	131.07
364.357	-6.14
364.568	0
364.779	22.53
364.99	86.01
365.201	40.96
365.412	34.82
365.623	34.82
365.834	100.35
366.045	114.69
366.256	79.87
366.467	67.58
366.678	100.35
366.889	34.82
367.1	36.86
367.311	59.39
367.522	100.35
367.733	88.06
367.944	92.16
368.155	30.72
368.366	43.01
368.577	88.06
368.788	94.21
368.999	53.25
369.209	26.62
369.42	114.69
369.631	114.69
369.842	38.91
370.053	32.77
370.264	57.34
370.474	94.21
370.685	16.38
370.896	71.68
371.107	0
371.317	40.96
371.528	-28.67
371.739	69.63
371.95	40.96
372.16	75.77
372.371	53.25
372.582	2.05
372.792	61.44
373.003	2.05
373.214	61.44
373.424	90.11
373.635	90.11
373.846	55.3
374.056	86.01
374.267	110.59
374.477	73.73
374.688	22.53
374.898	151.55
375.109	28.67
375.319	63.49
375.53	92.16
375.74	77.82
375.951	20.48
376.161	92.16
376.372	71.68
376.582	114.69
376.793	126.97
377.003	-81.92
377.214	112.64
377.424	20.48
377.635	79.87
377.845	49.15
378.055	40.96
378.266	92.16
378.476	49.15
378.686	43.01
378.897	157.69
379.107	69.63
379.317	59.39
379.528	4.1
379.738	69.63
379.948	-28.67
380.158	-2.05
380.369	57.34
380.579	120.83
380.789	-28.67
380.999	79.87
381.21	77.82
381.42	188.41
381.63	73.73
381.84	38.91
382.05	75.77
382.261	98.3
382.471	36.86
382.681	14.34
382.891	36.86
383.101	71.68
383.311	-16.38
383.521	-10.24
383.731	28.67
383.941	71.68
384.151	38.91
384.361	43.01
384.571	69.63
384.781	145.41
384.991	53.25
385.201	75.77
385.411	79.87
385.621	69.63
385.831	16.38
386.041	2.05
386.251	57.34
386.461	118.78
386.671	153.6
386.881	71.68
387.091	69.63
387.301	49.15
387.511	32.77
387.72	45.06
387.93	104.45
388.14	77.82
388.35	28.67
388.56	147.45
388.769	151.55
388.979	63.49
389.189	40.96
389.399	75.77
389.609	151.55
389.818	12.29
390.028	126.97
390.238	118.78
390.447	30.72
390.657	124.93
390.867	43.01
391.076	0
391.286	67.58
391.496	114.69
391.705	4.1
391.915	38.91
392.125	120.83
392.334	94.21
392.544	55.3
392.753	94.21
392.963	59.39
393.172	180.22
393.382	71.68
393.591	90.11
393.801	16.38
394.01	81.92
394.22	81.92
394.429	49.15
394.639	77.82
394.848	137.21
395.058	40.96
395.267	14.34
395.477	47.1
395.686	55.3
395.895	106.49
396.105	79.87
396.314	98.3
396.524	122.88
396.733	112.64
396.942	137.21
397.152	94.21
397.361	59.39
397.57	169.98
397.78	114.69
397.989	34.82
398.198	147.45
398.407	157.69
398.617	73.73
398.826	69.63
399.035	57.34
399.244	147.45
399.453	159.74
399.663	59.39
399.872	143.36
400.081	106.49
400.29	120.83
400.499	108.54
400.708	133.12
400.917	16.38
401.127	43.01
401.336	81.92
401.545	153.6
401.754	96.25
401.963	106.49
402.172	219.13
402.381	161.79
402.59	145.41
402.799	96.25
403.008	120.83
403.217	153.6
403.426	159.74
403.635	135.17
403.844	90.11
404.053	174.08
404.262	126.97
404.471	208.89
404.68	114.69
404.888	114.69
405.097	135.17
405.306	153.6
405.515	153.6
405.724	163.84
405.933	104.45
406.142	157.69
406.35	184.32
406.559	202.75
406.768	245.76
406.977	200.7
407.185	192.51
407.394	223.23
407.603	196.61
407.812	159.74
408.02	253.95
408.229	221.18
408.438	192.51
408.646	180.22
408.855	274.43
409.064	249.85
409.272	249.85
409.481	358.39
409.69	344.06
409.898	262.14
410.107	346.11
410.315	401.4
410.524	339.96
410.733	294.91
410.941	348.15
411.15	247.8
411.358	296.96
411.567	464.89
411.775	370.68
411.984	380.92
412.192	462.84
412.401	380.92
412.609	423.93
412.818	458.74
413.026	550.9
413.234	548.86
413.443	573.43
413.651	581.62
413.86	526.33
414.068	579.58
414.276	509.94
414.485	587.77
414.693	692.21
414.901	657.4
415.11	753.65
415.318	702.45
415.526	739.32
415.734	759.8
415.943	729.08
416.151	796.66
416.359	718.84
416.567	921.59
416.776	921.59
416.984	964.59
417.192	956.4
417.4	1028.08
417.608	897.01
417.817	1097.71
418.025	1064.94
418.233	1118.19
418.441	1200.11
418.649	1200.11
418.857	1187.82
419.065	1341.42
419.273	1267.69
419.481	1308.65
419.689	1419.24
419.897	1538.02
420.105	1503.21
420.313	1626.09
420.521	1581.03
420.729	1527.78
420.937	1679.33
421.145	1759.21
421.353	1830.88
421.561	1964
421.769	2000.87
421.977	2105.31
422.185	1912.8
422.393	2136.03
422.601	2248.67
422.809	2195.42
423.017	2183.13
423.224	2375.64
423.432	2451.42
423.64	2568.15
423.848	2826.2
424.056	2701.27
424.263	2822.1
424.471	2848.72
424.679	2885.59
424.887	3000.27
425.094	3227.6
425.302	3143.63
425.51	3252.17
425.718	3456.97
425.925	3479.5
426.133	3665.86
426.341	3880.9
426.548	3897.28
426.756	3868.61
426.964	3999.68
427.171	4231.1
427.379	4298.69
427.586	4319.17
427.794	4597.69
428.001	4763.58
428.209	4951.99
428.417	4837.3
428.624	5175.22
428.832	5017.52
429.039	5021.62
429.247	5111.73
429.454	5633.96
429.662	6123.43
429.869	5644.2
430.076	6184.87
430.284	5941.16
430.491	6143.91
430.699	6440.86
430.906	6490.01
431.114	6561.69
431.321	6883.22
431.528	7182.23
431.736	7479.18
431.943	7839.62
432.15	7624.59
432.358	7749.51
432.565	7991.17
432.772	7927.69
432.979	8626.04
433.187	8529.79
433.394	8806.27
433.601	9342.83
433.808	9285.49
434.016	9400.18
434.223	9512.81
434.43	10174.31
434.637	10153.83
434.844	10729.31
435.052	11030.36
435.259	10782.56
435.466	10907.48
435.673	10852.19
435.88	11446.1
436.087	11956.04
436.294	12193.61
436.501	12062.54
436.708	11941.71
436.915	12578.62
437.122	13072.18
437.329	13080.38
437.537	13446.96
437.743	13846.32
437.95	13584.18
438.157	14223.14
438.364	14901.02
438.571	15013.66
438.778	14929.69
438.985	16088.84
439.192	15728.4
439.399	16058.12
439.606	15730.45
439.813	16604.93
440.02	17688.31
440.227	17149.69
440.433	17286.9
440.64	17962.73
440.847	17788.66
441.054	18378.47
441.261	19470.04
441.467	19273.43
441.674	19373.78
441.881	20094.67
442.088	20238.03
442.294	20035.28
442.501	20352.71
442.708	20956.86
442.914	21825.2
443.121	22621.86
443.328	21923.51
443.534	23565.98
443.741	23142.05
443.948	22865.57
444.154	24331.92
444.361	24063.63
444.568	24462.99
444.774	24149.65
444.981	24555.15
445.187	25415.29
445.394	26482.28
445.6	26470
445.807	28792.39
446.013	27455.07
446.22	27723.35
446.426	29201.99
446.633	29253.19
446.839	30477.87
447.046	29349.44
447.252	30588.46
447.459	30875.18
447.665	31067.69
447.871	31999.51
448.078	33482.24
448.284	31712.8
448.491	32900.62
448.697	33705.47
448.903	34584.05
449.11	34717.17
449.316	33596.93
449.522	34944.49
449.728	35765.73
449.935	36052.44
450.141	36124.12
450.347	36746.7
450.553	35599.84
450.76	35800.54
450.966	37514.69
451.172	37000.65
451.378	37885.37
451.584	37035.47
451.791	38321.59
451.997	38008.25
452.203	38835.63
452.409	38577.59
452.615	38528.44
452.821	37098.95
453.027	36863.44
453.233	38518.2
453.44	36933.07
453.646	37672.39
453.852	37803.46
454.058	38659.51
454.264	37273.03
454.47	37930.43
454.676	37189.06
454.882	38485.43
455.088	34717.17
455.294	35241.45
455.5	36042.2
455.705	36683.22
455.911	35048.94
456.117	34276.85
456.323	33867.26
456.529	32073.24
456.735	33787.39
456.941	32859.66
457.147	32394.77
457.352	31245.86
457.558	31071.78
457.764	30973.48
457.97	29978.17
458.176	29713.98
458.381	29869.62
458.587	28343.89
458.793	28315.22
458.999	26916.45
459.204	28743.24
459.41	27934.29
459.616	26285.68
459.821	26062.45
460.027	25943.67
460.233	25474.68
460.438	24671.88
460.644	24508.04
460.85	23502.49
461.055	23074.46
461.261	23262.88
461.466	21452.47
461.672	20711.11
461.878	22181.55
462.083	20707.01
462.289	20348.62
462.494	20109.01
462.7	19398.36
462.905	18673.38
463.111	19420.89
463.316	19400.41
463.522	18956
463.727	19173.08
463.932	19107.55
464.138	18673.38
464.343	18745.06
464.549	18159.34
464.754	18910.94
464.959	18818.78
465.165	18712.29
465.37	17966.83
465.575	17585.91
465.781	18099.95
465.986	18271.98
466.191	17547
466.397	17235.71
466.602	16291.59
466.807	17008.38
467.012	16998.14
467.218	16797.44
467.423	16697.09
467.628	16973.57
467.833	17503.99
468.038	17198.84
