Data from USB4F104151__96__12-28-23-207.txt Node

Date: Fri Mar 14 12:28:23 EDT 2025
User: louis
Spectrometer: USB4F10415
Trigger mode: 4
Integration Time (sec): 2.000000E-2
Scans to average: 1
Electric dark correction enabled: true
Nonlinearity correction enabled: false
Boxcar width: 0
XAxis mode: Wavelengths
Number of Pixels in Spectrum: 3648
>>>>>Begin Spectral Data<<<<<
178.204	-110.76
178.424	-110.76
178.644	-110.76
178.864	-127.14
179.084	-59.56
179.304	20.31
179.524	98.13
179.744	-10.41
179.964	-0.17
180.184	36.69
180.404	-16.55
180.624	14.17
180.844	-6.31
181.064	-32.94
181.283	-47.27
181.503	-45.23
181.723	-10.41
181.943	-32.94
182.163	77.65
182.383	8.02
182.602	38.74
182.822	42.84
183.042	38.74
183.262	-18.6
183.482	-24.75
183.701	-4.27
183.921	-6.31
184.141	-10.41
184.361	61.27
184.58	71.51
184.8	-4.27
185.02	22.36
185.239	-2.22
185.459	38.74
185.679	32.6
185.898	-2.22
186.118	10.07
186.338	8.02
186.557	14.17
186.777	-24.75
186.997	12.12
187.216	-20.65
187.436	85.84
187.655	-24.75
187.875	91.99
188.095	1.88
188.314	32.6
188.534	61.27
188.753	30.55
188.973	24.4
189.192	106.32
189.412	57.17
189.631	-8.36
189.851	-2.22
190.07	38.74
190.29	-69.8
190.509	-49.32
190.729	38.74
190.948	55.12
191.168	40.79
191.387	38.74
191.607	-59.56
191.826	-41.13
192.045	-26.79
192.265	24.4
192.484	14.17
192.704	5.97
192.923	-77.99
193.142	-30.89
193.362	-30.89
193.581	-32.94
193.8	16.21
194.02	28.5
194.239	42.84
194.458	-2.22
194.678	-20.65
194.897	-39.08
195.116	81.75
195.335	-32.94
195.555	-43.18
195.774	-0.17
195.993	24.4
196.212	51.03
196.432	14.17
196.651	42.84
196.87	-22.7
197.089	91.99
197.308	63.32
197.528	77.65
197.747	1.88
197.966	59.22
198.185	63.32
198.404	-37.03
198.623	44.88
198.842	-61.61
199.062	96.08
199.281	34.64
199.5	16.21
199.719	51.03
199.938	34.64
200.157	-0.17
200.376	-8.36
200.595	110.42
200.814	18.26
201.033	18.26
201.252	-16.55
201.471	75.6
201.69	24.4
201.909	40.79
202.128	8.02
202.347	1.88
202.566	5.97
202.785	8.02
203.004	14.17
203.223	10.07
203.442	-53.42
203.661	18.26
203.879	-8.36
204.098	36.69
204.317	-30.89
204.536	69.46
204.755	59.22
204.974	-16.55
205.193	-8.36
205.411	79.7
205.63	-49.32
205.849	10.07
206.068	-22.7
206.287	81.75
206.505	18.26
206.724	22.36
206.943	18.26
207.162	22.36
207.381	14.17
207.599	5.97
207.818	34.64
208.037	55.12
208.255	8.02
208.474	-16.55
208.693	114.52
208.911	-6.31
209.13	16.21
209.349	32.6
209.567	40.79
209.786	24.4
210.005	14.17
210.223	20.31
210.442	28.5
210.661	1.88
210.879	-53.42
211.098	16.21
211.316	-6.31
211.535	10.07
211.753	1.88
211.972	20.31
212.191	40.79
212.409	85.84
212.628	18.26
212.846	46.93
213.065	5.97
213.283	61.27
213.502	-10.41
213.72	73.56
213.938	-10.41
214.157	-6.31
214.375	-45.23
214.594	-37.03
214.812	120.66
215.031	-30.89
215.249	57.17
215.467	28.5
215.686	89.94
215.904	83.8
216.122	-24.75
216.341	-12.46
216.559	-30.89
216.778	-0.17
216.996	55.12
217.214	-18.6
217.432	-10.41
217.651	-51.37
217.869	42.84
218.087	53.08
218.306	-47.27
218.524	85.84
218.742	-34.99
218.96	-32.94
219.179	-49.32
219.397	10.07
219.615	67.41
219.833	-4.27
220.051	20.31
220.27	65.36
220.488	91.99
220.706	32.6
220.924	38.74
221.142	10.07
221.36	-10.41
221.578	85.84
221.796	-6.31
222.015	-65.71
222.233	10.07
222.451	-0.17
222.669	18.26
222.887	8.02
223.105	3.93
223.323	-34.99
223.541	-39.08
223.759	16.21
223.977	-57.51
224.195	94.04
224.413	44.88
224.631	8.02
224.849	-14.51
225.067	67.41
225.285	22.36
225.503	40.79
225.721	10.07
225.939	34.64
226.157	12.12
226.375	122.71
226.592	10.07
226.81	-41.13
227.028	42.84
227.246	73.56
227.464	48.98
227.682	24.4
227.9	5.97
228.117	65.36
228.335	42.84
228.553	85.84
228.771	34.64
228.989	24.4
229.206	3.93
229.424	28.5
229.642	24.4
229.86	14.17
230.077	75.6
230.295	10.07
230.513	-47.27
230.731	46.93
230.948	61.27
231.166	24.4
231.384	32.6
231.601	28.5
231.819	-10.41
232.037	-16.55
232.254	44.88
232.472	-10.41
232.689	63.32
232.907	8.02
233.125	8.02
233.342	61.27
233.56	8.02
233.777	16.21
233.995	-18.6
234.213	98.13
234.43	-34.99
234.648	51.03
234.865	20.31
235.083	-22.7
235.3	38.74
235.518	-22.7
235.735	40.79
235.953	40.79
236.17	73.56
236.388	-8.36
236.605	73.56
236.822	34.64
237.04	44.88
237.257	30.55
237.475	-24.75
237.692	26.45
237.909	10.07
238.127	40.79
238.344	18.26
238.562	10.07
238.779	18.26
238.996	28.5
239.214	-10.41
239.431	-4.27
239.648	28.5
239.865	26.45
240.083	32.6
240.3	20.31
240.517	28.5
240.735	8.02
240.952	-55.47
241.169	18.26
241.386	42.84
241.603	-30.89
241.821	10.07
242.038	48.98
242.255	67.41
242.472	38.74
242.689	12.12
242.907	73.56
243.124	65.36
243.341	34.64
243.558	77.65
243.775	-10.41
243.992	-51.37
244.209	-14.51
244.426	106.32
244.643	26.45
244.86	-16.55
245.078	130.9
245.295	22.36
245.512	3.93
245.729	-37.03
245.946	-14.51
246.163	67.41
246.38	42.84
246.597	-14.51
246.814	38.74
247.031	112.47
247.248	28.5
247.464	-39.08
247.681	18.26
247.898	8.02
248.115	34.64
248.332	-51.37
248.549	30.55
248.766	65.36
248.983	24.4
249.2	-32.94
249.417	89.94
249.633	30.55
249.85	83.8
250.067	53.08
250.284	67.41
250.501	42.84
250.717	-4.27
250.934	1.88
251.151	18.26
251.368	-6.31
251.585	104.28
251.801	36.69
252.018	28.5
252.235	-26.79
252.451	-43.18
252.668	-30.89
252.885	65.36
253.102	10.07
253.318	40.79
253.535	3.93
253.752	-2.22
253.968	-32.94
254.185	34.64
254.401	8.02
254.618	20.31
254.835	14.17
255.051	67.41
255.268	-51.37
255.484	34.64
255.701	40.79
255.917	28.5
256.134	14.17
256.351	20.31
256.567	30.55
256.784	8.02
257	-20.65
257.217	34.64
257.433	-22.7
257.65	-10.41
257.866	61.27
258.082	40.79
258.299	67.41
258.515	51.03
258.732	63.32
258.948	108.37
259.165	-34.99
259.381	79.7
259.597	-34.99
259.814	24.4
260.03	-22.7
260.246	-30.89
260.463	83.8
260.679	57.17
260.895	55.12
261.112	-41.13
261.328	5.97
261.544	40.79
261.761	59.22
261.977	-37.03
262.193	-22.7
262.409	77.65
262.626	-43.18
262.842	71.51
263.058	10.07
263.274	-4.27
263.49	59.22
263.707	69.46
263.923	28.5
264.139	12.12
264.355	65.36
264.571	40.79
264.787	42.84
265.004	65.36
265.22	28.5
265.436	38.74
265.652	81.75
265.868	-14.51
266.084	18.26
266.3	36.69
266.516	28.5
266.732	42.84
266.948	-0.17
267.164	51.03
267.38	-73.9
267.596	98.13
267.812	91.99
268.028	36.69
268.244	34.64
268.46	34.64
268.676	-6.31
268.892	16.21
269.108	1.88
269.324	-14.51
269.54	-39.08
269.756	-0.17
269.972	-26.79
270.188	59.22
270.403	-59.56
270.619	73.56
270.835	-10.41
271.051	73.56
271.267	-14.51
271.483	14.17
271.698	14.17
271.914	38.74
272.13	32.6
272.346	1.88
272.562	44.88
272.777	1.88
272.993	30.55
273.209	-32.94
273.425	32.6
273.64	12.12
273.856	63.32
274.072	77.65
274.287	53.08
274.503	57.17
274.719	51.03
274.934	20.31
275.15	-14.51
275.366	44.88
275.581	75.6
275.797	65.36
276.012	114.52
276.228	-14.51
276.444	-10.41
276.659	81.75
276.875	3.93
277.09	-43.18
277.306	44.88
277.521	46.93
277.737	53.08
277.952	28.5
278.168	30.55
278.383	-2.22
278.599	14.17
278.814	46.93
279.03	-2.22
279.245	75.6
279.461	83.8
279.676	14.17
279.892	-32.94
280.107	22.36
280.322	-37.03
280.538	120.66
280.753	79.7
280.969	-2.22
281.184	28.5
281.399	20.31
281.615	51.03
281.83	40.79
282.045	28.5
282.26	38.74
282.476	83.8
282.691	36.69
282.906	20.31
283.122	30.55
283.337	8.02
283.552	53.08
283.767	26.45
283.983	69.46
284.198	91.99
284.413	-2.22
284.628	30.55
284.843	34.64
285.058	104.28
285.274	42.84
285.489	14.17
285.704	71.51
285.919	-2.22
286.134	34.64
286.349	-16.55
286.564	22.36
286.779	112.47
286.995	30.55
287.21	-20.65
287.425	22.36
287.64	-6.31
287.855	38.74
288.07	-45.23
288.285	36.69
288.5	94.04
288.715	32.6
288.93	-26.79
289.145	42.84
289.36	14.17
289.575	10.07
289.79	59.22
290.004	-24.75
290.219	69.46
290.434	18.26
290.649	38.74
290.864	24.4
291.079	3.93
291.294	102.23
291.509	28.5
291.724	-2.22
291.938	-4.27
292.153	1.88
292.368	30.55
292.583	14.17
292.798	20.31
293.012	75.6
293.227	8.02
293.442	-10.41
293.657	24.4
293.871	81.75
294.086	55.12
294.301	48.98
294.516	-22.7
294.73	48.98
294.945	-22.7
295.16	61.27
295.374	69.46
295.589	63.32
295.804	-24.75
296.018	-26.79
296.233	32.6
296.447	40.79
296.662	67.41
296.877	171.86
297.091	-10.41
297.306	81.75
297.52	-41.13
297.735	46.93
297.949	3.93
298.164	20.31
298.378	20.31
298.593	22.36
298.807	65.36
299.022	55.12
299.236	-2.22
299.451	18.26
299.665	36.69
299.88	32.6
300.094	40.79
300.309	38.74
300.523	26.45
300.737	-2.22
300.952	12.12
301.166	83.8
301.381	-73.9
301.595	5.97
301.809	12.12
302.024	-0.17
302.238	22.36
302.452	59.22
302.667	-47.27
302.881	85.84
303.095	36.69
303.309	89.94
303.524	22.36
303.738	-22.7
303.952	22.36
304.166	36.69
304.381	-22.7
304.595	65.36
304.809	-22.7
305.023	30.55
305.237	24.4
305.452	12.12
305.666	-14.51
305.88	71.51
306.094	24.4
306.308	112.47
306.522	73.56
306.736	91.99
306.95	1.88
307.164	14.17
307.379	20.31
307.593	69.46
307.807	38.74
308.021	10.07
308.235	32.6
308.449	1.88
308.663	1.88
308.877	112.47
309.091	-8.36
309.305	87.89
309.519	3.93
309.733	48.98
309.947	-0.17
310.161	120.66
310.374	-18.6
310.588	65.36
310.802	-18.6
311.016	36.69
311.23	10.07
311.444	30.55
311.658	24.4
311.872	89.94
312.085	-4.27
312.299	26.45
312.513	14.17
312.727	28.5
312.941	32.6
313.154	91.99
313.368	51.03
313.582	34.64
313.796	3.93
314.009	16.21
314.223	12.12
314.437	38.74
314.651	42.84
314.864	20.31
315.078	1.88
315.292	-45.23
315.505	-24.75
315.719	46.93
315.933	10.07
316.146	38.74
316.36	-4.27
316.573	106.32
316.787	-0.17
317.001	42.84
317.214	28.5
317.428	46.93
317.641	-24.75
317.855	83.8
318.068	-2.22
318.282	36.69
318.495	67.41
318.709	36.69
318.922	14.17
319.136	20.31
319.349	59.22
319.563	-4.27
319.776	26.45
319.99	102.23
320.203	38.74
320.417	5.97
320.63	3.93
320.843	75.6
321.057	-6.31
321.27	14.17
321.483	44.88
321.697	59.22
321.91	-10.41
322.124	-8.36
322.337	-53.42
322.55	8.02
322.763	59.22
322.977	55.12
323.19	-47.27
323.403	36.69
323.617	8.02
323.83	130.9
324.043	38.74
324.256	5.97
324.469	-73.9
324.683	-10.41
324.896	-71.85
325.109	-16.55
325.322	48.98
325.535	36.69
325.748	5.97
325.962	-0.17
326.175	59.22
326.388	46.93
326.601	20.31
326.814	77.65
327.027	57.17
327.24	73.56
327.453	28.5
327.666	36.69
327.879	-12.46
328.092	24.4
328.305	12.12
328.518	77.65
328.731	-20.65
328.944	3.93
329.157	38.74
329.37	28.5
329.583	1.88
329.796	89.94
330.009	30.55
330.222	61.27
330.435	28.5
330.648	75.6
330.861	-26.79
331.073	40.79
331.286	67.41
331.499	34.64
331.712	57.17
331.925	57.17
332.138	108.37
332.35	30.55
332.563	-71.85
332.776	42.84
332.989	34.64
333.202	53.08
333.414	63.32
333.627	69.46
333.84	-8.36
334.053	89.94
334.265	53.08
334.478	75.6
334.691	75.6
334.903	1.88
335.116	16.21
335.329	-39.08
335.541	51.03
335.754	91.99
335.966	-49.32
336.179	48.98
336.392	-6.31
336.604	-6.31
336.817	38.74
337.029	10.07
337.242	5.97
337.454	75.6
337.667	10.07
337.88	83.8
338.092	51.03
338.305	30.55
338.517	38.74
338.729	89.94
338.942	94.04
339.154	22.36
339.367	8.02
339.579	79.7
339.792	112.47
340.004	65.36
340.217	32.6
340.429	40.79
340.641	63.32
340.854	63.32
341.066	3.93
341.278	40.79
341.491	102.23
341.703	44.88
341.915	24.4
342.128	57.17
342.34	24.4
342.552	1.88
342.764	61.27
342.977	48.98
343.189	67.41
343.401	81.75
343.613	-2.22
343.826	57.17
344.038	-12.46
344.25	75.6
344.462	-6.31
344.674	69.46
344.886	-4.27
345.099	-30.89
345.311	89.94
345.523	112.47
345.735	38.74
345.947	46.93
346.159	-0.17
346.371	85.84
346.583	16.21
346.795	34.64
347.007	-6.31
347.219	114.52
347.431	51.03
347.643	67.41
347.855	96.08
348.067	14.17
348.279	18.26
348.491	34.64
348.703	30.55
348.915	-6.31
349.127	46.93
349.339	-28.84
349.551	-2.22
349.763	63.32
349.975	-49.32
350.187	-10.41
350.399	38.74
350.61	36.69
350.822	32.6
351.034	22.36
351.246	-10.41
351.458	22.36
351.669	98.13
351.881	69.46
352.093	63.32
352.305	85.84
352.517	30.55
352.728	-10.41
352.94	-6.31
353.152	98.13
353.363	57.17
353.575	77.65
353.787	57.17
353.999	36.69
354.21	59.22
354.422	124.76
354.633	10.07
354.845	8.02
355.057	10.07
355.268	55.12
355.48	30.55
355.692	-0.17
355.903	40.79
356.115	16.21
356.326	32.6
356.538	110.42
356.749	42.84
356.961	36.69
357.172	42.84
357.384	-4.27
357.595	96.08
357.807	-6.31
358.018	20.31
358.23	-20.65
358.441	65.36
358.653	100.18
358.864	53.08
359.075	-26.79
359.287	73.56
359.498	81.75
359.709	30.55
359.921	24.4
360.132	-30.89
360.344	-51.37
360.555	-10.41
360.766	26.45
360.977	55.12
361.189	-2.22
361.4	5.97
361.611	-20.65
361.823	42.84
362.034	87.89
362.245	-59.56
362.456	108.37
362.667	30.55
362.879	55.12
363.09	-0.17
363.301	81.75
363.512	26.45
363.723	28.5
363.935	18.26
364.146	116.56
364.357	12.12
364.568	32.6
364.779	-26.79
364.99	96.08
365.201	-61.61
365.412	81.75
365.623	-16.55
365.834	61.27
366.045	22.36
366.256	73.56
366.467	106.32
366.678	16.21
366.889	42.84
367.1	-2.22
367.311	24.4
367.522	36.69
367.733	77.65
367.944	10.07
368.155	57.17
368.366	18.26
368.577	-4.27
368.788	48.98
368.999	12.12
369.209	53.08
369.42	81.75
369.631	30.55
369.842	14.17
370.053	8.02
370.264	12.12
370.474	14.17
370.685	44.88
370.896	46.93
371.107	-2.22
371.317	53.08
371.528	-49.32
371.739	57.17
371.95	40.79
372.16	12.12
372.371	51.03
372.582	-18.6
372.792	-28.84
373.003	-20.65
373.214	-6.31
373.424	108.37
373.635	14.17
373.846	48.98
374.056	67.41
374.267	36.69
374.477	51.03
374.688	87.89
374.898	30.55
375.109	81.75
375.319	155.47
375.53	28.5
375.74	44.88
375.951	77.65
376.161	77.65
376.372	83.8
376.582	36.69
376.793	59.22
377.003	16.21
377.214	24.4
377.424	135
377.635	42.84
377.845	77.65
378.055	114.52
378.266	14.17
378.476	40.79
378.686	22.36
378.897	36.69
379.107	-10.41
379.317	-0.17
379.528	51.03
379.738	36.69
379.948	-49.32
380.158	28.5
380.369	-4.27
380.579	59.22
380.789	73.56
380.999	51.03
381.21	59.22
381.42	100.18
381.63	-16.55
381.84	71.51
382.05	44.88
382.261	112.47
382.471	75.6
382.681	91.99
382.891	91.99
383.101	26.45
383.311	-8.36
383.521	46.93
383.731	112.47
383.941	122.71
384.151	18.26
384.361	55.12
384.571	83.8
384.781	40.79
384.991	122.71
385.201	65.36
385.411	34.64
385.621	75.6
385.831	63.32
386.041	112.47
386.251	38.74
386.461	87.89
386.671	98.13
386.881	38.74
387.091	-6.31
387.301	85.84
387.511	67.41
387.72	24.4
387.93	-10.41
388.14	-18.6
388.35	-4.27
388.56	18.26
388.769	98.13
388.979	53.08
389.189	81.75
389.399	-12.46
389.609	67.41
389.818	34.64
390.028	79.7
390.238	36.69
390.447	42.84
390.657	128.85
390.867	114.52
391.076	75.6
391.286	38.74
391.496	12.12
391.705	69.46
391.915	77.65
392.125	114.52
392.334	28.5
392.544	57.17
392.753	59.22
392.963	94.04
393.172	147.28
393.382	12.12
393.591	81.75
393.801	75.6
394.01	124.76
394.22	34.64
394.429	55.12
394.639	61.27
394.848	89.94
395.058	73.56
395.267	104.28
395.477	73.56
395.686	124.76
395.895	110.42
396.105	77.65
396.314	59.22
396.524	73.56
396.733	42.84
396.942	180.05
397.152	75.6
397.361	40.79
397.57	94.04
397.78	91.99
397.989	130.9
398.198	83.8
398.407	128.85
398.617	149.33
398.826	77.65
399.035	65.36
399.244	71.51
399.453	147.28
399.663	44.88
399.872	135
400.081	114.52
400.29	110.42
400.499	75.6
400.708	106.32
400.917	77.65
401.127	104.28
401.336	94.04
401.545	135
401.754	91.99
401.963	87.89
402.172	100.18
402.381	122.71
402.59	96.08
402.799	108.37
403.008	153.43
403.217	137.04
403.426	202.58
403.635	98.13
403.844	65.36
404.053	81.75
404.262	151.38
404.471	139.09
404.68	165.71
404.888	114.52
405.097	116.56
405.306	233.3
405.515	118.61
405.724	145.24
405.933	137.04
406.142	106.32
406.35	75.6
406.559	186.19
406.768	235.35
406.977	206.67
407.185	239.44
407.394	180.05
407.603	212.82
407.812	229.2
408.02	251.73
408.229	206.67
408.438	251.73
408.646	229.2
408.855	225.11
409.064	182.1
409.272	315.22
409.481	241.49
409.69	188.24
409.898	253.78
410.107	253.78
410.315	225.11
410.524	364.37
410.733	223.06
410.941	294.74
411.15	356.18
411.358	268.11
411.567	390.99
411.775	264.02
411.984	298.83
412.192	380.75
412.401	333.65
412.609	376.66
412.818	501.58
413.026	495.44
413.234	520.01
413.443	401.23
413.651	481.1
413.86	409.42
414.068	700.23
414.276	540.49
414.485	528.21
414.693	608.08
414.901	636.75
415.11	624.46
415.318	599.88
415.526	677.71
415.734	665.42
415.943	712.52
416.151	745.29
416.359	755.53
416.567	694.09
416.776	751.43
416.984	845.64
417.192	929.61
417.4	864.07
417.608	878.41
417.817	1017.67
418.025	907.08
418.233	1120.07
418.441	1050.44
418.649	995.14
418.857	1091.4
419.065	1269.57
419.273	1242.95
419.481	1304.39
419.689	1349.44
419.897	1298.24
420.105	1351.49
420.313	1427.26
420.521	1544
420.729	1507.13
420.937	1574.72
421.145	1632.06
421.353	1720.12
421.561	1716.03
421.769	1828.67
421.977	1826.62
422.185	1926.97
422.393	1986.36
422.601	2078.52
422.809	2142
423.017	2127.67
423.224	2047.8
423.432	2330.42
423.64	2228.02
423.848	2400.05
424.056	2572.08
424.263	2658.09
424.471	2561.84
424.679	2740.01
424.887	2768.68
425.094	2801.45
425.302	2828.07
425.51	3006.25
425.718	3260.2
425.925	3178.28
426.133	3254.05
426.341	3421.99
426.548	3567.39
426.756	3665.69
426.964	3485.47
427.171	3790.62
427.379	3868.44
427.586	4019.99
427.794	4122.39
428.001	4237.08
428.209	4421.39
428.417	4433.68
428.624	4787.98
428.832	4665.1
429.039	4710.16
429.247	4628.24
429.454	5297.92
429.662	5486.34
429.869	5277.44
430.076	5480.19
430.284	5365.51
430.491	5715.71
430.699	5873.4
430.906	5822.2
431.114	6035.19
431.321	6162.17
431.528	6334.2
431.736	6725.36
431.943	7012.07
432.15	6813.42
432.358	6909.68
432.565	7311.08
432.772	7374.56
432.979	7714.53
433.187	7921.37
433.394	7759.58
433.601	8521.43
433.808	8568.53
434.016	8314.58
434.223	8744.66
434.43	9113.29
434.637	9002.7
434.844	9842.37
435.052	9846.46
435.259	9789.12
435.466	10008.25
435.673	9850.56
435.88	10321.59
436.087	10970.8
436.294	10780.34
436.501	10514.1
436.708	10854.06
436.915	11308.71
437.122	11982.49
437.329	11908.77
437.537	12017.31
437.743	12324.51
437.95	12074.65
438.157	12711.57
438.364	13520.52
438.571	13328.01
438.778	13368.97
438.985	14585.46
439.192	14204.54
439.399	14640.76
439.606	14139.01
439.813	14923.38
440.02	15955.55
440.227	15568.49
440.433	15478.38
440.64	16113.25
440.847	15904.35
441.054	16504.41
441.261	17436.24
441.467	17251.92
441.674	17598.02
441.881	18290.24
442.088	18189.89
442.294	18005.57
442.501	18423.36
442.708	18822.71
442.914	19519.02
443.121	20399.65
443.328	19897.89
443.534	21106.2
443.741	20569.63
443.948	20534.81
444.154	21999.11
444.361	21847.56
444.568	22042.12
444.774	22062.6
444.981	22193.67
445.187	23033.33
445.394	23535.09
445.6	23459.31
445.807	25716.17
446.013	24282.59
446.22	25269.72
446.426	25959.88
446.633	26203.59
446.839	27063.74
447.046	26004.94
447.252	27694.51
447.459	27489.71
447.665	27348.4
447.871	28755.36
448.078	29863.31
448.284	28370.34
448.491	29253.01
448.697	30461.32
448.903	31008.12
449.11	30879.1
449.316	30496.13
449.522	31020.41
449.728	31950.19
449.935	32189.8
450.141	32370.02
450.347	32847.2
450.553	32044.4
450.76	32103.79
450.966	33338.71
451.172	32980.32
451.378	33887.57
451.584	33398.1
451.791	34049.36
451.997	33832.27
452.203	34358.6
452.409	34256.2
452.615	34477.38
452.821	33312.09
453.027	32626.02
453.233	34467.14
453.44	33428.82
453.646	33494.36
453.852	33623.38
454.058	34139.47
454.264	33181.02
454.47	33951.06
454.676	33232.22
454.882	34037.07
455.088	31149.43
455.294	31608.18
455.5	31915.37
455.705	32435.56
455.911	31102.33
456.117	30594.43
456.323	30242.18
456.529	28671.39
456.735	29930.89
456.941	29216.15
457.147	28442.02
457.352	27970.99
457.558	27522.48
457.764	27567.54
457.97	27235.77
458.176	26346.95
458.381	26564.03
458.587	25302.48
458.793	25124.31
458.999	23709.16
459.204	25509.33
459.41	24882.65
459.616	23442.93
459.821	23434.74
460.027	23285.23
460.233	22726.14
460.438	21857.8
460.644	21868.04
460.85	20700.7
461.055	20272.67
461.261	20399.65
461.466	18779.7
461.672	18343.49
461.878	19613.23
462.083	18368.06
462.289	18040.39
462.494	17737.29
462.7	16977.49
462.905	16684.63
463.111	17370.7
463.316	17077.84
463.522	16612.95
463.727	16866.9
463.932	16852.56
464.138	16733.78
464.343	16840.28
464.549	16541.27
464.754	16830.04
464.959	16684.63
465.165	16580.18
465.37	15953.51
465.575	15470.19
465.781	16105.06
465.986	16268.89
466.191	15472.23
466.397	15224.43
466.602	14343.8
466.807	14818.93
467.012	15107.69
467.218	14974.58
467.423	14616.18
467.628	14855.79
