Data from USB4F104151__33__12-27-17-814.txt Node

Date: Fri Mar 14 12:27:17 EDT 2025
User: louis
Spectrometer: USB4F10415
Trigger mode: 4
Integration Time (sec): 2.000000E-2
Scans to average: 1
Electric dark correction enabled: true
Nonlinearity correction enabled: false
Boxcar width: 0
XAxis mode: Wavelengths
Number of Pixels in Spectrum: 3648
>>>>>Begin Spectral Data<<<<<
178.204	-97.11
178.424	-97.11
178.644	-97.11
178.864	-88.92
179.084	-56.15
179.304	3.24
179.524	17.58
179.744	-29.52
179.964	-7
180.184	-2.9
180.404	3.24
180.624	31.91
180.844	7.34
181.064	-17.24
181.283	-2.9
181.503	1.19
181.723	-4.95
181.943	25.77
182.163	60.59
182.383	-7
182.602	154.79
182.822	81.07
183.042	68.78
183.262	15.53
183.482	46.25
183.701	31.91
183.921	101.55
184.141	36.01
184.361	11.43
184.58	66.73
184.8	44.2
185.02	50.35
185.239	68.78
185.459	-45.91
185.679	38.06
185.898	-31.57
186.118	83.11
186.338	-11.09
186.557	52.39
186.777	-41.81
186.997	-19.29
187.216	68.78
187.436	74.92
187.655	17.58
187.875	44.2
188.095	-39.76
188.314	70.83
188.534	13.48
188.753	36.01
188.973	1.19
189.192	68.78
189.412	103.59
189.631	97.45
189.851	27.82
190.07	91.31
190.29	38.06
190.509	70.83
190.729	-31.57
190.948	79.02
191.168	167.08
191.387	-19.29
191.607	25.77
191.826	52.39
192.045	48.3
192.265	11.43
192.484	64.68
192.704	46.25
192.923	15.53
193.142	89.26
193.362	36.01
193.581	66.73
193.8	52.39
194.02	38.06
194.239	40.11
194.458	48.3
194.678	72.87
194.897	66.73
195.116	7.34
195.335	23.72
195.555	74.92
195.774	54.44
195.993	38.06
196.212	66.73
196.432	72.87
196.651	9.39
196.87	81.07
197.089	48.3
197.308	5.29
197.528	-2.9
197.747	11.43
197.966	-0.85
198.185	56.49
198.404	38.06
198.623	58.54
198.842	5.29
199.062	117.93
199.281	111.78
199.5	44.2
199.719	79.02
199.938	64.68
200.157	85.16
200.376	64.68
200.595	83.11
200.814	56.49
201.033	50.35
201.252	3.24
201.471	93.35
201.69	105.64
201.909	33.96
202.128	13.48
202.347	66.73
202.566	-15.19
202.785	7.34
203.004	-7
203.223	23.72
203.442	50.35
203.661	19.63
203.879	44.2
204.098	87.21
204.317	50.35
204.536	58.54
204.755	58.54
204.974	-17.24
205.193	50.35
205.411	11.43
205.63	15.53
205.849	52.39
206.068	60.59
206.287	58.54
206.505	50.35
206.724	91.31
206.943	99.5
207.162	-31.57
207.381	21.67
207.599	36.01
207.818	66.73
208.037	-11.09
208.255	-9.05
208.474	79.02
208.693	23.72
208.911	3.24
209.13	23.72
209.349	83.11
209.567	50.35
209.786	76.97
210.005	62.63
210.223	44.2
210.442	54.44
210.661	21.67
210.879	27.82
211.098	93.35
211.316	60.59
211.535	79.02
211.753	79.02
211.972	15.53
212.191	46.25
212.409	62.63
212.628	19.63
212.846	58.54
213.065	81.07
213.283	79.02
213.502	-13.14
213.72	126.12
213.938	89.26
214.157	60.59
214.375	13.48
214.594	83.11
214.812	-2.9
215.031	50.35
215.249	36.01
215.467	19.63
215.686	40.11
215.904	60.59
216.122	101.55
216.341	99.5
216.559	76.97
216.778	74.92
216.996	21.67
217.214	40.11
217.432	29.87
217.651	27.82
217.869	54.44
218.087	42.15
218.306	81.07
218.524	52.39
218.742	-23.38
218.96	46.25
219.179	79.02
219.397	81.07
219.615	60.59
219.833	70.83
220.051	31.91
220.27	101.55
220.488	17.58
220.706	95.4
220.924	15.53
221.142	87.21
221.36	52.39
221.578	15.53
221.796	5.29
222.015	7.34
222.233	5.29
222.451	48.3
222.669	9.39
222.887	81.07
223.105	44.2
223.323	79.02
223.541	101.55
223.759	122.02
223.977	68.78
224.195	-0.85
224.413	58.54
224.631	97.45
224.849	72.87
225.067	74.92
225.285	58.54
225.503	-31.57
225.721	124.07
225.939	68.78
226.157	68.78
226.375	165.03
226.592	19.63
226.81	31.91
227.028	58.54
227.246	115.88
227.464	-13.14
227.682	-2.9
227.9	74.92
228.117	40.11
228.335	-7
228.553	33.96
228.771	48.3
228.989	44.2
229.206	83.11
229.424	9.39
229.642	101.55
229.86	64.68
230.077	74.92
230.295	81.07
230.513	38.06
230.731	152.74
230.948	60.59
231.166	66.73
231.384	36.01
231.601	3.24
231.819	11.43
232.037	56.49
232.254	52.39
232.472	58.54
232.689	-13.14
232.907	105.64
233.125	44.2
233.342	-33.62
233.56	-11.09
233.777	19.63
233.995	79.02
234.213	54.44
234.43	60.59
234.648	60.59
234.865	-47.96
235.083	1.19
235.3	68.78
235.518	60.59
235.735	70.83
235.953	85.16
236.17	15.53
236.388	89.26
236.605	36.01
236.822	11.43
237.04	17.58
237.257	3.24
237.475	-17.24
237.692	93.35
237.909	76.97
238.127	11.43
238.344	72.87
238.562	85.16
238.779	62.63
238.996	27.82
239.214	33.96
239.431	81.07
239.648	-56.15
239.865	119.98
240.083	52.39
240.3	19.63
240.517	25.77
240.735	83.11
240.952	85.16
241.169	60.59
241.386	68.78
241.603	5.29
241.821	25.77
242.038	54.44
242.255	72.87
242.472	31.91
242.689	95.4
242.907	70.83
243.124	40.11
243.341	33.96
243.558	3.24
243.775	50.35
243.992	-66.39
244.209	27.82
244.426	-0.85
244.643	79.02
244.86	-25.43
245.078	142.5
245.295	76.97
245.512	95.4
245.729	46.25
245.946	19.63
246.163	29.87
246.38	25.77
246.597	40.11
246.814	42.15
247.031	29.87
247.248	36.01
247.464	15.53
247.681	40.11
247.898	70.83
248.115	3.24
248.332	38.06
248.549	-11.09
248.766	76.97
248.983	107.69
249.2	44.2
249.417	81.07
249.633	54.44
249.85	21.67
250.067	25.77
250.284	87.21
250.501	103.59
250.717	13.48
250.934	25.77
251.151	25.77
251.368	54.44
251.585	72.87
251.801	64.68
252.018	-37.72
252.235	89.26
252.451	36.01
252.668	23.72
252.885	36.01
253.102	95.4
253.318	23.72
253.535	74.92
253.752	29.87
253.968	70.83
254.185	117.93
254.401	27.82
254.618	48.3
254.835	-13.14
255.051	56.49
255.268	19.63
255.484	79.02
255.701	-31.57
255.917	-25.43
256.134	25.77
256.351	36.01
256.567	21.67
256.784	109.74
257	-31.57
257.217	64.68
257.433	44.2
257.65	62.63
257.866	38.06
258.082	23.72
258.299	62.63
258.515	60.59
258.732	-78.68
258.948	23.72
259.165	60.59
259.381	52.39
259.597	76.97
259.814	122.02
260.03	52.39
260.246	48.3
260.463	70.83
260.679	52.39
260.895	-27.48
261.112	89.26
261.328	23.72
261.544	48.3
261.761	54.44
261.977	66.73
262.193	21.67
262.409	25.77
262.626	58.54
262.842	111.78
263.058	60.59
263.274	25.77
263.49	46.25
263.707	42.15
263.923	31.91
264.139	54.44
264.355	50.35
264.571	89.26
264.787	-9.05
265.004	-7
265.22	140.46
265.436	66.73
265.652	-0.85
265.868	42.15
266.084	68.78
266.3	54.44
266.516	1.19
266.732	52.39
266.948	95.4
267.164	36.01
267.38	7.34
267.596	103.59
267.812	134.31
268.028	50.35
268.244	25.77
268.46	19.63
268.676	68.78
268.892	95.4
269.108	58.54
269.324	52.39
269.54	31.91
269.756	-19.29
269.972	25.77
270.188	70.83
270.403	-2.9
270.619	64.68
270.835	38.06
271.051	21.67
271.267	5.29
271.483	19.63
271.698	-15.19
271.914	68.78
272.13	31.91
272.346	58.54
272.562	62.63
272.777	74.92
272.993	101.55
273.209	13.48
273.425	17.58
273.64	7.34
273.856	83.11
274.072	66.73
274.287	56.49
274.503	83.11
274.719	62.63
274.934	33.96
275.15	40.11
275.366	56.49
275.581	9.39
275.797	27.82
276.012	29.87
276.228	54.44
276.444	64.68
276.659	38.06
276.875	64.68
277.09	-9.05
277.306	-21.33
277.521	31.91
277.737	3.24
277.952	50.35
278.168	48.3
278.383	74.92
278.599	48.3
278.814	52.39
279.03	54.44
279.245	29.87
279.461	-19.29
279.676	25.77
279.892	99.5
280.107	54.44
280.322	64.68
280.538	23.72
280.753	70.83
280.969	50.35
281.184	119.98
281.399	107.69
281.615	25.77
281.83	87.21
282.045	15.53
282.26	115.88
282.476	48.3
282.691	42.15
282.906	31.91
283.122	33.96
283.337	-41.81
283.552	91.31
283.767	76.97
283.983	83.11
284.198	29.87
284.413	85.16
284.628	68.78
284.843	79.02
285.058	68.78
285.274	21.67
285.489	7.34
285.704	93.35
285.919	40.11
286.134	13.48
286.349	111.78
286.564	27.82
286.779	42.15
286.995	58.54
287.21	72.87
287.425	68.78
287.64	-7
287.855	76.97
288.07	5.29
288.285	23.72
288.5	70.83
288.715	52.39
288.93	19.63
289.145	27.82
289.36	40.11
289.575	52.39
289.79	15.53
290.004	36.01
290.219	36.01
290.434	93.35
290.649	72.87
290.864	17.58
291.079	17.58
291.294	85.16
291.509	72.87
291.724	17.58
291.938	58.54
292.153	103.59
292.368	54.44
292.583	13.48
292.798	46.25
293.012	70.83
293.227	56.49
293.442	60.59
293.657	85.16
293.871	72.87
294.086	56.49
294.301	50.35
294.516	93.35
294.73	54.44
294.945	31.91
295.16	29.87
295.374	87.21
295.589	76.97
295.804	23.72
296.018	5.29
296.233	48.3
296.447	50.35
296.662	23.72
296.877	101.55
297.091	11.43
297.306	36.01
297.52	27.82
297.735	13.48
297.949	85.16
298.164	83.11
298.378	36.01
298.593	23.72
298.807	60.59
299.022	-21.33
299.236	95.4
299.451	48.3
299.665	-15.19
299.88	-43.86
300.094	62.63
300.309	79.02
300.523	62.63
300.737	64.68
300.952	68.78
301.166	19.63
301.381	38.06
301.595	56.49
301.809	62.63
302.024	87.21
302.238	7.34
302.452	93.35
302.667	91.31
302.881	101.55
303.095	56.49
303.309	-23.38
303.524	85.16
303.738	79.02
303.952	9.39
304.166	83.11
304.381	-7
304.595	21.67
304.809	25.77
305.023	38.06
305.237	50.35
305.452	76.97
305.666	36.01
305.88	74.92
306.094	60.59
306.308	85.16
306.522	29.87
306.736	122.02
306.95	38.06
307.164	130.22
307.379	25.77
307.593	138.41
307.807	64.68
308.021	42.15
308.235	42.15
308.449	74.92
308.663	42.15
308.877	48.3
309.091	68.78
309.305	76.97
309.519	79.02
309.733	58.54
309.947	42.15
310.161	9.39
310.374	128.17
310.588	144.55
310.802	25.77
311.016	56.49
311.23	122.02
311.444	33.96
311.658	70.83
311.872	132.26
312.085	105.64
312.299	21.67
312.513	124.07
312.727	-9.05
312.941	62.63
313.154	72.87
313.368	66.73
313.582	33.96
313.796	46.25
314.009	85.16
314.223	44.2
314.437	21.67
314.651	68.78
314.864	-0.85
315.078	101.55
315.292	60.59
315.505	-21.33
315.719	48.3
315.933	40.11
316.146	115.88
316.36	-9.05
316.573	44.2
316.787	68.78
317.001	19.63
317.214	-2.9
317.428	103.59
317.641	40.11
317.855	70.83
318.068	17.58
318.282	58.54
318.495	62.63
318.709	38.06
318.922	85.16
319.136	72.87
319.349	76.97
319.563	50.35
319.776	62.63
319.99	117.93
320.203	33.96
320.417	60.59
320.63	134.31
320.843	89.26
321.057	52.39
321.27	7.34
321.483	107.69
321.697	113.83
321.91	64.68
322.124	29.87
322.337	134.31
322.55	62.63
322.763	99.5
322.977	68.78
323.19	50.35
323.403	27.82
323.617	-11.09
323.83	52.39
324.043	93.35
324.256	60.59
324.469	3.24
324.683	38.06
324.896	36.01
325.109	46.25
325.322	72.87
325.535	66.73
325.748	-0.85
325.962	25.77
326.175	107.69
326.388	60.59
326.601	111.78
326.814	103.59
327.027	42.15
327.24	142.5
327.453	17.58
327.666	56.49
327.879	66.73
328.092	-0.85
328.305	66.73
328.518	-0.85
328.731	-25.43
328.944	101.55
329.157	68.78
329.37	21.67
329.583	85.16
329.796	136.36
330.009	44.2
330.222	138.41
330.435	25.77
330.648	70.83
330.861	48.3
331.073	87.21
331.286	-13.14
331.499	89.26
331.712	46.25
331.925	1.19
332.138	56.49
332.35	93.35
332.563	40.11
332.776	91.31
332.989	56.49
333.202	72.87
333.414	-15.19
333.627	23.72
333.84	38.06
334.053	76.97
334.265	21.67
334.478	5.29
334.691	87.21
334.903	48.3
335.116	42.15
335.329	60.59
335.541	117.93
335.754	146.6
335.966	76.97
336.179	93.35
336.392	91.31
336.604	60.59
336.817	148.65
337.029	87.21
337.242	13.48
337.454	107.69
337.667	87.21
337.88	56.49
338.092	70.83
338.305	79.02
338.517	13.48
338.729	21.67
338.942	11.43
339.154	85.16
339.367	50.35
339.579	3.24
339.792	7.34
340.004	52.39
340.217	113.83
340.429	85.16
340.641	17.58
340.854	15.53
341.066	33.96
341.278	83.11
341.491	128.17
341.703	72.87
341.915	31.91
342.128	105.64
342.34	83.11
342.552	66.73
342.764	95.4
342.977	7.34
343.189	21.67
343.401	40.11
343.613	54.44
343.826	13.48
344.038	-23.38
344.25	25.77
344.462	-35.67
344.674	52.39
344.886	72.87
345.099	83.11
345.311	17.58
345.523	89.26
345.735	21.67
345.947	87.21
346.159	81.07
346.371	33.96
346.583	-19.29
346.795	95.4
347.007	105.64
347.219	-29.52
347.431	87.21
347.643	119.98
347.855	21.67
348.067	44.2
348.279	62.63
348.491	89.26
348.703	79.02
348.915	44.2
349.127	-0.85
349.339	31.91
349.551	56.49
349.763	54.44
349.975	56.49
350.187	54.44
350.399	38.06
350.61	-37.72
350.822	-21.33
351.034	7.34
351.246	103.59
351.458	134.31
351.669	70.83
351.881	101.55
352.093	109.74
352.305	36.01
352.517	93.35
352.728	119.98
352.94	38.06
353.152	25.77
353.363	-19.29
353.575	38.06
353.787	-4.95
353.999	60.59
354.21	85.16
354.422	111.78
354.633	52.39
354.845	105.64
355.057	76.97
355.268	95.4
355.48	105.64
355.692	66.73
355.903	81.07
356.115	72.87
356.326	50.35
356.538	144.55
356.749	95.4
356.961	46.25
357.172	44.2
357.384	115.88
357.595	44.2
357.807	115.88
358.018	81.07
358.23	58.54
358.441	36.01
358.653	64.68
358.864	64.68
359.075	36.01
359.287	70.83
359.498	74.92
359.709	89.26
359.921	122.02
360.132	-37.72
360.344	52.39
360.555	60.59
360.766	7.34
360.977	83.11
361.189	109.74
361.4	15.53
361.611	105.64
361.823	62.63
362.034	81.07
362.245	58.54
362.456	93.35
362.667	76.97
362.879	13.48
363.09	76.97
363.301	101.55
363.512	76.97
363.723	3.24
363.935	29.87
364.146	56.49
364.357	72.87
364.568	17.58
364.779	5.29
364.99	74.92
365.201	31.91
365.412	99.5
365.623	1.19
365.834	21.67
366.045	52.39
366.256	-56.15
366.467	72.87
366.678	103.59
366.889	89.26
367.1	66.73
367.311	-23.38
367.522	76.97
367.733	44.2
367.944	70.83
368.155	15.53
368.366	62.63
368.577	72.87
368.788	68.78
368.999	79.02
369.209	44.2
369.42	81.07
369.631	48.3
369.842	21.67
370.053	38.06
370.264	74.92
370.474	38.06
370.685	105.64
370.896	33.96
371.107	89.26
371.317	74.92
371.528	74.92
371.739	152.74
371.95	83.11
372.16	54.44
372.371	58.54
372.582	66.73
372.792	105.64
373.003	-43.86
373.214	29.87
373.424	64.68
373.635	-7
373.846	66.73
374.056	81.07
374.267	136.36
374.477	99.5
374.688	91.31
374.898	62.63
375.109	-37.72
375.319	54.44
375.53	38.06
375.74	62.63
375.951	81.07
376.161	42.15
376.372	52.39
376.582	-35.67
376.793	62.63
377.003	66.73
377.214	68.78
377.424	91.31
377.635	38.06
377.845	56.49
378.055	36.01
378.266	46.25
378.476	54.44
378.686	42.15
378.897	27.82
379.107	15.53
379.317	183.46
379.528	-43.86
379.738	103.59
379.948	72.87
380.158	38.06
380.369	91.31
380.579	146.6
380.789	25.77
380.999	91.31
381.21	97.45
381.42	103.59
381.63	13.48
381.84	134.31
382.05	122.02
382.261	167.08
382.471	11.43
382.681	95.4
382.891	42.15
383.101	38.06
383.311	113.83
383.521	17.58
383.731	117.93
383.941	68.78
384.151	95.4
384.361	40.11
384.571	83.11
384.781	70.83
384.991	154.79
385.201	111.78
385.411	103.59
385.621	99.5
385.831	105.64
386.041	29.87
386.251	58.54
386.461	54.44
386.671	91.31
386.881	89.26
387.091	109.74
387.301	66.73
387.511	-4.95
387.72	52.39
387.93	111.78
388.14	97.45
388.35	81.07
388.56	70.83
388.769	126.12
388.979	54.44
389.189	97.45
389.399	52.39
389.609	72.87
389.818	152.74
390.028	103.59
390.238	144.55
390.447	76.97
390.657	52.39
390.867	25.77
391.076	29.87
391.286	70.83
391.496	33.96
391.705	95.4
391.915	19.63
392.125	154.79
392.334	138.41
392.544	95.4
392.753	58.54
392.963	83.11
393.172	66.73
393.382	27.82
393.591	119.98
393.801	144.55
394.01	97.45
394.22	117.93
394.429	107.69
394.639	99.5
394.848	99.5
395.058	95.4
395.267	113.83
395.477	111.78
395.686	54.44
395.895	101.55
396.105	148.65
396.314	58.54
396.524	144.55
396.733	109.74
396.942	201.9
397.152	103.59
397.361	72.87
397.57	79.02
397.78	136.36
397.989	99.5
398.198	111.78
398.407	83.11
398.617	126.12
398.826	62.63
399.035	117.93
399.244	156.84
399.453	119.98
399.663	66.73
399.872	87.21
400.081	62.63
400.29	134.31
400.499	25.77
400.708	218.28
400.917	177.32
401.127	167.08
401.336	132.26
401.545	40.11
401.754	165.03
401.963	126.12
402.172	138.41
402.381	130.22
402.59	128.17
402.799	103.59
403.008	91.31
403.217	158.89
403.426	99.5
403.635	115.88
403.844	144.55
404.053	109.74
404.262	70.83
404.471	167.08
404.68	99.5
404.888	36.01
405.097	148.65
405.306	158.89
405.515	179.37
405.724	191.66
405.933	189.61
406.142	142.5
406.35	185.51
406.559	169.13
406.768	183.46
406.977	197.8
407.185	134.31
407.394	150.7
407.603	113.83
407.812	197.8
408.02	310.44
408.229	199.85
408.438	185.51
408.646	138.41
408.855	197.8
409.064	148.65
409.272	228.52
409.481	228.52
409.69	300.2
409.898	255.14
410.107	236.71
410.315	283.81
410.524	328.87
410.733	279.72
410.941	314.53
411.15	265.38
411.358	312.49
411.567	367.78
411.775	341.16
411.984	314.53
412.192	390.31
412.401	322.73
412.609	396.45
412.818	400.55
413.026	412.84
413.234	425.12
413.443	466.08
413.651	404.64
413.86	451.75
414.068	513.19
414.276	509.09
414.485	562.34
414.693	548
414.901	617.63
415.11	613.54
415.318	572.58
415.526	588.96
415.734	689.31
415.943	588.96
416.151	617.63
416.359	730.27
416.567	625.83
416.776	703.65
416.984	742.56
417.192	818.33
417.4	771.23
417.608	814.24
417.817	908.44
418.025	978.08
418.233	961.69
418.441	875.68
418.649	988.32
418.857	1037.47
419.065	1084.57
419.273	1096.86
419.481	1135.77
419.689	1129.63
419.897	1135.77
420.105	1148.06
420.313	1229.98
420.521	1311.89
420.729	1301.65
420.937	1262.74
421.145	1365.14
421.353	1424.53
421.561	1639.57
421.769	1545.36
421.977	1717.39
422.185	1584.27
422.393	1703.06
422.601	1770.64
422.809	1780.88
423.017	1918.09
423.224	1866.89
423.432	1918.09
423.64	1903.76
423.848	2272.39
424.056	2075.79
424.263	2294.92
424.471	2378.89
424.679	2258.06
424.887	2411.65
425.094	2452.61
425.302	2559.11
425.51	2673.79
425.718	2720.9
425.925	2843.78
426.133	2722.95
426.341	2886.78
426.548	3095.68
426.756	3126.39
426.964	3130.49
427.171	3181.69
427.379	3359.86
427.586	3429.49
427.794	3693.68
428.001	3855.47
428.209	3884.14
428.417	3894.38
428.624	4265.07
428.832	4064.36
429.039	4047.98
429.247	4201.58
429.454	4504.68
429.662	4828.26
429.869	4484.2
430.076	4820.07
430.284	4484.2
430.491	4922.46
430.699	5200.99
430.906	5149.79
431.114	5164.12
431.321	5350.49
431.528	5598.29
431.736	5805.14
431.943	6134.86
432.15	6009.93
432.358	5952.59
432.565	6335.56
432.772	6384.71
432.979	6644.81
433.187	6829.12
433.394	6818.88
433.601	7228.48
433.808	7300.16
434.016	7285.82
434.223	7492.66
434.43	8045.62
434.637	7883.83
434.844	8315.95
435.052	8481.83
435.259	8272.94
435.466	8518.7
435.673	8481.83
435.88	9133.09
436.087	9391.13
436.294	9309.21
436.501	9184.29
436.708	9421.85
436.915	9679.89
437.122	10060.82
437.329	10017.81
437.537	10710.02
437.743	10531.85
437.95	10621.96
438.157	11203.58
438.364	11654.14
438.571	11514.87
438.778	11633.66
438.985	12477.42
439.192	12237.81
439.399	12641.26
439.606	12176.37
439.813	12831.72
440.02	13589.47
440.227	13599.71
440.433	13274.08
440.64	13900.76
440.847	13833.18
441.054	14068.69
441.261	15064
441.467	14799.82
441.674	15330.24
441.881	15637.44
442.088	15592.38
442.294	15479.74
442.501	16120.76
442.708	16100.28
442.914	16878.51
443.121	17591.2
443.328	17324.96
443.534	18185.11
443.741	18031.51
443.948	17501.09
444.154	19075.98
444.361	18879.37
444.568	18666.38
444.774	19014.54
444.981	19297.16
445.187	19917.69
445.394	20689.77
445.6	20472.69
445.807	22365.01
446.013	21377.89
446.22	21531.49
446.426	22737.74
446.633	23073.61
446.839	23438.15
447.046	22735.7
447.252	23776.06
447.459	23784.26
447.665	23780.16
447.871	24869.68
448.078	26141.47
448.284	24587.06
448.491	25461.54
448.697	26030.88
448.903	26895.12
449.11	27106.06
449.316	26555.16
449.522	26770.19
449.728	27749.12
449.935	27933.44
450.141	27859.71
450.347	28668.66
450.553	27579.14
450.76	27937.54
450.966	28986.1
451.172	28717.81
451.378	29424.36
451.584	29231.85
451.791	29436.65
451.997	29358.83
452.203	30018.27
452.409	29948.64
452.615	29688.55
452.821	28852.98
453.027	28543.74
453.233	29840.1
453.44	28840.69
453.646	29192.94
453.852	29416.17
454.058	29764.32
454.264	28867.31
454.47	29565.67
454.676	28670.71
454.882	29717.22
455.088	27134.73
455.294	27368.2
455.5	27734.79
455.705	28345.08
455.911	27222.8
456.117	26780.43
456.323	26194.71
456.529	24972.08
456.735	25971.49
456.941	25252.65
457.147	24537.91
457.352	24079.16
457.558	23810.88
457.764	24126.27
457.97	23464.77
458.176	22969.16
458.381	22983.5
458.587	21590.88
458.793	21850.97
458.999	20777.84
459.204	22309.72
459.41	21588.83
459.616	20124.54
459.821	20239.22
460.027	20132.73
460.233	19796.86
460.438	18750.35
460.644	18998.15
460.85	17910.68
461.055	17834.91
461.261	17843.1
461.466	16190.39
461.672	16018.36
461.878	16870.31
462.083	15889.34
462.289	15514.56
462.494	15739.83
462.7	14924.74
462.905	14420.94
463.111	14947.27
463.316	14959.56
463.522	14615.5
463.727	14656.46
463.932	14691.27
464.138	14681.03
464.343	14463.95
464.549	14011.35
464.754	14969.8
464.959	14406.61
465.165	14543.82
465.37	13923.29
465.575	13435.87
465.781	14056.4
465.986	13816.79
466.191	13536.22
466.397	13392.86
466.602	12491.76
466.807	13140.96
467.012	13054.95
467.218	12862.44
467.423	12860.39
467.628	13003.75
