Data from USB4F104151__61__12-27-38-712.txt Node

Date: Fri Mar 14 12:27:38 EDT 2025
User: louis
Spectrometer: USB4F10415
Trigger mode: 4
Integration Time (sec): 2.000000E-2
Scans to average: 1
Electric dark correction enabled: true
Nonlinearity correction enabled: false
Boxcar width: 0
XAxis mode: Wavelengths
Number of Pixels in Spectrum: 3648
>>>>>Begin Spectral Data<<<<<
178.204	-39.08
178.424	-39.08
178.644	-39.08
178.864	-104.62
179.084	-73.9
179.304	12.12
179.524	77.65
179.744	18.26
179.964	-73.9
180.184	-4.27
180.404	18.26
180.624	-32.94
180.844	-16.55
181.064	-34.99
181.283	48.98
181.503	1.88
181.723	-14.51
181.943	-2.22
182.163	83.8
182.383	34.64
182.602	-8.36
182.822	63.32
183.042	46.93
183.262	89.94
183.482	69.46
183.701	67.41
183.921	-20.65
184.141	36.69
184.361	61.27
184.58	44.88
184.8	-30.89
185.02	-0.17
185.239	98.13
185.459	26.45
185.679	46.93
185.898	24.4
186.118	-16.55
186.338	5.97
186.557	30.55
186.777	16.21
186.997	46.93
187.216	94.04
187.436	48.98
187.655	38.74
187.875	59.22
188.095	-8.36
188.314	53.08
188.534	38.74
188.753	42.84
188.973	-10.41
189.192	96.08
189.412	30.55
189.631	40.79
189.851	1.88
190.07	3.93
190.29	40.79
190.509	28.5
190.729	3.93
190.948	20.31
191.168	24.4
191.387	34.64
191.607	34.64
191.826	44.88
192.045	-34.99
192.265	-32.94
192.484	81.75
192.704	38.74
192.923	18.26
193.142	46.93
193.362	46.93
193.581	36.69
193.8	69.46
194.02	114.52
194.239	38.74
194.458	18.26
194.678	114.52
194.897	-32.94
195.116	-2.22
195.335	26.45
195.555	48.98
195.774	38.74
195.993	14.17
196.212	-47.27
196.432	3.93
196.651	89.94
196.87	79.7
197.089	71.51
197.308	20.31
197.528	42.84
197.747	-16.55
197.966	-22.7
198.185	22.36
198.404	-8.36
198.623	44.88
198.842	-41.13
199.062	28.5
199.281	44.88
199.5	20.31
199.719	169.81
199.938	-47.27
200.157	-10.41
200.376	12.12
200.595	73.56
200.814	59.22
201.033	71.51
201.252	40.79
201.471	28.5
201.69	63.32
201.909	42.84
202.128	26.45
202.347	75.6
202.566	-16.55
202.785	61.27
203.004	28.5
203.223	91.99
203.442	94.04
203.661	-4.27
203.879	57.17
204.098	-4.27
204.317	55.12
204.536	34.64
204.755	12.12
204.974	81.75
205.193	55.12
205.411	130.9
205.63	3.93
205.849	30.55
206.068	12.12
206.287	32.6
206.505	67.41
206.724	-24.75
206.943	24.4
207.162	53.08
207.381	55.12
207.599	1.88
207.818	-20.65
208.037	-28.84
208.255	98.13
208.474	71.51
208.693	-2.22
208.911	-18.6
209.13	32.6
209.349	24.4
209.567	14.17
209.786	55.12
210.005	48.98
210.223	-30.89
210.442	8.02
210.661	3.93
210.879	16.21
211.098	83.8
211.316	38.74
211.535	14.17
211.753	14.17
211.972	14.17
212.191	34.64
212.409	-14.51
212.628	18.26
212.846	67.41
213.065	8.02
213.283	18.26
213.502	18.26
213.72	57.17
213.938	38.74
214.157	59.22
214.375	77.65
214.594	-39.08
214.812	48.98
215.031	14.17
215.249	22.36
215.467	42.84
215.686	-4.27
215.904	16.21
216.122	-39.08
216.341	-20.65
216.559	48.98
216.778	51.03
216.996	-18.6
217.214	10.07
217.432	3.93
217.651	-0.17
217.869	-26.79
218.087	53.08
218.306	18.26
218.524	57.17
218.742	3.93
218.96	44.88
219.179	36.69
219.397	67.41
219.615	69.46
219.833	14.17
220.051	20.31
220.27	32.6
220.488	-14.51
220.706	51.03
220.924	63.32
221.142	-37.03
221.36	30.55
221.578	16.21
221.796	-37.03
222.015	77.65
222.233	46.93
222.451	20.31
222.669	53.08
222.887	28.5
223.105	1.88
223.323	18.26
223.541	5.97
223.759	94.04
223.977	1.88
224.195	-34.99
224.413	14.17
224.631	79.7
224.849	20.31
225.067	14.17
225.285	5.97
225.503	40.79
225.721	-4.27
225.939	20.31
226.157	87.89
226.375	116.56
226.592	-77.99
226.81	16.21
227.028	100.18
227.246	44.88
227.464	8.02
227.682	24.4
227.9	30.55
228.117	34.64
228.335	135
228.553	16.21
228.771	24.4
228.989	57.17
229.206	-28.84
229.424	63.32
229.642	30.55
229.86	-2.22
230.077	57.17
230.295	44.88
230.513	5.97
230.731	-28.84
230.948	94.04
231.166	75.6
231.384	16.21
231.601	48.98
231.819	85.84
232.037	36.69
232.254	-45.23
232.472	57.17
232.689	67.41
232.907	53.08
233.125	-47.27
233.342	53.08
233.56	18.26
233.777	40.79
233.995	26.45
234.213	3.93
234.43	-30.89
234.648	38.74
234.865	57.17
235.083	55.12
235.3	34.64
235.518	42.84
235.735	34.64
235.953	20.31
236.17	-6.31
236.388	10.07
236.605	-26.79
236.822	53.08
237.04	16.21
237.257	51.03
237.475	30.55
237.692	48.98
237.909	36.69
238.127	26.45
238.344	65.36
238.562	16.21
238.779	5.97
238.996	42.84
239.214	91.99
239.431	71.51
239.648	-10.41
239.865	-34.99
240.083	67.41
240.3	-2.22
240.517	12.12
240.735	-0.17
240.952	53.08
241.169	77.65
241.386	73.56
241.603	59.22
241.821	-10.41
242.038	55.12
242.255	1.88
242.472	20.31
242.689	44.88
242.907	71.51
243.124	-20.65
243.341	-73.9
243.558	12.12
243.775	5.97
243.992	65.36
244.209	44.88
244.426	46.93
244.643	24.4
244.86	-18.6
245.078	22.36
245.295	46.93
245.512	57.17
245.729	30.55
245.946	61.27
246.163	44.88
246.38	34.64
246.597	36.69
246.814	16.21
247.031	67.41
247.248	116.56
247.464	14.17
247.681	16.21
247.898	3.93
248.115	-2.22
248.332	20.31
248.549	55.12
248.766	32.6
248.983	96.08
249.2	10.07
249.417	59.22
249.633	16.21
249.85	51.03
250.067	26.45
250.284	48.98
250.501	53.08
250.717	135
250.934	59.22
251.151	8.02
251.368	57.17
251.585	28.5
251.801	65.36
252.018	-41.13
252.235	42.84
252.451	-4.27
252.668	46.93
252.885	61.27
253.102	1.88
253.318	34.64
253.535	36.69
253.752	79.7
253.968	-6.31
254.185	42.84
254.401	14.17
254.618	-43.18
254.835	102.23
255.051	51.03
255.268	40.79
255.484	75.6
255.701	-100.52
255.917	61.27
256.134	57.17
256.351	22.36
256.567	42.84
256.784	61.27
257	-51.37
257.217	10.07
257.433	65.36
257.65	16.21
257.866	5.97
258.082	55.12
258.299	44.88
258.515	-4.27
258.732	57.17
258.948	-26.79
259.165	14.17
259.381	-49.32
259.597	32.6
259.814	14.17
260.03	20.31
260.246	-45.23
260.463	63.32
260.679	65.36
260.895	30.55
261.112	65.36
261.328	63.32
261.544	77.65
261.761	5.97
261.977	32.6
262.193	-53.42
262.409	32.6
262.626	-34.99
262.842	32.6
263.058	-0.17
263.274	94.04
263.49	83.8
263.707	-22.7
263.923	-2.22
264.139	-4.27
264.355	8.02
264.571	61.27
264.787	-2.22
265.004	67.41
265.22	-8.36
265.436	-47.27
265.652	67.41
265.868	38.74
266.084	30.55
266.3	48.98
266.516	63.32
266.732	3.93
266.948	36.69
267.164	-10.41
267.38	61.27
267.596	18.26
267.812	96.08
268.028	51.03
268.244	-18.6
268.46	55.12
268.676	-53.42
268.892	42.84
269.108	59.22
269.324	3.93
269.54	-39.08
269.756	42.84
269.972	-16.55
270.188	-0.17
270.403	3.93
270.619	-6.31
270.835	22.36
271.051	24.4
271.267	94.04
271.483	85.84
271.698	-39.08
271.914	89.94
272.13	1.88
272.346	32.6
272.562	26.45
272.777	34.64
272.993	10.07
273.209	48.98
273.425	26.45
273.64	18.26
273.856	40.79
274.072	-14.51
274.287	-4.27
274.503	14.17
274.719	110.42
274.934	18.26
275.15	-86.19
275.366	42.84
275.581	69.46
275.797	53.08
276.012	157.52
276.228	14.17
276.444	59.22
276.659	30.55
276.875	46.93
277.09	89.94
277.306	110.42
277.521	81.75
277.737	118.61
277.952	55.12
278.168	87.89
278.383	-14.51
278.599	63.32
278.814	53.08
279.03	26.45
279.245	10.07
279.461	8.02
279.676	75.6
279.892	-37.03
280.107	73.56
280.322	-12.46
280.538	59.22
280.753	51.03
280.969	44.88
281.184	22.36
281.399	71.51
281.615	-4.27
281.83	110.42
282.045	-2.22
282.26	46.93
282.476	12.12
282.691	51.03
282.906	10.07
283.122	-28.84
283.337	48.98
283.552	28.5
283.767	-6.31
283.983	85.84
284.198	34.64
284.413	98.13
284.628	46.93
284.843	32.6
285.058	-16.55
285.274	3.93
285.489	14.17
285.704	53.08
285.919	5.97
286.134	44.88
286.349	81.75
286.564	5.97
286.779	63.32
286.995	106.32
287.21	-14.51
287.425	42.84
287.64	8.02
287.855	67.41
288.07	8.02
288.285	48.98
288.5	77.65
288.715	38.74
288.93	12.12
289.145	1.88
289.36	16.21
289.575	10.07
289.79	53.08
290.004	5.97
290.219	46.93
290.434	-20.65
290.649	48.98
290.864	3.93
291.079	-2.22
291.294	24.4
291.509	120.66
291.724	3.93
291.938	81.75
292.153	38.74
292.368	16.21
292.583	-14.51
292.798	10.07
293.012	53.08
293.227	8.02
293.442	-28.84
293.657	-6.31
293.871	57.17
294.086	30.55
294.301	65.36
294.516	69.46
294.73	53.08
294.945	-4.27
295.16	51.03
295.374	59.22
295.589	8.02
295.804	-0.17
296.018	57.17
296.233	98.13
296.447	46.93
296.662	-12.46
296.877	20.31
297.091	57.17
297.306	26.45
297.52	-6.31
297.735	85.84
297.949	57.17
298.164	46.93
298.378	61.27
298.593	24.4
298.807	75.6
299.022	61.27
299.236	28.5
299.451	28.5
299.665	-12.46
299.88	75.6
300.094	16.21
300.309	42.84
300.523	8.02
300.737	94.04
300.952	85.84
301.166	24.4
301.381	-12.46
301.595	102.23
301.809	53.08
302.024	79.7
302.238	-28.84
302.452	1.88
302.667	75.6
302.881	24.4
303.095	61.27
303.309	42.84
303.524	-20.65
303.738	57.17
303.952	40.79
304.166	1.88
304.381	-2.22
304.595	-37.03
304.809	8.02
305.023	32.6
305.237	30.55
305.452	42.84
305.666	81.75
305.88	51.03
306.094	-30.89
306.308	-30.89
306.522	36.69
306.736	26.45
306.95	12.12
307.164	20.31
307.379	-24.75
307.593	114.52
307.807	-24.75
308.021	44.88
308.235	28.5
308.449	-55.47
308.663	28.5
308.877	61.27
309.091	42.84
309.305	149.33
309.519	51.03
309.733	73.56
309.947	87.89
310.161	34.64
310.374	61.27
310.588	34.64
310.802	24.4
311.016	73.56
311.23	61.27
311.444	42.84
311.658	-41.13
311.872	85.84
312.085	53.08
312.299	53.08
312.513	106.32
312.727	24.4
312.941	32.6
313.154	30.55
313.368	53.08
313.582	77.65
313.796	5.97
314.009	3.93
314.223	63.32
314.437	53.08
314.651	67.41
314.864	32.6
315.078	48.98
315.292	-0.17
315.505	-0.17
315.719	89.94
315.933	16.21
316.146	46.93
316.36	-63.66
316.573	55.12
316.787	-12.46
317.001	57.17
317.214	-22.7
317.428	-28.84
317.641	3.93
317.855	79.7
318.068	12.12
318.282	106.32
318.495	3.93
318.709	91.99
318.922	57.17
319.136	32.6
319.349	65.36
319.563	8.02
319.776	69.46
319.99	-8.36
320.203	48.98
320.417	36.69
320.63	91.99
320.843	55.12
321.057	26.45
321.27	-12.46
321.483	-6.31
321.697	34.64
321.91	63.32
322.124	151.38
322.337	91.99
322.55	16.21
322.763	79.7
322.977	85.84
323.19	-26.79
323.403	12.12
323.617	71.51
323.83	122.71
324.043	-47.27
324.256	36.69
324.469	83.8
324.683	36.69
324.896	63.32
325.109	10.07
325.322	-39.08
325.535	46.93
325.748	42.84
325.962	57.17
326.175	69.46
326.388	-26.79
326.601	87.89
326.814	85.84
327.027	91.99
327.24	85.84
327.453	5.97
327.666	-10.41
327.879	10.07
328.092	63.32
328.305	34.64
328.518	24.4
328.731	32.6
328.944	73.56
329.157	36.69
329.37	81.75
329.583	98.13
329.796	34.64
330.009	-8.36
330.222	96.08
330.435	53.08
330.648	-37.03
330.861	-4.27
331.073	61.27
331.286	-61.61
331.499	8.02
331.712	30.55
331.925	120.66
332.138	40.79
332.35	81.75
332.563	63.32
332.776	75.6
332.989	-6.31
333.202	108.37
333.414	-0.17
333.627	10.07
333.84	5.97
334.053	-0.17
334.265	34.64
334.478	44.88
334.691	94.04
334.903	34.64
335.116	14.17
335.329	24.4
335.541	-71.85
335.754	108.37
335.966	-14.51
336.179	51.03
336.392	40.79
336.604	3.93
336.817	79.7
337.029	59.22
337.242	28.5
337.454	46.93
337.667	1.88
337.88	126.8
338.092	22.36
338.305	96.08
338.517	20.31
338.729	79.7
338.942	81.75
339.154	44.88
339.367	38.74
339.579	108.37
339.792	16.21
340.004	71.51
340.217	-0.17
340.429	63.32
340.641	51.03
340.854	-18.6
341.066	42.84
341.278	75.6
341.491	20.31
341.703	63.32
341.915	34.64
342.128	8.02
342.34	-2.22
342.552	32.6
342.764	-0.17
342.977	36.69
343.189	38.74
343.401	42.84
343.613	-20.65
343.826	87.89
344.038	-24.75
344.25	24.4
344.462	-20.65
344.674	122.71
344.886	53.08
345.099	57.17
345.311	22.36
345.523	-57.51
345.735	12.12
345.947	38.74
346.159	38.74
346.371	26.45
346.583	8.02
346.795	108.37
347.007	48.98
347.219	-6.31
347.431	-4.27
347.643	36.69
347.855	79.7
348.067	42.84
348.279	38.74
348.491	67.41
348.703	108.37
348.915	38.74
349.127	40.79
349.339	96.08
349.551	8.02
349.763	71.51
349.975	32.6
350.187	38.74
350.399	85.84
350.61	-12.46
350.822	85.84
351.034	77.65
351.246	89.94
351.458	106.32
351.669	96.08
351.881	57.17
352.093	69.46
352.305	51.03
352.517	16.21
352.728	69.46
352.94	87.89
353.152	83.8
353.363	32.6
353.575	87.89
353.787	63.32
353.999	71.51
354.21	42.84
354.422	28.5
354.633	65.36
354.845	22.36
355.057	89.94
355.268	46.93
355.48	79.7
355.692	61.27
355.903	57.17
356.115	40.79
356.326	79.7
356.538	98.13
356.749	77.65
356.961	53.08
357.172	53.08
357.384	26.45
357.595	71.51
357.807	112.47
358.018	-30.89
358.23	71.51
358.441	91.99
358.653	94.04
358.864	36.69
359.075	69.46
359.287	32.6
359.498	-6.31
359.709	44.88
359.921	28.5
360.132	141.14
360.344	81.75
360.555	-49.32
360.766	20.31
360.977	-22.7
361.189	63.32
361.4	89.94
361.611	79.7
361.823	91.99
362.034	36.69
362.245	5.97
362.456	83.8
362.667	8.02
362.879	16.21
363.09	61.27
363.301	36.69
363.512	63.32
363.723	67.41
363.935	108.37
364.146	104.28
364.357	-18.6
364.568	42.84
364.779	28.5
364.99	3.93
365.201	104.28
365.412	77.65
365.623	-24.75
365.834	53.08
366.045	53.08
366.256	75.6
366.467	85.84
366.678	110.42
366.889	-22.7
367.1	-10.41
367.311	94.04
367.522	16.21
367.733	77.65
367.944	94.04
368.155	14.17
368.366	63.32
368.577	77.65
368.788	65.36
368.999	81.75
369.209	96.08
369.42	46.93
369.631	34.64
369.842	34.64
370.053	1.88
370.264	61.27
370.474	-37.03
370.685	102.23
370.896	16.21
371.107	12.12
371.317	24.4
371.528	28.5
371.739	108.37
371.95	69.46
372.16	5.97
372.371	36.69
372.582	42.84
372.792	18.26
373.003	67.41
373.214	71.51
373.424	96.08
373.635	18.26
373.846	102.23
374.056	65.36
374.267	-18.6
374.477	81.75
374.688	114.52
374.898	126.8
375.109	28.5
375.319	67.41
375.53	102.23
375.74	-37.03
375.951	69.46
376.161	28.5
376.372	67.41
376.582	59.22
376.793	14.17
377.003	57.17
377.214	3.93
377.424	26.45
377.635	20.31
377.845	26.45
378.055	87.89
378.266	-26.79
378.476	5.97
378.686	120.66
378.897	94.04
379.107	128.85
379.317	48.98
379.528	-6.31
379.738	26.45
379.948	30.55
380.158	63.32
380.369	38.74
380.579	-41.13
380.789	-8.36
380.999	40.79
381.21	94.04
381.42	65.36
381.63	-16.55
381.84	-4.27
382.05	61.27
382.261	83.8
382.471	124.76
382.681	53.08
382.891	61.27
383.101	81.75
383.311	38.74
383.521	-10.41
383.731	130.9
383.941	116.56
384.151	24.4
384.361	91.99
384.571	61.27
384.781	24.4
384.991	36.69
385.201	46.93
385.411	96.08
385.621	94.04
385.831	53.08
386.041	46.93
386.251	-6.31
386.461	16.21
386.671	96.08
386.881	98.13
387.091	69.46
387.301	32.6
387.511	81.75
387.72	69.46
387.93	83.8
388.14	36.69
388.35	87.89
388.56	24.4
388.769	91.99
388.979	53.08
389.189	5.97
389.399	-10.41
389.609	48.98
389.818	96.08
390.028	-30.89
390.238	32.6
390.447	87.89
390.657	110.42
390.867	36.69
391.076	79.7
391.286	55.12
391.496	65.36
391.705	145.24
391.915	98.13
392.125	106.32
392.334	-6.31
392.544	118.61
392.753	167.76
392.963	38.74
393.172	71.51
393.382	46.93
393.591	44.88
393.801	104.28
394.01	69.46
394.22	112.47
394.429	120.66
394.639	73.56
394.848	89.94
395.058	91.99
395.267	104.28
395.477	75.6
395.686	22.36
395.895	118.61
396.105	180.05
396.314	42.84
396.524	79.7
396.733	112.47
396.942	141.14
397.152	81.75
397.361	120.66
397.57	85.84
397.78	126.8
397.989	77.65
398.198	83.8
398.407	132.95
398.617	163.67
398.826	61.27
399.035	89.94
399.244	139.09
399.453	63.32
399.663	67.41
399.872	120.66
400.081	-6.31
400.29	155.47
400.499	65.36
400.708	116.56
400.917	94.04
401.127	55.12
401.336	42.84
401.545	180.05
401.754	91.99
401.963	173.91
402.172	91.99
402.381	85.84
402.59	57.17
402.799	106.32
403.008	128.85
403.217	167.76
403.426	178
403.635	96.08
403.844	102.23
404.053	94.04
404.262	87.89
404.471	130.9
404.68	180.05
404.888	102.23
405.097	135
405.306	161.62
405.515	163.67
405.724	188.24
405.933	114.52
406.142	118.61
406.35	139.09
406.559	204.63
406.768	259.92
406.977	163.67
407.185	188.24
407.394	153.43
407.603	206.67
407.812	175.95
408.02	288.59
408.229	147.28
408.438	251.73
408.646	184.15
408.855	180.05
409.064	216.91
409.272	245.59
409.481	235.35
409.69	198.48
409.898	309.07
410.107	304.98
410.315	282.45
410.524	286.54
410.733	257.87
410.941	350.03
411.15	337.74
411.358	368.46
411.567	403.28
411.775	362.32
411.984	298.83
412.192	429.9
412.401	360.27
412.609	421.71
412.818	411.47
413.026	466.77
413.234	462.67
413.443	532.3
413.651	448.33
413.86	546.64
414.068	554.83
414.276	550.73
414.485	593.74
414.693	540.49
414.901	567.12
415.11	640.84
415.318	612.17
415.526	585.55
415.734	659.28
415.943	696.14
416.151	769.87
416.359	739.15
416.567	837.45
416.776	798.54
416.984	849.74
417.192	923.46
417.4	810.82
417.608	900.94
417.817	1027.91
418.025	980.81
418.233	1068.87
418.441	933.7
418.649	1134.4
418.857	1226.56
419.065	1204.03
419.273	1097.54
419.481	1179.46
419.689	1349.44
419.897	1341.25
420.105	1339.2
420.313	1421.12
420.521	1460.03
420.729	1474.37
420.937	1560.38
421.145	1638.2
421.353	1546.05
421.561	1666.88
421.769	1761.08
421.977	1900.34
422.185	1818.43
422.393	1912.63
422.601	1992.5
422.809	2103.09
423.017	1949.5
423.224	2090.81
423.432	2101.05
423.64	2139.96
423.848	2455.34
424.056	2375.47
424.263	2533.17
424.471	2543.41
424.679	2598.7
424.887	2758.44
425.094	2891.56
425.302	2895.66
425.51	2961.19
425.718	2989.86
425.925	3047.21
426.133	3215.14
426.341	3413.79
426.548	3565.34
426.756	3553.06
426.964	3694.36
427.171	3641.12
427.379	3907.35
427.586	3987.22
427.794	4079.38
428.001	4144.92
428.209	4325.14
428.417	4230.93
428.624	4507.41
428.832	4742.92
429.039	4534.03
429.247	4644.62
429.454	5140.23
429.662	5437.19
429.869	5097.22
430.076	5463.81
430.284	5283.59
430.491	5498.63
430.699	5789.44
430.906	5785.34
431.114	5900.03
431.321	6131.45
431.528	6254.33
431.736	6618.86
431.943	7077.61
432.15	6694.64
432.358	6819.57
432.565	7251.69
432.772	7147.24
432.979	7569.12
433.187	7694.05
433.394	7735.01
433.601	8095.45
433.808	8400.6
434.016	8120.03
434.223	8521.43
434.43	9039.56
434.637	8740.56
434.844	9352.9
435.052	9758.4
435.259	9672.39
435.466	9699.01
435.673	9699.01
435.88	10391.22
436.087	10862.26
436.294	10806.96
436.501	10446.52
436.708	10817.2
436.915	11110.06
437.122	11693.73
437.329	11404.97
437.537	12056.22
437.743	12189.34
437.95	11945.63
438.157	12588.69
438.364	13145.74
438.571	13149.84
438.778	12979.86
438.985	14130.81
439.192	13831.81
439.399	14161.53
439.606	14069.37
439.813	14870.13
440.02	15584.87
440.227	15550.06
440.433	15003.25
440.64	15629.93
440.847	15615.59
441.054	15906.4
441.261	17063.5
441.467	16631.38
441.674	16887.38
441.881	17892.93
442.088	17604.17
442.294	17577.55
442.501	17915.46
442.708	18509.37
442.914	19127.86
443.121	19656.23
443.328	19232.3
443.534	20991.51
443.741	20272.67
443.948	19824.17
444.154	21327.38
444.361	21456.4
444.568	21276.18
444.774	21278.22
444.981	21483.02
445.187	22210.05
445.394	23397.87
445.6	22892.02
445.807	24944.09
446.013	23944.68
446.22	24456.67
446.426	25609.68
446.633	25759.18
446.839	26527.17
447.046	25560.53
447.252	26975.67
447.459	26979.77
447.665	26920.38
447.871	28310.95
448.078	29427.09
448.284	27602.35
448.491	28691.87
448.697	29678.99
448.903	30262.66
449.11	30543.24
449.316	30414.21
449.522	30287.24
449.728	31704.43
449.935	31313.27
450.141	31706.48
450.347	31939.95
450.553	31100.28
450.76	31614.32
450.966	33013.09
451.172	32329.06
451.378	33105.24
451.584	32736.61
451.791	33330.52
451.997	33095
452.203	33703.25
452.409	33842.51
452.615	33344.86
452.821	32572.77
453.027	32271.72
453.233	33588.56
453.44	32167.27
453.646	32832.86
453.852	33326.42
454.058	33572.18
454.264	32626.02
454.47	33217.88
454.676	32464.23
454.882	33475.93
455.088	30406.02
455.294	31012.22
455.5	31485.3
455.705	31982.96
455.911	30627.2
456.117	30123.4
456.323	29334.93
456.529	28073.38
456.735	29089.18
456.941	28632.48
457.147	28118.44
457.352	27162.04
457.558	26901.95
457.764	26918.33
457.97	26738.11
458.176	25935.31
458.381	26004.94
458.587	24688.09
458.793	24765.92
458.999	23313.91
459.204	25048.54
459.41	24493.54
459.616	22787.58
459.821	22566.4
460.027	22844.92
460.233	22013.45
460.438	21075.48
460.644	21347.86
460.85	20325.92
461.055	19832.36
461.261	20145.7
461.466	18429.5
461.672	17991.23
461.878	19342.89
462.083	17837.64
462.289	17745.48
462.494	17483.34
462.7	16477.79
462.905	16254.56
463.111	16877.14
463.316	16883.28
463.522	16508.51
463.727	16539.22
463.932	16576.09
464.138	16354.91
464.343	16311.9
464.549	16012.9
464.754	16492.12
464.959	16178.78
465.165	16082.53
465.37	15289.96
465.575	15074.93
465.781	15980.13
465.986	15744.61
466.191	15085.17
466.397	14730.87
466.602	14114.43
466.807	14716.53
467.012	14890.61
467.218	14511.74
467.423	14607.99
467.628	14464.63
467.833	15279.72
468.038	14476.92
