Data from USB4F104151__82__12-27-55-990.txt Node

Date: Fri Mar 14 12:27:55 EDT 2025
User: louis
Spectrometer: USB4F10415
Trigger mode: 4
Integration Time (sec): 2.000000E-2
Scans to average: 1
Electric dark correction enabled: true
Nonlinearity correction enabled: false
Boxcar width: 0
XAxis mode: Wavelengths
Number of Pixels in Spectrum: 3648
>>>>>Begin Spectral Data<<<<<
178.204	-102.74
178.424	-102.74
178.644	-102.74
178.864	-65.88
179.084	-35.16
179.304	18.09
179.524	22.19
179.744	-63.83
179.964	-6.49
180.184	28.33
180.404	-16.73
180.624	-47.44
180.844	102.06
181.064	-106.84
181.283	11.95
181.503	61.1
181.723	-2.39
181.943	32.43
182.163	7.85
182.383	-18.77
182.602	130.73
182.822	48.81
183.042	-2.39
183.262	-4.44
183.482	-22.87
183.701	57
183.921	-63.83
184.141	36.52
184.361	-43.35
184.58	36.52
184.8	16.04
185.02	24.23
185.239	-14.68
185.459	18.09
185.679	114.34
185.898	93.87
186.118	11.95
186.338	40.62
186.557	-0.34
186.777	48.81
186.997	34.47
187.216	34.47
187.436	38.57
187.655	36.52
187.875	34.47
188.095	18.09
188.314	116.39
188.534	67.24
188.753	-41.3
188.973	110.25
189.192	54.95
189.412	30.38
189.631	24.23
189.851	42.67
190.07	28.33
190.29	11.95
190.509	7.85
190.729	-22.87
190.948	83.63
191.168	106.15
191.387	54.95
191.607	24.23
191.826	-8.53
192.045	-31.06
192.265	42.67
192.484	44.71
192.704	38.57
192.923	-14.68
193.142	63.15
193.362	16.04
193.581	81.58
193.8	87.72
194.02	65.19
194.239	44.71
194.458	93.87
194.678	13.99
194.897	104.11
195.116	9.9
195.335	67.24
195.555	-6.49
195.774	71.34
195.993	5.8
196.212	61.1
196.432	-4.44
196.651	32.43
196.87	24.23
197.089	93.87
197.308	-8.53
197.528	7.85
197.747	-35.16
197.966	22.19
198.185	57
198.404	-0.34
198.623	67.24
198.842	22.19
199.062	95.91
199.281	24.23
199.5	24.23
199.719	34.47
199.938	54.95
200.157	61.1
200.376	18.09
200.595	34.47
200.814	57
201.033	46.76
201.252	61.1
201.471	16.04
201.69	81.58
201.909	-10.58
202.128	38.57
202.347	28.33
202.566	-37.2
202.785	11.95
203.004	-59.73
203.223	75.43
203.442	65.19
203.661	-53.59
203.879	42.67
204.098	20.14
204.317	3.75
204.536	-26.96
204.755	-55.64
204.974	13.99
205.193	9.9
205.411	59.05
205.63	11.95
205.849	28.33
206.068	-53.59
206.287	-0.34
206.505	22.19
206.724	18.09
206.943	13.99
207.162	42.67
207.381	63.15
207.599	50.86
207.818	26.28
208.037	11.95
208.255	57
208.474	32.43
208.693	18.09
208.911	-59.73
209.13	69.29
209.349	65.19
209.567	-8.53
209.786	38.57
210.005	26.28
210.223	75.43
210.442	30.38
210.661	-8.53
210.879	34.47
211.098	40.62
211.316	71.34
211.535	30.38
211.753	-39.25
211.972	7.85
212.191	5.8
212.409	61.1
212.628	-4.44
212.846	-18.77
213.065	59.05
213.283	97.96
213.502	50.86
213.72	11.95
213.938	-0.34
214.157	-37.2
214.375	5.8
214.594	36.52
214.812	81.58
215.031	38.57
215.249	-8.53
215.467	30.38
215.686	-4.44
215.904	26.28
216.122	50.86
216.341	46.76
216.559	16.04
216.778	89.77
216.996	54.95
217.214	-18.77
217.432	38.57
217.651	36.52
217.869	-29.01
218.087	-37.2
218.306	-45.4
218.524	65.19
218.742	-31.06
218.96	-12.63
219.179	13.99
219.397	18.09
219.615	50.86
219.833	65.19
220.051	30.38
220.27	28.33
220.488	-6.49
220.706	48.81
220.924	-6.49
221.142	18.09
221.36	-53.59
221.578	24.23
221.796	-29.01
222.015	28.33
222.233	77.48
222.451	87.72
222.669	-33.11
222.887	81.58
223.105	97.96
223.323	69.29
223.541	-6.49
223.759	114.34
223.977	28.33
224.195	73.39
224.413	-4.44
224.631	32.43
224.849	40.62
225.067	50.86
225.285	-10.58
225.503	89.77
225.721	57
225.939	42.67
226.157	38.57
226.375	57
226.592	81.58
226.81	11.95
227.028	87.72
227.246	65.19
227.464	3.75
227.682	3.75
227.9	34.47
228.117	87.72
228.335	5.8
228.553	50.86
228.771	-2.39
228.989	20.14
229.206	52.91
229.424	1.71
229.642	34.47
229.86	18.09
230.077	18.09
230.295	44.71
230.513	85.67
230.731	34.47
230.948	73.39
231.166	36.52
231.384	-14.68
231.601	-10.58
231.819	52.91
232.037	7.85
232.254	28.33
232.472	-8.53
232.689	-12.63
232.907	9.9
233.125	13.99
233.342	73.39
233.56	40.62
233.777	71.34
233.995	-35.16
234.213	75.43
234.43	54.95
234.648	13.99
234.865	52.91
235.083	52.91
235.3	28.33
235.518	71.34
235.735	108.2
235.953	36.52
236.17	24.23
236.388	61.1
236.605	26.28
236.822	87.72
237.04	32.43
237.257	34.47
237.475	18.09
237.692	75.43
237.909	20.14
238.127	89.77
238.344	11.95
238.562	52.91
238.779	-35.16
238.996	13.99
239.214	26.28
239.431	22.19
239.648	-0.34
239.865	54.95
240.083	42.67
240.3	5.8
240.517	-18.77
240.735	97.96
240.952	24.23
241.169	54.95
241.386	59.05
241.603	-4.44
241.821	5.8
242.038	52.91
242.255	48.81
242.472	9.9
242.689	54.95
242.907	95.91
243.124	44.71
243.341	67.24
243.558	13.99
243.775	-16.73
243.992	-4.44
244.209	34.47
244.426	77.48
244.643	5.8
244.86	18.09
245.078	36.52
245.295	-22.87
245.512	48.81
245.729	89.77
245.946	36.52
246.163	54.95
246.38	26.28
246.597	28.33
246.814	1.71
247.031	1.71
247.248	-26.96
247.464	-35.16
247.681	52.91
247.898	67.24
248.115	48.81
248.332	24.23
248.549	122.54
248.766	40.62
248.983	71.34
249.2	-29.01
249.417	-4.44
249.633	71.34
249.85	114.34
250.067	75.43
250.284	11.95
250.501	52.91
250.717	40.62
250.934	-14.68
251.151	3.75
251.368	77.48
251.585	-20.82
251.801	69.29
252.018	73.39
252.235	-14.68
252.451	46.76
252.668	-10.58
252.885	36.52
253.102	-31.06
253.318	52.91
253.535	149.16
253.752	32.43
253.968	42.67
254.185	5.8
254.401	-12.63
254.618	44.71
254.835	-2.39
255.051	57
255.268	-2.39
255.484	40.62
255.701	89.77
255.917	50.86
256.134	34.47
256.351	87.72
256.567	40.62
256.784	24.23
257	30.38
257.217	30.38
257.433	32.43
257.65	28.33
257.866	69.29
258.082	83.63
258.299	61.1
258.515	52.91
258.732	7.85
258.948	24.23
259.165	65.19
259.381	-24.92
259.597	-29.01
259.814	40.62
260.03	-0.34
260.246	112.3
260.463	42.67
260.679	46.76
260.895	50.86
261.112	63.15
261.328	9.9
261.544	34.47
261.761	48.81
261.977	54.95
262.193	7.85
262.409	42.67
262.626	108.2
262.842	-10.58
263.058	59.05
263.274	50.86
263.49	59.05
263.707	81.58
263.923	9.9
264.139	-6.49
264.355	30.38
264.571	73.39
264.787	5.8
265.004	100.01
265.22	93.87
265.436	30.38
265.652	-16.73
265.868	77.48
266.084	57
266.3	5.8
266.516	-10.58
266.732	34.47
266.948	-18.77
267.164	3.75
267.38	5.8
267.596	77.48
267.812	112.3
268.028	42.67
268.244	26.28
268.46	-22.87
268.676	-29.01
268.892	11.95
269.108	26.28
269.324	-2.39
269.54	-76.12
269.756	89.77
269.972	-16.73
270.188	30.38
270.403	-35.16
270.619	79.53
270.835	-41.3
271.051	-0.34
271.267	87.72
271.483	95.91
271.698	40.62
271.914	34.47
272.13	13.99
272.346	28.33
272.562	67.24
272.777	5.8
272.993	11.95
273.209	44.71
273.425	-12.63
273.64	5.8
273.856	59.05
274.072	38.57
274.287	32.43
274.503	-22.87
274.719	-31.06
274.934	65.19
275.15	-6.49
275.366	-24.92
275.581	13.99
275.797	-22.87
276.012	-22.87
276.228	50.86
276.444	-53.59
276.659	124.58
276.875	5.8
277.09	54.95
277.306	65.19
277.521	81.58
277.737	-2.39
277.952	46.76
278.168	42.67
278.383	-8.53
278.599	30.38
278.814	32.43
279.03	95.91
279.245	75.43
279.461	7.85
279.676	85.67
279.892	9.9
280.107	9.9
280.322	42.67
280.538	40.62
280.753	-33.11
280.969	22.19
281.184	54.95
281.399	11.95
281.615	48.81
281.83	93.87
282.045	34.47
282.26	-47.44
282.476	-8.53
282.691	61.1
282.906	-45.4
283.122	26.28
283.337	26.28
283.552	22.19
283.767	20.14
283.983	95.91
284.198	71.34
284.413	22.19
284.628	-26.96
284.843	7.85
285.058	11.95
285.274	57
285.489	-16.73
285.704	50.86
285.919	50.86
286.134	7.85
286.349	-14.68
286.564	-47.44
286.779	77.48
286.995	48.81
287.21	-10.58
287.425	75.43
287.64	-8.53
287.855	61.1
288.07	71.34
288.285	46.76
288.5	-0.34
288.715	50.86
288.93	9.9
289.145	36.52
289.36	38.57
289.575	9.9
289.79	40.62
290.004	32.43
290.219	48.81
290.434	3.75
290.649	81.58
290.864	26.28
291.079	5.8
291.294	61.1
291.509	54.95
291.724	7.85
291.938	24.23
292.153	22.19
292.368	65.19
292.583	22.19
292.798	61.1
293.012	173.74
293.227	73.39
293.442	5.8
293.657	116.39
293.871	46.76
294.086	7.85
294.301	192.17
294.516	32.43
294.73	16.04
294.945	-39.25
295.16	110.25
295.374	85.67
295.589	-14.68
295.804	40.62
296.018	50.86
296.233	69.29
296.447	-8.53
296.662	69.29
296.877	30.38
297.091	52.91
297.306	71.34
297.52	-18.77
297.735	40.62
297.949	34.47
298.164	83.63
298.378	5.8
298.593	73.39
298.807	28.33
299.022	87.72
299.236	65.19
299.451	34.47
299.665	32.43
299.88	32.43
300.094	93.87
300.309	13.99
300.523	54.95
300.737	77.48
300.952	59.05
301.166	54.95
301.381	3.75
301.595	7.85
301.809	13.99
302.024	7.85
302.238	79.53
302.452	71.34
302.667	-22.87
302.881	50.86
303.095	42.67
303.309	83.63
303.524	-22.87
303.738	44.71
303.952	-14.68
304.166	46.76
304.381	26.28
304.595	61.1
304.809	3.75
305.023	42.67
305.237	42.67
305.452	93.87
305.666	87.72
305.88	104.11
306.094	13.99
306.308	95.91
306.522	40.62
306.736	57
306.95	-33.11
307.164	-6.49
307.379	13.99
307.593	77.48
307.807	102.06
308.021	61.1
308.235	38.57
308.449	-10.58
308.663	100.01
308.877	91.82
309.091	34.47
309.305	95.91
309.519	30.38
309.733	52.91
309.947	22.19
310.161	24.23
310.374	-2.39
310.588	59.05
310.802	32.43
311.016	-18.77
311.23	40.62
311.444	18.09
311.658	85.67
311.872	91.82
312.085	50.86
312.299	91.82
312.513	26.28
312.727	69.29
312.941	-16.73
313.154	75.43
313.368	116.39
313.582	65.19
313.796	24.23
314.009	91.82
314.223	11.95
314.437	42.67
314.651	71.34
314.864	116.39
315.078	38.57
315.292	63.15
315.505	110.25
315.719	-31.06
315.933	40.62
316.146	22.19
316.36	30.38
316.573	22.19
316.787	13.99
317.001	16.04
317.214	89.77
317.428	-6.49
317.641	42.67
317.855	67.24
318.068	-2.39
318.282	32.43
318.495	65.19
318.709	32.43
318.922	26.28
319.136	136.87
319.349	67.24
319.563	26.28
319.776	71.34
319.99	28.33
320.203	134.82
320.417	75.43
320.63	-24.92
320.843	110.25
321.057	79.53
321.27	54.95
321.483	3.75
321.697	46.76
321.91	-0.34
322.124	69.29
322.337	95.91
322.55	54.95
322.763	50.86
322.977	106.15
323.19	59.05
323.403	28.33
323.617	89.77
323.83	42.67
324.043	-16.73
324.256	106.15
324.469	50.86
324.683	100.01
324.896	83.63
325.109	91.82
325.322	13.99
325.535	-2.39
325.748	38.57
325.962	73.39
326.175	34.47
326.388	34.47
326.601	85.67
326.814	13.99
327.027	28.33
327.24	-2.39
327.453	22.19
327.666	104.11
327.879	81.58
328.092	13.99
328.305	16.04
328.518	-14.68
328.731	63.15
328.944	-18.77
329.157	59.05
329.37	44.71
329.583	32.43
329.796	46.76
330.009	5.8
330.222	61.1
330.435	54.95
330.648	57
330.861	93.87
331.073	65.19
331.286	18.09
331.499	77.48
331.712	-35.16
331.925	57
332.138	54.95
332.35	91.82
332.563	-47.44
332.776	34.47
332.989	5.8
333.202	110.25
333.414	69.29
333.627	9.9
333.84	11.95
334.053	110.25
334.265	26.28
334.478	20.14
334.691	57
334.903	20.14
335.116	63.15
335.329	75.43
335.541	106.15
335.754	61.1
335.966	22.19
336.179	48.81
336.392	34.47
336.604	16.04
336.817	20.14
337.029	75.43
337.242	30.38
337.454	106.15
337.667	57
337.88	81.58
338.092	34.47
338.305	52.91
338.517	30.38
338.729	38.57
338.942	42.67
339.154	67.24
339.367	13.99
339.579	57
339.792	1.71
340.004	5.8
340.217	52.91
340.429	63.15
340.641	50.86
340.854	73.39
341.066	38.57
341.278	81.58
341.491	91.82
341.703	16.04
341.915	20.14
342.128	24.23
342.34	79.53
342.552	-6.49
342.764	24.23
342.977	147.11
343.189	57
343.401	75.43
343.613	75.43
343.826	48.81
344.038	34.47
344.25	61.1
344.462	32.43
344.674	30.38
344.886	-20.82
345.099	-4.44
345.311	46.76
345.523	124.58
345.735	-24.92
345.947	52.91
346.159	-8.53
346.371	65.19
346.583	89.77
346.795	91.82
347.007	18.09
347.219	93.87
347.431	63.15
347.643	50.86
347.855	-12.63
348.067	116.39
348.279	57
348.491	67.24
348.703	97.96
348.915	18.09
349.127	-4.44
349.339	30.38
349.551	50.86
349.763	16.04
349.975	-6.49
350.187	20.14
350.399	89.77
350.61	63.15
350.822	130.73
351.034	30.38
351.246	75.43
351.458	48.81
351.669	59.05
351.881	18.09
352.093	79.53
352.305	57
352.517	91.82
352.728	83.63
352.94	52.91
353.152	110.25
353.363	54.95
353.575	77.48
353.787	97.96
353.999	24.23
354.21	126.63
354.422	59.05
354.633	-4.44
354.845	91.82
355.057	104.11
355.268	52.91
355.48	61.1
355.692	-6.49
355.903	145.06
356.115	48.81
356.326	20.14
356.538	46.76
356.749	48.81
356.961	50.86
357.172	-0.34
357.384	46.76
357.595	114.34
357.807	7.85
358.018	-16.73
358.23	-8.53
358.441	18.09
358.653	83.63
358.864	-10.58
359.075	38.57
359.287	120.49
359.498	83.63
359.709	100.01
359.921	89.77
360.132	77.48
360.344	73.39
360.555	93.87
360.766	48.81
360.977	7.85
361.189	42.67
361.4	52.91
361.611	46.76
361.823	97.96
362.034	26.28
362.245	-18.77
362.456	67.24
362.667	65.19
362.879	26.28
363.09	3.75
363.301	79.53
363.512	81.58
363.723	38.57
363.935	95.91
364.146	116.39
364.357	42.67
364.568	81.58
364.779	-8.53
364.99	65.19
365.201	63.15
365.412	18.09
365.623	61.1
365.834	50.86
366.045	-22.87
366.256	81.58
366.467	63.15
366.678	32.43
366.889	81.58
367.1	28.33
367.311	79.53
367.522	36.52
367.733	5.8
367.944	-37.2
368.155	28.33
368.366	95.91
368.577	5.8
368.788	95.91
368.999	59.05
369.209	67.24
369.42	59.05
369.631	91.82
369.842	-47.44
370.053	-0.34
370.264	79.53
370.474	77.48
370.685	79.53
370.896	36.52
371.107	48.81
371.317	44.71
371.528	26.28
371.739	95.91
371.95	108.2
372.16	104.11
372.371	26.28
372.582	79.53
372.792	7.85
373.003	28.33
373.214	114.34
373.424	48.81
373.635	44.71
373.846	71.34
374.056	57
374.267	91.82
374.477	130.73
374.688	100.01
374.898	46.76
375.109	91.82
375.319	79.53
375.53	40.62
375.74	73.39
375.951	140.97
376.161	114.34
376.372	100.01
376.582	-2.39
376.793	65.19
377.003	61.1
377.214	75.43
377.424	30.38
377.635	44.71
377.845	22.19
378.055	13.99
378.266	93.87
378.476	46.76
378.686	24.23
378.897	3.75
379.107	91.82
379.317	61.1
379.528	13.99
379.738	120.49
379.948	-20.82
380.158	57
380.369	1.71
380.579	151.21
380.789	46.76
380.999	57
381.21	83.63
381.42	54.95
381.63	85.67
381.84	40.62
382.05	57
382.261	128.68
382.471	73.39
382.681	48.81
382.891	116.39
383.101	63.15
383.311	13.99
383.521	69.29
383.731	73.39
383.941	89.77
384.151	59.05
384.361	77.48
384.571	32.43
384.781	42.67
384.991	38.57
385.201	46.76
385.411	104.11
385.621	54.95
385.831	79.53
386.041	126.63
386.251	61.1
386.461	75.43
386.671	16.04
386.881	87.72
387.091	83.63
387.301	87.72
387.511	42.67
387.72	106.15
387.93	57
388.14	91.82
388.35	30.38
388.56	87.72
388.769	97.96
388.979	30.38
389.189	-0.34
389.399	1.71
389.609	120.49
389.818	-6.49
390.028	97.96
390.238	20.14
390.447	7.85
390.657	34.47
390.867	110.25
391.076	28.33
391.286	118.44
391.496	128.68
391.705	5.8
391.915	89.77
392.125	134.82
392.334	26.28
392.544	36.52
392.753	91.82
392.963	69.29
393.172	126.63
393.382	11.95
393.591	79.53
393.801	87.72
394.01	30.38
394.22	122.54
394.429	87.72
394.639	87.72
394.848	93.87
395.058	102.06
395.267	120.49
395.477	143.02
395.686	132.78
395.895	140.97
396.105	114.34
396.314	79.53
396.524	46.76
396.733	100.01
396.942	134.82
397.152	61.1
397.361	73.39
397.57	73.39
397.78	122.54
397.989	104.11
398.198	95.91
398.407	106.15
398.617	87.72
398.826	110.25
399.035	110.25
399.244	120.49
399.453	73.39
399.663	138.92
399.872	171.69
400.081	57
400.29	97.96
400.499	169.64
400.708	97.96
400.917	20.14
401.127	181.93
401.336	118.44
401.545	179.88
401.754	46.76
401.963	118.44
402.172	159.4
402.381	138.92
402.59	130.73
402.799	91.82
403.008	151.21
403.217	163.5
403.426	95.91
403.635	145.06
403.844	124.58
404.053	171.69
404.262	106.15
404.471	167.59
404.68	132.78
404.888	118.44
405.097	163.5
405.306	100.01
405.515	177.83
405.724	143.02
405.933	243.37
406.142	159.4
406.35	218.79
406.559	173.74
406.768	138.92
406.977	253.61
407.185	239.27
407.394	208.55
407.603	208.55
407.812	212.65
408.02	298.66
408.229	345.77
408.438	212.65
408.646	179.88
408.855	231.08
409.064	245.41
409.272	214.7
409.481	247.46
409.69	331.43
409.898	235.18
410.107	212.65
410.315	335.53
410.524	302.76
410.733	372.39
410.941	341.67
411.15	413.35
411.358	372.39
411.567	442.02
411.775	315.05
411.984	444.07
412.192	419.49
412.401	495.27
412.609	503.46
412.818	509.6
413.026	556.71
413.234	444.07
413.443	546.47
413.651	519.84
413.86	546.47
414.068	546.47
414.276	587.43
414.485	636.58
414.693	593.57
414.901	751.26
415.11	652.96
415.318	730.78
415.526	790.17
415.734	824.99
415.943	771.74
416.151	833.18
416.359	818.85
416.567	859.81
416.776	911
416.984	984.73
417.192	1054.36
417.4	1003.16
417.608	1072.79
417.817	1044.12
418.025	1177.24
418.233	1144.47
418.441	1220.25
418.649	1144.47
418.857	1351.32
419.065	1269.4
419.273	1373.85
419.481	1449.62
419.689	1466
419.897	1502.87
420.105	1525.4
420.313	1650.32
420.521	1543.83
420.729	1586.83
420.937	1740.43
421.145	1793.68
421.353	1955.47
421.561	1982.09
421.769	1932.94
421.977	2111.11
422.185	1971.85
422.393	2182.79
422.601	2309.77
422.809	2227.85
423.017	2274.95
423.224	2504.32
423.432	2487.94
423.64	2553.48
423.848	2803.33
424.056	2707.07
424.263	2885.25
424.471	2827.9
424.679	2895.49
424.887	3077.76
425.094	3165.82
425.302	3241.59
425.51	3231.35
425.718	3489.4
425.925	3497.59
426.133	3747.44
426.341	3753.59
426.548	3935.85
426.756	4036.21
426.964	3966.57
427.171	4234.86
427.379	4398.7
427.586	4351.59
427.794	4664.93
428.001	4746.85
428.209	4888.16
428.417	4851.3
428.624	5361.24
428.832	5275.23
429.039	5195.36
429.247	5342.81
429.454	5785.17
429.662	6030.93
429.869	5725.78
430.076	6176.33
430.284	5899.86
430.491	6241.87
430.699	6600.26
430.906	6569.54
431.114	6755.91
431.321	6958.66
431.528	7093.82
431.736	7433.79
431.943	8074.8
432.15	7695.93
432.358	7794.23
432.565	8037.94
432.772	8058.42
432.979	8410.67
433.187	8756.77
433.394	8724.01
433.601	9248.29
433.808	9336.35
434.016	9383.45
434.223	9731.61
434.43	10337.8
434.637	10329.61
434.844	10692.1
435.052	11056.64
435.259	10980.87
435.466	10886.66
435.673	10898.95
435.88	11552.25
436.087	12250.61
436.294	11929.08
436.501	11912.69
436.708	12232.18
436.915	12637.67
437.122	13037.03
437.329	13037.03
437.537	13370.85
437.743	13784.54
437.95	13659.61
438.157	14415.31
438.364	14824.9
438.571	14777.8
438.778	14708.17
438.985	16317.87
439.192	15576.51
439.399	16068.02
439.606	15748.54
439.813	16674.22
440.02	17866.14
440.227	17325.47
440.433	17153.44
440.64	17741.21
440.847	17681.82
441.054	18382.23
441.261	19056.01
441.467	18941.32
441.674	19668.35
441.881	20170.1
442.088	20067.7
442.294	20149.62
442.501	20469.11
442.708	20878.7
442.914	21898.59
443.121	22863.18
443.328	22250.84
443.534	23627.07
443.741	23072.07
443.948	22795.6
444.154	24411.45
444.361	24218.94
444.568	24284.47
444.774	24431.93
444.981	24667.44
445.187	25648.42
445.394	26889.49
445.6	26074.4
445.807	28548.34
446.013	27489.54
446.22	28073.21
446.426	29109.49
446.633	29347.05
446.839	30420.19
447.046	28767.48
447.252	30903.51
447.459	30819.54
447.665	30946.51
447.871	32021.7
448.078	33270.96
448.284	32218.3
448.491	32916.66
448.697	34036.9
448.903	34579.61
449.11	34626.71
449.316	34124.96
449.522	34919.57
449.728	35552.4
449.935	35918.98
450.141	36086.92
450.347	36875.38
450.553	35884.17
450.76	35796.1
450.966	37495.92
451.172	36953.21
451.378	37977.19
451.584	36985.97
451.791	37887.08
451.997	38095.97
452.203	38509.66
452.409	38452.32
452.615	38505.57
452.821	37074.04
453.027	36611.2
453.233	38730.84
453.44	37356.66
453.646	37555.31
453.852	37467.25
454.058	38241.38
454.264	37082.23
454.47	38190.18
454.676	37180.53
454.882	38272.1
455.088	34870.42
455.294	35587.21
455.5	36082.82
455.705	35978.37
455.911	35134.61
456.117	34243.74
456.323	33623.21
456.529	32054.47
456.735	33547.43
456.941	32908.47
457.147	32292.03
457.352	31231.18
457.558	30928.08
457.764	30821.59
457.97	30516.44
458.176	29474.02
458.381	29396.2
458.587	28394.75
458.793	28345.59
458.999	26711.32
459.204	28652.79
459.41	28058.88
459.616	26191.13
459.821	26012.96
460.027	25988.38
460.233	25554.21
460.438	24069.44
460.644	24325.43
460.85	23373.13
461.055	23045.45
461.261	23158.09
461.466	21321.06
461.672	20706.67
461.878	22060.38
462.083	20954.47
462.289	20290.93
462.494	20024.7
462.7	18959.75
462.905	18808.2
463.111	19166.6
463.316	19232.13
463.522	18875.79
463.727	18892.17
463.932	18769.29
464.138	18748.81
464.343	18924.94
464.549	18259.35
464.754	18984.33
464.959	18666.89
465.165	18619.79
465.37	17517.98
465.575	17266.08
465.781	17913.24
465.986	18193.81
466.191	17718.68
466.397	17065.38
466.602	16299.44
466.807	17139.11
467.012	16973.22
467.218	16666.03
467.423	16778.67
467.628	16930.22
467.833	17599.9
468.038	16907.69
468.244	16561.58
