Data from USB4F104151__92__12-28-17-668.txt Node

Date: Fri Mar 14 12:28:17 EDT 2025
User: louis
Spectrometer: USB4F10415
Trigger mode: 4
Integration Time (sec): 2.000000E-2
Scans to average: 1
Electric dark correction enabled: true
Nonlinearity correction enabled: false
Boxcar width: 0
XAxis mode: Wavelengths
Number of Pixels in Spectrum: 3648
>>>>>Begin Spectral Data<<<<<
178.204	-127.66
178.424	-127.66
178.644	-127.66
178.864	-74.41
179.084	-41.64
179.304	-19.11
179.524	-10.92
179.744	-15.02
179.964	109.91
180.184	19.8
180.404	-2.73
180.624	42.32
180.844	-68.27
181.064	-37.55
181.283	9.56
181.503	-31.4
181.723	3.41
181.943	38.23
182.163	85.33
182.383	5.46
182.602	32.08
182.822	50.52
183.042	75.09
183.262	13.65
183.482	71
183.701	-15.02
183.921	19.8
184.141	-19.11
184.361	5.46
184.58	27.99
184.8	58.71
185.02	40.28
185.239	99.67
185.459	48.47
185.679	54.61
185.898	27.99
186.118	27.99
186.338	93.52
186.557	93.52
186.777	13.65
186.997	5.46
187.216	46.42
187.436	1.37
187.655	75.09
187.875	79.19
188.095	73.04
188.314	66.9
188.534	-15.02
188.753	27.99
188.973	30.04
189.192	42.32
189.412	56.66
189.631	-12.97
189.851	36.18
190.07	-70.31
190.29	7.51
190.509	36.18
190.729	27.99
190.948	87.38
191.168	34.13
191.387	146.77
191.607	17.75
191.826	17.75
192.045	30.04
192.265	-33.45
192.484	66.9
192.704	-6.83
192.923	-4.78
193.142	107.86
193.362	-2.73
193.581	42.32
193.8	25.94
194.02	89.43
194.239	71
194.458	-4.78
194.678	42.32
194.897	71
195.116	13.65
195.335	25.94
195.555	-6.83
195.774	34.13
195.993	-8.87
196.212	40.28
196.432	19.8
196.651	15.7
196.87	19.8
197.089	66.9
197.308	75.09
197.528	11.61
197.747	13.65
197.966	54.61
198.185	99.67
198.404	34.13
198.623	-47.79
198.842	36.18
199.062	54.61
199.281	124.24
199.5	81.24
199.719	52.56
199.938	-12.97
200.157	38.23
200.376	-2.73
200.595	32.08
200.814	34.13
201.033	15.7
201.252	42.32
201.471	64.85
201.69	42.32
201.909	19.8
202.128	25.94
202.347	66.9
202.566	46.42
202.785	-15.02
203.004	13.65
203.223	105.81
203.442	73.04
203.661	3.41
203.879	83.28
204.098	93.52
204.317	-62.12
204.536	5.46
204.755	21.85
204.974	-39.59
205.193	81.24
205.411	60.76
205.63	3.41
205.849	34.13
206.068	75.09
206.287	107.86
206.505	-72.36
206.724	9.56
206.943	38.23
207.162	-4.78
207.381	50.52
207.599	134.48
207.818	11.61
208.037	81.24
208.255	3.41
208.474	91.48
208.693	48.47
208.911	15.7
209.13	62.8
209.349	32.08
209.567	56.66
209.786	44.37
210.005	-4.78
210.223	54.61
210.442	44.37
210.661	42.32
210.879	-6.83
211.098	50.52
211.316	36.18
211.535	25.94
211.753	21.85
211.972	19.8
212.191	95.57
212.409	44.37
212.628	48.47
212.846	56.66
213.065	40.28
213.283	42.32
213.502	-23.21
213.72	85.33
213.938	62.8
214.157	7.51
214.375	77.14
214.594	44.37
214.812	25.94
215.031	15.7
215.249	116.05
215.467	-4.78
215.686	-19.11
215.904	134.48
216.122	54.61
216.341	46.42
216.559	-2.73
216.778	40.28
216.996	71
217.214	-15.02
217.432	101.72
217.651	48.47
217.869	40.28
218.087	132.44
218.306	30.04
218.524	27.99
218.742	52.56
218.96	60.76
219.179	15.7
219.397	19.8
219.615	81.24
219.833	95.57
220.051	79.19
220.27	89.43
220.488	48.47
220.706	13.65
220.924	1.37
221.142	11.61
221.36	-12.97
221.578	89.43
221.796	52.56
222.015	75.09
222.233	-64.17
222.451	23.89
222.669	42.32
222.887	91.48
223.105	-21.16
223.323	1.37
223.541	7.51
223.759	56.66
223.977	21.85
224.195	68.95
224.413	40.28
224.631	79.19
224.849	81.24
225.067	58.71
225.285	36.18
225.503	1.37
225.721	52.56
225.939	17.75
226.157	11.61
226.375	38.23
226.592	30.04
226.81	79.19
227.028	71
227.246	50.52
227.464	1.37
227.682	52.56
227.9	52.56
228.117	52.56
228.335	15.7
228.553	-10.92
228.771	1.37
228.989	38.23
229.206	13.65
229.424	114
229.642	52.56
229.86	7.51
230.077	38.23
230.295	81.24
230.513	7.51
230.731	44.37
230.948	-4.78
231.166	83.28
231.384	-51.88
231.601	46.42
231.819	64.85
232.037	52.56
232.254	25.94
232.472	9.56
232.689	-31.4
232.907	-10.92
233.125	77.14
233.342	27.99
233.56	7.51
233.777	109.91
233.995	101.72
234.213	71
234.43	-27.31
234.648	89.43
234.865	9.56
235.083	120.15
235.3	1.37
235.518	56.66
235.735	-4.78
235.953	73.04
236.17	36.18
236.388	50.52
236.605	38.23
236.822	107.86
237.04	89.43
237.257	56.66
237.475	19.8
237.692	44.37
237.909	34.13
238.127	-10.92
238.344	107.86
238.562	66.9
238.779	58.71
238.996	13.65
239.214	27.99
239.431	30.04
239.648	19.8
239.865	27.99
240.083	93.52
240.3	36.18
240.517	27.99
240.735	54.61
240.952	58.71
241.169	17.75
241.386	23.89
241.603	21.85
241.821	60.76
242.038	91.48
242.255	83.28
242.472	36.18
242.689	32.08
242.907	23.89
243.124	81.24
243.341	93.52
243.558	60.76
243.775	95.57
243.992	3.41
244.209	13.65
244.426	21.85
244.643	27.99
244.86	27.99
245.078	85.33
245.295	5.46
245.512	89.43
245.729	-29.35
245.946	52.56
246.163	21.85
246.38	36.18
246.597	3.41
246.814	21.85
247.031	15.7
247.248	1.37
247.464	-12.97
247.681	-10.92
247.898	85.33
248.115	19.8
248.332	32.08
248.549	77.14
248.766	40.28
248.983	91.48
249.2	17.75
249.417	19.8
249.633	81.24
249.85	101.72
250.067	13.65
250.284	23.89
250.501	75.09
250.717	48.47
250.934	-47.79
251.151	116.05
251.368	-2.73
251.585	19.8
251.801	107.86
252.018	40.28
252.235	77.14
252.451	50.52
252.668	21.85
252.885	48.47
253.102	58.71
253.318	56.66
253.535	-4.78
253.752	93.52
253.968	5.46
254.185	44.37
254.401	13.65
254.618	93.52
254.835	-15.02
255.051	27.99
255.268	73.04
255.484	95.57
255.701	89.43
255.917	107.86
256.134	-17.07
256.351	75.09
256.567	3.41
256.784	107.86
257	11.61
257.217	79.19
257.433	60.76
257.65	34.13
257.866	89.43
258.082	-6.83
258.299	42.32
258.515	38.23
258.732	1.37
258.948	-37.55
259.165	19.8
259.381	25.94
259.597	54.61
259.814	-19.11
260.03	21.85
260.246	34.13
260.463	122.2
260.679	60.76
260.895	46.42
261.112	17.75
261.328	25.94
261.544	15.7
261.761	81.24
261.977	42.32
262.193	-27.31
262.409	23.89
262.626	56.66
262.842	9.56
263.058	89.43
263.274	21.85
263.49	52.56
263.707	44.37
263.923	-19.11
264.139	-12.97
264.355	9.56
264.571	30.04
264.787	17.75
265.004	44.37
265.22	32.08
265.436	81.24
265.652	71
265.868	25.94
266.084	15.7
266.3	64.85
266.516	-25.26
266.732	64.85
266.948	21.85
267.164	-21.16
267.38	3.41
267.596	34.13
267.812	66.9
268.028	-8.87
268.244	68.95
268.46	42.32
268.676	44.37
268.892	-10.92
269.108	30.04
269.324	21.85
269.54	77.14
269.756	116.05
269.972	1.37
270.188	40.28
270.403	19.8
270.619	-0.68
270.835	13.65
271.051	122.2
271.267	50.52
271.483	50.52
271.698	30.04
271.914	62.8
272.13	73.04
272.346	32.08
272.562	34.13
272.777	54.61
272.993	42.32
273.209	32.08
273.425	7.51
273.64	42.32
273.856	48.47
274.072	17.75
274.287	50.52
274.503	77.14
274.719	58.71
274.934	109.91
275.15	-4.78
275.366	25.94
275.581	50.52
275.797	-12.97
276.012	13.65
276.228	95.57
276.444	44.37
276.659	3.41
276.875	-62.12
277.09	93.52
277.306	79.19
277.521	-4.78
277.737	-4.78
277.952	142.68
278.168	36.18
278.383	60.76
278.599	83.28
278.814	30.04
279.03	30.04
279.245	34.13
279.461	87.38
279.676	64.85
279.892	-29.35
280.107	81.24
280.322	48.47
280.538	30.04
280.753	77.14
280.969	73.04
281.184	-2.73
281.399	15.7
281.615	-23.21
281.83	81.24
282.045	-10.92
282.26	68.95
282.476	-43.69
282.691	-4.78
282.906	-0.68
283.122	44.37
283.337	114
283.552	-4.78
283.767	23.89
283.983	91.48
284.198	-37.55
284.413	25.94
284.628	-27.31
284.843	89.43
285.058	5.46
285.274	62.8
285.489	11.61
285.704	56.66
285.919	7.51
286.134	46.42
286.349	83.28
286.564	66.9
286.779	105.81
286.995	17.75
287.21	-19.11
287.425	-2.73
287.64	9.56
287.855	56.66
288.07	27.99
288.285	-15.02
288.5	25.94
288.715	-2.73
288.93	71
289.145	40.28
289.36	46.42
289.575	40.28
289.79	64.85
290.004	17.75
290.219	165.2
290.434	19.8
290.649	83.28
290.864	44.37
291.079	-10.92
291.294	66.9
291.509	23.89
291.724	1.37
291.938	25.94
292.153	48.47
292.368	13.65
292.583	44.37
292.798	48.47
293.012	130.39
293.227	89.43
293.442	66.9
293.657	15.7
293.871	27.99
294.086	30.04
294.301	75.09
294.516	-4.78
294.73	34.13
294.945	30.04
295.16	-17.07
295.374	73.04
295.589	99.67
295.804	30.04
296.018	66.9
296.233	71
296.447	23.89
296.662	-45.74
296.877	-6.83
297.091	64.85
297.306	150.87
297.52	-53.93
297.735	71
297.949	32.08
298.164	34.13
298.378	3.41
298.593	56.66
298.807	-37.55
299.022	52.56
299.236	73.04
299.451	83.28
299.665	1.37
299.88	30.04
300.094	50.52
300.309	1.37
300.523	21.85
300.737	64.85
300.952	48.47
301.166	-21.16
301.381	-45.74
301.595	-10.92
301.809	9.56
302.024	11.61
302.238	27.99
302.452	42.32
302.667	60.76
302.881	1.37
303.095	-8.87
303.309	71
303.524	52.56
303.738	36.18
303.952	44.37
304.166	62.8
304.381	54.61
304.595	68.95
304.809	-25.26
305.023	44.37
305.237	-35.5
305.452	116.05
305.666	32.08
305.88	5.46
306.094	56.66
306.308	27.99
306.522	3.41
306.736	30.04
306.95	99.67
307.164	23.89
307.379	3.41
307.593	60.76
307.807	114
308.021	15.7
308.235	79.19
308.449	25.94
308.663	11.61
308.877	46.42
309.091	30.04
309.305	30.04
309.519	-19.11
309.733	60.76
309.947	-0.68
310.161	93.52
310.374	105.81
310.588	66.9
310.802	13.65
311.016	1.37
311.23	11.61
311.444	27.99
311.658	13.65
311.872	87.38
312.085	-12.97
312.299	66.9
312.513	97.62
312.727	77.14
312.941	-8.87
313.154	-21.16
313.368	-2.73
313.582	-15.02
313.796	44.37
314.009	-10.92
314.223	23.89
314.437	66.9
314.651	89.43
314.864	46.42
315.078	-0.68
315.292	42.32
315.505	64.85
315.719	38.23
315.933	21.85
316.146	21.85
316.36	15.7
316.573	81.24
316.787	42.32
317.001	3.41
317.214	32.08
317.428	75.09
317.641	5.46
317.855	38.23
318.068	34.13
318.282	62.8
318.495	15.7
318.709	89.43
318.922	109.91
319.136	75.09
319.349	89.43
319.563	13.65
319.776	87.38
319.99	81.24
320.203	50.52
320.417	58.71
320.63	36.18
320.843	-6.83
321.057	58.71
321.27	42.32
321.483	46.42
321.697	60.76
321.91	68.95
322.124	15.7
322.337	23.89
322.55	-19.11
322.763	50.52
322.977	48.47
323.19	52.56
323.403	58.71
323.617	7.51
323.83	46.42
324.043	83.28
324.256	71
324.469	60.76
324.683	25.94
324.896	81.24
325.109	44.37
325.322	-2.73
325.535	87.38
325.748	66.9
325.962	68.95
326.175	73.04
326.388	38.23
326.601	85.33
326.814	46.42
327.027	15.7
327.24	60.76
327.453	19.8
327.666	91.48
327.879	52.56
328.092	85.33
328.305	23.89
328.518	17.75
328.731	11.61
328.944	99.67
329.157	46.42
329.37	32.08
329.583	95.57
329.796	52.56
330.009	1.37
330.222	103.76
330.435	38.23
330.648	71
330.861	-2.73
331.073	103.76
331.286	-6.83
331.499	109.91
331.712	9.56
331.925	40.28
332.138	19.8
332.35	93.52
332.563	54.61
332.776	32.08
332.989	13.65
333.202	-4.78
333.414	15.7
333.627	81.24
333.84	64.85
334.053	66.9
334.265	64.85
334.478	15.7
334.691	21.85
334.903	-4.78
335.116	-0.68
335.329	77.14
335.541	52.56
335.754	62.8
335.966	21.85
336.179	54.61
336.392	-35.5
336.604	9.56
336.817	52.56
337.029	81.24
337.242	15.7
337.454	21.85
337.667	-15.02
337.88	52.56
338.092	-19.11
338.305	7.51
338.517	75.09
338.729	44.37
338.942	81.24
339.154	11.61
339.367	5.46
339.579	40.28
339.792	114
340.004	34.13
340.217	17.75
340.429	32.08
340.641	38.23
340.854	30.04
341.066	52.56
341.278	93.52
341.491	111.96
341.703	36.18
341.915	77.14
342.128	-6.83
342.34	34.13
342.552	58.71
342.764	83.28
342.977	64.85
343.189	71
343.401	-10.92
343.613	87.38
343.826	101.72
344.038	30.04
344.25	44.37
344.462	-10.92
344.674	62.8
344.886	36.18
345.099	48.47
345.311	77.14
345.523	64.85
345.735	1.37
345.947	50.52
346.159	60.76
346.371	-10.92
346.583	111.96
346.795	71
347.007	-4.78
347.219	77.14
347.431	-0.68
347.643	7.51
347.855	38.23
348.067	25.94
348.279	5.46
348.491	114
348.703	60.76
348.915	-49.83
349.127	91.48
349.339	83.28
349.551	-51.88
349.763	42.32
349.975	103.76
350.187	103.76
350.399	58.71
350.61	23.89
350.822	-0.68
351.034	54.61
351.246	71
351.458	83.28
351.669	40.28
351.881	73.04
352.093	99.67
352.305	83.28
352.517	13.65
352.728	66.9
352.94	81.24
353.152	25.94
353.363	-10.92
353.575	48.47
353.787	-10.92
353.999	79.19
354.21	109.91
354.422	44.37
354.633	99.67
354.845	79.19
355.057	11.61
355.268	54.61
355.48	66.9
355.692	58.71
355.903	11.61
356.115	44.37
356.326	68.95
356.538	85.33
356.749	124.24
356.961	38.23
357.172	60.76
357.384	-41.64
357.595	42.32
357.807	68.95
358.018	7.51
358.23	87.38
358.441	77.14
358.653	-25.26
358.864	7.51
359.075	-12.97
359.287	46.42
359.498	91.48
359.709	66.9
359.921	64.85
360.132	62.8
360.344	99.67
360.555	-33.45
360.766	75.09
360.977	-6.83
361.189	1.37
361.4	7.51
361.611	99.67
361.823	58.71
362.034	114
362.245	-8.87
362.456	-2.73
362.667	77.14
362.879	30.04
363.09	13.65
363.301	81.24
363.512	30.04
363.723	25.94
363.935	-15.02
364.146	58.71
364.357	66.9
364.568	148.82
364.779	44.37
364.99	44.37
365.201	79.19
365.412	105.81
365.623	-2.73
365.834	64.85
366.045	-35.5
366.256	56.66
366.467	-41.64
366.678	132.44
366.889	21.85
367.1	46.42
367.311	-0.68
367.522	52.56
367.733	71
367.944	52.56
368.155	5.46
368.366	93.52
368.577	128.34
368.788	32.08
368.999	52.56
369.209	66.9
369.42	44.37
369.631	19.8
369.842	23.89
370.053	83.28
370.264	52.56
370.474	7.51
370.685	52.56
370.896	34.13
371.107	21.85
371.317	87.38
371.528	5.46
371.739	13.65
371.95	9.56
372.16	75.09
372.371	-2.73
372.582	42.32
372.792	62.8
373.003	-2.73
373.214	25.94
373.424	32.08
373.635	71
373.846	17.75
374.056	68.95
374.267	-0.68
374.477	87.38
374.688	62.8
374.898	56.66
375.109	75.09
375.319	44.37
375.53	83.28
375.74	15.7
375.951	99.67
376.161	81.24
376.372	25.94
376.582	27.99
376.793	83.28
377.003	44.37
377.214	30.04
377.424	93.52
377.635	27.99
377.845	-37.55
378.055	27.99
378.266	32.08
378.476	68.95
378.686	73.04
378.897	50.52
379.107	13.65
379.317	105.81
379.528	109.91
379.738	56.66
379.948	85.33
380.158	118.1
380.369	60.76
380.579	114
380.789	23.89
380.999	99.67
381.21	46.42
381.42	105.81
381.63	83.28
381.84	-2.73
382.05	87.38
382.261	40.28
382.471	87.38
382.681	42.32
382.891	146.77
383.101	52.56
383.311	7.51
383.521	52.56
383.731	25.94
383.941	3.41
384.151	54.61
384.361	50.52
384.571	73.04
384.781	50.52
384.991	64.85
385.201	105.81
385.411	58.71
385.621	25.94
385.831	54.61
386.041	42.32
386.251	34.13
386.461	25.94
386.671	42.32
386.881	109.91
387.091	52.56
387.301	42.32
387.511	77.14
387.72	91.48
387.93	71
388.14	15.7
388.35	79.19
388.56	109.91
388.769	60.76
388.979	30.04
389.189	36.18
389.399	42.32
389.609	46.42
389.818	173.39
390.028	89.43
390.238	85.33
390.447	13.65
390.657	30.04
390.867	40.28
391.076	46.42
391.286	122.2
391.496	42.32
391.705	97.62
391.915	95.57
392.125	36.18
392.334	11.61
392.544	-0.68
392.753	81.24
392.963	-2.73
393.172	120.15
393.382	5.46
393.591	68.95
393.801	56.66
394.01	30.04
394.22	7.51
394.429	34.13
394.639	118.1
394.848	177.49
395.058	56.66
395.267	60.76
395.477	97.62
395.686	52.56
395.895	54.61
396.105	126.29
396.314	111.96
396.524	101.72
396.733	62.8
396.942	85.33
397.152	93.52
397.361	81.24
397.57	103.76
397.78	103.76
397.989	79.19
398.198	128.34
398.407	54.61
398.617	107.86
398.826	62.8
399.035	77.14
399.244	89.43
399.453	91.48
399.663	52.56
399.872	161.11
400.081	111.96
400.29	118.1
400.499	17.75
400.708	109.91
400.917	36.18
401.127	89.43
401.336	27.99
401.545	132.44
401.754	64.85
401.963	144.72
402.172	54.61
402.381	87.38
402.59	87.38
402.799	107.86
403.008	83.28
403.217	77.14
403.426	136.53
403.635	71
403.844	189.78
404.053	46.42
404.262	56.66
404.471	167.25
404.68	126.29
404.888	114
405.097	195.92
405.306	93.52
405.515	154.96
405.724	91.48
405.933	163.15
406.142	183.63
406.35	138.58
406.559	128.34
406.768	128.34
406.977	206.16
407.185	132.44
407.394	200.02
407.603	150.87
407.812	146.77
408.02	79.19
408.229	148.82
408.438	159.06
408.646	179.54
408.855	159.06
409.064	224.59
409.272	128.34
409.481	226.64
409.69	171.35
409.898	210.26
410.107	204.11
410.315	257.36
410.524	157.01
410.733	265.55
410.941	224.59
411.15	222.55
411.358	269.65
411.567	329.04
411.775	271.7
411.984	296.27
412.192	322.9
412.401	378.19
412.609	429.39
412.818	343.38
413.026	370
413.234	318.8
413.443	302.42
413.651	345.42
413.86	355.66
414.068	408.91
414.276	429.39
414.485	445.77
414.693	456.01
414.901	458.06
415.11	468.3
415.318	488.78
415.526	441.68
415.734	550.22
415.943	578.89
416.151	591.18
416.359	601.42
416.567	572.75
416.776	576.84
416.984	650.57
417.192	685.39
417.4	699.72
417.608	669
417.817	695.63
418.025	691.53
418.233	822.6
418.441	785.74
418.649	931.14
418.857	847.18
419.065	922.95
419.273	853.32
419.481	941.38
419.689	918.86
419.897	963.91
420.105	1011.01
420.313	1027.4
420.521	1086.79
420.729	1170.76
420.937	1152.32
421.145	1209.67
421.353	1269.06
421.561	1330.5
421.769	1332.54
421.977	1402.18
422.185	1426.75
422.393	1393.98
422.601	1467.71
422.809	1559.87
423.017	1527.1
423.224	1588.54
423.432	1598.78
423.64	1713.47
423.848	1834.3
424.056	1787.19
424.263	1893.69
424.471	1860.92
424.679	2080.05
424.887	2020.66
425.094	2098.49
425.302	2219.32
425.51	2123.06
425.718	2385.2
425.925	2215.22
426.133	2422.06
426.341	2508.08
426.548	2616.62
426.756	2581.81
426.964	2678.06
427.171	2766.12
427.379	2821.42
427.586	2954.54
427.794	3048.74
428.001	3179.81
428.209	3353.89
428.417	3308.83
428.624	3611.93
428.832	3374.37
429.039	3259.68
429.247	3476.77
429.454	3904.79
429.662	4181.27
429.869	3808.54
430.076	3968.28
430.284	3984.66
430.491	4162.84
430.699	4420.88
430.906	4490.51
431.114	4484.37
431.321	4615.44
431.528	4578.58
431.736	4844.81
431.943	5141.77
432.15	4990.22
432.358	5014.79
432.565	5356.8
432.772	5401.86
432.979	5774.59
433.187	5690.62
433.394	5817.6
433.601	6135.03
433.808	6315.25
434.016	6098.17
434.223	6526.19
434.43	6808.81
434.637	6769.9
434.844	7171.3
435.052	7363.81
435.259	7156.97
435.466	7341.29
435.673	7142.63
435.88	7658.72
436.087	8000.73
436.294	8074.46
436.501	7742.69
436.708	8072.41
436.915	8328.41
437.122	8727.76
437.329	8647.89
437.537	9059.53
437.743	9047.24
437.95	8912.08
438.157	9577.67
438.364	9903.29
438.571	9688.26
438.778	9829.57
438.985	10656.95
439.192	10364.09
439.399	10855.6
439.606	10407.09
439.813	10974.38
440.02	11515.05
440.227	11414.7
440.433	11435.17
440.64	11687.07
440.847	11257
441.054	11934.88
441.261	12809.36
441.467	12594.33
441.674	12895.38
441.881	13323.4
442.088	13026.45
442.294	13196.43
442.501	13552.77
442.708	13835.39
442.914	14224.51
443.121	14996.59
443.328	14365.82
443.534	15506.54
443.741	15207.53
443.948	14894.19
444.154	16252
444.361	15981.67
444.568	16133.22
444.774	16340.06
444.981	16118.88
445.187	16772.18
445.394	17445.96
445.6	17198.16
445.807	18906.16
446.013	18265.15
446.22	18447.42
446.426	19121.2
446.633	19528.75
446.839	20249.63
447.046	19168.3
447.252	20356.13
447.459	19921.96
447.665	20392.99
447.871	20900.89
448.078	22055.94
448.284	20872.21
448.491	21615.63
448.697	22709.24
448.903	22852.6
449.11	23131.12
449.316	22428.67
449.522	22809.59
449.728	23430.13
449.935	23784.43
450.141	23626.73
450.347	24110.05
450.553	23454.7
450.76	23952.36
450.966	24724.44
451.172	24447.97
451.378	24724.44
451.584	24421.34
451.791	24953.82
451.997	24822.75
452.203	25301.97
452.409	25555.92
452.615	25064.41
452.821	24386.53
453.027	24251.36
453.233	25637.84
453.44	24155.11
453.646	24703.96
453.852	25041.88
454.058	25318.35
454.264	24429.54
454.47	24935.38
454.676	24771.55
454.882	25281.49
455.088	23206.9
455.294	23411.7
455.5	23770.09
455.705	23983.08
455.911	23331.83
456.117	22610.94
456.323	22320.13
456.529	20945.94
456.735	21726.22
456.941	21457.93
457.147	21269.52
457.352	20689.95
457.558	20280.35
457.764	20296.74
457.97	19917.86
458.176	19776.55
458.381	19844.13
458.587	18627.64
458.793	18754.62
458.999	17630.28
459.204	18873.4
459.41	18549.82
459.616	16976.98
459.821	17151.06
460.027	17095.76
460.233	16628.82
460.438	15909.99
460.644	16208.99
460.85	15357.03
461.055	15305.84
461.261	15098.99
461.466	13962.37
461.672	13520.01
461.878	14427.26
462.083	13493.38
462.289	13331.59
462.494	13139.08
462.7	12553.37
462.905	12037.28
463.111	12733.59
463.316	12645.52
463.522	12350.62
463.727	12584.09
463.932	12504.21
464.138	12477.59
464.343	12270.75
464.549	11902.11
464.754	12440.73
464.959	12258.46
465.165	12006.56
465.37	11648.16
465.575	11375.78
465.781	11672.74
465.986	11824.29
466.191	11476.13
466.397	11308.2
466.602	10790.06
466.807	11158.7
467.012	11091.12
467.218	11068.59
467.423	10824.88
467.628	10910.89
467.833	11457.7
468.038	11207.85
468.244	10679.47
468.449	11250.86
468.654	10583.22
468.859	10798.26
469.064	10452.15
469.269	10104
469.474	10460.34
