Data from USB4F104151__40__12-27-21-694.txt Node

Date: Fri Mar 14 12:27:21 EDT 2025
User: louis
Spectrometer: USB4F10415
Trigger mode: 4
Integration Time (sec): 2.000000E-2
Scans to average: 1
Electric dark correction enabled: true
Nonlinearity correction enabled: false
Boxcar width: 0
XAxis mode: Wavelengths
Number of Pixels in Spectrum: 3648
>>>>>Begin Spectral Data<<<<<
178.204	-122.2
178.424	-122.2
178.644	-122.2
178.864	-60.76
179.084	-105.81
179.304	21.16
179.524	-99.67
179.744	-36.18
179.964	45.74
180.184	58.03
180.404	-44.37
180.624	-79.19
180.844	25.26
181.064	-34.13
181.283	80.55
181.503	2.73
181.723	60.07
181.943	-44.37
182.163	8.87
182.383	8.87
182.602	39.59
182.822	31.4
183.042	43.69
183.262	23.21
183.482	17.07
183.701	0.68
183.921	-60.76
184.141	35.5
184.361	25.26
184.58	-19.8
184.8	-44.37
185.02	-38.23
185.239	31.4
185.459	-5.46
185.679	39.59
185.898	-17.75
186.118	0.68
186.338	-25.94
186.557	-58.71
186.777	-40.28
186.997	35.5
187.216	-9.56
187.436	84.65
187.655	33.45
187.875	72.36
188.095	17.07
188.314	33.45
188.534	41.64
188.753	-34.13
188.973	66.22
189.192	0.68
189.412	39.59
189.631	58.03
189.851	-23.89
190.07	33.45
190.29	-52.56
190.509	41.64
190.729	0.68
190.948	53.93
191.168	6.83
191.387	76.46
191.607	8.87
191.826	45.74
192.045	4.78
192.265	12.97
192.484	-15.7
192.704	6.83
192.923	-30.04
193.142	92.84
193.362	86.7
193.581	80.55
193.8	90.79
194.02	47.79
194.239	41.64
194.458	-56.66
194.678	-9.56
194.897	25.26
195.116	-30.04
195.335	2.73
195.555	33.45
195.774	-17.75
195.993	62.12
196.212	15.02
196.432	37.55
196.651	-9.56
196.87	4.78
197.089	66.22
197.308	0.68
197.528	51.88
197.747	-62.8
197.966	74.41
198.185	90.79
198.404	10.92
198.623	109.22
198.842	92.84
199.062	68.27
199.281	51.88
199.5	82.6
199.719	45.74
199.938	10.92
200.157	19.11
200.376	15.02
200.595	-1.37
200.814	8.87
201.033	96.94
201.252	-3.41
201.471	51.88
201.69	-17.75
201.909	37.55
202.128	10.92
202.347	4.78
202.566	43.69
202.785	25.26
203.004	37.55
203.223	-1.37
203.442	66.22
203.661	68.27
203.879	-23.89
204.098	-3.41
204.317	84.65
204.536	107.18
204.755	-34.13
204.974	29.35
205.193	23.21
205.411	60.07
205.63	-27.99
205.849	-15.7
206.068	-5.46
206.287	92.84
206.505	90.79
206.724	78.51
206.943	64.17
207.162	19.11
207.381	43.69
207.599	2.73
207.818	-11.61
208.037	-5.46
208.255	17.07
208.474	-5.46
208.693	-68.95
208.911	37.55
209.13	21.16
209.349	25.26
209.567	53.93
209.786	8.87
210.005	0.68
210.223	27.31
210.442	-1.37
210.661	80.55
210.879	-23.89
211.098	33.45
211.316	6.83
211.535	-23.89
211.753	-23.89
211.972	43.69
212.191	68.27
212.409	-9.56
212.628	33.45
212.846	55.98
213.065	70.31
213.283	-25.94
213.502	-19.8
213.72	-5.46
213.938	64.17
214.157	-9.56
214.375	25.26
214.594	-77.14
214.812	47.79
215.031	19.11
215.249	31.4
215.467	23.21
215.686	43.69
215.904	70.31
216.122	35.5
216.341	4.78
216.559	80.55
216.778	21.16
216.996	-11.61
217.214	-34.13
217.432	62.12
217.651	74.41
217.869	-3.41
218.087	15.02
218.306	17.07
218.524	70.31
218.742	53.93
218.96	25.26
219.179	8.87
219.397	41.64
219.615	41.64
219.833	25.26
220.051	-79.19
220.27	94.89
220.488	117.42
220.706	19.11
220.924	29.35
221.142	53.93
221.36	45.74
221.578	86.7
221.796	23.21
222.015	29.35
222.233	-40.28
222.451	45.74
222.669	-56.66
222.887	-44.37
223.105	-62.8
223.323	8.87
223.541	31.4
223.759	64.17
223.977	12.97
224.195	86.7
224.413	113.32
224.631	58.03
224.849	2.73
225.067	62.12
225.285	33.45
225.503	64.17
225.721	-23.89
225.939	-40.28
226.157	-23.89
226.375	86.7
226.592	19.11
226.81	-5.46
227.028	66.22
227.246	45.74
227.464	37.55
227.682	64.17
227.9	27.31
228.117	45.74
228.335	27.31
228.553	4.78
228.771	2.73
228.989	-44.37
229.206	43.69
229.424	2.73
229.642	-1.37
229.86	0.68
230.077	33.45
230.295	64.17
230.513	29.35
230.731	113.32
230.948	49.83
231.166	72.36
231.384	-23.89
231.601	-15.7
231.819	41.64
232.037	27.31
232.254	29.35
232.472	29.35
232.689	31.4
232.907	123.56
233.125	27.31
233.342	31.4
233.56	53.93
233.777	58.03
233.995	88.75
234.213	80.55
234.43	23.21
234.648	53.93
234.865	12.97
235.083	-3.41
235.3	74.41
235.518	49.83
235.735	4.78
235.953	39.59
236.17	-5.46
236.388	-17.75
236.605	49.83
236.822	82.6
237.04	10.92
237.257	39.59
237.475	-21.85
237.692	80.55
237.909	-7.51
238.127	43.69
238.344	113.32
238.562	72.36
238.779	10.92
238.996	15.02
239.214	4.78
239.431	76.46
239.648	-44.37
239.865	74.41
240.083	123.56
240.3	49.83
240.517	41.64
240.735	31.4
240.952	51.88
241.169	-73.04
241.386	2.73
241.603	49.83
241.821	31.4
242.038	25.26
242.255	35.5
242.472	12.97
242.689	80.55
242.907	66.22
243.124	72.36
243.341	74.41
243.558	4.78
243.775	-34.13
243.992	19.11
244.209	-3.41
244.426	-9.56
244.643	10.92
244.86	19.11
245.078	39.59
245.295	51.88
245.512	-1.37
245.729	47.79
245.946	43.69
246.163	23.21
246.38	70.31
246.597	-34.13
246.814	68.27
247.031	23.21
247.248	76.46
247.464	-3.41
247.681	31.4
247.898	19.11
248.115	19.11
248.332	29.35
248.549	58.03
248.766	4.78
248.983	88.75
249.2	-42.32
249.417	98.99
249.633	23.21
249.85	98.99
250.067	25.26
250.284	51.88
250.501	115.37
250.717	-3.41
250.934	58.03
251.151	39.59
251.368	86.7
251.585	4.78
251.801	60.07
252.018	-48.47
252.235	66.22
252.451	10.92
252.668	72.36
252.885	29.35
253.102	41.64
253.318	19.11
253.535	80.55
253.752	25.26
253.968	96.94
254.185	-32.08
254.401	2.73
254.618	21.16
254.835	72.36
255.051	29.35
255.268	76.46
255.484	-1.37
255.701	17.07
255.917	15.02
256.134	51.88
256.351	15.02
256.567	-19.8
256.784	78.51
257	-38.23
257.217	96.94
257.433	49.83
257.65	15.02
257.866	51.88
258.082	-17.75
258.299	4.78
258.515	35.5
258.732	41.64
258.948	98.99
259.165	51.88
259.381	2.73
259.597	-42.32
259.814	10.92
260.03	29.35
260.246	68.27
260.463	27.31
260.679	-3.41
260.895	86.7
261.112	31.4
261.328	0.68
261.544	-13.65
261.761	39.59
261.977	-64.85
262.193	-17.75
262.409	-56.66
262.626	68.27
262.842	45.74
263.058	-5.46
263.274	49.83
263.49	27.31
263.707	25.26
263.923	58.03
264.139	19.11
264.355	39.59
264.571	92.84
264.787	-32.08
265.004	64.17
265.22	-17.75
265.436	25.26
265.652	27.31
265.868	-7.51
266.084	17.07
266.3	55.98
266.516	53.93
266.732	115.37
266.948	17.07
267.164	66.22
267.38	-13.65
267.596	101.03
267.812	78.51
268.028	4.78
268.244	-1.37
268.46	-5.46
268.676	107.18
268.892	86.7
269.108	-15.7
269.324	12.97
269.54	17.07
269.756	66.22
269.972	43.69
270.188	25.26
270.403	12.97
270.619	25.26
270.835	58.03
271.051	-5.46
271.267	96.94
271.483	17.07
271.698	29.35
271.914	-34.13
272.13	2.73
272.346	-11.61
272.562	-36.18
272.777	94.89
272.993	43.69
273.209	10.92
273.425	21.16
273.64	31.4
273.856	27.31
274.072	62.12
274.287	17.07
274.503	66.22
274.719	64.17
274.934	55.98
275.15	-46.42
275.366	41.64
275.581	-34.13
275.797	45.74
276.012	15.02
276.228	-36.18
276.444	64.17
276.659	19.11
276.875	64.17
277.09	-58.71
277.306	6.83
277.521	27.31
277.737	-23.89
277.952	29.35
278.168	-7.51
278.383	78.51
278.599	88.75
278.814	27.31
279.03	23.21
279.245	92.84
279.461	19.11
279.676	41.64
279.892	-5.46
280.107	-3.41
280.322	64.17
280.538	35.5
280.753	33.45
280.969	21.16
281.184	-19.8
281.399	66.22
281.615	35.5
281.83	8.87
282.045	8.87
282.26	43.69
282.476	23.21
282.691	47.79
282.906	-79.19
283.122	0.68
283.337	62.12
283.552	19.11
283.767	39.59
283.983	27.31
284.198	21.16
284.413	37.55
284.628	-13.65
284.843	35.5
285.058	-5.46
285.274	-13.65
285.489	-15.7
285.704	39.59
285.919	15.02
286.134	-11.61
286.349	-1.37
286.564	35.5
286.779	37.55
286.995	96.94
287.21	8.87
287.425	2.73
287.64	-11.61
287.855	33.45
288.07	-30.04
288.285	72.36
288.5	37.55
288.715	17.07
288.93	6.83
289.145	-25.94
289.36	94.89
289.575	49.83
289.79	98.99
290.004	-5.46
290.219	35.5
290.434	-13.65
290.649	-109.91
290.864	21.16
291.079	39.59
291.294	15.02
291.509	29.35
291.724	8.87
291.938	74.41
292.153	-21.85
292.368	80.55
292.583	92.84
292.798	33.45
293.012	23.21
293.227	60.07
293.442	4.78
293.657	43.69
293.871	33.45
294.086	80.55
294.301	45.74
294.516	-25.94
294.73	72.36
294.945	21.16
295.16	41.64
295.374	62.12
295.589	31.4
295.804	-19.8
296.018	25.26
296.233	78.51
296.447	29.35
296.662	105.13
296.877	17.07
297.091	-23.89
297.306	66.22
297.52	8.87
297.735	39.59
297.949	53.93
298.164	25.26
298.378	41.64
298.593	-32.08
298.807	29.35
299.022	4.78
299.236	96.94
299.451	-36.18
299.665	15.02
299.88	-13.65
300.094	62.12
300.309	10.92
300.523	37.55
300.737	41.64
300.952	-3.41
301.166	33.45
301.381	60.07
301.595	37.55
301.809	94.89
302.024	-19.8
302.238	86.7
302.452	21.16
302.667	53.93
302.881	45.74
303.095	64.17
303.309	37.55
303.524	51.88
303.738	6.83
303.952	-7.51
304.166	139.94
304.381	31.4
304.595	39.59
304.809	60.07
305.023	-15.7
305.237	37.55
305.452	58.03
305.666	21.16
305.88	25.26
306.094	4.78
306.308	49.83
306.522	33.45
306.736	12.97
306.95	47.79
307.164	-17.75
307.379	2.73
307.593	64.17
307.807	37.55
308.021	80.55
308.235	-48.47
308.449	12.97
308.663	-17.75
308.877	68.27
309.091	25.26
309.305	53.93
309.519	70.31
309.733	-42.32
309.947	10.92
310.161	-5.46
310.374	-11.61
310.588	43.69
310.802	-32.08
311.016	123.56
311.23	0.68
311.444	41.64
311.658	-64.85
311.872	58.03
312.085	72.36
312.299	6.83
312.513	12.97
312.727	94.89
312.941	-7.51
313.154	68.27
313.368	-7.51
313.582	0.68
313.796	43.69
314.009	92.84
314.223	25.26
314.437	45.74
314.651	12.97
314.864	8.87
315.078	10.92
315.292	-13.65
315.505	51.88
315.719	62.12
315.933	33.45
316.146	98.99
316.36	-7.51
316.573	31.4
316.787	98.99
317.001	-11.61
317.214	-3.41
317.428	33.45
317.641	-21.85
317.855	10.92
318.068	-38.23
318.282	4.78
318.495	33.45
318.709	33.45
318.922	27.31
319.136	43.69
319.349	41.64
319.563	-3.41
319.776	60.07
319.99	31.4
320.203	70.31
320.417	-9.56
320.63	-38.23
320.843	78.51
321.057	90.79
321.27	74.41
321.483	27.31
321.697	25.26
321.91	8.87
322.124	-1.37
322.337	-11.61
322.55	4.78
322.763	-19.8
322.977	-5.46
323.19	0.68
323.403	15.02
323.617	88.75
323.83	86.7
324.043	2.73
324.256	25.26
324.469	41.64
324.683	82.6
324.896	86.7
325.109	19.11
325.322	2.73
325.535	0.68
325.748	47.79
325.962	88.75
326.175	37.55
326.388	-15.7
326.601	-17.75
326.814	41.64
327.027	21.16
327.24	92.84
327.453	-40.28
327.666	0.68
327.879	62.12
328.092	2.73
328.305	70.31
328.518	-21.85
328.731	19.11
328.944	39.59
329.157	-5.46
329.37	53.93
329.583	2.73
329.796	96.94
330.009	-17.75
330.222	49.83
330.435	37.55
330.648	0.68
330.861	-1.37
331.073	72.36
331.286	55.98
331.499	101.03
331.712	17.07
331.925	25.26
332.138	51.88
332.35	4.78
332.563	-38.23
332.776	47.79
332.989	51.88
333.202	-36.18
333.414	23.21
333.627	-9.56
333.84	8.87
334.053	53.93
334.265	43.69
334.478	29.35
334.691	33.45
334.903	33.45
335.116	-42.32
335.329	84.65
335.541	-25.94
335.754	21.16
335.966	31.4
336.179	2.73
336.392	35.5
336.604	88.75
336.817	21.16
337.029	0.68
337.242	-19.8
337.454	19.11
337.667	-23.89
337.88	105.13
338.092	103.08
338.305	90.79
338.517	6.83
338.729	35.5
338.942	62.12
339.154	33.45
339.367	27.31
339.579	92.84
339.792	-54.61
340.004	-17.75
340.217	103.08
340.429	35.5
340.641	31.4
340.854	0.68
341.066	4.78
341.278	33.45
341.491	60.07
341.703	70.31
341.915	-27.99
342.128	17.07
342.34	88.75
342.552	33.45
342.764	53.93
342.977	21.16
343.189	68.27
343.401	19.11
343.613	35.5
343.826	45.74
344.038	31.4
344.25	43.69
344.462	123.56
344.674	94.89
344.886	15.02
345.099	25.26
345.311	55.98
345.523	10.92
345.735	-11.61
345.947	64.17
346.159	68.27
346.371	-17.75
346.583	17.07
346.795	86.7
347.007	47.79
347.219	139.94
347.431	6.83
347.643	37.55
347.855	6.83
348.067	64.17
348.279	-17.75
348.491	72.36
348.703	6.83
348.915	4.78
349.127	41.64
349.339	119.46
349.551	-66.9
349.763	94.89
349.975	103.08
350.187	8.87
350.399	58.03
350.61	76.46
350.822	49.83
351.034	55.98
351.246	47.79
351.458	35.5
351.669	41.64
351.881	96.94
352.093	49.83
352.305	62.12
352.517	12.97
352.728	119.46
352.94	4.78
353.152	123.56
353.363	37.55
353.575	31.4
353.787	41.64
353.999	17.07
354.21	84.65
354.422	-7.51
354.633	25.26
354.845	21.16
355.057	17.07
355.268	25.26
355.48	49.83
355.692	6.83
355.903	49.83
356.115	-1.37
356.326	60.07
356.538	133.8
356.749	49.83
356.961	66.22
357.172	21.16
357.384	25.26
357.595	70.31
357.807	25.26
358.018	-5.46
358.23	8.87
358.441	141.99
358.653	31.4
358.864	15.02
359.075	-3.41
359.287	-3.41
359.498	51.88
359.709	27.31
359.921	-5.46
360.132	109.22
360.344	6.83
360.555	37.55
360.766	53.93
360.977	10.92
361.189	39.59
361.4	76.46
361.611	17.07
361.823	49.83
362.034	12.97
362.245	15.02
362.456	58.03
362.667	74.41
362.879	51.88
363.09	47.79
363.301	27.31
363.512	31.4
363.723	68.27
363.935	-9.56
364.146	141.99
364.357	4.78
364.568	37.55
364.779	41.64
364.99	43.69
365.201	-34.13
365.412	55.98
365.623	-17.75
365.834	45.74
366.045	98.99
366.256	-7.51
366.467	15.02
366.678	25.26
366.889	109.22
367.1	-9.56
367.311	29.35
367.522	21.16
367.733	-50.52
367.944	33.45
368.155	41.64
368.366	70.31
368.577	49.83
368.788	39.59
368.999	15.02
369.209	-17.75
369.42	47.79
369.631	101.03
369.842	-15.7
370.053	33.45
370.264	53.93
370.474	55.98
370.685	60.07
370.896	23.21
371.107	17.07
371.317	66.22
371.528	35.5
371.739	58.03
371.95	53.93
372.16	98.99
372.371	80.55
372.582	78.51
372.792	60.07
373.003	8.87
373.214	27.31
373.424	25.26
373.635	49.83
373.846	80.55
374.056	0.68
374.267	-13.65
374.477	12.97
374.688	80.55
374.898	-40.28
375.109	4.78
375.319	21.16
375.53	-1.37
375.74	68.27
375.951	-34.13
376.161	53.93
376.372	39.59
376.582	62.12
376.793	129.7
377.003	12.97
377.214	15.02
377.424	84.65
377.635	113.32
377.845	27.31
378.055	133.8
378.266	39.59
378.476	19.11
378.686	21.16
378.897	39.59
379.107	78.51
379.317	39.59
379.528	-13.65
379.738	39.59
379.948	60.07
380.158	41.64
380.369	27.31
380.579	68.27
380.789	21.16
380.999	86.7
381.21	76.46
381.42	31.4
381.63	31.4
381.84	62.12
382.05	19.11
382.261	98.99
382.471	141.99
382.681	27.31
382.891	-34.13
383.101	68.27
383.311	49.83
383.521	39.59
383.731	53.93
383.941	66.22
384.151	135.85
384.361	90.79
384.571	8.87
384.781	88.75
384.991	49.83
385.201	68.27
385.411	17.07
385.621	37.55
385.831	43.69
386.041	60.07
386.251	84.65
386.461	90.79
386.671	15.02
386.881	82.6
387.091	103.08
387.301	21.16
387.511	21.16
387.72	17.07
387.93	53.93
388.14	-13.65
388.35	19.11
388.56	76.46
388.769	29.35
388.979	-1.37
389.189	103.08
389.399	45.74
389.609	62.12
389.818	37.55
390.028	37.55
390.238	58.03
390.447	88.75
390.657	39.59
390.867	4.78
391.076	4.78
391.286	60.07
391.496	-27.99
391.705	-21.85
391.915	49.83
392.125	70.31
392.334	58.03
392.544	41.64
392.753	47.79
392.963	25.26
393.172	37.55
393.382	-5.46
393.591	70.31
393.801	121.51
394.01	47.79
394.22	35.5
394.429	84.65
394.639	76.46
394.848	115.37
395.058	92.84
395.267	45.74
395.477	92.84
395.686	98.99
395.895	19.11
396.105	115.37
396.314	21.16
396.524	29.35
396.733	55.98
396.942	2.73
397.152	92.84
397.361	117.42
397.57	39.59
397.78	53.93
397.989	131.75
398.198	80.55
398.407	135.85
398.617	-5.46
398.826	144.04
399.035	60.07
399.244	49.83
399.453	125.61
399.663	72.36
399.872	78.51
400.081	115.37
400.29	94.89
400.499	35.5
400.708	160.42
400.917	49.83
401.127	98.99
401.336	45.74
401.545	107.18
401.754	139.94
401.963	117.42
402.172	92.84
402.381	76.46
402.59	96.94
402.799	70.31
403.008	141.99
403.217	119.46
403.426	72.36
403.635	33.45
403.844	121.51
404.053	109.22
404.262	189.1
404.471	129.7
404.68	174.76
404.888	148.14
405.097	174.76
405.306	129.7
405.515	187.05
405.724	90.79
405.933	131.75
406.142	80.55
406.35	119.46
406.559	115.37
406.768	135.85
406.977	154.28
407.185	121.51
407.394	141.99
407.603	90.79
407.812	162.47
408.02	170.66
408.229	217.77
408.438	146.09
408.646	117.42
408.855	203.43
409.064	127.66
409.272	121.51
409.481	275.11
409.69	172.71
409.898	182.95
410.107	301.73
410.315	297.64
410.524	228.01
410.733	238.25
410.941	199.34
411.15	361.13
411.358	320.17
411.567	373.41
411.775	277.16
411.984	330.41
412.192	336.55
412.401	281.25
412.609	338.6
412.818	352.93
413.026	391.84
413.234	467.62
413.443	342.69
413.651	324.26
413.86	445.09
414.068	551.59
414.276	510.63
414.485	500.39
414.693	600.74
414.901	516.77
415.11	533.15
415.318	498.34
415.526	545.44
415.734	594.59
415.943	625.31
416.151	721.57
416.359	619.17
416.567	670.37
416.776	742.05
416.984	744.1
417.192	735.9
417.4	721.57
417.608	740
417.817	783.01
418.025	819.87
418.233	881.31
418.441	920.22
418.649	944.8
418.857	1002.14
419.065	1073.82
419.273	1129.11
419.481	1008.28
419.689	1088.15
419.897	1170.07
420.105	1219.22
420.313	1180.31
420.521	1370.77
420.729	1260.18
420.937	1245.85
421.145	1354.39
421.353	1501.84
421.561	1510.04
421.769	1518.23
421.977	1630.87
422.185	1604.24
422.393	1632.91
422.601	1731.22
422.809	1809.04
423.017	1868.43
423.224	1878.67
423.432	1950.35
423.64	1899.15
423.848	2081.42
424.056	2046.6
424.263	2194.06
424.471	2241.16
424.679	2435.72
424.887	2378.37
425.094	2441.86
425.302	2474.63
425.51	2636.42
425.718	2681.47
425.925	2648.71
426.133	2873.98
426.341	2964.09
426.548	3201.66
426.756	3111.55
426.964	3027.58
427.171	3347.06
427.379	3433.08
427.586	3494.52
427.794	3560.05
428.001	3762.8
428.209	3857.01
428.417	3814
428.624	4104.81
428.832	4213.35
429.039	4029.04
429.247	4072.04
429.454	4545.13
429.662	4692.58
429.869	4375.14
430.076	4983.39
430.284	4696.67
430.491	4948.58
430.699	5104.22
430.906	5151.32
431.114	5263.96
431.321	5489.24
431.528	5495.38
431.736	5780.05
431.943	5986.9
432.15	5845.59
432.358	6140.49
432.565	6398.54
432.772	6210.12
432.979	6730.31
433.187	6881.86
433.394	6742.6
433.601	7354.94
433.808	7252.54
434.016	7234.11
434.223	7660.09
434.43	8182.32
434.637	7832.12
434.844	8247.85
435.052	8479.27
435.259	8342.06
435.466	8651.3
435.673	8596.01
435.88	9048.61
436.087	9429.53
436.294	9415.19
436.501	9089.57
436.708	9497.11
436.915	10005.01
437.122	10396.17
437.329	10285.58
437.537	10447.37
437.743	10711.56
437.95	10590.73
438.157	11192.83
438.364	11772.41
438.571	11801.08
438.778	11600.38
438.985	12526.06
439.192	12179.95
439.399	12603.88
439.606	12202.48
439.813	13031.91
440.02	13789.66
440.227	13269.47
440.433	13666.78
440.64	13769.18
440.847	13875.67
441.054	14283.22
441.261	15122.88
441.467	14817.74
441.674	15354.3
441.881	15667.64
442.088	15724.99
442.294	15464.89
442.501	15987.13
442.708	16337.33
442.914	17009.06
443.121	17557.92
443.328	17148.33
443.534	18448.79
443.741	17869.21
443.948	17674.65
444.154	19089.8
444.361	19011.98
444.568	18907.53
444.774	19233.16
444.981	19126.66
445.187	19470.72
445.394	20648.3
445.6	20445.55
445.807	21985.63
446.013	21100.9
446.22	21690.72
446.426	22636.88
446.633	22554.96
446.839	23736.64
447.046	23118.15
447.252	24129.85
447.459	23916.86
447.665	23920.96
447.871	25033
448.078	26005.79
448.284	24998.19
448.491	25585.96
448.697	26593.56
448.903	26997.01
449.11	27244.81
449.316	26695.96
449.522	27199.76
449.728	27824.39
449.935	28049.66
450.141	27996.42
450.347	28809.46
450.553	27615.49
450.76	28344.57
450.966	29069.55
451.172	29157.61
451.378	29161.71
451.584	29106.41
451.791	29567.21
451.997	29509.86
452.203	30025.95
452.409	29937.89
452.615	30064.86
452.821	28516.6
453.027	28854.51
453.233	29913.31
453.44	28930.29
453.646	29296.88
453.852	29270.25
454.058	30099.68
454.264	29032.69
454.47	29559.02
454.676	28928.24
454.882	29698.28
455.088	27119.88
455.294	27873.54
455.5	28016.9
455.705	28319.99
455.911	27064.59
456.117	26980.62
456.323	26153.24
456.529	24811.82
456.735	25862.43
456.941	25481.51
457.147	25024.81
457.352	24281.4
457.558	24109.37
457.764	24035.64
457.97	23527.75
458.176	23089.48
458.381	23144.78
458.587	21809.5
458.793	21866.85
458.999	21066.09
459.204	22167.9
459.41	21629.28
459.616	20291.96
459.821	20091.26
460.027	20214.13
460.233	19804.54
460.438	18753.93
460.644	19081.61
460.85	17879.45
461.055	17944.98
461.261	18000.28
461.466	16497.07
461.672	15954.36
461.878	17105.32
462.083	16144.82
462.289	15786.43
462.494	15778.23
462.7	14795.21
462.905	14383.57
463.111	15057.35
463.316	15110.6
463.522	14389.71
463.727	14727.63
463.932	14604.75
464.138	14647.76
464.343	14596.56
464.549	14031.32
464.754	14600.65
464.959	14664.14
465.165	14354.9
465.37	13781.46
465.575	13287.9
465.781	14109.14
465.986	14111.19
466.191	13570.52
466.397	13281.76
466.602	12360.17
466.807	13117.92
467.012	12984.8
467.218	12964.32
467.423	13011.43
467.628	12904.93
467.833	13468.13
468.038	13072.87
