Data from USB4F104151__52__12-27-34-012.txt Node

Date: Fri Mar 14 12:27:34 EDT 2025
User: louis
Spectrometer: USB4F10415
Trigger mode: 4
Integration Time (sec): 2.000000E-2
Scans to average: 1
Electric dark correction enabled: true
Nonlinearity correction enabled: false
Boxcar width: 0
XAxis mode: Wavelengths
Number of Pixels in Spectrum: 3648
>>>>>Begin Spectral Data<<<<<
178.204	-132.78
178.424	-132.78
178.644	-132.78
178.864	-73.39
179.084	-104.11
179.304	63.83
179.524	-44.71
179.744	26.96
179.964	-50.86
180.184	-36.52
180.404	-13.99
180.624	100.69
180.844	16.73
181.064	-42.67
181.283	-36.52
181.503	45.4
181.723	-28.33
181.943	-24.23
182.163	86.36
182.383	6.49
182.602	168.27
182.822	51.54
183.042	6.49
183.262	57.68
183.482	45.4
183.701	47.44
183.921	4.44
184.141	-11.95
184.361	61.78
184.58	26.96
184.8	18.77
185.02	16.73
185.239	31.06
185.459	57.68
185.679	117.08
185.898	-34.47
186.118	39.25
186.338	33.11
186.557	18.77
186.777	-48.81
186.997	67.92
187.216	47.44
187.436	80.21
187.655	31.06
187.875	92.5
188.095	47.44
188.314	82.26
188.534	-50.86
188.753	65.88
188.973	69.97
189.192	22.87
189.412	69.97
189.631	24.92
189.851	100.69
190.07	65.88
190.29	-28.33
190.509	-26.28
190.729	72.02
190.948	37.2
191.168	59.73
191.387	84.31
191.607	8.53
191.826	112.98
192.045	4.44
192.265	67.92
192.484	80.21
192.704	2.39
192.923	49.49
193.142	59.73
193.362	14.68
193.581	80.21
193.8	10.58
194.02	67.92
194.239	80.21
194.458	33.11
194.678	86.36
194.897	92.5
195.116	-16.04
195.335	33.11
195.555	65.88
195.774	20.82
195.993	29.01
196.212	92.5
196.432	4.44
196.651	76.12
196.87	22.87
197.089	67.92
197.308	14.68
197.528	31.06
197.747	-20.14
197.966	14.68
198.185	53.59
198.404	-26.28
198.623	18.77
198.842	8.53
199.062	14.68
199.281	123.22
199.5	37.2
199.719	8.53
199.938	137.56
200.157	49.49
200.376	22.87
200.595	57.68
200.814	53.59
201.033	-3.75
201.252	53.59
201.471	18.77
201.69	47.44
201.909	96.6
202.128	45.4
202.347	69.97
202.566	127.32
202.785	12.63
203.004	53.59
203.223	129.36
203.442	39.25
203.661	8.53
203.879	51.54
204.098	35.16
204.317	14.68
204.536	96.6
204.755	22.87
204.974	35.16
205.193	45.4
205.411	80.21
205.63	86.36
205.849	22.87
206.068	-11.95
206.287	24.92
206.505	29.01
206.724	67.92
206.943	57.68
207.162	41.3
207.381	51.54
207.599	-11.95
207.818	10.58
208.037	84.31
208.255	39.25
208.474	16.73
208.693	2.39
208.911	88.4
209.13	6.49
209.349	84.31
209.567	100.69
209.786	16.73
210.005	10.58
210.223	43.35
210.442	20.82
210.661	94.55
210.879	86.36
211.098	47.44
211.316	45.4
211.535	59.73
211.753	-22.19
211.972	59.73
212.191	78.16
212.409	29.01
212.628	39.25
212.846	22.87
213.065	53.59
213.283	-7.85
213.502	-42.67
213.72	90.45
213.938	49.49
214.157	16.73
214.375	-18.09
214.594	59.73
214.812	59.73
215.031	31.06
215.249	47.44
215.467	8.53
215.686	41.3
215.904	108.88
216.122	78.16
216.341	47.44
216.559	24.92
216.778	92.5
216.996	53.59
217.214	78.16
217.432	-18.09
217.651	94.55
217.869	8.53
218.087	63.83
218.306	88.4
218.524	47.44
218.742	31.06
218.96	51.54
219.179	-7.85
219.397	129.36
219.615	112.98
219.833	8.53
220.051	16.73
220.27	59.73
220.488	96.6
220.706	65.88
220.924	-18.09
221.142	6.49
221.36	72.02
221.578	65.88
221.796	37.2
222.015	84.31
222.233	82.26
222.451	82.26
222.669	45.4
222.887	67.92
223.105	14.68
223.323	49.49
223.541	-63.15
223.759	63.83
223.977	55.64
224.195	98.64
224.413	63.83
224.631	24.92
224.849	47.44
225.067	143.7
225.285	41.3
225.503	43.35
225.721	-7.85
225.939	31.06
226.157	94.55
226.375	96.6
226.592	14.68
226.81	106.84
227.028	57.68
227.246	88.4
227.464	29.01
227.682	0.34
227.9	31.06
228.117	41.3
228.335	29.01
228.553	0.34
228.771	41.3
228.989	74.07
229.206	61.78
229.424	39.25
229.642	51.54
229.86	76.12
230.077	137.56
230.295	26.96
230.513	31.06
230.731	47.44
230.948	8.53
231.166	45.4
231.384	119.12
231.601	-11.95
231.819	39.25
232.037	39.25
232.254	0.34
232.472	92.5
232.689	-13.99
232.907	24.92
233.125	47.44
233.342	63.83
233.56	59.73
233.777	-22.19
233.995	78.16
234.213	164.18
234.43	84.31
234.648	67.92
234.865	26.96
235.083	-9.9
235.3	22.87
235.518	35.16
235.735	16.73
235.953	67.92
236.17	86.36
236.388	59.73
236.605	41.3
236.822	69.97
237.04	16.73
237.257	84.31
237.475	16.73
237.692	69.97
237.909	80.21
238.127	-30.38
238.344	80.21
238.562	59.73
238.779	88.4
238.996	106.84
239.214	59.73
239.431	35.16
239.648	18.77
239.865	-3.75
240.083	59.73
240.3	22.87
240.517	69.97
240.735	24.92
240.952	59.73
241.169	80.21
241.386	6.49
241.603	112.98
241.821	10.58
242.038	80.21
242.255	86.36
242.472	16.73
242.689	55.64
242.907	-9.9
243.124	43.35
243.341	57.68
243.558	45.4
243.775	33.11
243.992	22.87
244.209	72.02
244.426	69.97
244.643	-42.67
244.86	43.35
245.078	69.97
245.295	102.74
245.512	12.63
245.729	6.49
245.946	129.36
246.163	33.11
246.38	33.11
246.597	24.92
246.814	90.45
247.031	63.83
247.248	2.39
247.464	-1.71
247.681	18.77
247.898	51.54
248.115	51.54
248.332	-34.47
248.549	127.32
248.766	63.83
248.983	31.06
249.2	119.12
249.417	55.64
249.633	74.07
249.85	31.06
250.067	24.92
250.284	22.87
250.501	74.07
250.717	22.87
250.934	35.16
251.151	57.68
251.368	88.4
251.585	24.92
251.801	72.02
252.018	-46.76
252.235	104.79
252.451	96.6
252.668	24.92
252.885	65.88
253.102	31.06
253.318	-34.47
253.535	49.49
253.752	39.25
253.968	74.07
254.185	76.12
254.401	90.45
254.618	57.68
254.835	39.25
255.051	84.31
255.268	29.01
255.484	76.12
255.701	26.96
255.917	31.06
256.134	96.6
256.351	143.7
256.567	96.6
256.784	35.16
257	65.88
257.217	115.03
257.433	6.49
257.65	55.64
257.866	49.49
258.082	74.07
258.299	22.87
258.515	63.83
258.732	20.82
258.948	35.16
259.165	59.73
259.381	41.3
259.597	112.98
259.814	74.07
260.03	67.92
260.246	-5.8
260.463	33.11
260.679	65.88
260.895	49.49
261.112	12.63
261.328	78.16
261.544	106.84
261.761	92.5
261.977	63.83
262.193	2.39
262.409	61.78
262.626	12.63
262.842	119.12
263.058	35.16
263.274	57.68
263.49	33.11
263.707	82.26
263.923	53.59
264.139	6.49
264.355	6.49
264.571	47.44
264.787	72.02
265.004	92.5
265.22	-28.33
265.436	8.53
265.652	12.63
265.868	39.25
266.084	18.77
266.3	-16.04
266.516	63.83
266.732	-28.33
266.948	74.07
267.164	39.25
267.38	65.88
267.596	-46.76
267.812	-22.19
268.028	43.35
268.244	-13.99
268.46	-9.9
268.676	86.36
268.892	0.34
269.108	78.16
269.324	-3.75
269.54	63.83
269.756	94.55
269.972	47.44
270.188	0.34
270.403	33.11
270.619	63.83
270.835	-20.14
271.051	115.03
271.267	31.06
271.483	47.44
271.698	155.99
271.914	65.88
272.13	53.59
272.346	78.16
272.562	4.44
272.777	20.82
272.993	24.92
273.209	49.49
273.425	29.01
273.64	-11.95
273.856	37.2
274.072	84.31
274.287	43.35
274.503	4.44
274.719	26.96
274.934	-11.95
275.15	-3.75
275.366	29.01
275.581	31.06
275.797	2.39
276.012	-16.04
276.228	-24.23
276.444	31.06
276.659	-18.09
276.875	26.96
277.09	33.11
277.306	29.01
277.521	8.53
277.737	43.35
277.952	74.07
278.168	12.63
278.383	16.73
278.599	84.31
278.814	76.12
279.03	53.59
279.245	57.68
279.461	12.63
279.676	65.88
279.892	18.77
280.107	104.79
280.322	31.06
280.538	2.39
280.753	35.16
280.969	67.92
281.184	2.39
281.399	69.97
281.615	12.63
281.83	82.26
282.045	33.11
282.26	35.16
282.476	41.3
282.691	94.55
282.906	14.68
283.122	59.73
283.337	47.44
283.552	4.44
283.767	82.26
283.983	69.97
284.198	39.25
284.413	35.16
284.628	-3.75
284.843	57.68
285.058	39.25
285.274	53.59
285.489	57.68
285.704	24.92
285.919	22.87
286.134	65.88
286.349	-7.85
286.564	49.49
286.779	41.3
286.995	84.31
287.21	-18.09
287.425	-22.19
287.64	90.45
287.855	72.02
288.07	35.16
288.285	26.96
288.5	104.79
288.715	16.73
288.93	26.96
289.145	14.68
289.36	2.39
289.575	-5.8
289.79	74.07
290.004	65.88
290.219	92.5
290.434	59.73
290.649	12.63
290.864	98.64
291.079	16.73
291.294	57.68
291.509	41.3
291.724	102.74
291.938	33.11
292.153	78.16
292.368	22.87
292.583	76.12
292.798	10.58
293.012	29.01
293.227	135.51
293.442	20.82
293.657	-16.04
293.871	82.26
294.086	20.82
294.301	110.93
294.516	82.26
294.73	151.89
294.945	18.77
295.16	0.34
295.374	78.16
295.589	96.6
295.804	88.4
296.018	31.06
296.233	39.25
296.447	33.11
296.662	-7.85
296.877	31.06
297.091	8.53
297.306	65.88
297.52	18.77
297.735	63.83
297.949	29.01
298.164	92.5
298.378	96.6
298.593	37.2
298.807	61.78
299.022	12.63
299.236	88.4
299.451	24.92
299.665	74.07
299.88	104.79
300.094	10.58
300.309	43.35
300.523	18.77
300.737	8.53
300.952	61.78
301.166	76.12
301.381	16.73
301.595	51.54
301.809	39.25
302.024	72.02
302.238	24.92
302.452	82.26
302.667	20.82
302.881	84.31
303.095	86.36
303.309	45.4
303.524	51.54
303.738	24.92
303.952	-11.95
304.166	26.96
304.381	65.88
304.595	41.3
304.809	29.01
305.023	80.21
305.237	-18.09
305.452	49.49
305.666	57.68
305.88	51.54
306.094	119.12
306.308	104.79
306.522	45.4
306.736	47.44
306.95	78.16
307.164	45.4
307.379	-18.09
307.593	119.12
307.807	82.26
308.021	29.01
308.235	53.59
308.449	88.4
308.663	33.11
308.877	10.58
309.091	55.64
309.305	74.07
309.519	16.73
309.733	76.12
309.947	43.35
310.161	55.64
310.374	123.22
310.588	63.83
310.802	37.2
311.016	61.78
311.23	90.45
311.444	2.39
311.658	31.06
311.872	4.44
312.085	22.87
312.299	86.36
312.513	31.06
312.727	96.6
312.941	18.77
313.154	43.35
313.368	53.59
313.582	72.02
313.796	59.73
314.009	-5.8
314.223	65.88
314.437	-24.23
314.651	35.16
314.864	14.68
315.078	141.65
315.292	35.16
315.505	80.21
315.719	39.25
315.933	45.4
316.146	37.2
316.36	67.92
316.573	37.2
316.787	2.39
317.001	137.56
317.214	0.34
317.428	94.55
317.641	-9.9
317.855	55.64
318.068	-3.75
318.282	41.3
318.495	78.16
318.709	47.44
318.922	67.92
319.136	119.12
319.349	49.49
319.563	63.83
319.776	98.64
319.99	-13.99
320.203	57.68
320.417	69.97
320.63	53.59
320.843	119.12
321.057	98.64
321.27	94.55
321.483	53.59
321.697	137.56
321.91	33.11
322.124	55.64
322.337	110.93
322.55	0.34
322.763	63.83
322.977	72.02
323.19	31.06
323.403	112.98
323.617	65.88
323.83	39.25
324.043	45.4
324.256	115.03
324.469	39.25
324.683	14.68
324.896	-28.33
325.109	67.92
325.322	-32.43
325.535	22.87
325.748	84.31
325.962	94.55
326.175	74.07
326.388	92.5
326.601	59.73
326.814	-24.23
327.027	-3.75
327.24	117.08
327.453	37.2
327.666	69.97
327.879	98.64
328.092	14.68
328.305	59.73
328.518	53.59
328.731	10.58
328.944	47.44
329.157	49.49
329.37	84.31
329.583	49.49
329.796	104.79
330.009	110.93
330.222	-18.09
330.435	100.69
330.648	76.12
330.861	61.78
331.073	121.17
331.286	63.83
331.499	53.59
331.712	37.2
331.925	49.49
332.138	22.87
332.35	131.41
332.563	45.4
332.776	110.93
332.989	16.73
333.202	33.11
333.414	35.16
333.627	43.35
333.84	72.02
334.053	35.16
334.265	61.78
334.478	65.88
334.691	133.46
334.903	45.4
335.116	45.4
335.329	47.44
335.541	86.36
335.754	57.68
335.966	-13.99
336.179	57.68
336.392	47.44
336.604	61.78
336.817	35.16
337.029	67.92
337.242	153.94
337.454	35.16
337.667	26.96
337.88	112.98
338.092	51.54
338.305	8.53
338.517	53.59
338.729	57.68
338.942	96.6
339.154	59.73
339.367	53.59
339.579	33.11
339.792	45.4
340.004	65.88
340.217	37.2
340.429	141.65
340.641	16.73
340.854	24.92
341.066	18.77
341.278	106.84
341.491	63.83
341.703	-42.67
341.915	39.25
342.128	129.36
342.34	33.11
342.552	39.25
342.764	51.54
342.977	131.41
343.189	104.79
343.401	78.16
343.613	31.06
343.826	43.35
344.038	-11.95
344.25	72.02
344.462	-7.85
344.674	106.84
344.886	51.54
345.099	96.6
345.311	92.5
345.523	59.73
345.735	2.39
345.947	92.5
346.159	127.32
346.371	74.07
346.583	51.54
346.795	106.84
347.007	33.11
347.219	-1.71
347.431	37.2
347.643	82.26
347.855	76.12
348.067	108.88
348.279	51.54
348.491	90.45
348.703	92.5
348.915	31.06
349.127	74.07
349.339	12.63
349.551	90.45
349.763	141.65
349.975	-7.85
350.187	41.3
350.399	55.64
350.61	78.16
350.822	51.54
351.034	65.88
351.246	55.64
351.458	90.45
351.669	55.64
351.881	108.88
352.093	0.34
352.305	51.54
352.517	133.46
352.728	100.69
352.94	78.16
353.152	141.65
353.363	57.68
353.575	39.25
353.787	63.83
353.999	67.92
354.21	112.98
354.422	31.06
354.633	65.88
354.845	49.49
355.057	49.49
355.268	67.92
355.48	57.68
355.692	74.07
355.903	119.12
356.115	51.54
356.326	47.44
356.538	184.66
356.749	106.84
356.961	78.16
357.172	82.26
357.384	41.3
357.595	123.22
357.807	16.73
358.018	63.83
358.23	74.07
358.441	80.21
358.653	57.68
358.864	53.59
359.075	35.16
359.287	55.64
359.498	78.16
359.709	115.03
359.921	16.73
360.132	129.36
360.344	117.08
360.555	41.3
360.766	55.64
360.977	33.11
361.189	31.06
361.4	84.31
361.611	69.97
361.823	84.31
362.034	137.56
362.245	-5.8
362.456	51.54
362.667	47.44
362.879	0.34
363.09	55.64
363.301	98.64
363.512	26.96
363.723	65.88
363.935	-9.9
364.146	141.65
364.357	-11.95
364.568	65.88
364.779	67.92
364.99	29.01
365.201	74.07
365.412	78.16
365.623	8.53
365.834	65.88
366.045	26.96
366.256	39.25
366.467	69.97
366.678	49.49
366.889	117.08
367.1	31.06
367.311	59.73
367.522	63.83
367.733	45.4
367.944	86.36
368.155	80.21
368.366	139.6
368.577	119.12
368.788	53.59
368.999	57.68
369.209	47.44
369.42	47.44
369.631	112.98
369.842	45.4
370.053	67.92
370.264	78.16
370.474	45.4
370.685	18.77
370.896	84.31
371.107	69.97
371.317	51.54
371.528	51.54
371.739	39.25
371.95	31.06
372.16	137.56
372.371	63.83
372.582	24.92
372.792	78.16
373.003	49.49
373.214	74.07
373.424	141.65
373.635	-32.43
373.846	74.07
374.056	49.49
374.267	37.2
374.477	51.54
374.688	51.54
374.898	76.12
375.109	24.92
375.319	31.06
375.53	74.07
375.74	76.12
375.951	104.79
376.161	74.07
376.372	51.54
376.582	-20.14
376.793	14.68
377.003	53.59
377.214	76.12
377.424	88.4
377.635	29.01
377.845	69.97
378.055	135.51
378.266	24.92
378.476	166.23
378.686	18.77
378.897	33.11
379.107	6.49
379.317	72.02
379.528	137.56
379.738	43.35
379.948	33.11
380.158	80.21
380.369	37.2
380.579	59.73
380.789	-5.8
380.999	90.45
381.21	78.16
381.42	153.94
381.63	108.88
381.84	117.08
382.05	39.25
382.261	153.94
382.471	88.4
382.681	53.59
382.891	63.83
383.101	43.35
383.311	82.26
383.521	74.07
383.731	133.46
383.941	80.21
384.151	139.6
384.361	39.25
384.571	172.37
384.781	90.45
384.991	182.61
385.201	80.21
385.411	51.54
385.621	69.97
385.831	57.68
386.041	35.16
386.251	41.3
386.461	155.99
386.671	78.16
386.881	49.49
387.091	55.64
387.301	92.5
387.511	92.5
387.72	84.31
387.93	82.26
388.14	102.74
388.35	20.82
388.56	18.77
388.769	82.26
388.979	102.74
389.189	80.21
389.399	78.16
389.609	55.64
389.818	16.73
390.028	67.92
390.238	57.68
390.447	14.68
390.657	100.69
390.867	39.25
391.076	8.53
391.286	45.4
391.496	51.54
391.705	125.27
391.915	82.26
392.125	31.06
392.334	74.07
392.544	90.45
392.753	100.69
392.963	67.92
393.172	123.22
393.382	22.87
393.591	139.6
393.801	47.44
394.01	98.64
394.22	41.3
394.429	47.44
394.639	-36.52
394.848	100.69
395.058	112.98
395.267	92.5
395.477	67.92
395.686	76.12
395.895	86.36
396.105	127.32
396.314	110.93
396.524	80.21
396.733	92.5
396.942	108.88
397.152	94.55
397.361	90.45
397.57	14.68
397.78	100.69
397.989	57.68
398.198	160.08
398.407	80.21
398.617	131.41
398.826	102.74
399.035	61.78
399.244	74.07
399.453	35.16
399.663	82.26
399.872	129.36
400.081	135.51
400.29	53.59
400.499	131.41
400.708	153.94
400.917	88.4
401.127	102.74
401.336	12.63
401.545	135.51
401.754	164.18
401.963	139.6
402.172	131.41
402.381	104.79
402.59	78.16
402.799	49.49
403.008	67.92
403.217	67.92
403.426	192.85
403.635	119.12
403.844	88.4
404.053	45.4
404.262	98.64
404.471	158.03
404.68	24.92
404.888	53.59
405.097	117.08
405.306	160.08
405.515	135.51
405.724	137.56
405.933	112.98
406.142	174.42
406.35	229.71
406.559	123.22
406.768	143.7
406.977	166.23
407.185	69.97
407.394	168.27
407.603	153.94
407.812	219.47
408.02	227.67
408.229	178.51
408.438	188.75
408.646	131.41
408.855	188.75
409.064	160.08
409.272	209.23
409.481	215.38
409.69	246.1
409.898	139.6
410.107	211.28
410.315	239.95
410.524	264.53
410.733	231.76
410.941	256.34
411.15	309.58
411.358	285.01
411.567	360.78
411.775	342.35
411.984	278.87
412.192	291.15
412.401	336.21
412.609	362.83
412.818	319.82
413.026	444.75
413.234	434.51
413.443	387.41
413.651	428.37
413.86	450.89
414.068	454.99
414.276	442.7
414.485	459.09
414.693	491.85
414.901	545.1
415.11	467.28
415.318	485.71
415.526	473.42
415.734	592.2
415.943	561.48
416.151	616.78
416.359	598.35
416.567	678.22
416.776	635.21
416.984	614.73
417.192	751.95
417.4	743.75
417.608	715.08
417.817	823.62
418.025	868.68
418.233	874.82
418.441	909.64
418.649	926.02
418.857	946.5
419.065	1028.42
419.273	987.46
419.481	907.59
419.689	973.13
419.897	1005.89
420.105	1106.24
420.313	1112.39
420.521	1149.25
420.729	1130.82
420.937	1292.61
421.145	1288.51
421.353	1349.95
421.561	1427.78
421.769	1378.62
421.977	1536.32
422.185	1542.46
422.393	1528.13
422.601	1651
422.809	1605.95
423.017	1581.37
423.224	1579.33
423.432	1790.27
423.64	1749.31
423.848	2019.64
424.056	1943.86
424.263	2111.8
424.471	1974.58
424.679	2079.03
424.887	2115.89
425.094	2312.5
425.302	2230.58
425.51	2369.84
425.718	2339.12
425.925	2498.86
426.133	2429.23
426.341	2695.47
426.548	2867.5
426.756	2787.63
426.964	2887.98
427.171	3129.64
427.379	3047.72
427.586	3017
427.794	3244.32
428.001	3426.59
428.209	3526.94
428.417	3367.2
428.624	3678.49
428.832	3782.94
429.039	3735.84
429.247	3750.17
429.454	4067.61
429.662	4327.7
429.869	3903.77
430.076	4421.91
430.284	4167.96
430.491	4426
430.699	4679.95
430.906	4823.31
431.114	4757.77
431.321	4827.4
431.528	5052.68
431.736	5445.89
431.943	5603.58
432.15	5253.38
432.358	5429.51
432.565	5732.61
432.772	5804.28
432.979	5994.75
433.187	6009.08
433.394	6134.01
433.601	6617.33
433.808	6695.15
434.016	6441.2
434.223	6791.41
434.43	7241.96
434.637	7078.12
434.844	7586.02
435.052	7837.92
435.259	7663.84
435.466	7733.47
435.673	7696.61
435.88	8089.82
436.087	8470.74
436.294	8585.43
436.501	8247.51
436.708	8601.81
436.915	8745.17
437.122	9363.65
437.329	9435.33
437.537	9427.14
437.743	9773.25
437.95	9654.47
438.157	10053.82
438.364	10330.3
438.571	10447.03
438.778	10455.22
438.985	11471.01
439.192	11057.32
439.399	11585.7
439.606	11395.24
439.813	11714.72
440.02	12347.54
440.227	12212.38
440.433	12144.8
440.64	12599.45
440.847	12402.84
441.054	12910.74
441.261	13592.71
441.467	13549.7
441.674	13910.15
441.881	14225.53
442.088	14057.6
442.294	14024.83
442.501	14461.05
442.708	14794.87
442.914	15274.09
443.121	15939.68
443.328	15429.74
443.534	16742.49
443.741	16169.05
443.948	15945.83
444.154	17137.74
444.361	17102.93
444.568	17266.77
444.774	17094.74
444.981	17387.6
445.187	18020.42
445.394	18724.92
445.6	18522.17
445.807	20400.16
446.013	19355.69
446.22	19599.4
446.426	20584.48
446.633	20736.02
446.839	21411.85
447.046	20633.63
447.252	21600.27
447.459	21374.99
447.665	21686.28
447.871	22839.29
448.078	23816.17
448.284	22280.19
448.491	23013.37
448.697	23932.9
448.903	24180.71
449.11	24246.24
449.316	24254.44
449.522	24672.22
449.728	24997.85
449.935	25472.98
450.141	25325.52
450.347	26398.66
450.553	24897.5
450.76	25448.4
450.966	26527.68
451.172	25997.26
451.378	26572.74
451.584	25972.68
451.791	26662.85
451.997	26728.38
452.203	27162.55
452.409	27574.19
452.615	27223.99
452.821	26066.89
453.027	25665.49
453.233	27170.74
453.44	26234.82
453.646	26740.67
453.852	26552.26
454.058	27008.95
454.264	26204.1
454.47	26763.2
454.676	26173.38
454.882	27213.75
455.088	24735.71
455.294	24897.5
455.5	25470.93
455.705	25874.38
455.911	24846.3
456.117	24027.11
456.323	23904.23
456.529	22546.43
456.735	23488.49
456.941	23115.76
457.147	22634.49
457.352	21745.67
457.558	21882.89
457.764	21651.47
457.97	21336.08
458.176	20668.44
458.381	21012.5
458.587	20133.92
458.793	19787.82
458.999	18815.03
459.204	20203.55
459.41	19943.46
459.616	18389.05
459.821	18253.89
460.027	18411.58
460.233	17780.81
460.438	17129.55
460.644	17215.57
460.85	16570.46
461.055	16287.84
461.261	16158.81
461.466	14962.8
461.672	14385.27
461.878	15698.02
462.083	14514.3
462.289	14172.29
462.494	13834.37
462.7	13594.76
462.905	13205.64
463.111	13666.44
463.316	13590.66
463.522	13213.84
463.727	13684.87
463.932	13179.02
464.138	13240.46
464.343	13058.19
464.549	12748.95
464.754	13262.99
464.959	13084.81
465.165	13004.94
465.37	12701.84
465.575	12325.02
465.781	12685.46
465.986	12673.17
466.191	12394.65
466.397	12001.44
466.602	11387.05
466.807	12103.84
467.012	12073.12
467.218	11815.07
467.423	11894.94
467.628	11702.43
467.833	12210.33
468.038	11712.67
468.244	11505.83
