Data from USB4F104151__73__12-27-48-611.txt Node

Date: Fri Mar 14 12:27:48 EDT 2025
User: louis
Spectrometer: USB4F10415
Trigger mode: 4
Integration Time (sec): 2.000000E-2
Scans to average: 1
Electric dark correction enabled: true
Nonlinearity correction enabled: false
Boxcar width: 0
XAxis mode: Wavelengths
Number of Pixels in Spectrum: 3648
>>>>>Begin Spectral Data<<<<<
178.204	-45.4
178.424	-45.4
178.644	-45.4
178.864	-72.02
179.084	-96.6
179.304	5.8
179.524	13.99
179.744	-16.73
179.964	75.43
180.184	-18.77
180.404	-26.96
180.624	-45.4
180.844	36.52
181.064	-59.73
181.283	-6.49
181.503	3.75
181.723	38.57
181.943	34.47
182.163	106.15
182.383	16.04
182.602	36.52
182.822	22.19
183.042	-18.77
183.262	-80.21
183.482	40.62
183.701	7.85
183.921	18.09
184.141	32.43
184.361	81.58
184.58	30.38
184.8	36.52
185.02	26.28
185.239	52.91
185.459	3.75
185.679	59.05
185.898	30.38
186.118	65.19
186.338	16.04
186.557	108.2
186.777	26.28
186.997	57
187.216	48.81
187.436	54.95
187.655	11.95
187.875	16.04
188.095	30.38
188.314	34.47
188.534	65.19
188.753	-6.49
188.973	63.15
189.192	48.81
189.412	22.19
189.631	59.05
189.851	-6.49
190.07	30.38
190.29	-0.34
190.509	-24.92
190.729	110.25
190.948	75.43
191.168	124.58
191.387	26.28
191.607	-6.49
191.826	5.8
192.045	28.33
192.265	28.33
192.484	42.67
192.704	24.23
192.923	-35.16
193.142	108.2
193.362	-22.87
193.581	48.81
193.8	11.95
194.02	87.72
194.239	3.75
194.458	52.91
194.678	-53.59
194.897	83.63
195.116	-6.49
195.335	30.38
195.555	63.15
195.774	20.14
195.993	13.99
196.212	-6.49
196.432	57
196.651	-59.73
196.87	13.99
197.089	52.91
197.308	7.85
197.528	34.47
197.747	-53.59
197.966	61.1
198.185	26.28
198.404	52.91
198.623	20.14
198.842	1.71
199.062	100.01
199.281	3.75
199.5	-35.16
199.719	36.52
199.938	116.39
200.157	93.87
200.376	-33.11
200.595	75.43
200.814	20.14
201.033	7.85
201.252	71.34
201.471	-2.39
201.69	30.38
201.909	3.75
202.128	59.05
202.347	42.67
202.566	26.28
202.785	42.67
203.004	28.33
203.223	24.23
203.442	-2.39
203.661	63.15
203.879	-24.92
204.098	46.76
204.317	24.23
204.536	-37.2
204.755	-4.44
204.974	77.48
205.193	9.9
205.411	63.15
205.63	-2.39
205.849	16.04
206.068	38.57
206.287	26.28
206.505	63.15
206.724	36.52
206.943	32.43
207.162	-14.68
207.381	87.72
207.599	11.95
207.818	7.85
208.037	20.14
208.255	-29.01
208.474	24.23
208.693	48.81
208.911	42.67
209.13	48.81
209.349	34.47
209.567	-10.58
209.786	1.71
210.005	63.15
210.223	54.95
210.442	5.8
210.661	3.75
210.879	11.95
211.098	54.95
211.316	24.23
211.535	79.53
211.753	26.28
211.972	65.19
212.191	-18.77
212.409	13.99
212.628	54.95
212.846	24.23
213.065	50.86
213.283	63.15
213.502	36.52
213.72	9.9
213.938	50.86
214.157	42.67
214.375	-45.4
214.594	-14.68
214.812	59.05
215.031	34.47
215.249	44.71
215.467	-14.68
215.686	-0.34
215.904	138.92
216.122	79.53
216.341	57
216.559	30.38
216.778	34.47
216.996	36.52
217.214	67.24
217.432	-47.44
217.651	20.14
217.869	28.33
218.087	130.73
218.306	-29.01
218.524	-33.11
218.742	20.14
218.96	36.52
219.179	-22.87
219.397	34.47
219.615	87.72
219.833	-39.25
220.051	3.75
220.27	93.87
220.488	54.95
220.706	50.86
220.924	104.11
221.142	132.78
221.36	-12.63
221.578	-4.44
221.796	36.52
222.015	46.76
222.233	-26.96
222.451	102.06
222.669	13.99
222.887	-12.63
223.105	13.99
223.323	26.28
223.541	-20.82
223.759	-76.12
223.977	46.76
224.195	65.19
224.413	-31.06
224.631	83.63
224.849	61.1
225.067	20.14
225.285	-2.39
225.503	-12.63
225.721	93.87
225.939	32.43
226.157	71.34
226.375	83.63
226.592	36.52
226.81	1.71
227.028	34.47
227.246	110.25
227.464	-4.44
227.682	89.77
227.9	77.48
228.117	65.19
228.335	44.71
228.553	59.05
228.771	24.23
228.989	-4.44
229.206	-0.34
229.424	28.33
229.642	22.19
229.86	30.38
230.077	28.33
230.295	91.82
230.513	-12.63
230.731	130.73
230.948	13.99
231.166	93.87
231.384	59.05
231.601	71.34
231.819	20.14
232.037	36.52
232.254	-24.92
232.472	50.86
232.689	-26.96
232.907	38.57
233.125	30.38
233.342	-14.68
233.56	-10.58
233.777	1.71
233.995	16.04
234.213	73.39
234.43	-16.73
234.648	54.95
234.865	46.76
235.083	46.76
235.3	30.38
235.518	26.28
235.735	20.14
235.953	73.39
236.17	-29.01
236.388	77.48
236.605	32.43
236.822	63.15
237.04	36.52
237.257	73.39
237.475	-29.01
237.692	61.1
237.909	-8.53
238.127	28.33
238.344	34.47
238.562	71.34
238.779	-16.73
238.996	40.62
239.214	42.67
239.431	44.71
239.648	89.77
239.865	79.53
240.083	28.33
240.3	-24.92
240.517	22.19
240.735	59.05
240.952	32.43
241.169	42.67
241.386	-10.58
241.603	13.99
241.821	-10.58
242.038	3.75
242.255	65.19
242.472	59.05
242.689	26.28
242.907	34.47
243.124	7.85
243.341	52.91
243.558	63.15
243.775	40.62
243.992	-12.63
244.209	50.86
244.426	75.43
244.643	38.57
244.86	-16.73
245.078	57
245.295	20.14
245.512	114.34
245.729	63.15
245.946	44.71
246.163	52.91
246.38	122.54
246.597	-24.92
246.814	69.29
247.031	20.14
247.248	42.67
247.464	83.63
247.681	44.71
247.898	44.71
248.115	106.15
248.332	-4.44
248.549	42.67
248.766	69.29
248.983	34.47
249.2	36.52
249.417	40.62
249.633	3.75
249.85	32.43
250.067	-12.63
250.284	34.47
250.501	75.43
250.717	118.44
250.934	-49.49
251.151	18.09
251.368	54.95
251.585	65.19
251.801	77.48
252.018	22.19
252.235	11.95
252.451	24.23
252.668	7.85
252.885	106.15
253.102	65.19
253.318	7.85
253.535	-18.77
253.752	-18.77
253.968	54.95
254.185	22.19
254.401	-20.82
254.618	36.52
254.835	-37.2
255.051	48.81
255.268	91.82
255.484	13.99
255.701	93.87
255.917	54.95
256.134	73.39
256.351	24.23
256.567	1.71
256.784	48.81
257	3.75
257.217	34.47
257.433	57
257.65	97.96
257.866	24.23
258.082	59.05
258.299	54.95
258.515	18.09
258.732	-18.77
258.948	59.05
259.165	32.43
259.381	5.8
259.597	22.19
259.814	-4.44
260.03	32.43
260.246	89.77
260.463	69.29
260.679	16.04
260.895	-2.39
261.112	75.43
261.328	102.06
261.544	30.38
261.761	48.81
261.977	-0.34
262.193	11.95
262.409	28.33
262.626	18.09
262.842	-16.73
263.058	16.04
263.274	24.23
263.49	-26.96
263.707	42.67
263.923	34.47
264.139	7.85
264.355	26.28
264.571	122.54
264.787	57
265.004	46.76
265.22	18.09
265.436	48.81
265.652	63.15
265.868	-0.34
266.084	3.75
266.3	102.06
266.516	3.75
266.732	85.67
266.948	11.95
267.164	42.67
267.38	71.34
267.596	65.19
267.812	71.34
268.028	67.24
268.244	79.53
268.46	81.58
268.676	77.48
268.892	77.48
269.108	9.9
269.324	61.1
269.54	13.99
269.756	79.53
269.972	1.71
270.188	83.63
270.403	18.09
270.619	13.99
270.835	28.33
271.051	-4.44
271.267	32.43
271.483	26.28
271.698	1.71
271.914	67.24
272.13	-33.11
272.346	18.09
272.562	-24.92
272.777	-10.58
272.993	-69.97
273.209	54.95
273.425	71.34
273.64	-0.34
273.856	75.43
274.072	54.95
274.287	-0.34
274.503	36.52
274.719	-22.87
274.934	-4.44
275.15	46.76
275.366	-35.16
275.581	-45.4
275.797	44.71
276.012	57
276.228	61.1
276.444	91.82
276.659	24.23
276.875	40.62
277.09	79.53
277.306	-0.34
277.521	65.19
277.737	-0.34
277.952	28.33
278.168	11.95
278.383	20.14
278.599	77.48
278.814	59.05
279.03	22.19
279.245	18.09
279.461	-0.34
279.676	52.91
279.892	65.19
280.107	95.91
280.322	-33.11
280.538	28.33
280.753	79.53
280.969	38.57
281.184	81.58
281.399	42.67
281.615	44.71
281.83	52.91
282.045	-22.87
282.26	-35.16
282.476	-51.54
282.691	48.81
282.906	54.95
283.122	36.52
283.337	-2.39
283.552	32.43
283.767	-16.73
283.983	-14.68
284.198	61.1
284.413	26.28
284.628	42.67
284.843	36.52
285.058	40.62
285.274	13.99
285.489	-18.77
285.704	48.81
285.919	63.15
286.134	9.9
286.349	-33.11
286.564	173.74
286.779	73.39
286.995	59.05
287.21	-53.59
287.425	61.1
287.64	-24.92
287.855	63.15
288.07	7.85
288.285	20.14
288.5	61.1
288.715	85.67
288.93	132.78
289.145	30.38
289.36	22.19
289.575	44.71
289.79	48.81
290.004	46.76
290.219	30.38
290.434	13.99
290.649	7.85
290.864	32.43
291.079	-0.34
291.294	93.87
291.509	9.9
291.724	-31.06
291.938	59.05
292.153	42.67
292.368	32.43
292.583	-33.11
292.798	44.71
293.012	59.05
293.227	26.28
293.442	-2.39
293.657	32.43
293.871	89.77
294.086	44.71
294.301	73.39
294.516	20.14
294.73	83.63
294.945	-45.4
295.16	54.95
295.374	38.57
295.589	22.19
295.804	28.33
296.018	85.67
296.233	95.91
296.447	-4.44
296.662	20.14
296.877	67.24
297.091	54.95
297.306	106.15
297.52	-49.49
297.735	32.43
297.949	7.85
298.164	120.49
298.378	57
298.593	93.87
298.807	46.76
299.022	-6.49
299.236	102.06
299.451	46.76
299.665	28.33
299.88	-22.87
300.094	24.23
300.309	54.95
300.523	28.33
300.737	42.67
300.952	69.29
301.166	91.82
301.381	46.76
301.595	20.14
301.809	71.34
302.024	38.57
302.238	-88.4
302.452	69.29
302.667	77.48
302.881	-33.11
303.095	57
303.309	71.34
303.524	5.8
303.738	3.75
303.952	-16.73
304.166	77.48
304.381	-18.77
304.595	24.23
304.809	42.67
305.023	42.67
305.237	52.91
305.452	44.71
305.666	26.28
305.88	38.57
306.094	13.99
306.308	32.43
306.522	81.58
306.736	-0.34
306.95	-2.39
307.164	36.52
307.379	67.24
307.593	-8.53
307.807	24.23
308.021	65.19
308.235	11.95
308.449	3.75
308.663	38.57
308.877	85.67
309.091	-24.92
309.305	36.52
309.519	-24.92
309.733	7.85
309.947	-8.53
310.161	122.54
310.374	-20.82
310.588	5.8
310.802	-10.58
311.016	54.95
311.23	20.14
311.444	75.43
311.658	97.96
311.872	48.81
312.085	-45.4
312.299	16.04
312.513	140.97
312.727	5.8
312.941	32.43
313.154	52.91
313.368	1.71
313.582	34.47
313.796	7.85
314.009	46.76
314.223	-10.58
314.437	7.85
314.651	42.67
314.864	69.29
315.078	89.77
315.292	48.81
315.505	-67.92
315.719	32.43
315.933	18.09
316.146	26.28
316.36	52.91
316.573	36.52
316.787	13.99
317.001	38.57
317.214	36.52
317.428	54.95
317.641	32.43
317.855	20.14
318.068	32.43
318.282	42.67
318.495	77.48
318.709	16.04
318.922	3.75
319.136	65.19
319.349	24.23
319.563	16.04
319.776	67.24
319.99	34.47
320.203	13.99
320.417	38.57
320.63	118.44
320.843	91.82
321.057	48.81
321.27	-16.73
321.483	22.19
321.697	61.1
321.91	16.04
322.124	48.81
322.337	34.47
322.55	-55.64
322.763	50.86
322.977	118.44
323.19	28.33
323.403	30.38
323.617	50.86
323.83	-2.39
324.043	-0.34
324.256	3.75
324.469	11.95
324.683	36.52
324.896	57
325.109	71.34
325.322	24.23
325.535	20.14
325.748	-6.49
325.962	26.28
326.175	54.95
326.388	97.96
326.601	106.15
326.814	75.43
327.027	46.76
327.24	26.28
327.453	-37.2
327.666	69.29
327.879	24.23
328.092	50.86
328.305	93.87
328.518	-2.39
328.731	9.9
328.944	30.38
329.157	65.19
329.37	67.24
329.583	95.91
329.796	30.38
330.009	-2.39
330.222	61.1
330.435	3.75
330.648	-31.06
330.861	28.33
331.073	87.72
331.286	16.04
331.499	30.38
331.712	5.8
331.925	61.1
332.138	24.23
332.35	44.71
332.563	54.95
332.776	91.82
332.989	36.52
333.202	116.39
333.414	13.99
333.627	122.54
333.84	-2.39
334.053	-14.68
334.265	40.62
334.478	71.34
334.691	97.96
334.903	-6.49
335.116	32.43
335.329	79.53
335.541	79.53
335.754	3.75
335.966	36.52
336.179	-18.77
336.392	46.76
336.604	85.67
336.817	85.67
337.029	85.67
337.242	24.23
337.454	85.67
337.667	38.57
337.88	61.1
338.092	28.33
338.305	20.14
338.517	16.04
338.729	18.09
338.942	20.14
339.154	63.15
339.367	65.19
339.579	73.39
339.792	9.9
340.004	65.19
340.217	42.67
340.429	85.67
340.641	22.19
340.854	61.1
341.066	50.86
341.278	3.75
341.491	42.67
341.703	-76.12
341.915	42.67
342.128	22.19
342.34	38.57
342.552	57
342.764	38.57
342.977	59.05
343.189	36.52
343.401	30.38
343.613	44.71
343.826	44.71
344.038	63.15
344.25	7.85
344.462	100.01
344.674	59.05
344.886	22.19
345.099	44.71
345.311	67.24
345.523	50.86
345.735	28.33
345.947	71.34
346.159	89.77
346.371	16.04
346.583	7.85
346.795	110.25
347.007	93.87
347.219	3.75
347.431	24.23
347.643	97.96
347.855	5.8
348.067	71.34
348.279	-20.82
348.491	-59.73
348.703	38.57
348.915	3.75
349.127	65.19
349.339	16.04
349.551	89.77
349.763	136.87
349.975	100.01
350.187	16.04
350.399	81.58
350.61	61.1
350.822	-4.44
351.034	11.95
351.246	-20.82
351.458	100.01
351.669	50.86
351.881	93.87
352.093	36.52
352.305	57
352.517	52.91
352.728	26.28
352.94	75.43
353.152	95.91
353.363	-33.11
353.575	134.82
353.787	48.81
353.999	-12.63
354.21	124.58
354.422	57
354.633	13.99
354.845	65.19
355.057	-14.68
355.268	57
355.48	38.57
355.692	54.95
355.903	34.47
356.115	-12.63
356.326	38.57
356.538	67.24
356.749	3.75
356.961	100.01
357.172	48.81
357.384	-18.77
357.595	136.87
357.807	44.71
358.018	30.38
358.23	46.76
358.441	7.85
358.653	73.39
358.864	-14.68
359.075	24.23
359.287	65.19
359.498	30.38
359.709	100.01
359.921	9.9
360.132	-16.73
360.344	24.23
360.555	44.71
360.766	34.47
360.977	32.43
361.189	20.14
361.4	32.43
361.611	42.67
361.823	20.14
362.034	52.91
362.245	30.38
362.456	57
362.667	46.76
362.879	7.85
363.09	67.24
363.301	30.38
363.512	28.33
363.723	91.82
363.935	28.33
364.146	44.71
364.357	26.28
364.568	97.96
364.779	-35.16
364.99	38.57
365.201	22.19
365.412	102.06
365.623	118.44
365.834	59.05
366.045	50.86
366.256	59.05
366.467	95.91
366.678	83.63
366.889	18.09
367.1	3.75
367.311	57
367.522	20.14
367.733	104.11
367.944	83.63
368.155	71.34
368.366	-4.44
368.577	-4.44
368.788	65.19
368.999	65.19
369.209	83.63
369.42	77.48
369.631	32.43
369.842	26.28
370.053	77.48
370.264	63.15
370.474	-43.35
370.685	20.14
370.896	89.77
371.107	75.43
371.317	61.1
371.528	-39.25
371.739	165.54
371.95	79.53
372.16	28.33
372.371	54.95
372.582	22.19
372.792	22.19
373.003	30.38
373.214	61.1
373.424	42.67
373.635	13.99
373.846	69.29
374.056	36.52
374.267	16.04
374.477	91.82
374.688	91.82
374.898	20.14
375.109	59.05
375.319	91.82
375.53	32.43
375.74	46.76
375.951	87.72
376.161	81.58
376.372	75.43
376.582	11.95
376.793	48.81
377.003	44.71
377.214	50.86
377.424	63.15
377.635	54.95
377.845	38.57
378.055	120.49
378.266	50.86
378.476	44.71
378.686	24.23
378.897	-31.06
379.107	24.23
379.317	106.15
379.528	40.62
379.738	50.86
379.948	81.58
380.158	50.86
380.369	52.91
380.579	120.49
380.789	9.9
380.999	73.39
381.21	126.63
381.42	136.87
381.63	63.15
381.84	114.34
382.05	24.23
382.261	73.39
382.471	69.29
382.681	69.29
382.891	7.85
383.101	44.71
383.311	77.48
383.521	-37.2
383.731	18.09
383.941	48.81
384.151	26.28
384.361	79.53
384.571	63.15
384.781	36.52
384.991	32.43
385.201	97.96
385.411	48.81
385.621	71.34
385.831	24.23
386.041	48.81
386.251	40.62
386.461	13.99
386.671	59.05
386.881	120.49
387.091	-18.77
387.301	52.91
387.511	-24.92
387.72	100.01
387.93	147.11
388.14	83.63
388.35	44.71
388.56	81.58
388.769	40.62
388.979	54.95
389.189	20.14
389.399	65.19
389.609	36.52
389.818	57
390.028	83.63
390.238	36.52
390.447	48.81
390.657	-16.73
390.867	93.87
391.076	26.28
391.286	89.77
391.496	79.53
391.705	95.91
391.915	26.28
392.125	-6.49
392.334	28.33
392.544	61.1
392.753	24.23
392.963	91.82
393.172	97.96
393.382	38.57
393.591	112.3
393.801	59.05
394.01	75.43
394.22	108.2
394.429	42.67
394.639	48.81
394.848	38.57
395.058	36.52
395.267	52.91
395.477	75.43
395.686	63.15
395.895	65.19
396.105	145.06
396.314	106.15
396.524	61.1
396.733	30.38
396.942	52.91
397.152	11.95
397.361	81.58
397.57	112.3
397.78	77.48
397.989	57
398.198	132.78
398.407	52.91
398.617	59.05
398.826	61.1
399.035	114.34
399.244	110.25
399.453	50.86
399.663	-10.58
399.872	136.87
400.081	38.57
400.29	130.73
400.499	108.2
400.708	87.72
400.917	130.73
401.127	85.67
401.336	89.77
401.545	214.7
401.754	110.25
401.963	79.53
402.172	104.11
402.381	112.3
402.59	116.39
402.799	181.93
403.008	161.45
403.217	87.72
403.426	108.2
403.635	104.11
403.844	95.91
404.053	108.2
404.262	89.77
404.471	85.67
404.68	128.68
404.888	95.91
405.097	138.92
405.306	145.06
405.515	161.45
405.724	100.01
405.933	114.34
406.142	108.2
406.35	95.91
406.559	198.31
406.768	128.68
406.977	188.07
407.185	192.17
407.394	183.98
407.603	153.26
407.812	120.49
408.02	235.18
408.229	169.64
408.438	145.06
408.646	190.12
408.855	167.59
409.064	198.31
409.272	294.57
409.481	181.93
409.69	202.41
409.898	226.98
410.107	253.61
410.315	325.29
410.524	247.46
410.733	265.89
410.941	239.27
411.15	212.65
411.358	327.33
411.567	345.77
411.775	370.34
411.984	360.1
412.192	388.77
412.401	304.81
412.609	364.2
412.818	425.64
413.026	460.45
413.234	446.12
413.443	442.02
413.651	452.26
413.86	386.72
414.068	456.36
414.276	482.98
414.485	622.24
414.693	558.75
414.901	517.79
415.11	534.18
415.318	556.71
415.526	583.33
415.734	624.29
415.943	528.03
416.151	612
416.359	687.78
416.567	620.19
416.776	741.02
416.984	796.32
417.192	761.5
417.4	698.02
417.608	687.78
417.817	761.5
418.025	882.33
418.233	884.38
418.441	865.95
418.649	927.39
418.857	931.48
419.065	1035.93
419.273	1076.89
419.481	1140.38
419.689	1128.09
419.897	1177.24
420.105	1126.04
420.313	1265.3
420.521	1341.08
420.729	1304.21
420.937	1332.89
421.145	1326.74
421.353	1418.9
421.561	1478.29
421.769	1500.82
421.977	1687.18
422.185	1638.03
422.393	1742.48
422.601	1822.35
422.809	1816.21
423.017	1873.55
423.224	1871.5
423.432	1937.04
423.64	1926.8
423.848	2137.74
424.056	2139.79
424.263	2240.14
424.471	2147.98
424.679	2272.9
424.887	2453.13
425.094	2451.08
425.302	2549.38
425.51	2659.97
425.718	2719.36
425.925	2563.72
426.133	2711.17
426.341	2965.12
426.548	3200.63
426.756	3133.05
426.964	3180.15
427.171	3311.22
427.379	3305.08
427.586	3503.73
427.794	3440.25
428.001	3671.67
428.209	3849.84
428.417	3810.93
428.624	4210.28
428.832	4238.95
429.039	4007.53
429.247	4122.22
429.454	4324.97
429.662	4718.18
429.869	4222.57
430.076	4812.39
430.284	4507.24
430.491	4861.54
430.699	4978.27
430.906	5058.14
431.114	5123.68
431.321	5414.49
431.528	5574.23
431.736	5772.88
431.943	6080.08
432.15	6006.35
432.358	5989.97
432.565	6270.54
432.772	6344.27
432.979	6567.49
433.187	6854.21
433.394	6823.49
433.601	7161.41
433.808	7237.18
434.016	7235.13
434.223	7509.56
434.43	7927.35
434.637	7800.37
434.844	8345.13
435.052	8468.01
435.259	8402.47
435.466	8539.69
435.673	8447.53
435.88	8896.03
436.087	9530.91
436.294	9340.44
436.501	9211.42
436.708	9584.15
436.915	9715.22
437.122	10184.21
437.329	10051.09
437.537	10419.72
437.743	10700.3
437.95	10753.54
438.157	11083.27
438.364	11703.8
438.571	11699.7
438.778	11701.75
438.985	12688.87
439.192	12019.19
439.399	12844.52
439.606	12359.15
439.813	13080.04
440.02	13835.74
440.227	13540.83
440.433	13471.2
440.64	14046.68
440.847	13913.56
441.054	14214.61
441.261	15211.97
441.467	14808.52
441.674	15453.63
441.881	15777.21
442.088	15646.14
442.294	15451.58
442.501	15971.77
442.708	16149.94
442.914	17323.43
443.121	17581.47
443.328	16860.59
443.534	18564.5
443.741	17958.3
443.948	17679.77
444.154	18941.32
444.361	18804.11
444.568	19074.44
444.774	19045.77
444.981	19062.15
445.187	19795.32
445.394	20454.77
445.6	20483.44
445.807	22558.03
446.013	21679.46
446.22	21615.97
446.426	22746.45
446.633	23041.36
446.839	23766.34
447.046	22601.04
447.252	23840.06
447.459	23913.79
447.665	23964.99
447.871	25097.52
448.078	26058.01
448.284	25095.47
448.491	25535.78
448.697	26518.81
448.903	26856.72
449.11	27112.72
449.316	26928.4
449.522	27084.05
449.728	27862.27
449.935	28124.41
450.141	27952.38
450.347	28785.91
450.553	27856.13
450.76	28292.35
450.966	29121.77
451.172	28867.83
451.378	29396.2
451.584	28824.82
451.791	30018.78
451.997	29531.37
452.203	30024.93
452.409	30436.57
452.615	30260.44
452.821	29226.22
453.027	28656.89
453.233	30033.12
453.44	29140.21
453.646	29644.01
453.852	29476.07
454.058	30237.92
454.264	29203.69
454.47	29945.06
454.676	28839.15
454.882	29857
455.088	27309.32
455.294	27614.47
455.5	28392.7
455.705	28796.15
455.911	27454.73
456.117	27020.56
456.323	26715.41
456.529	24939.82
456.735	26451.22
456.941	25439.53
457.147	25074.99
457.352	24503.6
457.558	24091.96
457.764	23989.56
457.97	23692.61
458.176	23219.53
458.381	23209.29
458.587	22041.95
458.793	21941.6
458.999	21114.22
459.204	22535.51
459.41	21759.33
459.616	20387.19
459.821	20256.12
460.027	20329.84
460.233	20217.21
460.438	19158.41
460.644	19180.93
460.85	18163.09
461.055	17919.39
461.261	18048.41
461.466	16844.2
461.672	16088.5
461.878	17268.13
462.083	16106.93
462.289	15674.81
462.494	15480.25
462.7	15107.52
462.905	14521.81
463.111	15209.92
463.316	15214.02
463.522	14859.72
463.727	15017.41
463.932	14749.13
464.138	14710.22
464.343	14585.29
464.549	14185.94
464.754	14814.66
464.959	14497.23
465.165	14607.82
465.37	13944.28
465.575	13630.94
465.781	14044.63
465.986	14114.26
466.191	13684.19
466.397	13313.5
466.602	12729.83
466.807	13379.04
467.012	13368.8
467.218	13207.01
467.423	12953.06
467.628	13120.99
467.833	13524.44
468.038	13139.43
468.244	13102.56
