Data from USB4F104151__89__12-28-15-007.txt Node

Date: Fri Mar 14 12:28:15 EDT 2025
User: louis
Spectrometer: USB4F10415
Trigger mode: 4
Integration Time (sec): 2.000000E-2
Scans to average: 1
Electric dark correction enabled: true
Nonlinearity correction enabled: false
Boxcar width: 0
XAxis mode: Wavelengths
Number of Pixels in Spectrum: 3648
>>>>>Begin Spectral Data<<<<<
178.204	-106.84
178.424	-106.84
178.644	-106.84
178.864	-115.03
179.084	-69.97
179.304	-55.64
179.524	36.52
179.744	-37.2
179.964	59.05
180.184	-63.83
180.404	63.15
180.624	-20.82
180.844	5.8
181.064	-14.68
181.283	24.23
181.503	-22.87
181.723	26.28
181.943	-76.12
182.163	-10.58
182.383	-10.58
182.602	54.95
182.822	67.24
183.042	22.19
183.262	38.57
183.482	-16.73
183.701	18.09
183.921	57
184.141	-8.53
184.361	26.28
184.58	5.8
184.8	30.38
185.02	-12.63
185.239	-20.82
185.459	42.67
185.679	28.33
185.898	-24.92
186.118	-12.63
186.338	16.04
186.557	13.99
186.777	-4.44
186.997	24.23
187.216	-76.12
187.436	32.43
187.655	63.15
187.875	79.53
188.095	7.85
188.314	61.1
188.534	73.39
188.753	26.28
188.973	48.81
189.192	54.95
189.412	50.86
189.631	54.95
189.851	24.23
190.07	44.71
190.29	-26.96
190.509	-22.87
190.729	-26.96
190.948	32.43
191.168	102.06
191.387	77.48
191.607	42.67
191.826	3.75
192.045	-8.53
192.265	-20.82
192.484	30.38
192.704	32.43
192.923	-39.25
193.142	50.86
193.362	22.19
193.581	69.29
193.8	81.58
194.02	48.81
194.239	71.34
194.458	20.14
194.678	63.15
194.897	9.9
195.116	26.28
195.335	79.53
195.555	13.99
195.774	-57.68
195.993	1.71
196.212	-14.68
196.432	22.19
196.651	22.19
196.87	22.19
197.089	79.53
197.308	22.19
197.528	38.57
197.747	54.95
197.966	3.75
198.185	89.77
198.404	42.67
198.623	28.33
198.842	18.09
199.062	32.43
199.281	100.01
199.5	-20.82
199.719	16.04
199.938	38.57
200.157	61.1
200.376	-29.01
200.595	38.57
200.814	34.47
201.033	-37.2
201.252	22.19
201.471	52.91
201.69	18.09
201.909	30.38
202.128	38.57
202.347	54.95
202.566	13.99
202.785	30.38
203.004	-33.11
203.223	22.19
203.442	48.81
203.661	-31.06
203.879	32.43
204.098	81.58
204.317	16.04
204.536	26.28
204.755	26.28
204.974	38.57
205.193	34.47
205.411	87.72
205.63	59.05
205.849	87.72
206.068	34.47
206.287	71.34
206.505	95.91
206.724	5.8
206.943	-47.44
207.162	-20.82
207.381	26.28
207.599	91.82
207.818	-12.63
208.037	89.77
208.255	52.91
208.474	1.71
208.693	-35.16
208.911	83.63
209.13	22.19
209.349	-0.34
209.567	9.9
209.786	-24.92
210.005	11.95
210.223	5.8
210.442	-63.83
210.661	22.19
210.879	-12.63
211.098	-2.39
211.316	26.28
211.535	54.95
211.753	46.76
211.972	57
212.191	5.8
212.409	79.53
212.628	-39.25
212.846	-67.92
213.065	-51.54
213.283	79.53
213.502	-53.59
213.72	59.05
213.938	67.24
214.157	-14.68
214.375	34.47
214.594	-16.73
214.812	130.73
215.031	48.81
215.249	-33.11
215.467	81.58
215.686	-24.92
215.904	3.75
216.122	7.85
216.341	1.71
216.559	48.81
216.778	42.67
216.996	48.81
217.214	30.38
217.432	-18.77
217.651	-16.73
217.869	-18.77
218.087	59.05
218.306	38.57
218.524	24.23
218.742	71.34
218.96	65.19
219.179	63.15
219.397	11.95
219.615	85.67
219.833	18.09
220.051	-10.58
220.27	-10.58
220.488	18.09
220.706	71.34
220.924	-10.58
221.142	11.95
221.36	5.8
221.578	28.33
221.796	-22.87
222.015	95.91
222.233	52.91
222.451	112.3
222.669	-2.39
222.887	75.43
223.105	9.9
223.323	18.09
223.541	-0.34
223.759	-35.16
223.977	81.58
224.195	-10.58
224.413	22.19
224.631	5.8
224.849	59.05
225.067	13.99
225.285	16.04
225.503	69.29
225.721	13.99
225.939	-49.49
226.157	-2.39
226.375	171.69
226.592	30.38
226.81	-33.11
227.028	30.38
227.246	3.75
227.464	61.1
227.682	-14.68
227.9	16.04
228.117	-2.39
228.335	-0.34
228.553	-24.92
228.771	48.81
228.989	28.33
229.206	5.8
229.424	89.77
229.642	24.23
229.86	50.86
230.077	11.95
230.295	16.04
230.513	54.95
230.731	112.3
230.948	3.75
231.166	83.63
231.384	-12.63
231.601	61.1
231.819	67.24
232.037	-59.73
232.254	-10.58
232.472	-20.82
232.689	5.8
232.907	75.43
233.125	63.15
233.342	22.19
233.56	-14.68
233.777	-43.35
233.995	22.19
234.213	42.67
234.43	59.05
234.648	-0.34
234.865	-33.11
235.083	71.34
235.3	1.71
235.518	75.43
235.735	-4.44
235.953	104.11
236.17	7.85
236.388	22.19
236.605	79.53
236.822	-4.44
237.04	16.04
237.257	44.71
237.475	20.14
237.692	75.43
237.909	65.19
238.127	-12.63
238.344	-57.68
238.562	40.62
238.779	-4.44
238.996	-16.73
239.214	93.87
239.431	67.24
239.648	32.43
239.865	61.1
240.083	73.39
240.3	32.43
240.517	-45.4
240.735	3.75
240.952	5.8
241.169	89.77
241.386	-55.64
241.603	71.34
241.821	-49.49
242.038	75.43
242.255	-10.58
242.472	65.19
242.689	97.96
242.907	-10.58
243.124	-31.06
243.341	-18.77
243.558	28.33
243.775	-61.78
243.992	-37.2
244.209	124.58
244.426	81.58
244.643	57
244.86	5.8
245.078	-0.34
245.295	5.8
245.512	-6.49
245.729	7.85
245.946	28.33
246.163	20.14
246.38	9.9
246.597	61.1
246.814	-29.01
247.031	-20.82
247.248	-2.39
247.464	54.95
247.681	18.09
247.898	40.62
248.115	26.28
248.332	52.91
248.549	9.9
248.766	22.19
248.983	42.67
249.2	-6.49
249.417	52.91
249.633	40.62
249.85	61.1
250.067	61.1
250.284	42.67
250.501	40.62
250.717	13.99
250.934	20.14
251.151	71.34
251.368	16.04
251.585	-4.44
251.801	3.75
252.018	46.76
252.235	104.11
252.451	52.91
252.668	40.62
252.885	36.52
253.102	132.78
253.318	13.99
253.535	20.14
253.752	26.28
253.968	11.95
254.185	22.19
254.401	34.47
254.618	26.28
254.835	18.09
255.051	-26.96
255.268	28.33
255.484	59.05
255.701	16.04
255.917	67.24
256.134	42.67
256.351	13.99
256.567	13.99
256.784	-37.2
257	-24.92
257.217	75.43
257.433	48.81
257.65	52.91
257.866	32.43
258.082	-10.58
258.299	18.09
258.515	-12.63
258.732	-65.88
258.948	11.95
259.165	-26.96
259.381	75.43
259.597	95.91
259.814	44.71
260.03	-14.68
260.246	-12.63
260.463	59.05
260.679	20.14
260.895	-35.16
261.112	-14.68
261.328	34.47
261.544	46.76
261.761	116.39
261.977	77.48
262.193	-29.01
262.409	50.86
262.626	-16.73
262.842	-24.92
263.058	-16.73
263.274	5.8
263.49	16.04
263.707	28.33
263.923	95.91
264.139	-51.54
264.355	3.75
264.571	42.67
264.787	36.52
265.004	-6.49
265.22	5.8
265.436	-26.96
265.652	11.95
265.868	26.28
266.084	24.23
266.3	3.75
266.516	-14.68
266.732	9.9
266.948	-26.96
267.164	30.38
267.38	5.8
267.596	52.91
267.812	-10.58
268.028	13.99
268.244	48.81
268.46	20.14
268.676	-8.53
268.892	61.1
269.108	50.86
269.324	-49.49
269.54	-53.59
269.756	65.19
269.972	-4.44
270.188	69.29
270.403	1.71
270.619	-6.49
270.835	9.9
271.051	-22.87
271.267	1.71
271.483	22.19
271.698	-6.49
271.914	-6.49
272.13	46.76
272.346	-6.49
272.562	-6.49
272.777	46.76
272.993	34.47
273.209	83.63
273.425	-6.49
273.64	36.52
273.856	100.01
274.072	75.43
274.287	22.19
274.503	61.1
274.719	59.05
274.934	40.62
275.15	1.71
275.366	77.48
275.581	11.95
275.797	44.71
276.012	-12.63
276.228	-14.68
276.444	38.57
276.659	5.8
276.875	-26.96
277.09	65.19
277.306	22.19
277.521	100.01
277.737	16.04
277.952	63.15
278.168	71.34
278.383	30.38
278.599	1.71
278.814	22.19
279.03	-55.64
279.245	5.8
279.461	77.48
279.676	77.48
279.892	34.47
280.107	26.28
280.322	18.09
280.538	30.38
280.753	-39.25
280.969	-20.82
281.184	11.95
281.399	63.15
281.615	32.43
281.83	24.23
282.045	13.99
282.26	-18.77
282.476	38.57
282.691	42.67
282.906	57
283.122	30.38
283.337	-18.77
283.552	-43.35
283.767	54.95
283.983	57
284.198	18.09
284.413	26.28
284.628	13.99
284.843	65.19
285.058	44.71
285.274	-43.35
285.489	36.52
285.704	61.1
285.919	81.58
286.134	7.85
286.349	22.19
286.564	63.15
286.779	38.57
286.995	46.76
287.21	1.71
287.425	24.23
287.64	36.52
287.855	11.95
288.07	65.19
288.285	-39.25
288.5	32.43
288.715	81.58
288.93	81.58
289.145	-8.53
289.36	13.99
289.575	48.81
289.79	16.04
290.004	9.9
290.219	38.57
290.434	13.99
290.649	69.29
290.864	24.23
291.079	63.15
291.294	89.77
291.509	-12.63
291.724	3.75
291.938	28.33
292.153	18.09
292.368	-18.77
292.583	-45.4
292.798	42.67
293.012	75.43
293.227	-2.39
293.442	95.91
293.657	40.62
293.871	36.52
294.086	69.29
294.301	57
294.516	100.01
294.73	22.19
294.945	30.38
295.16	67.24
295.374	13.99
295.589	11.95
295.804	30.38
296.018	110.25
296.233	71.34
296.447	46.76
296.662	-10.58
296.877	26.28
297.091	44.71
297.306	26.28
297.52	7.85
297.735	128.68
297.949	79.53
298.164	54.95
298.378	69.29
298.593	-26.96
298.807	-4.44
299.022	65.19
299.236	26.28
299.451	61.1
299.665	48.81
299.88	18.09
300.094	63.15
300.309	52.91
300.523	3.75
300.737	7.85
300.952	63.15
301.166	34.47
301.381	18.09
301.595	42.67
301.809	-2.39
302.024	48.81
302.238	22.19
302.452	57
302.667	22.19
302.881	95.91
303.095	26.28
303.309	42.67
303.524	-20.82
303.738	67.24
303.952	-4.44
304.166	79.53
304.381	44.71
304.595	118.44
304.809	54.95
305.023	5.8
305.237	81.58
305.452	48.81
305.666	50.86
305.88	5.8
306.094	52.91
306.308	65.19
306.522	95.91
306.736	38.57
306.95	16.04
307.164	114.34
307.379	7.85
307.593	79.53
307.807	-6.49
308.021	79.53
308.235	77.48
308.449	-14.68
308.663	13.99
308.877	75.43
309.091	5.8
309.305	67.24
309.519	-51.54
309.733	22.19
309.947	30.38
310.161	52.91
310.374	3.75
310.588	79.53
310.802	7.85
311.016	-6.49
311.23	71.34
311.444	24.23
311.658	-10.58
311.872	-2.39
312.085	11.95
312.299	34.47
312.513	83.63
312.727	69.29
312.941	79.53
313.154	7.85
313.368	216.74
313.582	13.99
313.796	44.71
314.009	50.86
314.223	-8.53
314.437	75.43
314.651	1.71
314.864	13.99
315.078	-37.2
315.292	71.34
315.505	73.39
315.719	44.71
315.933	28.33
316.146	63.15
316.36	93.87
316.573	65.19
316.787	46.76
317.001	20.14
317.214	63.15
317.428	-43.35
317.641	-4.44
317.855	28.33
318.068	104.11
318.282	11.95
318.495	87.72
318.709	26.28
318.922	50.86
319.136	36.52
319.349	54.95
319.563	-18.77
319.776	22.19
319.99	36.52
320.203	42.67
320.417	24.23
320.63	-4.44
320.843	50.86
321.057	26.28
321.27	81.58
321.483	63.15
321.697	83.63
321.91	100.01
322.124	91.82
322.337	-26.96
322.55	71.34
322.763	16.04
322.977	61.1
323.19	-31.06
323.403	30.38
323.617	30.38
323.83	79.53
324.043	50.86
324.256	97.96
324.469	28.33
324.683	38.57
324.896	69.29
325.109	30.38
325.322	-4.44
325.535	26.28
325.748	30.38
325.962	11.95
326.175	11.95
326.388	65.19
326.601	100.01
326.814	61.1
327.027	36.52
327.24	130.73
327.453	28.33
327.666	52.91
327.879	73.39
328.092	22.19
328.305	22.19
328.518	38.57
328.731	28.33
328.944	69.29
329.157	75.43
329.37	87.72
329.583	73.39
329.796	46.76
330.009	81.58
330.222	114.34
330.435	9.9
330.648	57
330.861	-2.39
331.073	32.43
331.286	-6.49
331.499	-35.16
331.712	1.71
331.925	30.38
332.138	40.62
332.35	95.91
332.563	73.39
332.776	71.34
332.989	26.28
333.202	5.8
333.414	28.33
333.627	26.28
333.84	104.11
334.053	1.71
334.265	28.33
334.478	-20.82
334.691	20.14
334.903	69.29
335.116	22.19
335.329	-10.58
335.541	26.28
335.754	40.62
335.966	16.04
336.179	-0.34
336.392	-31.06
336.604	71.34
336.817	132.78
337.029	87.72
337.242	89.77
337.454	63.15
337.667	11.95
337.88	97.96
338.092	44.71
338.305	50.86
338.517	30.38
338.729	93.87
338.942	52.91
339.154	-59.73
339.367	26.28
339.579	59.05
339.792	-4.44
340.004	93.87
340.217	-2.39
340.429	-43.35
340.641	87.72
340.854	-2.39
341.066	79.53
341.278	71.34
341.491	120.49
341.703	28.33
341.915	1.71
342.128	91.82
342.34	-24.92
342.552	91.82
342.764	-14.68
342.977	28.33
343.189	95.91
343.401	-45.4
343.613	75.43
343.826	28.33
344.038	-39.25
344.25	-4.44
344.462	48.81
344.674	11.95
344.886	73.39
345.099	28.33
345.311	54.95
345.523	22.19
345.735	-2.39
345.947	89.77
346.159	-18.77
346.371	81.58
346.583	20.14
346.795	93.87
347.007	106.15
347.219	28.33
347.431	-24.92
347.643	13.99
347.855	26.28
348.067	116.39
348.279	-59.73
348.491	71.34
348.703	32.43
348.915	42.67
349.127	7.85
349.339	34.47
349.551	-51.54
349.763	63.15
349.975	59.05
350.187	38.57
350.399	71.34
350.61	42.67
350.822	46.76
351.034	69.29
351.246	36.52
351.458	100.01
351.669	22.19
351.881	143.02
352.093	59.05
352.305	73.39
352.517	108.2
352.728	173.74
352.94	-22.87
353.152	140.97
353.363	61.1
353.575	38.57
353.787	-8.53
353.999	46.76
354.21	46.76
354.422	34.47
354.633	-33.11
354.845	91.82
355.057	-6.49
355.268	69.29
355.48	132.78
355.692	-22.87
355.903	18.09
356.115	73.39
356.326	-4.44
356.538	42.67
356.749	75.43
356.961	36.52
357.172	42.67
357.384	-45.4
357.595	61.1
357.807	-35.16
358.018	16.04
358.23	112.3
358.441	42.67
358.653	102.06
358.864	118.44
359.075	-22.87
359.287	48.81
359.498	34.47
359.709	42.67
359.921	71.34
360.132	46.76
360.344	63.15
360.555	-0.34
360.766	34.47
360.977	-8.53
361.189	67.24
361.4	-22.87
361.611	54.95
361.823	69.29
362.034	81.58
362.245	7.85
362.456	42.67
362.667	48.81
362.879	20.14
363.09	42.67
363.301	67.24
363.512	40.62
363.723	102.06
363.935	16.04
364.146	-18.77
364.357	22.19
364.568	48.81
364.779	-37.2
364.99	134.82
365.201	26.28
365.412	54.95
365.623	52.91
365.834	-24.92
366.045	-4.44
366.256	126.63
366.467	149.16
366.678	5.8
366.889	16.04
367.1	85.67
367.311	63.15
367.522	18.09
367.733	-24.92
367.944	28.33
368.155	46.76
368.366	93.87
368.577	-37.2
368.788	108.2
368.999	85.67
369.209	65.19
369.42	71.34
369.631	110.25
369.842	69.29
370.053	65.19
370.264	124.58
370.474	69.29
370.685	73.39
370.896	54.95
371.107	83.63
371.317	67.24
371.528	26.28
371.739	91.82
371.95	118.44
372.16	71.34
372.371	44.71
372.582	-16.73
372.792	75.43
373.003	22.19
373.214	54.95
373.424	28.33
373.635	46.76
373.846	106.15
374.056	77.48
374.267	48.81
374.477	61.1
374.688	54.95
374.898	71.34
375.109	13.99
375.319	3.75
375.53	38.57
375.74	-4.44
375.951	34.47
376.161	85.67
376.372	104.11
376.582	81.58
376.793	20.14
377.003	106.15
377.214	71.34
377.424	38.57
377.635	143.02
377.845	30.38
378.055	114.34
378.266	26.28
378.476	-20.82
378.686	73.39
378.897	81.58
379.107	22.19
379.317	57
379.528	50.86
379.738	3.75
379.948	24.23
380.158	67.24
380.369	40.62
380.579	77.48
380.789	-2.39
380.999	85.67
381.21	87.72
381.42	130.73
381.63	61.1
381.84	91.82
382.05	54.95
382.261	65.19
382.471	93.87
382.681	54.95
382.891	136.87
383.101	81.58
383.311	71.34
383.521	188.07
383.731	46.76
383.941	95.91
384.151	46.76
384.361	-0.34
384.571	97.96
384.781	59.05
384.991	126.63
385.201	52.91
385.411	32.43
385.621	71.34
385.831	52.91
386.041	61.1
386.251	9.9
386.461	61.1
386.671	20.14
386.881	85.67
387.091	20.14
387.301	87.72
387.511	-10.58
387.72	40.62
387.93	59.05
388.14	22.19
388.35	61.1
388.56	34.47
388.769	165.54
388.979	108.2
389.189	77.48
389.399	75.43
389.609	149.16
389.818	116.39
390.028	59.05
390.238	9.9
390.447	108.2
390.657	89.77
390.867	77.48
391.076	120.49
391.286	75.43
391.496	104.11
391.705	44.71
391.915	85.67
392.125	87.72
392.334	-16.73
392.544	118.44
392.753	110.25
392.963	116.39
393.172	13.99
393.382	87.72
393.591	161.45
393.801	48.81
394.01	151.21
394.22	147.11
394.429	112.3
394.639	32.43
394.848	97.96
395.058	73.39
395.267	26.28
395.477	130.73
395.686	59.05
395.895	116.39
396.105	179.88
396.314	61.1
396.524	79.53
396.733	73.39
396.942	173.74
397.152	87.72
397.361	198.31
397.57	126.63
397.78	79.53
397.989	147.11
398.198	175.78
398.407	38.57
398.617	143.02
398.826	165.54
399.035	118.44
399.244	175.78
399.453	149.16
399.663	130.73
399.872	140.97
400.081	134.82
400.29	175.78
400.499	108.2
400.708	87.72
400.917	93.87
401.127	169.64
401.336	173.74
401.545	163.5
401.754	130.73
401.963	181.93
402.172	100.01
402.381	161.45
402.59	218.79
402.799	208.55
403.008	245.41
403.217	171.69
403.426	190.12
403.635	93.87
403.844	159.4
404.053	163.5
404.262	202.41
404.471	186.02
404.68	136.87
404.888	155.3
405.097	177.83
405.306	167.59
405.515	247.46
405.724	151.21
405.933	251.56
406.142	140.97
406.35	290.47
406.559	163.5
406.768	253.61
406.977	280.23
407.185	200.36
407.394	239.27
407.603	206.5
407.812	251.56
408.02	284.33
408.229	239.27
408.438	284.33
408.646	272.04
408.855	313
409.064	325.29
409.272	358.05
409.481	421.54
409.69	409.25
409.898	323.24
410.107	358.05
410.315	413.35
410.524	435.88
410.733	448.16
410.941	433.83
411.15	493.22
411.358	521.89
411.567	532.13
411.775	499.36
411.984	480.93
412.192	624.29
412.401	599.71
412.609	556.71
412.818	663.2
413.026	591.52
413.234	691.87
413.443	691.87
413.651	710.3
413.86	644.77
414.068	890.53
414.276	724.64
414.485	751.26
414.693	872.09
414.901	960.16
415.11	911
415.318	890.53
415.526	1031.83
415.734	970.4
415.943	988.83
416.151	1097.37
416.359	1093.27
416.567	1070.75
416.776	1210.01
416.984	1205.91
417.192	1318.55
417.4	1361.56
417.608	1281.69
417.817	1425.04
418.025	1349.27
418.233	1554.07
418.441	1506.96
418.649	1672.85
418.857	1601.17
419.065	1861.26
419.273	1666.71
419.481	1812.11
419.689	1791.63
419.897	1982.09
420.105	2033.29
420.313	2078.35
420.521	2174.6
420.729	2123.4
420.937	2277
421.145	2432.65
421.353	2496.13
421.561	2475.65
421.769	2653.83
421.977	2719.36
422.185	2664.07
422.393	2942.59
422.601	3102.33
422.809	2965.12
423.017	3135.1
423.224	3184.25
423.432	3325.56
423.64	3317.37
423.848	3575.41
424.056	3450.49
424.263	3657.33
424.471	3790.45
424.679	3837.55
424.887	4021.87
425.094	4224.62
425.302	4241
425.51	4494.95
425.718	4445.8
425.925	4617.83
426.133	4730.47
426.341	4951.65
426.548	5191.26
426.756	5226.07
426.964	5299.8
427.171	5604.95
427.379	5822.03
427.586	5723.73
427.794	6106.7
428.001	6225.48
428.209	6536.77
428.417	6491.72
428.624	6942.27
428.832	6911.55
429.039	6977.09
429.247	6829.63
429.454	7536.18
429.662	8093.23
429.869	7493.18
430.076	8121.9
430.284	7917.11
430.491	8146.48
430.699	8433.19
430.906	8535.59
431.114	8873.51
431.321	9190.94
431.528	9322.01
431.736	9793.05
431.943	10321.42
432.15	10151.44
432.358	10063.38
432.565	10751.49
432.772	10548.75
432.979	11032.07
433.187	11458.04
433.394	11437.56
433.601	12232.18
433.808	12234.22
434.016	12109.3
434.223	12713.45
434.43	13366.75
434.637	13213.15
434.844	14056.92
435.052	14323.15
435.259	14126.55
435.466	14398.93
435.673	14298.58
435.88	14949.83
436.087	16303.54
436.294	15982.01
436.501	15689.15
436.708	15963.58
436.915	16534.96
437.122	17065.38
437.329	17284.51
437.537	17849.75
437.743	18009.5
437.95	18005.4
438.157	18937.23
438.364	19547.52
438.571	19529.09
438.778	19557.76
438.985	21134.7
439.192	20704.62
439.399	21261.67
439.606	20802.93
439.813	22000.99
440.02	23260.49
440.227	22771.02
440.433	22801.74
440.64	22984.01
440.847	23133.51
441.054	23848.25
441.261	25251.11
441.467	24939.82
441.674	25642.28
441.881	26604.82
442.088	26473.75
442.294	26203.42
442.501	26760.47
442.708	27526.41
442.914	28527.86
443.121	29721.83
443.328	29054.19
443.534	30655.7
443.741	30018.78
443.948	29506.79
444.154	31890.63
444.361	31618.25
444.568	31773.89
444.774	32015.55
444.981	32169.15
445.187	32961.72
445.394	34765.98
445.6	34241.7
445.807	37475.44
446.013	35992.71
446.22	36535.42
446.426	37577.84
446.633	38308.96
446.839	39689.29
447.046	37422.19
447.252	40117.32
447.459	40006.73
447.665	40021.06
447.871	41536.56
448.078	43508.75
448.284	41339.96
448.491	42413.09
448.697	44233.74
448.903	44669.95
449.11	44985.34
449.316	44268.55
449.522	45198.33
449.728	46607.33
449.935	46480.36
450.141	46347.24
450.347	47860.69
450.553	46150.63
450.76	46699.49
450.966	48243.66
451.172	47363.03
451.378	49107.9
451.584	48002
451.791	48946.11
451.997	48925.63
452.203	50035.63
452.409	50095.02
452.615	49507.26
452.821	47971.28
453.027	47743.95
453.233	49769.4
453.44	48157.64
453.646	48550.85
453.852	48655.3
454.058	48991.17
454.264	47735.76
454.47	49046.46
454.676	47973.33
454.882	49845.17
455.088	45509.62
455.294	46130.15
455.5	46851.04
455.705	47274.97
455.911	45218.81
456.117	44762.11
456.323	44119.05
456.529	41501.75
456.735	43238.42
456.941	42585.12
457.147	41886.76
457.352	40367.17
457.558	40164.42
457.764	40225.86
457.97	39443.54
458.176	38782.04
458.381	38546.53
458.587	36689.02
458.793	36815.99
458.999	35095.7
459.204	37620.84
459.41	36213.89
459.616	33928.36
459.821	33993.89
460.027	34069.67
460.233	33055.92
460.438	31603.91
460.644	32058.56
460.85	30532.82
461.055	29711.59
461.261	29967.59
461.466	27796.74
461.672	26973.46
461.878	28894.45
462.083	26742.03
462.289	26189.08
462.494	26076.44
462.7	24919.34
462.905	24243.51
463.111	25083.18
463.316	25271.59
463.522	24393.01
463.727	24775.98
463.932	24755.5
464.138	24522.04
464.343	24362.29
464.549	23782.72
464.754	24474.93
464.959	24507.7
465.165	24022.33
465.37	23229.77
465.575	22519.12
465.781	23391.56
465.986	23649.6
466.191	22852.94
466.397	22465.88
466.602	21302.63
466.807	22050.14
467.012	22170.97
