Data from USB4F104151__12__12-27-01-917.txt Node

Date: Fri Mar 14 12:27:01 EDT 2025
User: louis
Spectrometer: USB4F10415
Trigger mode: 4
Integration Time (sec): 2.000000E-2
Scans to average: 1
Electric dark correction enabled: true
Nonlinearity correction enabled: false
Boxcar width: 0
XAxis mode: Wavelengths
Number of Pixels in Spectrum: 3648
>>>>>Begin Spectral Data<<<<<
178.204	-52.91
178.424	-52.91
178.644	-52.91
178.864	-73.39
179.084	-126.63
179.304	-46.76
179.524	-52.91
179.744	14.68
179.964	-9.9
180.184	53.59
180.404	6.49
180.624	-28.33
180.844	-26.28
181.064	-9.9
181.283	51.54
181.503	-11.95
181.723	59.73
181.943	-153.26
182.163	104.79
182.383	37.2
182.602	31.06
182.822	108.88
183.042	-48.81
183.262	80.21
183.482	-18.09
183.701	-63.15
183.921	-36.52
184.141	-18.09
184.361	39.25
184.58	18.77
184.8	47.44
185.02	18.77
185.239	98.64
185.459	-30.38
185.679	49.49
185.898	16.73
186.118	16.73
186.338	0.34
186.557	29.01
186.777	-44.71
186.997	-40.62
187.216	-7.85
187.436	2.39
187.655	57.68
187.875	22.87
188.095	0.34
188.314	51.54
188.534	29.01
188.753	53.59
188.973	37.2
189.192	57.68
189.412	-9.9
189.631	10.58
189.851	2.39
190.07	-16.04
190.29	4.44
190.509	8.53
190.729	8.53
190.948	61.78
191.168	239.95
191.387	63.83
191.607	6.49
191.826	69.97
192.045	37.2
192.265	55.64
192.484	-7.85
192.704	33.11
192.923	14.68
193.142	92.5
193.362	65.88
193.581	20.82
193.8	24.92
194.02	24.92
194.239	6.49
194.458	-16.04
194.678	14.68
194.897	-30.38
195.116	4.44
195.335	88.4
195.555	-11.95
195.774	100.69
195.993	22.87
196.212	-69.29
196.432	31.06
196.651	16.73
196.87	4.44
197.089	82.26
197.308	41.3
197.528	26.96
197.747	51.54
197.966	49.49
198.185	-42.67
198.404	6.49
198.623	104.79
198.842	-48.81
199.062	31.06
199.281	35.16
199.5	-26.28
199.719	-40.62
199.938	16.73
200.157	31.06
200.376	0.34
200.595	12.63
200.814	14.68
201.033	-16.04
201.252	57.68
201.471	88.4
201.69	94.55
201.909	29.01
202.128	-5.8
202.347	49.49
202.566	12.63
202.785	18.77
203.004	24.92
203.223	104.79
203.442	-3.75
203.661	-16.04
203.879	-11.95
204.098	4.44
204.317	57.68
204.536	22.87
204.755	-24.23
204.974	4.44
205.193	57.68
205.411	82.26
205.63	14.68
205.849	55.64
206.068	-20.14
206.287	0.34
206.505	33.11
206.724	-1.71
206.943	-11.95
207.162	51.54
207.381	-20.14
207.599	-22.19
207.818	53.59
208.037	-22.19
208.255	82.26
208.474	33.11
208.693	37.2
208.911	41.3
209.13	49.49
209.349	63.83
209.567	18.77
209.786	115.03
210.005	63.83
210.223	-67.24
210.442	-1.71
210.661	49.49
210.879	-42.67
211.098	31.06
211.316	51.54
211.535	65.88
211.753	37.2
211.972	65.88
212.191	4.44
212.409	-57
212.628	22.87
212.846	76.12
213.065	35.16
213.283	123.22
213.502	16.73
213.72	-42.67
213.938	84.31
214.157	8.53
214.375	43.35
214.594	-5.8
214.812	106.84
215.031	98.64
215.249	-26.28
215.467	4.44
215.686	-38.57
215.904	72.02
216.122	74.07
216.341	88.4
216.559	24.92
216.778	94.55
216.996	76.12
217.214	-7.85
217.432	43.35
217.651	43.35
217.869	51.54
218.087	47.44
218.306	29.01
218.524	20.82
218.742	-32.43
218.96	41.3
219.179	26.96
219.397	0.34
219.615	-38.57
219.833	78.16
220.051	49.49
220.27	16.73
220.488	24.92
220.706	45.4
220.924	-30.38
221.142	22.87
221.36	2.39
221.578	-61.1
221.796	20.82
222.015	-1.71
222.233	-11.95
222.451	8.53
222.669	-7.85
222.887	72.02
223.105	-1.71
223.323	35.16
223.541	8.53
223.759	51.54
223.977	51.54
224.195	39.25
224.413	86.36
224.631	53.59
224.849	65.88
225.067	96.6
225.285	8.53
225.503	16.73
225.721	8.53
225.939	-34.47
226.157	12.63
226.375	31.06
226.592	-40.62
226.81	-26.28
227.028	24.92
227.246	43.35
227.464	-40.62
227.682	65.88
227.9	47.44
228.117	-1.71
228.335	6.49
228.553	-16.04
228.771	43.35
228.989	74.07
229.206	6.49
229.424	-40.62
229.642	12.63
229.86	39.25
230.077	37.2
230.295	-46.76
230.513	57.68
230.731	-11.95
230.948	24.92
231.166	43.35
231.384	-24.23
231.601	-44.71
231.819	47.44
232.037	35.16
232.254	51.54
232.472	45.4
232.689	-54.95
232.907	6.49
233.125	-18.09
233.342	72.02
233.56	-13.99
233.777	47.44
233.995	-5.8
234.213	39.25
234.43	-30.38
234.648	33.11
234.865	41.3
235.083	-1.71
235.3	2.39
235.518	-22.19
235.735	57.68
235.953	-24.23
236.17	6.49
236.388	31.06
236.605	2.39
236.822	8.53
237.04	37.2
237.257	55.64
237.475	37.2
237.692	35.16
237.909	65.88
238.127	31.06
238.344	63.83
238.562	69.97
238.779	-22.19
238.996	12.63
239.214	10.58
239.431	-48.81
239.648	-1.71
239.865	-7.85
240.083	-11.95
240.3	-42.67
240.517	96.6
240.735	-91.82
240.952	24.92
241.169	37.2
241.386	67.92
241.603	61.78
241.821	-26.28
242.038	-18.09
242.255	74.07
242.472	-18.09
242.689	47.44
242.907	-1.71
243.124	47.44
243.341	-13.99
243.558	10.58
243.775	26.96
243.992	-32.43
244.209	63.83
244.426	6.49
244.643	45.4
244.86	10.58
245.078	24.92
245.295	16.73
245.512	33.11
245.729	18.77
245.946	59.73
246.163	41.3
246.38	76.12
246.597	4.44
246.814	12.63
247.031	117.08
247.248	20.82
247.464	35.16
247.681	-32.43
247.898	22.87
248.115	-3.75
248.332	78.16
248.549	49.49
248.766	39.25
248.983	-28.33
249.2	26.96
249.417	-1.71
249.633	63.83
249.85	100.69
250.067	-5.8
250.284	37.2
250.501	47.44
250.717	80.21
250.934	24.92
251.151	31.06
251.368	33.11
251.585	41.3
251.801	-3.75
252.018	-42.67
252.235	57.68
252.451	20.82
252.668	-40.62
252.885	45.4
253.102	127.32
253.318	-13.99
253.535	63.83
253.752	-38.57
253.968	39.25
254.185	-32.43
254.401	18.77
254.618	45.4
254.835	0.34
255.051	102.74
255.268	31.06
255.484	67.92
255.701	31.06
255.917	24.92
256.134	76.12
256.351	45.4
256.567	0.34
256.784	8.53
257	-46.76
257.217	47.44
257.433	31.06
257.65	35.16
257.866	59.73
258.082	-9.9
258.299	-22.19
258.515	41.3
258.732	12.63
258.948	-87.72
259.165	14.68
259.381	-26.28
259.597	33.11
259.814	39.25
260.03	-48.81
260.246	-22.19
260.463	43.35
260.679	33.11
260.895	43.35
261.112	10.58
261.328	-48.81
261.544	61.78
261.761	37.2
261.977	33.11
262.193	6.49
262.409	51.54
262.626	51.54
262.842	-44.71
263.058	6.49
263.274	61.78
263.49	94.55
263.707	26.96
263.923	2.39
264.139	-9.9
264.355	26.96
264.571	33.11
264.787	57.68
265.004	31.06
265.22	-40.62
265.436	57.68
265.652	-11.95
265.868	82.26
266.084	14.68
266.3	61.78
266.516	-44.71
266.732	55.64
266.948	22.87
267.164	51.54
267.38	123.22
267.596	47.44
267.812	84.31
268.028	-22.19
268.244	31.06
268.46	20.82
268.676	45.4
268.892	35.16
269.108	-32.43
269.324	51.54
269.54	67.92
269.756	33.11
269.972	-1.71
270.188	-38.57
270.403	57.68
270.619	80.21
270.835	102.74
271.051	94.55
271.267	12.63
271.483	0.34
271.698	-34.47
271.914	-3.75
272.13	59.73
272.346	-61.1
272.562	76.12
272.777	0.34
272.993	14.68
273.209	24.92
273.425	72.02
273.64	69.97
273.856	67.92
274.072	67.92
274.287	-5.8
274.503	-44.71
274.719	22.87
274.934	49.49
275.15	-46.76
275.366	61.78
275.581	-7.85
275.797	22.87
276.012	55.64
276.228	59.73
276.444	-30.38
276.659	86.36
276.875	-57
277.09	49.49
277.306	37.2
277.521	0.34
277.737	-24.23
277.952	-18.09
278.168	94.55
278.383	6.49
278.599	-9.9
278.814	98.64
279.03	55.64
279.245	-5.8
279.461	8.53
279.676	39.25
279.892	-3.75
280.107	-1.71
280.322	59.73
280.538	94.55
280.753	78.16
280.969	41.3
281.184	59.73
281.399	33.11
281.615	16.73
281.83	20.82
282.045	47.44
282.26	98.64
282.476	-67.24
282.691	2.39
282.906	41.3
283.122	90.45
283.337	16.73
283.552	-44.71
283.767	-18.09
283.983	123.22
284.198	39.25
284.413	20.82
284.628	37.2
284.843	104.79
285.058	33.11
285.274	82.26
285.489	43.35
285.704	67.92
285.919	14.68
286.134	-7.85
286.349	4.44
286.564	31.06
286.779	47.44
286.995	92.5
287.21	2.39
287.425	74.07
287.64	67.92
287.855	49.49
288.07	-11.95
288.285	35.16
288.5	-9.9
288.715	61.78
288.93	39.25
289.145	12.63
289.36	0.34
289.575	47.44
289.79	-24.23
290.004	14.68
290.219	-5.8
290.434	43.35
290.649	74.07
290.864	49.49
291.079	20.82
291.294	-9.9
291.509	-1.71
291.724	61.78
291.938	45.4
292.153	10.58
292.368	69.97
292.583	-16.04
292.798	-1.71
293.012	41.3
293.227	24.92
293.442	20.82
293.657	59.73
293.871	88.4
294.086	35.16
294.301	90.45
294.516	131.41
294.73	45.4
294.945	-38.57
295.16	31.06
295.374	78.16
295.589	72.02
295.804	45.4
296.018	67.92
296.233	33.11
296.447	155.99
296.662	57.68
296.877	96.6
297.091	0.34
297.306	8.53
297.52	-34.47
297.735	6.49
297.949	43.35
298.164	37.2
298.378	-11.95
298.593	-44.71
298.807	8.53
299.022	20.82
299.236	65.88
299.451	2.39
299.665	-24.23
299.88	76.12
300.094	-13.99
300.309	104.79
300.523	-42.67
300.737	35.16
300.952	18.77
301.166	69.97
301.381	-5.8
301.595	-22.19
301.809	61.78
302.024	125.27
302.238	18.77
302.452	55.64
302.667	35.16
302.881	80.21
303.095	2.39
303.309	55.64
303.524	45.4
303.738	74.07
303.952	106.84
304.166	10.58
304.381	-44.71
304.595	37.2
304.809	-5.8
305.023	14.68
305.237	-52.91
305.452	14.68
305.666	39.25
305.88	84.31
306.094	16.73
306.308	14.68
306.522	80.21
306.736	53.59
306.95	4.44
307.164	6.49
307.379	-20.14
307.593	41.3
307.807	133.46
308.021	39.25
308.235	74.07
308.449	6.49
308.663	-48.81
308.877	69.97
309.091	49.49
309.305	67.92
309.519	59.73
309.733	43.35
309.947	-30.38
310.161	69.97
310.374	12.63
310.588	133.46
310.802	8.53
311.016	8.53
311.23	47.44
311.444	-3.75
311.658	18.77
311.872	22.87
312.085	41.3
312.299	55.64
312.513	86.36
312.727	-36.52
312.941	6.49
313.154	22.87
313.368	61.78
313.582	74.07
313.796	63.83
314.009	57.68
314.223	-7.85
314.437	0.34
314.651	57.68
314.864	55.64
315.078	67.92
315.292	18.77
315.505	33.11
315.719	82.26
315.933	0.34
316.146	-61.1
316.36	100.69
316.573	61.78
316.787	78.16
317.001	119.12
317.214	24.92
317.428	90.45
317.641	-3.75
317.855	6.49
318.068	26.96
318.282	37.2
318.495	90.45
318.709	74.07
318.922	-24.23
319.136	82.26
319.349	24.92
319.563	-7.85
319.776	65.88
319.99	59.73
320.203	39.25
320.417	14.68
320.63	74.07
320.843	110.93
321.057	31.06
321.27	74.07
321.483	14.68
321.697	-7.85
321.91	-36.52
322.124	57.68
322.337	123.22
322.55	37.2
322.763	84.31
322.977	24.92
323.19	100.69
323.403	6.49
323.617	61.78
323.83	2.39
324.043	35.16
324.256	45.4
324.469	10.58
324.683	6.49
324.896	80.21
325.109	39.25
325.322	-1.71
325.535	65.88
325.748	18.77
325.962	59.73
326.175	-24.23
326.388	67.92
326.601	51.54
326.814	65.88
327.027	65.88
327.24	69.97
327.453	35.16
327.666	96.6
327.879	8.53
328.092	-26.28
328.305	26.96
328.518	39.25
328.731	47.44
328.944	94.55
329.157	-42.67
329.37	2.39
329.583	162.13
329.796	67.92
330.009	69.97
330.222	72.02
330.435	41.3
330.648	63.83
330.861	61.78
331.073	53.59
331.286	-1.71
331.499	49.49
331.712	-32.43
331.925	10.58
332.138	49.49
332.35	-24.23
332.563	26.96
332.776	72.02
332.989	20.82
333.202	-9.9
333.414	24.92
333.627	2.39
333.84	-3.75
334.053	61.78
334.265	20.82
334.478	47.44
334.691	49.49
334.903	78.16
335.116	33.11
335.329	8.53
335.541	-1.71
335.754	121.17
335.966	16.73
336.179	22.87
336.392	8.53
336.604	-16.04
336.817	-5.8
337.029	39.25
337.242	41.3
337.454	16.73
337.667	14.68
337.88	78.16
338.092	45.4
338.305	41.3
338.517	63.83
338.729	53.59
338.942	74.07
339.154	59.73
339.367	8.53
339.579	74.07
339.792	2.39
340.004	47.44
340.217	78.16
340.429	22.87
340.641	18.77
340.854	-13.99
341.066	53.59
341.278	94.55
341.491	57.68
341.703	72.02
341.915	57.68
342.128	67.92
342.34	45.4
342.552	80.21
342.764	76.12
342.977	80.21
343.189	49.49
343.401	-16.04
343.613	-32.43
343.826	31.06
344.038	112.98
344.25	-40.62
344.462	4.44
344.674	96.6
344.886	55.64
345.099	-79.53
345.311	80.21
345.523	33.11
345.735	-48.81
345.947	69.97
346.159	8.53
346.371	-7.85
346.583	-13.99
346.795	20.82
347.007	31.06
347.219	72.02
347.431	39.25
347.643	18.77
347.855	8.53
348.067	59.73
348.279	90.45
348.491	55.64
348.703	127.32
348.915	41.3
349.127	74.07
349.339	39.25
349.551	26.96
349.763	94.55
349.975	18.77
350.187	67.92
350.399	86.36
350.61	-9.9
350.822	47.44
351.034	108.88
351.246	133.46
351.458	90.45
351.669	45.4
351.881	53.59
352.093	29.01
352.305	119.12
352.517	26.96
352.728	24.92
352.94	-22.19
353.152	94.55
353.363	35.16
353.575	104.79
353.787	86.36
353.999	10.58
354.21	65.88
354.422	24.92
354.633	20.82
354.845	41.3
355.057	14.68
355.268	12.63
355.48	55.64
355.692	18.77
355.903	43.35
356.115	35.16
356.326	24.92
356.538	55.64
356.749	69.97
356.961	59.73
357.172	125.27
357.384	90.45
357.595	168.27
357.807	80.21
358.018	49.49
358.23	53.59
358.441	41.3
358.653	43.35
358.864	47.44
359.075	2.39
359.287	16.73
359.498	4.44
359.709	26.96
359.921	127.32
360.132	49.49
360.344	78.16
360.555	-11.95
360.766	4.44
360.977	69.97
361.189	57.68
361.4	108.88
361.611	63.83
361.823	69.97
362.034	94.55
362.245	53.59
362.456	31.06
362.667	45.4
362.879	160.08
363.09	-44.71
363.301	53.59
363.512	-9.9
363.723	16.73
363.935	8.53
364.146	43.35
364.357	98.64
364.568	78.16
364.779	37.2
364.99	76.12
365.201	16.73
365.412	67.92
365.623	14.68
365.834	-22.19
366.045	166.23
366.256	37.2
366.467	94.55
366.678	67.92
366.889	53.59
367.1	31.06
367.311	53.59
367.522	78.16
367.733	39.25
367.944	65.88
368.155	-3.75
368.366	115.03
368.577	119.12
368.788	78.16
368.999	76.12
369.209	29.01
369.42	112.98
369.631	49.49
369.842	51.54
370.053	20.82
370.264	182.61
370.474	98.64
370.685	-36.52
370.896	33.11
371.107	61.78
371.317	35.16
371.528	67.92
371.739	55.64
371.95	59.73
372.16	-3.75
372.371	45.4
372.582	4.44
372.792	51.54
373.003	82.26
373.214	45.4
373.424	88.4
373.635	39.25
373.846	26.96
374.056	20.82
374.267	12.63
374.477	8.53
374.688	59.73
374.898	35.16
375.109	149.84
375.319	57.68
375.53	72.02
375.74	47.44
375.951	96.6
376.161	106.84
376.372	37.2
376.582	-32.43
376.793	69.97
377.003	88.4
377.214	133.46
377.424	63.83
377.635	61.78
377.845	59.73
378.055	22.87
378.266	108.88
378.476	82.26
378.686	10.58
378.897	88.4
379.107	-3.75
379.317	45.4
379.528	51.54
379.738	65.88
379.948	102.74
380.158	92.5
380.369	117.08
380.579	65.88
380.789	92.5
380.999	96.6
381.21	16.73
381.42	139.6
381.63	90.45
381.84	69.97
382.05	92.5
382.261	115.03
382.471	47.44
382.681	74.07
382.891	104.79
383.101	69.97
383.311	35.16
383.521	35.16
383.731	59.73
383.941	82.26
384.151	86.36
384.361	33.11
384.571	84.31
384.781	82.26
384.991	104.79
385.201	119.12
385.411	149.84
385.621	51.54
385.831	53.59
386.041	100.69
386.251	-26.28
386.461	51.54
386.671	-34.47
386.881	51.54
387.091	69.97
387.301	69.97
387.511	55.64
387.72	104.79
387.93	63.83
388.14	37.2
388.35	31.06
388.56	106.84
388.769	115.03
388.979	49.49
389.189	49.49
389.399	26.96
389.609	125.27
389.818	92.5
390.028	57.68
390.238	153.94
390.447	67.92
390.657	115.03
390.867	67.92
391.076	96.6
391.286	47.44
391.496	88.4
391.705	53.59
391.915	80.21
392.125	119.12
392.334	12.63
392.544	65.88
392.753	53.59
392.963	88.4
393.172	137.56
393.382	51.54
393.591	41.3
393.801	55.64
394.01	84.31
394.22	65.88
394.429	69.97
394.639	86.36
394.848	96.6
395.058	80.21
395.267	155.99
395.477	53.59
395.686	76.12
395.895	106.84
396.105	-1.71
396.314	133.46
396.524	164.18
396.733	98.64
396.942	123.22
397.152	104.79
397.361	170.32
397.57	49.49
397.78	162.13
397.989	135.51
398.198	153.94
398.407	104.79
398.617	121.17
398.826	53.59
399.035	131.41
399.244	153.94
399.453	115.03
399.663	53.59
399.872	110.93
400.081	88.4
400.29	86.36
400.499	164.18
400.708	61.78
400.917	22.87
401.127	133.46
401.336	41.3
401.545	254.29
401.754	207.19
401.963	149.84
402.172	190.8
402.381	117.08
402.59	100.69
402.799	76.12
403.008	135.51
403.217	129.36
403.426	135.51
403.635	123.22
403.844	203.09
404.053	112.98
404.262	143.7
404.471	186.71
404.68	172.37
404.888	131.41
405.097	198.99
405.306	186.71
405.515	153.94
405.724	186.71
405.933	190.8
406.142	112.98
406.35	180.56
406.559	164.18
406.768	174.42
406.977	223.57
407.185	258.39
407.394	274.77
407.603	229.71
407.812	274.77
408.02	252.24
408.229	250.19
408.438	237.91
408.646	215.38
408.855	301.39
409.064	319.82
409.272	262.48
409.481	330.06
409.69	215.38
409.898	305.49
410.107	364.88
410.315	336.21
410.524	403.79
410.733	467.28
410.941	364.88
411.15	514.38
411.358	438.61
411.567	510.29
411.775	432.46
411.984	459.09
412.192	518.48
412.401	520.53
412.609	489.81
412.818	573.77
413.026	635.21
413.234	598.35
413.443	538.96
413.651	606.54
413.86	639.31
414.068	702.79
414.276	588.11
414.485	717.13
414.693	756.04
414.901	745.8
415.11	778.57
415.318	815.43
415.526	821.58
415.734	919.88
415.943	934.22
416.151	971.08
416.359	928.07
416.567	1016.13
416.776	1016.13
416.984	1079.62
417.192	1077.57
417.4	1106.24
417.608	1165.64
417.817	1237.31
418.025	1171.78
418.233	1339.71
418.441	1272.13
418.649	1444.16
418.857	1470.78
419.065	1558.85
419.273	1431.87
419.481	1632.57
419.689	1616.19
419.897	1798.46
420.105	1780.03
420.313	1763.64
420.521	1872.18
420.729	1857.85
420.937	1995.06
421.145	1982.78
421.353	2201.91
421.561	2224.44
421.769	2371.89
421.977	2357.55
422.185	2363.7
422.393	2560.3
422.601	2701.61
422.809	2615.6
423.017	2677.04
423.224	2720.04
423.432	2875.69
423.64	2875.69
423.848	3189.03
424.056	3217.7
424.263	3309.86
424.471	3430.69
424.679	3399.97
424.887	3541.28
425.094	3756.32
425.302	3741.98
425.51	3895.58
425.718	4020.5
425.925	4047.13
426.133	4149.53
426.341	4450.58
426.548	4452.63
426.756	4686.09
426.964	4616.46
427.171	4952.33
427.379	5071.11
427.586	5318.92
427.794	5445.89
428.001	5654.78
428.209	5783.81
428.417	5599.49
428.624	5935.35
428.832	6113.53
429.039	6025.47
429.247	6203.64
429.454	6721.77
429.662	7114.98
429.869	6842.6
430.076	7237.86
430.284	6842.6
430.491	7235.81
430.699	7616.74
430.906	7700.7
431.114	7753.95
431.321	8294.61
431.528	8392.92
431.736	8757.46
431.943	9167.05
432.15	8827.09
432.358	8886.48
432.565	9496.77
432.772	9607.36
432.979	10084.54
433.187	10199.23
433.394	10416.31
433.601	10840.24
433.808	11180.2
434.016	10694.83
434.223	11329.7
434.43	11993.25
434.637	11997.34
434.844	12495
435.052	12972.18
435.259	12486.81
435.466	12693.65
435.673	12771.47
435.88	13529.22
436.087	14514.3
436.294	14393.47
436.501	13951.1
436.708	14200.96
436.915	14825.59
437.122	15368.3
437.329	15245.42
437.537	15843.43
437.743	16425.05
437.95	16257.12
438.157	17125.46
438.364	17344.59
438.571	17473.61
438.778	17461.32
438.985	19241.01
439.192	18352.19
439.399	19050.55
439.606	18436.16
439.813	19439.66
440.02	20656.15
440.227	20725.79
440.433	20363.29
440.64	21018.64
440.847	20668.44
441.054	21192.72
441.261	22792.19
441.467	22374.4
441.674	22941.69
441.881	24061.93
442.088	23711.72
442.294	23848.94
442.501	24082.41
442.708	24633.31
442.914	25546.7
443.121	26828.73
443.328	26087.37
443.534	28047.27
443.741	27207.61
443.948	26781.63
444.154	28856.22
444.361	28475.3
444.568	28377
444.774	28829.6
444.981	29187.99
445.187	29994.89
445.394	31541.11
445.6	31072.12
445.807	33886.03
446.013	32610.15
446.22	32862.05
446.426	34772.8
446.633	34512.71
446.839	36144.94
447.046	34262.86
447.252	36468.52
447.459	36253.48
447.665	36233
447.871	38078.22
448.078	39554.81
448.284	37515.03
448.491	38582.02
448.697	40173.3
448.903	40519.4
449.11	41119.46
449.316	40412.91
449.522	41025.25
449.728	42315.47
449.935	42643.15
450.141	42577.61
450.347	43583.16
450.553	42051.28
450.76	42727.11
450.966	44039.86
451.172	43538.11
451.378	44707.5
451.584	44076.72
451.791	45053.61
451.997	44758.7
452.203	45762.2
452.409	45452.96
452.615	45143.72
452.821	43325.12
453.027	43056.84
453.233	45842.07
453.44	43902.65
453.646	44461.74
453.852	44873.38
454.058	45096.61
454.264	43613.88
454.47	44953.26
454.676	43472.57
454.882	45407.9
455.088	41281.25
455.294	42159.83
455.5	42497.74
455.705	42989.25
455.911	41408.22
456.117	40785.64
456.323	40054.51
456.529	37932.82
456.735	39855.86
456.941	38594.31
457.147	38082.32
457.352	37160.73
457.558	36800.29
457.764	36515.62
457.97	36138.8
458.176	34930.5
458.381	35430.2
458.587	33730.39
458.793	33836.88
458.999	32065.39
459.204	34027.34
459.41	33019.74
459.616	31045.5
459.821	30898.05
460.027	30961.53
460.233	30082.95
460.438	28641.18
460.644	29101.98
460.85	27496.37
461.055	27328.44
461.261	27400.12
461.466	25229.27
461.672	24657.89
461.878	26345.41
462.083	24547.29
462.289	24180.71
462.494	23934.95
462.7	22837.24
462.905	22198.27
463.111	22962.17
463.316	22980.6
463.522	22671.36
463.727	22720.51
463.932	22683.64
464.138	22106.12
464.343	22304.77
464.549	21811.21
464.754	22331.39
464.959	22329.34
465.165	21745.67
465.37	21092.37
465.575	20877.33
465.781	21317.65
465.986	21581.84
466.191	20719.64
466.397	20516.89
466.602	19308.59
466.807	20383.77
467.012	20281.38
467.218	19884.07
467.423	19814.44
467.628	20135.97
