Data from USB4F104151__15__12-27-02-816.txt Node

Date: Fri Mar 14 12:27:02 EDT 2025
User: louis
Spectrometer: USB4F10415
Trigger mode: 4
Integration Time (sec): 2.000000E-2
Scans to average: 1
Electric dark correction enabled: true
Nonlinearity correction enabled: false
Boxcar width: 0
XAxis mode: Wavelengths
Number of Pixels in Spectrum: 3648
>>>>>Begin Spectral Data<<<<<
178.204	-90.45
178.424	-90.45
178.644	-90.45
178.864	-110.93
179.084	-35.16
179.304	-53.59
179.524	16.04
179.744	-37.2
179.964	3.75
180.184	-43.35
180.404	5.8
180.624	48.81
180.844	3.75
181.064	77.48
181.283	-51.54
181.503	-20.82
181.723	50.86
181.943	-6.49
182.163	118.44
182.383	-6.49
182.602	75.43
182.822	-0.34
183.042	83.63
183.262	38.57
183.482	20.14
183.701	-24.92
183.921	20.14
184.141	3.75
184.361	24.23
184.58	32.43
184.8	-0.34
185.02	7.85
185.239	20.14
185.459	22.19
185.679	69.29
185.898	63.15
186.118	89.77
186.338	32.43
186.557	75.43
186.777	3.75
186.997	13.99
187.216	-12.63
187.436	63.15
187.655	30.38
187.875	42.67
188.095	-6.49
188.314	73.39
188.534	81.58
188.753	-6.49
188.973	24.23
189.192	87.72
189.412	69.29
189.631	50.86
189.851	22.19
190.07	52.91
190.29	18.09
190.509	26.28
190.729	9.9
190.948	73.39
191.168	87.72
191.387	75.43
191.607	-18.77
191.826	67.24
192.045	28.33
192.265	28.33
192.484	5.8
192.704	30.38
192.923	-4.44
193.142	118.44
193.362	38.57
193.581	89.77
193.8	95.91
194.02	69.29
194.239	7.85
194.458	20.14
194.678	44.71
194.897	-0.34
195.116	65.19
195.335	40.62
195.555	71.34
195.774	-29.01
195.993	-10.58
196.212	22.19
196.432	-43.35
196.651	1.71
196.87	34.47
197.089	75.43
197.308	69.29
197.528	48.81
197.747	93.87
197.966	-16.73
198.185	61.1
198.404	-14.68
198.623	26.28
198.842	40.62
199.062	63.15
199.281	42.67
199.5	-0.34
199.719	24.23
199.938	5.8
200.157	63.15
200.376	63.15
200.595	85.67
200.814	46.76
201.033	24.23
201.252	54.95
201.471	57
201.69	59.05
201.909	24.23
202.128	-67.92
202.347	138.92
202.566	-53.59
202.785	28.33
203.004	9.9
203.223	32.43
203.442	30.38
203.661	48.81
203.879	20.14
204.098	-12.63
204.317	13.99
204.536	30.38
204.755	28.33
204.974	13.99
205.193	28.33
205.411	93.87
205.63	32.43
205.849	93.87
206.068	30.38
206.287	-43.35
206.505	104.11
206.724	42.67
206.943	57
207.162	71.34
207.381	67.24
207.599	-18.77
207.818	28.33
208.037	54.95
208.255	75.43
208.474	71.34
208.693	46.76
208.911	-8.53
209.13	18.09
209.349	26.28
209.567	57
209.786	93.87
210.005	110.25
210.223	20.14
210.442	-26.96
210.661	-2.39
210.879	63.15
211.098	59.05
211.316	11.95
211.535	-4.44
211.753	34.47
211.972	40.62
212.191	93.87
212.409	13.99
212.628	77.48
212.846	-0.34
213.065	3.75
213.283	67.24
213.502	112.3
213.72	104.11
213.938	89.77
214.157	1.71
214.375	34.47
214.594	46.76
214.812	54.95
215.031	50.86
215.249	9.9
215.467	50.86
215.686	20.14
215.904	59.05
216.122	54.95
216.341	85.67
216.559	75.43
216.778	97.96
216.996	69.29
217.214	1.71
217.432	-0.34
217.651	54.95
217.869	-16.73
218.087	69.29
218.306	38.57
218.524	44.71
218.742	-12.63
218.96	50.86
219.179	57
219.397	69.29
219.615	34.47
219.833	67.24
220.051	32.43
220.27	34.47
220.488	89.77
220.706	69.29
220.924	1.71
221.142	36.52
221.36	-12.63
221.578	89.77
221.796	16.04
222.015	161.45
222.233	9.9
222.451	22.19
222.669	13.99
222.887	40.62
223.105	9.9
223.323	28.33
223.541	46.76
223.759	7.85
223.977	26.28
224.195	77.48
224.413	-24.92
224.631	34.47
224.849	38.57
225.067	18.09
225.285	-20.82
225.503	22.19
225.721	-35.16
225.939	67.24
226.157	22.19
226.375	136.87
226.592	54.95
226.81	-24.92
227.028	36.52
227.246	69.29
227.464	30.38
227.682	40.62
227.9	24.23
228.117	63.15
228.335	5.8
228.553	69.29
228.771	-6.49
228.989	20.14
229.206	-39.25
229.424	-16.73
229.642	-20.82
229.86	-0.34
230.077	40.62
230.295	65.19
230.513	57
230.731	75.43
230.948	59.05
231.166	46.76
231.384	-0.34
231.601	52.91
231.819	44.71
232.037	28.33
232.254	9.9
232.472	34.47
232.689	71.34
232.907	16.04
233.125	30.38
233.342	59.05
233.56	18.09
233.777	-26.96
233.995	59.05
234.213	44.71
234.43	63.15
234.648	87.72
234.865	134.82
235.083	30.38
235.3	34.47
235.518	65.19
235.735	81.58
235.953	42.67
236.17	32.43
236.388	24.23
236.605	-20.82
236.822	126.63
237.04	7.85
237.257	42.67
237.475	-76.12
237.692	22.19
237.909	59.05
238.127	30.38
238.344	110.25
238.562	145.06
238.779	65.19
238.996	13.99
239.214	48.81
239.431	46.76
239.648	-20.82
239.865	16.04
240.083	26.28
240.3	75.43
240.517	50.86
240.735	116.39
240.952	116.39
241.169	-10.58
241.386	57
241.603	13.99
241.821	22.19
242.038	28.33
242.255	48.81
242.472	9.9
242.689	85.67
242.907	91.82
243.124	-0.34
243.341	20.14
243.558	-8.53
243.775	3.75
243.992	18.09
244.209	77.48
244.426	73.39
244.643	46.76
244.86	59.05
245.078	3.75
245.295	11.95
245.512	42.67
245.729	38.57
245.946	9.9
246.163	57
246.38	9.9
246.597	40.62
246.814	36.52
247.031	44.71
247.248	102.06
247.464	77.48
247.681	7.85
247.898	18.09
248.115	40.62
248.332	48.81
248.549	120.49
248.766	89.77
248.983	26.28
249.2	63.15
249.417	36.52
249.633	5.8
249.85	73.39
250.067	-4.44
250.284	40.62
250.501	81.58
250.717	75.43
250.934	11.95
251.151	75.43
251.368	46.76
251.585	32.43
251.801	-59.73
252.018	-6.49
252.235	28.33
252.451	40.62
252.668	40.62
252.885	93.87
253.102	57
253.318	63.15
253.535	143.02
253.752	24.23
253.968	-4.44
254.185	-6.49
254.401	13.99
254.618	65.19
254.835	34.47
255.051	75.43
255.268	67.24
255.484	-14.68
255.701	22.19
255.917	65.19
256.134	13.99
256.351	-4.44
256.567	7.85
256.784	75.43
257	65.19
257.217	-18.77
257.433	-6.49
257.65	67.24
257.866	44.71
258.082	-8.53
258.299	167.59
258.515	42.67
258.732	42.67
258.948	69.29
259.165	145.06
259.381	34.47
259.597	100.01
259.814	34.47
260.03	26.28
260.246	20.14
260.463	34.47
260.679	138.92
260.895	48.81
261.112	22.19
261.328	44.71
261.544	24.23
261.761	100.01
261.977	65.19
262.193	75.43
262.409	1.71
262.626	81.58
262.842	18.09
263.058	57
263.274	61.1
263.49	85.67
263.707	-14.68
263.923	34.47
264.139	-8.53
264.355	20.14
264.571	81.58
264.787	-26.96
265.004	50.86
265.22	155.3
265.436	32.43
265.652	-39.25
265.868	75.43
266.084	38.57
266.3	26.28
266.516	-22.87
266.732	40.62
266.948	46.76
267.164	36.52
267.38	20.14
267.596	11.95
267.812	134.82
268.028	38.57
268.244	-12.63
268.46	54.95
268.676	-41.3
268.892	95.91
269.108	-16.73
269.324	18.09
269.54	28.33
269.756	52.91
269.972	81.58
270.188	11.95
270.403	32.43
270.619	75.43
270.835	-2.39
271.051	38.57
271.267	42.67
271.483	118.44
271.698	26.28
271.914	130.73
272.13	69.29
272.346	-41.3
272.562	44.71
272.777	30.38
272.993	38.57
273.209	67.24
273.425	83.63
273.64	18.09
273.856	54.95
274.072	50.86
274.287	-12.63
274.503	67.24
274.719	30.38
274.934	65.19
275.15	44.71
275.366	44.71
275.581	-10.58
275.797	71.34
276.012	-29.01
276.228	11.95
276.444	3.75
276.659	46.76
276.875	24.23
277.09	34.47
277.306	18.09
277.521	9.9
277.737	-14.68
277.952	36.52
278.168	38.57
278.383	-16.73
278.599	110.25
278.814	102.06
279.03	42.67
279.245	50.86
279.461	24.23
279.676	-47.44
279.892	50.86
280.107	44.71
280.322	67.24
280.538	118.44
280.753	26.28
280.969	59.05
281.184	50.86
281.399	108.2
281.615	32.43
281.83	77.48
282.045	46.76
282.26	-12.63
282.476	59.05
282.691	16.04
282.906	65.19
283.122	77.48
283.337	32.43
283.552	79.53
283.767	-35.16
283.983	54.95
284.198	52.91
284.413	28.33
284.628	-24.92
284.843	-24.92
285.058	34.47
285.274	79.53
285.489	22.19
285.704	83.63
285.919	83.63
286.134	81.58
286.349	95.91
286.564	32.43
286.779	54.95
286.995	85.67
287.21	-16.73
287.425	91.82
287.64	42.67
287.855	57
288.07	-18.77
288.285	50.86
288.5	77.48
288.715	38.57
288.93	97.96
289.145	83.63
289.36	130.73
289.575	79.53
289.79	52.91
290.004	61.1
290.219	-6.49
290.434	28.33
290.649	-4.44
290.864	-2.39
291.079	-12.63
291.294	73.39
291.509	79.53
291.724	108.2
291.938	9.9
292.153	36.52
292.368	57
292.583	57
292.798	50.86
293.012	-2.39
293.227	69.29
293.442	112.3
293.657	112.3
293.871	81.58
294.086	57
294.301	93.87
294.516	59.05
294.73	42.67
294.945	52.91
295.16	93.87
295.374	-10.58
295.589	77.48
295.804	20.14
296.018	42.67
296.233	26.28
296.447	16.04
296.662	40.62
296.877	151.21
297.091	3.75
297.306	52.91
297.52	22.19
297.735	-0.34
297.949	54.95
298.164	106.15
298.378	-8.53
298.593	20.14
298.807	30.38
299.022	44.71
299.236	16.04
299.451	69.29
299.665	69.29
299.88	-4.44
300.094	3.75
300.309	-16.73
300.523	54.95
300.737	-12.63
300.952	16.04
301.166	9.9
301.381	-6.49
301.595	73.39
301.809	-4.44
302.024	126.63
302.238	65.19
302.452	40.62
302.667	7.85
302.881	79.53
303.095	32.43
303.309	16.04
303.524	48.81
303.738	-26.96
303.952	52.91
304.166	63.15
304.381	71.34
304.595	110.25
304.809	16.04
305.023	85.67
305.237	32.43
305.452	67.24
305.666	61.1
305.88	75.43
306.094	63.15
306.308	57
306.522	69.29
306.736	34.47
306.95	22.19
307.164	32.43
307.379	32.43
307.593	61.1
307.807	30.38
308.021	11.95
308.235	28.33
308.449	5.8
308.663	112.3
308.877	32.43
309.091	67.24
309.305	59.05
309.519	57
309.733	50.86
309.947	7.85
310.161	81.58
310.374	83.63
310.588	26.28
310.802	20.14
311.016	36.52
311.23	-8.53
311.444	9.9
311.658	36.52
311.872	79.53
312.085	100.01
312.299	77.48
312.513	34.47
312.727	108.2
312.941	36.52
313.154	69.29
313.368	63.15
313.582	57
313.796	147.11
314.009	11.95
314.223	28.33
314.437	77.48
314.651	38.57
314.864	44.71
315.078	87.72
315.292	34.47
315.505	46.76
315.719	87.72
315.933	28.33
316.146	69.29
316.36	95.91
316.573	81.58
316.787	52.91
317.001	59.05
317.214	40.62
317.428	67.24
317.641	57
317.855	16.04
318.068	57
318.282	91.82
318.495	61.1
318.709	36.52
318.922	93.87
319.136	59.05
319.349	44.71
319.563	36.52
319.776	134.82
319.99	22.19
320.203	97.96
320.417	34.47
320.63	73.39
320.843	52.91
321.057	188.07
321.27	73.39
321.483	89.77
321.697	120.49
321.91	3.75
322.124	24.23
322.337	100.01
322.55	-6.49
322.763	48.81
322.977	40.62
323.19	32.43
323.403	100.01
323.617	77.48
323.83	118.44
324.043	-6.49
324.256	73.39
324.469	52.91
324.683	171.69
324.896	108.2
325.109	63.15
325.322	-14.68
325.535	46.76
325.748	38.57
325.962	54.95
326.175	57
326.388	32.43
326.601	61.1
326.814	52.91
327.027	-10.58
327.24	91.82
327.453	-49.49
327.666	93.87
327.879	26.28
328.092	57
328.305	108.2
328.518	13.99
328.731	71.34
328.944	46.76
329.157	11.95
329.37	87.72
329.583	83.63
329.796	110.25
330.009	81.58
330.222	-4.44
330.435	85.67
330.648	57
330.861	38.57
331.073	95.91
331.286	71.34
331.499	77.48
331.712	-6.49
331.925	46.76
332.138	16.04
332.35	112.3
332.563	52.91
332.776	26.28
332.989	5.8
333.202	24.23
333.414	36.52
333.627	34.47
333.84	100.01
334.053	48.81
334.265	48.81
334.478	44.71
334.691	63.15
334.903	42.67
335.116	1.71
335.329	71.34
335.541	71.34
335.754	128.68
335.966	26.28
336.179	26.28
336.392	28.33
336.604	69.29
336.817	93.87
337.029	97.96
337.242	24.23
337.454	77.48
337.667	38.57
337.88	100.01
338.092	30.38
338.305	50.86
338.517	54.95
338.729	93.87
338.942	95.91
339.154	26.28
339.367	11.95
339.579	-37.2
339.792	59.05
340.004	69.29
340.217	57
340.429	100.01
340.641	108.2
340.854	36.52
341.066	20.14
341.278	22.19
341.491	63.15
341.703	46.76
341.915	1.71
342.128	151.21
342.34	59.05
342.552	11.95
342.764	50.86
342.977	22.19
343.189	38.57
343.401	42.67
343.613	18.09
343.826	132.78
344.038	-0.34
344.25	132.78
344.462	-2.39
344.674	116.39
344.886	54.95
345.099	122.54
345.311	63.15
345.523	59.05
345.735	11.95
345.947	-6.49
346.159	3.75
346.371	89.77
346.583	13.99
346.795	69.29
347.007	32.43
347.219	-14.68
347.431	63.15
347.643	77.48
347.855	97.96
348.067	71.34
348.279	42.67
348.491	97.96
348.703	18.09
348.915	-2.39
349.127	-0.34
349.339	1.71
349.551	34.47
349.763	97.96
349.975	42.67
350.187	87.72
350.399	63.15
350.61	34.47
350.822	73.39
351.034	34.47
351.246	106.15
351.458	73.39
351.669	28.33
351.881	69.29
352.093	118.44
352.305	75.43
352.517	59.05
352.728	81.58
352.94	34.47
353.152	114.34
353.363	67.24
353.575	11.95
353.787	40.62
353.999	59.05
354.21	48.81
354.422	102.06
354.633	75.43
354.845	83.63
355.057	36.52
355.268	79.53
355.48	24.23
355.692	32.43
355.903	100.01
356.115	79.53
356.326	-74.07
356.538	59.05
356.749	40.62
356.961	140.97
357.172	40.62
357.384	-72.02
357.595	40.62
357.807	57
358.018	67.24
358.23	100.01
358.441	93.87
358.653	50.86
358.864	-0.34
359.075	-4.44
359.287	18.09
359.498	22.19
359.709	112.3
359.921	40.62
360.132	73.39
360.344	59.05
360.555	42.67
360.766	79.53
360.977	13.99
361.189	124.58
361.4	77.48
361.611	100.01
361.823	89.77
362.034	122.54
362.245	-67.92
362.456	79.53
362.667	81.58
362.879	54.95
363.09	77.48
363.301	93.87
363.512	95.91
363.723	40.62
363.935	28.33
364.146	87.72
364.357	9.9
364.568	50.86
364.779	36.52
364.99	120.49
365.201	114.34
365.412	54.95
365.623	32.43
365.834	108.2
366.045	24.23
366.256	69.29
366.467	11.95
366.678	44.71
366.889	-12.63
367.1	59.05
367.311	3.75
367.522	32.43
367.733	116.39
367.944	71.34
368.155	61.1
368.366	120.49
368.577	52.91
368.788	36.52
368.999	112.3
369.209	52.91
369.42	104.11
369.631	114.34
369.842	28.33
370.053	22.19
370.264	128.68
370.474	26.28
370.685	69.29
370.896	42.67
371.107	122.54
371.317	38.57
371.528	-39.25
371.739	81.58
371.95	57
372.16	77.48
372.371	30.38
372.582	-14.68
372.792	38.57
373.003	93.87
373.214	36.52
373.424	73.39
373.635	77.48
373.846	73.39
374.056	63.15
374.267	18.09
374.477	79.53
374.688	71.34
374.898	48.81
375.109	73.39
375.319	73.39
375.53	159.4
375.74	102.06
375.951	118.44
376.161	77.48
376.372	-4.44
376.582	138.92
376.793	89.77
377.003	13.99
377.214	38.57
377.424	40.62
377.635	16.04
377.845	91.82
378.055	163.5
378.266	63.15
378.476	28.33
378.686	-47.44
378.897	85.67
379.107	87.72
379.317	73.39
379.528	1.71
379.738	89.77
379.948	85.67
380.158	63.15
380.369	57
380.579	87.72
380.789	77.48
380.999	46.76
381.21	120.49
381.42	114.34
381.63	-4.44
381.84	83.63
382.05	87.72
382.261	71.34
382.471	65.19
382.681	85.67
382.891	24.23
383.101	61.1
383.311	65.19
383.521	69.29
383.731	52.91
383.941	85.67
384.151	75.43
384.361	50.86
384.571	108.2
384.781	38.57
384.991	128.68
385.201	132.78
385.411	85.67
385.621	91.82
385.831	71.34
386.041	108.2
386.251	63.15
386.461	134.82
386.671	-12.63
386.881	46.76
387.091	73.39
387.301	116.39
387.511	26.28
387.72	145.06
387.93	34.47
388.14	36.52
388.35	83.63
388.56	85.67
388.769	112.3
388.979	61.1
389.189	97.96
389.399	26.28
389.609	77.48
389.818	126.63
390.028	81.58
390.238	40.62
390.447	100.01
390.657	28.33
390.867	40.62
391.076	93.87
391.286	30.38
391.496	128.68
391.705	93.87
391.915	108.2
392.125	128.68
392.334	79.53
392.544	83.63
392.753	194.22
392.963	34.47
393.172	83.63
393.382	97.96
393.591	114.34
393.801	83.63
394.01	89.77
394.22	30.38
394.429	112.3
394.639	42.67
394.848	128.68
395.058	57
395.267	110.25
395.477	79.53
395.686	93.87
395.895	188.07
396.105	173.74
396.314	104.11
396.524	69.29
396.733	145.06
396.942	210.6
397.152	116.39
397.361	108.2
397.57	132.78
397.78	114.34
397.989	100.01
398.198	151.21
398.407	97.96
398.617	153.26
398.826	140.97
399.035	95.91
399.244	63.15
399.453	122.54
399.663	114.34
399.872	159.4
400.081	106.15
400.29	130.73
400.499	116.39
400.708	214.7
400.917	118.44
401.127	44.71
401.336	89.77
401.545	181.93
401.754	145.06
401.963	138.92
402.172	149.16
402.381	181.93
402.59	167.59
402.799	153.26
403.008	120.49
403.217	126.63
403.426	173.74
403.635	116.39
403.844	214.7
404.053	157.35
404.262	263.85
404.471	206.5
404.68	200.36
404.888	149.16
405.097	169.64
405.306	190.12
405.515	216.74
405.724	202.41
405.933	194.22
406.142	239.27
406.35	188.07
406.559	241.32
406.768	138.92
406.977	282.28
407.185	323.24
407.394	313
407.603	233.13
407.812	214.7
408.02	278.18
408.229	255.65
408.438	278.18
408.646	321.19
408.855	206.5
409.064	327.33
409.272	237.22
409.481	327.33
409.69	331.43
409.898	382.63
410.107	394.92
410.315	384.68
410.524	296.61
410.733	437.92
410.941	468.64
411.15	462.5
411.358	528.03
411.567	419.49
411.775	519.84
411.984	478.88
412.192	507.55
412.401	497.32
412.609	575.14
412.818	573.09
413.026	585.38
413.234	554.66
413.443	652.96
413.651	792.22
413.86	657.06
414.068	632.48
414.276	757.41
414.485	794.27
414.693	792.22
414.901	829.09
415.11	755.36
415.318	800.41
415.526	845.47
415.734	933.53
415.943	937.63
416.151	978.59
416.359	939.68
416.567	962.2
416.776	1054.36
416.984	1107.61
417.192	1119.9
417.4	1107.61
417.608	1205.91
417.817	1308.31
418.025	1228.44
418.233	1355.41
418.441	1336.98
418.649	1390.23
418.857	1427.09
419.065	1490.58
419.273	1498.77
419.481	1638.03
419.689	1787.54
419.897	1726.1
420.105	1769.1
420.313	1830.54
420.521	1865.36
420.729	1840.78
420.937	1961.61
421.145	2090.63
421.353	2115.21
421.561	2326.15
421.769	2391.69
421.977	2430.6
422.185	2414.21
422.393	2545.28
422.601	2692.74
422.809	2686.59
423.017	2688.64
423.224	2795.14
423.432	2997.88
423.64	2950.78
423.848	3208.83
424.056	3143.29
424.263	3358.33
424.471	3352.18
424.679	3337.85
424.887	3559.03
425.094	3638.9
425.302	3681.91
425.51	3821.17
425.718	3993.2
425.925	4167.28
426.133	4275.82
426.341	4521.57
426.548	4646.5
426.756	4748.9
426.964	4738.66
427.171	5041.76
427.379	5242.46
427.586	5236.31
427.794	5396.06
428.001	5559.89
428.209	5815.89
428.417	5682.77
428.624	6135.37
428.832	6176.33
429.039	6127.18
429.247	6012.49
429.454	6704.71
429.662	7083.58
429.869	6803.01
430.076	7282.24
430.284	7016
430.491	7278.14
430.699	7644.73
430.906	7767.6
431.114	7771.7
431.321	8271.4
431.528	8269.36
431.736	9049.63
431.943	9315.87
432.15	8853.03
432.358	8857.12
432.565	9487.9
432.772	9512.47
432.979	9963.03
433.187	10063.38
433.394	10247.69
433.601	11054.59
433.808	11021.83
434.016	10925.57
434.223	11384.32
434.43	12133.87
434.637	11808.25
434.844	12688.87
435.052	12703.21
435.259	12791.27
435.466	12748.26
435.673	12840.42
435.88	13567.45
436.087	14155.22
436.294	14382.54
436.501	14200.27
436.708	13995.48
436.915	14953.93
437.122	15562.17
437.329	15601.08
437.537	15857.08
437.743	16319.92
437.95	16213.43
438.157	16881.07
438.364	17872.28
438.571	17620.38
438.778	17474.98
438.985	18959.75
439.192	18417.04
439.399	19164.55
439.606	18775.44
439.813	19670.4
440.02	21011.82
440.227	20573.55
440.433	20323.7
440.64	21036.39
440.847	21001.58
441.054	21648.74
441.261	22785.36
441.467	22848.85
441.674	23108.94
441.881	23932.22
442.088	24124.73
442.294	23612.74
442.501	24468.79
442.708	25019.69
442.914	26051.87
443.121	26778.9
443.328	26080.54
443.534	28052.73
443.741	27223.31
443.948	27110.67
444.154	28869.87
444.361	28638.45
444.568	28972.27
444.774	29136.11
444.981	29402.35
445.187	29994.21
445.394	31304.91
445.6	31001.81
445.807	33817.77
446.013	32316.61
446.22	33617.07
446.426	34368.67
446.633	35200.15
446.839	36039.81
447.046	34626.71
447.252	36484.22
447.459	36433.02
447.665	36316.29
447.871	37946.47
448.078	39826.51
448.284	37569.65
448.491	38573.15
448.697	40447.04
448.903	40961.08
449.11	40987.71
449.316	40285.25
449.522	41374.77
449.728	42503.2
449.935	42611.74
450.141	42497.06
450.347	43758.61
450.553	42337.32
450.76	42785.82
450.966	44286.98
451.172	44090.38
451.378	44649.47
451.584	43893.77
451.791	45067.26
451.997	45030.4
452.203	45577.2
452.409	45876.21
452.615	45591.54
452.821	44196.87
453.027	43349.01
453.233	45646.83
453.44	44033.03
453.646	44585.99
453.852	44657.67
454.058	45319.16
454.264	44190.73
454.47	44878.85
454.676	43861.01
454.882	45720.56
455.088	41329.72
455.294	42163.24
455.5	42261.54
455.705	43125.78
455.911	41952.3
456.117	40639.55
456.323	39976.01
456.529	38222.95
456.735	39842.89
456.941	38628.45
457.147	37915.75
457.352	37248.11
457.558	37131.38
457.764	36381.82
457.97	36359.3
458.176	35382.41
458.381	35138.71
458.587	33764.52
458.793	33637.55
458.999	31741.13
459.204	34499.74
459.41	33060.02
459.616	31026.39
459.821	31253.71
460.027	31065.3
460.233	30422.23
460.438	28812.53
460.644	29078.77
460.85	27884.8
461.055	27555.08
461.261	27415.82
461.466	25275.69
461.672	24364.34
461.878	26193.18
462.083	24579.38
462.289	24124.73
462.494	23895.36
462.7	22816.08
462.905	22093.15
463.111	23117.13
463.316	23147.85
463.522	22639.95
463.727	23055.69
463.932	22476.12
464.138	22343
464.343	22355.29
464.549	21744.99
464.754	22297.94
464.959	22838.61
465.165	22293.85
465.37	21284.2
465.575	20634.99
465.781	21353.83
465.986	21740.89
466.191	21175.66
466.397	20577.65
466.602	19393.92
466.807	20082.04
467.012	20190.58
467.218	20079.99
467.423	20008.31
467.628	20315.51
