Data from USB4F104151__18__12-27-05-817.txt Node

Date: Fri Mar 14 12:27:05 EDT 2025
User: louis
Spectrometer: USB4F10415
Trigger mode: 4
Integration Time (sec): 2.000000E-2
Scans to average: 1
Electric dark correction enabled: true
Nonlinearity correction enabled: false
Boxcar width: 0
XAxis mode: Wavelengths
Number of Pixels in Spectrum: 3648
>>>>>Begin Spectral Data<<<<<
178.204	-95.23
178.424	-95.23
178.644	-95.23
178.864	-82.94
179.084	-119.81
179.304	60.42
179.524	1.02
179.744	-13.31
179.964	-35.84
180.184	33.79
180.404	37.89
180.624	-35.84
180.844	1.02
181.064	-33.79
181.283	-27.65
181.503	-9.22
181.723	21.5
181.943	-56.32
182.163	9.22
182.383	-39.94
182.602	39.94
182.822	60.42
183.042	1.02
183.262	-44.03
183.482	44.03
183.701	29.7
183.921	15.36
184.141	-33.79
184.361	5.12
184.58	3.07
184.8	-29.7
185.02	19.46
185.239	21.5
185.459	23.55
185.679	50.18
185.898	-39.94
186.118	1.02
186.338	-1.02
186.557	70.65
186.777	-50.18
186.997	-25.6
187.216	27.65
187.436	-19.46
187.655	-29.7
187.875	113.66
188.095	-27.65
188.314	52.22
188.534	-7.17
188.753	-7.17
188.973	13.31
189.192	25.6
189.412	13.31
189.631	-35.84
189.851	27.65
190.07	9.22
190.29	-113.66
190.509	-27.65
190.729	-58.37
190.948	29.7
191.168	56.32
191.387	27.65
191.607	-97.28
191.826	76.8
192.045	-35.84
192.265	-1.02
192.484	-35.84
192.704	-9.22
192.923	11.26
193.142	25.6
193.362	-5.12
193.581	62.46
193.8	-1.02
194.02	5.12
194.239	-50.18
194.458	-3.07
194.678	11.26
194.897	37.89
195.116	-87.04
195.335	64.51
195.555	-27.65
195.774	-3.07
195.993	56.32
196.212	-58.37
196.432	7.17
196.651	15.36
196.87	3.07
197.089	97.28
197.308	-66.56
197.528	-1.02
197.747	23.55
197.966	-1.02
198.185	-31.74
198.404	29.7
198.623	56.32
198.842	27.65
199.062	66.56
199.281	76.8
199.5	1.02
199.719	-56.32
199.938	1.02
200.157	37.89
200.376	3.07
200.595	80.89
200.814	19.46
201.033	-21.5
201.252	5.12
201.471	103.42
201.69	9.22
201.909	113.66
202.128	1.02
202.347	19.46
202.566	-25.6
202.785	31.74
203.004	-1.02
203.223	27.65
203.442	44.03
203.661	-54.27
203.879	-5.12
204.098	15.36
204.317	-27.65
204.536	5.12
204.755	15.36
204.974	-11.26
205.193	80.89
205.411	39.94
205.63	27.65
205.849	-56.32
206.068	19.46
206.287	33.79
206.505	-7.17
206.724	-1.02
206.943	-68.61
207.162	-15.36
207.381	-48.13
207.599	-44.03
207.818	-23.55
208.037	33.79
208.255	-27.65
208.474	78.85
208.693	27.65
208.911	56.32
209.13	13.31
209.349	33.79
209.567	82.94
209.786	37.89
210.005	54.27
210.223	-60.42
210.442	-70.65
210.661	15.36
210.879	31.74
211.098	72.7
211.316	52.22
211.535	29.7
211.753	37.89
211.972	56.32
212.191	-39.94
212.409	-54.27
212.628	17.41
212.846	48.13
213.065	25.6
213.283	21.5
213.502	-21.5
213.72	-27.65
213.938	13.31
214.157	-15.36
214.375	-31.74
214.594	-17.41
214.812	-93.18
215.031	25.6
215.249	-5.12
215.467	78.85
215.686	-3.07
215.904	58.37
216.122	5.12
216.341	37.89
216.559	-1.02
216.778	13.31
216.996	58.37
217.214	37.89
217.432	-46.08
217.651	-1.02
217.869	-19.46
218.087	41.98
218.306	-19.46
218.524	9.22
218.742	-21.5
218.96	37.89
219.179	-35.84
219.397	-7.17
219.615	7.17
219.833	35.84
220.051	-33.79
220.27	31.74
220.488	17.41
220.706	17.41
220.924	-64.51
221.142	82.94
221.36	-48.13
221.578	11.26
221.796	-3.07
222.015	-19.46
222.233	-39.94
222.451	95.23
222.669	-46.08
222.887	25.6
223.105	-7.17
223.323	29.7
223.541	-60.42
223.759	-33.79
223.977	7.17
224.195	-21.5
224.413	39.94
224.631	-44.03
224.849	-1.02
225.067	-33.79
225.285	-50.18
225.503	-13.31
225.721	-62.46
225.939	84.99
226.157	21.5
226.375	76.8
226.592	87.04
226.81	-1.02
227.028	15.36
227.246	50.18
227.464	-62.46
227.682	-41.98
227.9	-13.31
228.117	54.27
228.335	7.17
228.553	-64.51
228.771	-3.07
228.989	5.12
229.206	48.13
229.424	-27.65
229.642	52.22
229.86	44.03
230.077	-1.02
230.295	-11.26
230.513	-21.5
230.731	37.89
230.948	-54.27
231.166	7.17
231.384	15.36
231.601	-37.89
231.819	84.99
232.037	-15.36
232.254	-46.08
232.472	3.07
232.689	7.17
232.907	15.36
233.125	50.18
233.342	-13.31
233.56	-21.5
233.777	-11.26
233.995	-41.98
234.213	41.98
234.43	35.84
234.648	9.22
234.865	-23.55
235.083	-35.84
235.3	-11.26
235.518	-50.18
235.735	-7.17
235.953	52.22
236.17	-66.56
236.388	25.6
236.605	-17.41
236.822	-37.89
237.04	37.89
237.257	-72.7
237.475	1.02
237.692	21.5
237.909	27.65
238.127	-23.55
238.344	44.03
238.562	13.31
238.779	33.79
238.996	-23.55
239.214	-9.22
239.431	-60.42
239.648	-31.74
239.865	-3.07
240.083	-60.42
240.3	13.31
240.517	44.03
240.735	-15.36
240.952	29.7
241.169	-21.5
241.386	97.28
241.603	13.31
241.821	-1.02
242.038	21.5
242.255	52.22
242.472	-17.41
242.689	-21.5
242.907	25.6
243.124	-5.12
243.341	44.03
243.558	-46.08
243.775	-19.46
243.992	-17.41
244.209	7.17
244.426	7.17
244.643	31.74
244.86	-9.22
245.078	7.17
245.295	60.42
245.512	1.02
245.729	-19.46
245.946	48.13
246.163	-25.6
246.38	50.18
246.597	54.27
246.814	21.5
247.031	44.03
247.248	-13.31
247.464	-9.22
247.681	9.22
247.898	-44.03
248.115	1.02
248.332	17.41
248.549	-17.41
248.766	29.7
248.983	35.84
249.2	21.5
249.417	33.79
249.633	23.55
249.85	21.5
250.067	9.22
250.284	-3.07
250.501	11.26
250.717	27.65
250.934	-9.22
251.151	-15.36
251.368	-37.89
251.585	-19.46
251.801	-9.22
252.018	23.55
252.235	-19.46
252.451	13.31
252.668	-21.5
252.885	-11.26
253.102	31.74
253.318	-1.02
253.535	35.84
253.752	9.22
253.968	-74.75
254.185	-23.55
254.401	-9.22
254.618	5.12
254.835	-44.03
255.051	29.7
255.268	29.7
255.484	62.46
255.701	-1.02
255.917	-23.55
256.134	-44.03
256.351	-1.02
256.567	7.17
256.784	25.6
257	1.02
257.217	9.22
257.433	-17.41
257.65	33.79
257.866	35.84
258.082	3.07
258.299	11.26
258.515	-1.02
258.732	-70.65
258.948	5.12
259.165	9.22
259.381	-41.98
259.597	-44.03
259.814	-35.84
260.03	58.37
260.246	33.79
260.463	-25.6
260.679	54.27
260.895	5.12
261.112	-11.26
261.328	25.6
261.544	29.7
261.761	84.99
261.977	23.55
262.193	9.22
262.409	5.12
262.626	50.18
262.842	44.03
263.058	31.74
263.274	87.04
263.49	58.37
263.707	23.55
263.923	23.55
264.139	-46.08
264.355	-3.07
264.571	35.84
264.787	11.26
265.004	56.32
265.22	64.51
265.436	17.41
265.652	41.98
265.868	91.13
266.084	13.31
266.3	-50.18
266.516	-19.46
266.732	19.46
266.948	7.17
267.164	50.18
267.38	-25.6
267.596	17.41
267.812	39.94
268.028	-29.7
268.244	-44.03
268.46	62.46
268.676	3.07
268.892	35.84
269.108	-7.17
269.324	-11.26
269.54	-7.17
269.756	-5.12
269.972	-58.37
270.188	35.84
270.403	-62.46
270.619	-11.26
270.835	-27.65
271.051	11.26
271.267	15.36
271.483	-27.65
271.698	-9.22
271.914	39.94
272.13	23.55
272.346	-13.31
272.562	15.36
272.777	-17.41
272.993	21.5
273.209	31.74
273.425	31.74
273.64	48.13
273.856	33.79
274.072	84.99
274.287	-76.8
274.503	7.17
274.719	-21.5
274.934	-7.17
275.15	97.28
275.366	-19.46
275.581	-74.75
275.797	1.02
276.012	29.7
276.228	7.17
276.444	13.31
276.659	-23.55
276.875	33.79
277.09	-37.89
277.306	-13.31
277.521	-48.13
277.737	54.27
277.952	56.32
278.168	-68.61
278.383	35.84
278.599	-7.17
278.814	-11.26
279.03	-9.22
279.245	107.52
279.461	33.79
279.676	29.7
279.892	33.79
280.107	54.27
280.322	-39.94
280.538	9.22
280.753	-52.22
280.969	62.46
281.184	25.6
281.399	117.76
281.615	-84.99
281.83	-17.41
282.045	50.18
282.26	-3.07
282.476	66.56
282.691	41.98
282.906	78.85
283.122	-15.36
283.337	-29.7
283.552	62.46
283.767	-1.02
283.983	130.05
284.198	-25.6
284.413	39.94
284.628	-52.22
284.843	95.23
285.058	-35.84
285.274	21.5
285.489	1.02
285.704	-7.17
285.919	-15.36
286.134	-56.32
286.349	-44.03
286.564	-11.26
286.779	37.89
286.995	48.13
287.21	13.31
287.425	23.55
287.64	44.03
287.855	-33.79
288.07	-25.6
288.285	33.79
288.5	72.7
288.715	31.74
288.93	19.46
289.145	35.84
289.36	-1.02
289.575	117.76
289.79	7.17
290.004	46.08
290.219	52.22
290.434	-23.55
290.649	-64.51
290.864	-93.18
291.079	66.56
291.294	3.07
291.509	-60.42
291.724	-33.79
291.938	-25.6
292.153	21.5
292.368	9.22
292.583	-72.7
292.798	80.89
293.012	-7.17
293.227	17.41
293.442	19.46
293.657	-25.6
293.871	50.18
294.086	5.12
294.301	23.55
294.516	70.65
294.73	39.94
294.945	-29.7
295.16	21.5
295.374	-1.02
295.589	9.22
295.804	29.7
296.018	-3.07
296.233	54.27
296.447	64.51
296.662	-23.55
296.877	62.46
297.091	-11.26
297.306	33.79
297.52	-23.55
297.735	-19.46
297.949	9.22
298.164	-5.12
298.378	7.17
298.593	-25.6
298.807	33.79
299.022	66.56
299.236	35.84
299.451	-19.46
299.665	-21.5
299.88	-44.03
300.094	41.98
300.309	54.27
300.523	-19.46
300.737	60.42
300.952	-27.65
301.166	5.12
301.381	-25.6
301.595	-48.13
301.809	68.61
302.024	5.12
302.238	35.84
302.452	-13.31
302.667	9.22
302.881	44.03
303.095	-7.17
303.309	29.7
303.524	-48.13
303.738	-48.13
303.952	-31.74
304.166	62.46
304.381	13.31
304.595	-25.6
304.809	29.7
305.023	66.56
305.237	-23.55
305.452	17.41
305.666	15.36
305.88	17.41
306.094	-21.5
306.308	50.18
306.522	23.55
306.736	-1.02
306.95	54.27
307.164	11.26
307.379	1.02
307.593	-7.17
307.807	19.46
308.021	48.13
308.235	-31.74
308.449	64.51
308.663	13.31
308.877	46.08
309.091	-9.22
309.305	41.98
309.519	-13.31
309.733	13.31
309.947	-50.18
310.161	78.85
310.374	66.56
310.588	29.7
310.802	3.07
311.016	13.31
311.23	-60.42
311.444	-3.07
311.658	-5.12
311.872	-11.26
312.085	105.47
312.299	-46.08
312.513	33.79
312.727	-48.13
312.941	27.65
313.154	-66.56
313.368	1.02
313.582	-1.02
313.796	11.26
314.009	-5.12
314.223	29.7
314.437	46.08
314.651	39.94
314.864	-25.6
315.078	-31.74
315.292	-35.84
315.505	19.46
315.719	9.22
315.933	9.22
316.146	-9.22
316.36	-15.36
316.573	72.7
316.787	5.12
317.001	-64.51
317.214	-64.51
317.428	5.12
317.641	39.94
317.855	-1.02
318.068	-64.51
318.282	-25.6
318.495	9.22
318.709	5.12
318.922	21.5
319.136	-3.07
319.349	-13.31
319.563	-41.98
319.776	25.6
319.99	-15.36
320.203	66.56
320.417	19.46
320.63	7.17
320.843	33.79
321.057	29.7
321.27	17.41
321.483	33.79
321.697	29.7
321.91	62.46
322.124	-7.17
322.337	-9.22
322.55	7.17
322.763	19.46
322.977	23.55
323.19	68.61
323.403	-27.65
323.617	-39.94
323.83	41.98
324.043	48.13
324.256	52.22
324.469	-3.07
324.683	23.55
324.896	-11.26
325.109	-5.12
325.322	-31.74
325.535	7.17
325.748	-31.74
325.962	70.65
326.175	60.42
326.388	103.42
326.601	-23.55
326.814	27.65
327.027	23.55
327.24	54.27
327.453	15.36
327.666	-15.36
327.879	-58.37
328.092	50.18
328.305	5.12
328.518	37.89
328.731	23.55
328.944	7.17
329.157	25.6
329.37	-15.36
329.583	-9.22
329.796	7.17
330.009	-9.22
330.222	29.7
330.435	54.27
330.648	37.89
330.861	44.03
331.073	64.51
331.286	76.8
331.499	39.94
331.712	-7.17
331.925	-7.17
332.138	74.75
332.35	46.08
332.563	-11.26
332.776	13.31
332.989	-62.46
333.202	27.65
333.414	35.84
333.627	-19.46
333.84	25.6
334.053	46.08
334.265	-19.46
334.478	7.17
334.691	25.6
334.903	-89.09
335.116	29.7
335.329	-46.08
335.541	9.22
335.754	101.37
335.966	62.46
336.179	27.65
336.392	-64.51
336.604	123.9
336.817	23.55
337.029	25.6
337.242	15.36
337.454	3.07
337.667	15.36
337.88	15.36
338.092	9.22
338.305	99.33
338.517	-44.03
338.729	41.98
338.942	35.84
339.154	7.17
339.367	27.65
339.579	87.04
339.792	-3.07
340.004	78.85
340.217	-64.51
340.429	27.65
340.641	58.37
340.854	52.22
341.066	-29.7
341.278	39.94
341.491	111.61
341.703	60.42
341.915	-5.12
342.128	5.12
342.34	-33.79
342.552	64.51
342.764	-19.46
342.977	54.27
343.189	39.94
343.401	60.42
343.613	-17.41
343.826	7.17
344.038	-21.5
344.25	15.36
344.462	-52.22
344.674	52.22
344.886	44.03
345.099	9.22
345.311	107.52
345.523	1.02
345.735	52.22
345.947	9.22
346.159	-1.02
346.371	84.99
346.583	15.36
346.795	25.6
347.007	68.61
347.219	56.32
347.431	29.7
347.643	37.89
347.855	41.98
348.067	60.42
348.279	-74.75
348.491	7.17
348.703	-11.26
348.915	5.12
349.127	-1.02
349.339	70.65
349.551	11.26
349.763	31.74
349.975	-21.5
350.187	44.03
350.399	44.03
350.61	29.7
350.822	-23.55
351.034	-44.03
351.246	52.22
351.458	52.22
351.669	87.04
351.881	35.84
352.093	93.18
352.305	78.85
352.517	54.27
352.728	82.94
352.94	33.79
353.152	-1.02
353.363	-25.6
353.575	31.74
353.787	29.7
353.999	23.55
354.21	54.27
354.422	21.5
354.633	7.17
354.845	41.98
355.057	95.23
355.268	-37.89
355.48	11.26
355.692	-7.17
355.903	56.32
356.115	31.74
356.326	-29.7
356.538	52.22
356.749	-15.36
356.961	15.36
357.172	44.03
357.384	5.12
357.595	78.85
357.807	60.42
358.018	29.7
358.23	60.42
358.441	54.27
358.653	39.94
358.864	23.55
359.075	15.36
359.287	33.79
359.498	23.55
359.709	23.55
359.921	3.07
360.132	80.89
360.344	7.17
360.555	-21.5
360.766	3.07
360.977	3.07
361.189	25.6
361.4	17.41
361.611	119.81
361.823	74.75
362.034	76.8
362.245	17.41
362.456	21.5
362.667	46.08
362.879	64.51
363.09	1.02
363.301	50.18
363.512	9.22
363.723	44.03
363.935	-7.17
364.146	62.46
364.357	35.84
364.568	107.52
364.779	-93.18
364.99	44.03
365.201	15.36
365.412	15.36
365.623	-93.18
365.834	46.08
366.045	74.75
366.256	27.65
366.467	101.37
366.678	-27.65
366.889	60.42
367.1	35.84
367.311	33.79
367.522	-25.6
367.733	37.89
367.944	37.89
368.155	-5.12
368.366	-48.13
368.577	62.46
368.788	101.37
368.999	-25.6
369.209	52.22
369.42	17.41
369.631	138.24
369.842	11.26
370.053	23.55
370.264	60.42
370.474	46.08
370.685	35.84
370.896	80.89
371.107	31.74
371.317	44.03
371.528	-17.41
371.739	31.74
371.95	37.89
372.16	117.76
372.371	-29.7
372.582	11.26
372.792	66.56
373.003	117.76
373.214	58.37
373.424	87.04
373.635	9.22
373.846	-7.17
374.056	29.7
374.267	-1.02
374.477	74.75
374.688	21.5
374.898	74.75
375.109	39.94
375.319	82.94
375.53	82.94
375.74	84.99
375.951	17.41
376.161	56.32
376.372	15.36
376.582	9.22
376.793	113.66
377.003	54.27
377.214	-52.22
377.424	-15.36
377.635	87.04
377.845	25.6
378.055	56.32
378.266	17.41
378.476	-15.36
378.686	5.12
378.897	117.76
379.107	29.7
379.317	138.24
379.528	44.03
379.738	64.51
379.948	33.79
380.158	37.89
380.369	-41.98
380.579	109.57
380.789	44.03
380.999	64.51
381.21	58.37
381.42	-15.36
381.63	-7.17
381.84	99.33
382.05	-13.31
382.261	-15.36
382.471	70.65
382.681	93.18
382.891	58.37
383.101	33.79
383.311	-48.13
383.521	44.03
383.731	35.84
383.941	13.31
384.151	1.02
384.361	56.32
384.571	35.84
384.781	35.84
384.991	11.26
385.201	109.57
385.411	91.13
385.621	87.04
385.831	35.84
386.041	48.13
386.251	13.31
386.461	121.85
386.671	91.13
386.881	19.46
387.091	13.31
387.301	158.72
387.511	29.7
387.72	50.18
387.93	91.13
388.14	25.6
388.35	23.55
388.56	13.31
388.769	125.95
388.979	31.74
389.189	46.08
389.399	-9.22
389.609	11.26
389.818	19.46
390.028	39.94
390.238	101.37
390.447	105.47
390.657	-7.17
390.867	58.37
391.076	39.94
391.286	31.74
391.496	-3.07
391.705	50.18
391.915	78.85
392.125	62.46
392.334	113.66
392.544	5.12
392.753	7.17
392.963	41.98
393.172	50.18
393.382	7.17
393.591	99.33
393.801	33.79
394.01	13.31
394.22	31.74
394.429	95.23
394.639	46.08
394.848	78.85
395.058	76.8
395.267	95.23
395.477	52.22
395.686	25.6
395.895	31.74
396.105	107.52
396.314	76.8
396.524	3.07
396.733	62.46
396.942	84.99
397.152	70.65
397.361	99.33
397.57	68.61
397.78	125.95
397.989	25.6
398.198	125.95
398.407	89.09
398.617	25.6
398.826	115.71
399.035	39.94
399.244	54.27
399.453	39.94
399.663	113.66
399.872	130.05
400.081	99.33
400.29	152.57
400.499	87.04
400.708	201.72
400.917	91.13
401.127	82.94
401.336	183.29
401.545	132.09
401.754	171.01
401.963	82.94
402.172	99.33
402.381	84.99
402.59	132.09
402.799	99.33
403.008	78.85
403.217	154.62
403.426	72.7
403.635	134.14
403.844	74.75
404.053	121.85
404.262	13.31
404.471	201.72
404.68	89.09
404.888	103.42
405.097	109.57
405.306	89.09
405.515	175.1
405.724	121.85
405.933	125.95
406.142	220.16
406.35	130.05
406.559	191.49
406.768	136.19
406.977	197.63
407.185	236.54
407.394	140.29
407.603	224.25
407.812	109.57
408.02	218.11
408.229	273.4
408.438	232.44
408.646	269.31
408.855	211.96
409.064	222.2
409.272	277.5
409.481	295.93
409.69	322.56
409.898	263.16
410.107	293.88
410.315	304.12
410.524	304.12
410.733	293.88
410.941	336.89
411.15	340.99
411.358	367.61
411.567	429.05
411.775	334.84
411.984	326.65
412.192	517.11
412.401	424.95
412.609	517.11
412.818	578.55
413.026	508.92
413.234	517.11
413.443	513.02
413.651	564.22
413.86	619.51
414.068	539.64
414.276	689.14
414.485	627.7
414.693	697.33
414.901	732.15
415.11	756.72
415.318	732.15
415.526	707.57
415.734	820.21
415.943	809.97
416.151	865.27
416.359	840.69
416.567	930.8
416.776	947.19
416.984	1045.49
417.192	963.57
417.4	1039.34
417.608	994.29
417.817	1123.31
418.025	1055.73
418.233	1254.38
418.441	1244.14
418.649	1315.82
418.857	1379.31
419.065	1362.92
419.273	1403.88
419.481	1453.03
419.689	1512.42
419.897	1537
420.105	1549.29
420.313	1659.88
420.521	1641.45
420.729	1684.45
420.937	1788.9
421.145	1899.49
421.353	1989.6
421.561	1979.36
421.769	2098.14
421.977	2175.97
422.185	2157.54
422.393	2345.95
422.601	2364.38
422.809	2356.19
423.017	2368.48
423.224	2397.15
423.432	2569.18
423.64	2661.34
423.848	2874.32
424.056	2876.37
424.263	2888.66
424.471	3036.11
424.679	3150.8
424.887	3345.36
425.094	3449.8
425.302	3380.17
425.51	3566.54
425.718	3752.9
425.925	3734.47
426.133	3744.71
426.341	3982.28
426.548	4080.58
426.756	4221.89
426.964	4103.11
427.171	4443.07
427.379	4580.28
427.586	4711.35
427.794	4676.54
428.001	5112.75
428.209	5266.35
428.417	5215.15
428.624	5671.85
428.832	5581.74
429.039	5481.39
429.247	5647.27
429.454	6087.59
429.662	6372.25
429.869	6118.31
430.076	6540.19
430.284	6278.05
430.491	6581.15
430.699	6964.12
430.906	6865.82
431.114	6953.88
431.321	7398.29
431.528	7406.48
431.736	8027.01
431.943	8387.46
432.15	7965.57
432.358	8119.17
432.565	8541.05
432.772	8741.75
432.979	9042.81
433.187	9118.58
433.394	9294.71
433.601	9909.1
433.808	9913.19
434.016	9755.5
434.223	10224.48
434.43	10924.89
434.637	10478.43
434.844	11285.33
435.052	11785.04
435.259	11518.8
435.466	11701.07
435.673	11621.2
435.88	12200.77
436.087	12798.78
436.294	12882.75
436.501	12675.9
436.708	12962.62
436.915	13402.93
437.122	13947.69
437.329	13978.41
437.537	14398.24
437.743	14662.43
437.95	14621.47
438.157	15155.99
438.364	15629.07
438.571	15555.35
438.778	15854.35
438.985	17259.26
439.192	16487.17
439.399	17318.65
439.606	16909.05
439.813	17992.43
440.02	18758.37
440.227	18229.99
440.433	18160.36
440.64	18979.55
440.847	19100.38
441.054	19235.55
441.261	20662.98
441.467	20189.9
441.674	20759.24
441.881	21465.78
442.088	21238.46
442.294	21263.04
442.501	21750.45
442.708	22237.87
442.914	23214.75
443.121	23909.01
443.328	23437.98
443.534	25162.37
443.741	24543.88
443.948	24210.06
444.154	25856.63
444.361	25533.05
444.568	26139.25
444.774	25963.12
444.981	26190.45
445.187	27032.16
445.394	28084.82
445.6	27918.93
445.807	30327.35
446.013	29426.24
446.22	29911.61
446.426	30939.69
446.633	30990.89
446.839	31988.25
447.046	30933.54
447.252	32754.19
447.459	32850.44
447.665	32565.78
447.871	34279.92
448.078	35310.05
448.284	33901.05
448.491	34642.42
448.697	36119
448.903	36628.95
449.11	36829.65
449.316	36364.76
449.522	37009.87
449.728	37970.36
449.935	38138.3
450.141	38101.43
450.347	39225.77
450.553	37841.34
450.76	38351.29
450.966	39569.83
451.172	39225.77
451.378	40008.09
451.584	39319.98
451.791	40425.88
451.997	40425.88
452.203	41152.91
452.409	41107.85
452.615	40542.61
452.821	39039.4
453.027	38736.3
453.233	41019.79
453.44	39209.39
453.646	39770.53
453.852	39719.33
454.058	40427.93
454.264	39512.49
454.47	39997.85
454.676	39254.44
454.882	40550.81
455.088	37138.89
455.294	37466.56
455.5	38150.59
455.705	38912.43
455.911	37026.25
456.117	36508.11
456.323	36028.89
456.529	34038.26
456.735	35598.82
456.941	34540.02
457.147	34062.84
457.352	33071.62
457.558	32614.93
457.764	32840.2
457.97	31900.19
458.176	31674.91
458.381	31613.47
458.587	29727.29
458.793	29598.27
458.999	28531.28
459.204	30014.01
459.41	29620.8
459.616	27841.11
459.821	27558.49
460.027	27257.44
460.233	27017.83
460.438	25844.34
460.644	25885.3
460.85	25070.21
461.055	24345.23
461.261	24464.01
461.466	22805.16
461.672	21871.28
461.878	23409.31
462.083	21789.36
462.289	21672.63
462.494	21148.35
462.7	20308.68
462.905	19815.12
463.111	20581.06
463.316	20708.04
463.522	20007.63
463.727	20327.11
463.932	19907.28
464.138	19905.23
464.343	19952.34
464.549	19460.82
464.754	20085.45
464.959	19831.51
465.165	19505.88
465.37	19077.85
465.575	18660.07
465.781	19303.13
465.986	19323.61
466.191	18690.79
466.397	18107.12
466.602	17216.25
466.807	18129.64
467.012	17957.61
