Data from USB4F104151__19__12-27-06-096.txt Node

Date: Fri Mar 14 12:27:06 EDT 2025
User: louis
Spectrometer: USB4F10415
Trigger mode: 4
Integration Time (sec): 2.000000E-2
Scans to average: 1
Electric dark correction enabled: true
Nonlinearity correction enabled: false
Boxcar width: 0
XAxis mode: Wavelengths
Number of Pixels in Spectrum: 3648
>>>>>Begin Spectral Data<<<<<
178.204	-148.82
178.424	-148.82
178.644	-148.82
178.864	-103.76
179.084	-122.2
179.304	-13.65
179.524	-5.46
179.744	-30.04
179.964	39.59
180.184	-30.04
180.404	27.31
180.624	-34.13
180.844	-25.94
181.064	17.07
181.283	35.5
181.503	-32.08
181.723	51.88
181.943	-93.52
182.163	6.83
182.383	-66.9
182.602	-5.46
182.822	-17.75
183.042	23.21
183.262	-44.37
183.482	-91.48
183.701	43.69
183.921	-85.33
184.141	19.11
184.361	70.31
184.58	49.83
184.8	72.36
185.02	8.87
185.239	-11.61
185.459	-62.8
185.679	15.02
185.898	33.45
186.118	29.35
186.338	17.07
186.557	39.59
186.777	17.07
186.997	-1.37
187.216	-7.51
187.436	43.69
187.655	43.69
187.875	23.21
188.095	-77.14
188.314	-5.46
188.534	-21.85
188.753	31.4
188.973	17.07
189.192	0.68
189.412	-17.75
189.631	-9.56
189.851	2.73
190.07	70.31
190.29	-3.41
190.509	21.16
190.729	10.92
190.948	10.92
191.168	31.4
191.387	10.92
191.607	-21.85
191.826	45.74
192.045	-30.04
192.265	29.35
192.484	-17.75
192.704	-27.99
192.923	-11.61
193.142	-1.37
193.362	15.02
193.581	51.88
193.8	82.6
194.02	78.51
194.239	-62.8
194.458	23.21
194.678	29.35
194.897	39.59
195.116	-1.37
195.335	-5.46
195.555	80.55
195.774	23.21
195.993	47.79
196.212	-13.65
196.432	-73.04
196.651	-13.65
196.87	19.11
197.089	-3.41
197.308	31.4
197.528	-9.56
197.747	-15.7
197.966	-5.46
198.185	31.4
198.404	17.07
198.623	51.88
198.842	8.87
199.062	12.97
199.281	105.13
199.5	-15.7
199.719	4.78
199.938	62.12
200.157	-5.46
200.376	12.97
200.595	4.78
200.814	29.35
201.033	12.97
201.252	29.35
201.471	12.97
201.69	62.12
201.909	6.83
202.128	-36.18
202.347	41.64
202.566	-15.7
202.785	-13.65
203.004	55.98
203.223	55.98
203.442	6.83
203.661	-25.94
203.879	19.11
204.098	-58.71
204.317	15.02
204.536	60.07
204.755	17.07
204.974	25.26
205.193	12.97
205.411	76.46
205.63	82.6
205.849	-32.08
206.068	-50.52
206.287	15.02
206.505	33.45
206.724	29.35
206.943	-30.04
207.162	-30.04
207.381	-7.51
207.599	47.79
207.818	-21.85
208.037	53.93
208.255	-13.65
208.474	51.88
208.693	41.64
208.911	109.22
209.13	-46.42
209.349	107.18
209.567	-54.61
209.786	49.83
210.005	2.73
210.223	-36.18
210.442	-44.37
210.661	43.69
210.879	66.22
211.098	74.41
211.316	72.36
211.535	25.26
211.753	23.21
211.972	17.07
212.191	-36.18
212.409	-34.13
212.628	55.98
212.846	-21.85
213.065	-79.19
213.283	-1.37
213.502	-25.94
213.72	27.31
213.938	-27.99
214.157	-13.65
214.375	84.65
214.594	-11.61
214.812	66.22
215.031	80.55
215.249	-11.61
215.467	-15.7
215.686	-73.04
215.904	-15.7
216.122	23.21
216.341	-1.37
216.559	-9.56
216.778	80.55
216.996	-97.62
217.214	25.26
217.432	94.89
217.651	2.73
217.869	-50.52
218.087	19.11
218.306	90.79
218.524	-13.65
218.742	-1.37
218.96	6.83
219.179	53.93
219.397	-36.18
219.615	55.98
219.833	90.79
220.051	-7.51
220.27	-15.7
220.488	0.68
220.706	4.78
220.924	43.69
221.142	-9.56
221.36	8.87
221.578	31.4
221.796	-27.99
222.015	-5.46
222.233	31.4
222.451	29.35
222.669	4.78
222.887	68.27
223.105	53.93
223.323	33.45
223.541	88.75
223.759	-13.65
223.977	-23.89
224.195	80.55
224.413	25.26
224.631	8.87
224.849	66.22
225.067	60.07
225.285	-30.04
225.503	-7.51
225.721	35.5
225.939	-19.8
226.157	0.68
226.375	70.31
226.592	-1.37
226.81	8.87
227.028	68.27
227.246	39.59
227.464	19.11
227.682	62.12
227.9	78.51
228.117	68.27
228.335	-5.46
228.553	72.36
228.771	-38.23
228.989	10.92
229.206	-17.75
229.424	27.31
229.642	33.45
229.86	2.73
230.077	29.35
230.295	80.55
230.513	94.89
230.731	113.32
230.948	53.93
231.166	49.83
231.384	-99.67
231.601	17.07
231.819	10.92
232.037	17.07
232.254	-71
232.472	-32.08
232.689	23.21
232.907	66.22
233.125	4.78
233.342	-21.85
233.56	6.83
233.777	-95.57
233.995	10.92
234.213	29.35
234.43	-66.9
234.648	-23.89
234.865	-17.75
235.083	-15.7
235.3	35.5
235.518	68.27
235.735	58.03
235.953	53.93
236.17	-1.37
236.388	4.78
236.605	0.68
236.822	51.88
237.04	25.26
237.257	4.78
237.475	55.98
237.692	84.65
237.909	-1.37
238.127	8.87
238.344	-38.23
238.562	-17.75
238.779	-19.8
238.996	35.5
239.214	-9.56
239.431	53.93
239.648	-13.65
239.865	-46.42
240.083	111.27
240.3	27.31
240.517	-42.32
240.735	70.31
240.952	-38.23
241.169	68.27
241.386	2.73
241.603	8.87
241.821	23.21
242.038	31.4
242.255	-11.61
242.472	-5.46
242.689	43.69
242.907	23.21
243.124	51.88
243.341	-68.95
243.558	0.68
243.775	-27.99
243.992	-23.89
244.209	0.68
244.426	23.21
244.643	0.68
244.86	-46.42
245.078	-21.85
245.295	-44.37
245.512	21.16
245.729	55.98
245.946	0.68
246.163	-34.13
246.38	-9.56
246.597	0.68
246.814	6.83
247.031	78.51
247.248	45.74
247.464	0.68
247.681	-21.85
247.898	27.31
248.115	43.69
248.332	-19.8
248.549	70.31
248.766	29.35
248.983	6.83
249.2	-36.18
249.417	-25.94
249.633	-5.46
249.85	-27.99
250.067	60.07
250.284	-15.7
250.501	37.55
250.717	27.31
250.934	0.68
251.151	-30.04
251.368	-3.41
251.585	4.78
251.801	-38.23
252.018	55.98
252.235	37.55
252.451	15.02
252.668	84.65
252.885	6.83
253.102	72.36
253.318	-5.46
253.535	-5.46
253.752	-11.61
253.968	-64.85
254.185	-1.37
254.401	92.84
254.618	80.55
254.835	58.03
255.051	64.17
255.268	-27.99
255.484	-9.56
255.701	29.35
255.917	12.97
256.134	-25.94
256.351	21.16
256.567	-23.89
256.784	0.68
257	17.07
257.217	10.92
257.433	70.31
257.65	62.12
257.866	12.97
258.082	-32.08
258.299	-48.47
258.515	10.92
258.732	-5.46
258.948	62.12
259.165	68.27
259.381	35.5
259.597	66.22
259.814	-34.13
260.03	15.02
260.246	23.21
260.463	29.35
260.679	0.68
260.895	35.5
261.112	4.78
261.328	58.03
261.544	-32.08
261.761	17.07
261.977	-46.42
262.193	-34.13
262.409	10.92
262.626	76.46
262.842	37.55
263.058	55.98
263.274	6.83
263.49	-17.75
263.707	35.5
263.923	27.31
264.139	35.5
264.355	78.51
264.571	53.93
264.787	-32.08
265.004	-48.47
265.22	10.92
265.436	39.59
265.652	-7.51
265.868	27.31
266.084	-64.85
266.3	66.22
266.516	25.26
266.732	-5.46
266.948	31.4
267.164	15.02
267.38	70.31
267.596	15.02
267.812	17.07
268.028	0.68
268.244	2.73
268.46	-3.41
268.676	4.78
268.892	23.21
269.108	2.73
269.324	-11.61
269.54	-62.8
269.756	33.45
269.972	-23.89
270.188	4.78
270.403	-54.61
270.619	23.21
270.835	43.69
271.051	6.83
271.267	-23.89
271.483	0.68
271.698	90.79
271.914	-56.66
272.13	-3.41
272.346	31.4
272.562	58.03
272.777	74.41
272.993	-32.08
273.209	-11.61
273.425	12.97
273.64	-27.99
273.856	53.93
274.072	86.7
274.287	21.16
274.503	64.17
274.719	84.65
274.934	-7.51
275.15	10.92
275.366	-32.08
275.581	-5.46
275.797	64.17
276.012	2.73
276.228	43.69
276.444	-1.37
276.659	19.11
276.875	-15.7
277.09	47.79
277.306	45.74
277.521	72.36
277.737	78.51
277.952	35.5
278.168	58.03
278.383	15.02
278.599	-9.56
278.814	53.93
279.03	62.12
279.245	31.4
279.461	53.93
279.676	6.83
279.892	60.07
280.107	70.31
280.322	-1.37
280.538	-32.08
280.753	-89.43
280.969	-1.37
281.184	37.55
281.399	70.31
281.615	15.02
281.83	-52.56
282.045	23.21
282.26	6.83
282.476	-27.99
282.691	47.79
282.906	8.87
283.122	17.07
283.337	8.87
283.552	60.07
283.767	-40.28
283.983	66.22
284.198	-23.89
284.413	15.02
284.628	23.21
284.843	2.73
285.058	76.46
285.274	39.59
285.489	25.26
285.704	-17.75
285.919	-21.85
286.134	-13.65
286.349	-19.8
286.564	49.83
286.779	45.74
286.995	29.35
287.21	-13.65
287.425	55.98
287.64	72.36
287.855	66.22
288.07	-23.89
288.285	6.83
288.5	-1.37
288.715	23.21
288.93	-34.13
289.145	-48.47
289.36	-56.66
289.575	60.07
289.79	31.4
290.004	15.02
290.219	43.69
290.434	96.94
290.649	6.83
290.864	-56.66
291.079	53.93
291.294	62.12
291.509	37.55
291.724	-9.56
291.938	41.64
292.153	113.32
292.368	43.69
292.583	12.97
292.798	68.27
293.012	68.27
293.227	19.11
293.442	49.83
293.657	98.99
293.871	33.45
294.086	62.12
294.301	33.45
294.516	10.92
294.73	21.16
294.945	-11.61
295.16	31.4
295.374	-5.46
295.589	53.93
295.804	6.83
296.018	15.02
296.233	43.69
296.447	62.12
296.662	-27.99
296.877	10.92
297.091	-27.99
297.306	33.45
297.52	10.92
297.735	58.03
297.949	-71
298.164	60.07
298.378	-17.75
298.593	-56.66
298.807	-25.94
299.022	82.6
299.236	-36.18
299.451	-3.41
299.665	-19.8
299.88	92.84
300.094	19.11
300.309	15.02
300.523	12.97
300.737	8.87
300.952	39.59
301.166	51.88
301.381	60.07
301.595	6.83
301.809	-27.99
302.024	31.4
302.238	64.17
302.452	8.87
302.667	10.92
302.881	-38.23
303.095	19.11
303.309	49.83
303.524	41.64
303.738	31.4
303.952	-13.65
304.166	45.74
304.381	-44.37
304.595	19.11
304.809	66.22
305.023	37.55
305.237	-11.61
305.452	0.68
305.666	23.21
305.88	29.35
306.094	15.02
306.308	47.79
306.522	-9.56
306.736	49.83
306.95	15.02
307.164	15.02
307.379	78.51
307.593	29.35
307.807	45.74
308.021	51.88
308.235	-17.75
308.449	-9.56
308.663	6.83
308.877	64.17
309.091	10.92
309.305	0.68
309.519	19.11
309.733	60.07
309.947	-62.8
310.161	0.68
310.374	-46.42
310.588	86.7
310.802	-42.32
311.016	96.94
311.23	49.83
311.444	12.97
311.658	6.83
311.872	45.74
312.085	103.08
312.299	-64.85
312.513	19.11
312.727	21.16
312.941	51.88
313.154	-9.56
313.368	-54.61
313.582	51.88
313.796	74.41
314.009	6.83
314.223	35.5
314.437	-15.7
314.651	19.11
314.864	10.92
315.078	-11.61
315.292	70.31
315.505	-36.18
315.719	-5.46
315.933	-9.56
316.146	-7.51
316.36	15.02
316.573	-3.41
316.787	10.92
317.001	-15.7
317.214	-64.85
317.428	115.37
317.641	80.55
317.855	82.6
318.068	-11.61
318.282	0.68
318.495	170.66
318.709	-32.08
318.922	80.55
319.136	66.22
319.349	113.32
319.563	17.07
319.776	12.97
319.99	-21.85
320.203	35.5
320.417	15.02
320.63	39.59
320.843	4.78
321.057	64.17
321.27	90.79
321.483	45.74
321.697	64.17
321.91	-40.28
322.124	49.83
322.337	45.74
322.55	47.79
322.763	68.27
322.977	6.83
323.19	10.92
323.403	33.45
323.617	90.79
323.83	31.4
324.043	43.69
324.256	15.02
324.469	53.93
324.683	53.93
324.896	43.69
325.109	10.92
325.322	-50.52
325.535	17.07
325.748	29.35
325.962	-25.94
326.175	23.21
326.388	76.46
326.601	-30.04
326.814	4.78
327.027	10.92
327.24	76.46
327.453	47.79
327.666	43.69
327.879	55.98
328.092	64.17
328.305	119.46
328.518	21.16
328.731	-3.41
328.944	29.35
329.157	66.22
329.37	-15.7
329.583	92.84
329.796	23.21
330.009	19.11
330.222	27.31
330.435	25.26
330.648	6.83
330.861	31.4
331.073	19.11
331.286	35.5
331.499	33.45
331.712	19.11
331.925	10.92
332.138	15.02
332.35	133.8
332.563	-17.75
332.776	82.6
332.989	-15.7
333.202	-7.51
333.414	31.4
333.627	-5.46
333.84	6.83
334.053	2.73
334.265	25.26
334.478	68.27
334.691	74.41
334.903	-60.76
335.116	49.83
335.329	43.69
335.541	25.26
335.754	64.17
335.966	-36.18
336.179	27.31
336.392	55.98
336.604	19.11
336.817	17.07
337.029	101.03
337.242	25.26
337.454	68.27
337.667	10.92
337.88	39.59
338.092	29.35
338.305	27.31
338.517	66.22
338.729	12.97
338.942	111.27
339.154	25.26
339.367	37.55
339.579	84.65
339.792	53.93
340.004	-3.41
340.217	45.74
340.429	66.22
340.641	17.07
340.854	-50.52
341.066	43.69
341.278	29.35
341.491	8.87
341.703	49.83
341.915	17.07
342.128	-13.65
342.34	-34.13
342.552	33.45
342.764	23.21
342.977	-27.99
343.189	49.83
343.401	-21.85
343.613	35.5
343.826	-52.56
344.038	6.83
344.25	15.02
344.462	4.78
344.674	45.74
344.886	29.35
345.099	41.64
345.311	27.31
345.523	107.18
345.735	41.64
345.947	-36.18
346.159	15.02
346.371	53.93
346.583	76.46
346.795	55.98
347.007	103.08
347.219	72.36
347.431	29.35
347.643	37.55
347.855	35.5
348.067	119.46
348.279	27.31
348.491	68.27
348.703	-9.56
348.915	-17.75
349.127	45.74
349.339	72.36
349.551	64.17
349.763	17.07
349.975	47.79
350.187	51.88
350.399	4.78
350.61	51.88
350.822	-21.85
351.034	25.26
351.246	27.31
351.458	-1.37
351.669	35.5
351.881	66.22
352.093	25.26
352.305	64.17
352.517	6.83
352.728	47.79
352.94	55.98
353.152	58.03
353.363	8.87
353.575	101.03
353.787	90.79
353.999	2.73
354.21	8.87
354.422	60.07
354.633	8.87
354.845	35.5
355.057	2.73
355.268	-7.51
355.48	41.64
355.692	-1.37
355.903	-5.46
356.115	0.68
356.326	6.83
356.538	76.46
356.749	82.6
356.961	66.22
357.172	37.55
357.384	10.92
357.595	12.97
357.807	-7.51
358.018	2.73
358.23	47.79
358.441	72.36
358.653	88.75
358.864	31.4
359.075	-13.65
359.287	31.4
359.498	94.89
359.709	76.46
359.921	35.5
360.132	-3.41
360.344	47.79
360.555	-13.65
360.766	70.31
360.977	43.69
361.189	41.64
361.4	-7.51
361.611	35.5
361.823	31.4
362.034	72.36
362.245	-5.46
362.456	-5.46
362.667	43.69
362.879	43.69
363.09	43.69
363.301	12.97
363.512	10.92
363.723	49.83
363.935	2.73
364.146	86.7
364.357	131.75
364.568	82.6
364.779	62.12
364.99	53.93
365.201	33.45
365.412	68.27
365.623	37.55
365.834	76.46
366.045	-11.61
366.256	55.98
366.467	39.59
366.678	-3.41
366.889	19.11
367.1	-48.47
367.311	31.4
367.522	70.31
367.733	49.83
367.944	39.59
368.155	64.17
368.366	31.4
368.577	10.92
368.788	-5.46
368.999	6.83
369.209	70.31
369.42	35.5
369.631	80.55
369.842	15.02
370.053	62.12
370.264	-3.41
370.474	39.59
370.685	4.78
370.896	0.68
371.107	82.6
371.317	0.68
371.528	84.65
371.739	70.31
371.95	82.6
372.16	62.12
372.371	-11.61
372.582	-62.8
372.792	101.03
373.003	47.79
373.214	37.55
373.424	8.87
373.635	58.03
373.846	115.37
374.056	62.12
374.267	17.07
374.477	-3.41
374.688	19.11
374.898	96.94
375.109	6.83
375.319	17.07
375.53	111.27
375.74	78.51
375.951	37.55
376.161	68.27
376.372	72.36
376.582	49.83
376.793	35.5
377.003	-1.37
377.214	27.31
377.424	94.89
377.635	21.16
377.845	10.92
378.055	31.4
378.266	19.11
378.476	0.68
378.686	-7.51
378.897	70.31
379.107	58.03
379.317	72.36
379.528	27.31
379.738	-17.75
379.948	-27.99
380.158	88.75
380.369	88.75
380.579	55.98
380.789	43.69
380.999	0.68
381.21	2.73
381.42	103.08
381.63	19.11
381.84	113.32
382.05	49.83
382.261	49.83
382.471	35.5
382.681	101.03
382.891	17.07
383.101	41.64
383.311	41.64
383.521	66.22
383.731	111.27
383.941	70.31
384.151	76.46
384.361	74.41
384.571	103.08
384.781	45.74
384.991	78.51
385.201	60.07
385.411	-7.51
385.621	21.16
385.831	-11.61
386.041	70.31
386.251	58.03
386.461	47.79
386.671	-7.51
386.881	41.64
387.091	58.03
387.301	15.02
387.511	64.17
387.72	55.98
387.93	17.07
388.14	25.26
388.35	78.51
388.56	129.7
388.769	47.79
388.979	43.69
389.189	39.59
389.399	41.64
389.609	43.69
389.818	86.7
390.028	70.31
390.238	10.92
390.447	105.13
390.657	10.92
390.867	88.75
391.076	19.11
391.286	10.92
391.496	15.02
391.705	41.64
391.915	60.07
392.125	82.6
392.334	64.17
392.544	66.22
392.753	35.5
392.963	0.68
393.172	43.69
393.382	80.55
393.591	131.75
393.801	133.8
394.01	101.03
394.22	12.97
394.429	53.93
394.639	58.03
394.848	137.9
395.058	125.61
395.267	80.55
395.477	94.89
395.686	123.56
395.895	150.18
396.105	82.6
396.314	144.04
396.524	152.23
396.733	64.17
396.942	84.65
397.152	152.23
397.361	152.23
397.57	133.8
397.78	47.79
397.989	84.65
398.198	72.36
398.407	123.56
398.617	10.92
398.826	129.7
399.035	135.85
399.244	47.79
399.453	160.42
399.663	90.79
399.872	62.12
400.081	43.69
400.29	98.99
400.499	10.92
400.708	125.61
400.917	139.94
401.127	78.51
401.336	51.88
401.545	178.86
401.754	84.65
401.963	119.46
402.172	123.56
402.381	96.94
402.59	123.56
402.799	148.14
403.008	141.99
403.217	193.19
403.426	152.23
403.635	98.99
403.844	121.51
404.053	197.29
404.262	182.95
404.471	160.42
404.68	115.37
404.888	174.76
405.097	162.47
405.306	139.94
405.515	182.95
405.724	98.99
405.933	172.71
406.142	115.37
406.35	201.38
406.559	209.58
406.768	156.33
406.977	236.2
407.185	223.91
407.394	203.43
407.603	148.14
407.812	187.05
408.02	252.58
408.229	219.82
408.438	160.42
408.646	205.48
408.855	238.25
409.064	287.4
409.272	260.77
409.481	258.73
409.69	252.58
409.898	256.68
410.107	352.93
410.315	316.07
410.524	322.21
410.733	334.5
410.941	381.6
411.15	357.03
411.358	346.79
411.567	367.27
411.775	389.8
411.984	434.85
412.192	408.23
412.401	397.99
412.609	477.86
412.818	465.57
413.026	455.33
413.234	490.15
413.443	522.91
413.651	549.54
413.86	641.7
414.068	615.07
414.276	623.27
414.485	610.98
414.693	678.56
414.901	750.24
415.11	703.14
415.318	766.62
415.526	746.14
415.734	809.63
415.943	803.49
416.151	854.69
416.359	828.06
416.567	869.02
416.776	918.17
416.984	1055.39
417.192	965.28
417.4	1024.67
417.608	936.6
417.817	1151.64
418.025	1206.94
418.233	1178.26
418.441	1196.7
418.649	1200.79
418.857	1346.2
419.065	1428.12
419.273	1321.62
419.481	1454.74
419.689	1432.21
419.897	1602.19
420.105	1542.8
420.313	1686.16
420.521	1684.11
420.729	1798.8
420.937	1768.08
421.145	1733.26
421.353	2028.17
421.561	1919.63
421.769	2042.51
421.977	2196.11
422.185	2136.71
422.393	2261.64
422.601	2388.61
422.809	2368.13
423.017	2425.48
423.224	2531.97
423.432	2636.42
423.64	2648.71
423.848	2843.26
424.056	2898.56
424.263	3021.44
424.471	3041.92
424.679	3093.12
424.887	3170.94
425.094	3363.45
425.302	3396.21
425.51	3586.68
425.718	3687.03
425.925	3660.4
426.133	3709.55
426.341	4063.85
426.548	4014.7
426.756	4190.83
426.964	4184.68
427.171	4473.45
427.379	4688.48
427.586	4610.66
427.794	4862.56
428.001	5132.89
428.209	5202.52
428.417	5184.09
428.624	5515.86
428.832	5642.84
429.039	5599.83
429.247	5552.73
429.454	6060.62
429.662	6408.78
429.869	5868.11
430.076	6537.8
430.284	6416.97
430.491	6660.68
430.699	7039.55
430.906	7123.52
431.114	7041.6
431.321	7258.68
431.528	7578.17
431.736	7938.61
431.943	8333.87
432.15	8124.97
432.358	8198.7
432.565	8716.84
432.772	8491.56
432.979	9114.14
433.187	9173.53
433.394	9099.81
433.601	9890.32
433.808	9738.77
434.016	9734.68
434.223	10254.86
434.43	10893.83
434.637	10906.12
434.844	11430.4
435.052	11479.55
435.259	11567.61
435.466	11702.78
435.673	11592.19
435.88	12325.36
436.087	12978.66
436.294	12794.34
436.501	12724.71
436.708	12687.85
436.915	13502.94
437.122	13863.38
437.329	13855.19
437.537	14295.5
437.743	14600.65
437.95	14565.84
438.157	15303.11
438.364	15716.79
438.571	15788.47
438.778	15960.5
438.985	17389.99
439.192	16441.78
439.399	17127.85
439.606	16839.08
439.813	17852.83
440.02	18874.76
440.227	18497.94
440.433	18268.56
440.64	19175.81
440.847	18768.27
441.054	19265.92
441.261	20515.19
441.467	20341.11
441.674	20769.13
441.881	21303.65
442.088	21541.22
442.294	20955.5
442.501	21694.82
442.708	22190.42
442.914	22882.64
443.121	24072.51
443.328	23456.07
443.534	24979.76
443.741	24437.05
443.948	23990.59
444.154	26052.89
444.361	26114.33
444.568	26061.08
444.774	25868.58
444.981	26312.99
445.187	27083.02
445.394	28240.12
445.6	28033.28
445.807	30443.74
446.013	29071.6
446.22	29462.76
446.426	30832.85
446.633	31189.2
446.839	32280.77
447.046	30906.58
447.252	32897.2
447.459	32735.42
447.665	32729.27
447.871	34187.43
448.078	35698.83
448.284	33968.29
448.491	34734.23
448.697	35889.29
448.903	36540.54
449.11	36814.97
449.316	36448.38
449.522	36696.19
449.728	37937.26
449.935	38348.9
450.141	38486.11
450.347	39211.09
450.553	37638.25
450.76	38492.26
450.966	39430.22
451.172	39176.28
451.378	40204.36
451.584	39340.11
451.791	39925.83
451.997	40235.08
452.203	40837.18
452.409	41113.66
452.615	40400.96
452.821	39217.24
453.027	38899.8
453.233	40747.07
453.44	39563.34
453.646	39475.28
453.852	39594.06
454.058	40980.54
454.264	39391.31
454.47	40009.8
454.676	39055.45
454.882	40374.34
455.088	37165.17
455.294	37685.36
455.5	38484.06
455.705	38867.03
455.911	37392.5
456.117	36329.6
456.323	36094.08
456.529	34056.35
456.735	35739.79
456.941	34764.95
457.147	33962.15
457.352	33296.56
457.558	32676.02
457.764	32499.9
457.97	31881.41
458.176	31377.61
458.381	31600.84
458.587	29962.47
458.793	30142.69
458.999	28322.04
459.204	30574.81
459.41	29436.14
459.616	27619.59
459.821	27625.73
460.027	27644.16
460.233	26992.91
460.438	25651.49
460.644	25780.51
460.85	24893.74
461.055	24121.66
461.261	24273.21
461.466	22475.09
461.672	22067.55
461.878	23462.21
462.083	21737.82
462.289	21274.98
462.494	21567.84
462.7	20185.46
462.905	19904.89
463.111	20355.44
463.316	20513.14
463.522	19730.81
463.727	20253.05
463.932	19964.28
464.138	19845.5
464.343	20109.69
464.549	19181.96
464.754	19792.25
464.959	20009.34
465.165	19753.34
465.37	18880.91
465.575	18479.5
465.781	19114.38
465.986	19327.36
466.191	18401.68
466.397	18262.42
466.602	17265.06
466.807	18362.77
467.012	18200.98
467.218	17981.85
467.423	17664.41
