Data from USB4F104151__16__12-27-05-557.txt Node

Date: Fri Mar 14 12:27:05 EDT 2025
User: louis
Spectrometer: USB4F10415
Trigger mode: 4
Integration Time (sec): 2.000000E-2
Scans to average: 1
Electric dark correction enabled: true
Nonlinearity correction enabled: false
Boxcar width: 0
XAxis mode: Wavelengths
Number of Pixels in Spectrum: 3648
>>>>>Begin Spectral Data<<<<<
178.204	-56.32
178.424	-56.32
178.644	-56.32
178.864	-15.36
179.084	-54.27
179.304	-76.8
179.524	35.84
179.744	-23.55
179.964	50.18
180.184	-13.31
180.404	-27.65
180.624	35.84
180.844	-13.31
181.064	11.26
181.283	44.03
181.503	-35.84
181.723	13.31
181.943	-33.79
182.163	23.55
182.383	-35.84
182.602	56.32
182.822	7.17
183.042	50.18
183.262	56.32
183.482	29.7
183.701	39.94
183.921	-21.5
184.141	-1.02
184.361	66.56
184.58	84.99
184.8	27.65
185.02	64.51
185.239	54.27
185.459	46.08
185.679	89.09
185.898	5.12
186.118	-41.98
186.338	35.84
186.557	23.55
186.777	25.6
186.997	11.26
187.216	41.98
187.436	64.51
187.655	54.27
187.875	76.8
188.095	-37.89
188.314	31.74
188.534	70.65
188.753	23.55
188.973	33.79
189.192	54.27
189.412	39.94
189.631	1.02
189.851	25.6
190.07	50.18
190.29	-23.55
190.509	-1.02
190.729	17.41
190.948	-33.79
191.168	113.66
191.387	66.56
191.607	-5.12
191.826	91.13
192.045	15.36
192.265	66.56
192.484	-13.31
192.704	62.46
192.923	46.08
193.142	82.94
193.362	46.08
193.581	113.66
193.8	-25.6
194.02	31.74
194.239	-37.89
194.458	84.99
194.678	-19.46
194.897	115.71
195.116	78.85
195.335	23.55
195.555	48.13
195.774	35.84
195.993	82.94
196.212	-1.02
196.432	35.84
196.651	41.98
196.87	95.23
197.089	48.13
197.308	23.55
197.528	76.8
197.747	-1.02
197.966	48.13
198.185	58.37
198.404	-29.7
198.623	68.61
198.842	15.36
199.062	58.37
199.281	97.28
199.5	13.31
199.719	87.04
199.938	-23.55
200.157	125.95
200.376	46.08
200.595	52.22
200.814	64.51
201.033	52.22
201.252	19.46
201.471	76.8
201.69	44.03
201.909	101.37
202.128	19.46
202.347	21.5
202.566	74.75
202.785	87.04
203.004	52.22
203.223	125.95
203.442	9.22
203.661	25.6
203.879	78.85
204.098	56.32
204.317	56.32
204.536	76.8
204.755	31.74
204.974	35.84
205.193	29.7
205.411	84.99
205.63	117.76
205.849	-3.07
206.068	19.46
206.287	15.36
206.505	11.26
206.724	50.18
206.943	-25.6
207.162	87.04
207.381	150.53
207.599	-19.46
207.818	33.79
208.037	7.17
208.255	11.26
208.474	72.7
208.693	35.84
208.911	-5.12
209.13	64.51
209.349	27.65
209.567	5.12
209.786	50.18
210.005	80.89
210.223	27.65
210.442	-15.36
210.661	58.37
210.879	7.17
211.098	89.09
211.316	60.42
211.535	3.07
211.753	-35.84
211.972	27.65
212.191	44.03
212.409	95.23
212.628	82.94
212.846	15.36
213.065	-11.26
213.283	41.98
213.502	60.42
213.72	91.13
213.938	-21.5
214.157	103.42
214.375	56.32
214.594	-27.65
214.812	23.55
215.031	13.31
215.249	58.37
215.467	3.07
215.686	41.98
215.904	101.37
216.122	52.22
216.341	9.22
216.559	-13.31
216.778	-3.07
216.996	19.46
217.214	68.61
217.432	60.42
217.651	-23.55
217.869	-1.02
218.087	39.94
218.306	68.61
218.524	84.99
218.742	60.42
218.96	44.03
219.179	11.26
219.397	64.51
219.615	-5.12
219.833	54.27
220.051	21.5
220.27	91.13
220.488	109.57
220.706	5.12
220.924	-15.36
221.142	89.09
221.36	93.18
221.578	82.94
221.796	31.74
222.015	-19.46
222.233	39.94
222.451	37.89
222.669	62.46
222.887	1.02
223.105	52.22
223.323	82.94
223.541	-99.33
223.759	76.8
223.977	39.94
224.195	58.37
224.413	44.03
224.631	21.5
224.849	56.32
225.067	52.22
225.285	39.94
225.503	64.51
225.721	19.46
225.939	74.75
226.157	39.94
226.375	107.52
226.592	70.65
226.81	-35.84
227.028	54.27
227.246	35.84
227.464	39.94
227.682	101.37
227.9	117.76
228.117	-21.5
228.335	5.12
228.553	21.5
228.771	41.98
228.989	35.84
229.206	39.94
229.424	31.74
229.642	-50.18
229.86	-35.84
230.077	72.7
230.295	-37.89
230.513	123.9
230.731	50.18
230.948	146.43
231.166	60.42
231.384	15.36
231.601	41.98
231.819	99.33
232.037	52.22
232.254	-41.98
232.472	56.32
232.689	87.04
232.907	93.18
233.125	-41.98
233.342	41.98
233.56	-29.7
233.777	3.07
233.995	66.56
234.213	128
234.43	37.89
234.648	13.31
234.865	50.18
235.083	21.5
235.3	82.94
235.518	56.32
235.735	91.13
235.953	99.33
236.17	62.46
236.388	-23.55
236.605	64.51
236.822	39.94
237.04	58.37
237.257	50.18
237.475	-5.12
237.692	35.84
237.909	44.03
238.127	70.65
238.344	56.32
238.562	82.94
238.779	58.37
238.996	50.18
239.214	21.5
239.431	-1.02
239.648	-9.22
239.865	84.99
240.083	27.65
240.3	82.94
240.517	25.6
240.735	142.33
240.952	35.84
241.169	56.32
241.386	-5.12
241.603	33.79
241.821	27.65
242.038	76.8
242.255	-25.6
242.472	25.6
242.689	60.42
242.907	54.27
243.124	46.08
243.341	19.46
243.558	76.8
243.775	11.26
243.992	11.26
244.209	87.04
244.426	91.13
244.643	-7.17
244.86	46.08
245.078	-13.31
245.295	21.5
245.512	-37.89
245.729	37.89
245.946	13.31
246.163	60.42
246.38	62.46
246.597	44.03
246.814	99.33
247.031	17.41
247.248	-11.26
247.464	41.98
247.681	84.99
247.898	11.26
248.115	89.09
248.332	56.32
248.549	35.84
248.766	95.23
248.983	101.37
249.2	105.47
249.417	72.7
249.633	74.75
249.85	-17.41
250.067	9.22
250.284	-17.41
250.501	-7.17
250.717	3.07
250.934	-21.5
251.151	7.17
251.368	54.27
251.585	80.89
251.801	-5.12
252.018	44.03
252.235	60.42
252.451	111.61
252.668	-1.02
252.885	44.03
253.102	17.41
253.318	7.17
253.535	68.61
253.752	58.37
253.968	70.65
254.185	62.46
254.401	60.42
254.618	80.89
254.835	78.85
255.051	29.7
255.268	62.46
255.484	39.94
255.701	76.8
255.917	89.09
256.134	21.5
256.351	82.94
256.567	68.61
256.784	-44.03
257	17.41
257.217	13.31
257.433	152.57
257.65	76.8
257.866	25.6
258.082	3.07
258.299	19.46
258.515	44.03
258.732	58.37
258.948	27.65
259.165	41.98
259.381	44.03
259.597	29.7
259.814	54.27
260.03	56.32
260.246	17.41
260.463	52.22
260.679	23.55
260.895	11.26
261.112	72.7
261.328	-76.8
261.544	64.51
261.761	95.23
261.977	3.07
262.193	-11.26
262.409	66.56
262.626	17.41
262.842	37.89
263.058	21.5
263.274	76.8
263.49	54.27
263.707	117.76
263.923	109.57
264.139	56.32
264.355	56.32
264.571	58.37
264.787	-5.12
265.004	15.36
265.22	-7.17
265.436	44.03
265.652	33.79
265.868	11.26
266.084	54.27
266.3	60.42
266.516	-15.36
266.732	48.13
266.948	13.31
267.164	29.7
267.38	95.23
267.596	64.51
267.812	107.52
268.028	82.94
268.244	70.65
268.46	48.13
268.676	3.07
268.892	84.99
269.108	44.03
269.324	-37.89
269.54	-3.07
269.756	128
269.972	31.74
270.188	7.17
270.403	125.95
270.619	70.65
270.835	74.75
271.051	80.89
271.267	60.42
271.483	-3.07
271.698	50.18
271.914	72.7
272.13	56.32
272.346	-1.02
272.562	50.18
272.777	41.98
272.993	48.13
273.209	31.74
273.425	31.74
273.64	15.36
273.856	91.13
274.072	91.13
274.287	62.46
274.503	60.42
274.719	66.56
274.934	-11.26
275.15	27.65
275.366	13.31
275.581	13.31
275.797	-25.6
276.012	50.18
276.228	39.94
276.444	72.7
276.659	89.09
276.875	76.8
277.09	-1.02
277.306	48.13
277.521	1.02
277.737	39.94
277.952	93.18
278.168	3.07
278.383	78.85
278.599	64.51
278.814	97.28
279.03	-56.32
279.245	123.9
279.461	56.32
279.676	50.18
279.892	72.7
280.107	25.6
280.322	11.26
280.538	66.56
280.753	50.18
280.969	66.56
281.184	11.26
281.399	46.08
281.615	78.85
281.83	-5.12
282.045	93.18
282.26	58.37
282.476	52.22
282.691	39.94
282.906	111.61
283.122	-60.42
283.337	31.74
283.552	58.37
283.767	72.7
283.983	15.36
284.198	113.66
284.413	50.18
284.628	19.46
284.843	25.6
285.058	87.04
285.274	1.02
285.489	23.55
285.704	52.22
285.919	23.55
286.134	21.5
286.349	64.51
286.564	66.56
286.779	33.79
286.995	103.42
287.21	80.89
287.425	37.89
287.64	-25.6
287.855	62.46
288.07	44.03
288.285	89.09
288.5	29.7
288.715	35.84
288.93	29.7
289.145	25.6
289.36	62.46
289.575	56.32
289.79	62.46
290.004	62.46
290.219	87.04
290.434	89.09
290.649	29.7
290.864	52.22
291.079	68.61
291.294	11.26
291.509	9.22
291.724	107.52
291.938	48.13
292.153	95.23
292.368	48.13
292.583	54.27
292.798	103.42
293.012	44.03
293.227	29.7
293.442	15.36
293.657	123.9
293.871	35.84
294.086	1.02
294.301	33.79
294.516	52.22
294.73	-27.65
294.945	7.17
295.16	58.37
295.374	117.76
295.589	56.32
295.804	29.7
296.018	27.65
296.233	84.99
296.447	117.76
296.662	66.56
296.877	105.47
297.091	78.85
297.306	89.09
297.52	62.46
297.735	50.18
297.949	-13.31
298.164	62.46
298.378	91.13
298.593	41.98
298.807	-54.27
299.022	87.04
299.236	70.65
299.451	1.02
299.665	7.17
299.88	23.55
300.094	-35.84
300.309	-29.7
300.523	13.31
300.737	15.36
300.952	60.42
301.166	33.79
301.381	15.36
301.595	48.13
301.809	101.37
302.024	44.03
302.238	60.42
302.452	68.61
302.667	50.18
302.881	68.61
303.095	132.09
303.309	41.98
303.524	33.79
303.738	27.65
303.952	23.55
304.166	9.22
304.381	44.03
304.595	58.37
304.809	-50.18
305.023	35.84
305.237	-19.46
305.452	7.17
305.666	50.18
305.88	17.41
306.094	17.41
306.308	54.27
306.522	76.8
306.736	-19.46
306.95	78.85
307.164	33.79
307.379	58.37
307.593	70.65
307.807	25.6
308.021	54.27
308.235	52.22
308.449	-21.5
308.663	-3.07
308.877	1.02
309.091	68.61
309.305	33.79
309.519	13.31
309.733	60.42
309.947	-27.65
310.161	27.65
310.374	99.33
310.588	19.46
310.802	62.46
311.016	66.56
311.23	9.22
311.444	82.94
311.658	3.07
311.872	62.46
312.085	74.75
312.299	48.13
312.513	33.79
312.727	93.18
312.941	-5.12
313.154	72.7
313.368	-1.02
313.582	97.28
313.796	21.5
314.009	-23.55
314.223	66.56
314.437	29.7
314.651	27.65
314.864	37.89
315.078	103.42
315.292	35.84
315.505	31.74
315.719	48.13
315.933	48.13
316.146	25.6
316.36	56.32
316.573	-54.27
316.787	97.28
317.001	19.46
317.214	9.22
317.428	91.13
317.641	41.98
317.855	64.51
318.068	82.94
318.282	109.57
318.495	58.37
318.709	105.47
318.922	1.02
319.136	-29.7
319.349	58.37
319.563	87.04
319.776	5.12
319.99	41.98
320.203	35.84
320.417	158.72
320.63	113.66
320.843	60.42
321.057	68.61
321.27	58.37
321.483	35.84
321.697	29.7
321.91	82.94
322.124	60.42
322.337	123.9
322.55	62.46
322.763	84.99
322.977	39.94
323.19	-15.36
323.403	72.7
323.617	113.66
323.83	117.76
324.043	64.51
324.256	23.55
324.469	-13.31
324.683	41.98
324.896	29.7
325.109	44.03
325.322	70.65
325.535	48.13
325.748	7.17
325.962	84.99
326.175	27.65
326.388	109.57
326.601	78.85
326.814	56.32
327.027	-17.41
327.24	44.03
327.453	54.27
327.666	56.32
327.879	113.66
328.092	19.46
328.305	87.04
328.518	-27.65
328.731	54.27
328.944	64.51
329.157	87.04
329.37	46.08
329.583	74.75
329.796	111.61
330.009	19.46
330.222	39.94
330.435	54.27
330.648	72.7
330.861	-11.26
331.073	62.46
331.286	48.13
331.499	107.52
331.712	35.84
331.925	128
332.138	91.13
332.35	60.42
332.563	58.37
332.776	76.8
332.989	1.02
333.202	87.04
333.414	74.75
333.627	37.89
333.84	1.02
334.053	99.33
334.265	66.56
334.478	44.03
334.691	60.42
334.903	7.17
335.116	39.94
335.329	-33.79
335.541	54.27
335.754	31.74
335.966	11.26
336.179	50.18
336.392	41.98
336.604	54.27
336.817	95.23
337.029	62.46
337.242	101.37
337.454	195.58
337.667	87.04
337.88	109.57
338.092	52.22
338.305	89.09
338.517	82.94
338.729	107.52
338.942	70.65
339.154	19.46
339.367	68.61
339.579	82.94
339.792	15.36
340.004	37.89
340.217	39.94
340.429	58.37
340.641	109.57
340.854	89.09
341.066	44.03
341.278	80.89
341.491	74.75
341.703	-27.65
341.915	103.42
342.128	5.12
342.34	54.27
342.552	54.27
342.764	62.46
342.977	58.37
343.189	130.05
343.401	80.89
343.613	78.85
343.826	91.13
344.038	37.89
344.25	52.22
344.462	58.37
344.674	56.32
344.886	68.61
345.099	29.7
345.311	78.85
345.523	46.08
345.735	-3.07
345.947	123.9
346.159	72.7
346.371	80.89
346.583	60.42
346.795	35.84
347.007	-9.22
347.219	33.79
347.431	33.79
347.643	52.22
347.855	82.94
348.067	70.65
348.279	60.42
348.491	99.33
348.703	82.94
348.915	37.89
349.127	113.66
349.339	33.79
349.551	56.32
349.763	70.65
349.975	29.7
350.187	48.13
350.399	50.18
350.61	17.41
350.822	84.99
351.034	68.61
351.246	39.94
351.458	99.33
351.669	87.04
351.881	119.81
352.093	44.03
352.305	107.52
352.517	56.32
352.728	78.85
352.94	107.52
353.152	117.76
353.363	31.74
353.575	3.07
353.787	21.5
353.999	99.33
354.21	93.18
354.422	87.04
354.633	13.31
354.845	60.42
355.057	50.18
355.268	27.65
355.48	62.46
355.692	25.6
355.903	113.66
356.115	37.89
356.326	29.7
356.538	103.42
356.749	54.27
356.961	76.8
357.172	60.42
357.384	15.36
357.595	60.42
357.807	58.37
358.018	35.84
358.23	74.75
358.441	121.85
358.653	52.22
358.864	68.61
359.075	48.13
359.287	35.84
359.498	37.89
359.709	103.42
359.921	25.6
360.132	52.22
360.344	58.37
360.555	37.89
360.766	89.09
360.977	60.42
361.189	48.13
361.4	74.75
361.611	91.13
361.823	130.05
362.034	3.07
362.245	27.65
362.456	52.22
362.667	52.22
362.879	54.27
363.09	37.89
363.301	99.33
363.512	89.09
363.723	44.03
363.935	97.28
364.146	111.61
364.357	17.41
364.568	101.37
364.779	52.22
364.99	105.47
365.201	44.03
365.412	50.18
365.623	-9.22
365.834	87.04
366.045	84.99
366.256	56.32
366.467	-17.41
366.678	39.94
366.889	23.55
367.1	78.85
367.311	76.8
367.522	52.22
367.733	62.46
367.944	35.84
368.155	44.03
368.366	87.04
368.577	52.22
368.788	15.36
368.999	56.32
369.209	117.76
369.42	48.13
369.631	125.95
369.842	74.75
370.053	33.79
370.264	39.94
370.474	56.32
370.685	138.24
370.896	58.37
371.107	80.89
371.317	97.28
371.528	95.23
371.739	101.37
371.95	150.53
372.16	115.71
372.371	62.46
372.582	-5.12
372.792	97.28
373.003	60.42
373.214	46.08
373.424	89.09
373.635	-33.79
373.846	76.8
374.056	72.7
374.267	48.13
374.477	48.13
374.688	29.7
374.898	72.7
375.109	62.46
375.319	93.18
375.53	93.18
375.74	134.14
375.951	-1.02
376.161	35.84
376.372	9.22
376.582	37.89
376.793	109.57
377.003	-5.12
377.214	52.22
377.424	-7.17
377.635	46.08
377.845	70.65
378.055	115.71
378.266	103.42
378.476	105.47
378.686	58.37
378.897	52.22
379.107	87.04
379.317	105.47
379.528	3.07
379.738	113.66
379.948	15.36
380.158	146.43
380.369	125.95
380.579	138.24
380.789	46.08
380.999	115.71
381.21	84.99
381.42	39.94
381.63	50.18
381.84	21.5
382.05	95.23
382.261	91.13
382.471	-3.07
382.681	164.86
382.891	82.94
383.101	37.89
383.311	50.18
383.521	25.6
383.731	21.5
383.941	70.65
384.151	101.37
384.361	93.18
384.571	68.61
384.781	150.53
384.991	103.42
385.201	93.18
385.411	175.1
385.621	121.85
385.831	48.13
386.041	115.71
386.251	68.61
386.461	103.42
386.671	74.75
386.881	99.33
387.091	17.41
387.301	82.94
387.511	48.13
387.72	87.04
387.93	87.04
388.14	23.55
388.35	44.03
388.56	44.03
388.769	95.23
388.979	84.99
389.189	-7.17
389.399	46.08
389.609	142.33
389.818	132.09
390.028	134.14
390.238	11.26
390.447	33.79
390.657	52.22
390.867	93.18
391.076	132.09
391.286	115.71
391.496	123.9
391.705	142.33
391.915	107.52
392.125	105.47
392.334	164.86
392.544	11.26
392.753	84.99
392.963	99.33
393.172	123.9
393.382	17.41
393.591	105.47
393.801	21.5
394.01	105.47
394.22	107.52
394.429	62.46
394.639	93.18
394.848	115.71
395.058	119.81
395.267	78.85
395.477	66.56
395.686	95.23
395.895	121.85
396.105	142.33
396.314	148.48
396.524	132.09
396.733	95.23
396.942	144.38
397.152	134.14
397.361	138.24
397.57	62.46
397.78	84.99
397.989	128
398.198	132.09
398.407	121.85
398.617	130.05
398.826	203.77
399.035	105.47
399.244	123.9
399.453	150.53
399.663	164.86
399.872	205.82
400.081	138.24
400.29	62.46
400.499	146.43
400.708	164.86
400.917	103.42
401.127	142.33
401.336	89.09
401.545	152.57
401.754	134.14
401.963	156.67
402.172	154.62
402.381	232.44
402.59	113.66
402.799	107.52
403.008	103.42
403.217	150.53
403.426	113.66
403.635	146.43
403.844	183.29
404.053	164.86
404.262	154.62
404.471	191.49
404.68	244.73
404.888	121.85
405.097	195.58
405.306	115.71
405.515	144.38
405.724	146.43
405.933	183.29
406.142	234.49
406.35	244.73
406.559	199.68
406.768	136.19
406.977	314.36
407.185	265.21
407.394	230.4
407.603	205.82
407.812	197.63
408.02	277.5
408.229	240.64
408.438	326.65
408.646	365.56
408.855	195.58
409.064	224.25
409.272	375.8
409.481	379.9
409.69	297.98
409.898	332.79
410.107	412.67
410.315	379.9
410.524	297.98
410.733	322.56
410.941	437.24
411.15	363.51
411.358	406.52
411.567	377.85
411.775	445.43
411.984	429.05
412.192	449.53
412.401	453.63
412.609	508.92
412.818	588.79
413.026	535.54
413.234	578.55
413.443	588.79
413.651	560.12
413.86	683
414.068	615.41
414.276	625.65
414.485	599.03
414.693	691.19
414.901	668.66
415.11	695.29
415.318	715.77
415.526	857.07
415.734	842.74
415.943	873.46
416.151	955.38
416.359	926.71
416.567	912.37
416.776	979.95
416.984	918.51
417.192	1049.58
417.4	1096.69
417.608	951.28
417.817	1072.11
418.025	1178.61
418.233	1260.52
418.441	1229.81
418.649	1266.67
418.857	1391.59
419.065	1356.78
419.273	1407.98
419.481	1432.55
419.689	1631.21
419.897	1614.82
420.105	1655.78
420.313	1682.41
420.521	1754.09
420.729	1844.2
420.937	1725.41
421.145	1850.34
421.353	2051.04
421.561	2102.24
421.769	2135.01
421.977	2218.97
422.185	2110.43
422.393	2382.81
422.601	2483.16
422.809	2378.72
423.017	2431.96
423.224	2589.66
423.432	2784.21
423.64	2653.14
423.848	3003.35
424.056	2823.12
424.263	3011.54
424.471	3093.46
424.679	3070.93
424.887	3269.58
425.094	3367.88
425.302	3316.69
425.51	3617.74
425.718	3687.37
425.925	3611.59
426.133	3916.74
426.341	4154.3
426.548	4330.43
426.756	4201.41
426.964	4318.14
427.171	4391.87
427.379	4547.51
427.586	4643.77
427.794	4850.61
428.001	5006.26
428.209	5370.8
428.417	5235.63
428.624	5501.87
428.832	5608.36
429.039	5682.09
429.247	5485.48
429.454	6034.34
429.662	6421.41
429.869	6020
430.076	6534.04
430.284	6192.03
430.491	6613.92
430.699	6953.88
430.906	6910.87
431.114	7068.56
431.321	7246.74
431.528	7433.1
431.736	8141.7
431.943	8356.74
432.15	7912.33
432.358	8207.23
432.565	8438.66
432.772	8604.54
432.979	9059.19
433.187	9251.7
433.394	9323.38
433.601	9919.34
433.808	9991.02
434.016	10142.57
434.223	10371.94
434.43	10570.59
434.637	10675.04
434.844	11645.77
435.052	11645.77
435.259	11606.86
435.466	11742.03
435.673	11686.73
435.88	12385.09
436.087	12976.95
436.294	12753.73
436.501	12798.78
436.708	12747.58
436.915	13366.07
437.122	14035.75
437.329	13962.03
437.537	14328.61
437.743	14836.51
437.95	14564.13
438.157	15094.55
438.364	15852.3
438.571	15760.14
438.778	15706.9
438.985	17498.87
439.192	16552.71
439.399	17138.43
439.606	16952.06
439.813	18090.73
440.02	18961.12
440.227	18617.06
440.433	18465.51
440.64	18983.65
440.847	18793.19
441.054	19274.46
441.261	20769.48
441.467	20476.62
441.674	20746.95
441.881	21725.88
442.088	21566.13
442.294	21332.67
442.501	21871.28
442.708	22317.74
442.914	23200.41
443.121	24171.15
443.328	23655.06
443.534	25295.49
443.741	24611.46
443.948	24298.13
444.154	25920.12
444.361	25909.88
444.568	25830.01
444.774	26026.61
444.981	26405.49
445.187	27132.51
445.394	28531.28
445.6	28004.95
445.807	30636.59
446.013	29329.98
446.22	29487.68
446.426	30841.39
446.633	31494.69
446.839	32147.99
447.046	31013.41
447.252	32829.96
447.459	32795.15
447.665	32610.83
447.871	34226.68
448.078	35553.76
448.284	33804.8
448.491	35318.25
448.697	36114.9
448.903	36932.04
449.11	36913.61
449.316	36395.48
449.522	37229
449.728	38085.05
449.935	37872.06
450.141	38353.33
450.347	39242.15
450.553	37702.08
450.76	38435.25
450.966	39586.21
451.172	39162.28
451.378	40452.5
451.584	39467.43
451.791	40313.24
451.997	40403.35
452.203	41214.35
452.409	41431.43
452.615	40679.83
452.821	39756.19
453.027	39260.58
453.233	40894.86
453.44	39430.57
453.646	40108.44
453.852	40104.35
454.058	40743.31
454.264	39043.5
454.47	40108.44
454.676	39549.35
454.882	41030.03
455.088	36936.14
455.294	37470.66
455.5	37994.94
455.705	38437.3
455.911	36962.76
456.117	36827.6
456.323	35772.89
456.529	34030.07
456.735	35885.53
456.941	34935.27
457.147	34433.52
457.352	33397.25
457.558	32590.35
457.764	32580.11
457.97	32160.28
458.176	31453.73
458.381	31416.86
458.587	30147.12
458.793	30132.79
458.999	28150.35
459.204	30765.61
459.41	29647.42
459.616	27988.56
459.821	27677.27
460.027	27466.33
460.233	26872.42
460.438	25705.08
460.644	25729.66
460.85	24701.58
461.055	24490.63
461.261	24509.07
461.466	22647.46
461.672	21953.2
461.878	23607.96
462.083	21627.57
462.289	21543.61
462.494	21408.44
462.7	20464.33
462.905	20093.65
463.111	20540.1
463.316	20570.82
463.522	20038.35
463.727	20374.22
463.932	20218.57
464.138	19948.24
464.343	20165.32
464.549	19628.76
464.754	20099.79
464.959	19698.39
465.165	20091.6
465.37	18895.58
465.575	18565.86
465.781	19065.57
465.986	19370.71
466.191	18795.23
466.397	18223.85
466.602	17341.18
466.807	18232.04
467.012	18098.92
467.218	17849.07
