Data from USB4F104151__4__12-26-54-200.txt Node

Date: Fri Mar 14 12:26:54 EDT 2025
User: louis
Spectrometer: USB4F10415
Trigger mode: 4
Integration Time (sec): 2.000000E-2
Scans to average: 1
Electric dark correction enabled: true
Nonlinearity correction enabled: false
Boxcar width: 0
XAxis mode: Wavelengths
Number of Pixels in Spectrum: 3648
>>>>>Begin Spectral Data<<<<<
178.204	-62.46
178.424	-62.46
178.644	-62.46
178.864	-121.85
179.084	-80.89
179.304	-44.03
179.524	-41.98
179.744	1.02
179.964	35.84
180.184	31.74
180.404	-9.22
180.624	-44.03
180.844	11.26
181.064	1.02
181.283	48.13
181.503	-15.36
181.723	25.6
181.943	3.07
182.163	1.02
182.383	-7.17
182.602	13.31
182.822	54.27
183.042	1.02
183.262	62.46
183.482	31.74
183.701	37.89
183.921	52.22
184.141	-1.02
184.361	60.42
184.58	-48.13
184.8	-21.5
185.02	-19.46
185.239	48.13
185.459	-15.36
185.679	66.56
185.898	39.94
186.118	95.23
186.338	29.7
186.557	132.09
186.777	-48.13
186.997	111.61
187.216	7.17
187.436	37.89
187.655	27.65
187.875	44.03
188.095	-33.79
188.314	27.65
188.534	21.5
188.753	-1.02
188.973	19.46
189.192	70.65
189.412	21.5
189.631	17.41
189.851	-23.55
190.07	78.85
190.29	-31.74
190.509	-7.17
190.729	46.08
190.948	99.33
191.168	160.77
191.387	9.22
191.607	5.12
191.826	-5.12
192.045	25.6
192.265	23.55
192.484	-3.07
192.704	37.89
192.923	-68.61
193.142	113.66
193.362	25.6
193.581	80.89
193.8	-50.18
194.02	64.51
194.239	46.08
194.458	54.27
194.678	23.55
194.897	25.6
195.116	64.51
195.335	23.55
195.555	72.7
195.774	52.22
195.993	48.13
196.212	25.6
196.432	-27.65
196.651	21.5
196.87	103.42
197.089	62.46
197.308	89.09
197.528	-11.26
197.747	-7.17
197.966	76.8
198.185	72.7
198.404	95.23
198.623	46.08
198.842	97.28
199.062	5.12
199.281	56.32
199.5	5.12
199.719	9.22
199.938	-1.02
200.157	72.7
200.376	7.17
200.595	13.31
200.814	-27.65
201.033	-5.12
201.252	3.07
201.471	74.75
201.69	99.33
201.909	3.07
202.128	23.55
202.347	35.84
202.566	9.22
202.785	-11.26
203.004	3.07
203.223	82.94
203.442	17.41
203.661	23.55
203.879	62.46
204.098	15.36
204.317	-1.02
204.536	-11.26
204.755	29.7
204.974	17.41
205.193	-41.98
205.411	162.81
205.63	19.46
205.849	23.55
206.068	7.17
206.287	60.42
206.505	19.46
206.724	7.17
206.943	70.65
207.162	15.36
207.381	35.84
207.599	33.79
207.818	-54.27
208.037	-7.17
208.255	7.17
208.474	128
208.693	-3.07
208.911	-27.65
209.13	13.31
209.349	82.94
209.567	50.18
209.786	62.46
210.005	5.12
210.223	64.51
210.442	68.61
210.661	52.22
210.879	-23.55
211.098	-7.17
211.316	72.7
211.535	33.79
211.753	-21.5
211.972	-17.41
212.191	50.18
212.409	15.36
212.628	91.13
212.846	-5.12
213.065	41.98
213.283	-9.22
213.502	60.42
213.72	44.03
213.938	7.17
214.157	29.7
214.375	66.56
214.594	105.47
214.812	-5.12
215.031	62.46
215.249	13.31
215.467	99.33
215.686	29.7
215.904	68.61
216.122	-13.31
216.341	11.26
216.559	44.03
216.778	33.79
216.996	154.62
217.214	39.94
217.432	-52.22
217.651	15.36
217.869	68.61
218.087	19.46
218.306	31.74
218.524	37.89
218.742	70.65
218.96	76.8
219.179	52.22
219.397	72.7
219.615	58.37
219.833	74.75
220.051	44.03
220.27	25.6
220.488	54.27
220.706	33.79
220.924	1.02
221.142	-13.31
221.36	58.37
221.578	123.9
221.796	-5.12
222.015	35.84
222.233	27.65
222.451	39.94
222.669	17.41
222.887	50.18
223.105	23.55
223.323	23.55
223.541	-66.56
223.759	82.94
223.977	46.08
224.195	80.89
224.413	46.08
224.631	44.03
224.849	46.08
225.067	76.8
225.285	72.7
225.503	17.41
225.721	-15.36
225.939	-5.12
226.157	60.42
226.375	125.95
226.592	21.5
226.81	107.52
227.028	91.13
227.246	109.57
227.464	58.37
227.682	48.13
227.9	29.7
228.117	48.13
228.335	99.33
228.553	27.65
228.771	48.13
228.989	78.85
229.206	76.8
229.424	-15.36
229.642	-5.12
229.86	54.27
230.077	27.65
230.295	25.6
230.513	72.7
230.731	-5.12
230.948	31.74
231.166	72.7
231.384	13.31
231.601	56.32
231.819	9.22
232.037	70.65
232.254	52.22
232.472	103.42
232.689	72.7
232.907	48.13
233.125	-7.17
233.342	-21.5
233.56	-11.26
233.777	19.46
233.995	62.46
234.213	74.75
234.43	27.65
234.648	19.46
234.865	54.27
235.083	27.65
235.3	19.46
235.518	50.18
235.735	66.56
235.953	97.28
236.17	23.55
236.388	33.79
236.605	25.6
236.822	62.46
237.04	23.55
237.257	74.75
237.475	23.55
237.692	19.46
237.909	-37.89
238.127	72.7
238.344	-3.07
238.562	17.41
238.779	39.94
238.996	25.6
239.214	9.22
239.431	113.66
239.648	33.79
239.865	54.27
240.083	54.27
240.3	-3.07
240.517	-5.12
240.735	17.41
240.952	70.65
241.169	121.85
241.386	93.18
241.603	70.65
241.821	50.18
242.038	72.7
242.255	68.61
242.472	1.02
242.689	58.37
242.907	62.46
243.124	37.89
243.341	3.07
243.558	-9.22
243.775	-46.08
243.992	-31.74
244.209	41.98
244.426	19.46
244.643	87.04
244.86	-9.22
245.078	84.99
245.295	7.17
245.512	76.8
245.729	3.07
245.946	29.7
246.163	70.65
246.38	54.27
246.597	52.22
246.814	33.79
247.031	68.61
247.248	64.51
247.464	60.42
247.681	39.94
247.898	-19.46
248.115	66.56
248.332	-21.5
248.549	27.65
248.766	117.76
248.983	84.99
249.2	9.22
249.417	76.8
249.633	54.27
249.85	-33.79
250.067	-41.98
250.284	37.89
250.501	60.42
250.717	76.8
250.934	82.94
251.151	-9.22
251.368	70.65
251.585	15.36
251.801	25.6
252.018	31.74
252.235	-48.13
252.451	58.37
252.668	3.07
252.885	64.51
253.102	46.08
253.318	-3.07
253.535	44.03
253.752	25.6
253.968	-5.12
254.185	-5.12
254.401	-17.41
254.618	54.27
254.835	13.31
255.051	111.61
255.268	11.26
255.484	87.04
255.701	54.27
255.917	7.17
256.134	27.65
256.351	58.37
256.567	11.26
256.784	33.79
257	-44.03
257.217	87.04
257.433	76.8
257.65	70.65
257.866	23.55
258.082	-17.41
258.299	-11.26
258.515	23.55
258.732	25.6
258.948	-21.5
259.165	25.6
259.381	-15.36
259.597	35.84
259.814	25.6
260.03	17.41
260.246	39.94
260.463	97.28
260.679	97.28
260.895	39.94
261.112	46.08
261.328	56.32
261.544	-76.8
261.761	-7.17
261.977	-17.41
262.193	-29.7
262.409	64.51
262.626	54.27
262.842	21.5
263.058	64.51
263.274	74.75
263.49	21.5
263.707	33.79
263.923	25.6
264.139	78.85
264.355	46.08
264.571	93.18
264.787	-25.6
265.004	68.61
265.22	70.65
265.436	-48.13
265.652	-31.74
265.868	62.46
266.084	27.65
266.3	60.42
266.516	5.12
266.732	15.36
266.948	25.6
267.164	52.22
267.38	76.8
267.596	23.55
267.812	33.79
268.028	46.08
268.244	11.26
268.46	64.51
268.676	41.98
268.892	101.37
269.108	7.17
269.324	-44.03
269.54	48.13
269.756	46.08
269.972	-23.55
270.188	48.13
270.403	27.65
270.619	27.65
270.835	-7.17
271.051	29.7
271.267	23.55
271.483	25.6
271.698	37.89
271.914	27.65
272.13	-3.07
272.346	-3.07
272.562	21.5
272.777	66.56
272.993	35.84
273.209	21.5
273.425	50.18
273.64	-78.85
273.856	105.47
274.072	93.18
274.287	-19.46
274.503	62.46
274.719	33.79
274.934	62.46
275.15	-1.02
275.366	29.7
275.581	37.89
275.797	54.27
276.012	50.18
276.228	9.22
276.444	113.66
276.659	107.52
276.875	5.12
277.09	-23.55
277.306	-29.7
277.521	9.22
277.737	-19.46
277.952	70.65
278.168	-11.26
278.383	-3.07
278.599	-39.94
278.814	39.94
279.03	60.42
279.245	62.46
279.461	-1.02
279.676	84.99
279.892	33.79
280.107	-9.22
280.322	48.13
280.538	11.26
280.753	62.46
280.969	50.18
281.184	66.56
281.399	62.46
281.615	33.79
281.83	64.51
282.045	-1.02
282.26	1.02
282.476	58.37
282.691	-25.6
282.906	11.26
283.122	15.36
283.337	15.36
283.552	101.37
283.767	-17.41
283.983	78.85
284.198	15.36
284.413	58.37
284.628	9.22
284.843	7.17
285.058	74.75
285.274	21.5
285.489	9.22
285.704	1.02
285.919	21.5
286.134	62.46
286.349	62.46
286.564	23.55
286.779	-25.6
286.995	128
287.21	17.41
287.425	84.99
287.64	56.32
287.855	1.02
288.07	-72.7
288.285	66.56
288.5	39.94
288.715	119.81
288.93	-7.17
289.145	-29.7
289.36	-5.12
289.575	35.84
289.79	44.03
290.004	1.02
290.219	-17.41
290.434	39.94
290.649	31.74
290.864	-13.31
291.079	89.09
291.294	39.94
291.509	50.18
291.724	41.98
291.938	3.07
292.153	111.61
292.368	52.22
292.583	109.57
292.798	91.13
293.012	-3.07
293.227	44.03
293.442	50.18
293.657	46.08
293.871	21.5
294.086	78.85
294.301	138.24
294.516	56.32
294.73	13.31
294.945	-11.26
295.16	89.09
295.374	87.04
295.589	97.28
295.804	-29.7
296.018	-11.26
296.233	62.46
296.447	72.7
296.662	37.89
296.877	5.12
297.091	-13.31
297.306	44.03
297.52	54.27
297.735	37.89
297.949	-44.03
298.164	91.13
298.378	-25.6
298.593	29.7
298.807	84.99
299.022	15.36
299.236	-17.41
299.451	41.98
299.665	27.65
299.88	13.31
300.094	78.85
300.309	-5.12
300.523	37.89
300.737	7.17
300.952	27.65
301.166	-13.31
301.381	58.37
301.595	103.42
301.809	44.03
302.024	-31.74
302.238	27.65
302.452	-1.02
302.667	52.22
302.881	68.61
303.095	31.74
303.309	33.79
303.524	93.18
303.738	15.36
303.952	-27.65
304.166	72.7
304.381	35.84
304.595	101.37
304.809	109.57
305.023	41.98
305.237	74.75
305.452	25.6
305.666	87.04
305.88	27.65
306.094	31.74
306.308	29.7
306.522	11.26
306.736	3.07
306.95	41.98
307.164	-1.02
307.379	15.36
307.593	33.79
307.807	109.57
308.021	41.98
308.235	56.32
308.449	3.07
308.663	48.13
308.877	142.33
309.091	37.89
309.305	-7.17
309.519	50.18
309.733	134.14
309.947	54.27
310.161	27.65
310.374	11.26
310.588	74.75
310.802	76.8
311.016	33.79
311.23	33.79
311.444	68.61
311.658	80.89
311.872	80.89
312.085	46.08
312.299	27.65
312.513	17.41
312.727	48.13
312.941	50.18
313.154	84.99
313.368	52.22
313.582	156.67
313.796	64.51
314.009	29.7
314.223	-7.17
314.437	105.47
314.651	15.36
314.864	115.71
315.078	66.56
315.292	70.65
315.505	41.98
315.719	58.37
315.933	44.03
316.146	41.98
316.36	50.18
316.573	154.62
316.787	33.79
317.001	5.12
317.214	-15.36
317.428	78.85
317.641	1.02
317.855	11.26
318.068	37.89
318.282	93.18
318.495	121.85
318.709	54.27
318.922	64.51
319.136	105.47
319.349	101.37
319.563	27.65
319.776	-5.12
319.99	78.85
320.203	72.7
320.417	78.85
320.63	58.37
320.843	44.03
321.057	19.46
321.27	11.26
321.483	66.56
321.697	76.8
321.91	103.42
322.124	62.46
322.337	35.84
322.55	-52.22
322.763	105.47
322.977	3.07
323.19	17.41
323.403	52.22
323.617	76.8
323.83	54.27
324.043	54.27
324.256	19.46
324.469	-15.36
324.683	35.84
324.896	52.22
325.109	-21.5
325.322	48.13
325.535	66.56
325.748	21.5
325.962	9.22
326.175	7.17
326.388	44.03
326.601	29.7
326.814	15.36
327.027	76.8
327.24	93.18
327.453	33.79
327.666	119.81
327.879	-13.31
328.092	84.99
328.305	74.75
328.518	1.02
328.731	-23.55
328.944	62.46
329.157	76.8
329.37	62.46
329.583	78.85
329.796	37.89
330.009	1.02
330.222	66.56
330.435	64.51
330.648	80.89
330.861	95.23
331.073	-19.46
331.286	46.08
331.499	103.42
331.712	19.46
331.925	21.5
332.138	9.22
332.35	41.98
332.563	-39.94
332.776	64.51
332.989	37.89
333.202	84.99
333.414	80.89
333.627	33.79
333.84	-21.5
334.053	52.22
334.265	35.84
334.478	-15.36
334.691	91.13
334.903	11.26
335.116	7.17
335.329	103.42
335.541	33.79
335.754	35.84
335.966	29.7
336.179	52.22
336.392	-11.26
336.604	66.56
336.817	9.22
337.029	148.48
337.242	46.08
337.454	17.41
337.667	3.07
337.88	93.18
338.092	68.61
338.305	68.61
338.517	64.51
338.729	3.07
338.942	23.55
339.154	33.79
339.367	54.27
339.579	68.61
339.792	37.89
340.004	-5.12
340.217	-19.46
340.429	128
340.641	99.33
340.854	39.94
341.066	7.17
341.278	97.28
341.491	23.55
341.703	5.12
341.915	25.6
342.128	195.58
342.34	60.42
342.552	41.98
342.764	19.46
342.977	37.89
343.189	93.18
343.401	37.89
343.613	35.84
343.826	-17.41
344.038	29.7
344.25	60.42
344.462	80.89
344.674	76.8
344.886	46.08
345.099	54.27
345.311	54.27
345.523	50.18
345.735	-56.32
345.947	37.89
346.159	9.22
346.371	35.84
346.583	70.65
346.795	128
347.007	31.74
347.219	31.74
347.431	44.03
347.643	56.32
347.855	7.17
348.067	39.94
348.279	33.79
348.491	84.99
348.703	31.74
348.915	-48.13
349.127	-15.36
349.339	62.46
349.551	-1.02
349.763	48.13
349.975	41.98
350.187	113.66
350.399	76.8
350.61	95.23
350.822	115.71
351.034	64.51
351.246	37.89
351.458	50.18
351.669	50.18
351.881	-11.26
352.093	93.18
352.305	115.71
352.517	74.75
352.728	97.28
352.94	121.85
353.152	39.94
353.363	5.12
353.575	-5.12
353.787	-31.74
353.999	-1.02
354.21	134.14
354.422	9.22
354.633	46.08
354.845	37.89
355.057	44.03
355.268	72.7
355.48	132.09
355.692	-1.02
355.903	95.23
356.115	-39.94
356.326	-13.31
356.538	74.75
356.749	52.22
356.961	70.65
357.172	37.89
357.384	-31.74
357.595	140.29
357.807	5.12
358.018	89.09
358.23	-9.22
358.441	37.89
358.653	95.23
358.864	21.5
359.075	17.41
359.287	95.23
359.498	80.89
359.709	82.94
359.921	58.37
360.132	11.26
360.344	60.42
360.555	93.18
360.766	50.18
360.977	35.84
361.189	1.02
361.4	50.18
361.611	31.74
361.823	111.61
362.034	7.17
362.245	-13.31
362.456	37.89
362.667	-1.02
362.879	19.46
363.09	91.13
363.301	17.41
363.512	95.23
363.723	37.89
363.935	37.89
364.146	31.74
364.357	7.17
364.568	72.7
364.779	-21.5
364.99	123.9
365.201	-11.26
365.412	109.57
365.623	7.17
365.834	87.04
366.045	76.8
366.256	66.56
366.467	33.79
366.678	39.94
366.889	17.41
367.1	21.5
367.311	72.7
367.522	-11.26
367.733	128
367.944	50.18
368.155	89.09
368.366	74.75
368.577	80.89
368.788	115.71
368.999	33.79
369.209	97.28
369.42	95.23
369.631	62.46
369.842	93.18
370.053	70.65
370.264	64.51
370.474	101.37
370.685	9.22
370.896	35.84
371.107	183.29
371.317	37.89
371.528	68.61
371.739	91.13
371.95	19.46
372.16	70.65
372.371	66.56
372.582	54.27
372.792	48.13
373.003	52.22
373.214	33.79
373.424	134.14
373.635	7.17
373.846	72.7
374.056	25.6
374.267	78.85
374.477	80.89
374.688	37.89
374.898	37.89
375.109	23.55
375.319	99.33
375.53	64.51
375.74	74.75
375.951	44.03
376.161	82.94
376.372	87.04
376.582	-23.55
376.793	3.07
377.003	17.41
377.214	91.13
377.424	21.5
377.635	64.51
377.845	101.37
378.055	48.13
378.266	31.74
378.476	29.7
378.686	35.84
378.897	56.32
379.107	68.61
379.317	44.03
379.528	72.7
379.738	121.85
379.948	60.42
380.158	68.61
380.369	66.56
380.579	84.99
380.789	185.34
380.999	134.14
381.21	209.92
381.42	70.65
381.63	68.61
381.84	54.27
382.05	99.33
382.261	31.74
382.471	13.31
382.681	-3.07
382.891	109.57
383.101	130.05
383.311	17.41
383.521	93.18
383.731	87.04
383.941	66.56
384.151	72.7
384.361	46.08
384.571	27.65
384.781	89.09
384.991	123.9
385.201	84.99
385.411	119.81
385.621	130.05
385.831	74.75
386.041	35.84
386.251	52.22
386.461	72.7
386.671	60.42
386.881	84.99
387.091	56.32
387.301	89.09
387.511	46.08
387.72	93.18
387.93	93.18
388.14	64.51
388.35	9.22
388.56	107.52
388.769	54.27
388.979	89.09
389.189	46.08
389.399	84.99
389.609	72.7
389.818	97.28
390.028	105.47
390.238	125.95
390.447	82.94
390.657	72.7
390.867	78.85
391.076	74.75
391.286	158.72
391.496	1.02
391.705	66.56
391.915	111.61
392.125	87.04
392.334	52.22
392.544	76.8
392.753	117.76
392.963	5.12
393.172	130.05
393.382	39.94
393.591	80.89
393.801	70.65
394.01	148.48
394.22	39.94
394.429	89.09
394.639	-13.31
394.848	80.89
395.058	123.9
395.267	109.57
395.477	113.66
395.686	93.18
395.895	214.01
396.105	64.51
396.314	144.38
396.524	138.24
396.733	95.23
396.942	101.37
397.152	130.05
397.361	105.47
397.57	109.57
397.78	138.24
397.989	115.71
398.198	70.65
398.407	175.1
398.617	134.14
398.826	111.61
399.035	171.01
399.244	78.85
399.453	148.48
399.663	113.66
399.872	119.81
400.081	25.6
400.29	123.9
400.499	66.56
400.708	97.28
400.917	68.61
401.127	121.85
401.336	64.51
401.545	107.52
401.754	138.24
401.963	119.81
402.172	44.03
402.381	44.03
402.59	154.62
402.799	62.46
403.008	195.58
403.217	150.53
403.426	140.29
403.635	68.61
403.844	123.9
404.053	205.82
404.262	134.14
404.471	238.59
404.68	148.48
404.888	193.53
405.097	111.61
405.306	267.26
405.515	209.92
405.724	173.05
405.933	138.24
406.142	144.38
406.35	211.96
406.559	203.77
406.768	152.57
406.977	316.41
407.185	140.29
407.394	166.91
407.603	187.39
407.812	205.82
408.02	310.27
408.229	252.92
408.438	257.02
408.646	162.81
408.855	203.77
409.064	220.16
409.272	228.35
409.481	347.13
409.69	306.17
409.898	375.8
410.107	209.92
410.315	283.64
410.524	328.7
410.733	338.94
410.941	328.7
411.15	353.27
411.358	457.72
411.567	338.94
411.775	322.56
411.984	445.43
412.192	445.43
412.401	529.4
412.609	519.16
412.818	484.34
413.026	502.78
413.234	521.21
413.443	508.92
413.651	525.3
413.86	599.03
414.068	625.65
414.276	631.8
414.485	580.6
414.693	644.09
414.901	590.84
415.11	703.48
415.318	721.91
415.526	732.15
415.734	762.87
415.943	783.35
416.151	836.6
416.359	814.07
416.567	838.64
416.776	928.75
416.984	941.04
417.192	943.09
417.4	934.9
417.608	949.23
417.817	992.24
418.025	1143.79
418.233	1217.52
418.441	1059.82
418.649	1240.05
418.857	1281
419.065	1289.2
419.273	1254.38
419.481	1295.34
419.689	1479.66
419.897	1496.04
420.105	1524.71
420.313	1573.86
420.521	1584.1
420.729	1725.41
420.937	1698.79
421.145	1790.95
421.353	1801.19
421.561	1942.5
421.769	1924.07
421.977	1948.64
422.185	2048.99
422.393	2153.44
422.601	2282.46
422.809	2284.51
423.017	2300.89
423.224	2391
423.432	2474.97
423.64	2558.94
423.848	2739.16
424.056	2626.52
424.263	2771.93
424.471	2866.13
424.679	2900.95
424.887	3120.08
425.094	3173.33
425.302	3142.61
425.51	3404.75
425.718	3367.88
425.925	3439.56
426.133	3754.95
426.341	3701.7
426.548	3810.25
426.756	3967.94
426.964	4021.19
427.171	4277.18
427.379	4301.76
427.586	4416.44
427.794	4578.23
428.001	4897.72
428.209	5012.4
428.417	4795.32
428.624	5223.34
428.832	5225.39
429.039	5194.67
429.247	5229.49
429.454	5862.31
429.662	5950.37
429.869	5704.62
430.076	6247.33
430.284	5919.65
430.491	6181.79
430.699	6691.74
430.906	6554.52
431.114	6400.93
431.321	6912.92
431.528	7148.43
431.736	7400.34
431.943	7814.02
432.15	7615.37
432.358	7642
432.565	8010.63
432.772	8045.45
432.979	8467.33
433.187	8760.19
433.394	8725.37
433.601	9280.37
433.808	9479.02
434.016	9175.92
434.223	9669.48
434.43	10222.44
434.637	9853.8
434.844	10771.29
435.052	10875.74
435.259	10890.07
435.466	10951.51
435.673	11037.53
435.88	11328.34
436.087	12086.09
436.294	12221.25
436.501	11907.91
436.708	11998.02
436.915	12387.14
437.122	13216.57
437.329	13105.98
437.537	13302.58
437.743	13609.78
437.95	13568.82
438.157	14334.76
438.364	14766.88
438.571	14594.85
438.778	14998.3
438.985	16206.6
439.192	15704.85
439.399	16257.8
439.606	15897.36
439.813	16782.08
440.02	17857.26
440.227	17238.78
440.433	17265.4
440.64	17935.09
440.847	17697.52
441.054	18146.03
441.261	19391.19
441.467	19112.67
441.674	19403.48
441.881	20157.13
442.088	19925.71
442.294	20032.21
442.501	20712.13
442.708	20845.25
442.914	21818.04
443.121	22516.39
443.328	22184.62
443.534	23622.3
443.741	22618.79
443.948	22737.57
444.154	24525.45
444.361	24263.31
444.568	24545.93
444.774	24474.25
444.981	24738.44
445.187	25617.02
445.394	26483.31
445.6	26020.47
445.807	28748.36
446.013	27503.2
446.22	28129.87
446.426	29172.29
446.633	28897.86
446.839	30345.78
447.046	28871.24
447.252	30906.92
447.459	30706.22
447.665	30577.2
447.871	32154.13
448.078	33579.52
448.284	31896.09
448.491	32549.39
448.697	33868.28
448.903	34746.86
449.11	34890.22
449.316	33974.78
449.522	34714.09
449.728	35858.91
449.935	36225.5
450.141	35899.87
450.347	36688.34
450.553	35455.46
450.76	36061.66
450.966	37290.44
451.172	37079.5
451.378	37728.7
451.584	37292.49
451.791	38181.31
451.997	38083
452.203	38582.71
452.409	38595
452.615	38490.55
452.821	36884.94
453.027	37149.13
453.233	38324.66
453.44	37173.7
453.646	37632.45
453.852	37626.31
454.058	38414.77
454.264	36938.19
454.47	37964.22
454.676	37358.02
454.882	38560.18
455.088	34937.32
455.294	35645.92
455.5	36180.44
455.705	36209.11
455.911	34849.26
456.117	34226.68
456.323	33886.71
456.529	32293.4
456.735	33831.42
456.941	32881.16
457.147	32137.75
457.352	30904.87
457.558	30712.36
457.764	31095.33
457.97	30378.54
458.176	29829.69
458.381	29794.87
458.587	28256.85
458.793	28504.65
458.999	26978.92
459.204	28817.99
459.41	27961.94
459.616	25881.21
459.821	26120.82
460.027	26077.81
460.233	25385.6
460.438	24449.67
460.644	24580.74
460.85	23302.81
461.055	22874.79
461.261	22919.84
461.466	21234.36
461.672	20507.34
461.878	22215.34
462.083	20802.24
462.289	20380.36
462.494	19974.86
462.7	19280.6
462.905	18666.21
463.111	19389.14
463.316	19694.29
463.522	19194.59
463.727	19190.49
463.932	18973.41
464.138	18954.97
464.343	18979.55
464.549	18387.69
464.754	18916.06
464.959	18813.66
465.165	18780.9
465.37	17918.7
465.575	17425.14
465.781	18209.51
465.986	18088.68
466.191	17548.02
466.397	17212.15
466.602	16528.13
466.807	16993.02
467.012	16831.23
467.218	16956.16
467.423	17025.79
467.628	16933.63
467.833	17505.01
468.038	16933.63
468.244	16521.99
