Data from USB4F104151__90__12-28-15-388.txt Node

Date: Fri Mar 14 12:28:15 EDT 2025
User: louis
Spectrometer: USB4F10415
Trigger mode: 4
Integration Time (sec): 2.000000E-2
Scans to average: 1
Electric dark correction enabled: true
Nonlinearity correction enabled: false
Boxcar width: 0
XAxis mode: Wavelengths
Number of Pixels in Spectrum: 3648
>>>>>Begin Spectral Data<<<<<
178.204	-22.36
178.424	-22.36
178.644	-22.36
178.864	-130.9
179.084	-46.93
179.304	41.13
179.524	-22.36
179.744	2.22
179.964	-10.07
180.184	65.71
180.404	-18.26
180.624	41.13
180.844	-3.93
181.064	-53.08
181.283	-14.17
181.503	-30.55
181.723	2.22
181.943	-14.17
182.163	75.95
182.383	43.18
182.602	45.23
182.822	80.04
183.042	6.31
183.262	26.79
183.482	49.32
183.701	43.18
183.921	-8.02
184.141	-18.26
184.361	108.71
184.58	47.27
184.8	65.71
185.02	77.99
185.239	26.79
185.459	59.56
185.679	22.7
185.898	59.56
186.118	-1.88
186.338	0.17
186.557	47.27
186.777	-18.26
186.997	47.27
187.216	47.27
187.436	88.23
187.655	14.51
187.875	57.51
188.095	63.66
188.314	145.58
188.534	84.14
188.753	37.03
188.973	32.94
189.192	121
189.412	26.79
189.631	47.27
189.851	37.03
190.07	-8.02
190.29	14.51
190.509	22.7
190.729	71.85
190.948	14.51
191.168	108.71
191.387	53.42
191.607	2.22
191.826	28.84
192.045	39.08
192.265	2.22
192.484	4.27
192.704	55.47
192.923	2.22
193.142	84.14
193.362	77.99
193.581	8.36
193.8	43.18
194.02	86.19
194.239	63.66
194.458	92.33
194.678	57.51
194.897	94.38
195.116	37.03
195.335	32.94
195.555	-30.55
195.774	37.03
195.993	-3.93
196.212	43.18
196.432	45.23
196.651	43.18
196.87	-18.26
197.089	49.32
197.308	45.23
197.528	67.75
197.747	30.89
197.966	2.22
198.185	43.18
198.404	-18.26
198.623	73.9
198.842	59.56
199.062	8.36
199.281	16.55
199.5	80.04
199.719	-3.93
199.938	47.27
200.157	77.99
200.376	90.28
200.595	102.57
200.814	43.18
201.033	53.42
201.252	67.75
201.471	39.08
201.69	45.23
201.909	24.75
202.128	34.99
202.347	61.61
202.566	47.27
202.785	-32.6
203.004	80.04
203.223	69.8
203.442	-57.17
203.661	43.18
203.879	24.75
204.098	26.79
204.317	26.79
204.536	-5.97
204.755	2.22
204.974	28.84
205.193	41.13
205.411	24.75
205.63	34.99
205.849	12.46
206.068	-28.5
206.287	30.89
206.505	55.47
206.724	47.27
206.943	26.79
207.162	16.55
207.381	49.32
207.599	-20.31
207.818	37.03
208.037	8.36
208.255	106.67
208.474	22.7
208.693	16.55
208.911	20.65
209.13	30.89
209.349	41.13
209.567	90.28
209.786	71.85
210.005	84.14
210.223	67.75
210.442	41.13
210.661	90.28
210.879	12.46
211.098	32.94
211.316	67.75
211.535	6.31
211.753	-48.98
211.972	57.51
212.191	24.75
212.409	8.36
212.628	39.08
212.846	12.46
213.065	16.55
213.283	141.48
213.502	10.41
213.72	53.42
213.938	73.9
214.157	-14.17
214.375	28.84
214.594	24.75
214.812	41.13
215.031	41.13
215.249	12.46
215.467	141.48
215.686	53.42
215.904	2.22
216.122	39.08
216.341	92.33
216.559	34.99
216.778	92.33
216.996	55.47
217.214	-71.51
217.432	12.46
217.651	73.9
217.869	0.17
218.087	61.61
218.306	-8.02
218.524	98.47
218.742	4.27
218.96	131.24
219.179	-26.45
219.397	-16.21
219.615	57.51
219.833	0.17
220.051	53.42
220.27	16.55
220.488	86.19
220.706	118.95
220.924	30.89
221.142	-63.32
221.36	43.18
221.578	20.65
221.796	108.71
222.015	59.56
222.233	22.7
222.451	18.6
222.669	39.08
222.887	98.47
223.105	-12.12
223.323	49.32
223.541	67.75
223.759	127.14
223.977	-1.88
224.195	55.47
224.413	73.9
224.631	86.19
224.849	24.75
225.067	118.95
225.285	10.41
225.503	0.17
225.721	45.23
225.939	8.36
226.157	45.23
226.375	6.31
226.592	26.79
226.81	30.89
227.028	41.13
227.246	59.56
227.464	98.47
227.682	22.7
227.9	63.66
228.117	80.04
228.335	80.04
228.553	41.13
228.771	53.42
228.989	-38.74
229.206	57.51
229.424	55.47
229.642	71.85
229.86	32.94
230.077	75.95
230.295	8.36
230.513	69.8
230.731	75.95
230.948	63.66
231.166	77.99
231.384	34.99
231.601	47.27
231.819	-16.21
232.037	53.42
232.254	51.37
232.472	18.6
232.689	-8.02
232.907	39.08
233.125	12.46
233.342	82.09
233.56	49.32
233.777	55.47
233.995	-10.07
234.213	69.8
234.43	114.86
234.648	22.7
234.865	116.9
235.083	84.14
235.3	55.47
235.518	43.18
235.735	90.28
235.953	73.9
236.17	94.38
236.388	12.46
236.605	20.65
236.822	22.7
237.04	-8.02
237.257	-8.02
237.475	-16.21
237.692	41.13
237.909	157.86
238.127	20.65
238.344	-3.93
238.562	47.27
238.779	43.18
238.996	-3.93
239.214	43.18
239.431	26.79
239.648	45.23
239.865	10.41
240.083	55.47
240.3	37.03
240.517	75.95
240.735	59.56
240.952	32.94
241.169	24.75
241.386	82.09
241.603	-24.4
241.821	65.71
242.038	57.51
242.255	71.85
242.472	18.6
242.689	61.61
242.907	90.28
243.124	8.36
243.341	-20.31
243.558	0.17
243.775	73.9
243.992	18.6
244.209	34.99
244.426	-32.6
244.643	26.79
244.86	14.51
245.078	53.42
245.295	96.43
245.512	-24.4
245.729	71.85
245.946	63.66
246.163	57.51
246.38	108.71
246.597	41.13
246.814	65.71
247.031	30.89
247.248	10.41
247.464	98.47
247.681	45.23
247.898	112.81
248.115	92.33
248.332	90.28
248.549	108.71
248.766	96.43
248.983	55.47
249.2	217.26
249.417	137.38
249.633	49.32
249.85	2.22
250.067	41.13
250.284	-16.21
250.501	69.8
250.717	57.51
250.934	67.75
251.151	14.51
251.368	-5.97
251.585	143.53
251.801	28.84
252.018	-12.12
252.235	96.43
252.451	2.22
252.668	-5.97
252.885	88.23
253.102	26.79
253.318	41.13
253.535	34.99
253.752	55.47
253.968	63.66
254.185	47.27
254.401	51.37
254.618	88.23
254.835	90.28
255.051	116.9
255.268	84.14
255.484	77.99
255.701	53.42
255.917	20.65
256.134	-30.55
256.351	22.7
256.567	51.37
256.784	118.95
257	-16.21
257.217	84.14
257.433	90.28
257.65	135.34
257.866	69.8
258.082	67.75
258.299	28.84
258.515	24.75
258.732	32.94
258.948	106.67
259.165	14.51
259.381	77.99
259.597	49.32
259.814	12.46
260.03	43.18
260.246	75.95
260.463	82.09
260.679	57.51
260.895	6.31
261.112	34.99
261.328	43.18
261.544	75.95
261.761	92.33
261.977	67.75
262.193	32.94
262.409	53.42
262.626	51.37
262.842	-16.21
263.058	110.76
263.274	67.75
263.49	80.04
263.707	47.27
263.923	-1.88
264.139	41.13
264.355	-8.02
264.571	-20.31
264.787	57.51
265.004	47.27
265.22	75.95
265.436	37.03
265.652	24.75
265.868	41.13
266.084	30.89
266.3	-3.93
266.516	108.71
266.732	32.94
266.948	55.47
267.164	30.89
267.38	4.27
267.596	14.51
267.812	110.76
268.028	164.01
268.244	2.22
268.46	4.27
268.676	67.75
268.892	104.62
269.108	18.6
269.324	75.95
269.54	20.65
269.756	37.03
269.972	86.19
270.188	92.33
270.403	-1.88
270.619	51.37
270.835	82.09
271.051	2.22
271.267	-40.79
271.483	65.71
271.698	59.56
271.914	82.09
272.13	112.81
272.346	84.14
272.562	51.37
272.777	116.9
272.993	112.81
273.209	24.75
273.425	61.61
273.64	92.33
273.856	108.71
274.072	90.28
274.287	59.56
274.503	59.56
274.719	47.27
274.934	71.85
275.15	22.7
275.366	43.18
275.581	-18.26
275.797	73.9
276.012	65.71
276.228	18.6
276.444	39.08
276.659	67.75
276.875	32.94
277.09	8.36
277.306	-8.02
277.521	-8.02
277.737	37.03
277.952	55.47
278.168	43.18
278.383	43.18
278.599	53.42
278.814	41.13
279.03	67.75
279.245	39.08
279.461	75.95
279.676	71.85
279.892	49.32
280.107	53.42
280.322	30.89
280.538	14.51
280.753	49.32
280.969	14.51
281.184	8.36
281.399	94.38
281.615	24.75
281.83	32.94
282.045	45.23
282.26	22.7
282.476	8.36
282.691	34.99
282.906	65.71
283.122	32.94
283.337	110.76
283.552	65.71
283.767	100.52
283.983	110.76
284.198	-26.45
284.413	-1.88
284.628	-38.74
284.843	61.61
285.058	59.56
285.274	14.51
285.489	30.89
285.704	55.47
285.919	6.31
286.134	39.08
286.349	-34.64
286.564	14.51
286.779	67.75
286.995	53.42
287.21	0.17
287.425	75.95
287.64	32.94
287.855	18.6
288.07	57.51
288.285	90.28
288.5	-12.12
288.715	121
288.93	61.61
289.145	-22.36
289.36	49.32
289.575	77.99
289.79	45.23
290.004	39.08
290.219	32.94
290.434	45.23
290.649	14.51
290.864	51.37
291.079	82.09
291.294	20.65
291.509	26.79
291.724	28.84
291.938	24.75
292.153	53.42
292.368	26.79
292.583	116.9
292.798	51.37
293.012	-8.02
293.227	67.75
293.442	47.27
293.657	86.19
293.871	145.58
294.086	-10.07
294.301	61.61
294.516	47.27
294.73	102.57
294.945	108.71
295.16	20.65
295.374	112.81
295.589	65.71
295.804	16.55
296.018	69.8
296.233	73.9
296.447	6.31
296.662	61.61
296.877	80.04
297.091	51.37
297.306	16.55
297.52	24.75
297.735	73.9
297.949	108.71
298.164	100.52
298.378	49.32
298.593	20.65
298.807	51.37
299.022	59.56
299.236	43.18
299.451	75.95
299.665	53.42
299.88	90.28
300.094	67.75
300.309	153.77
300.523	-24.4
300.737	73.9
300.952	73.9
301.166	88.23
301.381	-18.26
301.595	77.99
301.809	6.31
302.024	77.99
302.238	30.89
302.452	90.28
302.667	59.56
302.881	143.53
303.095	39.08
303.309	10.41
303.524	106.67
303.738	80.04
303.952	34.99
304.166	43.18
304.381	12.46
304.595	39.08
304.809	80.04
305.023	55.47
305.237	63.66
305.452	37.03
305.666	77.99
305.88	92.33
306.094	65.71
306.308	-8.02
306.522	47.27
306.736	57.51
306.95	98.47
307.164	55.47
307.379	24.75
307.593	69.8
307.807	123.05
308.021	63.66
308.235	26.79
308.449	59.56
308.663	37.03
308.877	26.79
309.091	24.75
309.305	75.95
309.519	34.99
309.733	24.75
309.947	4.27
310.161	75.95
310.374	34.99
310.588	98.47
310.802	39.08
311.016	84.14
311.23	26.79
311.444	80.04
311.658	94.38
311.872	-1.88
312.085	98.47
312.299	94.38
312.513	96.43
312.727	37.03
312.941	22.7
313.154	-30.55
313.368	49.32
313.582	80.04
313.796	4.27
314.009	14.51
314.223	61.61
314.437	73.9
314.651	41.13
314.864	37.03
315.078	26.79
315.292	32.94
315.505	30.89
315.719	67.75
315.933	18.6
316.146	123.05
316.36	0.17
316.573	102.57
316.787	149.67
317.001	141.48
317.214	39.08
317.428	106.67
317.641	73.9
317.855	39.08
318.068	71.85
318.282	108.71
318.495	41.13
318.709	14.51
318.922	-8.02
319.136	88.23
319.349	118.95
319.563	108.71
319.776	75.95
319.99	47.27
320.203	96.43
320.417	43.18
320.63	102.57
320.843	71.85
321.057	22.7
321.27	94.38
321.483	41.13
321.697	102.57
321.91	67.75
322.124	94.38
322.337	63.66
322.55	-26.45
322.763	96.43
322.977	69.8
323.19	71.85
323.403	0.17
323.617	-8.02
323.83	65.71
324.043	55.47
324.256	84.14
324.469	-20.31
324.683	73.9
324.896	61.61
325.109	112.81
325.322	32.94
325.535	112.81
325.748	30.89
325.962	61.61
326.175	61.61
326.388	41.13
326.601	57.51
326.814	-18.26
327.027	110.76
327.24	110.76
327.453	77.99
327.666	106.67
327.879	32.94
328.092	10.41
328.305	37.03
328.518	80.04
328.731	53.42
328.944	63.66
329.157	57.51
329.37	45.23
329.583	143.53
329.796	108.71
330.009	75.95
330.222	106.67
330.435	69.8
330.648	39.08
330.861	135.34
331.073	145.58
331.286	65.71
331.499	118.95
331.712	-36.69
331.925	14.51
332.138	49.32
332.35	75.95
332.563	22.7
332.776	129.19
332.989	28.84
333.202	75.95
333.414	-3.93
333.627	98.47
333.84	20.65
334.053	108.71
334.265	63.66
334.478	2.22
334.691	12.46
334.903	67.75
335.116	98.47
335.329	10.41
335.541	94.38
335.754	96.43
335.966	71.85
336.179	73.9
336.392	53.42
336.604	37.03
336.817	55.47
337.029	159.91
337.242	0.17
337.454	108.71
337.667	34.99
337.88	141.48
338.092	41.13
338.305	123.05
338.517	53.42
338.729	45.23
338.942	57.51
339.154	41.13
339.367	51.37
339.579	82.09
339.792	34.99
340.004	77.99
340.217	71.85
340.429	112.81
340.641	26.79
340.854	98.47
341.066	80.04
341.278	125.1
341.491	88.23
341.703	112.81
341.915	14.51
342.128	73.9
342.34	108.71
342.552	108.71
342.764	82.09
342.977	51.37
343.189	108.71
343.401	75.95
343.613	-12.12
343.826	30.89
344.038	12.46
344.25	94.38
344.462	37.03
344.674	34.99
344.886	65.71
345.099	2.22
345.311	88.23
345.523	47.27
345.735	51.37
345.947	12.46
346.159	88.23
346.371	14.51
346.583	63.66
346.795	61.61
347.007	45.23
347.219	108.71
347.431	77.99
347.643	75.95
347.855	26.79
348.067	34.99
348.279	73.9
348.491	20.65
348.703	71.85
348.915	77.99
349.127	67.75
349.339	73.9
349.551	71.85
349.763	84.14
349.975	51.37
350.187	28.84
350.399	65.71
350.61	90.28
350.822	12.46
351.034	133.29
351.246	75.95
351.458	88.23
351.669	80.04
351.881	24.75
352.093	114.86
352.305	28.84
352.517	67.75
352.728	55.47
352.94	84.14
353.152	39.08
353.363	-14.17
353.575	12.46
353.787	96.43
353.999	67.75
354.21	47.27
354.422	53.42
354.633	135.34
354.845	106.67
355.057	37.03
355.268	98.47
355.48	71.85
355.692	118.95
355.903	43.18
356.115	22.7
356.326	37.03
356.538	80.04
356.749	108.71
356.961	90.28
357.172	73.9
357.384	104.62
357.595	71.85
357.807	67.75
358.018	96.43
358.23	71.85
358.441	129.19
358.653	133.29
358.864	80.04
359.075	96.43
359.287	65.71
359.498	104.62
359.709	57.51
359.921	94.38
360.132	59.56
360.344	59.56
360.555	118.95
360.766	69.8
360.977	104.62
361.189	172.2
361.4	22.7
361.611	67.75
361.823	65.71
362.034	59.56
362.245	10.41
362.456	127.14
362.667	45.23
362.879	73.9
363.09	37.03
363.301	125.1
363.512	73.9
363.723	61.61
363.935	24.75
364.146	43.18
364.357	69.8
364.568	121
364.779	98.47
364.99	47.27
365.201	92.33
365.412	102.57
365.623	53.42
365.834	28.84
366.045	47.27
366.256	108.71
366.467	30.89
366.678	98.47
366.889	94.38
367.1	104.62
367.311	49.32
367.522	114.86
367.733	98.47
367.944	53.42
368.155	34.99
368.366	39.08
368.577	22.7
368.788	55.47
368.999	49.32
369.209	12.46
369.42	145.58
369.631	55.47
369.842	0.17
370.053	96.43
370.264	104.62
370.474	63.66
370.685	24.75
370.896	106.67
371.107	88.23
371.317	49.32
371.528	6.31
371.739	90.28
371.95	100.52
372.16	67.75
372.371	63.66
372.582	61.61
372.792	129.19
373.003	80.04
373.214	49.32
373.424	75.95
373.635	116.9
373.846	129.19
374.056	139.43
374.267	53.42
374.477	71.85
374.688	90.28
374.898	96.43
375.109	129.19
375.319	110.76
375.53	102.57
375.74	116.9
375.951	61.61
376.161	49.32
376.372	174.25
376.582	77.99
376.793	28.84
377.003	94.38
377.214	65.71
377.424	86.19
377.635	106.67
377.845	98.47
378.055	90.28
378.266	63.66
378.476	86.19
378.686	88.23
378.897	102.57
379.107	73.9
379.317	139.43
379.528	55.47
379.738	164.01
379.948	73.9
380.158	92.33
380.369	51.37
380.579	53.42
380.789	143.53
380.999	114.86
381.21	45.23
381.42	123.05
381.63	90.28
381.84	114.86
382.05	112.81
382.261	153.77
382.471	139.43
382.681	-12.12
382.891	59.56
383.101	143.53
383.311	96.43
383.521	69.8
383.731	168.1
383.941	147.62
384.151	90.28
384.361	41.13
384.571	100.52
384.781	145.58
384.991	96.43
385.201	0.17
385.411	118.95
385.621	104.62
385.831	125.1
386.041	86.19
386.251	53.42
386.461	114.86
386.671	131.24
386.881	39.08
387.091	125.1
387.301	43.18
387.511	63.66
387.72	102.57
387.93	139.43
388.14	6.31
388.35	88.23
388.56	108.71
388.769	141.48
388.979	65.71
389.189	90.28
389.399	80.04
389.609	84.14
389.818	51.37
390.028	63.66
390.238	45.23
390.447	94.38
390.657	118.95
390.867	104.62
391.076	61.61
391.286	86.19
391.496	53.42
391.705	161.96
391.915	135.34
392.125	127.14
392.334	75.95
392.544	209.06
392.753	71.85
392.963	118.95
393.172	88.23
393.382	59.56
393.591	116.9
393.801	104.62
394.01	94.38
394.22	125.1
394.429	98.47
394.639	137.38
394.848	184.49
395.058	108.71
395.267	194.73
395.477	125.1
395.686	71.85
395.895	182.44
396.105	176.3
396.314	145.58
396.524	151.72
396.733	131.24
396.942	118.95
397.152	207.02
397.361	131.24
397.57	131.24
397.78	114.86
397.989	108.71
398.198	227.5
398.407	100.52
398.617	125.1
398.826	102.57
399.035	102.57
399.244	116.9
399.453	168.1
399.663	174.25
399.872	155.82
400.081	108.71
400.29	159.91
400.499	129.19
400.708	207.02
400.917	84.14
401.127	155.82
401.336	75.95
401.545	139.43
401.754	121
401.963	178.34
402.172	129.19
402.381	237.74
402.59	211.11
402.799	96.43
403.008	141.48
403.217	184.49
403.426	209.06
403.635	137.38
403.844	168.1
404.053	182.44
404.262	194.73
404.471	225.45
404.68	168.1
404.888	213.16
405.097	225.45
405.306	235.69
405.515	256.17
405.724	178.34
405.933	278.69
406.142	254.12
406.35	225.45
406.559	172.2
406.768	192.68
406.977	313.51
407.185	268.45
407.394	209.06
407.603	293.03
407.812	237.74
408.02	385.19
408.229	276.65
408.438	280.74
408.646	417.96
408.855	309.41
409.064	293.03
409.272	391.33
409.481	463.01
409.69	387.24
409.898	372.9
410.107	434.34
410.315	403.62
410.524	430.24
410.733	428.2
410.941	411.81
411.15	483.49
411.358	506.02
411.567	616.61
411.775	606.37
411.984	561.31
412.192	518.31
412.401	626.85
412.609	626.85
412.818	651.42
413.026	637.09
413.234	706.72
413.443	659.62
413.651	698.53
413.86	802.97
414.068	751.78
414.276	833.69
414.485	866.46
414.693	884.89
414.901	925.85
415.11	956.57
415.318	864.41
415.526	985.24
415.734	981.15
415.943	1011.87
416.151	1183.9
416.359	1116.31
416.567	1132.7
416.776	1261.72
416.984	1228.95
417.192	1317.01
417.4	1288.34
417.608	1308.82
417.817	1382.55
418.025	1501.33
418.233	1523.86
418.441	1495.19
418.649	1546.39
418.857	1691.79
419.065	1808.53
419.273	1738.9
419.481	1806.48
419.689	1941.65
419.897	1958.03
420.105	2056.33
420.313	2066.57
420.521	2177.16
420.729	2181.26
420.937	2314.38
421.145	2400.39
421.353	2451.59
421.561	2615.43
421.769	2562.18
421.977	2764.93
422.185	2574.47
422.393	2838.66
422.601	3063.93
422.809	3057.79
423.017	3031.16
423.224	3158.14
423.432	3291.26
423.64	3260.54
423.848	3633.27
424.056	3555.44
424.263	3795.06
424.471	3872.88
424.679	3897.46
424.887	4092.01
425.094	4245.61
425.302	4298.86
425.51	4331.62
425.718	4460.65
425.925	4532.33
426.133	4735.07
426.341	5023.84
426.548	5302.36
426.756	5220.44
426.964	5259.35
427.171	5625.94
427.379	5783.63
427.586	5826.64
427.794	6144.08
428.001	6307.91
428.209	6666.31
428.417	6625.35
428.624	7104.57
428.832	6963.26
429.039	6836.29
429.247	6877.25
429.454	7516.22
429.662	8005.68
429.869	7417.91
430.076	7936.05
430.284	7936.05
430.491	8114.22
430.699	8667.17
430.906	8572.97
431.114	8773.67
431.321	9076.77
431.528	9332.76
431.736	9809.94
431.943	10313.74
432.15	10201.1
432.358	10205.2
432.565	10776.58
432.772	10668.04
432.979	11196.42
433.187	11628.54
433.394	11288.57
433.601	12197.87
433.808	12294.13
434.016	11980.79
434.223	12861.41
434.43	13541.34
434.637	13160.42
434.844	14016.47
435.052	14368.72
435.259	14165.97
435.466	14419.92
435.673	14278.61
435.88	15284.16
436.087	16074.68
436.294	16066.49
436.501	15554.49
436.708	15890.36
436.915	16457.65
437.122	17293.22
437.329	17262.5
437.537	17754.01
437.743	18100.12
437.95	17821.59
438.157	18628.49
438.364	19175.3
438.571	19140.49
438.778	19455.87
438.985	21235.56
439.192	20475.76
439.399	21047.15
439.606	20696.94
439.813	21938.01
440.02	23261
440.227	22873.93
440.433	22531.92
440.64	23529.28
440.847	23152.46
441.054	23867.2
441.261	25343.78
441.467	24973.1
441.674	25261.87
441.881	26408.73
442.088	26568.47
442.294	26156.83
442.501	26634
442.708	27227.92
442.914	28813.04
443.121	29409
443.328	28776.18
443.534	30711.51
443.741	30041.82
443.948	29394.67
444.154	31741.64
444.361	31108.82
444.568	31866.56
444.774	31938.24
444.981	32257.73
445.187	32958.13
445.394	34659.99
445.6	34471.58
445.807	37480.05
446.013	35542.67
446.22	36693.63
446.426	37824.11
446.633	38041.19
446.839	39278.16
447.046	37690.99
447.252	39749.2
447.459	40324.68
447.665	39679.57
447.871	41526.83
448.078	43343.38
448.284	41231.93
448.491	42671.65
448.697	44076.55
448.903	44889.6
449.11	44635.65
449.316	44547.59
449.522	45024.76
449.728	46308.84
449.935	46435.81
450.141	46462.44
450.347	47680.98
450.553	46437.86
450.76	46665.19
450.966	48317.9
451.172	47662.55
451.378	49493.43
451.584	47629.78
451.791	48997.82
451.997	48899.52
452.203	49739.19
452.409	50331.05
452.615	49370.55
452.821	47936.98
453.027	47205.85
453.233	49614.26
453.44	48211.4
453.646	48448.97
453.852	48606.66
454.058	49753.52
454.264	47793.62
454.47	49010.11
454.676	48160.2
454.882	49360.31
455.088	45428.21
455.294	45686.26
455.5	46949.85
455.705	47068.64
455.911	45622.77
456.117	44723.71
456.323	43828.75
456.529	41879.08
456.735	43431.44
456.941	42460.71
457.147	41631.28
457.352	40390.21
457.558	40103.49
457.764	40173.13
457.97	39437.9
458.176	38733.4
458.381	38618.72
458.587	36667
458.793	37109.36
458.999	34944.66
459.204	36882.04
459.41	36447.87
459.616	34064.03
459.821	33818.28
460.027	34125.47
460.233	33466.03
460.438	31352.52
460.644	32071.36
460.85	30602.97
461.055	30193.37
461.261	30113.5
461.466	27805.44
461.672	27062.03
461.878	28583.67
462.083	27154.19
462.289	26466.07
462.494	26050.33
462.7	24792.88
462.905	24168.25
463.111	25179.95
463.316	25517.86
463.522	24397.62
463.727	24567.6
463.932	24551.22
464.138	24479.54
464.343	24274.74
464.549	23813.95
464.754	24422.2
464.959	24174.39
465.165	24252.22
465.37	23162.7
465.575	22513.49
465.781	23420.74
465.986	23772.99
466.191	22808.4
466.397	22206.3
466.602	21165.93
466.807	22038.36
