Data from USB4F104151__14__12-27-02-516.txt Node

Date: Fri Mar 14 12:27:02 EDT 2025
User: louis
Spectrometer: USB4F10415
Trigger mode: 4
Integration Time (sec): 2.000000E-2
Scans to average: 1
Electric dark correction enabled: true
Nonlinearity correction enabled: false
Boxcar width: 0
XAxis mode: Wavelengths
Number of Pixels in Spectrum: 3648
>>>>>Begin Spectral Data<<<<<
178.204	-49.15
178.424	-49.15
178.644	-49.15
178.864	-90.11
179.084	-43.01
179.304	-53.25
179.524	-32.77
179.744	-65.54
179.964	73.73
180.184	-20.48
180.404	18.43
180.624	-8.19
180.844	55.3
181.064	-49.15
181.283	92.16
181.503	-88.06
181.723	77.82
181.943	-18.43
182.163	51.2
182.383	-26.62
182.602	34.82
182.822	4.1
183.042	98.3
183.262	26.62
183.482	0
183.701	22.53
183.921	-10.24
184.141	-26.62
184.361	83.97
184.58	16.38
184.8	10.24
185.02	2.05
185.239	4.1
185.459	16.38
185.679	16.38
185.898	12.29
186.118	71.68
186.338	-12.29
186.557	75.77
186.777	26.62
186.997	40.96
187.216	20.48
187.436	30.72
187.655	47.1
187.875	-16.38
188.095	-77.82
188.314	51.2
188.534	6.14
188.753	63.49
188.973	34.82
189.192	16.38
189.412	0
189.631	-59.39
189.851	38.91
190.07	57.34
190.29	-12.29
190.509	0
190.729	-20.48
190.948	65.53
191.168	16.38
191.387	18.43
191.607	65.53
191.826	38.91
192.045	-55.3
192.265	104.45
192.484	-12.29
192.704	-16.38
192.923	-40.96
193.142	32.77
193.362	61.44
193.581	69.63
193.8	86.01
194.02	45.06
194.239	79.87
194.458	14.34
194.678	-30.72
194.897	22.53
195.116	45.06
195.335	38.91
195.555	43.01
195.774	10.24
195.993	59.39
196.212	96.25
196.432	24.58
196.651	-10.24
196.87	51.2
197.089	47.1
197.308	14.34
197.528	67.58
197.747	34.82
197.966	79.87
198.185	14.34
198.404	-6.14
198.623	18.43
198.842	45.06
199.062	28.67
199.281	98.3
199.5	-24.58
199.719	32.77
199.938	73.73
200.157	122.88
200.376	22.53
200.595	55.3
200.814	55.3
201.033	26.62
201.252	92.16
201.471	30.72
201.69	-10.24
201.909	-2.05
202.128	124.93
202.347	32.77
202.566	28.67
202.785	-14.34
203.004	26.62
203.223	151.55
203.442	26.62
203.661	65.53
203.879	18.43
204.098	49.15
204.317	-24.58
204.536	38.91
204.755	40.96
204.974	34.82
205.193	-38.91
205.411	47.1
205.63	118.78
205.849	26.62
206.068	-28.67
206.287	114.69
206.505	-32.77
206.724	6.14
206.943	45.06
207.162	-28.67
207.381	45.06
207.599	55.3
207.818	-12.29
208.037	2.05
208.255	-6.14
208.474	38.91
208.693	-12.29
208.911	28.67
209.13	28.67
209.349	4.1
209.567	-2.05
209.786	75.77
210.005	61.44
210.223	-26.62
210.442	6.14
210.661	24.58
210.879	28.67
211.098	18.43
211.316	63.49
211.535	77.82
211.753	2.05
211.972	-16.38
212.191	10.24
212.409	30.72
212.628	63.49
212.846	65.53
213.065	83.97
213.283	86.01
213.502	34.82
213.72	8.19
213.938	-36.86
214.157	6.14
214.375	30.72
214.594	-63.49
214.812	139.26
215.031	-22.53
215.249	-4.1
215.467	20.48
215.686	79.87
215.904	14.34
216.122	20.48
216.341	59.39
216.559	2.05
216.778	47.1
216.996	6.14
217.214	59.39
217.432	14.34
217.651	-38.91
217.869	16.38
218.087	16.38
218.306	4.1
218.524	0
218.742	65.53
218.96	55.3
219.179	51.2
219.397	47.1
219.615	73.73
219.833	110.59
220.051	22.53
220.27	65.53
220.488	51.2
220.706	51.2
220.924	10.24
221.142	-20.48
221.36	71.68
221.578	-16.38
221.796	30.72
222.015	63.49
222.233	38.91
222.451	100.35
222.669	12.29
222.887	75.77
223.105	73.73
223.323	55.3
223.541	26.62
223.759	45.06
223.977	104.45
224.195	110.59
224.413	-6.14
224.631	8.19
224.849	57.34
225.067	-24.58
225.285	4.1
225.503	20.48
225.721	-14.34
225.939	43.01
226.157	55.3
226.375	90.11
226.592	-83.97
226.81	26.62
227.028	40.96
227.246	40.96
227.464	53.25
227.682	96.25
227.9	49.15
228.117	-36.86
228.335	55.3
228.553	112.64
228.771	0
228.989	104.45
229.206	-2.05
229.424	-22.53
229.642	12.29
229.86	20.48
230.077	8.19
230.295	59.39
230.513	4.1
230.731	57.34
230.948	51.2
231.166	20.48
231.384	98.3
231.601	88.06
231.819	40.96
232.037	55.3
232.254	38.91
232.472	47.1
232.689	61.44
232.907	32.77
233.125	18.43
233.342	-16.38
233.56	22.53
233.777	-51.2
233.995	49.15
234.213	24.58
234.43	-6.14
234.648	75.77
234.865	-18.43
235.083	77.82
235.3	32.77
235.518	-90.11
235.735	55.3
235.953	69.63
236.17	71.68
236.388	14.34
236.605	47.1
236.822	108.54
237.04	32.77
237.257	81.92
237.475	34.82
237.692	36.86
237.909	-2.05
238.127	-32.77
238.344	108.54
238.562	126.97
238.779	0
238.996	59.39
239.214	38.91
239.431	63.49
239.648	-8.19
239.865	45.06
240.083	63.49
240.3	100.35
240.517	45.06
240.735	30.72
240.952	69.63
241.169	57.34
241.386	-26.62
241.603	57.34
241.821	47.1
242.038	81.92
242.255	45.06
242.472	40.96
242.689	38.91
242.907	32.77
243.124	75.77
243.341	102.4
243.558	20.48
243.775	67.58
243.992	51.2
244.209	53.25
244.426	55.3
244.643	10.24
244.86	79.87
245.078	81.92
245.295	6.14
245.512	45.06
245.729	24.58
245.946	30.72
246.163	36.86
246.38	-32.77
246.597	40.96
246.814	86.01
247.031	-8.19
247.248	40.96
247.464	12.29
247.681	-14.34
247.898	28.67
248.115	51.2
248.332	-47.1
248.549	59.39
248.766	83.97
248.983	32.77
249.2	49.15
249.417	75.77
249.633	2.05
249.85	43.01
250.067	6.14
250.284	49.15
250.501	32.77
250.717	137.21
250.934	4.1
251.151	86.01
251.368	45.06
251.585	32.77
251.801	65.53
252.018	24.58
252.235	2.05
252.451	-90.11
252.668	8.19
252.885	65.53
253.102	61.44
253.318	45.06
253.535	30.72
253.752	-28.67
253.968	-30.72
254.185	63.49
254.401	69.63
254.618	43.01
254.835	116.73
255.051	36.86
255.268	-12.29
255.484	122.88
255.701	-18.43
255.917	6.14
256.134	-18.43
256.351	-36.86
256.567	-4.1
256.784	-8.19
257	73.73
257.217	38.91
257.433	2.05
257.65	55.3
257.866	65.53
258.082	55.3
258.299	-32.77
258.515	38.91
258.732	-38.91
258.948	30.72
259.165	-30.72
259.381	90.11
259.597	2.05
259.814	6.14
260.03	30.72
260.246	73.73
260.463	149.5
260.679	34.82
260.895	10.24
261.112	32.77
261.328	-4.1
261.544	26.62
261.761	26.62
261.977	8.19
262.193	-18.43
262.409	69.63
262.626	90.11
262.842	-6.14
263.058	12.29
263.274	2.05
263.49	-18.43
263.707	49.15
263.923	-6.14
264.139	20.48
264.355	94.21
264.571	0
264.787	-4.1
265.004	71.68
265.22	55.3
265.436	43.01
265.652	28.67
265.868	32.77
266.084	-12.29
266.3	102.4
266.516	-36.86
266.732	43.01
266.948	63.49
267.164	61.44
267.38	63.49
267.596	6.14
267.812	71.68
268.028	159.74
268.244	67.58
268.46	8.19
268.676	22.53
268.892	49.15
269.108	0
269.324	10.24
269.54	8.19
269.756	79.87
269.972	32.77
270.188	-18.43
270.403	12.29
270.619	20.48
270.835	-34.82
271.051	67.58
271.267	81.92
271.483	38.91
271.698	65.53
271.914	28.67
272.13	59.39
272.346	6.14
272.562	-40.96
272.777	47.1
272.993	55.3
273.209	6.14
273.425	28.67
273.64	-16.38
273.856	73.73
274.072	38.91
274.287	45.06
274.503	22.53
274.719	36.86
274.934	16.38
275.15	14.34
275.366	34.82
275.581	40.96
275.797	22.53
276.012	22.53
276.228	12.29
276.444	26.62
276.659	49.15
276.875	20.48
277.09	75.77
277.306	43.01
277.521	67.58
277.737	8.19
277.952	16.38
278.168	24.58
278.383	26.62
278.599	6.14
278.814	45.06
279.03	-77.82
279.245	43.01
279.461	14.34
279.676	14.34
279.892	8.19
280.107	-51.2
280.322	32.77
280.538	53.25
280.753	28.67
280.969	63.49
281.184	38.91
281.399	102.4
281.615	-2.05
281.83	67.58
282.045	47.1
282.26	79.87
282.476	57.34
282.691	96.25
282.906	28.67
283.122	104.45
283.337	47.1
283.552	36.86
283.767	-12.29
283.983	40.96
284.198	-40.96
284.413	83.97
284.628	16.38
284.843	73.73
285.058	40.96
285.274	20.48
285.489	51.2
285.704	32.77
285.919	-16.38
286.134	18.43
286.349	114.69
286.564	75.77
286.779	-10.24
286.995	118.78
287.21	-2.05
287.425	30.72
287.64	57.34
287.855	34.82
288.07	8.19
288.285	10.24
288.5	65.53
288.715	53.25
288.93	63.49
289.145	-10.24
289.36	63.49
289.575	30.72
289.79	100.35
290.004	71.68
290.219	18.43
290.434	98.3
290.649	2.05
290.864	45.06
291.079	22.53
291.294	94.21
291.509	38.91
291.724	75.77
291.938	98.3
292.153	98.3
292.368	51.2
292.583	67.58
292.798	-24.58
293.012	34.82
293.227	81.92
293.442	59.39
293.657	24.58
293.871	4.1
294.086	-28.67
294.301	90.11
294.516	30.72
294.73	98.3
294.945	4.1
295.16	69.63
295.374	86.01
295.589	61.44
295.804	16.38
296.018	53.25
296.233	135.17
296.447	49.15
296.662	55.3
296.877	43.01
297.091	73.73
297.306	114.69
297.52	-2.05
297.735	55.3
297.949	59.39
298.164	57.34
298.378	75.77
298.593	61.44
298.807	-2.05
299.022	16.38
299.236	24.58
299.451	38.91
299.665	61.44
299.88	34.82
300.094	28.67
300.309	-8.19
300.523	28.67
300.737	49.15
300.952	32.77
301.166	57.34
301.381	36.86
301.595	-26.62
301.809	49.15
302.024	57.34
302.238	-24.58
302.452	110.59
302.667	114.69
302.881	83.97
303.095	0
303.309	47.1
303.524	34.82
303.738	16.38
303.952	-59.39
304.166	12.29
304.381	12.29
304.595	2.05
304.809	-10.24
305.023	67.58
305.237	55.3
305.452	12.29
305.666	59.39
305.88	20.48
306.094	55.3
306.308	32.77
306.522	12.29
306.736	98.3
306.95	28.67
307.164	6.14
307.379	81.92
307.593	75.77
307.807	86.01
308.021	40.96
308.235	43.01
308.449	-6.14
308.663	4.1
308.877	57.34
309.091	38.91
309.305	45.06
309.519	-24.58
309.733	34.82
309.947	-24.58
310.161	40.96
310.374	0
310.588	30.72
310.802	12.29
311.016	-18.43
311.23	36.86
311.444	6.14
311.658	57.34
311.872	88.06
312.085	55.3
312.299	14.34
312.513	18.43
312.727	20.48
312.941	-6.14
313.154	36.86
313.368	43.01
313.582	16.38
313.796	75.77
314.009	-49.15
314.223	47.1
314.437	38.91
314.651	55.3
314.864	96.25
315.078	53.25
315.292	-8.19
315.505	118.78
315.719	-2.05
315.933	45.06
316.146	43.01
316.36	106.49
316.573	-16.38
316.787	147.45
317.001	6.14
317.214	-10.24
317.428	34.82
317.641	28.67
317.855	57.34
318.068	18.43
318.282	61.44
318.495	36.86
318.709	16.38
318.922	108.54
319.136	96.25
319.349	22.53
319.563	-2.05
319.776	69.63
319.99	73.73
320.203	-12.29
320.417	-10.24
320.63	-16.38
320.843	67.58
321.057	38.91
321.27	18.43
321.483	49.15
321.697	-16.38
321.91	32.77
322.124	63.49
322.337	0
322.55	32.77
322.763	28.67
322.977	2.05
323.19	24.58
323.403	22.53
323.617	114.69
323.83	116.73
324.043	73.73
324.256	63.49
324.469	28.67
324.683	47.1
324.896	63.49
325.109	26.62
325.322	69.63
325.535	38.91
325.748	-4.1
325.962	79.87
326.175	63.49
326.388	73.73
326.601	65.53
326.814	75.77
327.027	30.72
327.24	79.87
327.453	8.19
327.666	30.72
327.879	43.01
328.092	133.12
328.305	24.58
328.518	133.12
328.731	-18.43
328.944	71.68
329.157	86.01
329.37	102.4
329.583	110.59
329.796	96.25
330.009	-12.29
330.222	14.34
330.435	14.34
330.648	65.53
330.861	71.68
331.073	4.1
331.286	14.34
331.499	122.88
331.712	10.24
331.925	-12.29
332.138	30.72
332.35	114.69
332.563	40.96
332.776	73.73
332.989	18.43
333.202	73.73
333.414	-8.19
333.627	75.77
333.84	-49.15
334.053	53.25
334.265	116.73
334.478	24.58
334.691	2.05
334.903	6.14
335.116	59.39
335.329	83.97
335.541	90.11
335.754	145.41
335.966	90.11
336.179	55.3
336.392	61.44
336.604	79.87
336.817	114.69
337.029	65.53
337.242	10.24
337.454	49.15
337.667	90.11
337.88	94.21
338.092	110.59
338.305	32.77
338.517	65.53
338.729	83.97
338.942	26.62
339.154	59.39
339.367	-8.19
339.579	28.67
339.792	-12.29
340.004	49.15
340.217	34.82
340.429	88.06
340.641	32.77
340.854	30.72
341.066	24.58
341.278	40.96
341.491	26.62
341.703	45.06
341.915	26.62
342.128	90.11
342.34	8.19
342.552	98.3
342.764	86.01
342.977	65.53
343.189	57.34
343.401	20.48
343.613	51.2
343.826	83.97
344.038	79.87
344.25	81.92
344.462	71.68
344.674	14.34
344.886	20.48
345.099	77.82
345.311	77.82
345.523	40.96
345.735	57.34
345.947	12.29
346.159	53.25
346.371	61.44
346.583	-8.19
346.795	106.49
347.007	32.77
347.219	47.1
347.431	20.48
347.643	43.01
347.855	75.77
348.067	55.3
348.279	122.88
348.491	71.68
348.703	75.77
348.915	55.3
349.127	43.01
349.339	20.48
349.551	36.86
349.763	51.2
349.975	40.96
350.187	100.35
350.399	116.73
350.61	122.88
350.822	55.3
351.034	61.44
351.246	79.87
351.458	90.11
351.669	53.25
351.881	112.64
352.093	28.67
352.305	96.25
352.517	98.3
352.728	71.68
352.94	14.34
353.152	45.06
353.363	26.62
353.575	90.11
353.787	77.82
353.999	36.86
354.21	118.78
354.422	26.62
354.633	0
354.845	67.58
355.057	10.24
355.268	83.97
355.48	106.49
355.692	-49.15
355.903	18.43
356.115	61.44
356.326	38.91
356.538	98.3
356.749	-20.48
356.961	71.68
357.172	8.19
357.384	59.39
357.595	59.39
357.807	26.62
358.018	57.34
358.23	129.02
358.441	69.63
358.653	120.83
358.864	79.87
359.075	36.86
359.287	51.2
359.498	92.16
359.709	116.73
359.921	159.74
360.132	45.06
360.344	55.3
360.555	-2.05
360.766	32.77
360.977	59.39
361.189	90.11
361.4	94.21
361.611	65.53
361.823	26.62
362.034	32.77
362.245	129.02
362.456	81.92
362.667	53.25
362.879	81.92
363.09	51.2
363.301	18.43
363.512	65.53
363.723	65.53
363.935	71.68
364.146	81.92
364.357	137.21
364.568	49.15
364.779	47.1
364.99	43.01
365.201	10.24
365.412	120.83
365.623	38.91
365.834	0
366.045	92.16
366.256	90.11
366.467	14.34
366.678	75.77
366.889	45.06
367.1	129.02
367.311	61.44
367.522	65.53
367.733	63.49
367.944	43.01
368.155	40.96
368.366	57.34
368.577	45.06
368.788	34.82
368.999	34.82
369.209	98.3
369.42	79.87
369.631	104.45
369.842	102.4
370.053	102.4
370.264	86.01
370.474	114.69
370.685	73.73
370.896	53.25
371.107	4.1
371.317	88.06
371.528	92.16
371.739	81.92
371.95	55.3
372.16	36.86
372.371	34.82
372.582	22.53
372.792	26.62
373.003	55.3
373.214	71.68
373.424	28.67
373.635	63.49
373.846	104.45
374.056	57.34
374.267	100.35
374.477	53.25
374.688	45.06
374.898	126.97
375.109	45.06
375.319	86.01
375.53	165.89
375.74	16.38
375.951	75.77
376.161	92.16
376.372	120.83
376.582	59.39
376.793	40.96
377.003	67.58
377.214	38.91
377.424	92.16
377.635	75.77
377.845	86.01
378.055	139.26
378.266	47.1
378.476	45.06
378.686	96.25
378.897	88.06
379.107	86.01
379.317	47.1
379.528	100.35
379.738	114.69
379.948	26.62
380.158	94.21
380.369	75.77
380.579	135.17
380.789	30.72
380.999	88.06
381.21	6.14
381.42	90.11
381.63	40.96
381.84	137.21
382.05	12.29
382.261	124.93
382.471	38.91
382.681	43.01
382.891	110.59
383.101	67.58
383.311	22.53
383.521	81.92
383.731	94.21
383.941	169.98
384.151	30.72
384.361	116.73
384.571	32.77
384.781	92.16
384.991	139.26
385.201	77.82
385.411	63.49
385.621	49.15
385.831	55.3
386.041	98.3
386.251	94.21
386.461	63.49
386.671	59.39
386.881	110.59
387.091	83.97
387.301	40.96
387.511	55.3
387.72	112.64
387.93	151.55
388.14	65.53
388.35	61.44
388.56	110.59
388.769	139.26
388.979	67.58
389.189	79.87
389.399	165.89
389.609	118.78
389.818	94.21
390.028	120.83
390.238	118.78
390.447	79.87
390.657	28.67
390.867	102.4
391.076	86.01
391.286	116.73
391.496	77.82
391.705	-59.39
391.915	112.64
392.125	57.34
392.334	102.4
392.544	106.49
392.753	51.2
392.963	45.06
393.172	96.25
393.382	86.01
393.591	67.58
393.801	34.82
394.01	161.79
394.22	159.74
394.429	108.54
394.639	124.93
394.848	67.58
395.058	51.2
395.267	112.64
395.477	98.3
395.686	165.89
395.895	106.49
396.105	167.93
396.314	55.3
396.524	81.92
396.733	104.45
396.942	126.97
397.152	145.41
397.361	88.06
397.57	131.07
397.78	124.93
397.989	159.74
398.198	155.65
398.407	88.06
398.617	83.97
398.826	180.22
399.035	118.78
399.244	147.45
399.453	114.69
399.663	71.68
399.872	92.16
400.081	141.31
400.29	135.17
400.499	67.58
400.708	180.22
400.917	86.01
401.127	233.47
401.336	182.27
401.545	174.08
401.754	180.22
401.963	139.26
402.172	120.83
402.381	112.64
402.59	157.69
402.799	167.93
403.008	157.69
403.217	137.21
403.426	192.51
403.635	110.59
403.844	122.88
404.053	169.98
404.262	100.35
404.471	210.94
404.68	165.89
404.888	75.77
405.097	190.46
405.306	167.93
405.515	188.41
405.724	182.27
405.933	204.8
406.142	190.46
406.35	186.37
406.559	163.84
406.768	280.57
406.977	210.94
407.185	204.8
407.394	223.23
407.603	217.08
407.812	251.9
408.02	284.67
408.229	294.91
408.438	172.03
408.646	200.7
408.855	276.48
409.064	311.29
409.272	333.82
409.481	321.53
409.69	307.2
409.898	303.1
410.107	403.45
410.315	372.73
410.524	366.59
410.733	393.21
410.941	358.39
411.15	468.98
411.358	417.79
411.567	503.8
411.775	497.66
411.984	579.58
412.192	477.18
412.401	524.28
412.609	503.8
412.818	538.62
413.026	563.19
413.234	602.1
413.443	729.08
413.651	628.73
413.86	620.53
414.068	686.07
414.276	765.94
414.485	661.49
414.693	772.08
414.901	800.76
415.11	788.47
415.318	843.76
415.526	929.78
415.734	905.2
415.943	917.49
416.151	925.68
416.359	892.91
416.567	983.02
416.776	1044.46
416.984	1204.21
417.192	1161.2
417.4	1189.87
417.608	1216.49
417.817	1110
418.025	1312.75
418.233	1433.58
418.441	1290.22
418.649	1394.67
418.857	1366
419.065	1368.04
419.273	1523.69
419.481	1644.52
419.689	1779.68
419.897	1755.11
420.105	1775.59
420.313	1918.95
420.521	1961.95
420.729	1834.98
420.937	1980.39
421.145	2033.63
421.353	2142.18
421.561	2193.37
421.769	2297.82
421.977	2381.79
422.185	2379.74
422.393	2514.91
422.601	2627.54
422.809	2662.36
423.017	2682.84
423.224	2877.4
423.432	2971.6
423.64	2852.82
423.848	3139.54
424.056	3264.46
424.263	3397.58
424.471	3272.65
424.679	3405.77
424.887	3624.9
425.094	3739.59
425.302	3700.68
425.51	3891.14
425.718	4087.75
425.925	3948.48
426.133	4132.8
426.341	4356.03
426.548	4714.42
426.756	4689.85
426.964	4659.13
427.171	4904.89
427.379	5101.49
427.586	5214.13
427.794	5384.11
428.001	5650.35
428.209	5857.19
428.417	5793.7
428.624	6154.15
428.832	6125.47
429.039	6236.06
429.247	6166.43
429.454	6610.84
429.662	7294.86
429.869	6809.5
430.076	7423.89
430.284	6950.81
430.491	7255.95
430.699	7851.91
430.906	7563.15
431.114	7970.69
431.321	7964.55
431.528	8075.14
431.736	9006.97
431.943	9066.36
432.15	8943.48
432.358	9160.56
432.565	9588.59
432.772	9424.75
432.979	10076.01
433.187	10211.17
433.394	10135.4
433.601	11040.6
433.808	11151.19
434.016	11026.26
434.223	11364.18
434.43	12199.75
434.637	11835.21
434.844	12500.8
435.052	12904.25
435.259	12517.18
435.466	12732.22
435.673	12799.8
435.88	13705.01
436.087	14090.02
436.294	14409.51
436.501	13999.91
436.708	14317.35
436.915	14673.7
437.122	15388.44
437.329	15404.82
437.537	15795.98
437.743	16031.5
437.95	16062.22
438.157	17209.08
438.364	17256.18
438.571	17391.35
438.778	17561.33
438.985	19486.42
439.192	18454.25
439.399	18966.24
439.606	18824.93
439.813	19642.07
440.02	20657.86
440.227	20307.66
440.433	20516.55
440.64	20952.77
440.847	21046.97
441.054	21214.91
441.261	22705.83
441.467	22546.09
441.674	22998.69
441.881	24196.75
442.088	24141.46
442.294	23551.64
442.501	24331.92
442.708	24872.58
442.914	25632.38
443.121	26998.37
443.328	26021.49
443.534	27741.78
443.741	27461.21
443.948	27022.95
444.154	29025.86
444.361	28640.84
444.568	29126.21
444.774	29040.2
444.981	29410.88
445.187	30080.56
445.394	31673.88
445.6	31016.49
445.807	34127.35
446.013	32421.39
446.22	33205.77
446.426	34606.58
446.633	34844.14
446.839	36203.99
447.046	34586.1
447.252	36406.74
447.459	36613.59
447.665	36353.49
447.871	37977.53
448.078	40052.12
448.284	37596.61
448.491	38837.68
448.697	40353.18
448.903	41250.19
449.11	41178.51
449.316	40576.4
449.522	41385.35
449.728	42464.63
449.935	42552.69
450.141	42696.05
450.347	43679.08
450.553	42141.05
450.76	43044.21
450.966	44672.34
451.172	43838.82
451.378	45126.99
451.584	44141.92
451.791	44844.37
451.997	45165.9
452.203	45710.66
452.409	45649.22
452.615	45368.65
452.821	43814.24
453.027	43418.99
453.233	45870.4
453.44	44062.05
453.646	44715.35
453.852	44676.44
454.058	45520.2
454.264	44260.7
454.47	44862.8
454.676	43588.97
454.882	45296.97
455.088	41547.14
455.294	41840
455.5	42841.46
455.705	43167.09
455.911	41809.28
456.117	40699.28
456.323	40263.07
456.529	38059.45
456.735	39755.17
456.941	38665.65
457.147	38331.83
457.352	37189.06
457.558	36849.1
457.764	36863.44
457.97	36046.3
458.176	34883.05
458.381	35481.06
458.587	33674.75
458.793	33353.22
458.999	32116.25
459.204	34031.1
459.41	33228.29
459.616	31045.16
459.821	30813.74
460.027	31135.27
460.233	30604.85
460.438	29126.21
460.644	29300.29
460.85	27616.86
461.055	27534.94
461.261	27145.83
461.466	25673.34
461.672	24542.86
461.878	26263.15
462.083	24786.57
462.289	24053.39
462.494	23824.02
462.7	22941.35
462.905	22286
463.111	22953.63
463.316	23305.88
463.522	22671.01
463.727	22967.97
463.932	22466.22
464.138	22425.26
464.343	22435.5
464.549	21540.54
464.754	22795.94
464.959	22146.73
465.165	22306.48
465.37	21409.47
465.575	20674.24
465.781	21577.4
465.986	21657.27
466.191	20971.2
466.397	20408.01
466.602	19613.4
466.807	20090.57
467.012	20321.99
467.218	20358.86
467.423	20106.96
467.628	20113.1
467.833	20782.79
468.038	19771.09
