Data from USB4F104151__81__12-27-53-090.txt Node

Date: Fri Mar 14 12:27:53 EDT 2025
User: louis
Spectrometer: USB4F10415
Trigger mode: 4
Integration Time (sec): 2.000000E-2
Scans to average: 1
Electric dark correction enabled: true
Nonlinearity correction enabled: false
Boxcar width: 0
XAxis mode: Wavelengths
Number of Pixels in Spectrum: 3648
>>>>>Begin Spectral Data<<<<<
178.204	-26.28
178.424	-26.28
178.644	-26.28
178.864	-108.2
179.084	-87.72
179.304	2.39
179.524	37.2
179.744	33.11
179.964	-44.71
180.184	14.68
180.404	-44.71
180.624	10.58
180.844	0.34
181.064	-16.04
181.283	10.58
181.503	8.53
181.723	-11.95
181.943	-40.62
182.163	104.79
182.383	14.68
182.602	47.44
182.822	41.3
183.042	4.44
183.262	-34.47
183.482	18.77
183.701	45.4
183.921	10.58
184.141	29.01
184.361	-13.99
184.58	51.54
184.8	-3.75
185.02	-59.05
185.239	20.82
185.459	-22.19
185.679	0.34
185.898	-54.95
186.118	6.49
186.338	37.2
186.557	39.25
186.777	-16.04
186.997	39.25
187.216	10.58
187.436	33.11
187.655	10.58
187.875	88.4
188.095	80.21
188.314	96.6
188.534	65.88
188.753	-7.85
188.973	31.06
189.192	92.5
189.412	43.35
189.631	-36.52
189.851	2.39
190.07	-9.9
190.29	59.73
190.509	37.2
190.729	-48.81
190.948	78.16
191.168	80.21
191.387	41.3
191.607	-1.71
191.826	0.34
192.045	-34.47
192.265	39.25
192.484	41.3
192.704	-13.99
192.923	-20.14
193.142	108.88
193.362	-1.71
193.581	61.78
193.8	-7.85
194.02	158.03
194.239	-30.38
194.458	72.02
194.678	-5.8
194.897	29.01
195.116	22.87
195.335	22.87
195.555	-9.9
195.774	-11.95
195.993	55.64
196.212	20.82
196.432	49.49
196.651	26.96
196.87	-1.71
197.089	39.25
197.308	49.49
197.528	-44.71
197.747	86.36
197.966	6.49
198.185	18.77
198.404	-13.99
198.623	29.01
198.842	26.96
199.062	45.4
199.281	45.4
199.5	-26.28
199.719	-1.71
199.938	14.68
200.157	49.49
200.376	29.01
200.595	65.88
200.814	-22.19
201.033	-3.75
201.252	41.3
201.471	-46.76
201.69	86.36
201.909	108.88
202.128	92.5
202.347	78.16
202.566	-26.28
202.785	-3.75
203.004	57.68
203.223	57.68
203.442	39.25
203.661	20.82
203.879	41.3
204.098	-22.19
204.317	45.4
204.536	49.49
204.755	47.44
204.974	94.55
205.193	-13.99
205.411	78.16
205.63	39.25
205.849	84.31
206.068	-1.71
206.287	31.06
206.505	-34.47
206.724	18.77
206.943	45.4
207.162	59.73
207.381	-3.75
207.599	24.92
207.818	69.97
208.037	72.02
208.255	18.77
208.474	41.3
208.693	-7.85
208.911	31.06
209.13	41.3
209.349	59.73
209.567	53.59
209.786	57.68
210.005	-24.23
210.223	18.77
210.442	-18.09
210.661	47.44
210.879	-9.9
211.098	6.49
211.316	-1.71
211.535	74.07
211.753	22.87
211.972	-7.85
212.191	45.4
212.409	26.96
212.628	117.08
212.846	80.21
213.065	53.59
213.283	84.31
213.502	26.96
213.72	26.96
213.938	-42.67
214.157	94.55
214.375	-38.57
214.594	69.97
214.812	59.73
215.031	-3.75
215.249	-40.62
215.467	57.68
215.686	76.12
215.904	-61.1
216.122	-3.75
216.341	37.2
216.559	10.58
216.778	43.35
216.996	0.34
217.214	29.01
217.432	29.01
217.651	76.12
217.869	4.44
218.087	84.31
218.306	-9.9
218.524	-9.9
218.742	16.73
218.96	49.49
219.179	88.4
219.397	35.16
219.615	-13.99
219.833	74.07
220.051	35.16
220.27	51.54
220.488	94.55
220.706	26.96
220.924	0.34
221.142	29.01
221.36	-13.99
221.578	47.44
221.796	84.31
222.015	55.64
222.233	-69.29
222.451	37.2
222.669	0.34
222.887	78.16
223.105	-3.75
223.323	-3.75
223.541	55.64
223.759	4.44
223.977	57.68
224.195	51.54
224.413	33.11
224.631	76.12
224.849	22.87
225.067	69.97
225.285	-20.14
225.503	12.63
225.721	33.11
225.939	22.87
226.157	100.69
226.375	160.08
226.592	12.63
226.81	14.68
227.028	12.63
227.246	76.12
227.464	20.82
227.682	35.16
227.9	51.54
228.117	-11.95
228.335	29.01
228.553	72.02
228.771	69.97
228.989	39.25
229.206	35.16
229.424	-59.05
229.642	4.44
229.86	4.44
230.077	-30.38
230.295	12.63
230.513	55.64
230.731	72.02
230.948	6.49
231.166	37.2
231.384	14.68
231.601	65.88
231.819	84.31
232.037	53.59
232.254	-28.33
232.472	53.59
232.689	4.44
232.907	6.49
233.125	39.25
233.342	22.87
233.56	8.53
233.777	-13.99
233.995	-16.04
234.213	94.55
234.43	-5.8
234.648	-40.62
234.865	108.88
235.083	-5.8
235.3	18.77
235.518	10.58
235.735	106.84
235.953	110.93
236.17	53.59
236.388	-3.75
236.605	8.53
236.822	35.16
237.04	-22.19
237.257	-30.38
237.475	-20.14
237.692	20.82
237.909	65.88
238.127	14.68
238.344	20.82
238.562	33.11
238.779	-34.47
238.996	18.77
239.214	37.2
239.431	10.58
239.648	-7.85
239.865	-11.95
240.083	51.54
240.3	-9.9
240.517	39.25
240.735	57.68
240.952	86.36
241.169	76.12
241.386	-24.23
241.603	16.73
241.821	-11.95
242.038	26.96
242.255	33.11
242.472	76.12
242.689	92.5
242.907	69.97
243.124	-5.8
243.341	100.69
243.558	65.88
243.775	16.73
243.992	18.77
244.209	115.03
244.426	96.6
244.643	29.01
244.86	22.87
245.078	82.26
245.295	84.31
245.512	-11.95
245.729	-13.99
245.946	119.12
246.163	24.92
246.38	-83.63
246.597	-61.1
246.814	43.35
247.031	-5.8
247.248	61.78
247.464	20.82
247.681	-9.9
247.898	69.97
248.115	43.35
248.332	0.34
248.549	10.58
248.766	63.83
248.983	29.01
249.2	10.58
249.417	-18.09
249.633	53.59
249.85	2.39
250.067	86.36
250.284	61.78
250.501	12.63
250.717	0.34
250.934	31.06
251.151	14.68
251.368	8.53
251.585	67.92
251.801	67.92
252.018	-5.8
252.235	63.83
252.451	-5.8
252.668	16.73
252.885	-11.95
253.102	12.63
253.318	115.03
253.535	6.49
253.752	26.96
253.968	43.35
254.185	16.73
254.401	-28.33
254.618	110.93
254.835	10.58
255.051	88.4
255.268	20.82
255.484	41.3
255.701	26.96
255.917	-11.95
256.134	6.49
256.351	10.58
256.567	33.11
256.784	102.74
257	-28.33
257.217	6.49
257.433	53.59
257.65	-9.9
257.866	49.49
258.082	-7.85
258.299	35.16
258.515	102.74
258.732	-7.85
258.948	37.2
259.165	-18.09
259.381	-3.75
259.597	8.53
259.814	-26.28
260.03	100.69
260.246	14.68
260.463	49.49
260.679	22.87
260.895	43.35
261.112	78.16
261.328	18.77
261.544	45.4
261.761	127.32
261.977	-7.85
262.193	33.11
262.409	39.25
262.626	6.49
262.842	-24.23
263.058	-7.85
263.274	39.25
263.49	0.34
263.707	-11.95
263.923	31.06
264.139	-57
264.355	29.01
264.571	33.11
264.787	65.88
265.004	22.87
265.22	22.87
265.436	26.96
265.652	-30.38
265.868	69.97
266.084	59.73
266.3	86.36
266.516	53.59
266.732	-52.91
266.948	0.34
267.164	57.68
267.38	141.65
267.596	110.93
267.812	51.54
268.028	-32.43
268.244	22.87
268.46	88.4
268.676	69.97
268.892	33.11
269.108	37.2
269.324	16.73
269.54	-65.19
269.756	51.54
269.972	-3.75
270.188	35.16
270.403	47.44
270.619	4.44
270.835	59.73
271.051	72.02
271.267	-95.91
271.483	14.68
271.698	-20.14
271.914	61.78
272.13	4.44
272.346	33.11
272.562	0.34
272.777	12.63
272.993	84.31
273.209	43.35
273.425	14.68
273.64	6.49
273.856	41.3
274.072	-18.09
274.287	53.59
274.503	31.06
274.719	-28.33
274.934	20.82
275.15	-73.39
275.366	-36.52
275.581	20.82
275.797	16.73
276.012	-30.38
276.228	29.01
276.444	22.87
276.659	33.11
276.875	-20.14
277.09	31.06
277.306	14.68
277.521	88.4
277.737	10.58
277.952	39.25
278.168	53.59
278.383	84.31
278.599	90.45
278.814	33.11
279.03	-20.14
279.245	72.02
279.461	61.78
279.676	20.82
279.892	20.82
280.107	24.92
280.322	-1.71
280.538	41.3
280.753	49.49
280.969	123.22
281.184	69.97
281.399	20.82
281.615	6.49
281.83	76.12
282.045	-22.19
282.26	24.92
282.476	100.69
282.691	76.12
282.906	43.35
283.122	35.16
283.337	-38.57
283.552	-20.14
283.767	67.92
283.983	78.16
284.198	8.53
284.413	33.11
284.628	14.68
284.843	74.07
285.058	-30.38
285.274	63.83
285.489	4.44
285.704	-13.99
285.919	-7.85
286.134	-11.95
286.349	2.39
286.564	63.83
286.779	141.65
286.995	-5.8
287.21	10.58
287.425	74.07
287.64	67.92
287.855	39.25
288.07	37.2
288.285	106.84
288.5	100.69
288.715	65.88
288.93	22.87
289.145	55.64
289.36	-3.75
289.575	18.77
289.79	69.97
290.004	49.49
290.219	106.84
290.434	10.58
290.649	16.73
290.864	78.16
291.079	2.39
291.294	-24.23
291.509	49.49
291.724	-11.95
291.938	0.34
292.153	43.35
292.368	-50.86
292.583	96.6
292.798	82.26
293.012	33.11
293.227	18.77
293.442	63.83
293.657	90.45
293.871	47.44
294.086	24.92
294.301	104.79
294.516	0.34
294.73	-22.19
294.945	0.34
295.16	39.25
295.374	67.92
295.589	57.68
295.804	33.11
296.018	82.26
296.233	74.07
296.447	24.92
296.662	-32.43
296.877	18.77
297.091	-26.28
297.306	51.54
297.52	29.01
297.735	24.92
297.949	31.06
298.164	16.73
298.378	-30.38
298.593	-24.23
298.807	-7.85
299.022	82.26
299.236	67.92
299.451	67.92
299.665	51.54
299.88	51.54
300.094	29.01
300.309	61.78
300.523	4.44
300.737	-30.38
300.952	131.41
301.166	80.21
301.381	47.44
301.595	45.4
301.809	-28.33
302.024	41.3
302.238	49.49
302.452	98.64
302.667	20.82
302.881	26.96
303.095	45.4
303.309	67.92
303.524	10.58
303.738	-59.05
303.952	88.4
304.166	39.25
304.381	10.58
304.595	143.7
304.809	74.07
305.023	37.2
305.237	65.88
305.452	18.77
305.666	45.4
305.88	-22.19
306.094	80.21
306.308	76.12
306.522	43.35
306.736	49.49
306.95	-7.85
307.164	69.97
307.379	65.88
307.593	65.88
307.807	43.35
308.021	-3.75
308.235	61.78
308.449	41.3
308.663	0.34
308.877	57.68
309.091	-13.99
309.305	29.01
309.519	12.63
309.733	127.32
309.947	31.06
310.161	61.78
310.374	29.01
310.588	-18.09
310.802	37.2
311.016	-7.85
311.23	24.92
311.444	55.64
311.658	10.58
311.872	59.73
312.085	74.07
312.299	86.36
312.513	33.11
312.727	57.68
312.941	-24.23
313.154	41.3
313.368	-18.09
313.582	43.35
313.796	45.4
314.009	45.4
314.223	65.88
314.437	26.96
314.651	63.83
314.864	12.63
315.078	-38.57
315.292	-30.38
315.505	24.92
315.719	47.44
315.933	33.11
316.146	0.34
316.36	2.39
316.573	100.69
316.787	14.68
317.001	129.36
317.214	69.97
317.428	18.77
317.641	8.53
317.855	31.06
318.068	24.92
318.282	57.68
318.495	104.79
318.709	6.49
318.922	41.3
319.136	82.26
319.349	61.78
319.563	86.36
319.776	90.45
319.99	80.21
320.203	12.63
320.417	29.01
320.63	84.31
320.843	74.07
321.057	90.45
321.27	2.39
321.483	16.73
321.697	41.3
321.91	47.44
322.124	61.78
322.337	65.88
322.55	41.3
322.763	18.77
322.977	67.92
323.19	-28.33
323.403	117.08
323.617	24.92
323.83	18.77
324.043	-13.99
324.256	26.96
324.469	4.44
324.683	78.16
324.896	24.92
325.109	22.87
325.322	41.3
325.535	35.16
325.748	0.34
325.962	12.63
326.175	-18.09
326.388	98.64
326.601	14.68
326.814	-3.75
327.027	18.77
327.24	117.08
327.453	41.3
327.666	37.2
327.879	102.74
328.092	63.83
328.305	22.87
328.518	45.4
328.731	-50.86
328.944	49.49
329.157	41.3
329.37	49.49
329.583	82.26
329.796	65.88
330.009	18.77
330.222	90.45
330.435	39.25
330.648	53.59
330.861	100.69
331.073	14.68
331.286	92.5
331.499	33.11
331.712	61.78
331.925	90.45
332.138	108.88
332.35	84.31
332.563	45.4
332.776	65.88
332.989	18.77
333.202	-18.09
333.414	33.11
333.627	133.46
333.84	-40.62
334.053	0.34
334.265	8.53
334.478	24.92
334.691	65.88
334.903	53.59
335.116	18.77
335.329	29.01
335.541	47.44
335.754	45.4
335.966	-16.04
336.179	98.64
336.392	76.12
336.604	6.49
336.817	61.78
337.029	22.87
337.242	78.16
337.454	74.07
337.667	26.96
337.88	14.68
338.092	4.44
338.305	22.87
338.517	-3.75
338.729	102.74
338.942	39.25
339.154	-77.48
339.367	29.01
339.579	53.59
339.792	24.92
340.004	53.59
340.217	172.37
340.429	123.22
340.641	26.96
340.854	4.44
341.066	65.88
341.278	-26.28
341.491	18.77
341.703	149.84
341.915	6.49
342.128	45.4
342.34	0.34
342.552	53.59
342.764	47.44
342.977	67.92
343.189	131.41
343.401	39.25
343.613	-1.71
343.826	-24.23
344.038	2.39
344.25	10.58
344.462	92.5
344.674	4.44
344.886	53.59
345.099	45.4
345.311	14.68
345.523	12.63
345.735	45.4
345.947	74.07
346.159	61.78
346.371	24.92
346.583	29.01
346.795	20.82
347.007	43.35
347.219	78.16
347.431	26.96
347.643	49.49
347.855	10.58
348.067	26.96
348.279	57.68
348.491	39.25
348.703	96.6
348.915	2.39
349.127	65.88
349.339	33.11
349.551	78.16
349.763	84.31
349.975	69.97
350.187	-5.8
350.399	74.07
350.61	22.87
350.822	104.79
351.034	29.01
351.246	78.16
351.458	59.73
351.669	53.59
351.881	43.35
352.093	10.58
352.305	61.78
352.517	14.68
352.728	63.83
352.94	57.68
353.152	76.12
353.363	-26.28
353.575	102.74
353.787	135.51
353.999	39.25
354.21	2.39
354.422	43.35
354.633	55.64
354.845	43.35
355.057	24.92
355.268	26.96
355.48	92.5
355.692	29.01
355.903	31.06
356.115	72.02
356.326	82.26
356.538	84.31
356.749	80.21
356.961	102.74
357.172	2.39
357.384	37.2
357.595	65.88
357.807	-11.95
358.018	-1.71
358.23	86.36
358.441	94.55
358.653	96.6
358.864	72.02
359.075	39.25
359.287	16.73
359.498	112.98
359.709	-52.91
359.921	-28.33
360.132	82.26
360.344	8.53
360.555	119.12
360.766	6.49
360.977	-36.52
361.189	74.07
361.4	-7.85
361.611	33.11
361.823	90.45
362.034	104.79
362.245	53.59
362.456	76.12
362.667	49.49
362.879	-36.52
363.09	33.11
363.301	45.4
363.512	45.4
363.723	49.49
363.935	112.98
364.146	84.31
364.357	20.82
364.568	35.16
364.779	43.35
364.99	45.4
365.201	92.5
365.412	47.44
365.623	94.55
365.834	53.59
366.045	22.87
366.256	29.01
366.467	69.97
366.678	92.5
366.889	74.07
367.1	41.3
367.311	55.64
367.522	45.4
367.733	-16.04
367.944	-13.99
368.155	59.73
368.366	31.06
368.577	-13.99
368.788	96.6
368.999	31.06
369.209	33.11
369.42	22.87
369.631	94.55
369.842	121.17
370.053	86.36
370.264	72.02
370.474	51.54
370.685	24.92
370.896	12.63
371.107	106.84
371.317	22.87
371.528	82.26
371.739	92.5
371.95	33.11
372.16	-7.85
372.371	55.64
372.582	117.08
372.792	76.12
373.003	53.59
373.214	76.12
373.424	22.87
373.635	35.16
373.846	-16.04
374.056	35.16
374.267	-13.99
374.477	90.45
374.688	31.06
374.898	8.53
375.109	-13.99
375.319	20.82
375.53	69.97
375.74	78.16
375.951	98.64
376.161	37.2
376.372	39.25
376.582	94.55
376.793	104.79
377.003	24.92
377.214	145.75
377.424	69.97
377.635	45.4
377.845	115.03
378.055	47.44
378.266	55.64
378.476	14.68
378.686	82.26
378.897	88.4
379.107	-7.85
379.317	61.78
379.528	90.45
379.738	53.59
379.948	108.88
380.158	41.3
380.369	61.78
380.579	94.55
380.789	29.01
380.999	84.31
381.21	39.25
381.42	63.83
381.63	22.87
381.84	133.46
382.05	69.97
382.261	55.64
382.471	76.12
382.681	26.96
382.891	31.06
383.101	74.07
383.311	65.88
383.521	69.97
383.731	80.21
383.941	69.97
384.151	65.88
384.361	33.11
384.571	80.21
384.781	49.49
384.991	153.94
385.201	125.27
385.411	110.93
385.621	43.35
385.831	49.49
386.041	53.59
386.251	65.88
386.461	115.03
386.671	35.16
386.881	90.45
387.091	59.73
387.301	49.49
387.511	104.79
387.72	115.03
387.93	74.07
388.14	72.02
388.35	37.2
388.56	63.83
388.769	143.7
388.979	131.41
389.189	-11.95
389.399	63.83
389.609	98.64
389.818	125.27
390.028	86.36
390.238	121.17
390.447	2.39
390.657	51.54
390.867	78.16
391.076	37.2
391.286	98.64
391.496	31.06
391.705	102.74
391.915	84.31
392.125	14.68
392.334	61.78
392.544	88.4
392.753	88.4
392.963	55.64
393.172	18.77
393.382	102.74
393.591	84.31
393.801	147.8
394.01	14.68
394.22	117.08
394.429	22.87
394.639	82.26
394.848	41.3
395.058	88.4
395.267	98.64
395.477	123.22
395.686	119.12
395.895	84.31
396.105	125.27
396.314	100.69
396.524	86.36
396.733	106.84
396.942	121.17
397.152	94.55
397.361	106.84
397.57	112.98
397.78	59.73
397.989	133.46
398.198	180.56
398.407	133.46
398.617	74.07
398.826	96.6
399.035	106.84
399.244	104.79
399.453	155.99
399.663	170.32
399.872	115.03
400.081	110.93
400.29	143.7
400.499	108.88
400.708	125.27
400.917	98.64
401.127	147.8
401.336	141.65
401.545	55.64
401.754	104.79
401.963	90.45
402.172	125.27
402.381	129.36
402.59	137.56
402.799	125.27
403.008	139.6
403.217	180.56
403.426	115.03
403.635	100.69
403.844	137.56
404.053	135.51
404.262	127.32
404.471	176.47
404.68	133.46
404.888	176.47
405.097	139.6
405.306	196.95
405.515	82.26
405.724	141.65
405.933	229.71
406.142	164.18
406.35	160.08
406.559	141.65
406.768	198.99
406.977	252.24
407.185	237.91
407.394	221.52
407.603	188.75
407.812	190.8
408.02	223.57
408.229	315.73
408.438	287.06
408.646	291.15
408.855	225.62
409.064	285.01
409.272	282.96
409.481	307.54
409.69	274.77
409.898	295.25
410.107	278.87
410.315	278.87
410.524	307.54
410.733	344.4
410.941	315.73
411.15	393.55
411.358	340.3
411.567	471.37
411.775	426.32
411.984	450.89
412.192	534.86
412.401	504.14
412.609	473.42
412.818	530.77
413.026	475.47
413.234	536.91
413.443	565.58
413.651	514.38
413.86	541.01
414.068	649.55
414.276	555.34
414.485	588.11
414.693	633.16
414.901	696.65
415.11	776.52
415.318	721.23
415.526	764.23
415.734	725.32
415.943	858.44
416.151	866.63
416.359	821.58
416.567	840.01
416.776	938.31
416.984	854.34
417.192	973.13
417.4	985.41
417.608	979.27
417.817	1048.9
418.025	1007.94
418.233	1132.87
418.441	1177.92
418.649	1272.13
418.857	1235.27
419.065	1392.96
419.273	1292.61
419.481	1245.51
419.689	1431.87
419.897	1397.06
420.105	1517.89
420.313	1513.79
420.521	1544.51
420.729	1573.18
420.937	1739.07
421.145	1747.26
421.353	1841.47
421.561	1958.2
421.769	1952.06
421.977	2068.79
422.185	2050.36
422.393	2056.5
422.601	2271.54
422.809	2277.68
423.017	2351.41
423.224	2531.63
423.432	2562.35
423.64	2586.93
423.848	2732.33
424.056	2746.67
424.263	3027.24
424.471	2869.55
424.679	3103.01
424.887	3070.25
425.094	3211.56
425.302	3213.6
425.51	3404.07
425.718	3569.95
425.925	3453.22
426.133	3615.01
426.341	3713.31
426.548	4069.66
426.756	3952.92
426.964	4036.89
427.171	4294.93
427.379	4481.3
427.586	4532.5
427.794	4518.16
428.001	4880.65
428.209	5019.91
428.417	4921.61
428.624	5265.67
428.832	5204.23
429.039	5345.54
429.247	5241.09
429.454	5718.27
429.662	6091
429.869	5841.15
430.076	6029.56
430.284	6058.23
430.491	6310.13
430.699	6764.78
430.906	6725.87
431.114	6689.01
431.321	6930.67
431.528	7084.27
431.736	7674.08
431.943	7946.46
432.15	7583.97
432.358	7809.25
432.565	8235.22
432.772	8224.98
432.979	8468.69
433.187	8648.91
433.394	8706.26
433.601	9330.89
433.808	9470.15
434.016	9494.72
434.223	9566.4
434.43	10354.87
434.637	10279.1
434.844	10733.75
435.052	11028.65
435.259	10916.01
435.466	11106.48
435.673	10870.96
435.88	11524.26
436.087	12224.67
436.294	12214.43
436.501	12114.08
436.708	12191.9
436.915	12933.26
437.122	13170.83
437.329	13156.49
437.537	13594.76
437.743	14039.17
437.95	13752.45
438.157	14430.33
438.364	15163.5
438.571	14876.79
438.778	15167.6
438.985	16529.5
439.192	15695.97
439.399	16326.75
439.606	16066.66
439.813	16805.97
440.02	17969.22
440.227	17614.92
440.433	17508.43
440.64	18032.71
440.847	18038.85
441.054	18325.57
441.261	19650.6
441.467	19335.21
441.674	19992.61
441.881	20504.6
442.088	20367.39
442.294	20260.9
442.501	20840.47
442.708	21393.42
442.914	21868.55
443.121	22755.32
443.328	22296.58
443.534	23975.91
443.741	23410.67
443.948	22876.15
444.154	24854.49
444.361	24549.34
444.568	24733.66
444.774	24528.86
444.981	25165.78
445.187	25843.66
445.394	27135.93
445.6	26582.98
445.807	29001.63
446.013	27713.45
446.22	28180.39
446.426	29298.58
446.633	29398.93
446.839	30441.35
447.046	29245.34
447.252	30932.86
447.459	30852.99
447.665	31178.62
447.871	32153.45
448.078	33775.44
448.284	32278.38
448.491	33159
448.697	34443.08
448.903	35342.14
449.11	34959.17
449.316	34660.16
449.522	35340.09
449.728	35708.72
449.935	36163.37
450.141	36357.93
450.347	37379.87
450.553	36206.38
450.76	36517.67
450.966	37818.13
451.172	37533.46
451.378	38272.78
451.584	37500.7
451.791	38389.52
451.997	38227.73
452.203	39100.16
452.409	39511.8
452.615	38981.38
452.821	37488.41
453.027	37232.41
453.233	39089.92
453.44	37601.05
453.646	37576.47
453.852	37760.79
454.058	39161.6
454.264	37521.18
454.47	38020.88
454.676	37586.71
454.882	38930.18
455.088	35467.06
455.294	35764.02
455.5	36310.83
455.705	36681.51
455.911	35254.08
456.117	34635.59
456.323	34355.02
456.529	32464.74
456.735	33904.46
456.941	32927.58
457.147	32702.31
457.352	31575.92
457.558	31080.32
457.764	31428.47
457.97	30668.67
458.176	30148.49
458.381	30039.95
458.587	28719.01
458.793	28645.28
458.999	27119.54
459.204	29345.69
459.41	28129.19
459.616	26326.98
459.821	26437.57
460.027	26150.85
460.233	25667.53
460.438	24502.24
460.644	24688.6
460.85	23744.49
461.055	23173.11
461.261	23414.77
461.466	21549.07
461.672	20957.21
461.878	22362.11
462.083	20996.12
462.289	20308
462.494	20215.84
462.7	19308.59
462.905	18741.3
463.111	19490.86
463.316	19591.21
463.522	19300.4
463.727	19574.83
463.932	19284.02
464.138	18931.76
464.343	19126.32
464.549	18477.12
464.754	19259.44
464.959	18927.67
465.165	18925.62
465.37	17846.34
465.575	17557.58
465.781	18286.65
465.986	18444.35
466.191	17649.74
466.397	17522.76
466.602	16388.19
466.807	17457.23
467.012	17277.01
467.218	16984.15
467.423	16992.34
467.628	17152.08
