Data from USB4F104151__21__12-27-06-656.txt Node

Date: Fri Mar 14 12:27:06 EDT 2025
User: louis
Spectrometer: USB4F10415
Trigger mode: 4
Integration Time (sec): 2.000000E-2
Scans to average: 1
Electric dark correction enabled: true
Nonlinearity correction enabled: false
Boxcar width: 0
XAxis mode: Wavelengths
Number of Pixels in Spectrum: 3648
>>>>>Begin Spectral Data<<<<<
178.204	-146.6
178.424	-146.6
178.644	-146.6
178.864	-85.16
179.084	-105.64
179.304	19.29
179.524	4.95
179.744	-23.72
179.964	-21.67
180.184	-1.19
180.404	-19.63
180.624	47.96
180.844	-17.58
181.064	9.05
181.283	19.29
181.503	-5.29
181.723	-11.43
181.943	-25.77
182.163	-1.19
182.383	-5.29
182.602	60.24
182.822	-5.29
183.042	7
183.262	35.67
183.482	21.33
183.701	-1.19
183.921	-7.34
184.141	0.85
184.361	-48.3
184.58	43.86
184.8	-25.77
185.02	21.33
185.239	74.58
185.459	35.67
185.679	60.24
185.898	-42.15
186.118	39.76
186.338	-19.63
186.557	-9.39
186.777	-31.91
186.997	17.24
187.216	-5.29
187.436	35.67
187.655	-11.43
187.875	39.76
188.095	50
188.314	66.39
188.534	37.72
188.753	15.19
188.973	2.9
189.192	-11.43
189.412	-5.29
189.631	84.82
189.851	105.3
190.07	15.19
190.29	58.2
190.509	9.05
190.729	37.72
190.948	-36.01
191.168	152.4
191.387	-42.15
191.607	-42.15
191.826	-42.15
192.045	-29.87
192.265	-31.91
192.484	58.2
192.704	-58.54
192.923	17.24
193.142	52.05
193.362	33.62
193.581	58.2
193.8	21.33
194.02	37.72
194.239	-31.91
194.458	-11.43
194.678	-81.07
194.897	17.24
195.116	-56.49
195.335	-15.53
195.555	35.67
195.774	2.9
195.993	29.52
196.212	33.62
196.432	39.76
196.651	-27.82
196.87	33.62
197.089	45.91
197.308	39.76
197.528	-83.11
197.747	43.86
197.966	50
198.185	17.24
198.404	50
198.623	-7.34
198.842	0.85
199.062	90.96
199.281	66.39
199.5	27.48
199.719	0.85
199.938	-1.19
200.157	119.64
200.376	41.81
200.595	72.53
200.814	-9.39
201.033	-17.58
201.252	27.48
201.471	-9.39
201.69	52.05
201.909	-54.44
202.128	-11.43
202.347	56.15
202.566	-40.11
202.785	7
203.004	-64.68
203.223	70.48
203.442	37.72
203.661	80.72
203.879	9.05
204.098	-31.91
204.317	-40.11
204.536	29.52
204.755	50
204.974	15.19
205.193	-1.19
205.411	35.67
205.63	-21.67
205.849	66.39
206.068	-17.58
206.287	-27.82
206.505	17.24
206.724	-27.82
206.943	21.33
207.162	56.15
207.381	23.38
207.599	-11.43
207.818	-74.92
208.037	35.67
208.255	-27.82
208.474	54.1
208.693	-56.49
208.911	23.38
209.13	-85.16
209.349	39.76
209.567	29.52
209.786	7
210.005	23.38
210.223	17.24
210.442	17.24
210.661	37.72
210.879	78.68
211.098	11.09
211.316	35.67
211.535	19.29
211.753	35.67
211.972	-87.21
212.191	33.62
212.409	-1.19
212.628	52.05
212.846	19.29
213.065	29.52
213.283	-11.43
213.502	-5.29
213.72	23.38
213.938	-3.24
214.157	54.1
214.375	52.05
214.594	64.34
214.812	21.33
215.031	-21.67
215.249	7
215.467	23.38
215.686	-79.02
215.904	-9.39
216.122	52.05
216.341	-40.11
216.559	4.95
216.778	31.57
216.996	35.67
217.214	-1.19
217.432	-25.77
217.651	39.76
217.869	-11.43
218.087	-1.19
218.306	25.43
218.524	58.2
218.742	-15.53
218.96	15.19
219.179	17.24
219.397	25.43
219.615	33.62
219.833	80.72
220.051	-33.96
220.27	31.57
220.488	66.39
220.706	-40.11
220.924	-66.73
221.142	-9.39
221.36	-48.3
221.578	-1.19
221.796	-36.01
222.015	-17.58
222.233	25.43
222.451	33.62
222.669	66.39
222.887	35.67
223.105	11.09
223.323	33.62
223.541	11.09
223.759	39.76
223.977	-40.11
224.195	-5.29
224.413	23.38
224.631	-11.43
224.849	7
225.067	97.11
225.285	86.87
225.503	-19.63
225.721	-19.63
225.939	76.63
226.157	52.05
226.375	88.92
226.592	15.19
226.81	0.85
227.028	7
227.246	54.1
227.464	-21.67
227.682	-7.34
227.9	-25.77
228.117	-27.82
228.335	-44.2
228.553	25.43
228.771	41.81
228.989	7
229.206	-7.34
229.424	17.24
229.642	-11.43
229.86	-81.07
230.077	31.57
230.295	-31.91
230.513	-38.06
230.731	21.33
230.948	-7.34
231.166	13.14
231.384	-36.01
231.601	25.43
231.819	0.85
232.037	2.9
232.254	15.19
232.472	123.73
232.689	-42.15
232.907	52.05
233.125	11.09
233.342	15.19
233.56	33.62
233.777	-15.53
233.995	-19.63
234.213	64.34
234.43	21.33
234.648	2.9
234.865	-9.39
235.083	-1.19
235.3	-21.67
235.518	-15.53
235.735	39.76
235.953	95.06
236.17	-23.72
236.388	-46.25
236.605	-3.24
236.822	56.15
237.04	27.48
237.257	25.43
237.475	7
237.692	21.33
237.909	64.34
238.127	19.29
238.344	17.24
238.562	56.15
238.779	19.29
238.996	23.38
239.214	17.24
239.431	15.19
239.648	0.85
239.865	45.91
240.083	31.57
240.3	-27.82
240.517	-31.91
240.735	13.14
240.952	15.19
241.169	21.33
241.386	15.19
241.603	-40.11
241.821	-42.15
242.038	-1.19
242.255	52.05
242.472	43.86
242.689	19.29
242.907	23.38
243.124	54.1
243.341	2.9
243.558	-19.63
243.775	17.24
243.992	7
244.209	0.85
244.426	82.77
244.643	-1.19
244.86	33.62
245.078	68.44
245.295	58.2
245.512	35.67
245.729	-91.31
245.946	4.95
246.163	-58.54
246.38	23.38
246.597	29.52
246.814	-19.63
247.031	-3.24
247.248	54.1
247.464	37.72
247.681	23.38
247.898	-11.43
248.115	37.72
248.332	-29.87
248.549	29.52
248.766	31.57
248.983	-17.58
249.2	-25.77
249.417	39.76
249.633	13.14
249.85	64.34
250.067	-3.24
250.284	80.72
250.501	-79.02
250.717	-11.43
250.934	-27.82
251.151	31.57
251.368	-31.91
251.585	-9.39
251.801	86.87
252.018	-17.58
252.235	11.09
252.451	62.29
252.668	64.34
252.885	47.96
253.102	-54.44
253.318	45.91
253.535	-3.24
253.752	4.95
253.968	-7.34
254.185	-23.72
254.401	109.4
254.618	-9.39
254.835	-13.48
255.051	9.05
255.268	17.24
255.484	19.29
255.701	95.06
255.917	58.2
256.134	19.29
256.351	11.09
256.567	-56.49
256.784	21.33
257	29.52
257.217	66.39
257.433	47.96
257.65	11.09
257.866	19.29
258.082	31.57
258.299	129.88
258.515	-5.29
258.732	-17.58
258.948	56.15
259.165	25.43
259.381	-3.24
259.597	64.34
259.814	15.19
260.03	25.43
260.246	-29.87
260.463	62.29
260.679	37.72
260.895	9.05
261.112	82.77
261.328	39.76
261.544	-66.73
261.761	133.97
261.977	0.85
262.193	19.29
262.409	-19.63
262.626	47.96
262.842	43.86
263.058	11.09
263.274	64.34
263.49	-19.63
263.707	7
263.923	17.24
264.139	-38.06
264.355	-42.15
264.571	7
264.787	76.63
265.004	45.91
265.22	21.33
265.436	43.86
265.652	66.39
265.868	-46.25
266.084	35.67
266.3	72.53
266.516	-58.54
266.732	45.91
266.948	9.05
267.164	-31.91
267.38	35.67
267.596	84.82
267.812	13.14
268.028	76.63
268.244	82.77
268.46	-3.24
268.676	-9.39
268.892	107.35
269.108	-25.77
269.324	-3.24
269.54	-54.44
269.756	41.81
269.972	13.14
270.188	2.9
270.403	11.09
270.619	15.19
270.835	101.2
271.051	25.43
271.267	-46.25
271.483	15.19
271.698	-7.34
271.914	17.24
272.13	29.52
272.346	45.91
272.562	23.38
272.777	-5.29
272.993	13.14
273.209	-11.43
273.425	27.48
273.64	-74.92
273.856	37.72
274.072	17.24
274.287	-27.82
274.503	-13.48
274.719	50
274.934	35.67
275.15	-3.24
275.366	58.2
275.581	37.72
275.797	-33.96
276.012	2.9
276.228	43.86
276.444	9.05
276.659	-1.19
276.875	-52.39
277.09	9.05
277.306	50
277.521	-50.35
277.737	35.67
277.952	-33.96
278.168	-21.67
278.383	27.48
278.599	31.57
278.814	60.24
279.03	0.85
279.245	136.02
279.461	80.72
279.676	-1.19
279.892	-9.39
280.107	-44.2
280.322	11.09
280.538	-3.24
280.753	-1.19
280.969	76.63
281.184	-68.78
281.399	58.2
281.615	101.2
281.83	76.63
282.045	-54.44
282.26	72.53
282.476	56.15
282.691	88.92
282.906	21.33
283.122	27.48
283.337	-76.97
283.552	39.76
283.767	19.29
283.983	66.39
284.198	29.52
284.413	66.39
284.628	-15.53
284.843	-5.29
285.058	82.77
285.274	23.38
285.489	4.95
285.704	50
285.919	31.57
286.134	37.72
286.349	15.19
286.564	33.62
286.779	4.95
286.995	33.62
287.21	-56.49
287.425	25.43
287.64	-46.25
287.855	23.38
288.07	-50.35
288.285	93.01
288.5	25.43
288.715	93.01
288.93	-1.19
289.145	-15.53
289.36	90.96
289.575	80.72
289.79	7
290.004	82.77
290.219	35.67
290.434	47.96
290.649	-7.34
290.864	-1.19
291.079	-44.2
291.294	11.09
291.509	62.29
291.724	78.68
291.938	19.29
292.153	66.39
292.368	-9.39
292.583	29.52
292.798	33.62
293.012	21.33
293.227	72.53
293.442	-1.19
293.657	13.14
293.871	39.76
294.086	35.67
294.301	90.96
294.516	15.19
294.73	64.34
294.945	2.9
295.16	0.85
295.374	13.14
295.589	-5.29
295.804	-33.96
296.018	-56.49
296.233	19.29
296.447	37.72
296.662	43.86
296.877	-9.39
297.091	0.85
297.306	43.86
297.52	62.29
297.735	39.76
297.949	29.52
298.164	33.62
298.378	33.62
298.593	17.24
298.807	35.67
299.022	9.05
299.236	31.57
299.451	-13.48
299.665	0.85
299.88	13.14
300.094	43.86
300.309	66.39
300.523	-11.43
300.737	41.81
300.952	15.19
301.166	-21.67
301.381	72.53
301.595	-5.29
301.809	-1.19
302.024	15.19
302.238	64.34
302.452	52.05
302.667	39.76
302.881	74.58
303.095	27.48
303.309	154.45
303.524	-7.34
303.738	45.91
303.952	2.9
304.166	35.67
304.381	-38.06
304.595	25.43
304.809	2.9
305.023	82.77
305.237	-33.96
305.452	47.96
305.666	-25.77
305.88	-3.24
306.094	13.14
306.308	-3.24
306.522	11.09
306.736	15.19
306.95	-7.34
307.164	-9.39
307.379	-52.39
307.593	45.91
307.807	13.14
308.021	41.81
308.235	72.53
308.449	60.24
308.663	-50.35
308.877	25.43
309.091	7
309.305	50
309.519	4.95
309.733	-3.24
309.947	-21.67
310.161	-5.29
310.374	-44.2
310.588	-5.29
310.802	35.67
311.016	23.38
311.23	11.09
311.444	0.85
311.658	45.91
311.872	58.2
312.085	-15.53
312.299	93.01
312.513	-13.48
312.727	82.77
312.941	2.9
313.154	-7.34
313.368	50
313.582	111.44
313.796	19.29
314.009	58.2
314.223	-27.82
314.437	29.52
314.651	70.48
314.864	47.96
315.078	-19.63
315.292	78.68
315.505	35.67
315.719	-33.96
315.933	11.09
316.146	39.76
316.36	9.05
316.573	31.57
316.787	-9.39
317.001	4.95
317.214	-70.83
317.428	33.62
317.641	109.4
317.855	45.91
318.068	7
318.282	52.05
318.495	29.52
318.709	7
318.922	23.38
319.136	72.53
319.349	4.95
319.563	-33.96
319.776	7
319.99	50
320.203	-23.72
320.417	9.05
320.63	52.05
320.843	47.96
321.057	-46.25
321.27	19.29
321.483	9.05
321.697	95.06
321.91	90.96
322.124	99.16
322.337	70.48
322.55	11.09
322.763	68.44
322.977	50
323.19	13.14
323.403	19.29
323.617	35.67
323.83	31.57
324.043	-7.34
324.256	58.2
324.469	-23.72
324.683	84.82
324.896	15.19
325.109	43.86
325.322	-17.58
325.535	88.92
325.748	-21.67
325.962	60.24
326.175	43.86
326.388	68.44
326.601	0.85
326.814	-25.77
327.027	50
327.24	13.14
327.453	-42.15
327.666	-1.19
327.879	21.33
328.092	52.05
328.305	23.38
328.518	19.29
328.731	-42.15
328.944	-60.59
329.157	99.16
329.37	-7.34
329.583	31.57
329.796	39.76
330.009	33.62
330.222	23.38
330.435	23.38
330.648	86.87
330.861	29.52
331.073	119.64
331.286	64.34
331.499	-5.29
331.712	62.29
331.925	-11.43
332.138	31.57
332.35	27.48
332.563	2.9
332.776	35.67
332.989	-31.91
333.202	37.72
333.414	31.57
333.627	21.33
333.84	31.57
334.053	-9.39
334.265	-13.48
334.478	47.96
334.691	39.76
334.903	-21.67
335.116	-38.06
335.329	21.33
335.541	27.48
335.754	11.09
335.966	27.48
336.179	37.72
336.392	2.9
336.604	11.09
336.817	-3.24
337.029	15.19
337.242	82.77
337.454	11.09
337.667	52.05
337.88	82.77
338.092	15.19
338.305	27.48
338.517	45.91
338.729	97.11
338.942	52.05
339.154	56.15
339.367	0.85
339.579	58.2
339.792	-50.35
340.004	76.63
340.217	17.24
340.429	-15.53
340.641	86.87
340.854	-9.39
341.066	-25.77
341.278	45.91
341.491	111.44
341.703	-13.48
341.915	-1.19
342.128	76.63
342.34	13.14
342.552	2.9
342.764	25.43
342.977	25.43
343.189	103.25
343.401	23.38
343.613	25.43
343.826	64.34
344.038	60.24
344.25	101.2
344.462	13.14
344.674	15.19
344.886	-64.68
345.099	-11.43
345.311	39.76
345.523	74.58
345.735	72.53
345.947	101.2
346.159	35.67
346.371	2.9
346.583	11.09
346.795	37.72
347.007	-3.24
347.219	-1.19
347.431	4.95
347.643	50
347.855	-9.39
348.067	39.76
348.279	-5.29
348.491	82.77
348.703	43.86
348.915	60.24
349.127	-15.53
349.339	45.91
349.551	2.9
349.763	90.96
349.975	-15.53
350.187	72.53
350.399	41.81
350.61	-52.39
350.822	60.24
351.034	-33.96
351.246	23.38
351.458	60.24
351.669	35.67
351.881	64.34
352.093	33.62
352.305	72.53
352.517	60.24
352.728	4.95
352.94	-33.96
353.152	66.39
353.363	-40.11
353.575	9.05
353.787	-13.48
353.999	45.91
354.21	43.86
354.422	54.1
354.633	-19.63
354.845	45.91
355.057	-9.39
355.268	60.24
355.48	-5.29
355.692	21.33
355.903	33.62
356.115	76.63
356.326	17.24
356.538	107.35
356.749	17.24
356.961	101.2
357.172	82.77
357.384	13.14
357.595	64.34
357.807	4.95
358.018	-38.06
358.23	64.34
358.441	78.68
358.653	119.64
358.864	-31.91
359.075	9.05
359.287	25.43
359.498	72.53
359.709	107.35
359.921	80.72
360.132	-9.39
360.344	31.57
360.555	-27.82
360.766	13.14
360.977	15.19
361.189	76.63
361.4	41.81
361.611	74.58
361.823	25.43
362.034	19.29
362.245	174.93
362.456	-9.39
362.667	33.62
362.879	17.24
363.09	29.52
363.301	62.29
363.512	23.38
363.723	95.06
363.935	70.48
364.146	41.81
364.357	33.62
364.568	27.48
364.779	-29.87
364.99	93.01
365.201	13.14
365.412	101.2
365.623	0.85
365.834	80.72
366.045	74.58
366.256	19.29
366.467	23.38
366.678	39.76
366.889	0.85
367.1	133.97
367.311	29.52
367.522	27.48
367.733	60.24
367.944	50
368.155	27.48
368.366	99.16
368.577	27.48
368.788	84.82
368.999	60.24
369.209	17.24
369.42	166.74
369.631	78.68
369.842	90.96
370.053	58.2
370.264	11.09
370.474	2.9
370.685	58.2
370.896	82.77
371.107	84.82
371.317	66.39
371.528	-5.29
371.739	-1.19
371.95	54.1
372.16	99.16
372.371	52.05
372.582	37.72
372.792	64.34
373.003	70.48
373.214	50
373.424	4.95
373.635	4.95
373.846	113.49
374.056	72.53
374.267	4.95
374.477	-13.48
374.688	-3.24
374.898	58.2
375.109	64.34
375.319	17.24
375.53	86.87
375.74	2.9
375.951	17.24
376.161	62.29
376.372	27.48
376.582	17.24
376.793	-44.2
377.003	113.49
377.214	76.63
377.424	37.72
377.635	50
377.845	-29.87
378.055	72.53
378.266	-21.67
378.476	64.34
378.686	68.44
378.897	52.05
379.107	113.49
379.317	58.2
379.528	25.43
379.738	129.88
379.948	47.96
380.158	66.39
380.369	17.24
380.579	0.85
380.789	66.39
380.999	23.38
381.21	43.86
381.42	0.85
381.63	31.57
381.84	15.19
382.05	68.44
382.261	88.92
382.471	50
382.681	52.05
382.891	68.44
383.101	0.85
383.311	105.3
383.521	50
383.731	35.67
383.941	99.16
384.151	72.53
384.361	13.14
384.571	60.24
384.781	74.58
384.991	109.4
385.201	64.34
385.411	56.15
385.621	43.86
385.831	103.25
386.041	64.34
386.251	33.62
386.461	107.35
386.671	-19.63
386.881	35.67
387.091	39.76
387.301	88.92
387.511	35.67
387.72	45.91
387.93	70.48
388.14	80.72
388.35	19.29
388.56	109.4
388.769	90.96
388.979	62.29
389.189	47.96
389.399	-19.63
389.609	25.43
389.818	45.91
390.028	123.73
390.238	58.2
390.447	41.81
390.657	82.77
390.867	76.63
391.076	-31.91
391.286	9.05
391.496	103.25
391.705	-3.24
391.915	109.4
392.125	31.57
392.334	47.96
392.544	99.16
392.753	31.57
392.963	93.01
393.172	15.19
393.382	29.52
393.591	66.39
393.801	107.35
394.01	52.05
394.22	66.39
394.429	31.57
394.639	-15.53
394.848	11.09
395.058	191.31
395.267	23.38
395.477	54.1
395.686	72.53
395.895	88.92
396.105	123.73
396.314	148.31
396.524	29.52
396.733	33.62
396.942	115.54
397.152	95.06
397.361	138.07
397.57	52.05
397.78	41.81
397.989	68.44
398.198	50
398.407	76.63
398.617	76.63
398.826	99.16
399.035	66.39
399.244	68.44
399.453	21.33
399.663	123.73
399.872	88.92
400.081	82.77
400.29	80.72
400.499	72.53
400.708	37.72
400.917	101.2
401.127	72.53
401.336	121.68
401.545	150.36
401.754	140.12
401.963	113.49
402.172	99.16
402.381	76.63
402.59	140.12
402.799	133.97
403.008	29.52
403.217	148.31
403.426	144.21
403.635	103.25
403.844	80.72
404.053	107.35
404.262	109.4
404.471	152.4
404.68	93.01
404.888	144.21
405.097	88.92
405.306	183.12
405.515	150.36
405.724	117.59
405.933	125.78
406.142	267.09
406.35	191.31
406.559	189.27
406.768	156.5
406.977	170.83
407.185	242.51
407.394	293.71
407.603	242.51
407.812	267.09
408.02	211.79
408.229	172.88
408.438	199.51
408.646	166.74
408.855	256.85
409.064	262.99
409.272	242.51
409.481	297.81
409.69	297.81
409.898	267.09
410.107	361.3
410.315	303.95
410.524	332.62
410.733	392.02
410.941	375.63
411.15	340.82
411.358	334.67
411.567	394.06
411.775	428.88
411.984	432.97
412.192	459.6
412.401	518.99
412.609	502.61
412.818	516.94
413.026	469.84
413.234	531.28
413.443	535.37
413.651	525.13
413.86	502.61
414.068	670.54
414.276	664.4
414.485	701.26
414.693	668.49
414.901	668.49
415.11	652.11
415.318	760.65
415.526	746.31
415.734	789.32
415.943	817.99
416.151	865.1
416.359	928.58
416.567	881.48
416.776	967.49
416.984	977.73
417.192	1065.8
417.4	924.49
417.608	1135.43
417.817	1127.24
418.025	1084.23
418.233	1235.78
418.441	1178.44
418.649	1282.88
418.857	1276.74
419.065	1319.75
419.273	1426.24
419.481	1428.29
419.689	1465.15
419.897	1522.49
420.105	1577.79
420.313	1653.56
420.521	1704.76
420.729	1739.58
420.937	1735.48
421.145	1860.41
421.353	1964.86
421.561	1989.43
421.769	2016.05
421.977	2183.99
422.185	2089.78
422.393	2310.96
422.601	2421.55
422.809	2376.5
423.017	2366.26
423.224	2489.14
423.432	2691.88
423.64	2624.3
423.848	2929.45
424.056	2839.34
424.263	3203.88
424.471	2921.26
424.679	2976.55
424.887	3304.23
425.094	3488.54
425.302	3304.23
425.51	3470.11
425.718	3523.36
425.925	3799.84
426.133	3724.06
426.341	3969.82
426.548	4158.23
426.756	4213.53
426.964	4238.1
427.171	4475.67
427.379	4641.55
427.586	4528.91
427.794	4766.48
428.001	5028.62
428.209	5210.89
428.417	5251.85
428.624	5620.48
428.832	5436.16
429.039	5440.26
429.247	5462.79
429.454	6101.75
429.662	6525.68
429.869	6071.03
430.076	6488.82
430.284	6281.97
430.491	6613.74
430.699	6865.64
430.906	6857.45
431.114	6951.66
431.321	7320.29
431.528	7377.64
431.736	7838.43
431.943	8205.02
432.15	8010.46
432.358	8141.53
432.565	8491.73
432.772	8534.74
432.979	8966.86
433.187	9282.25
433.394	9245.38
433.601	9917.12
433.808	9781.95
434.016	9644.74
434.223	10357.43
434.43	10949.29
434.637	10633.91
434.844	11244.2
435.052	11367.08
435.259	11338.41
435.466	11704.99
435.673	11348.65
435.88	11989.66
436.087	12755.6
436.294	12743.31
436.501	12257.95
436.708	12853.91
436.915	13136.52
437.122	13621.89
437.329	13873.79
437.537	14142.08
437.743	14531.19
437.95	14449.27
438.157	14938.74
438.364	15598.18
438.571	15725.16
438.778	15774.31
438.985	17078.86
439.192	16552.54
439.399	16962.13
439.606	16753.24
439.813	17443.4
440.02	18807.35
440.227	18399.8
440.433	17963.59
440.64	18819.64
440.847	18651.7
441.054	19200.56
441.261	20415.01
441.467	20052.52
441.674	20619.8
441.881	21342.74
442.088	21262.86
442.294	21043.73
442.501	21596.68
442.708	21914.12
442.914	22796.79
443.121	23935.46
443.328	23368.18
443.534	25070.04
443.741	24037.86
443.948	23871.98
444.154	25903.56
444.361	25547.22
444.568	25778.64
444.774	25618.89
444.981	26071.5
445.187	26769.85
445.394	27822.51
445.6	27941.29
445.807	30009.74
446.013	28668.32
446.22	29411.73
446.426	30513.54
446.633	30736.77
446.839	31736.18
447.046	30693.76
447.252	32516.45
447.459	32260.46
447.665	32205.16
447.871	33669.46
448.078	35356.99
448.284	33595.73
448.491	34226.51
448.697	35742
448.903	36237.61
449.11	36362.54
449.316	35631.41
449.522	36796.71
449.728	37417.24
449.935	37789.97
450.141	37646.61
450.347	38701.32
450.553	37706.01
450.76	38019.35
450.966	39362.81
451.172	38736.13
451.378	39962.87
451.584	38912.26
451.791	40073.46
451.997	40005.87
452.203	40368.37
452.409	40737
452.615	40282.35
452.821	38850.82
453.027	38535.43
453.233	40642.79
453.44	39239.93
453.646	39444.73
453.852	39868.66
454.058	39956.72
454.264	39000.32
454.47	39975.16
454.676	38942.98
454.882	40102.13
455.088	37013.79
455.294	37427.48
455.5	37513.5
455.705	38400.27
455.911	37234.97
456.117	35965.23
456.323	35631.41
456.529	33565.01
456.735	35135.81
456.941	34279.75
457.147	33659.22
457.352	32538.98
457.558	32350.57
457.764	32399.72
457.97	31652.21
458.176	31224.18
458.381	31132.03
458.587	29639.06
458.793	30013.84
458.999	28332.45
459.204	29888.91
459.41	29342.1
459.616	27199.93
459.821	27398.58
460.027	27011.51
460.233	26722.75
460.438	25522.64
460.644	25827.79
460.85	24687.07
461.055	24263.14
461.261	24076.77
461.466	22370.82
461.672	21674.51
461.878	23050.74
462.083	21889.54
462.289	21322.26
462.494	20961.81
462.7	20113.95
462.905	19290.67
463.111	20365.85
463.316	20587.04
463.522	19894.82
463.727	20142.63
463.932	19868.2
464.138	19931.69
464.343	19657.26
464.549	19083.83
464.754	19814.95
464.959	19403.31
465.165	19587.63
465.37	18704.95
465.575	18516.54
465.781	18907.7
465.986	19167.79
466.191	18506.3
466.397	17990.21
466.602	17101.39
466.807	17918.53
467.012	17814.09
467.218	17642.06
467.423	17670.73
467.628	17599.05
467.833	18205.25
468.038	17758.79
468.244	17183.31
