Data from USB4F104151__53__12-27-34-312.txt Node

Date: Fri Mar 14 12:27:34 EDT 2025
User: louis
Spectrometer: USB4F10415
Trigger mode: 4
Integration Time (sec): 2.000000E-2
Scans to average: 1
Electric dark correction enabled: true
Nonlinearity correction enabled: false
Boxcar width: 0
XAxis mode: Wavelengths
Number of Pixels in Spectrum: 3648
>>>>>Begin Spectral Data<<<<<
178.204	-73.04
178.424	-73.04
178.644	-73.04
178.864	-99.67
179.084	-56.66
179.304	-15.7
179.524	-42.32
179.744	-1.37
179.964	19.11
180.184	-15.7
180.404	19.11
180.624	49.83
180.844	23.21
181.064	19.11
181.283	53.93
181.503	-95.57
181.723	-13.65
181.943	6.83
182.163	70.31
182.383	-21.85
182.602	-25.94
182.822	66.22
183.042	-25.94
183.262	-11.61
183.482	62.12
183.701	-38.23
183.921	43.69
184.141	-21.85
184.361	23.21
184.58	0.68
184.8	-9.56
185.02	-46.42
185.239	62.12
185.459	-34.13
185.679	33.45
185.898	-30.04
186.118	49.83
186.338	-3.41
186.557	-17.75
186.777	-60.76
186.997	-66.9
187.216	-9.56
187.436	-13.65
187.655	51.88
187.875	-46.42
188.095	-60.76
188.314	33.45
188.534	4.78
188.753	-36.18
188.973	31.4
189.192	49.83
189.412	8.87
189.631	10.92
189.851	4.78
190.07	-52.56
190.29	31.4
190.509	47.79
190.729	-30.04
190.948	-23.89
191.168	64.17
191.387	-32.08
191.607	25.26
191.826	-15.7
192.045	-5.46
192.265	-17.75
192.484	29.35
192.704	23.21
192.923	4.78
193.142	-25.94
193.362	2.73
193.581	101.03
193.8	15.02
194.02	23.21
194.239	-15.7
194.458	49.83
194.678	62.12
194.897	-17.75
195.116	-15.7
195.335	-32.08
195.555	-40.28
195.774	51.88
195.993	-3.41
196.212	25.26
196.432	-56.66
196.651	-73.04
196.87	12.97
197.089	82.6
197.308	21.16
197.528	-15.7
197.747	12.97
197.966	45.74
198.185	62.12
198.404	-21.85
198.623	-27.99
198.842	-19.8
199.062	4.78
199.281	31.4
199.5	-77.14
199.719	-5.46
199.938	-7.51
200.157	55.98
200.376	76.46
200.595	6.83
200.814	-9.56
201.033	103.08
201.252	-30.04
201.471	17.07
201.69	31.4
201.909	-32.08
202.128	4.78
202.347	-50.52
202.566	-11.61
202.785	-42.32
203.004	29.35
203.223	76.46
203.442	8.87
203.661	-56.66
203.879	10.92
204.098	21.16
204.317	21.16
204.536	-25.94
204.755	15.02
204.974	10.92
205.193	-1.37
205.411	49.83
205.63	-9.56
205.849	15.02
206.068	4.78
206.287	-27.99
206.505	21.16
206.724	25.26
206.943	-44.37
207.162	47.79
207.381	66.22
207.599	-50.52
207.818	62.12
208.037	10.92
208.255	-25.94
208.474	-5.46
208.693	33.45
208.911	70.31
209.13	-27.99
209.349	-15.7
209.567	35.5
209.786	15.02
210.005	45.74
210.223	-71
210.442	41.64
210.661	-15.7
210.879	-64.85
211.098	17.07
211.316	-34.13
211.535	-7.51
211.753	-15.7
211.972	55.98
212.191	-38.23
212.409	37.55
212.628	-7.51
212.846	43.69
213.065	2.73
213.283	74.41
213.502	33.45
213.72	-3.41
213.938	47.79
214.157	68.27
214.375	51.88
214.594	-32.08
214.812	58.03
215.031	78.51
215.249	31.4
215.467	39.59
215.686	-46.42
215.904	70.31
216.122	62.12
216.341	2.73
216.559	37.55
216.778	25.26
216.996	105.13
217.214	-60.76
217.432	-15.7
217.651	-58.71
217.869	70.31
218.087	10.92
218.306	31.4
218.524	-5.46
218.742	58.03
218.96	29.35
219.179	-64.85
219.397	15.02
219.615	-15.7
219.833	-13.65
220.051	15.02
220.27	-27.99
220.488	78.51
220.706	-23.89
220.924	35.5
221.142	-23.89
221.36	43.69
221.578	2.73
221.796	-15.7
222.015	53.93
222.233	-32.08
222.451	-56.66
222.669	-13.65
222.887	51.88
223.105	-19.8
223.323	-13.65
223.541	4.78
223.759	-9.56
223.977	19.11
224.195	27.31
224.413	-34.13
224.631	78.51
224.849	0.68
225.067	8.87
225.285	2.73
225.503	-15.7
225.721	-40.28
225.939	39.59
226.157	12.97
226.375	72.36
226.592	-11.61
226.81	4.78
227.028	23.21
227.246	-17.75
227.464	-7.51
227.682	-13.65
227.9	55.98
228.117	55.98
228.335	31.4
228.553	19.11
228.771	70.31
228.989	66.22
229.206	51.88
229.424	43.69
229.642	47.79
229.86	60.07
230.077	-73.04
230.295	74.41
230.513	39.59
230.731	-9.56
230.948	68.27
231.166	29.35
231.384	27.31
231.601	-13.65
231.819	84.65
232.037	-9.56
232.254	-27.99
232.472	6.83
232.689	-68.95
232.907	92.84
233.125	10.92
233.342	0.68
233.56	27.31
233.777	-58.71
233.995	-3.41
234.213	35.5
234.43	43.69
234.648	-15.7
234.865	-17.75
235.083	66.22
235.3	-3.41
235.518	21.16
235.735	8.87
235.953	49.83
236.17	27.31
236.388	27.31
236.605	8.87
236.822	60.07
237.04	-11.61
237.257	15.02
237.475	-140.63
237.692	86.7
237.909	53.93
238.127	31.4
238.344	-87.38
238.562	94.89
238.779	-50.52
238.996	-3.41
239.214	-7.51
239.431	58.03
239.648	-34.13
239.865	17.07
240.083	82.6
240.3	27.31
240.517	-30.04
240.735	-5.46
240.952	60.07
241.169	23.21
241.386	-46.42
241.603	-116.05
241.821	-3.41
242.038	21.16
242.255	-3.41
242.472	-9.56
242.689	78.51
242.907	62.12
243.124	-17.75
243.341	0.68
243.558	-11.61
243.775	15.02
243.992	-15.7
244.209	-3.41
244.426	17.07
244.643	19.11
244.86	-60.76
245.078	-32.08
245.295	78.51
245.512	39.59
245.729	-40.28
245.946	29.35
246.163	2.73
246.38	96.94
246.597	-11.61
246.814	17.07
247.031	-36.18
247.248	-42.32
247.464	-1.37
247.681	-9.56
247.898	-11.61
248.115	-21.85
248.332	-60.76
248.549	31.4
248.766	-36.18
248.983	23.21
249.2	-27.99
249.417	-58.71
249.633	-44.37
249.85	15.02
250.067	53.93
250.284	-21.85
250.501	58.03
250.717	62.12
250.934	4.78
251.151	-25.94
251.368	-27.99
251.585	31.4
251.801	-34.13
252.018	-50.52
252.235	4.78
252.451	-36.18
252.668	-32.08
252.885	-15.7
253.102	103.08
253.318	-25.94
253.535	-5.46
253.752	-13.65
253.968	68.27
254.185	35.5
254.401	-44.37
254.618	-50.52
254.835	43.69
255.051	84.65
255.268	-19.8
255.484	64.17
255.701	82.6
255.917	76.46
256.134	-73.04
256.351	80.55
256.567	-30.04
256.784	-19.8
257	10.92
257.217	66.22
257.433	68.27
257.65	66.22
257.866	-9.56
258.082	17.07
258.299	-11.61
258.515	-42.32
258.732	43.69
258.948	2.73
259.165	53.93
259.381	-38.23
259.597	19.11
259.814	-5.46
260.03	-36.18
260.246	-7.51
260.463	19.11
260.679	25.26
260.895	12.97
261.112	27.31
261.328	8.87
261.544	-25.94
261.761	21.16
261.977	-1.37
262.193	-1.37
262.409	25.26
262.626	0.68
262.842	-13.65
263.058	-44.37
263.274	41.64
263.49	8.87
263.707	58.03
263.923	-11.61
264.139	4.78
264.355	15.02
264.571	68.27
264.787	31.4
265.004	58.03
265.22	-25.94
265.436	55.98
265.652	-52.56
265.868	2.73
266.084	19.11
266.3	-19.8
266.516	-13.65
266.732	25.26
266.948	-40.28
267.164	17.07
267.38	-21.85
267.596	35.5
267.812	84.65
268.028	-17.75
268.244	0.68
268.46	37.55
268.676	-9.56
268.892	0.68
269.108	10.92
269.324	94.89
269.54	-36.18
269.756	66.22
269.972	-27.99
270.188	86.7
270.403	-48.47
270.619	17.07
270.835	4.78
271.051	-13.65
271.267	4.78
271.483	2.73
271.698	66.22
271.914	-32.08
272.13	-58.71
272.346	-42.32
272.562	76.46
272.777	19.11
272.993	-17.75
273.209	88.75
273.425	66.22
273.64	-7.51
273.856	8.87
274.072	-3.41
274.287	-56.66
274.503	66.22
274.719	51.88
274.934	-48.47
275.15	-48.47
275.366	8.87
275.581	-42.32
275.797	8.87
276.012	-3.41
276.228	72.36
276.444	15.02
276.659	66.22
276.875	-1.37
277.09	17.07
277.306	58.03
277.521	17.07
277.737	-17.75
277.952	-15.7
278.168	17.07
278.383	-1.37
278.599	17.07
278.814	-36.18
279.03	8.87
279.245	45.74
279.461	2.73
279.676	31.4
279.892	-11.61
280.107	-17.75
280.322	23.21
280.538	-15.7
280.753	43.69
280.969	35.5
281.184	-5.46
281.399	17.07
281.615	37.55
281.83	0.68
282.045	-23.89
282.26	33.45
282.476	-17.75
282.691	35.5
282.906	27.31
283.122	47.79
283.337	-73.04
283.552	70.31
283.767	-81.24
283.983	15.02
284.198	8.87
284.413	49.83
284.628	-40.28
284.843	55.98
285.058	31.4
285.274	-25.94
285.489	29.35
285.704	-54.61
285.919	-15.7
286.134	4.78
286.349	6.83
286.564	105.13
286.779	6.83
286.995	-11.61
287.21	-38.23
287.425	51.88
287.64	-34.13
287.855	12.97
288.07	-11.61
288.285	17.07
288.5	88.75
288.715	-3.41
288.93	19.11
289.145	-13.65
289.36	-19.8
289.575	0.68
289.79	70.31
290.004	-13.65
290.219	2.73
290.434	-36.18
290.649	-3.41
290.864	2.73
291.079	4.78
291.294	31.4
291.509	47.79
291.724	-58.71
291.938	74.41
292.153	-3.41
292.368	-56.66
292.583	25.26
292.798	6.83
293.012	27.31
293.227	49.83
293.442	47.79
293.657	12.97
293.871	-3.41
294.086	-34.13
294.301	109.22
294.516	10.92
294.73	23.21
294.945	-48.47
295.16	-5.46
295.374	25.26
295.589	41.64
295.804	-23.89
296.018	27.31
296.233	33.45
296.447	-66.9
296.662	21.16
296.877	78.51
297.091	2.73
297.306	-66.9
297.52	92.84
297.735	66.22
297.949	8.87
298.164	10.92
298.378	19.11
298.593	-3.41
298.807	-99.67
299.022	-9.56
299.236	-11.61
299.451	43.69
299.665	-25.94
299.88	15.02
300.094	19.11
300.309	-15.7
300.523	-27.99
300.737	66.22
300.952	-52.56
301.166	-11.61
301.381	-27.99
301.595	-13.65
301.809	23.21
302.024	51.88
302.238	-5.46
302.452	94.89
302.667	23.21
302.881	98.99
303.095	47.79
303.309	23.21
303.524	-13.65
303.738	-15.7
303.952	4.78
304.166	-30.04
304.381	41.64
304.595	39.59
304.809	8.87
305.023	10.92
305.237	-52.56
305.452	33.45
305.666	45.74
305.88	33.45
306.094	8.87
306.308	19.11
306.522	4.78
306.736	0.68
306.95	19.11
307.164	111.27
307.379	35.5
307.593	53.93
307.807	53.93
308.021	43.69
308.235	6.83
308.449	-5.46
308.663	-40.28
308.877	43.69
309.091	10.92
309.305	-52.56
309.519	29.35
309.733	55.98
309.947	-42.32
310.161	10.92
310.374	-38.23
310.588	37.55
310.802	-83.28
311.016	-25.94
311.23	-11.61
311.444	45.74
311.658	-38.23
311.872	64.17
312.085	-34.13
312.299	74.41
312.513	-44.37
312.727	45.74
312.941	-11.61
313.154	76.46
313.368	60.07
313.582	0.68
313.796	4.78
314.009	27.31
314.223	80.55
314.437	-11.61
314.651	-50.52
314.864	21.16
315.078	-9.56
315.292	-25.94
315.505	80.55
315.719	10.92
315.933	-5.46
316.146	-32.08
316.36	-64.85
316.573	23.21
316.787	-11.61
317.001	19.11
317.214	-36.18
317.428	-15.7
317.641	-19.8
317.855	41.64
318.068	27.31
318.282	58.03
318.495	-11.61
318.709	37.55
318.922	-34.13
319.136	37.55
319.349	86.7
319.563	-1.37
319.776	-1.37
319.99	33.45
320.203	37.55
320.417	6.83
320.63	64.17
320.843	27.31
321.057	-5.46
321.27	-19.8
321.483	-1.37
321.697	37.55
321.91	-15.7
322.124	37.55
322.337	58.03
322.55	15.02
322.763	12.97
322.977	6.83
323.19	107.18
323.403	15.02
323.617	55.98
323.83	8.87
324.043	-15.7
324.256	12.97
324.469	-5.46
324.683	-34.13
324.896	23.21
325.109	39.59
325.322	47.79
325.535	-32.08
325.748	41.64
325.962	-13.65
326.175	-13.65
326.388	-27.99
326.601	-7.51
326.814	8.87
327.027	-42.32
327.24	-13.65
327.453	-50.52
327.666	0.68
327.879	55.98
328.092	35.5
328.305	10.92
328.518	-11.61
328.731	15.02
328.944	35.5
329.157	4.78
329.37	64.17
329.583	58.03
329.796	80.55
330.009	8.87
330.222	55.98
330.435	60.07
330.648	-118.1
330.861	55.98
331.073	70.31
331.286	0.68
331.499	35.5
331.712	-34.13
331.925	60.07
332.138	-54.61
332.35	-50.52
332.563	31.4
332.776	-1.37
332.989	-5.46
333.202	35.5
333.414	68.27
333.627	8.87
333.84	17.07
334.053	74.41
334.265	0.68
334.478	39.59
334.691	76.46
334.903	-23.89
335.116	0.68
335.329	43.69
335.541	-3.41
335.754	2.73
335.966	0.68
336.179	47.79
336.392	33.45
336.604	39.59
336.817	39.59
337.029	31.4
337.242	2.73
337.454	0.68
337.667	105.13
337.88	-11.61
338.092	60.07
338.305	55.98
338.517	39.59
338.729	33.45
338.942	82.6
339.154	72.36
339.367	19.11
339.579	6.83
339.792	10.92
340.004	0.68
340.217	68.27
340.429	103.08
340.641	-48.47
340.854	78.51
341.066	-15.7
341.278	6.83
341.491	33.45
341.703	-1.37
341.915	-9.56
342.128	72.36
342.34	-27.99
342.552	78.51
342.764	43.69
342.977	-68.95
343.189	15.02
343.401	29.35
343.613	-7.51
343.826	-21.85
344.038	-11.61
344.25	-1.37
344.462	-15.7
344.674	45.74
344.886	-9.56
345.099	-13.65
345.311	55.98
345.523	6.83
345.735	78.51
345.947	-7.51
346.159	43.69
346.371	-13.65
346.583	-5.46
346.795	33.45
347.007	39.59
347.219	35.5
347.431	23.21
347.643	35.5
347.855	62.12
348.067	-19.8
348.279	-17.75
348.491	55.98
348.703	55.98
348.915	-54.61
349.127	6.83
349.339	27.31
349.551	-30.04
349.763	78.51
349.975	-56.66
350.187	6.83
350.399	98.99
350.61	29.35
350.822	8.87
351.034	66.22
351.246	60.07
351.458	4.78
351.669	33.45
351.881	8.87
352.093	33.45
352.305	19.11
352.517	21.16
352.728	64.17
352.94	49.83
353.152	49.83
353.363	-7.51
353.575	-13.65
353.787	-1.37
353.999	29.35
354.21	12.97
354.422	-40.28
354.633	-44.37
354.845	-3.41
355.057	39.59
355.268	-30.04
355.48	-25.94
355.692	-21.85
355.903	-34.13
356.115	35.5
356.326	19.11
356.538	-11.61
356.749	43.69
356.961	27.31
357.172	4.78
357.384	-9.56
357.595	43.69
357.807	12.97
358.018	12.97
358.23	45.74
358.441	-19.8
358.653	-7.51
358.864	4.78
359.075	8.87
359.287	19.11
359.498	72.36
359.709	15.02
359.921	45.74
360.132	-40.28
360.344	76.46
360.555	10.92
360.766	21.16
360.977	-30.04
361.189	58.03
361.4	-36.18
361.611	-1.37
361.823	-36.18
362.034	-15.7
362.245	-42.32
362.456	53.93
362.667	21.16
362.879	6.83
363.09	51.88
363.301	-9.56
363.512	12.97
363.723	29.35
363.935	-25.94
364.146	19.11
364.357	37.55
364.568	29.35
364.779	-7.51
364.99	23.21
365.201	-36.18
365.412	23.21
365.623	27.31
365.834	12.97
366.045	43.69
366.256	90.79
366.467	35.5
366.678	21.16
366.889	10.92
367.1	-32.08
367.311	12.97
367.522	49.83
367.733	17.07
367.944	10.92
368.155	45.74
368.366	23.21
368.577	78.51
368.788	19.11
368.999	12.97
369.209	15.02
369.42	35.5
369.631	98.99
369.842	103.08
370.053	-5.46
370.264	-25.94
370.474	29.35
370.685	31.4
370.896	41.64
371.107	96.94
371.317	82.6
371.528	25.26
371.739	43.69
371.95	29.35
372.16	47.79
372.371	2.73
372.582	2.73
372.792	-5.46
373.003	92.84
373.214	-32.08
373.424	27.31
373.635	39.59
373.846	25.26
374.056	45.74
374.267	-1.37
374.477	33.45
374.688	37.55
374.898	25.26
375.109	-21.85
375.319	84.65
375.53	29.35
375.74	39.59
375.951	43.69
376.161	76.46
376.372	88.75
376.582	-48.47
376.793	10.92
377.003	-25.94
377.214	-3.41
377.424	86.7
377.635	47.79
377.845	51.88
378.055	62.12
378.266	-73.04
378.476	-62.8
378.686	58.03
378.897	49.83
379.107	-58.71
379.317	37.55
379.528	37.55
379.738	49.83
379.948	-73.04
380.158	92.84
380.369	35.5
380.579	-7.51
380.789	-9.56
380.999	19.11
381.21	0.68
381.42	12.97
381.63	-62.8
381.84	121.51
382.05	35.5
382.261	31.4
382.471	-11.61
382.681	19.11
382.891	117.42
383.101	66.22
383.311	86.7
383.521	2.73
383.731	-1.37
383.941	35.5
384.151	96.94
384.361	-11.61
384.571	-36.18
384.781	47.79
384.991	64.17
385.201	68.27
385.411	27.31
385.621	74.41
385.831	12.97
386.041	66.22
386.251	82.6
386.461	84.65
386.671	25.26
386.881	76.46
387.091	-32.08
387.301	25.26
387.511	49.83
387.72	103.08
387.93	37.55
388.14	49.83
388.35	29.35
388.56	68.27
388.769	51.88
388.979	-1.37
389.189	-60.76
389.399	6.83
389.609	72.36
389.818	43.69
390.028	17.07
390.238	37.55
390.447	41.64
390.657	53.93
390.867	158.38
391.076	58.03
391.286	-7.51
391.496	31.4
391.705	8.87
391.915	92.84
392.125	45.74
392.334	86.7
392.544	29.35
392.753	49.83
392.963	129.7
393.172	111.27
393.382	66.22
393.591	64.17
393.801	51.88
394.01	37.55
394.22	35.5
394.429	82.6
394.639	29.35
394.848	78.51
395.058	76.46
395.267	-7.51
395.477	4.78
395.686	70.31
395.895	27.31
396.105	72.36
396.314	37.55
396.524	41.64
396.733	58.03
396.942	107.18
397.152	-32.08
397.361	62.12
397.57	64.17
397.78	80.55
397.989	82.6
398.198	105.13
398.407	90.79
398.617	113.32
398.826	72.36
399.035	84.65
399.244	29.35
399.453	72.36
399.663	12.97
399.872	139.94
400.081	27.31
400.29	76.46
400.499	27.31
400.708	111.27
400.917	94.89
401.127	49.83
401.336	-13.65
401.545	105.13
401.754	76.46
401.963	70.31
402.172	66.22
402.381	82.6
402.59	6.83
402.799	103.08
403.008	94.89
403.217	139.94
403.426	135.85
403.635	103.08
403.844	86.7
404.053	70.31
404.262	109.22
404.471	162.47
404.68	146.09
404.888	66.22
405.097	84.65
405.306	121.51
405.515	55.98
405.724	137.9
405.933	78.51
406.142	178.86
406.35	121.51
406.559	94.89
406.768	139.94
406.977	115.37
407.185	158.38
407.394	150.18
407.603	107.18
407.812	174.76
408.02	115.37
408.229	125.61
408.438	201.38
408.646	76.46
408.855	182.95
409.064	189.1
409.272	115.37
409.481	262.82
409.69	189.1
409.898	115.37
410.107	205.48
410.315	221.86
410.524	271.01
410.733	299.69
410.941	207.53
411.15	246.44
411.358	250.53
411.567	342.69
411.775	225.96
411.984	303.78
412.192	287.4
412.401	201.38
412.609	330.41
412.818	326.31
413.026	330.41
413.234	342.69
413.443	305.83
413.651	363.17
413.86	375.46
414.068	377.51
414.276	379.56
414.485	416.42
414.693	475.81
414.901	498.34
415.11	535.2
415.318	486.05
415.526	471.72
415.734	520.87
415.943	502.43
416.151	598.69
416.359	574.11
416.567	617.12
416.776	660.13
416.984	674.46
417.192	666.27
417.4	602.79
417.608	643.74
417.817	729.76
418.025	717.47
418.233	832.16
418.441	799.39
418.649	840.35
418.857	922.27
419.065	996
419.273	848.54
419.481	991.9
419.689	1057.43
419.897	985.76
420.105	1049.24
420.313	1118.87
420.521	1092.25
420.729	1245.85
420.937	1190.55
421.145	1264.28
421.353	1292.95
421.561	1352.34
421.769	1387.16
421.977	1368.73
422.185	1383.06
422.393	1460.88
422.601	1596.05
422.809	1489.56
423.017	1530.52
423.224	1653.39
423.432	1702.54
423.64	1720.98
423.848	1899.15
424.056	1909.39
424.263	1981.07
424.471	1956.49
424.679	2036.36
424.887	2087.56
425.094	2134.67
425.302	2261.64
425.51	2374.28
425.718	2454.15
425.925	2316.94
426.133	2456.2
426.341	2568.84
426.548	2681.47
426.756	2669.19
426.964	2835.07
427.171	2888.32
427.379	3023.48
427.586	3097.21
427.794	3203.71
428.001	3250.81
428.209	3560.05
428.417	3457.65
428.624	3678.83
428.832	3674.74
429.039	3682.93
429.247	3598.96
429.454	4008.56
429.662	4244.07
429.869	3971.69
430.076	4278.89
430.284	4102.76
430.491	4426.34
430.699	4610.66
430.906	4661.86
431.114	4631.14
431.321	4797.03
431.528	5001.82
431.736	5317.21
431.943	5390.94
432.15	5276.25
432.358	5438.04
432.565	5589.59
432.772	5769.81
432.979	5990.99
433.187	5964.37
433.394	6054.48
433.601	6523.46
433.808	6406.73
434.016	6599.24
434.223	6781.51
434.43	7144
434.637	7189.05
434.844	7420.47
435.052	7322.17
435.259	7625.27
435.466	7576.12
435.673	7453.24
435.88	8137.26
436.087	8337.96
436.294	8536.62
436.501	8163.89
436.708	8387.11
436.915	8782.37
437.122	9177.63
437.329	9097.76
437.537	9450.01
437.743	9613.85
437.95	9552.41
438.157	10199.57
438.364	10222.09
438.571	10576.39
438.778	10453.52
438.985	11317.76
439.192	10727.94
439.399	11201.02
439.606	11035.14
439.813	11543.03
440.02	12225.01
440.227	12169.71
440.433	11721.21
440.64	12358.13
440.847	12171.76
441.054	12872.17
441.261	13582.81
441.467	13365.73
441.674	13648.35
441.881	14051.8
442.088	13941.21
442.294	14152.15
442.501	14416.33
442.708	14819.78
442.914	15339.97
443.121	16003.51
443.328	15743.42
443.534	16681.39
443.741	16148.92
443.948	15903.16
444.154	17043.88
444.361	16867.75
444.568	17295.78
444.774	17285.54
444.981	17144.23
445.187	17543.58
445.394	18395.54
445.6	18315.67
445.807	20093.3
446.013	19097.99
446.22	19337.6
446.426	20496.75
446.633	20650.35
446.839	21649.76
447.046	20054.39
447.252	21358.95
447.459	21733.73
447.665	21649.76
447.871	22313.3
448.078	23378.25
448.284	22726.99
448.491	22794.57
448.697	23853.37
448.903	24269.11
449.11	24209.72
449.316	24109.37
449.522	24566.07
449.728	25067.82
449.935	25248.04
450.141	25176.36
450.347	25803.04
450.553	24758.58
450.76	25379.11
450.966	26409.24
451.172	25911.58
451.378	26566.93
451.584	26126.62
451.791	26933.52
451.997	26829.07
452.203	27085.07
452.409	27056.4
452.615	26890.51
452.821	26075.42
453.027	25966.88
453.233	27445.51
453.44	26153.24
453.646	26321.18
453.852	26511.64
454.058	26935.57
454.264	26087.71
454.47	26503.45
454.676	25813.28
454.882	26964.24
455.088	24553.78
455.294	24824.11
455.5	25069.87
455.705	25413.93
455.911	24678.71
456.117	24115.51
456.323	23816.51
456.529	22569.3
456.735	23558.47
456.941	23017.8
457.147	22387.03
457.352	21571.94
457.558	21561.7
457.764	21750.11
457.97	21303.65
458.176	20613.49
458.381	20859.24
458.587	19966.33
458.793	19876.22
458.999	18819.47
459.204	20181.37
459.41	19450.24
459.616	18305.43
459.821	18407.83
460.027	18135.45
460.233	18014.62
460.438	16937.38
460.644	17185.19
460.85	16681.39
461.055	16189.88
461.261	16128.44
461.466	14795.21
461.672	14416.33
461.878	15290.82
462.083	14383.57
462.289	14080.47
462.494	13953.49
462.7	13314.53
462.905	13076.96
463.111	13337.06
463.316	13752.79
463.522	13070.82
463.727	13324.77
463.932	13326.82
464.138	13113.83
464.343	13214.18
464.549	12749.29
464.754	13289.95
464.959	12880.36
465.165	13019.62
465.37	12329.45
465.575	12044.79
465.781	12653.03
465.986	12702.18
466.191	12349.93
466.397	11889.14
466.602	11393.53
466.807	12044.79
467.012	11856.37
