Data from USB4F104151__6__12-26-57-397.txt Node

Date: Fri Mar 14 12:26:57 EDT 2025
User: louis
Spectrometer: USB4F10415
Trigger mode: 4
Integration Time (sec): 2.000000E-2
Scans to average: 1
Electric dark correction enabled: true
Nonlinearity correction enabled: false
Boxcar width: 0
XAxis mode: Wavelengths
Number of Pixels in Spectrum: 3648
>>>>>Begin Spectral Data<<<<<
178.204	-124.58
178.424	-124.58
178.644	-124.58
178.864	-100.01
179.084	-91.82
179.304	39.25
179.524	35.16
179.744	-42.67
179.964	37.2
180.184	-7.85
180.404	4.44
180.624	29.01
180.844	-5.8
181.064	-65.19
181.283	-57
181.503	12.63
181.723	20.82
181.943	-3.75
182.163	35.16
182.383	-7.85
182.602	96.6
182.822	-16.04
183.042	37.2
183.262	6.49
183.482	-42.67
183.701	37.2
183.921	80.21
184.141	14.68
184.361	117.08
184.58	-1.71
184.8	67.92
185.02	-28.33
185.239	35.16
185.459	20.82
185.679	-11.95
185.898	0.34
186.118	121.17
186.338	-9.9
186.557	82.26
186.777	4.44
186.997	24.92
187.216	18.77
187.436	61.78
187.655	14.68
187.875	69.97
188.095	51.54
188.314	20.82
188.534	47.44
188.753	47.44
188.973	49.49
189.192	-1.71
189.412	96.6
189.631	12.63
189.851	43.35
190.07	98.64
190.29	-26.28
190.509	74.07
190.729	-24.23
190.948	49.49
191.168	72.02
191.387	76.12
191.607	63.83
191.826	84.31
192.045	8.53
192.265	29.01
192.484	69.97
192.704	29.01
192.923	39.25
193.142	106.84
193.362	-1.71
193.581	115.03
193.8	-1.71
194.02	4.44
194.239	-13.99
194.458	55.64
194.678	8.53
194.897	90.45
195.116	14.68
195.335	53.59
195.555	37.2
195.774	-30.38
195.993	104.79
196.212	35.16
196.432	63.83
196.651	-7.85
196.87	57.68
197.089	137.56
197.308	76.12
197.528	98.64
197.747	-18.09
197.966	8.53
198.185	102.74
198.404	0.34
198.623	110.93
198.842	102.74
199.062	55.64
199.281	57.68
199.5	63.83
199.719	6.49
199.938	31.06
200.157	24.92
200.376	-36.52
200.595	61.78
200.814	22.87
201.033	-13.99
201.252	39.25
201.471	16.73
201.69	-18.09
201.909	41.3
202.128	39.25
202.347	49.49
202.566	47.44
202.785	-7.85
203.004	12.63
203.223	43.35
203.442	141.65
203.661	4.44
203.879	-1.71
204.098	35.16
204.317	39.25
204.536	47.44
204.755	80.21
204.974	98.64
205.193	55.64
205.411	72.02
205.63	-9.9
205.849	49.49
206.068	16.73
206.287	0.34
206.505	55.64
206.724	22.87
206.943	-13.99
207.162	24.92
207.381	2.39
207.599	14.68
207.818	49.49
208.037	43.35
208.255	26.96
208.474	53.59
208.693	55.64
208.911	-7.85
209.13	-1.71
209.349	45.4
209.567	49.49
209.786	18.77
210.005	2.39
210.223	61.78
210.442	39.25
210.661	20.82
210.879	4.44
211.098	41.3
211.316	47.44
211.535	14.68
211.753	61.78
211.972	61.78
212.191	67.92
212.409	49.49
212.628	6.49
212.846	18.77
213.065	59.73
213.283	61.78
213.502	-26.28
213.72	-13.99
213.938	26.96
214.157	80.21
214.375	80.21
214.594	-26.28
214.812	94.55
215.031	2.39
215.249	63.83
215.467	57.68
215.686	39.25
215.904	78.16
216.122	-3.75
216.341	74.07
216.559	41.3
216.778	92.5
216.996	-11.95
217.214	43.35
217.432	-16.04
217.651	63.83
217.869	69.97
218.087	65.88
218.306	55.64
218.524	35.16
218.742	20.82
218.96	-52.91
219.179	18.77
219.397	12.63
219.615	86.36
219.833	67.92
220.051	69.97
220.27	78.16
220.488	22.87
220.706	16.73
220.924	57.68
221.142	22.87
221.36	74.07
221.578	37.2
221.796	55.64
222.015	96.6
222.233	20.82
222.451	67.92
222.669	31.06
222.887	67.92
223.105	-9.9
223.323	41.3
223.541	53.59
223.759	10.58
223.977	78.16
224.195	78.16
224.413	57.68
224.631	14.68
224.849	18.77
225.067	39.25
225.285	47.44
225.503	-28.33
225.721	31.06
225.939	-1.71
226.157	-5.8
226.375	117.08
226.592	31.06
226.81	41.3
227.028	31.06
227.246	174.42
227.464	14.68
227.682	41.3
227.9	39.25
228.117	51.54
228.335	-11.95
228.553	-20.14
228.771	72.02
228.989	26.96
229.206	82.26
229.424	22.87
229.642	-16.04
229.86	76.12
230.077	84.31
230.295	110.93
230.513	24.92
230.731	63.83
230.948	47.44
231.166	65.88
231.384	6.49
231.601	29.01
231.819	67.92
232.037	41.3
232.254	35.16
232.472	26.96
232.689	55.64
232.907	115.03
233.125	110.93
233.342	37.2
233.56	14.68
233.777	31.06
233.995	24.92
234.213	35.16
234.43	55.64
234.648	-5.8
234.865	-36.52
235.083	72.02
235.3	55.64
235.518	55.64
235.735	37.2
235.953	18.77
236.17	16.73
236.388	112.98
236.605	112.98
236.822	31.06
237.04	43.35
237.257	49.49
237.475	-11.95
237.692	88.4
237.909	51.54
238.127	26.96
238.344	74.07
238.562	24.92
238.779	55.64
238.996	117.08
239.214	55.64
239.431	80.21
239.648	-9.9
239.865	-9.9
240.083	-24.23
240.3	26.96
240.517	123.22
240.735	31.06
240.952	45.4
241.169	49.49
241.386	-13.99
241.603	59.73
241.821	12.63
242.038	41.3
242.255	67.92
242.472	18.77
242.689	98.64
242.907	20.82
243.124	31.06
243.341	-34.47
243.558	26.96
243.775	-50.86
243.992	-7.85
244.209	-11.95
244.426	0.34
244.643	41.3
244.86	4.44
245.078	-13.99
245.295	37.2
245.512	61.78
245.729	-7.85
245.946	98.64
246.163	12.63
246.38	57.68
246.597	-11.95
246.814	22.87
247.031	-16.04
247.248	8.53
247.464	-18.09
247.681	96.6
247.898	18.77
248.115	26.96
248.332	76.12
248.549	26.96
248.766	39.25
248.983	145.75
249.2	45.4
249.417	53.59
249.633	18.77
249.85	104.79
250.067	-24.23
250.284	86.36
250.501	102.74
250.717	67.92
250.934	4.44
251.151	49.49
251.368	-28.33
251.585	57.68
251.801	59.73
252.018	63.83
252.235	10.58
252.451	67.92
252.668	0.34
252.885	65.88
253.102	-44.71
253.318	72.02
253.535	59.73
253.752	26.96
253.968	72.02
254.185	-3.75
254.401	-20.14
254.618	41.3
254.835	43.35
255.051	8.53
255.268	22.87
255.484	6.49
255.701	41.3
255.917	37.2
256.134	8.53
256.351	90.45
256.567	55.64
256.784	8.53
257	69.97
257.217	45.4
257.433	22.87
257.65	-3.75
257.866	18.77
258.082	51.54
258.299	0.34
258.515	-79.53
258.732	-24.23
258.948	92.5
259.165	80.21
259.381	88.4
259.597	45.4
259.814	80.21
260.03	57.68
260.246	2.39
260.463	6.49
260.679	8.53
260.895	26.96
261.112	90.45
261.328	57.68
261.544	61.78
261.761	84.31
261.977	10.58
262.193	69.97
262.409	-46.76
262.626	4.44
262.842	4.44
263.058	0.34
263.274	69.97
263.49	8.53
263.707	4.44
263.923	86.36
264.139	0.34
264.355	57.68
264.571	-42.67
264.787	55.64
265.004	57.68
265.22	69.97
265.436	-32.43
265.652	69.97
265.868	119.12
266.084	63.83
266.3	26.96
266.516	8.53
266.732	8.53
266.948	18.77
267.164	8.53
267.38	55.64
267.596	47.44
267.812	125.27
268.028	41.3
268.244	8.53
268.46	39.25
268.676	20.82
268.892	-26.28
269.108	39.25
269.324	31.06
269.54	35.16
269.756	39.25
269.972	-20.14
270.188	53.59
270.403	18.77
270.619	24.92
270.835	41.3
271.051	65.88
271.267	24.92
271.483	0.34
271.698	123.22
271.914	61.78
272.13	69.97
272.346	24.92
272.562	51.54
272.777	-18.09
272.993	35.16
273.209	33.11
273.425	96.6
273.64	29.01
273.856	61.78
274.072	100.69
274.287	51.54
274.503	41.3
274.719	51.54
274.934	0.34
275.15	53.59
275.366	31.06
275.581	-30.38
275.797	112.98
276.012	24.92
276.228	57.68
276.444	-30.38
276.659	22.87
276.875	14.68
277.09	14.68
277.306	20.82
277.521	55.64
277.737	86.36
277.952	88.4
278.168	22.87
278.383	49.49
278.599	45.4
278.814	26.96
279.03	67.92
279.245	41.3
279.461	24.92
279.676	6.49
279.892	-20.14
280.107	22.87
280.322	-30.38
280.538	90.45
280.753	47.44
280.969	65.88
281.184	26.96
281.399	0.34
281.615	41.3
281.83	49.49
282.045	-18.09
282.26	-28.33
282.476	43.35
282.691	-1.71
282.906	29.01
283.122	72.02
283.337	24.92
283.552	57.68
283.767	59.73
283.983	29.01
284.198	8.53
284.413	129.36
284.628	-42.67
284.843	6.49
285.058	10.58
285.274	69.97
285.489	-24.23
285.704	31.06
285.919	35.16
286.134	33.11
286.349	37.2
286.564	-22.19
286.779	78.16
286.995	86.36
287.21	10.58
287.425	108.88
287.64	24.92
287.855	-1.71
288.07	43.35
288.285	59.73
288.5	-3.75
288.715	6.49
288.93	0.34
289.145	41.3
289.36	24.92
289.575	12.63
289.79	51.54
290.004	82.26
290.219	78.16
290.434	-18.09
290.649	29.01
290.864	18.77
291.079	12.63
291.294	22.87
291.509	96.6
291.724	112.98
291.938	-16.04
292.153	18.77
292.368	102.74
292.583	92.5
292.798	49.49
293.012	90.45
293.227	72.02
293.442	14.68
293.657	35.16
293.871	76.12
294.086	18.77
294.301	-3.75
294.516	41.3
294.73	39.25
294.945	-7.85
295.16	39.25
295.374	69.97
295.589	106.84
295.804	51.54
296.018	65.88
296.233	57.68
296.447	59.73
296.662	39.25
296.877	53.59
297.091	2.39
297.306	74.07
297.52	41.3
297.735	24.92
297.949	26.96
298.164	61.78
298.378	35.16
298.593	51.54
298.807	37.2
299.022	24.92
299.236	12.63
299.451	31.06
299.665	24.92
299.88	31.06
300.094	-9.9
300.309	69.97
300.523	37.2
300.737	69.97
300.952	26.96
301.166	59.73
301.381	37.2
301.595	43.35
301.809	51.54
302.024	33.11
302.238	-1.71
302.452	39.25
302.667	31.06
302.881	24.92
303.095	2.39
303.309	100.69
303.524	84.31
303.738	59.73
303.952	63.83
304.166	35.16
304.381	-34.47
304.595	115.03
304.809	-11.95
305.023	47.44
305.237	20.82
305.452	12.63
305.666	135.51
305.88	61.78
306.094	26.96
306.308	84.31
306.522	-3.75
306.736	96.6
306.95	22.87
307.164	53.59
307.379	29.01
307.593	47.44
307.807	14.68
308.021	0.34
308.235	16.73
308.449	43.35
308.663	59.73
308.877	121.17
309.091	53.59
309.305	57.68
309.519	-16.04
309.733	90.45
309.947	-20.14
310.161	43.35
310.374	96.6
310.588	31.06
310.802	22.87
311.016	61.78
311.23	96.6
311.444	88.4
311.658	-11.95
311.872	47.44
312.085	65.88
312.299	117.08
312.513	94.55
312.727	67.92
312.941	2.39
313.154	59.73
313.368	18.77
313.582	-3.75
313.796	-36.52
314.009	55.64
314.223	94.55
314.437	39.25
314.651	104.79
314.864	37.2
315.078	-24.23
315.292	-40.62
315.505	-1.71
315.719	57.68
315.933	-18.09
316.146	-42.67
316.36	35.16
316.573	72.02
316.787	65.88
317.001	65.88
317.214	53.59
317.428	12.63
317.641	67.92
317.855	8.53
318.068	-38.57
318.282	8.53
318.495	8.53
318.709	67.92
318.922	53.59
319.136	41.3
319.349	4.44
319.563	49.49
319.776	35.16
319.99	-1.71
320.203	-7.85
320.417	65.88
320.63	80.21
320.843	49.49
321.057	61.78
321.27	-20.14
321.483	100.69
321.697	112.98
321.91	-24.23
322.124	37.2
322.337	45.4
322.55	26.96
322.763	88.4
322.977	61.78
323.19	45.4
323.403	69.97
323.617	16.73
323.83	121.17
324.043	72.02
324.256	67.92
324.469	10.58
324.683	112.98
324.896	35.16
325.109	10.58
325.322	-34.47
325.535	112.98
325.748	76.12
325.962	41.3
326.175	0.34
326.388	67.92
326.601	20.82
326.814	12.63
327.027	10.58
327.24	49.49
327.453	10.58
327.666	100.69
327.879	-1.71
328.092	59.73
328.305	10.58
328.518	55.64
328.731	12.63
328.944	78.16
329.157	55.64
329.37	78.16
329.583	92.5
329.796	22.87
330.009	47.44
330.222	26.96
330.435	-16.04
330.648	-3.75
330.861	35.16
331.073	51.54
331.286	-20.14
331.499	37.2
331.712	41.3
331.925	-1.71
332.138	55.64
332.35	26.96
332.563	53.59
332.776	55.64
332.989	39.25
333.202	96.6
333.414	43.35
333.627	51.54
333.84	106.84
334.053	35.16
334.265	74.07
334.478	10.58
334.691	110.93
334.903	51.54
335.116	18.77
335.329	43.35
335.541	96.6
335.754	92.5
335.966	10.58
336.179	35.16
336.392	41.3
336.604	90.45
336.817	-1.71
337.029	41.3
337.242	69.97
337.454	2.39
337.667	-36.52
337.88	-5.8
338.092	14.68
338.305	2.39
338.517	20.82
338.729	104.79
338.942	20.82
339.154	4.44
339.367	47.44
339.579	35.16
339.792	-3.75
340.004	33.11
340.217	-38.57
340.429	-1.71
340.641	10.58
340.854	39.25
341.066	74.07
341.278	80.21
341.491	22.87
341.703	80.21
341.915	45.4
342.128	55.64
342.34	4.44
342.552	26.96
342.764	59.73
342.977	20.82
343.189	43.35
343.401	29.01
343.613	18.77
343.826	18.77
344.038	43.35
344.25	22.87
344.462	29.01
344.674	55.64
344.886	-7.85
345.099	4.44
345.311	63.83
345.523	10.58
345.735	-48.81
345.947	65.88
346.159	90.45
346.371	45.4
346.583	51.54
346.795	108.88
347.007	16.73
347.219	35.16
347.431	55.64
347.643	63.83
347.855	24.92
348.067	166.23
348.279	20.82
348.491	69.97
348.703	39.25
348.915	53.59
349.127	41.3
349.339	41.3
349.551	-44.71
349.763	104.79
349.975	45.4
350.187	102.74
350.399	63.83
350.61	57.68
350.822	96.6
351.034	-38.57
351.246	61.78
351.458	47.44
351.669	88.4
351.881	63.83
352.093	104.79
352.305	74.07
352.517	69.97
352.728	69.97
352.94	67.92
353.152	45.4
353.363	72.02
353.575	12.63
353.787	61.78
353.999	100.69
354.21	72.02
354.422	16.73
354.633	88.4
354.845	31.06
355.057	39.25
355.268	29.01
355.48	39.25
355.692	0.34
355.903	47.44
356.115	41.3
356.326	2.39
356.538	45.4
356.749	43.35
356.961	96.6
357.172	51.54
357.384	43.35
357.595	61.78
357.807	33.11
358.018	-9.9
358.23	10.58
358.441	29.01
358.653	16.73
358.864	84.31
359.075	80.21
359.287	14.68
359.498	110.93
359.709	16.73
359.921	63.83
360.132	55.64
360.344	37.2
360.555	55.64
360.766	80.21
360.977	57.68
361.189	35.16
361.4	86.36
361.611	53.59
361.823	63.83
362.034	51.54
362.245	117.08
362.456	94.55
362.667	35.16
362.879	6.49
363.09	53.59
363.301	63.83
363.512	14.68
363.723	135.51
363.935	80.21
364.146	72.02
364.357	2.39
364.568	65.88
364.779	-5.8
364.99	6.49
365.201	18.77
365.412	88.4
365.623	41.3
365.834	-9.9
366.045	18.77
366.256	51.54
366.467	14.68
366.678	47.44
366.889	67.92
367.1	74.07
367.311	61.78
367.522	74.07
367.733	39.25
367.944	104.79
368.155	80.21
368.366	37.2
368.577	49.49
368.788	141.65
368.999	59.73
369.209	69.97
369.42	72.02
369.631	67.92
369.842	33.11
370.053	145.75
370.264	94.55
370.474	-13.99
370.685	67.92
370.896	35.16
371.107	92.5
371.317	98.64
371.528	43.35
371.739	37.2
371.95	86.36
372.16	35.16
372.371	12.63
372.582	31.06
372.792	51.54
373.003	112.98
373.214	53.59
373.424	22.87
373.635	-57
373.846	55.64
374.056	-13.99
374.267	74.07
374.477	14.68
374.688	127.32
374.898	37.2
375.109	88.4
375.319	76.12
375.53	82.26
375.74	49.49
375.951	59.73
376.161	63.83
376.372	96.6
376.582	78.16
376.793	57.68
377.003	10.58
377.214	45.4
377.424	12.63
377.635	61.78
377.845	-42.67
378.055	51.54
378.266	41.3
378.476	29.01
378.686	78.16
378.897	94.55
379.107	67.92
379.317	110.93
379.528	82.26
379.738	65.88
379.948	59.73
380.158	47.44
380.369	78.16
380.579	94.55
380.789	49.49
380.999	76.12
381.21	112.98
381.42	-18.09
381.63	-5.8
381.84	78.16
382.05	8.53
382.261	29.01
382.471	12.63
382.681	20.82
382.891	47.44
383.101	121.17
383.311	26.96
383.521	2.39
383.731	84.31
383.941	26.96
384.151	74.07
384.361	102.74
384.571	45.4
384.781	12.63
384.991	69.97
385.201	143.7
385.411	143.7
385.621	51.54
385.831	49.49
386.041	80.21
386.251	18.77
386.461	47.44
386.671	63.83
386.881	49.49
387.091	53.59
387.301	86.36
387.511	102.74
387.72	127.32
387.93	12.63
388.14	26.96
388.35	-18.09
388.56	78.16
388.769	69.97
388.979	39.25
389.189	4.44
389.399	63.83
389.609	67.92
389.818	78.16
390.028	67.92
390.238	55.64
390.447	-11.95
390.657	20.82
390.867	61.78
391.076	100.69
391.286	8.53
391.496	149.84
391.705	72.02
391.915	90.45
392.125	53.59
392.334	76.12
392.544	137.56
392.753	43.35
392.963	4.44
393.172	106.84
393.382	49.49
393.591	47.44
393.801	90.45
394.01	82.26
394.22	49.49
394.429	78.16
394.639	55.64
394.848	80.21
395.058	35.16
395.267	123.22
395.477	26.96
395.686	65.88
395.895	102.74
396.105	104.79
396.314	104.79
396.524	65.88
396.733	82.26
396.942	102.74
397.152	133.46
397.361	137.56
397.57	123.22
397.78	149.84
397.989	67.92
398.198	123.22
398.407	104.79
398.617	61.78
398.826	16.73
399.035	143.7
399.244	63.83
399.453	61.78
399.663	65.88
399.872	67.92
400.081	96.6
400.29	178.51
400.499	129.36
400.708	112.98
400.917	37.2
401.127	88.4
401.336	123.22
401.545	186.71
401.754	96.6
401.963	117.08
402.172	80.21
402.381	117.08
402.59	125.27
402.799	115.03
403.008	67.92
403.217	86.36
403.426	106.84
403.635	137.56
403.844	110.93
404.053	41.3
404.262	123.22
404.471	172.37
404.68	143.7
404.888	110.93
405.097	115.03
405.306	88.4
405.515	123.22
405.724	147.8
405.933	135.51
406.142	192.85
406.35	98.64
406.559	190.8
406.768	192.85
406.977	160.08
407.185	145.75
407.394	196.95
407.603	155.99
407.812	223.57
408.02	166.23
408.229	170.32
408.438	84.31
408.646	256.34
408.855	155.99
409.064	264.53
409.272	178.51
409.481	219.47
409.69	217.43
409.898	237.91
410.107	215.38
410.315	260.43
410.524	225.62
410.733	262.48
410.941	313.68
411.15	280.91
411.358	258.39
411.567	354.64
411.775	303.44
411.984	344.4
412.192	272.72
412.401	399.7
412.609	366.93
412.818	340.3
413.026	366.93
413.234	383.31
413.443	444.75
413.651	424.27
413.86	485.71
414.068	543.05
414.276	530.77
414.485	469.33
414.693	504.14
414.901	430.41
415.11	557.39
415.318	555.34
415.526	516.43
415.734	506.19
415.943	569.68
416.151	557.39
416.359	575.82
416.567	665.93
416.776	735.56
416.984	702.79
417.192	760.14
417.4	706.89
417.608	723.27
417.817	854.34
418.025	743.75
418.233	811.34
418.441	788.81
418.649	868.68
418.857	956.74
419.065	1001.8
419.273	975.17
419.481	1046.85
419.689	1057.09
419.897	1057.09
420.105	1110.34
420.313	1169.73
420.521	1241.41
420.729	1233.22
420.937	1298.75
421.145	1323.33
421.353	1341.76
421.561	1497.41
421.769	1384.77
421.977	1511.74
422.185	1585.47
422.393	1718.59
422.601	1663.29
422.809	1761.59
423.017	1620.28
423.224	1730.87
423.432	1816.89
423.64	1855.8
423.848	1952.06
424.056	1990.97
424.263	2185.52
424.471	2163
424.679	2150.71
424.887	2240.82
425.094	2335.03
425.302	2349.36
425.51	2382.13
425.718	2588.97
425.925	2543.92
426.133	2677.04
426.341	2709.8
426.548	2859.31
426.756	2861.35
426.964	2933.03
427.171	3062.05
427.379	3365.15
427.586	3309.86
427.794	3465.5
428.001	3410.21
428.209	3682.59
428.417	3619.1
428.624	3766.56
428.832	3891.48
429.039	3946.78
429.247	3735.84
429.454	4184.34
429.662	4452.63
429.869	4290.84
430.076	4403.47
430.284	4258.07
430.491	4598.03
430.699	4735.25
430.906	4845.84
431.114	5011.72
431.321	5212.42
431.528	5075.21
431.736	5566.72
431.943	5767.42
432.15	5599.49
432.358	5675.26
432.565	5882.11
432.772	6107.38
432.979	6328.56
433.187	6426.87
433.394	6547.7
433.601	6824.17
433.808	6850.8
434.016	6625.52
434.223	7020.78
434.43	7561.44
434.637	7411.94
434.844	7864.54
435.052	8077.53
435.259	7944.41
435.466	7905.5
435.673	7899.36
435.88	8519.89
436.087	8999.12
436.294	8786.13
436.501	9060.56
436.708	8923.34
436.915	9230.54
437.122	9636.03
437.329	9806.02
437.537	10289.34
437.743	10076.35
437.95	10102.97
438.157	10682.55
438.364	10881.2
438.571	11053.23
438.778	10928.3
438.985	12075.17
439.192	11638.95
439.399	11980.96
439.606	11808.93
439.813	12230.81
440.02	12837.01
440.227	12671.12
440.433	12515.48
440.64	13244.56
440.847	13037.71
441.054	13529.22
441.261	14415.99
441.467	14188.67
441.674	14413.95
441.881	14995.57
442.088	14880.88
442.294	14864.5
442.501	15122.54
442.708	15618.15
442.914	16085.09
443.121	16926.8
443.328	16119.9
443.534	17530.95
443.741	17016.91
443.948	16861.27
444.154	18008.13
444.361	17801.29
444.568	17834.05
444.774	18051.14
444.981	18161.73
445.187	18905.14
445.394	19939.37
445.6	19601.45
445.807	21200.91
446.013	20328.48
446.22	20750.36
446.426	21725.19
446.633	21630.99
446.839	22548.48
447.046	21710.86
447.252	22720.51
447.459	22958.07
447.665	22595.58
447.871	23588.85
448.078	24571.87
448.284	23824.36
448.491	24133.61
448.697	25292.76
448.903	25245.65
449.11	25651.15
449.316	25184.21
449.522	25907.15
449.728	26660.8
449.935	26836.92
450.141	26773.44
450.347	27187.13
450.553	26570.69
450.76	27013.05
450.966	27324.34
451.172	27619.25
451.378	28346.28
451.584	27654.06
451.791	28227.49
451.997	28192.68
452.203	28522.4
452.409	28735.39
452.615	28522.4
452.821	27260.85
453.027	27058.1
453.233	28739.49
453.44	27418.55
453.646	27862.96
453.852	27994.03
454.058	28661.66
454.264	27400.12
454.47	28043.18
454.676	27262.9
454.882	28602.27
455.088	26157
455.294	26001.35
455.5	26730.43
455.705	27279.29
455.911	26019.78
456.117	25597.9
456.323	25296.85
456.529	23857.13
456.735	25202.64
456.941	24162.28
457.147	23715.82
457.352	23156.72
457.558	22472.7
457.764	22951.93
457.97	22452.22
458.176	22274.05
458.381	22052.87
458.587	20846.62
458.793	21186.58
458.999	19912.74
459.204	21532.68
459.41	20772.89
459.616	19152.95
459.821	19406.89
460.027	19208.24
460.233	18765.88
460.438	17836.1
460.644	18102.34
460.85	17291.34
461.055	16928.85
461.261	17184.85
461.466	15734.89
461.672	15294.57
461.878	16461.91
462.083	15325.29
462.289	15050.86
462.494	14913.65
462.7	14250.11
462.905	14063.74
463.111	14178.43
463.316	14303.36
463.522	14022.78
463.727	13918.34
463.932	13987.97
464.138	13963.39
464.343	13686.92
464.549	13457.54
464.754	13865.09
464.959	13779.08
465.165	13836.42
465.37	13291.66
465.575	12998.8
465.781	13353.1
465.986	13420.68
466.191	12996.75
466.397	12781.71
466.602	11956.38
466.807	12619.92
467.012	12583.06
467.218	12564.63
467.423	12527.77
467.628	12624.02
467.833	12791.95
468.038	12310.68
468.244	12255.39
468.449	12427.42
