Data from USB4F104151__94__12-28-18-368.txt Node

Date: Fri Mar 14 12:28:18 EDT 2025
User: louis
Spectrometer: USB4F10415
Trigger mode: 4
Integration Time (sec): 2.000000E-2
Scans to average: 1
Electric dark correction enabled: true
Nonlinearity correction enabled: false
Boxcar width: 0
XAxis mode: Wavelengths
Number of Pixels in Spectrum: 3648
>>>>>Begin Spectral Data<<<<<
178.204	-51.37
178.424	-51.37
178.644	-51.37
178.864	-55.47
179.084	-127.14
179.304	-32.94
179.524	-16.55
179.744	-22.7
179.964	1.88
180.184	10.07
180.404	24.4
180.624	67.41
180.844	3.93
181.064	-32.94
181.283	-0.17
181.503	10.07
181.723	-12.46
181.943	-67.75
182.163	69.46
182.383	42.84
182.602	18.26
182.822	57.17
183.042	67.41
183.262	44.88
183.482	18.26
183.701	44.88
183.921	-2.22
184.141	-28.84
184.361	85.84
184.58	1.88
184.8	24.4
185.02	16.21
185.239	44.88
185.459	38.74
185.679	-6.31
185.898	-8.36
186.118	16.21
186.338	22.36
186.557	42.84
186.777	46.93
186.997	12.12
187.216	30.55
187.436	122.71
187.655	61.27
187.875	8.02
188.095	26.45
188.314	73.56
188.534	26.45
188.753	-24.75
188.973	24.4
189.192	57.17
189.412	18.26
189.631	30.55
189.851	40.79
190.07	75.6
190.29	-14.51
190.509	42.84
190.729	67.41
190.948	57.17
191.168	102.23
191.387	16.21
191.607	-47.27
191.826	32.6
192.045	-69.8
192.265	46.93
192.484	14.17
192.704	10.07
192.923	-53.42
193.142	-18.6
193.362	77.65
193.581	59.22
193.8	65.36
194.02	108.37
194.239	116.56
194.458	-26.79
194.678	1.88
194.897	-30.89
195.116	32.6
195.335	3.93
195.555	5.97
195.774	44.88
195.993	36.69
196.212	18.26
196.432	57.17
196.651	38.74
196.87	-57.51
197.089	59.22
197.308	28.5
197.528	83.8
197.747	-2.22
197.966	36.69
198.185	48.98
198.404	79.7
198.623	-0.17
198.842	1.88
199.062	3.93
199.281	48.98
199.5	-18.6
199.719	-10.41
199.938	55.12
200.157	-49.32
200.376	48.98
200.595	48.98
200.814	46.93
201.033	-22.7
201.252	40.79
201.471	-2.22
201.69	10.07
201.909	89.94
202.128	1.88
202.347	65.36
202.566	-39.08
202.785	-18.6
203.004	73.56
203.223	94.04
203.442	34.64
203.661	1.88
203.879	-39.08
204.098	38.74
204.317	-82.09
204.536	-28.84
204.755	67.41
204.974	61.27
205.193	-26.79
205.411	34.64
205.63	24.4
205.849	-12.46
206.068	-67.75
206.287	67.41
206.505	34.64
206.724	87.89
206.943	34.64
207.162	10.07
207.381	38.74
207.599	-39.08
207.818	12.12
208.037	16.21
208.255	53.08
208.474	67.41
208.693	30.55
208.911	12.12
209.13	-2.22
209.349	-24.75
209.567	63.32
209.786	51.03
210.005	-0.17
210.223	16.21
210.442	40.79
210.661	-14.51
210.879	36.69
211.098	8.02
211.316	5.97
211.535	10.07
211.753	30.55
211.972	38.74
212.191	57.17
212.409	-28.84
212.628	-12.46
212.846	12.12
213.065	-30.89
213.283	40.79
213.502	20.31
213.72	12.12
213.938	-34.99
214.157	18.26
214.375	40.79
214.594	20.31
214.812	51.03
215.031	44.88
215.249	24.4
215.467	83.8
215.686	24.4
215.904	65.36
216.122	-32.94
216.341	-8.36
216.559	24.4
216.778	75.6
216.996	8.02
217.214	46.93
217.432	3.93
217.651	65.36
217.869	36.69
218.087	30.55
218.306	36.69
218.524	67.41
218.742	40.79
218.96	-6.31
219.179	30.55
219.397	28.5
219.615	114.52
219.833	30.55
220.051	-18.6
220.27	38.74
220.488	38.74
220.706	8.02
220.924	16.21
221.142	-16.55
221.36	30.55
221.578	32.6
221.796	18.26
222.015	22.36
222.233	36.69
222.451	59.22
222.669	30.55
222.887	48.98
223.105	5.97
223.323	44.88
223.541	-22.7
223.759	81.75
223.977	12.12
224.195	83.8
224.413	71.51
224.631	63.32
224.849	102.23
225.067	61.27
225.285	1.88
225.503	57.17
225.721	26.45
225.939	32.6
226.157	28.5
226.375	30.55
226.592	-8.36
226.81	18.26
227.028	73.56
227.246	67.41
227.464	-28.84
227.682	40.79
227.9	16.21
228.117	1.88
228.335	-45.23
228.553	-0.17
228.771	24.4
228.989	-2.22
229.206	59.22
229.424	24.4
229.642	12.12
229.86	61.27
230.077	65.36
230.295	28.5
230.513	26.45
230.731	-0.17
230.948	22.36
231.166	63.32
231.384	48.98
231.601	-30.89
231.819	18.26
232.037	-10.41
232.254	-30.89
232.472	-28.84
232.689	65.36
232.907	-4.27
233.125	44.88
233.342	85.84
233.56	36.69
233.777	-22.7
233.995	44.88
234.213	98.13
234.43	51.03
234.648	46.93
234.865	-0.17
235.083	22.36
235.3	36.69
235.518	32.6
235.735	28.5
235.953	14.17
236.17	77.65
236.388	20.31
236.605	26.45
236.822	38.74
237.04	46.93
237.257	-8.36
237.475	-37.03
237.692	24.4
237.909	18.26
238.127	-4.27
238.344	96.08
238.562	-8.36
238.779	34.64
238.996	3.93
239.214	28.5
239.431	65.36
239.648	8.02
239.865	-53.42
240.083	32.6
240.3	48.98
240.517	-57.51
240.735	-53.42
240.952	26.45
241.169	38.74
241.386	36.69
241.603	-49.32
241.821	-14.51
242.038	-37.03
242.255	-14.51
242.472	16.21
242.689	44.88
242.907	10.07
243.124	-8.36
243.341	24.4
243.558	75.6
243.775	22.36
243.992	3.93
244.209	5.97
244.426	102.23
244.643	10.07
244.86	51.03
245.078	-18.6
245.295	8.02
245.512	-18.6
245.729	-8.36
245.946	-24.75
246.163	51.03
246.38	59.22
246.597	51.03
246.814	-84.14
247.031	24.4
247.248	3.93
247.464	1.88
247.681	112.47
247.898	12.12
248.115	10.07
248.332	28.5
248.549	108.37
248.766	-4.27
248.983	28.5
249.2	36.69
249.417	-61.61
249.633	-0.17
249.85	81.75
250.067	46.93
250.284	40.79
250.501	18.26
250.717	-18.6
250.934	5.97
251.151	42.84
251.368	44.88
251.585	10.07
251.801	-69.8
252.018	-30.89
252.235	67.41
252.451	53.08
252.668	24.4
252.885	3.93
253.102	18.26
253.318	24.4
253.535	-6.31
253.752	-16.55
253.968	67.41
254.185	-4.27
254.401	5.97
254.618	28.5
254.835	-34.99
255.051	-4.27
255.268	55.12
255.484	-2.22
255.701	32.6
255.917	83.8
256.134	16.21
256.351	-51.37
256.567	61.27
256.784	51.03
257	14.17
257.217	83.8
257.433	-0.17
257.65	61.27
257.866	81.75
258.082	-10.41
258.299	-110.76
258.515	40.79
258.732	-4.27
258.948	65.36
259.165	-28.84
259.381	22.36
259.597	73.56
259.814	32.6
260.03	12.12
260.246	71.51
260.463	1.88
260.679	57.17
260.895	-10.41
261.112	5.97
261.328	59.22
261.544	18.26
261.761	75.6
261.977	53.08
262.193	-10.41
262.409	44.88
262.626	-18.6
262.842	36.69
263.058	-37.03
263.274	91.99
263.49	12.12
263.707	32.6
263.923	34.64
264.139	-0.17
264.355	53.08
264.571	38.74
264.787	8.02
265.004	85.84
265.22	61.27
265.436	-4.27
265.652	12.12
265.868	110.42
266.084	22.36
266.3	57.17
266.516	-39.08
266.732	40.79
266.948	8.02
267.164	61.27
267.38	32.6
267.596	65.36
267.812	-16.55
268.028	22.36
268.244	46.93
268.46	65.36
268.676	20.31
268.892	48.98
269.108	24.4
269.324	1.88
269.54	-73.9
269.756	77.65
269.972	8.02
270.188	48.98
270.403	-4.27
270.619	63.32
270.835	-0.17
271.051	-41.13
271.267	34.64
271.483	-65.71
271.698	-59.56
271.914	67.41
272.13	71.51
272.346	10.07
272.562	-10.41
272.777	34.64
272.993	61.27
273.209	-2.22
273.425	36.69
273.64	16.21
273.856	1.88
274.072	130.9
274.287	48.98
274.503	10.07
274.719	34.64
274.934	-16.55
275.15	-24.75
275.366	89.94
275.581	24.4
275.797	-45.23
276.012	57.17
276.228	-14.51
276.444	-6.31
276.659	63.32
276.875	44.88
277.09	112.47
277.306	-53.42
277.521	32.6
277.737	-10.41
277.952	53.08
278.168	44.88
278.383	55.12
278.599	-8.36
278.814	-22.7
279.03	61.27
279.245	155.47
279.461	59.22
279.676	3.93
279.892	59.22
280.107	14.17
280.322	38.74
280.538	59.22
280.753	22.36
280.969	63.32
281.184	-4.27
281.399	108.37
281.615	73.56
281.83	46.93
282.045	-49.32
282.26	12.12
282.476	3.93
282.691	26.45
282.906	30.55
283.122	55.12
283.337	16.21
283.552	75.6
283.767	-28.84
283.983	98.13
284.198	18.26
284.413	69.46
284.628	-18.6
284.843	18.26
285.058	14.17
285.274	44.88
285.489	-16.55
285.704	75.6
285.919	3.93
286.134	-43.18
286.349	5.97
286.564	44.88
286.779	61.27
286.995	59.22
287.21	-10.41
287.425	75.6
287.64	42.84
287.855	65.36
288.07	-18.6
288.285	94.04
288.5	44.88
288.715	63.32
288.93	16.21
289.145	-32.94
289.36	79.7
289.575	87.89
289.79	44.88
290.004	5.97
290.219	61.27
290.434	1.88
290.649	-16.55
290.864	1.88
291.079	-8.36
291.294	1.88
291.509	-49.32
291.724	48.98
291.938	44.88
292.153	32.6
292.368	-34.99
292.583	77.65
292.798	120.66
293.012	69.46
293.227	-8.36
293.442	-26.79
293.657	-39.08
293.871	5.97
294.086	5.97
294.301	30.55
294.516	65.36
294.73	65.36
294.945	24.4
295.16	22.36
295.374	-18.6
295.589	-39.08
295.804	44.88
296.018	-43.18
296.233	14.17
296.447	71.51
296.662	-4.27
296.877	83.8
297.091	5.97
297.306	67.41
297.52	3.93
297.735	8.02
297.949	-10.41
298.164	20.31
298.378	38.74
298.593	40.79
298.807	40.79
299.022	18.26
299.236	10.07
299.451	18.26
299.665	-18.6
299.88	12.12
300.094	28.5
300.309	57.17
300.523	104.28
300.737	38.74
300.952	-41.13
301.166	3.93
301.381	-14.51
301.595	-55.47
301.809	18.26
302.024	-18.6
302.238	53.08
302.452	-0.17
302.667	48.98
302.881	26.45
303.095	112.47
303.309	22.36
303.524	87.89
303.738	8.02
303.952	-12.46
304.166	59.22
304.381	-59.56
304.595	65.36
304.809	44.88
305.023	8.02
305.237	8.02
305.452	12.12
305.666	24.4
305.88	71.51
306.094	18.26
306.308	100.18
306.522	-6.31
306.736	71.51
306.95	48.98
307.164	16.21
307.379	59.22
307.593	81.75
307.807	75.6
308.021	14.17
308.235	53.08
308.449	48.98
308.663	42.84
308.877	-28.84
309.091	83.8
309.305	55.12
309.519	44.88
309.733	16.21
309.947	30.55
310.161	34.64
310.374	79.7
310.588	63.32
310.802	-34.99
311.016	57.17
311.23	-16.55
311.444	-4.27
311.658	-41.13
311.872	26.45
312.085	18.26
312.299	16.21
312.513	16.21
312.727	42.84
312.941	12.12
313.154	36.69
313.368	-18.6
313.582	36.69
313.796	32.6
314.009	-10.41
314.223	55.12
314.437	83.8
314.651	46.93
314.864	20.31
315.078	-24.75
315.292	3.93
315.505	-18.6
315.719	-14.51
315.933	16.21
316.146	79.7
316.36	-34.99
316.573	22.36
316.787	44.88
317.001	1.88
317.214	10.07
317.428	48.98
317.641	34.64
317.855	-30.89
318.068	-6.31
318.282	32.6
318.495	157.52
318.709	-2.22
318.922	-2.22
319.136	63.32
319.349	12.12
319.563	69.46
319.776	59.22
319.99	-14.51
320.203	83.8
320.417	16.21
320.63	65.36
320.843	46.93
321.057	55.12
321.27	75.6
321.483	5.97
321.697	79.7
321.91	83.8
322.124	16.21
322.337	5.97
322.55	20.31
322.763	63.32
322.977	3.93
323.19	40.79
323.403	120.66
323.617	38.74
323.83	55.12
324.043	57.17
324.256	30.55
324.469	-73.9
324.683	-37.03
324.896	3.93
325.109	53.08
325.322	-47.27
325.535	44.88
325.748	53.08
325.962	65.36
326.175	53.08
326.388	63.32
326.601	46.93
326.814	-20.65
327.027	26.45
327.24	73.56
327.453	-57.51
327.666	114.52
327.879	65.36
328.092	48.98
328.305	-0.17
328.518	26.45
328.731	10.07
328.944	108.37
329.157	75.6
329.37	-16.55
329.583	42.84
329.796	55.12
330.009	22.36
330.222	12.12
330.435	59.22
330.648	87.89
330.861	98.13
331.073	22.36
331.286	65.36
331.499	10.07
331.712	-34.99
331.925	30.55
332.138	53.08
332.35	61.27
332.563	-4.27
332.776	-8.36
332.989	94.04
333.202	30.55
333.414	26.45
333.627	-0.17
333.84	67.41
334.053	-22.7
334.265	34.64
334.478	24.4
334.691	-26.79
334.903	24.4
335.116	32.6
335.329	36.69
335.541	-4.27
335.754	73.56
335.966	-61.61
336.179	69.46
336.392	16.21
336.604	10.07
336.817	26.45
337.029	-14.51
337.242	26.45
337.454	-10.41
337.667	12.12
337.88	94.04
338.092	24.4
338.305	10.07
338.517	28.5
338.729	16.21
338.942	48.98
339.154	55.12
339.367	63.32
339.579	63.32
339.792	32.6
340.004	22.36
340.217	14.17
340.429	55.12
340.641	36.69
340.854	65.36
341.066	-32.94
341.278	112.47
341.491	122.71
341.703	-16.55
341.915	48.98
342.128	77.65
342.34	16.21
342.552	79.7
342.764	28.5
342.977	104.28
343.189	-28.84
343.401	-0.17
343.613	48.98
343.826	42.84
344.038	5.97
344.25	46.93
344.462	-10.41
344.674	-24.75
344.886	34.64
345.099	-8.36
345.311	57.17
345.523	-12.46
345.735	20.31
345.947	48.98
346.159	-47.27
346.371	55.12
346.583	18.26
346.795	147.28
347.007	83.8
347.219	40.79
347.431	-20.65
347.643	26.45
347.855	110.42
348.067	53.08
348.279	75.6
348.491	-30.89
348.703	-20.65
348.915	-32.94
349.127	63.32
349.339	89.94
349.551	-8.36
349.763	44.88
349.975	-4.27
350.187	73.56
350.399	-45.23
350.61	38.74
350.822	-20.65
351.034	-4.27
351.246	83.8
351.458	51.03
351.669	53.08
351.881	112.47
352.093	-4.27
352.305	30.55
352.517	1.88
352.728	112.47
352.94	24.4
353.152	24.4
353.363	-37.03
353.575	110.42
353.787	40.79
353.999	14.17
354.21	94.04
354.422	53.08
354.633	-10.41
354.845	40.79
355.057	-51.37
355.268	75.6
355.48	79.7
355.692	28.5
355.903	36.69
356.115	32.6
356.326	1.88
356.538	59.22
356.749	53.08
356.961	46.93
357.172	-0.17
357.384	-10.41
357.595	24.4
357.807	46.93
358.018	10.07
358.23	8.02
358.441	69.46
358.653	98.13
358.864	-0.17
359.075	104.28
359.287	46.93
359.498	32.6
359.709	-0.17
359.921	-4.27
360.132	126.8
360.344	67.41
360.555	28.5
360.766	71.51
360.977	30.55
361.189	69.46
361.4	-4.27
361.611	81.75
361.823	24.4
362.034	59.22
362.245	18.26
362.456	-28.84
362.667	32.6
362.879	18.26
363.09	-59.56
363.301	-10.41
363.512	-10.41
363.723	65.36
363.935	22.36
364.146	14.17
364.357	57.17
364.568	14.17
364.779	48.98
364.99	116.56
365.201	-30.89
365.412	-24.75
365.623	20.31
365.834	18.26
366.045	55.12
366.256	61.27
366.467	32.6
366.678	5.97
366.889	8.02
367.1	-4.27
367.311	26.45
367.522	73.56
367.733	57.17
367.944	18.26
368.155	26.45
368.366	38.74
368.577	40.79
368.788	57.17
368.999	-65.71
369.209	79.7
369.42	124.76
369.631	12.12
369.842	16.21
370.053	48.98
370.264	106.32
370.474	81.75
370.685	89.94
370.896	63.32
371.107	61.27
371.317	94.04
371.528	-41.13
371.739	71.51
371.95	87.89
372.16	69.46
372.371	3.93
372.582	10.07
372.792	20.31
373.003	89.94
373.214	57.17
373.424	61.27
373.635	22.36
373.846	30.55
374.056	-32.94
374.267	67.41
374.477	53.08
374.688	14.17
374.898	-2.22
375.109	20.31
375.319	24.4
375.53	98.13
375.74	104.28
375.951	61.27
376.161	73.56
376.372	98.13
376.582	46.93
376.793	57.17
377.003	-26.79
377.214	12.12
377.424	48.98
377.635	28.5
377.845	61.27
378.055	51.03
378.266	-22.7
378.476	22.36
378.686	30.55
378.897	51.03
379.107	59.22
379.317	32.6
379.528	69.46
379.738	10.07
379.948	1.88
380.158	124.76
380.369	100.18
380.579	32.6
380.789	24.4
380.999	104.28
381.21	59.22
381.42	77.65
381.63	59.22
381.84	46.93
382.05	24.4
382.261	18.26
382.471	42.84
382.681	42.84
382.891	55.12
383.101	112.47
383.311	59.22
383.521	20.31
383.731	-6.31
383.941	24.4
384.151	-0.17
384.361	16.21
384.571	1.88
384.781	59.22
384.991	44.88
385.201	46.93
385.411	16.21
385.621	-4.27
385.831	73.56
386.041	-59.56
386.251	-4.27
386.461	124.76
386.671	24.4
386.881	-0.17
387.091	102.23
387.301	61.27
387.511	10.07
387.72	108.37
387.93	67.41
388.14	-32.94
388.35	48.98
388.56	61.27
388.769	12.12
388.979	-4.27
389.189	-28.84
389.399	-24.75
389.609	55.12
389.818	85.84
390.028	53.08
390.238	22.36
390.447	24.4
390.657	106.32
390.867	34.64
391.076	42.84
391.286	44.88
391.496	-22.7
391.705	44.88
391.915	122.71
392.125	61.27
392.334	53.08
392.544	30.55
392.753	81.75
392.963	-16.55
393.172	46.93
393.382	81.75
393.591	91.99
393.801	22.36
394.01	114.52
394.22	100.18
394.429	83.8
394.639	14.17
394.848	104.28
395.058	73.56
395.267	53.08
395.477	85.84
395.686	32.6
395.895	69.46
396.105	69.46
396.314	18.26
396.524	14.17
396.733	-37.03
396.942	73.56
397.152	57.17
397.361	94.04
397.57	32.6
397.78	106.32
397.989	83.8
398.198	77.65
398.407	40.79
398.617	81.75
398.826	94.04
399.035	48.98
399.244	73.56
399.453	71.51
399.663	96.08
399.872	38.74
400.081	22.36
400.29	137.04
400.499	57.17
400.708	98.13
400.917	81.75
401.127	112.47
401.336	40.79
401.545	137.04
401.754	110.42
401.963	63.32
402.172	124.76
402.381	65.36
402.59	96.08
402.799	61.27
403.008	98.13
403.217	104.28
403.426	40.79
403.635	73.56
403.844	44.88
404.053	137.04
404.262	51.03
404.471	75.6
404.68	57.17
404.888	55.12
405.097	57.17
405.306	114.52
405.515	116.56
405.724	61.27
405.933	161.62
406.142	153.43
406.35	132.95
406.559	180.05
406.768	77.65
406.977	175.95
407.185	110.42
407.394	114.52
407.603	165.71
407.812	186.19
408.02	153.43
408.229	108.37
408.438	167.76
408.646	163.67
408.855	159.57
409.064	204.63
409.272	182.1
409.481	200.53
409.69	124.76
409.898	186.19
410.107	194.39
410.315	204.63
410.524	214.87
410.733	278.35
410.941	165.71
411.15	274.26
411.358	241.49
411.567	317.26
411.775	323.41
411.984	245.59
412.192	296.78
412.401	214.87
412.609	259.92
412.818	286.54
413.026	309.07
413.234	294.74
413.443	352.08
413.651	423.76
413.86	358.22
414.068	427.85
414.276	458.57
414.485	399.18
414.693	489.29
414.901	436.05
415.11	413.52
415.318	485.2
415.526	458.57
415.734	438.09
415.943	552.78
416.151	534.35
416.359	630.6
416.567	577.36
416.776	573.26
416.984	702.28
417.192	726.86
417.4	687.95
417.608	628.56
417.817	743.24
418.025	618.32
418.233	827.21
418.441	792.39
418.649	806.73
418.857	788.3
419.065	851.78
419.273	788.3
419.481	886.6
419.689	993.09
419.897	974.66
420.105	1052.49
420.313	982.85
420.521	982.85
420.729	1128.26
420.937	1210.18
421.145	1226.56
421.353	1277.76
421.561	1396.54
421.769	1316.67
421.977	1423.17
422.185	1417.02
422.393	1517.37
422.601	1556.29
422.809	1644.35
423.017	1515.33
423.224	1658.68
423.432	1607.48
423.64	1787.71
423.848	1711.93
424.056	1828.67
424.263	1888.06
424.471	1892.15
424.679	2017.08
424.887	2031.41
425.094	2123.57
425.302	2187.06
425.51	2099
425.718	2340.66
425.925	2180.92
426.133	2332.47
426.341	2510.64
426.548	2627.37
426.756	2619.18
426.964	2678.57
427.171	2819.88
427.379	2955.05
427.586	2862.89
427.794	3161.89
428.001	3051.3
428.209	3231.52
428.417	3268.39
428.624	3561.25
428.832	3464.99
429.039	3487.52
429.247	3575.58
429.454	3786.52
429.662	3989.27
429.869	3764
430.076	4101.91
430.284	4060.95
430.491	4110.1
430.699	4448.02
430.906	4372.24
431.114	4347.67
431.321	4505.36
431.528	4618
431.736	4919.05
431.943	5134.09
432.15	5111.56
432.358	5076.74
432.565	5293.83
432.772	5445.38
432.979	5621.5
433.187	5572.35
433.394	5717.76
433.601	6145.78
433.808	6080.25
434.016	6145.78
434.223	6287.09
434.43	6762.22
434.637	6625.01
434.844	7208.68
435.052	7208.68
435.259	7018.22
435.466	7169.77
435.673	7157.48
435.88	7579.36
436.087	8144.6
436.294	8197.85
436.501	7804.64
436.708	7935.71
436.915	8412.88
437.122	8724.18
437.329	8611.54
437.537	9080.52
437.743	9058
437.95	9051.85
438.157	9281.22
438.364	9672.39
438.571	9627.33
438.778	9881.28
438.985	10860.21
439.192	10378.93
439.399	10755.76
439.606	10444.47
439.813	10772.14
440.02	11628.2
440.227	11634.34
440.433	11493.03
440.64	11802.27
440.847	11755.17
441.054	12064.41
441.261	12828.31
441.467	12619.41
441.674	12592.79
441.881	13282.95
442.088	13145.74
442.294	13268.62
442.501	13483.66
442.708	13465.22
442.914	14370.43
443.121	15040.11
443.328	14485.11
443.534	15410.79
443.741	15068.78
443.948	14935.67
444.154	15851.11
444.361	16033.38
444.568	16006.75
444.774	16033.38
444.981	16146.01
445.187	16735.83
445.394	17352.27
445.6	17305.17
445.807	18955.83
446.013	17993.28
446.22	18370.11
446.426	19230.26
446.633	19385.9
446.839	19850.79
447.046	19469.87
447.252	20583.96
447.459	20258.34
447.665	19912.23
447.871	21216.79
448.078	21814.79
448.284	20854.3
448.491	21370.38
448.697	22613.5
448.903	22777.34
449.11	22836.73
449.316	22402.56
449.522	22871.54
449.728	23561.71
449.935	23617
450.141	23733.74
450.347	24251.88
450.553	23432.69
450.76	23793.13
450.966	24645.09
451.172	24077.8
451.378	24976.86
451.584	24602.08
451.791	25282
451.997	24782.3
452.203	25247.19
452.409	25464.27
452.615	25046.49
452.821	24301.03
453.027	24229.35
453.233	25273.81
453.44	24505.82
453.646	24497.63
453.852	24432.1
454.058	25038.3
454.264	24569.31
454.47	24935.9
454.676	24280.55
454.882	25308.63
455.088	23254.51
455.294	23465.46
455.5	23711.21
455.705	23961.06
455.911	23029.24
456.117	22523.39
456.323	22369.79
456.529	20860.44
456.735	22070.79
456.941	21575.18
457.147	21020.18
457.352	20493.85
457.558	20176.42
457.764	20246.05
457.97	19910.18
458.176	19334.7
458.381	19332.65
458.587	18767.41
458.793	18402.88
458.999	17583.69
459.204	18687.54
459.41	18347.58
459.616	16840.28
459.821	17223.25
460.027	17081.94
460.233	16756.31
460.438	15869.54
460.644	16023.14
460.85	15244.91
461.055	14919.28
461.261	15060.59
461.466	13999.74
461.672	13573.77
461.878	14425.72
462.083	13622.92
462.289	13418.12
462.494	13483.66
462.7	12553.88
462.905	12293.79
463.111	12848.79
463.316	12867.22
463.522	12455.58
463.727	12347.03
463.932	12390.04
464.138	12215.96
464.343	12297.88
464.549	11998.88
464.754	12541.59
464.959	12371.61
465.165	11910.82
465.37	11626.15
465.575	11318.95
465.781	11923.1
465.986	11863.71
466.191	11419.3
466.397	11179.69
466.602	10682.03
466.807	11071.15
467.012	11157.16
467.218	11089.58
467.423	10976.94
467.628	11218.6
467.833	11429.54
468.038	11155.12
468.244	10462.9
468.449	11095.72
