Data from USB4F104151__91__12-28-17-368.txt Node

Date: Fri Mar 14 12:28:17 EDT 2025
User: louis
Spectrometer: USB4F10415
Trigger mode: 4
Integration Time (sec): 2.000000E-2
Scans to average: 1
Electric dark correction enabled: true
Nonlinearity correction enabled: false
Boxcar width: 0
XAxis mode: Wavelengths
Number of Pixels in Spectrum: 3648
>>>>>Begin Spectral Data<<<<<
178.204	-153.09
178.424	-153.09
178.644	-153.09
178.864	-110.08
179.084	-116.22
179.304	-22.02
179.524	-28.16
179.744	-24.06
179.964	-15.87
180.184	27.14
180.404	0.51
180.624	98.81
180.844	-48.64
181.064	-22.02
181.283	18.94
181.503	-44.54
181.723	59.9
181.943	-54.78
182.163	29.18
182.383	92.67
182.602	-11.78
182.822	-108.03
183.042	115.2
183.262	-3.58
183.482	8.7
183.701	-48.64
183.921	4.61
184.141	23.04
184.361	47.62
184.58	-48.64
184.8	2.56
185.02	33.28
185.239	25.09
185.459	-48.64
185.679	-40.45
185.898	-30.21
186.118	47.62
186.338	-22.02
186.557	41.47
186.777	14.85
186.997	4.61
187.216	-7.68
187.436	-46.59
187.655	-32.26
187.875	23.04
188.095	27.14
188.314	20.99
188.534	59.9
188.753	-36.35
188.973	14.85
189.192	78.33
189.412	31.23
189.631	-38.4
189.851	-13.82
190.07	12.8
190.29	-40.45
190.509	20.99
190.729	-7.68
190.948	-11.78
191.168	39.42
191.387	59.9
191.607	0.51
191.826	39.42
192.045	23.04
192.265	-3.58
192.484	16.9
192.704	-7.68
192.923	-1.54
193.142	104.96
193.362	-26.11
193.581	70.14
193.8	31.23
194.02	37.38
194.239	-54.78
194.458	35.33
194.678	-42.5
194.897	-44.54
195.116	35.33
195.335	41.47
195.555	76.29
195.774	-32.26
195.993	-1.54
196.212	4.61
196.432	-11.78
196.651	-5.63
196.87	-15.87
197.089	57.86
197.308	4.61
197.528	-22.02
197.747	-32.26
197.966	31.23
198.185	10.75
198.404	-1.54
198.623	-1.54
198.842	0.51
199.062	25.09
199.281	-19.97
199.5	-38.4
199.719	-11.78
199.938	35.33
200.157	20.99
200.376	-65.02
200.595	-40.45
200.814	-32.26
201.033	88.57
201.252	90.62
201.471	25.09
201.69	-17.92
201.909	-89.6
202.128	-11.78
202.347	113.15
202.566	-32.26
202.785	-26.11
203.004	-67.07
203.223	-48.64
203.442	2.56
203.661	6.66
203.879	27.14
204.098	61.95
204.317	-22.02
204.536	-17.92
204.755	10.75
204.974	12.8
205.193	55.81
205.411	20.99
205.63	27.14
205.849	23.04
206.068	25.09
206.287	55.81
206.505	2.56
206.724	37.38
206.943	-38.4
207.162	86.53
207.381	8.7
207.599	8.7
207.818	31.23
208.037	37.38
208.255	-3.58
208.474	4.61
208.693	-46.59
208.911	14.85
209.13	80.38
209.349	31.23
209.567	55.81
209.786	-17.92
210.005	51.71
210.223	18.94
210.442	-17.92
210.661	61.95
210.879	10.75
211.098	16.9
211.316	12.8
211.535	-3.58
211.753	-22.02
211.972	10.75
212.191	4.61
212.409	8.7
212.628	6.66
212.846	14.85
213.065	47.62
213.283	45.57
213.502	-3.58
213.72	-48.64
213.938	-62.98
214.157	43.52
214.375	59.9
214.594	-54.78
214.812	-28.16
215.031	-9.73
215.249	-40.45
215.467	-24.06
215.686	10.75
215.904	31.23
216.122	6.66
216.341	35.33
216.559	0.51
216.778	59.9
216.996	6.66
217.214	37.38
217.432	-22.02
217.651	8.7
217.869	-34.3
218.087	61.95
218.306	-15.87
218.524	-1.54
218.742	6.66
218.96	41.47
219.179	-9.73
219.397	64
219.615	18.94
219.833	-15.87
220.051	0.51
220.27	-22.02
220.488	74.24
220.706	37.38
220.924	49.66
221.142	-5.63
221.36	2.56
221.578	-3.58
221.796	76.29
222.015	14.85
222.233	-30.21
222.451	-36.35
222.669	-44.54
222.887	0.51
223.105	29.18
223.323	27.14
223.541	-22.02
223.759	-48.64
223.977	-67.07
224.195	-5.63
224.413	-34.3
224.631	59.9
224.849	-7.68
225.067	74.24
225.285	-50.69
225.503	33.28
225.721	-7.68
225.939	-58.88
226.157	-34.3
226.375	57.86
226.592	20.99
226.81	-28.16
227.028	-3.58
227.246	14.85
227.464	-52.74
227.682	-32.26
227.9	39.42
228.117	49.66
228.335	25.09
228.553	25.09
228.771	-26.11
228.989	39.42
229.206	25.09
229.424	12.8
229.642	-5.63
229.86	-40.45
230.077	-1.54
230.295	31.23
230.513	27.14
230.731	33.28
230.948	18.94
231.166	82.43
231.384	-38.4
231.601	-56.83
231.819	14.85
232.037	-19.97
232.254	16.9
232.472	-7.68
232.689	-1.54
232.907	16.9
233.125	35.33
233.342	-32.26
233.56	-58.88
233.777	14.85
233.995	18.94
234.213	12.8
234.43	-24.06
234.648	29.18
234.865	20.99
235.083	-30.21
235.3	-22.02
235.518	45.57
235.735	53.76
235.953	23.04
236.17	12.8
236.388	33.28
236.605	14.85
236.822	14.85
237.04	27.14
237.257	45.57
237.475	23.04
237.692	57.86
237.909	-5.63
238.127	-36.35
238.344	41.47
238.562	-1.54
238.779	-24.06
238.996	-7.68
239.214	39.42
239.431	27.14
239.648	70.14
239.865	51.71
240.083	-19.97
240.3	10.75
240.517	-105.98
240.735	4.61
240.952	14.85
241.169	-15.87
241.386	27.14
241.603	31.23
241.821	2.56
242.038	2.56
242.255	-28.16
242.472	-32.26
242.689	39.42
242.907	86.53
243.124	2.56
243.341	18.94
243.558	74.24
243.775	25.09
243.992	14.85
244.209	10.75
244.426	-15.87
244.643	8.7
244.86	-3.58
245.078	55.81
245.295	4.61
245.512	0.51
245.729	-34.3
245.946	18.94
246.163	-34.3
246.38	-15.87
246.597	2.56
246.814	16.9
247.031	-11.78
247.248	-108.03
247.464	-19.97
247.681	-15.87
247.898	29.18
248.115	-34.3
248.332	0.51
248.549	-28.16
248.766	25.09
248.983	57.86
249.2	-11.78
249.417	20.99
249.633	12.8
249.85	92.67
250.067	-44.54
250.284	23.04
250.501	18.94
250.717	55.81
250.934	-28.16
251.151	41.47
251.368	14.85
251.585	61.95
251.801	47.62
252.018	-19.97
252.235	4.61
252.451	2.56
252.668	-44.54
252.885	98.81
253.102	45.57
253.318	25.09
253.535	-11.78
253.752	0.51
253.968	-48.64
254.185	6.66
254.401	37.38
254.618	74.24
254.835	-9.73
255.051	8.7
255.268	-54.78
255.484	18.94
255.701	8.7
255.917	23.04
256.134	43.52
256.351	-26.11
256.567	35.33
256.784	-24.06
257	35.33
257.217	90.62
257.433	4.61
257.65	8.7
257.866	-50.69
258.082	37.38
258.299	-40.45
258.515	-1.54
258.732	-28.16
258.948	12.8
259.165	-42.5
259.381	23.04
259.597	66.05
259.814	59.9
260.03	25.09
260.246	23.04
260.463	27.14
260.679	4.61
260.895	-24.06
261.112	49.66
261.328	39.42
261.544	-28.16
261.761	82.43
261.977	12.8
262.193	-42.5
262.409	-19.97
262.626	12.8
262.842	-13.82
263.058	12.8
263.274	-24.06
263.49	-75.26
263.707	18.94
263.923	8.7
264.139	-95.74
264.355	39.42
264.571	8.7
264.787	-19.97
265.004	18.94
265.22	57.86
265.436	-54.78
265.652	-50.69
265.868	31.23
266.084	16.9
266.3	64
266.516	0.51
266.732	-79.36
266.948	-30.21
267.164	12.8
267.38	27.14
267.596	84.48
267.812	-60.93
268.028	127.49
268.244	-56.83
268.46	49.66
268.676	-19.97
268.892	78.33
269.108	-52.74
269.324	-1.54
269.54	-24.06
269.756	2.56
269.972	-13.82
270.188	20.99
270.403	18.94
270.619	-15.87
270.835	-60.93
271.051	31.23
271.267	-17.92
271.483	76.29
271.698	-28.16
271.914	45.57
272.13	-26.11
272.346	-40.45
272.562	43.52
272.777	-15.87
272.993	-24.06
273.209	16.9
273.425	20.99
273.64	12.8
273.856	4.61
274.072	-13.82
274.287	37.38
274.503	27.14
274.719	57.86
274.934	-22.02
275.15	-30.21
275.366	-9.73
275.581	25.09
275.797	-24.06
276.012	-7.68
276.228	-28.16
276.444	-9.73
276.659	61.95
276.875	-17.92
277.09	33.28
277.306	41.47
277.521	29.18
277.737	-9.73
277.952	2.56
278.168	41.47
278.383	18.94
278.599	31.23
278.814	20.99
279.03	-11.78
279.245	66.05
279.461	-26.11
279.676	4.61
279.892	0.51
280.107	18.94
280.322	27.14
280.538	43.52
280.753	-32.26
280.969	39.42
281.184	35.33
281.399	72.19
281.615	-1.54
281.83	-22.02
282.045	10.75
282.26	-5.63
282.476	-1.54
282.691	61.95
282.906	-40.45
283.122	35.33
283.337	-13.82
283.552	33.28
283.767	45.57
283.983	35.33
284.198	33.28
284.413	74.24
284.628	14.85
284.843	-44.54
285.058	35.33
285.274	-46.59
285.489	-42.5
285.704	2.56
285.919	-19.97
286.134	59.9
286.349	25.09
286.564	104.96
286.779	66.05
286.995	27.14
287.21	-46.59
287.425	-24.06
287.64	-40.45
287.855	23.04
288.07	-11.78
288.285	123.39
288.5	23.04
288.715	-5.63
288.93	-19.97
289.145	6.66
289.36	43.52
289.575	29.18
289.79	14.85
290.004	35.33
290.219	12.8
290.434	20.99
290.649	-7.68
290.864	0.51
291.079	-120.32
291.294	59.9
291.509	35.33
291.724	-46.59
291.938	-1.54
292.153	2.56
292.368	-22.02
292.583	18.94
292.798	-1.54
293.012	23.04
293.227	18.94
293.442	25.09
293.657	29.18
293.871	59.9
294.086	39.42
294.301	92.67
294.516	57.86
294.73	35.33
294.945	53.76
295.16	-15.87
295.374	23.04
295.589	107.01
295.804	-9.73
296.018	33.28
296.233	74.24
296.447	-42.5
296.662	-40.45
296.877	-11.78
297.091	-11.78
297.306	66.05
297.52	-36.35
297.735	35.33
297.949	-52.74
298.164	35.33
298.378	10.75
298.593	47.62
298.807	-32.26
299.022	-24.06
299.236	4.61
299.451	0.51
299.665	18.94
299.88	-11.78
300.094	6.66
300.309	-42.5
300.523	-7.68
300.737	4.61
300.952	59.9
301.166	49.66
301.381	-38.4
301.595	-91.65
301.809	23.04
302.024	-3.58
302.238	-13.82
302.452	152.06
302.667	-22.02
302.881	14.85
303.095	31.23
303.309	-56.83
303.524	47.62
303.738	-17.92
303.952	-30.21
304.166	23.04
304.381	-3.58
304.595	72.19
304.809	-52.74
305.023	-11.78
305.237	-13.82
305.452	18.94
305.666	20.99
305.88	-5.63
306.094	-44.54
306.308	18.94
306.522	-32.26
306.736	80.38
306.95	59.9
307.164	12.8
307.379	-28.16
307.593	4.61
307.807	64
308.021	0.51
308.235	43.52
308.449	8.7
308.663	4.61
308.877	82.43
309.091	-17.92
309.305	78.33
309.519	-1.54
309.733	80.38
309.947	16.9
310.161	25.09
310.374	0.51
310.588	82.43
310.802	-19.97
311.016	-1.54
311.23	-24.06
311.444	-28.16
311.658	49.66
311.872	90.62
312.085	-3.58
312.299	84.48
312.513	18.94
312.727	64
312.941	14.85
313.154	31.23
313.368	-32.26
313.582	100.86
313.796	-30.21
314.009	70.14
314.223	86.53
314.437	-15.87
314.651	-69.12
314.864	-22.02
315.078	-71.17
315.292	33.28
315.505	18.94
315.719	10.75
315.933	6.66
316.146	41.47
316.36	-1.54
316.573	6.66
316.787	49.66
317.001	35.33
317.214	2.56
317.428	18.94
317.641	2.56
317.855	43.52
318.068	8.7
318.282	-32.26
318.495	74.24
318.709	2.56
318.922	-15.87
319.136	20.99
319.349	18.94
319.563	53.76
319.776	-13.82
319.99	-32.26
320.203	20.99
320.417	43.52
320.63	4.61
320.843	115.2
321.057	-69.12
321.27	53.76
321.483	-40.45
321.697	27.14
321.91	51.71
322.124	-32.26
322.337	2.56
322.55	-40.45
322.763	29.18
322.977	43.52
323.19	-26.11
323.403	39.42
323.617	-26.11
323.83	8.7
324.043	29.18
324.256	6.66
324.469	47.62
324.683	33.28
324.896	41.47
325.109	23.04
325.322	20.99
325.535	-1.54
325.748	33.28
325.962	25.09
326.175	-5.63
326.388	53.76
326.601	31.23
326.814	51.71
327.027	164.35
327.24	-17.92
327.453	-46.59
327.666	4.61
327.879	16.9
328.092	25.09
328.305	-42.5
328.518	12.8
328.731	-48.64
328.944	-9.73
329.157	0.51
329.37	6.66
329.583	41.47
329.796	-9.73
330.009	-101.89
330.222	47.62
330.435	2.56
330.648	-22.02
330.861	14.85
331.073	12.8
331.286	57.86
331.499	33.28
331.712	-24.06
331.925	-9.73
332.138	6.66
332.35	39.42
332.563	8.7
332.776	90.62
332.989	6.66
333.202	23.04
333.414	16.9
333.627	8.7
333.84	-44.54
334.053	43.52
334.265	49.66
334.478	16.9
334.691	37.38
334.903	-44.54
335.116	27.14
335.329	-15.87
335.541	12.8
335.754	45.57
335.966	-46.59
336.179	80.38
336.392	-67.07
336.604	0.51
336.817	23.04
337.029	84.48
337.242	4.61
337.454	72.19
337.667	33.28
337.88	64
338.092	51.71
338.305	49.66
338.517	-81.41
338.729	-11.78
338.942	4.61
339.154	4.61
339.367	-3.58
339.579	78.33
339.792	-9.73
340.004	-93.69
340.217	-13.82
340.429	31.23
340.641	33.28
340.854	-69.12
341.066	-38.4
341.278	4.61
341.491	68.09
341.703	2.56
341.915	-54.78
342.128	12.8
342.34	-15.87
342.552	-24.06
342.764	-48.64
342.977	16.9
343.189	16.9
343.401	23.04
343.613	16.9
343.826	51.71
344.038	-36.35
344.25	-30.21
344.462	-15.87
344.674	37.38
344.886	18.94
345.099	29.18
345.311	37.38
345.523	-77.31
345.735	-5.63
345.947	51.71
346.159	6.66
346.371	-56.83
346.583	16.9
346.795	74.24
347.007	8.7
347.219	51.71
347.431	47.62
347.643	43.52
347.855	86.53
348.067	96.77
348.279	82.43
348.491	-15.87
348.703	31.23
348.915	25.09
349.127	31.23
349.339	10.75
349.551	-11.78
349.763	102.91
349.975	-44.54
350.187	25.09
350.399	66.05
350.61	31.23
350.822	-22.02
351.034	14.85
351.246	6.66
351.458	23.04
351.669	-34.3
351.881	16.9
352.093	-40.45
352.305	33.28
352.517	-34.3
352.728	-19.97
352.94	86.53
353.152	-5.63
353.363	-11.78
353.575	23.04
353.787	53.76
353.999	16.9
354.21	27.14
354.422	-32.26
354.633	18.94
354.845	84.48
355.057	31.23
355.268	-3.58
355.48	57.86
355.692	8.7
355.903	-38.4
356.115	-30.21
356.326	-32.26
356.538	78.33
356.749	23.04
356.961	59.9
357.172	74.24
357.384	16.9
357.595	41.47
357.807	66.05
358.018	8.7
358.23	31.23
358.441	35.33
358.653	12.8
358.864	-83.45
359.075	37.38
359.287	0.51
359.498	37.38
359.709	29.18
359.921	12.8
360.132	0.51
360.344	-1.54
360.555	-34.3
360.766	41.47
360.977	0.51
361.189	76.29
361.4	70.14
361.611	6.66
361.823	94.72
362.034	-15.87
362.245	29.18
362.456	61.95
362.667	-15.87
362.879	-1.54
363.09	41.47
363.301	61.95
363.512	-56.83
363.723	-42.5
363.935	-13.82
364.146	55.81
364.357	49.66
364.568	20.99
364.779	12.8
364.99	6.66
365.201	-69.12
365.412	0.51
365.623	16.9
365.834	-5.63
366.045	31.23
366.256	-7.68
366.467	-9.73
366.678	43.52
366.889	16.9
367.1	-24.06
367.311	33.28
367.522	61.95
367.733	78.33
367.944	68.09
368.155	-13.82
368.366	20.99
368.577	53.76
368.788	25.09
368.999	2.56
369.209	4.61
369.42	12.8
369.631	74.24
369.842	25.09
370.053	94.72
370.264	18.94
370.474	-42.5
370.685	66.05
370.896	55.81
371.107	27.14
371.317	-15.87
371.528	6.66
371.739	39.42
371.95	23.04
372.16	27.14
372.371	23.04
372.582	25.09
372.792	51.71
373.003	57.86
373.214	-28.16
373.424	23.04
373.635	2.56
373.846	0.51
374.056	8.7
374.267	78.33
374.477	-22.02
374.688	12.8
374.898	12.8
375.109	59.9
375.319	-24.06
375.53	-1.54
375.74	-15.87
375.951	-17.92
376.161	31.23
376.372	-15.87
376.582	14.85
376.793	-26.11
377.003	-52.74
377.214	39.42
377.424	47.62
377.635	14.85
377.845	-54.78
378.055	14.85
378.266	-85.5
378.476	43.52
378.686	-24.06
378.897	4.61
379.107	-5.63
379.317	-19.97
379.528	82.43
379.738	41.47
379.948	-58.88
380.158	94.72
380.369	66.05
380.579	72.19
380.789	6.66
380.999	-7.68
381.21	139.77
381.42	43.52
381.63	-128.51
381.84	51.71
382.05	41.47
382.261	61.95
382.471	72.19
382.681	-7.68
382.891	68.09
383.101	10.75
383.311	-9.73
383.521	49.66
383.731	59.9
383.941	55.81
384.151	2.56
384.361	8.7
384.571	51.71
384.781	10.75
384.991	135.68
385.201	74.24
385.411	6.66
385.621	68.09
385.831	27.14
386.041	59.9
386.251	-30.21
386.461	64
386.671	37.38
386.881	20.99
387.091	45.57
387.301	-71.17
387.511	64
387.72	18.94
387.93	10.75
388.14	18.94
388.35	53.76
388.56	84.48
388.769	72.19
388.979	35.33
389.189	23.04
389.399	2.56
389.609	16.9
389.818	23.04
390.028	18.94
390.238	47.62
390.447	45.57
390.657	80.38
390.867	25.09
391.076	18.94
391.286	18.94
391.496	-34.3
391.705	-28.16
391.915	74.24
392.125	82.43
392.334	23.04
392.544	78.33
392.753	47.62
392.963	-1.54
393.172	23.04
393.382	43.52
393.591	82.43
393.801	66.05
394.01	45.57
394.22	20.99
394.429	33.28
394.639	49.66
394.848	43.52
395.058	29.18
395.267	45.57
395.477	96.77
395.686	61.95
395.895	59.9
396.105	98.81
396.314	-3.58
396.524	70.14
396.733	23.04
396.942	64
397.152	47.62
397.361	154.11
397.57	-36.35
397.78	37.38
397.989	31.23
398.198	84.48
398.407	84.48
398.617	66.05
398.826	53.76
399.035	33.28
399.244	41.47
399.453	80.38
399.663	-1.54
399.872	94.72
400.081	31.23
400.29	68.09
400.499	16.9
400.708	16.9
400.917	0.51
401.127	35.33
401.336	59.9
401.545	86.53
401.754	41.47
401.963	39.42
402.172	117.25
402.381	-1.54
402.59	80.38
402.799	59.9
403.008	70.14
403.217	109.05
403.426	119.29
403.635	100.86
403.844	27.14
404.053	84.48
404.262	82.43
404.471	121.34
404.68	113.15
404.888	113.15
405.097	68.09
405.306	100.86
405.515	72.19
405.724	66.05
405.933	-11.78
406.142	76.29
406.35	39.42
406.559	82.43
406.768	64
406.977	186.88
407.185	170.49
407.394	162.3
407.603	143.87
407.812	158.21
408.02	102.91
408.229	197.12
408.438	154.11
408.646	147.97
408.855	180.73
409.064	199.16
409.272	141.82
409.481	219.64
409.69	139.77
409.898	172.54
410.107	174.59
410.315	256.51
410.524	158.21
410.733	244.22
410.941	164.35
411.15	219.64
411.358	143.87
411.567	240.12
411.775	244.22
411.984	293.37
412.192	266.75
412.401	209.4
412.609	238.08
412.818	236.03
413.026	387.58
413.234	360.95
413.443	334.33
413.651	377.34
413.86	408.06
414.068	346.62
414.276	475.64
414.485	354.81
414.693	418.3
414.901	522.74
415.11	485.88
415.318	438.78
415.526	524.79
415.734	483.83
415.943	545.27
416.151	586.23
416.359	553.46
416.567	500.22
416.776	594.42
416.984	649.72
417.192	711.16
417.4	524.79
417.608	629.24
417.817	649.72
418.025	737.78
418.233	780.79
418.441	727.54
418.649	850.42
418.857	831.99
419.065	883.19
419.273	903.67
419.481	852.47
419.689	991.73
419.897	958.96
420.105	1042.93
420.313	1010.16
420.521	1126.89
420.729	1118.7
420.937	1055.22
421.145	1081.84
421.353	1081.84
421.561	1223.15
421.769	1274.35
421.977	1425.9
422.185	1335.79
422.393	1423.85
422.601	1520.1
422.809	1507.82
423.017	1489.39
423.224	1571.3
423.432	1692.13
423.64	1653.22
423.848	1843.68
424.056	1778.15
424.263	1933.79
424.471	1907.17
424.679	1931.75
424.887	2036.19
425.094	2081.25
425.302	2140.64
425.51	2073.06
425.718	2208.22
425.925	2281.95
426.133	2220.51
426.341	2445.79
426.548	2554.33
426.756	2595.29
426.964	2683.35
427.171	2802.13
427.379	2920.92
427.586	2890.2
427.794	3025.36
428.001	3092.94
428.209	3326.41
428.417	3076.56
428.624	3473.87
428.832	3512.78
429.039	3387.85
429.247	3578.31
429.454	3893.7
429.662	3963.33
429.869	3770.82
430.076	4108.74
430.284	3832.26
430.491	4100.55
430.699	4360.64
430.906	4364.73
431.114	4338.11
431.321	4592.06
431.528	4829.62
431.736	4921.78
431.943	5253.55
432.15	4895.16
432.358	4977.08
432.565	5276.08
432.772	5192.11
432.979	5599.66
433.187	5611.95
433.394	5708.2
433.601	6187.43
433.808	6181.28
434.016	6113.7
434.223	6263.2
434.43	6828.44
434.637	6685.08
434.844	6900.12
435.052	7188.88
435.259	7094.68
435.466	7170.45
435.673	7190.93
435.88	7772.55
436.087	8120.71
436.294	8073.6
436.501	7973.25
436.708	7872.9
436.915	8319.36
437.122	8751.48
437.329	8810.87
437.537	8962.42
437.743	9056.63
437.95	9249.14
438.157	9421.17
438.364	9822.57
438.571	9697.64
438.778	9787.75
438.985	10836.31
439.192	10203.49
439.399	10598.75
439.606	10420.58
439.813	11024.73
440.02	11755.85
440.227	11360.59
440.433	11297.11
440.64	11931.98
440.847	11694.41
441.054	11966.79
441.261	12654.91
441.467	12642.62
441.674	12636.48
441.881	13381.94
442.088	13179.19
442.294	13250.87
442.501	13543.73
442.708	13844.78
442.914	14594.34
443.121	14979.36
443.328	14432.55
443.534	15755.54
443.741	15016.22
443.948	14977.31
444.154	16189.7
444.361	16089.35
444.568	16005.39
444.774	16204.04
444.981	16503.04
445.187	16834.82
445.394	17584.37
445.6	17162.49
445.807	18999.52
446.013	18186.47
446.22	18493.67
446.426	19300.57
446.633	19302.62
446.839	19794.13
447.046	19120.35
447.252	20289.74
447.459	20308.17
447.665	20205.77
447.871	21190.84
448.078	22098.09
448.284	20850.88
448.491	21604.53
448.697	22493.35
448.903	22851.75
449.11	22904.99
449.316	22784.16
449.522	23044.26
449.728	23550.1
449.935	23586.97
450.141	23578.78
450.347	24533.13
450.553	23494.81
450.76	23711.89
450.966	24406.16
451.172	24639.62
451.378	24983.68
451.584	24535.18
451.791	25145.47
451.997	24848.52
452.203	25710.71
452.409	25491.58
452.615	25497.72
452.821	24541.32
453.027	24322.19
453.233	25264.25
453.44	24529.03
453.646	25026.69
453.852	25034.88
454.058	25376.89
454.264	24531.08
454.47	25268.35
454.676	24357
454.882	25288.83
455.088	23173.28
455.294	23490.71
455.5	23531.67
455.705	24002.71
455.911	22982.82
456.117	22747.3
456.323	22155.44
456.529	21199.04
456.735	22300.84
456.941	21235.9
457.147	21188.8
457.352	20705.48
457.558	19962.06
457.764	20332.75
457.97	20254.92
458.176	19423.45
458.381	19589.33
458.587	18409.7
458.793	18563.3
458.999	17619.19
459.204	19149.02
459.41	18227.43
459.616	16859.39
459.821	17154.3
460.027	17088.76
460.233	16761.09
460.438	15960.33
460.644	16179.47
460.85	15339.8
461.055	14997.79
461.261	15040.79
461.466	14119.21
461.672	13588.78
461.878	14500.13
462.083	13527.35
462.289	13482.29
462.494	13189.43
462.7	12525.89
462.905	12464.45
463.111	12601.66
463.316	12648.77
463.522	12431.68
463.727	12390.72
463.932	12517.7
464.138	12446.02
464.343	12329.28
464.549	11999.56
464.754	12222.79
464.959	12251.46
465.165	12282.18
465.37	11665.74
465.575	11280.72
465.781	11743.56
465.986	11790.67
466.191	11540.82
466.397	11217.24
466.602	10860.89
466.807	11182.42
467.012	11182.42
467.218	11114.84
467.423	11037.02
467.628	11012.44
467.833	11675.98
