Data from USB4F104151__44__12-27-25-053.txt Node

Date: Fri Mar 14 12:27:25 EDT 2025
User: louis
Spectrometer: USB4F10415
Trigger mode: 4
Integration Time (sec): 2.000000E-2
Scans to average: 1
Electric dark correction enabled: true
Nonlinearity correction enabled: false
Boxcar width: 0
XAxis mode: Wavelengths
Number of Pixels in Spectrum: 3648
>>>>>Begin Spectral Data<<<<<
178.204	-120.83
178.424	-120.83
178.644	-120.83
178.864	-165.89
179.084	-30.72
179.304	26.62
179.524	-30.72
179.744	22.53
179.964	-18.43
180.184	-14.34
180.404	49.15
180.624	32.77
180.844	-22.53
181.064	4.1
181.283	22.53
181.503	-47.1
181.723	-24.58
181.943	-4.1
182.163	43.01
182.383	-10.24
182.602	-32.77
182.822	40.96
183.042	30.72
183.262	-102.4
183.482	22.53
183.701	32.77
183.921	59.39
184.141	-8.19
184.361	30.72
184.58	18.43
184.8	-34.82
185.02	75.77
185.239	43.01
185.459	-2.05
185.679	61.44
185.898	4.1
186.118	-12.29
186.338	-10.24
186.557	104.45
186.777	-38.91
186.997	59.39
187.216	83.97
187.436	73.73
187.655	14.34
187.875	36.86
188.095	38.91
188.314	10.24
188.534	36.86
188.753	61.44
188.973	-36.86
189.192	-45.06
189.412	10.24
189.631	30.72
189.851	43.01
190.07	-4.1
190.29	6.14
190.509	47.1
190.729	-61.44
190.948	-16.38
191.168	55.3
191.387	53.25
191.607	-4.1
191.826	-2.05
192.045	-26.62
192.265	104.45
192.484	-47.1
192.704	61.44
192.923	26.62
193.142	96.25
193.362	32.77
193.581	77.82
193.8	2.05
194.02	12.29
194.239	8.19
194.458	-14.34
194.678	4.1
194.897	45.06
195.116	0
195.335	-10.24
195.555	28.67
195.774	12.29
195.993	47.1
196.212	-4.1
196.432	22.53
196.651	-36.86
196.87	-34.82
197.089	102.4
197.308	86.01
197.528	-20.48
197.747	-6.14
197.966	57.34
198.185	67.58
198.404	40.96
198.623	63.49
198.842	2.05
199.062	49.15
199.281	14.34
199.5	38.91
199.719	43.01
199.938	61.44
200.157	34.82
200.376	26.62
200.595	10.24
200.814	-4.1
201.033	14.34
201.252	69.63
201.471	32.77
201.69	26.62
201.909	-20.48
202.128	73.73
202.347	51.2
202.566	71.68
202.785	10.24
203.004	24.58
203.223	96.25
203.442	16.38
203.661	-67.58
203.879	22.53
204.098	75.77
204.317	75.77
204.536	81.92
204.755	-43.01
204.974	94.21
205.193	16.38
205.411	102.4
205.63	-8.19
205.849	51.2
206.068	36.86
206.287	51.2
206.505	59.39
206.724	71.68
206.943	55.3
207.162	59.39
207.381	-34.82
207.599	49.15
207.818	-20.48
208.037	-49.15
208.255	-2.05
208.474	40.96
208.693	-30.72
208.911	38.91
209.13	-34.82
209.349	57.34
209.567	-12.29
209.786	88.06
210.005	-6.14
210.223	12.29
210.442	10.24
210.661	61.44
210.879	77.82
211.098	55.3
211.316	-43.01
211.535	51.2
211.753	-47.1
211.972	-12.29
212.191	-69.63
212.409	65.54
212.628	-10.24
212.846	-4.1
213.065	55.3
213.283	92.16
213.502	0
213.72	-57.34
213.938	10.24
214.157	-8.19
214.375	-22.53
214.594	22.53
214.812	38.91
215.031	-12.29
215.249	-30.72
215.467	-26.62
215.686	12.29
215.904	32.77
216.122	-73.73
216.341	81.92
216.559	38.91
216.778	94.21
216.996	51.2
217.214	51.2
217.432	-61.44
217.651	36.86
217.869	67.58
218.087	4.1
218.306	-14.34
218.524	53.25
218.742	94.21
218.96	96.25
219.179	18.43
219.397	-6.14
219.615	49.15
219.833	108.54
220.051	30.72
220.27	63.49
220.488	-14.34
220.706	40.96
220.924	28.67
221.142	55.3
221.36	67.58
221.578	92.16
221.796	16.38
222.015	-28.67
222.233	47.1
222.451	96.25
222.669	-18.43
222.887	24.58
223.105	36.86
223.323	-40.96
223.541	61.44
223.759	10.24
223.977	88.06
224.195	24.58
224.413	47.1
224.631	49.15
224.849	12.29
225.067	-12.29
225.285	8.19
225.503	26.62
225.721	-20.48
225.939	22.53
226.157	-4.1
226.375	92.16
226.592	-28.67
226.81	-49.15
227.028	-8.19
227.246	110.59
227.464	18.43
227.682	67.58
227.9	6.14
228.117	-14.34
228.335	129.02
228.553	55.3
228.771	-16.38
228.989	45.06
229.206	59.39
229.424	36.86
229.642	-4.1
229.86	12.29
230.077	30.72
230.295	38.91
230.513	40.96
230.731	90.11
230.948	-6.14
231.166	-2.05
231.384	71.68
231.601	43.01
231.819	10.24
232.037	38.91
232.254	4.1
232.472	28.67
232.689	18.43
232.907	10.24
233.125	-8.19
233.342	14.34
233.56	22.53
233.777	2.05
233.995	59.39
234.213	16.38
234.43	6.14
234.648	81.92
234.865	79.87
235.083	61.44
235.3	-6.14
235.518	26.62
235.735	57.34
235.953	53.25
236.17	-4.1
236.388	43.01
236.605	65.54
236.822	43.01
237.04	-8.19
237.257	24.58
237.475	-6.14
237.692	43.01
237.909	22.53
238.127	34.82
238.344	22.53
238.562	2.05
238.779	-67.58
238.996	-12.29
239.214	-34.82
239.431	45.06
239.648	47.1
239.865	40.96
240.083	-51.2
240.3	-14.34
240.517	75.77
240.735	0
240.952	43.01
241.169	38.91
241.386	-6.14
241.603	40.96
241.821	18.43
242.038	43.01
242.255	18.43
242.472	-8.19
242.689	43.01
242.907	77.82
243.124	92.16
243.341	-30.72
243.558	10.24
243.775	65.54
243.992	22.53
244.209	40.96
244.426	51.2
244.643	90.11
244.86	-18.43
245.078	4.1
245.295	55.3
245.512	0
245.729	6.14
245.946	94.21
246.163	75.77
246.38	14.34
246.597	-28.67
246.814	55.3
247.031	26.62
247.248	36.86
247.464	18.43
247.681	34.82
247.898	81.92
248.115	24.58
248.332	-57.34
248.549	38.91
248.766	4.1
248.983	-10.24
249.2	22.53
249.417	88.06
249.633	-36.86
249.85	14.34
250.067	49.15
250.284	34.82
250.501	22.53
250.717	-8.19
250.934	-12.29
251.151	106.49
251.368	30.72
251.585	65.54
251.801	83.97
252.018	12.29
252.235	36.86
252.451	38.91
252.668	-26.62
252.885	32.77
253.102	10.24
253.318	6.14
253.535	-22.53
253.752	-10.24
253.968	38.91
254.185	24.58
254.401	30.72
254.618	47.1
254.835	4.1
255.051	57.34
255.268	28.67
255.484	16.38
255.701	57.34
255.917	88.06
256.134	32.77
256.351	24.58
256.567	-30.72
256.784	36.86
257	61.44
257.217	65.54
257.433	75.77
257.65	40.96
257.866	-4.1
258.082	-20.48
258.299	0
258.515	-12.29
258.732	-8.19
258.948	34.82
259.165	-10.24
259.381	53.25
259.597	24.58
259.814	16.38
260.03	10.24
260.246	-12.29
260.463	10.24
260.679	-28.67
260.895	-28.67
261.112	102.4
261.328	55.3
261.544	-2.05
261.761	45.06
261.977	45.06
262.193	-47.1
262.409	65.54
262.626	47.1
262.842	45.06
263.058	59.39
263.274	30.72
263.49	28.67
263.707	38.91
263.923	22.53
264.139	-16.38
264.355	24.58
264.571	120.83
264.787	24.58
265.004	40.96
265.22	4.1
265.436	36.86
265.652	8.19
265.868	16.38
266.084	26.62
266.3	69.63
266.516	-8.19
266.732	63.49
266.948	59.39
267.164	8.19
267.38	-12.29
267.596	6.14
267.812	6.14
268.028	65.54
268.244	10.24
268.46	-28.67
268.676	-24.58
268.892	28.67
269.108	14.34
269.324	10.24
269.54	40.96
269.756	53.25
269.972	-28.67
270.188	28.67
270.403	-36.86
270.619	30.72
270.835	-14.34
271.051	77.82
271.267	69.63
271.483	34.82
271.698	40.96
271.914	8.19
272.13	75.77
272.346	59.39
272.562	-22.53
272.777	30.72
272.993	40.96
273.209	10.24
273.425	36.86
273.64	24.58
273.856	8.19
274.072	-20.48
274.287	16.38
274.503	-36.86
274.719	36.86
274.934	34.82
275.15	47.1
275.366	67.58
275.581	10.24
275.797	12.29
276.012	4.1
276.228	12.29
276.444	20.48
276.659	51.2
276.875	-10.24
277.09	38.91
277.306	-14.34
277.521	22.53
277.737	-12.29
277.952	51.2
278.168	-14.34
278.383	-2.05
278.599	28.67
278.814	75.77
279.03	-34.82
279.245	51.2
279.461	63.49
279.676	-4.1
279.892	-30.72
280.107	-18.43
280.322	6.14
280.538	47.1
280.753	-57.34
280.969	126.97
281.184	30.72
281.399	-65.53
281.615	34.82
281.83	12.29
282.045	22.53
282.26	4.1
282.476	40.96
282.691	73.73
282.906	26.62
283.122	24.58
283.337	22.53
283.552	114.69
283.767	-6.14
283.983	40.96
284.198	-30.72
284.413	47.1
284.628	18.43
284.843	92.16
285.058	38.91
285.274	-24.58
285.489	-6.14
285.704	36.86
285.919	51.2
286.134	-2.05
286.349	75.77
286.564	26.62
286.779	24.58
286.995	16.38
287.21	67.58
287.425	-28.67
287.64	14.34
287.855	34.82
288.07	-12.29
288.285	63.49
288.5	-20.48
288.715	22.53
288.93	-12.29
289.145	-20.48
289.36	-45.06
289.575	20.48
289.79	137.21
290.004	51.2
290.219	104.45
290.434	30.72
290.649	4.1
290.864	65.54
291.079	63.49
291.294	18.43
291.509	30.72
291.724	-10.24
291.938	71.68
292.153	22.53
292.368	36.86
292.583	43.01
292.798	20.48
293.012	28.67
293.227	24.58
293.442	14.34
293.657	26.62
293.871	131.07
294.086	0
294.301	10.24
294.516	159.74
294.73	14.34
294.945	59.39
295.16	-10.24
295.374	65.54
295.589	28.67
295.804	8.19
296.018	45.06
296.233	65.54
296.447	36.86
296.662	45.06
296.877	71.68
297.091	45.06
297.306	94.21
297.52	14.34
297.735	51.2
297.949	2.05
298.164	36.86
298.378	43.01
298.593	-22.53
298.807	8.19
299.022	81.92
299.236	32.77
299.451	77.82
299.665	-4.1
299.88	59.39
300.094	-51.2
300.309	28.67
300.523	2.05
300.737	-55.3
300.952	-22.53
301.166	45.06
301.381	0
301.595	-18.43
301.809	6.14
302.024	30.72
302.238	49.15
302.452	-14.34
302.667	-86.01
302.881	73.73
303.095	30.72
303.309	30.72
303.524	14.34
303.738	-14.34
303.952	55.3
304.166	-14.34
304.381	-57.34
304.595	57.34
304.809	-67.58
305.023	43.01
305.237	53.25
305.452	24.58
305.666	55.3
305.88	79.87
306.094	8.19
306.308	67.58
306.522	47.1
306.736	20.48
306.95	24.58
307.164	-20.48
307.379	6.14
307.593	102.4
307.807	75.77
308.021	61.44
308.235	-30.72
308.449	28.67
308.663	94.21
308.877	4.1
309.091	94.21
309.305	16.38
309.519	-2.05
309.733	24.58
309.947	-30.72
310.161	-6.14
310.374	8.19
310.588	96.25
310.802	30.72
311.016	-10.24
311.23	67.58
311.444	-4.1
311.658	6.14
311.872	22.53
312.085	92.16
312.299	-12.29
312.513	24.58
312.727	8.19
312.941	12.29
313.154	92.16
313.368	-16.38
313.582	75.77
313.796	10.24
314.009	-38.91
314.223	69.63
314.437	-24.58
314.651	4.1
314.864	51.2
315.078	-2.05
315.292	6.14
315.505	38.91
315.719	16.38
315.933	100.35
316.146	20.48
316.36	16.38
316.573	32.77
316.787	22.53
317.001	71.68
317.214	6.14
317.428	77.82
317.641	-20.48
317.855	63.49
318.068	20.48
318.282	18.43
318.495	69.63
318.709	-26.62
318.922	61.44
319.136	75.77
319.349	14.34
319.563	53.25
319.776	45.06
319.99	36.86
320.203	18.43
320.417	53.25
320.63	77.82
320.843	83.97
321.057	67.58
321.27	-30.72
321.483	59.39
321.697	-30.72
321.91	16.38
322.124	43.01
322.337	112.64
322.55	-4.1
322.763	55.3
322.977	106.49
323.19	4.1
323.403	18.43
323.617	2.05
323.83	61.44
324.043	18.43
324.256	34.82
324.469	6.14
324.683	26.62
324.896	8.19
325.109	49.15
325.322	-49.15
325.535	55.3
325.748	28.67
325.962	40.96
326.175	6.14
326.388	26.62
326.601	57.34
326.814	-75.77
327.027	12.29
327.24	83.97
327.453	-55.3
327.666	57.34
327.879	79.87
328.092	-40.96
328.305	-24.58
328.518	6.14
328.731	16.38
328.944	45.06
329.157	88.06
329.37	40.96
329.583	61.44
329.796	49.15
330.009	-4.1
330.222	81.92
330.435	79.87
330.648	-47.1
330.861	-4.1
331.073	47.1
331.286	96.25
331.499	38.91
331.712	4.1
331.925	-26.62
332.138	-10.24
332.35	24.58
332.563	88.06
332.776	-14.34
332.989	-34.82
333.202	-4.1
333.414	22.53
333.627	77.82
333.84	30.72
334.053	36.86
334.265	49.15
334.478	71.68
334.691	22.53
334.903	6.14
335.116	24.58
335.329	20.48
335.541	47.1
335.754	38.91
335.966	32.77
336.179	92.16
336.392	61.44
336.604	45.06
336.817	40.96
337.029	24.58
337.242	65.54
337.454	34.82
337.667	88.06
337.88	77.82
338.092	22.53
338.305	71.68
338.517	49.15
338.729	69.63
338.942	28.67
339.154	26.62
339.367	22.53
339.579	45.06
339.792	-38.91
340.004	40.96
340.217	0
340.429	30.72
340.641	59.39
340.854	-4.1
341.066	94.21
341.278	10.24
341.491	73.73
341.703	47.1
341.915	-2.05
342.128	12.29
342.34	20.48
342.552	71.68
342.764	2.05
342.977	0
343.189	96.25
343.401	34.82
343.613	-22.53
343.826	63.49
344.038	14.34
344.25	6.14
344.462	32.77
344.674	-4.1
344.886	40.96
345.099	104.45
345.311	24.58
345.523	-67.58
345.735	-34.82
345.947	28.67
346.159	-32.77
346.371	45.06
346.583	75.77
346.795	53.25
347.007	22.53
347.219	61.44
347.431	8.19
347.643	57.34
347.855	10.24
348.067	26.62
348.279	-53.25
348.491	69.63
348.703	106.49
348.915	90.11
349.127	34.82
349.339	65.54
349.551	36.86
349.763	63.49
349.975	65.54
350.187	38.91
350.399	-32.77
350.61	55.3
350.822	-26.62
351.034	45.06
351.246	-6.14
351.458	32.77
351.669	28.67
351.881	71.68
352.093	57.34
352.305	2.05
352.517	-22.53
352.728	94.21
352.94	67.58
353.152	28.67
353.363	16.38
353.575	53.25
353.787	65.54
353.999	61.44
354.21	22.53
354.422	24.58
354.633	40.96
354.845	57.34
355.057	98.3
355.268	51.2
355.48	49.15
355.692	2.05
355.903	38.91
356.115	28.67
356.326	-20.48
356.538	75.77
356.749	32.77
356.961	126.97
357.172	-8.19
357.384	28.67
357.595	63.49
357.807	61.44
358.018	67.58
358.23	57.34
358.441	53.25
358.653	26.62
358.864	45.06
359.075	22.53
359.287	22.53
359.498	67.58
359.709	71.68
359.921	61.44
360.132	36.86
360.344	75.77
360.555	28.67
360.766	18.43
360.977	6.14
361.189	79.87
361.4	28.67
361.611	24.58
361.823	8.19
362.034	-20.48
362.245	22.53
362.456	49.15
362.667	126.97
362.879	22.53
363.09	34.82
363.301	53.25
363.512	-4.1
363.723	53.25
363.935	12.29
364.146	55.3
364.357	18.43
364.568	0
364.779	94.21
364.99	65.54
365.201	40.96
365.412	55.3
365.623	12.29
365.834	10.24
366.045	77.82
366.256	32.77
366.467	-18.43
366.678	45.06
366.889	22.53
367.1	40.96
367.311	32.77
367.522	43.01
367.733	24.58
367.944	45.06
368.155	22.53
368.366	-12.29
368.577	-14.34
368.788	22.53
368.999	36.86
369.209	28.67
369.42	-10.24
369.631	65.54
369.842	53.25
370.053	38.91
370.264	100.35
370.474	24.58
370.685	51.2
370.896	26.62
371.107	24.58
371.317	61.44
371.528	45.06
371.739	86.01
371.95	34.82
372.16	26.62
372.371	20.48
372.582	51.2
372.792	57.34
373.003	20.48
373.214	36.86
373.424	96.25
373.635	0
373.846	92.16
374.056	34.82
374.267	8.19
374.477	47.1
374.688	73.73
374.898	20.48
375.109	139.26
375.319	75.77
375.53	67.58
375.74	45.06
375.951	36.86
376.161	59.39
376.372	90.11
376.582	88.06
376.793	2.05
377.003	0
377.214	32.77
377.424	47.1
377.635	104.45
377.845	135.17
378.055	86.01
378.266	12.29
378.476	32.77
378.686	8.19
378.897	38.91
379.107	47.1
379.317	116.73
379.528	-20.48
379.738	59.39
379.948	30.72
380.158	122.88
380.369	38.91
380.579	69.63
380.789	40.96
380.999	133.12
381.21	43.01
381.42	49.15
381.63	55.3
381.84	51.2
382.05	34.82
382.261	22.53
382.471	126.97
382.681	43.01
382.891	-32.77
383.101	67.58
383.311	10.24
383.521	36.86
383.731	67.58
383.941	36.86
384.151	69.63
384.361	32.77
384.571	8.19
384.781	102.4
384.991	4.1
385.201	116.73
385.411	-18.43
385.621	86.01
385.831	43.01
386.041	30.72
386.251	8.19
386.461	49.15
386.671	49.15
386.881	18.43
387.091	16.38
387.301	86.01
387.511	10.24
387.72	47.1
387.93	73.73
388.14	-18.43
388.35	92.16
388.56	102.4
388.769	0
388.979	36.86
389.189	51.2
389.399	24.58
389.609	34.82
389.818	43.01
390.028	163.84
390.238	131.07
390.447	102.4
390.657	51.2
390.867	96.25
391.076	2.05
391.286	61.44
391.496	0
391.705	34.82
391.915	67.58
392.125	-24.58
392.334	92.16
392.544	90.11
392.753	38.91
392.963	-6.14
393.172	90.11
393.382	38.91
393.591	176.13
393.801	182.27
394.01	116.73
394.22	53.25
394.429	38.91
394.639	2.05
394.848	172.03
395.058	131.07
395.267	63.49
395.477	102.4
395.686	124.93
395.895	53.25
396.105	92.16
396.314	65.54
396.524	65.54
396.733	-81.92
396.942	49.15
397.152	83.97
397.361	90.11
397.57	98.3
397.78	12.29
397.989	90.11
398.198	24.58
398.407	94.21
398.617	106.49
398.826	51.2
399.035	36.86
399.244	71.68
399.453	159.74
399.663	65.54
399.872	59.39
400.081	75.77
400.29	53.25
400.499	75.77
400.708	77.82
400.917	88.06
401.127	131.07
401.336	159.74
401.545	102.4
401.754	118.78
401.963	174.08
402.172	112.64
402.381	163.84
402.59	118.78
402.799	102.4
403.008	124.93
403.217	165.89
403.426	147.45
403.635	81.92
403.844	153.6
404.053	61.44
404.262	194.56
404.471	182.27
404.68	124.93
404.888	149.5
405.097	149.5
405.306	96.25
405.515	141.31
405.724	202.75
405.933	229.37
406.142	157.69
406.35	163.84
406.559	172.03
406.768	118.78
406.977	256
407.185	167.93
407.394	172.03
407.603	149.5
407.812	212.99
408.02	235.52
408.229	227.32
408.438	159.74
408.646	208.89
408.855	229.37
409.064	301.05
409.272	176.13
409.481	206.84
409.69	229.37
409.898	235.52
410.107	290.81
410.315	266.24
410.524	262.14
410.733	299
410.941	325.63
411.15	364.54
411.358	360.44
411.567	399.35
411.775	362.49
411.984	391.16
412.192	344.06
412.401	391.16
412.609	352.25
412.818	520.18
413.026	409.59
413.234	389.11
413.443	471.03
413.651	430.07
413.86	491.51
414.068	511.99
414.276	583.67
414.485	567.29
414.693	622.58
414.901	616.44
415.11	585.72
415.318	638.97
415.526	630.77
415.734	677.88
415.943	710.65
416.151	796.66
416.359	722.93
416.567	747.51
416.776	806.9
416.984	827.38
417.192	897.01
417.4	944.11
417.608	851.96
417.817	935.92
418.025	997.36
418.233	966.64
418.441	1079.28
418.649	1042.42
418.857	1161.2
419.065	1091.57
419.273	1220.59
419.481	1120.24
419.689	1390.57
419.897	1396.71
420.105	1355.76
420.313	1421.29
420.521	1540.07
420.729	1421.29
420.937	1632.23
421.145	1607.66
421.353	1656.81
421.561	1775.59
421.769	1683.43
421.977	1785.83
422.185	1818.6
422.393	2039.78
422.601	1992.67
422.809	2066.4
423.017	2107.36
423.224	2162.65
423.432	2275.29
423.64	2318.3
423.848	2351.07
424.056	2308.06
424.263	2498.52
424.471	2631.64
424.679	2676.7
424.887	2785.24
425.094	2869.2
425.302	2701.27
425.51	3008.47
425.718	3057.62
425.925	3184.59
426.133	3231.69
426.341	3413.96
426.548	3637.19
426.756	3653.58
426.964	3596.23
427.171	3753.93
427.379	3846.09
427.586	4083.65
427.794	4167.62
428.001	4284.35
428.209	4489.15
428.417	4423.61
428.624	4739
428.832	4845.49
429.039	4667.32
429.247	4632.51
429.454	5238.7
429.662	5443.5
429.869	5201.84
430.076	5586.86
430.284	5304.24
430.491	5572.52
430.699	5998.5
430.906	5926.82
431.114	6111.14
431.321	6180.77
431.528	6340.51
431.736	6623.13
431.943	7094.16
432.15	6746.01
432.358	6844.31
432.565	7415.69
432.772	7165.84
432.979	7733.13
433.187	7696.27
433.394	7823.24
433.601	8327.04
433.808	8335.23
434.016	8447.87
434.223	8646.52
434.43	9305.97
434.637	8951.67
434.844	9654.12
435.052	9754.48
435.259	9670.51
435.466	9834.35
435.673	9877.35
435.88	10332
436.087	10866.52
436.294	10803.04
436.501	10682.2
436.708	10934.11
436.915	11151.19
437.122	11587.41
437.329	11831.12
437.537	12156.74
437.743	12259.14
437.95	12218.18
438.157	12879.68
438.364	13285.17
438.571	13313.84
438.778	13510.45
438.985	14804.77
439.192	13848.36
439.399	14432.04
439.606	14274.34
439.813	14976.8
440.02	15609.62
440.227	15695.63
440.433	15341.33
440.64	16183.05
440.847	15992.59
441.054	16389.89
441.261	17245.94
441.467	17145.59
441.674	17559.28
441.881	18409.19
442.088	17905.39
442.294	18034.41
442.501	18220.78
442.708	18560.74
442.914	19762.9
443.121	20197.07
443.328	19869.39
443.534	21305.02
443.741	20491.98
443.948	20291.27
444.154	21833.39
444.361	21661.37
444.568	21823.15
444.774	22056.62
444.981	22220.46
445.187	23031.46
445.394	23731.86
445.6	23522.97
445.807	25712.25
446.013	24333.96
446.22	25108.1
446.426	26054.26
446.633	26254.96
446.839	27256.42
447.046	25826.93
447.252	27426.4
447.459	27602.52
447.665	27457.12
447.871	28843.59
448.078	29855.29
448.284	28302.93
448.491	29093.44
448.697	30443.06
448.903	31344.16
449.11	31192.61
449.316	30512.69
449.522	31096.36
449.728	31725.08
449.935	32347.67
450.141	31899.16
450.347	33187.33
450.553	32040.47
450.76	32634.38
450.966	33428.99
451.172	33000.97
451.378	34080.25
451.584	32847.37
451.791	33961.47
451.997	33900.03
452.203	34866.67
452.409	34833.9
452.615	34387.44
452.821	33314.31
453.027	32814.6
453.233	34369.01
453.44	33265.16
453.646	33895.93
453.852	33652.22
454.058	34389.49
454.264	33361.41
454.47	34129.4
454.676	32865.8
454.882	34383.35
455.088	31102.5
455.294	31573.53
455.5	32222.74
455.705	32452.11
455.911	31464.99
456.117	30774.83
456.323	30015.03
456.529	28886.6
456.735	30148.15
456.941	28962.37
457.147	28587.6
457.352	27727.45
457.558	27285.09
457.764	27610.71
457.97	27143.78
458.176	26379.89
458.381	26275.44
458.587	25474.68
458.793	25304.7
458.999	23893.65
459.204	25708.15
459.41	24669.83
459.616	23289.5
459.821	23295.64
460.027	23010.98
460.233	22759.08
460.438	21534.39
460.644	22103.73
460.85	20557.51
461.055	20422.34
461.261	20240.08
461.466	18992.86
461.672	18431.72
461.878	19613.4
462.083	18441.96
462.289	17983.21
462.494	17751.79
462.7	17284.86
462.905	16520.96
463.111	17147.64
463.316	17190.65
463.522	16873.21
463.727	16711.42
463.932	17004.28
464.138	16559.88
464.343	16639.75
464.549	16183.05
464.754	16811.78
464.959	16545.54
465.165	16600.83
465.37	15791.89
465.575	15324.95
465.781	16193.29
465.986	16084.75
466.191	15482.64
466.397	15134.49
466.602	14667.55
466.807	15054.62
467.012	14962.46
467.218	15091.48
467.423	14739.23
467.628	14907.16
467.833	15722.26
468.038	14733.09
468.244	14595.87
468.449	14892.83
