Data from USB4F104151__78__12-27-52-191.txt Node

Date: Fri Mar 14 12:27:52 EDT 2025
User: louis
Spectrometer: USB4F10415
Trigger mode: 4
Integration Time (sec): 2.000000E-2
Scans to average: 1
Electric dark correction enabled: true
Nonlinearity correction enabled: false
Boxcar width: 0
XAxis mode: Wavelengths
Number of Pixels in Spectrum: 3648
>>>>>Begin Spectral Data<<<<<
178.204	-84.48
178.424	-84.48
178.644	-84.48
178.864	-133.63
179.084	-96.77
179.304	1.54
179.524	-72.19
179.744	-43.52
179.964	-2.56
180.184	50.69
180.404	7.68
180.624	46.59
180.844	15.87
181.064	9.73
181.283	54.78
181.503	-16.9
181.723	-51.71
181.943	-76.29
182.163	-16.9
182.383	34.3
182.602	11.78
182.822	118.27
183.042	9.73
183.262	-20.99
183.482	22.02
183.701	-33.28
183.921	5.63
184.141	-41.47
184.361	-33.28
184.58	24.06
184.8	-41.47
185.02	-8.7
185.239	83.45
185.459	-20.99
185.679	-4.61
185.898	-66.05
186.118	-31.23
186.338	42.5
186.557	-49.66
186.777	-18.94
186.997	1.54
187.216	-29.18
187.436	44.54
187.655	3.58
187.875	28.16
188.095	-45.57
188.314	1.54
188.534	69.12
188.753	62.98
188.973	-33.28
189.192	9.73
189.412	-16.9
189.631	26.11
189.851	46.59
190.07	-0.51
190.29	-16.9
190.509	17.92
190.729	38.4
190.948	-12.8
191.168	81.41
191.387	62.98
191.607	26.11
191.826	-4.61
192.045	-35.33
192.265	-20.99
192.484	24.06
192.704	54.78
192.923	-45.57
193.142	85.5
193.362	19.97
193.581	52.74
193.8	36.35
194.02	87.55
194.239	-12.8
194.458	32.26
194.678	9.73
194.897	42.5
195.116	11.78
195.335	3.58
195.555	42.5
195.774	54.78
195.993	79.36
196.212	-6.66
196.432	-25.09
196.651	15.87
196.87	56.83
197.089	24.06
197.308	28.16
197.528	-2.56
197.747	-49.66
197.966	22.02
198.185	58.88
198.404	15.87
198.623	-10.75
198.842	60.93
199.062	58.88
199.281	3.58
199.5	108.03
199.719	28.16
199.938	58.88
200.157	38.4
200.376	50.69
200.595	58.88
200.814	-4.61
201.033	3.58
201.252	69.12
201.471	36.35
201.69	-18.94
201.909	3.58
202.128	42.5
202.347	44.54
202.566	28.16
202.785	-29.18
203.004	-25.09
203.223	75.26
203.442	13.82
203.661	30.21
203.879	13.82
204.098	1.54
204.317	-31.23
204.536	42.5
204.755	7.68
204.974	50.69
205.193	52.74
205.411	69.12
205.63	48.64
205.849	60.93
206.068	-8.7
206.287	3.58
206.505	46.59
206.724	-27.14
206.943	-55.81
207.162	17.92
207.381	56.83
207.599	32.26
207.818	17.92
208.037	46.59
208.255	-31.23
208.474	-25.09
208.693	46.59
208.911	9.73
209.13	-20.99
209.349	58.88
209.567	-14.85
209.786	3.58
210.005	-37.38
210.223	19.97
210.442	-72.19
210.661	69.12
210.879	65.02
211.098	-0.51
211.316	-2.56
211.535	44.54
211.753	19.97
211.972	40.45
212.191	42.5
212.409	19.97
212.628	13.82
212.846	67.07
213.065	15.87
213.283	89.6
213.502	-0.51
213.72	-27.14
213.938	30.21
214.157	-23.04
214.375	28.16
214.594	-20.99
214.812	28.16
215.031	42.5
215.249	-4.61
215.467	-14.85
215.686	54.78
215.904	40.45
216.122	-4.61
216.341	7.68
216.559	-4.61
216.778	-0.51
216.996	-45.57
217.214	9.73
217.432	-31.23
217.651	-59.9
217.869	44.54
218.087	-12.8
218.306	32.26
218.524	1.54
218.742	13.82
218.96	26.11
219.179	32.26
219.397	-39.42
219.615	22.02
219.833	1.54
220.051	-43.52
220.27	69.12
220.488	73.21
220.706	73.21
220.924	30.21
221.142	56.83
221.36	69.12
221.578	71.17
221.796	28.16
222.015	7.68
222.233	-8.7
222.451	62.98
222.669	-23.04
222.887	93.69
223.105	-4.61
223.323	11.78
223.541	-18.94
223.759	77.31
223.977	5.63
224.195	26.11
224.413	69.12
224.631	44.54
224.849	-12.8
225.067	69.12
225.285	-18.94
225.503	34.3
225.721	34.3
225.939	32.26
226.157	-55.81
226.375	44.54
226.592	-8.7
226.81	69.12
227.028	-0.51
227.246	38.4
227.464	-10.75
227.682	-6.66
227.9	32.26
228.117	-82.43
228.335	15.87
228.553	11.78
228.771	-2.56
228.989	62.98
229.206	-20.99
229.424	3.58
229.642	-8.7
229.86	3.58
230.077	11.78
230.295	32.26
230.513	56.83
230.731	58.88
230.948	44.54
231.166	-2.56
231.384	36.35
231.601	11.78
231.819	1.54
232.037	-18.94
232.254	-68.09
232.472	13.82
232.689	5.63
232.907	30.21
233.125	17.92
233.342	44.54
233.56	1.54
233.777	24.06
233.995	-25.09
234.213	13.82
234.43	-4.61
234.648	-10.75
234.865	17.92
235.083	5.63
235.3	22.02
235.518	77.31
235.735	58.88
235.953	48.64
236.17	22.02
236.388	56.83
236.605	-10.75
236.822	50.69
237.04	-23.04
237.257	-53.76
237.475	52.74
237.692	42.5
237.909	65.02
238.127	-29.18
238.344	28.16
238.562	28.16
238.779	-8.7
238.996	-6.66
239.214	-10.75
239.431	24.06
239.648	30.21
239.865	32.26
240.083	71.17
240.3	-10.75
240.517	34.3
240.735	60.93
240.952	-16.9
241.169	30.21
241.386	36.35
241.603	48.64
241.821	-12.8
242.038	52.74
242.255	11.78
242.472	91.65
242.689	5.63
242.907	13.82
243.124	-8.7
243.341	38.4
243.558	38.4
243.775	19.97
243.992	1.54
244.209	60.93
244.426	13.82
244.643	15.87
244.86	-16.9
245.078	15.87
245.295	3.58
245.512	73.21
245.729	19.97
245.946	60.93
246.163	7.68
246.38	56.83
246.597	46.59
246.814	75.26
247.031	-31.23
247.248	17.92
247.464	67.07
247.681	-6.66
247.898	-6.66
248.115	91.65
248.332	71.17
248.549	-8.7
248.766	54.78
248.983	-29.18
249.2	48.64
249.417	60.93
249.633	40.45
249.85	-14.85
250.067	26.11
250.284	75.26
250.501	101.89
250.717	-6.66
250.934	-23.04
251.151	13.82
251.368	-41.47
251.585	50.69
251.801	-31.23
252.018	38.4
252.235	19.97
252.451	44.54
252.668	19.97
252.885	73.21
253.102	-8.7
253.318	34.3
253.535	7.68
253.752	5.63
253.968	-51.71
254.185	-27.14
254.401	-8.7
254.618	65.02
254.835	13.82
255.051	56.83
255.268	5.63
255.484	73.21
255.701	32.26
255.917	-31.23
256.134	-72.19
256.351	40.45
256.567	-2.56
256.784	13.82
257	-57.86
257.217	-16.9
257.433	50.69
257.65	11.78
257.866	7.68
258.082	17.92
258.299	13.82
258.515	85.5
258.732	-57.86
258.948	38.4
259.165	54.78
259.381	50.69
259.597	44.54
259.814	7.68
260.03	99.84
260.246	40.45
260.463	-0.51
260.679	-0.51
260.895	-8.7
261.112	-66.05
261.328	-0.51
261.544	13.82
261.761	58.88
261.977	75.26
262.193	-41.47
262.409	19.97
262.626	22.02
262.842	17.92
263.058	26.11
263.274	110.08
263.49	-8.7
263.707	-18.94
263.923	-27.14
264.139	48.64
264.355	103.93
264.571	9.73
264.787	32.26
265.004	46.59
265.22	46.59
265.436	42.5
265.652	-2.56
265.868	97.79
266.084	-4.61
266.3	7.68
266.516	1.54
266.732	42.5
266.948	22.02
267.164	-20.99
267.38	24.06
267.596	54.78
267.812	50.69
268.028	34.3
268.244	-74.24
268.46	65.02
268.676	-14.85
268.892	26.11
269.108	5.63
269.324	1.54
269.54	-25.09
269.756	26.11
269.972	9.73
270.188	65.02
270.403	1.54
270.619	11.78
270.835	-33.28
271.051	9.73
271.267	-2.56
271.483	42.5
271.698	101.89
271.914	71.17
272.13	26.11
272.346	34.3
272.562	77.31
272.777	69.12
272.993	44.54
273.209	-18.94
273.425	19.97
273.64	15.87
273.856	-2.56
274.072	44.54
274.287	38.4
274.503	38.4
274.719	36.35
274.934	77.31
275.15	22.02
275.366	97.79
275.581	-59.9
275.797	-8.7
276.012	40.45
276.228	91.65
276.444	9.73
276.659	83.45
276.875	19.97
277.09	-55.81
277.306	91.65
277.521	5.63
277.737	73.21
277.952	-39.42
278.168	13.82
278.383	-39.42
278.599	19.97
278.814	-12.8
279.03	36.35
279.245	79.36
279.461	-6.66
279.676	79.36
279.892	9.73
280.107	-14.85
280.322	79.36
280.538	58.88
280.753	-43.52
280.969	-6.66
281.184	13.82
281.399	46.59
281.615	-2.56
281.83	-16.9
282.045	-4.61
282.26	7.68
282.476	36.35
282.691	26.11
282.906	32.26
283.122	62.98
283.337	7.68
283.552	-6.66
283.767	34.3
283.983	15.87
284.198	-14.85
284.413	13.82
284.628	15.87
284.843	36.35
285.058	-51.71
285.274	85.5
285.489	1.54
285.704	148.99
285.919	-35.33
286.134	48.64
286.349	36.35
286.564	34.3
286.779	65.02
286.995	40.45
287.21	17.92
287.425	58.88
287.64	17.92
287.855	73.21
288.07	38.4
288.285	58.88
288.5	73.21
288.715	15.87
288.93	5.63
289.145	-20.99
289.36	42.5
289.575	54.78
289.79	-14.85
290.004	30.21
290.219	5.63
290.434	34.3
290.649	67.07
290.864	13.82
291.079	40.45
291.294	32.26
291.509	67.07
291.724	11.78
291.938	17.92
292.153	-25.09
292.368	5.63
292.583	77.31
292.798	34.3
293.012	13.82
293.227	13.82
293.442	50.69
293.657	7.68
293.871	99.84
294.086	24.06
294.301	48.64
294.516	130.56
294.73	93.69
294.945	-14.85
295.16	-12.8
295.374	1.54
295.589	19.97
295.804	-39.42
296.018	48.64
296.233	52.74
296.447	-4.61
296.662	60.93
296.877	32.26
297.091	42.5
297.306	1.54
297.52	17.92
297.735	-2.56
297.949	93.69
298.164	40.45
298.378	13.82
298.593	15.87
298.807	-31.23
299.022	54.78
299.236	89.6
299.451	24.06
299.665	24.06
299.88	65.02
300.094	-8.7
300.309	28.16
300.523	52.74
300.737	46.59
300.952	46.59
301.166	-0.51
301.381	-80.38
301.595	36.35
301.809	-41.47
302.024	67.07
302.238	-25.09
302.452	34.3
302.667	-16.9
302.881	60.93
303.095	50.69
303.309	26.11
303.524	7.68
303.738	73.21
303.952	13.82
304.166	15.87
304.381	3.58
304.595	116.22
304.809	-2.56
305.023	-37.38
305.237	-27.14
305.452	22.02
305.666	-10.75
305.88	3.58
306.094	-20.99
306.308	-4.61
306.522	13.82
306.736	11.78
306.95	73.21
307.164	36.35
307.379	54.78
307.593	81.41
307.807	54.78
308.021	46.59
308.235	34.3
308.449	-47.62
308.663	24.06
308.877	89.6
309.091	-0.51
309.305	89.6
309.519	-20.99
309.733	32.26
309.947	32.26
310.161	75.26
310.374	-35.33
310.588	40.45
310.802	-35.33
311.016	15.87
311.23	3.58
311.444	15.87
311.658	-47.62
311.872	58.88
312.085	-2.56
312.299	24.06
312.513	1.54
312.727	46.59
312.941	1.54
313.154	42.5
313.368	22.02
313.582	71.17
313.796	-16.9
314.009	-20.99
314.223	-14.85
314.437	26.11
314.651	1.54
314.864	11.78
315.078	5.63
315.292	26.11
315.505	75.26
315.719	48.64
315.933	11.78
316.146	-2.56
316.36	69.12
316.573	56.83
316.787	-14.85
317.001	28.16
317.214	-61.95
317.428	9.73
317.641	-4.61
317.855	46.59
318.068	7.68
318.282	42.5
318.495	124.41
318.709	75.26
318.922	56.83
319.136	34.3
319.349	36.35
319.563	26.11
319.776	85.5
319.99	-8.7
320.203	19.97
320.417	50.69
320.63	58.88
320.843	83.45
321.057	71.17
321.27	22.02
321.483	22.02
321.697	-2.56
321.91	75.26
322.124	15.87
322.337	11.78
322.55	56.83
322.763	-35.33
322.977	9.73
323.19	7.68
323.403	50.69
323.617	-45.57
323.83	9.73
324.043	52.74
324.256	52.74
324.469	-27.14
324.683	30.21
324.896	11.78
325.109	28.16
325.322	24.06
325.535	65.02
325.748	30.21
325.962	73.21
326.175	40.45
326.388	11.78
326.601	13.82
326.814	-18.94
327.027	-0.51
327.24	138.75
327.453	-14.85
327.666	62.98
327.879	-20.99
328.092	60.93
328.305	44.54
328.518	11.78
328.731	24.06
328.944	19.97
329.157	-25.09
329.37	30.21
329.583	77.31
329.796	60.93
330.009	-23.04
330.222	50.69
330.435	97.79
330.648	-25.09
330.861	-2.56
331.073	26.11
331.286	32.26
331.499	11.78
331.712	-43.52
331.925	3.58
332.138	-6.66
332.35	-0.51
332.563	34.3
332.776	38.4
332.989	-53.76
333.202	28.16
333.414	67.07
333.627	128.51
333.84	85.5
334.053	-6.66
334.265	42.5
334.478	-39.42
334.691	3.58
334.903	30.21
335.116	7.68
335.329	-0.51
335.541	65.02
335.754	58.88
335.966	1.54
336.179	42.5
336.392	15.87
336.604	-20.99
336.817	28.16
337.029	38.4
337.242	22.02
337.454	13.82
337.667	26.11
337.88	75.26
338.092	15.87
338.305	79.36
338.517	-18.94
338.729	50.69
338.942	-29.18
339.154	65.02
339.367	38.4
339.579	-31.23
339.792	-41.47
340.004	7.68
340.217	-4.61
340.429	5.63
340.641	-23.04
340.854	-35.33
341.066	34.3
341.278	15.87
341.491	50.69
341.703	93.69
341.915	26.11
342.128	-6.66
342.34	44.54
342.552	40.45
342.764	-51.71
342.977	36.35
343.189	73.21
343.401	19.97
343.613	-4.61
343.826	36.35
344.038	28.16
344.25	-12.8
344.462	-14.85
344.674	-18.94
344.886	58.88
345.099	69.12
345.311	44.54
345.523	73.21
345.735	60.93
345.947	19.97
346.159	40.45
346.371	26.11
346.583	15.87
346.795	62.98
347.007	56.83
347.219	15.87
347.431	-64
347.643	19.97
347.855	58.88
348.067	46.59
348.279	26.11
348.491	114.17
348.703	5.63
348.915	-37.38
349.127	-43.52
349.339	112.13
349.551	-14.85
349.763	38.4
349.975	3.58
350.187	11.78
350.399	28.16
350.61	30.21
350.822	15.87
351.034	30.21
351.246	22.02
351.458	40.45
351.669	62.98
351.881	5.63
352.093	44.54
352.305	77.31
352.517	-0.51
352.728	36.35
352.94	-27.14
353.152	34.3
353.363	-6.66
353.575	-6.66
353.787	17.92
353.999	3.58
354.21	-8.7
354.422	132.61
354.633	22.02
354.845	54.78
355.057	-66.05
355.268	79.36
355.48	62.98
355.692	32.26
355.903	42.5
356.115	65.02
356.326	-0.51
356.538	81.41
356.749	22.02
356.961	-31.23
357.172	40.45
357.384	69.12
357.595	-16.9
357.807	-23.04
358.018	79.36
358.23	73.21
358.441	110.08
358.653	30.21
358.864	54.78
359.075	52.74
359.287	-14.85
359.498	71.17
359.709	77.31
359.921	40.45
360.132	65.02
360.344	-4.61
360.555	52.74
360.766	38.4
360.977	-41.47
361.189	69.12
361.4	-16.9
361.611	28.16
361.823	36.35
362.034	77.31
362.245	-55.81
362.456	46.59
362.667	44.54
362.879	67.07
363.09	71.17
363.301	56.83
363.512	-23.04
363.723	65.02
363.935	40.45
364.146	65.02
364.357	44.54
364.568	1.54
364.779	-14.85
364.99	126.46
365.201	-31.23
365.412	36.35
365.623	30.21
365.834	1.54
366.045	22.02
366.256	75.26
366.467	32.26
366.678	52.74
366.889	-18.94
367.1	36.35
367.311	13.82
367.522	85.5
367.733	97.79
367.944	65.02
368.155	40.45
368.366	97.79
368.577	56.83
368.788	40.45
368.999	15.87
369.209	77.31
369.42	89.6
369.631	30.21
369.842	62.98
370.053	116.22
370.264	93.69
370.474	-27.14
370.685	54.78
370.896	5.63
371.107	83.45
371.317	36.35
371.528	-2.56
371.739	58.88
371.95	118.27
372.16	54.78
372.371	-37.38
372.582	-6.66
372.792	19.97
373.003	52.74
373.214	24.06
373.424	36.35
373.635	67.07
373.846	36.35
374.056	75.26
374.267	3.58
374.477	99.84
374.688	77.31
374.898	5.63
375.109	101.89
375.319	-8.7
375.53	54.78
375.74	101.89
375.951	32.26
376.161	71.17
376.372	36.35
376.582	54.78
376.793	67.07
377.003	11.78
377.214	5.63
377.424	22.02
377.635	1.54
377.845	112.13
378.055	110.08
378.266	93.69
378.476	30.21
378.686	38.4
378.897	26.11
379.107	112.13
379.317	65.02
379.528	101.89
379.738	103.93
379.948	-45.57
380.158	-14.85
380.369	24.06
380.579	26.11
380.789	-6.66
380.999	44.54
381.21	108.03
381.42	148.99
381.63	-64
381.84	69.12
382.05	114.17
382.261	13.82
382.471	62.98
382.681	75.26
382.891	134.65
383.101	22.02
383.311	50.69
383.521	26.11
383.731	38.4
383.941	65.02
384.151	24.06
384.361	69.12
384.571	40.45
384.781	44.54
384.991	103.93
385.201	56.83
385.411	3.58
385.621	95.74
385.831	58.88
386.041	122.37
386.251	75.26
386.461	62.98
386.671	73.21
386.881	58.88
387.091	-4.61
387.301	161.28
387.511	65.02
387.72	48.64
387.93	54.78
388.14	-25.09
388.35	-0.51
388.56	128.51
388.769	46.59
388.979	60.93
389.189	73.21
389.399	36.35
389.609	67.07
389.818	124.41
390.028	87.55
390.238	75.26
390.447	34.3
390.657	30.21
390.867	38.4
391.076	34.3
391.286	19.97
391.496	50.69
391.705	26.11
391.915	91.65
392.125	38.4
392.334	83.45
392.544	105.98
392.753	26.11
392.963	-31.23
393.172	108.03
393.382	93.69
393.591	19.97
393.801	71.17
394.01	60.93
394.22	142.85
394.429	93.69
394.639	38.4
394.848	101.89
395.058	69.12
395.267	69.12
395.477	142.85
395.686	44.54
395.895	110.08
396.105	81.41
396.314	91.65
396.524	85.5
396.733	91.65
396.942	87.55
397.152	185.85
397.361	69.12
397.57	124.41
397.78	50.69
397.989	85.5
398.198	105.98
398.407	58.88
398.617	91.65
398.826	126.46
399.035	24.06
399.244	71.17
399.453	95.74
399.663	136.7
399.872	103.93
400.081	122.37
400.29	69.12
400.499	128.51
400.708	126.46
400.917	69.12
401.127	148.99
401.336	142.85
401.545	97.79
401.754	58.88
401.963	134.65
402.172	157.18
402.381	83.45
402.59	114.17
402.799	169.47
403.008	192
403.217	3.58
403.426	124.41
403.635	103.93
403.844	132.61
404.053	126.46
404.262	89.6
404.471	202.24
404.68	157.18
404.888	128.51
405.097	110.08
405.306	142.85
405.515	130.56
405.724	134.65
405.933	230.91
406.142	167.42
406.35	128.51
406.559	183.81
406.768	163.33
406.977	183.81
407.185	198.14
407.394	163.33
407.603	161.28
407.812	155.13
408.02	204.28
408.229	192
408.438	237.05
408.646	155.13
408.855	237.05
409.064	261.63
409.272	222.72
409.481	284.16
409.69	230.91
409.898	304.64
410.107	321.02
410.315	218.62
410.524	310.78
410.733	361.98
410.941	390.65
411.15	376.31
411.358	343.55
411.567	388.6
411.775	396.79
411.984	331.26
412.192	357.88
412.401	507.38
412.609	447.99
412.818	511.48
413.026	437.75
413.234	544.25
413.443	570.87
413.651	548.34
413.86	529.91
414.068	591.35
414.276	646.65
414.485	552.44
414.693	691.7
414.901	640.5
415.11	675.32
415.318	769.52
415.526	703.99
415.734	740.85
415.943	724.47
416.151	779.76
416.359	738.8
416.567	828.92
416.776	878.07
416.984	941.55
417.192	996.85
417.4	943.6
417.608	986.61
417.817	1017.33
418.025	1066.48
418.233	1164.78
418.441	1175.02
418.649	1111.54
418.857	1248.75
419.065	1273.32
419.273	1258.99
419.481	1388.01
419.689	1447.4
419.897	1428.97
420.105	1519.08
420.313	1562.09
420.521	1598.95
420.729	1555.94
420.937	1746.41
421.145	1801.7
421.353	1783.27
421.561	1981.92
421.769	1973.73
421.977	2020.83
422.185	2061.79
422.393	2215.39
422.601	2317.79
422.809	2358.75
423.017	2262.49
423.224	2311.64
423.432	2518.49
423.64	2528.73
423.848	2686.42
424.056	2647.51
424.263	2880.98
424.471	2817.49
424.679	2913.75
424.887	3083.73
425.094	3175.89
425.302	3157.46
425.51	3325.39
425.718	3558.86
425.925	3433.93
426.133	3636.68
426.341	3739.08
426.548	3935.68
426.756	4029.89
426.964	4038.08
427.171	4263.36
427.379	4502.97
427.586	4513.21
427.794	4558.27
428.001	4787.64
428.209	4980.15
428.417	4875.7
428.624	5211.57
428.832	5340.59
429.039	5367.21
429.247	5340.59
429.454	5862.82
429.662	6016.42
429.869	5721.51
430.076	6088.1
430.284	6030.76
430.491	6405.53
430.699	6579.61
430.906	6632.86
431.114	6671.77
431.321	6964.63
431.528	7208.34
431.736	7691.66
431.943	7726.47
432.15	7611.79
432.358	7660.94
432.565	8217.99
432.772	8383.87
432.979	8500.61
433.187	8629.63
433.394	8746.36
433.601	9536.88
433.808	9543.02
434.016	9297.27
434.223	9852.27
434.43	10274.15
434.637	10022.25
434.844	10702.17
435.052	10904.92
435.259	10995.03
435.466	11226.45
435.673	10890.59
435.88	11558.22
436.087	12246.34
436.294	12064.07
436.501	12043.59
436.708	12246.34
436.915	12717.37
437.122	13231.41
437.329	13147.45
437.537	13638.96
437.743	13755.69
437.95	13747.5
438.157	14429.48
438.364	15123.74
438.571	15052.06
438.778	15152.41
438.985	16176.39
439.192	15865.1
439.399	16436.49
439.606	15803.66
439.813	16719.1
440.02	17960.17
440.227	17505.52
440.433	17429.75
440.64	18103.53
440.847	17806.58
441.054	18423.01
441.261	19510.49
441.467	19281.11
441.674	19582.17
441.881	20450.5
442.088	20270.28
442.294	20280.52
442.501	20800.71
442.708	20890.82
442.914	22086.83
443.121	23143.58
443.328	22367.4
443.534	23850.13
443.741	22924.45
443.948	22772.9
444.154	24642.7
444.361	24622.22
444.568	24618.12
444.774	24806.53
444.981	24976.51
445.187	25711.74
445.394	26807.4
445.6	26700.9
445.807	29195.33
446.013	27630.68
446.22	28152.91
446.426	29019.21
446.633	29502.53
446.839	30520.37
447.046	29369.41
447.252	30848.04
447.459	31235.11
447.665	30979.11
447.871	32392.21
448.078	33932.28
448.284	32205.84
448.491	33166.34
448.697	34552.82
448.903	34806.76
449.11	35474.4
449.316	34690.03
449.522	35310.57
449.728	36250.58
449.935	36426.71
450.141	36295.64
450.347	37004.24
450.553	36070.36
450.76	36582.35
450.966	38091.71
451.172	36885.45
451.378	38239.16
451.584	37184.46
451.791	38245.3
451.997	38259.64
452.203	38785.97
452.409	38632.37
452.615	38654.9
452.821	37321.67
453.027	36815.82
453.233	39052.2
453.44	37606.34
453.646	37739.46
453.852	38065.08
454.058	39113.64
454.264	37155.79
454.47	38359.99
454.676	37118.92
454.882	38790.06
455.088	35329
455.294	36193.24
455.5	36328.41
455.705	36678.61
455.911	35077.1
456.117	34690.03
456.323	34071.54
456.529	32463.89
456.735	34149.37
456.941	33197.06
457.147	32502.8
457.352	31509.54
457.558	31181.86
457.764	31587.36
457.97	30553.13
458.176	29764.67
458.381	30006.33
458.587	28681.29
458.793	28539.98
458.999	26856.55
459.204	28816.46
459.41	28173.39
459.616	26483.82
459.821	26203.25
460.027	26346.61
460.233	25670.78
460.438	24511.63
460.644	24749.19
460.85	23868.56
461.055	23276.7
461.261	23332
461.466	21404.86
461.672	20833.47
461.878	22490.28
462.083	20843.71
462.289	20335.82
462.494	20315.34
462.7	19256.54
462.905	18660.58
463.111	19502.29
463.316	19434.71
463.522	19186.91
463.727	19338.46
463.932	19074.27
464.138	18799.84
464.343	19023.07
464.549	18662.63
464.754	18941.15
464.959	18724.07
465.165	19049.69
465.37	18029.8
465.575	17583.35
465.781	18386.15
465.986	18259.18
466.191	17593.59
466.397	17433.85
466.602	16446.73
466.807	17323.26
467.012	17018.11
467.218	17001.72
467.423	16835.84
467.628	17022.2
467.833	17810.67
