Data from USB4F104151__3__11-44-06-731.txt Node

Date: Wed Feb 19 11:44:06 EST 2025
User: louis
Spectrometer: USB4F10415
Trigger mode: 4
Integration Time (sec): 2.250200E-1
Scans to average: 1
Electric dark correction enabled: true
Nonlinearity correction enabled: false
Boxcar width: 0
XAxis mode: Wavelengths
Number of Pixels in Spectrum: 3648
>>>>>Begin Spectral Data<<<<<
178.204	-810.48
178.424	-810.48
178.644	-810.48
178.864	-751.09
179.084	-839.16
179.304	190.97
179.524	31.23
179.744	49.66
179.964	-144.89
180.184	193.02
180.404	147.97
180.624	-220.67
180.844	-126.46
181.064	-40.45
181.283	219.64
181.503	-222.72
181.723	-77.31
181.943	-13.82
182.163	401.91
182.383	-204.28
182.602	-241.15
182.822	440.83
183.042	184.83
183.262	-273.92
183.482	-200.19
183.701	244.22
183.921	143.87
184.141	-155.13
184.361	-155.13
184.58	242.17
184.8	205.31
185.02	-155.13
185.239	-7.68
185.459	244.22
185.679	381.43
185.898	-194.05
186.118	-165.37
186.338	197.12
186.557	379.39
186.777	-216.57
186.997	-224.76
187.216	209.4
187.436	455.16
187.655	-142.85
187.875	-15.87
188.095	233.98
188.314	451.07
188.534	-85.5
188.753	-247.29
188.973	317.95
189.192	500.22
189.412	-241.15
189.631	-136.7
189.851	352.76
190.07	446.97
190.29	-202.24
190.509	-226.81
190.729	150.01
190.948	385.53
191.168	-9.73
191.387	-177.66
191.607	195.07
191.826	285.18
192.045	-65.02
192.265	-146.94
192.484	367.1
192.704	233.98
192.923	-134.65
193.142	-17.92
193.362	317.95
193.581	326.14
193.8	-36.35
194.02	-157.18
194.239	264.7
194.458	350.71
194.678	-85.5
194.897	-220.67
195.116	281.08
195.335	258.56
195.555	-118.27
195.774	-255.48
195.993	373.24
196.212	176.64
196.432	-69.12
196.651	-241.15
196.87	225.79
197.089	516.6
197.308	-230.91
197.528	-128.51
197.747	10.75
197.966	150.01
198.185	-13.82
198.404	-255.48
198.623	266.75
198.842	344.57
199.062	-93.69
199.281	-118.27
199.5	287.23
199.719	328.19
199.938	-216.57
200.157	-189.95
200.376	375.29
200.595	313.85
200.814	-130.56
201.033	-198.14
201.252	461.3
201.471	221.69
201.69	-171.52
201.909	-124.41
202.128	279.04
202.347	244.22
202.566	-87.55
202.785	-310.78
203.004	117.25
203.223	498.17
203.442	-118.27
203.661	-280.06
203.879	238.08
204.098	274.94
204.317	-235
204.536	-36.35
204.755	315.9
204.974	299.52
205.193	-263.68
205.411	-73.21
205.63	377.34
205.849	238.08
206.068	-222.72
206.287	-343.55
206.505	420.35
206.724	141.82
206.943	-189.95
207.162	-216.57
207.381	145.92
207.599	166.4
207.818	-40.45
208.037	-241.15
208.255	219.64
208.474	281.08
208.693	-151.04
208.911	-210.43
209.13	264.7
209.349	236.03
209.567	-15.87
209.786	-155.13
210.005	332.28
210.223	190.97
210.442	-351.74
210.661	-179.71
210.879	297.47
211.098	219.64
211.316	-228.86
211.535	-153.09
211.753	274.94
211.972	360.95
212.191	-126.46
212.409	-177.66
212.628	322.04
212.846	100.86
213.065	-146.94
213.283	-112.13
213.502	207.36
213.72	154.11
213.938	-243.2
214.157	-148.99
214.375	258.56
214.594	193.02
214.812	-93.69
215.031	-185.85
215.249	272.89
215.467	258.56
215.686	-134.65
215.904	-93.69
216.122	170.49
216.341	387.58
216.559	-11.78
216.778	-56.83
216.996	412.15
217.214	111.1
217.432	-153.09
217.651	-292.35
217.869	205.31
218.087	172.54
218.306	-167.42
218.524	-187.9
218.742	164.35
218.96	389.63
219.179	-103.93
219.397	-185.85
219.615	508.41
219.833	264.7
220.051	-185.85
220.27	-46.59
220.488	383.48
220.706	215.55
220.924	-243.2
221.142	-200.19
221.36	270.84
221.578	246.27
221.796	-237.05
222.015	-87.55
222.233	274.94
222.451	426.49
222.669	-40.45
222.887	-116.22
223.105	127.49
223.323	164.35
223.541	-134.65
223.759	-151.04
223.977	211.45
224.195	487.93
224.413	-24.06
224.631	-99.84
224.849	233.98
225.067	526.84
225.285	-93.69
225.503	-218.62
225.721	16.9
225.939	215.55
226.157	-62.98
226.375	86.53
226.592	111.1
226.81	150.01
227.028	10.75
227.246	-110.08
227.464	254.46
227.682	258.56
227.9	-71.17
228.117	-71.17
228.335	227.84
228.553	201.21
228.771	-220.67
228.989	-122.37
229.206	305.66
229.424	152.06
229.642	-126.46
229.86	-95.74
230.077	383.48
230.295	258.56
230.513	14.85
230.731	-79.36
230.948	467.45
231.166	414.2
231.384	-60.93
231.601	-177.66
231.819	489.98
232.037	43.52
232.254	-87.55
232.472	-97.79
232.689	174.59
232.907	346.62
233.125	-228.86
233.342	-226.81
233.56	137.73
233.777	154.11
233.995	-232.96
234.213	-46.59
234.43	322.04
234.648	158.21
234.865	-251.39
235.083	-46.59
235.3	205.31
235.518	268.8
235.735	-81.41
235.953	-79.36
236.17	227.84
236.388	172.54
236.605	23.04
236.822	-91.65
237.04	354.81
237.257	227.84
237.475	-204.28
237.692	-128.51
237.909	363
238.127	121.34
238.344	41.47
238.562	-103.93
238.779	-24.06
238.996	-48.64
239.214	-54.78
239.431	-97.79
239.648	61.95
239.865	176.64
240.083	-77.31
240.3	-155.13
240.517	170.49
240.735	113.15
240.952	49.66
241.169	-204.28
241.386	285.18
241.603	174.59
241.821	-179.71
242.038	-122.37
242.255	317.95
242.472	39.42
242.689	-73.21
242.907	-75.26
243.124	184.83
243.341	242.17
243.558	-161.28
243.775	-226.81
243.992	-19.97
244.209	221.69
244.426	-36.35
244.643	-128.51
244.86	215.55
245.078	270.84
245.295	-142.85
245.512	-46.59
245.729	76.29
245.946	272.89
246.163	-105.98
246.38	-112.13
246.597	182.78
246.814	203.26
247.031	-110.08
247.248	-204.28
247.464	322.04
247.681	223.74
247.898	-58.88
248.115	-65.02
248.332	76.29
248.549	338.43
248.766	-58.88
248.983	-114.17
249.2	295.42
249.417	315.9
249.633	-134.65
249.85	-85.5
250.067	158.21
250.284	154.11
250.501	-155.13
250.717	-97.79
250.934	-48.64
251.151	229.88
251.368	-101.89
251.585	-105.98
251.801	225.79
252.018	49.66
252.235	76.29
252.451	-130.56
252.668	266.75
252.885	330.23
253.102	-95.74
253.318	-159.23
253.535	113.15
253.752	127.49
253.968	-81.41
254.185	-273.92
254.401	223.74
254.618	336.38
254.835	-83.45
255.051	-105.98
255.268	377.34
255.484	229.88
255.701	-103.93
255.917	-138.75
256.134	115.2
256.351	215.55
256.567	-173.57
256.784	27.14
257	-5.63
257.217	344.57
257.433	29.18
257.65	-151.04
257.866	408.06
258.082	-79.36
258.299	-77.31
258.515	-9.73
258.732	217.6
258.948	82.43
259.165	-85.5
259.381	-179.71
259.597	291.32
259.814	94.72
260.03	-235
260.246	-140.8
260.463	260.6
260.679	401.91
260.895	-48.64
261.112	23.04
261.328	147.97
261.544	18.94
261.761	-67.07
261.977	-146.94
262.193	64
262.409	172.54
262.626	70.14
262.842	-114.17
263.058	102.91
263.274	303.61
263.49	-38.4
263.707	-148.99
263.923	350.71
264.139	31.23
264.355	-38.4
264.571	-26.11
264.787	342.52
265.004	276.99
265.22	51.71
265.436	-118.27
265.652	57.86
265.868	291.32
266.084	-175.61
266.3	-153.09
266.516	37.38
266.732	258.56
266.948	-62.98
267.164	-148.99
267.38	293.37
267.596	223.74
267.812	47.62
268.028	-85.5
268.244	88.57
268.46	254.46
268.676	-9.73
268.892	-24.06
269.108	59.9
269.324	2.56
269.54	-140.8
269.756	-67.07
269.972	16.9
270.188	141.82
270.403	-124.41
270.619	-93.69
270.835	287.23
271.051	213.5
271.267	-93.69
271.483	-108.03
271.698	242.17
271.914	129.53
272.13	-56.83
272.346	-77.31
272.562	164.35
272.777	334.33
272.993	-81.41
273.209	-69.12
273.425	285.18
273.64	-48.64
273.856	-101.89
274.072	-200.19
274.287	188.93
274.503	320
274.719	-19.97
274.934	-171.52
275.15	-73.21
275.366	221.69
275.581	-89.6
275.797	-85.5
276.012	213.5
276.228	84.48
276.444	-19.97
276.659	137.73
276.875	147.97
277.09	94.72
277.306	-58.88
277.521	29.18
277.737	209.4
277.952	172.54
278.168	-69.12
278.383	-99.84
278.599	86.53
278.814	295.42
279.03	-175.61
279.245	41.47
279.461	147.97
279.676	233.98
279.892	-103.93
280.107	-69.12
280.322	43.52
280.538	377.34
280.753	-24.06
280.969	-77.31
281.184	186.88
281.399	309.76
281.615	-17.92
281.83	27.14
282.045	-40.45
282.26	90.62
282.476	-1.54
282.691	133.63
282.906	113.15
283.122	154.11
283.337	-7.68
283.552	-1.54
283.767	94.72
283.983	213.5
284.198	0.51
284.413	-85.5
284.628	53.76
284.843	113.15
285.058	-48.64
285.274	-112.13
285.489	119.29
285.704	186.88
285.919	-44.54
286.134	-48.64
286.349	150.01
286.564	98.81
286.779	55.81
286.995	-85.5
287.21	76.29
287.425	231.93
287.64	-93.69
287.855	35.33
288.07	-30.21
288.285	268.8
288.5	8.7
288.715	10.75
288.93	152.06
289.145	98.81
289.36	2.56
289.575	-15.87
289.79	281.08
290.004	25.09
290.219	2.56
290.434	-79.36
290.649	139.77
290.864	100.86
291.079	-7.68
291.294	33.28
291.509	195.07
291.724	92.67
291.938	-38.4
292.153	-24.06
292.368	135.68
292.583	195.07
292.798	-32.26
293.012	166.4
293.227	207.36
293.442	195.07
293.657	18.94
293.871	51.71
294.086	326.14
294.301	289.28
294.516	88.57
294.73	27.14
294.945	170.49
295.16	133.63
295.374	37.38
295.589	78.33
295.804	188.93
296.018	176.64
296.233	-122.37
296.447	10.75
296.662	137.73
296.877	352.76
297.091	-56.83
297.306	-56.83
297.52	104.96
297.735	281.08
297.949	31.23
298.164	-157.18
298.378	246.27
298.593	4.61
298.807	-30.21
299.022	18.94
299.236	322.04
299.451	61.95
299.665	-24.06
299.88	-15.87
300.094	270.84
300.309	141.82
300.523	-30.21
300.737	12.8
300.952	233.98
301.166	268.8
301.381	-97.79
301.595	-122.37
301.809	113.15
302.024	76.29
302.238	-75.26
302.452	102.91
302.667	174.59
302.881	285.18
303.095	39.42
303.309	45.57
303.524	43.52
303.738	193.02
303.952	49.66
304.166	25.09
304.381	-110.08
304.595	258.56
304.809	-26.11
305.023	-46.59
305.237	64
305.452	92.67
305.666	-28.16
305.88	43.52
306.094	309.76
306.308	205.31
306.522	-97.79
306.736	84.48
306.95	260.6
307.164	92.67
307.379	33.28
307.593	66.05
307.807	270.84
308.021	295.42
308.235	139.77
308.449	-155.13
308.663	100.86
308.877	483.83
309.091	0.51
309.305	80.38
309.519	-48.64
309.733	246.27
309.947	-157.18
310.161	-93.69
310.374	154.11
310.588	281.08
310.802	-71.17
311.016	0.51
311.23	184.83
311.444	41.47
311.658	35.33
311.872	109.05
312.085	258.56
312.299	295.42
312.513	233.98
312.727	-122.37
312.941	80.38
313.154	94.72
313.368	-44.54
313.582	-48.64
313.796	115.2
314.009	156.16
314.223	174.59
314.437	92.67
314.651	221.69
314.864	115.2
315.078	-9.73
315.292	-159.23
315.505	72.19
315.719	193.02
315.933	76.29
316.146	-50.69
316.36	41.47
316.573	223.74
316.787	303.61
317.001	-34.3
317.214	-44.54
317.428	160.25
317.641	-11.78
317.855	8.7
318.068	166.4
318.282	197.12
318.495	176.64
318.709	-69.12
318.922	141.82
319.136	225.79
319.349	86.53
319.563	-17.92
319.776	217.6
319.99	-67.07
320.203	20.99
320.417	18.94
320.63	109.05
320.843	223.74
321.057	35.33
321.27	-7.68
321.483	309.76
321.697	256.51
321.91	-126.46
322.124	66.05
322.337	178.69
322.55	-9.73
322.763	-13.82
322.977	-71.17
323.19	43.52
323.403	31.23
323.617	8.7
323.83	213.5
324.043	164.35
324.256	98.81
324.469	-198.14
324.683	123.39
324.896	92.67
325.109	98.81
325.322	-122.37
325.535	29.18
325.748	260.6
325.962	107.01
326.175	84.48
326.388	39.42
326.601	223.74
326.814	68.09
327.027	-9.73
327.24	125.44
327.453	-101.89
327.666	205.31
327.879	111.1
328.092	20.99
328.305	156.16
328.518	94.72
328.731	23.04
328.944	-97.79
329.157	117.25
329.37	-3.58
329.583	111.1
329.796	59.9
330.009	29.18
330.222	197.12
330.435	68.09
330.648	8.7
330.861	229.88
331.073	147.97
331.286	88.57
331.499	8.7
331.712	113.15
331.925	119.29
332.138	0.51
332.35	-42.5
332.563	156.16
332.776	289.28
332.989	-60.93
333.202	-67.07
333.414	121.34
333.627	141.82
333.84	-118.27
334.053	59.9
334.265	66.05
334.478	66.05
334.691	-24.06
334.903	29.18
335.116	61.95
335.329	90.62
335.541	-9.73
335.754	180.73
335.966	137.73
336.179	94.72
336.392	41.47
336.604	88.57
336.817	178.69
337.029	215.55
337.242	-85.5
337.454	49.66
337.667	76.29
337.88	256.51
338.092	96.77
338.305	39.42
338.517	41.47
338.729	174.59
338.942	31.23
339.154	-171.52
339.367	23.04
339.579	266.75
339.792	-79.36
340.004	88.57
340.217	174.59
340.429	303.61
340.641	-138.75
340.854	-54.78
341.066	90.62
341.278	303.61
341.491	147.97
341.703	-67.07
341.915	41.47
342.128	297.47
342.34	12.8
342.552	-13.82
342.764	94.72
342.977	150.01
343.189	53.76
343.401	59.9
343.613	25.09
343.826	104.96
344.038	-87.55
344.25	51.71
344.462	45.57
344.674	139.77
344.886	-17.92
345.099	-36.35
345.311	211.45
345.523	33.28
345.735	-122.37
345.947	78.33
346.159	201.21
346.371	156.16
346.583	90.62
346.795	152.06
347.007	94.72
347.219	219.64
347.431	-19.97
347.643	49.66
347.855	107.01
348.067	328.19
348.279	-87.55
348.491	-58.88
348.703	295.42
348.915	86.53
349.127	-15.87
349.339	2.56
349.551	131.58
349.763	287.23
349.975	-13.82
350.187	49.66
350.399	311.8
350.61	131.58
350.822	14.85
351.034	14.85
351.246	207.36
351.458	244.22
351.669	82.43
351.881	14.85
352.093	297.47
352.305	236.03
352.517	-71.17
352.728	41.47
352.94	39.42
353.152	258.56
353.363	-101.89
353.575	-56.83
353.787	360.95
353.999	172.54
354.21	147.97
354.422	-126.46
354.633	145.92
354.845	166.4
355.057	51.71
355.268	10.75
355.48	256.51
355.692	57.86
355.903	37.38
356.115	-110.08
356.326	-71.17
356.538	354.81
356.749	-5.63
356.961	94.72
357.172	184.83
357.384	6.66
357.595	197.12
357.807	-58.88
358.018	74.24
358.23	147.97
358.441	-17.92
358.653	-36.35
358.864	102.91
359.075	-40.45
359.287	14.85
359.498	25.09
359.709	129.53
359.921	147.97
360.132	82.43
360.344	-48.64
360.555	8.7
360.766	162.3
360.977	-79.36
361.189	66.05
361.4	139.77
361.611	326.14
361.823	14.85
362.034	-79.36
362.245	-62.98
362.456	115.2
362.667	117.25
362.879	-179.71
363.09	221.69
363.301	152.06
363.512	-91.65
363.723	-103.93
363.935	74.24
364.146	309.76
364.357	12.8
364.568	-122.37
364.779	-56.83
364.99	311.8
365.201	-73.21
365.412	123.39
365.623	-42.5
365.834	252.41
366.045	129.53
366.256	8.7
366.467	270.84
366.678	111.1
366.889	-11.78
367.1	14.85
367.311	305.66
367.522	6.66
367.733	150.01
367.944	2.56
368.155	127.49
368.366	145.92
368.577	68.09
368.788	98.81
368.999	49.66
369.209	221.69
369.42	111.1
369.631	379.39
369.842	197.12
370.053	64
370.264	37.38
370.474	-79.36
370.685	238.08
370.896	82.43
371.107	61.95
371.317	0.51
371.528	111.1
371.739	250.36
371.95	53.76
372.16	2.56
372.371	-65.02
372.582	66.05
372.792	-56.83
373.003	74.24
373.214	107.01
373.424	178.69
373.635	-75.26
373.846	55.81
374.056	184.83
374.267	125.44
374.477	90.62
374.688	-56.83
374.898	219.64
375.109	66.05
375.319	70.14
375.53	-7.68
375.74	270.84
375.951	64
376.161	37.38
376.372	47.62
376.582	88.57
376.793	213.5
377.003	-44.54
377.214	-93.69
377.424	236.03
377.635	147.97
377.845	35.33
378.055	66.05
378.266	-30.21
378.476	147.97
378.686	-7.68
378.897	33.28
379.107	279.04
379.317	199.16
379.528	-103.93
379.738	8.7
379.948	18.94
380.158	322.04
380.369	29.18
380.579	84.48
380.789	145.92
380.999	135.68
381.21	70.14
381.42	125.44
381.63	127.49
381.84	279.04
382.05	96.77
382.261	117.25
382.471	262.65
382.681	49.66
382.891	90.62
383.101	94.72
383.311	-3.58
383.521	74.24
383.731	-60.93
383.941	111.1
384.151	182.78
384.361	90.62
384.571	33.28
384.781	53.76
384.991	279.04
385.201	387.58
385.411	180.73
385.621	8.7
385.831	266.75
386.041	236.03
386.251	80.38
386.461	90.62
386.671	125.44
386.881	170.49
387.091	-17.92
387.301	176.64
387.511	127.49
387.72	221.69
387.93	102.91
388.14	-79.36
388.35	158.21
388.56	180.73
388.769	55.81
388.979	25.09
389.189	88.57
389.399	172.54
389.609	-17.92
389.818	20.99
390.028	254.46
390.238	162.3
390.447	-36.35
390.657	64
390.867	147.97
391.076	-30.21
391.286	-56.83
391.496	-1.54
391.705	141.82
391.915	307.71
392.125	2.56
392.334	61.95
392.544	317.95
392.753	115.2
392.963	37.38
393.172	8.7
393.382	45.57
393.591	375.29
393.801	39.42
394.01	6.66
394.22	281.08
394.429	82.43
394.639	74.24
394.848	68.09
395.058	225.79
395.267	113.15
395.477	76.29
395.686	115.2
395.895	504.31
396.105	281.08
396.314	53.76
396.524	61.95
396.733	84.48
396.942	283.13
397.152	25.09
397.361	115.2
397.57	100.86
397.78	78.33
397.989	100.86
398.198	201.21
398.407	88.57
398.617	51.71
398.826	84.48
399.035	-34.3
399.244	143.87
399.453	147.97
399.663	-62.98
399.872	-99.84
400.081	16.9
400.29	254.46
400.499	-54.78
400.708	70.14
400.917	154.11
401.127	82.43
401.336	2.56
401.545	285.18
401.754	254.46
401.963	268.8
402.172	25.09
402.381	-75.26
402.59	113.15
402.799	156.16
403.008	82.43
403.217	14.85
403.426	229.88
403.635	-38.4
403.844	-97.79
404.053	-9.73
404.262	113.15
404.471	311.8
404.68	47.62
404.888	70.14
405.097	102.91
405.306	125.44
405.515	117.25
405.724	-24.06
405.933	262.65
406.142	166.4
406.35	66.05
406.559	37.38
406.768	162.3
406.977	336.38
407.185	88.57
407.394	92.67
407.603	-44.54
407.812	133.63
408.02	123.39
408.229	31.23
408.438	240.12
408.646	-34.3
408.855	31.23
409.064	0.51
409.272	55.81
409.481	231.93
409.69	-3.58
409.898	-19.97
410.107	203.26
410.315	313.85
410.524	51.71
410.733	-11.78
410.941	100.86
411.15	258.56
411.358	47.62
411.567	113.15
411.775	203.26
411.984	188.93
412.192	147.97
412.401	-28.16
412.609	348.67
412.818	207.36
413.026	145.92
413.234	31.23
413.443	121.34
413.651	-17.92
413.86	-124.41
414.068	217.6
414.276	401.91
414.485	61.95
414.693	115.2
414.901	205.31
415.11	190.97
415.318	176.64
415.526	-11.78
415.734	115.2
415.943	213.5
416.151	291.32
416.359	35.33
416.567	90.62
416.776	252.41
416.984	238.08
417.192	135.68
417.4	25.09
417.608	98.81
417.817	53.76
418.025	145.92
418.233	68.09
418.441	27.14
418.649	-71.17
418.857	109.05
419.065	43.52
419.273	158.21
419.481	172.54
419.689	14.85
419.897	-22.02
420.105	33.28
420.313	238.08
420.521	94.72
420.729	115.2
420.937	70.14
421.145	8.7
421.353	98.81
421.561	143.87
421.769	197.12
421.977	-3.58
422.185	31.23
422.393	78.33
422.601	258.56
422.809	242.17
423.017	80.38
423.224	0.51
423.432	324.09
423.64	109.05
423.848	-13.82
424.056	-44.54
424.263	383.48
424.471	133.63
424.679	190.97
424.887	-40.45
425.094	424.44
425.302	145.92
425.51	-161.28
425.718	80.38
425.925	209.4
426.133	29.18
426.341	133.63
426.548	66.05
426.756	43.52
426.964	150.01
427.171	-24.06
427.379	74.24
427.586	250.36
427.794	238.08
428.001	139.77
428.209	74.24
428.417	320
428.624	244.22
428.832	64
429.039	98.81
429.247	178.69
429.454	199.16
429.662	162.3
429.869	137.73
430.076	229.88
430.284	246.27
430.491	16.9
430.699	111.1
430.906	381.43
431.114	164.35
431.321	109.05
431.528	98.81
431.736	162.3
431.943	166.4
432.15	57.86
432.358	53.76
432.565	395.77
432.772	-81.41
432.979	113.15
433.187	-38.4
433.394	233.98
433.601	68.09
433.808	86.53
434.016	201.21
434.223	219.64
434.43	147.97
434.637	147.97
434.844	172.54
435.052	184.83
435.259	297.47
435.466	209.4
435.673	131.58
435.88	285.18
436.087	332.28
436.294	338.43
436.501	174.59
436.708	213.5
436.915	242.17
437.122	160.25
437.329	2.56
437.537	141.82
437.743	240.12
437.95	248.32
438.157	100.86
438.364	281.08
438.571	227.84
438.778	111.1
438.985	150.01
439.192	408.06
439.399	262.65
439.606	166.4
439.813	279.04
440.02	463.35
440.227	498.17
440.433	178.69
440.64	123.39
440.847	197.12
441.054	233.98
441.261	145.92
441.467	227.84
441.674	219.64
441.881	383.48
442.088	139.77
442.294	188.93
442.501	373.24
442.708	430.59
442.914	143.87
443.121	188.93
443.328	465.4
443.534	446.97
443.741	182.78
443.948	152.06
444.154	350.71
444.361	508.41
444.568	193.02
444.774	324.09
444.981	195.07
445.187	582.14
445.394	317.95
445.6	270.84
445.807	369.15
446.013	350.71
446.22	82.43
446.426	360.95
446.633	475.64
446.839	723.44
447.046	125.44
447.252	434.68
447.459	434.68
447.665	311.8
447.871	315.9
448.078	647.67
448.284	571.9
448.491	647.67
448.697	449.02
448.903	451.07
449.11	598.52
449.316	506.36
449.522	633.33
449.728	528.89
449.935	651.77
450.141	563.7
450.347	643.57
450.553	496.12
450.76	768.5
450.966	750.07
451.172	700.92
451.378	651.77
451.584	760.31
451.791	979.44
451.997	670.2
452.203	641.53
452.409	934.39
452.615	852.47
452.821	621.05
453.027	637.43
453.233	1157.61
453.44	944.63
453.646	725.49
453.852	825.84
454.058	809.46
454.264	985.58
454.47	936.43
454.676	840.18
454.882	1120.75
455.088	1108.46
455.294	983.54
455.5	1114.61
455.705	1212.91
455.911	1180.14
456.117	946.67
456.323	1032.69
456.529	1143.28
456.735	1182.19
456.941	1004.02
457.147	1122.8
457.352	1214.96
457.558	1155.57
457.764	1114.61
457.97	1024.5
458.176	1296.88
458.381	1155.57
458.587	1262.06
458.793	1190.38
458.999	1090.03
459.204	1188.33
459.41	1069.55
459.616	1018.35
459.821	1282.54
460.027	1034.74
460.233	1147.37
460.438	1182.19
460.644	1126.89
460.85	1083.89
461.055	1065.46
461.261	1087.98
461.466	1016.3
461.672	1137.13
461.878	930.29
462.083	1087.98
462.289	940.53
462.494	989.68
462.7	1006.06
462.905	868.85
463.111	1266.16
