Data from USB4F104151__179__14-45-04-593.txt Node

Date: Thu Mar 13 14:45:04 EDT 2025
User: louis
Spectrometer: USB4F10415
Trigger mode: 4
Integration Time (sec): 2.000000E-2
Scans to average: 1
Electric dark correction enabled: true
Nonlinearity correction enabled: false
Boxcar width: 0
XAxis mode: Wavelengths
Number of Pixels in Spectrum: 3648
>>>>>Begin Spectral Data<<<<<
178.204	-130.39
178.424	-130.39
178.644	-130.39
178.864	-111.96
179.084	-91.48
179.304	27.31
179.524	-21.84
179.744	-64.85
179.964	15.02
180.184	23.21
180.404	15.02
180.624	4.78
180.844	-17.75
181.064	-46.42
181.283	-9.56
181.503	2.73
181.723	72.36
181.943	-99.67
182.163	39.59
182.383	10.92
182.602	-17.75
182.822	8.87
183.042	0.68
183.262	0.68
183.482	49.83
183.701	-23.89
183.921	-1.37
184.141	-23.89
184.361	49.83
184.58	17.07
184.8	-25.94
185.02	19.11
185.239	137.9
185.459	-23.89
185.679	-17.75
185.898	-17.75
186.118	29.35
186.338	6.83
186.557	-15.7
186.777	-42.32
186.997	-9.56
187.216	-68.95
187.436	107.18
187.655	6.83
187.875	12.97
188.095	29.35
188.314	58.03
188.534	39.59
188.753	-36.18
188.973	51.88
189.192	15.02
189.412	-17.75
189.631	74.41
189.851	-1.37
190.07	23.21
190.29	31.4
190.509	31.4
190.729	-40.28
190.948	10.92
191.168	121.51
191.387	19.11
191.607	19.11
191.826	58.03
192.045	66.22
192.265	47.79
192.484	-13.65
192.704	15.02
192.923	-75.09
193.142	98.99
193.362	-9.56
193.581	17.07
193.8	6.83
194.02	43.69
194.239	-36.18
194.458	43.69
194.678	-66.9
194.897	-3.41
195.116	15.02
195.335	6.83
195.555	74.41
195.774	76.46
195.993	41.64
196.212	12.97
196.432	-13.65
196.651	-9.56
196.87	68.27
197.089	45.74
197.308	39.59
197.528	12.97
197.747	-9.56
197.966	-60.76
198.185	72.36
198.404	-27.99
198.623	41.64
198.842	76.46
199.062	-3.41
199.281	15.02
199.5	2.73
199.719	15.02
199.938	51.88
200.157	10.92
200.376	39.59
200.595	51.88
200.814	10.92
201.033	-54.61
201.252	23.21
201.471	60.07
201.69	25.26
201.909	15.02
202.128	23.21
202.347	80.55
202.566	-46.42
202.785	-50.52
203.004	-62.8
203.223	109.23
203.442	15.02
203.661	6.83
203.879	33.45
204.098	51.88
204.317	-23.89
204.536	-3.41
204.755	15.02
204.974	35.5
205.193	23.21
205.411	23.21
205.63	39.59
205.849	55.98
206.068	6.83
206.287	66.22
206.505	31.4
206.724	-5.46
206.943	68.27
207.162	-1.37
207.381	60.07
207.599	-5.46
207.818	51.88
208.037	15.02
208.255	72.36
208.474	49.83
208.693	-25.94
208.911	19.11
209.13	-19.8
209.349	-68.95
209.567	-30.04
209.786	35.5
210.005	31.4
210.223	19.11
210.442	-48.47
210.661	39.59
210.879	58.03
211.098	64.17
211.316	-34.13
211.535	17.07
211.753	35.5
211.972	35.5
212.191	-7.51
212.409	80.55
212.628	12.97
212.846	6.83
213.065	41.64
213.283	39.59
213.502	27.31
213.72	-7.51
213.938	25.26
214.157	-5.46
214.375	35.5
214.594	49.83
214.812	-9.56
215.031	-9.56
215.249	15.02
215.467	66.22
215.686	60.07
215.904	86.7
216.122	37.55
216.341	47.79
216.559	-15.7
216.778	68.27
216.996	55.98
217.214	49.83
217.432	43.69
217.651	21.16
217.869	6.83
218.087	6.83
218.306	47.79
218.524	4.78
218.742	4.78
218.96	55.98
219.179	-15.7
219.397	31.4
219.615	41.64
219.833	8.87
220.051	-56.66
220.27	86.7
220.488	105.13
220.706	31.4
220.924	-17.75
221.142	-7.51
221.36	51.88
221.578	64.17
221.796	-50.52
222.015	45.74
222.233	10.92
222.451	31.4
222.669	-1.37
222.887	-15.7
223.105	-38.23
223.323	27.31
223.541	-7.51
223.759	49.83
223.977	-25.94
224.195	70.31
224.413	49.83
224.631	-9.56
224.849	-17.75
225.067	-1.37
225.285	-48.47
225.503	41.64
225.721	27.31
225.939	35.5
226.157	51.88
226.375	203.43
226.592	-11.61
226.81	39.59
227.028	51.88
227.246	111.27
227.464	25.26
227.682	15.02
227.9	49.83
228.117	23.21
228.335	-17.75
228.553	33.45
228.771	-15.7
228.989	31.4
229.206	2.73
229.424	39.59
229.642	6.83
229.86	41.64
230.077	0.68
230.295	37.55
230.513	82.6
230.731	17.07
230.948	55.98
231.166	-42.32
231.384	-73.04
231.601	-13.65
231.819	33.45
232.037	31.4
232.254	-25.94
232.472	-34.13
232.689	4.78
232.907	55.98
233.125	-42.32
233.342	88.75
233.56	-38.23
233.777	-5.46
233.995	31.4
234.213	23.21
234.43	27.31
234.648	17.07
234.865	41.64
235.083	23.21
235.3	55.98
235.518	60.07
235.735	98.99
235.953	84.65
236.17	27.31
236.388	98.99
236.605	96.94
236.822	6.83
237.04	15.02
237.257	10.92
237.475	-9.56
237.692	31.4
237.909	86.7
238.127	25.26
238.344	31.4
238.562	-3.41
238.779	-32.08
238.996	-17.75
239.214	-19.8
239.431	64.17
239.648	23.21
239.865	43.69
240.083	19.11
240.3	41.64
240.517	121.51
240.735	-58.71
240.952	19.11
241.169	113.32
241.386	-17.75
241.603	33.45
241.821	-9.56
242.038	88.75
242.255	33.45
242.472	-32.08
242.689	43.69
242.907	47.79
243.124	35.5
243.341	-25.94
243.558	-46.42
243.775	17.07
243.992	55.98
244.209	8.87
244.426	88.75
244.643	12.97
244.86	33.45
245.078	41.64
245.295	6.83
245.512	10.92
245.729	74.41
245.946	10.92
246.163	41.64
246.38	-9.56
246.597	82.6
246.814	25.26
247.031	-42.32
247.248	39.59
247.464	88.75
247.681	-21.84
247.898	66.22
248.115	-5.46
248.332	-1.37
248.549	49.83
248.766	82.6
248.983	27.31
249.2	33.45
249.417	-9.56
249.633	15.02
249.85	58.03
250.067	4.78
250.284	66.22
250.501	39.59
250.717	115.37
250.934	-25.94
251.151	12.97
251.368	33.45
251.585	0.68
251.801	0.68
252.018	8.87
252.235	111.27
252.451	23.21
252.668	23.21
252.885	76.46
253.102	58.03
253.318	43.69
253.535	-19.8
253.752	12.97
253.968	-54.61
254.185	-30.04
254.401	-7.51
254.618	35.5
254.835	39.59
255.051	-19.8
255.268	31.4
255.484	80.55
255.701	10.92
255.917	90.79
256.134	72.36
256.351	-58.71
256.567	17.07
256.784	-7.51
257	23.21
257.217	55.98
257.433	41.64
257.65	10.92
257.866	58.03
258.082	17.07
258.299	41.64
258.515	37.55
258.732	-9.56
258.948	-3.41
259.165	15.02
259.381	27.31
259.597	-40.28
259.814	45.74
260.03	10.92
260.246	-38.23
260.463	43.69
260.679	86.7
260.895	-27.99
261.112	-23.89
261.328	2.73
261.544	33.45
261.761	80.55
261.977	6.83
262.193	64.17
262.409	17.07
262.626	39.59
262.842	64.17
263.058	-5.46
263.274	94.89
263.49	-9.56
263.707	60.07
263.923	60.07
264.139	47.79
264.355	41.64
264.571	80.55
264.787	-46.42
265.004	-17.75
265.22	-7.51
265.436	-34.13
265.652	23.21
265.868	-54.61
266.084	-1.37
266.3	23.21
266.516	15.02
266.732	33.45
266.948	6.83
267.164	-64.85
267.38	23.21
267.596	58.03
267.812	39.59
268.028	33.45
268.244	35.5
268.46	55.98
268.676	68.27
268.892	88.75
269.108	2.73
269.324	39.59
269.54	-15.7
269.756	60.07
269.972	23.21
270.188	51.88
270.403	-1.37
270.619	-25.94
270.835	101.03
271.051	35.5
271.267	-50.52
271.483	8.87
271.698	53.93
271.914	-42.32
272.13	12.97
272.346	-15.7
272.562	68.27
272.777	19.11
272.993	-25.94
273.209	-9.56
273.425	15.02
273.64	-48.47
273.856	55.98
274.072	-42.32
274.287	-17.75
274.503	90.79
274.719	51.88
274.934	10.92
275.15	-99.67
275.366	-54.61
275.581	-21.84
275.797	39.59
276.012	58.03
276.228	-34.13
276.444	-48.47
276.659	121.51
276.875	-46.42
277.09	-15.7
277.306	25.26
277.521	8.87
277.737	19.11
277.952	-36.18
278.168	2.73
278.383	45.74
278.599	23.21
278.814	-13.65
279.03	-50.52
279.245	64.17
279.461	10.92
279.676	-15.7
279.892	23.21
280.107	39.59
280.322	15.02
280.538	62.12
280.753	2.73
280.969	39.59
281.184	29.35
281.399	111.27
281.615	25.26
281.83	82.6
282.045	-1.37
282.26	55.98
282.476	-7.51
282.691	-1.37
282.906	31.4
283.122	47.79
283.337	2.73
283.552	133.8
283.767	-11.61
283.983	-19.8
284.198	35.5
284.413	-30.04
284.628	-21.84
284.843	31.4
285.058	21.16
285.274	66.22
285.489	27.31
285.704	33.45
285.919	33.45
286.134	-11.61
286.349	15.02
286.564	0.68
286.779	92.84
286.995	-25.94
287.21	-64.85
287.425	-1.37
287.64	72.36
287.855	60.07
288.07	39.59
288.285	-32.08
288.5	90.79
288.715	74.41
288.93	-17.75
289.145	8.87
289.36	12.97
289.575	6.83
289.79	4.78
290.004	-5.46
290.219	76.46
290.434	-1.37
290.649	8.87
290.864	31.4
291.079	-19.8
291.294	6.83
291.509	8.87
291.724	8.87
291.938	35.5
292.153	51.88
292.368	68.27
292.583	-1.37
292.798	-11.61
293.012	58.03
293.227	74.41
293.442	-30.04
293.657	80.55
293.871	113.32
294.086	15.02
294.301	72.36
294.516	41.64
294.73	-3.41
294.945	-25.94
295.16	64.17
295.374	72.36
295.589	6.83
295.804	-17.75
296.018	6.83
296.233	-1.37
296.447	17.07
296.662	-13.65
296.877	72.36
297.091	31.4
297.306	25.26
297.52	25.26
297.735	-38.23
297.949	33.45
298.164	37.55
298.378	74.41
298.593	-58.71
298.807	31.4
299.022	55.98
299.236	119.46
299.451	-46.42
299.665	51.88
299.88	64.17
300.094	25.26
300.309	94.89
300.523	55.98
300.737	0.68
300.952	33.45
301.166	47.79
301.381	8.87
301.595	-7.51
301.809	-25.94
302.024	-9.56
302.238	-9.56
302.452	25.26
302.667	66.22
302.881	41.64
303.095	60.07
303.309	15.02
303.524	-71
303.738	-38.23
303.952	-5.46
304.166	25.26
304.381	15.02
304.595	6.83
304.809	49.83
305.023	33.45
305.237	15.02
305.452	-1.37
305.666	17.07
305.88	-1.37
306.094	6.83
306.308	-7.51
306.522	-42.32
306.736	47.79
306.95	35.5
307.164	35.5
307.379	-23.89
307.593	23.21
307.807	47.79
308.021	72.36
308.235	37.55
308.449	-66.9
308.663	-32.08
308.877	23.21
309.091	41.64
309.305	43.69
309.519	-58.71
309.733	80.55
309.947	2.73
310.161	33.45
310.374	21.16
310.588	17.07
310.802	58.03
311.016	-64.85
311.23	-44.37
311.444	0.68
311.658	-34.13
311.872	82.6
312.085	-25.94
312.299	2.73
312.513	41.64
312.727	47.79
312.941	10.92
313.154	25.26
313.368	8.87
313.582	-38.23
313.796	19.11
314.009	51.88
314.223	49.83
314.437	-25.94
314.651	-19.8
314.864	-27.99
315.078	19.11
315.292	-44.37
315.505	8.87
315.719	27.31
315.933	-15.7
316.146	55.98
316.36	-17.75
316.573	72.36
316.787	68.27
317.001	-36.18
317.214	8.87
317.428	31.4
317.641	-42.32
317.855	21.16
318.068	55.98
318.282	49.83
318.495	107.18
318.709	15.02
318.922	2.73
319.136	23.21
319.349	49.83
319.563	10.92
319.776	47.79
319.99	10.92
320.203	15.02
320.417	29.35
320.63	31.4
320.843	88.75
321.057	-17.75
321.27	68.27
321.483	31.4
321.697	47.79
321.91	23.21
322.124	47.79
322.337	111.27
322.55	8.87
322.763	27.31
322.977	15.02
323.19	6.83
323.403	58.03
323.617	-1.37
323.83	103.08
324.043	15.02
324.256	2.73
324.469	27.31
324.683	35.5
324.896	15.02
325.109	64.17
325.322	41.64
325.535	25.26
325.748	58.03
325.962	0.68
326.175	-25.94
326.388	101.03
326.601	43.69
326.814	33.45
327.027	0.68
327.24	29.35
327.453	-38.23
327.666	68.27
327.879	84.65
328.092	105.13
328.305	-40.28
328.518	47.79
328.731	43.69
328.944	58.03
329.157	-62.8
329.37	60.07
329.583	27.31
329.796	96.94
330.009	8.87
330.222	27.31
330.435	23.21
330.648	-7.51
330.861	8.87
331.073	49.83
331.286	31.4
331.499	66.22
331.712	-50.52
331.925	55.98
332.138	0.68
332.35	15.02
332.563	70.31
332.776	51.88
332.989	25.26
333.202	15.02
333.414	0.68
333.627	10.92
333.84	-9.56
334.053	72.36
334.265	-46.42
334.478	10.92
334.691	66.22
334.903	33.45
335.116	82.6
335.329	-15.7
335.541	4.78
335.754	0.68
335.966	55.98
336.179	72.36
336.392	-17.75
336.604	-23.89
336.817	10.92
337.029	-7.51
337.242	23.21
337.454	98.99
337.667	47.79
337.88	-17.75
338.092	90.79
338.305	90.79
338.517	19.11
338.729	43.69
338.942	49.83
339.154	-32.08
339.367	-34.13
339.579	23.21
339.792	-9.56
340.004	-9.56
340.217	133.8
340.429	55.98
340.641	15.02
340.854	-60.76
341.066	-21.84
341.278	21.16
341.491	-17.75
341.703	-9.56
341.915	47.79
342.128	39.59
342.34	12.97
342.552	-15.7
342.764	-23.89
342.977	-40.28
343.189	88.75
343.401	-15.7
343.613	8.87
343.826	31.4
344.038	15.02
344.25	-7.51
344.462	94.89
344.674	-25.94
344.886	-5.46
345.099	41.64
345.311	-1.37
345.523	23.21
345.735	-11.61
345.947	15.02
346.159	-27.99
346.371	-7.51
346.583	-19.8
346.795	66.22
347.007	-9.56
347.219	49.83
347.431	-17.75
347.643	29.35
347.855	-9.56
348.067	58.03
348.279	-5.46
348.491	72.36
348.703	-32.08
348.915	6.83
349.127	-89.43
349.339	49.83
349.551	6.83
349.763	6.83
349.975	-15.7
350.187	15.02
350.399	45.74
350.61	68.27
350.822	43.69
351.034	55.98
351.246	-42.32
351.458	98.99
351.669	33.45
351.881	17.07
352.093	15.02
352.305	35.5
352.517	12.97
352.728	43.69
352.94	74.41
353.152	35.5
353.363	-58.71
353.575	41.64
353.787	86.7
353.999	-17.75
354.21	2.73
354.422	-9.56
354.633	68.27
354.845	23.21
355.057	25.26
355.268	62.12
355.48	-25.94
355.692	-48.47
355.903	31.4
356.115	88.75
356.326	-9.56
356.538	43.69
356.749	62.12
356.961	23.21
357.172	-9.56
357.384	-30.04
357.595	51.88
357.807	0.68
358.018	-34.13
358.23	39.59
358.441	107.18
358.653	53.93
358.864	-17.75
359.075	21.16
359.287	-19.8
359.498	39.59
359.709	43.69
359.921	76.46
360.132	-1.37
360.344	53.93
360.555	-25.94
360.766	62.12
360.977	86.7
361.189	58.03
361.4	64.17
361.611	39.59
361.823	17.07
362.034	-62.8
362.245	-71
362.456	-3.41
362.667	-30.04
362.879	15.02
363.09	64.17
363.301	-1.37
363.512	60.07
363.723	43.69
363.935	27.31
364.146	6.83
364.357	23.21
364.568	-9.56
364.779	-9.56
364.99	96.94
365.201	-21.84
365.412	6.83
365.623	19.11
365.834	92.84
366.045	-32.08
366.256	68.27
366.467	27.31
366.678	23.21
366.889	-7.51
367.1	-25.94
367.311	98.99
367.522	-7.51
367.733	41.64
367.944	49.83
368.155	-44.37
368.366	23.21
368.577	107.18
368.788	47.79
368.999	-21.84
369.209	41.64
369.42	76.46
369.631	105.13
369.842	64.17
370.053	80.55
370.264	6.83
370.474	74.41
370.685	10.92
370.896	31.4
371.107	70.31
371.317	70.31
371.528	33.45
371.739	66.22
371.95	39.59
372.16	80.55
372.371	-46.42
372.582	-1.37
372.792	76.46
373.003	72.36
373.214	31.4
373.424	-7.51
373.635	-56.66
373.846	8.87
374.056	31.4
374.267	41.64
374.477	60.07
374.688	-7.51
374.898	2.73
375.109	64.17
375.319	17.07
375.53	17.07
375.74	-9.56
375.951	-1.37
376.161	-9.56
376.372	80.55
376.582	-13.65
376.793	101.03
377.003	-11.61
377.214	-25.94
377.424	47.79
377.635	31.4
377.845	8.87
378.055	113.32
378.266	39.59
378.476	-32.08
378.686	76.46
378.897	39.59
379.107	-17.75
379.317	0.68
379.528	-48.47
379.738	58.03
379.948	-17.75
380.158	6.83
380.369	80.55
380.579	88.75
380.789	-21.84
380.999	47.79
381.21	10.92
381.42	53.93
381.63	-25.94
381.84	-64.85
382.05	-40.28
382.261	129.7
382.471	29.35
382.681	27.31
382.891	-23.89
383.101	-25.94
383.311	78.51
383.521	-25.94
383.731	-1.37
383.941	41.64
384.151	-32.08
384.361	0.68
384.571	33.45
384.781	96.94
384.991	105.13
385.201	17.07
385.411	23.21
385.621	64.17
385.831	70.31
386.041	19.11
386.251	66.22
386.461	12.97
386.671	29.35
386.881	55.98
387.091	0.68
387.301	19.11
387.511	0.68
387.72	43.69
387.93	49.83
388.14	-25.94
388.35	6.83
388.56	86.7
388.769	88.75
388.979	23.21
389.189	27.31
389.399	31.4
389.609	172.71
389.818	80.55
390.028	27.31
390.238	10.92
390.447	-32.08
390.657	72.36
390.867	39.59
391.076	25.26
391.286	113.32
391.496	88.75
391.705	33.45
391.915	6.83
392.125	23.21
392.334	47.79
392.544	158.38
392.753	6.83
392.963	15.02
393.172	19.11
393.382	0.68
393.591	58.03
393.801	58.03
394.01	47.79
394.22	76.46
394.429	47.79
394.639	94.89
394.848	51.88
395.058	47.79
395.267	37.55
395.477	98.99
395.686	17.07
395.895	141.99
396.105	31.4
396.314	105.13
396.524	101.03
396.733	12.97
396.942	47.79
397.152	-15.7
397.361	88.75
397.57	-11.61
397.78	70.31
397.989	66.22
398.198	117.42
398.407	88.75
398.617	39.59
398.826	82.6
399.035	10.92
399.244	60.07
399.453	64.17
399.663	23.21
399.872	88.75
400.081	25.26
400.29	51.88
400.499	55.98
400.708	121.51
400.917	35.5
401.127	39.59
401.336	105.13
401.545	125.61
401.754	162.47
401.963	96.94
402.172	105.13
402.381	84.65
402.59	27.31
402.799	33.45
403.008	125.61
403.217	43.69
403.426	62.12
403.635	58.03
403.844	64.17
404.053	68.27
404.262	86.7
404.471	105.13
404.68	125.61
404.888	53.93
405.097	148.14
405.306	86.7
405.515	60.07
405.724	84.65
405.933	158.38
406.142	199.34
406.35	156.33
406.559	199.34
406.768	121.51
406.977	84.65
407.185	129.7
407.394	191.14
407.603	78.51
407.812	219.82
408.02	121.51
408.229	156.33
408.438	203.43
408.646	205.48
408.855	121.51
409.064	84.65
409.272	158.38
409.481	154.28
409.69	162.47
409.898	162.47
410.107	146.09
410.315	219.82
410.524	271.01
410.733	260.77
410.941	260.77
411.15	219.82
411.358	244.39
411.567	230.06
411.775	301.73
411.984	391.84
412.192	322.21
412.401	260.77
412.609	287.4
412.818	320.17
413.026	373.41
413.234	371.37
413.443	363.17
413.651	328.36
413.86	397.99
414.068	342.69
414.276	424.61
414.485	416.42
414.693	490.15
414.901	481.96
415.11	393.89
415.318	488.1
415.526	533.15
415.734	524.96
415.943	502.44
416.151	633.51
416.359	502.44
416.567	510.63
416.776	645.79
416.984	672.42
417.192	613.03
417.4	649.89
417.608	670.37
417.817	703.14
418.025	719.52
418.233	817.82
418.441	836.25
418.649	809.63
418.857	889.5
419.065	875.17
419.273	834.21
419.481	952.99
419.689	1024.67
419.897	1012.38
420.105	1073.82
420.313	1014.43
420.521	1026.72
420.729	1202.84
420.937	1108.63
421.145	1129.11
421.353	1233.56
421.561	1342.1
421.769	1364.63
421.977	1235.61
422.185	1344.15
422.393	1434.26
422.601	1456.79
422.809	1538.71
423.017	1540.76
423.224	1630.87
423.432	1776.27
423.64	1686.16
423.848	1868.43
424.056	1698.45
424.263	1854.09
424.471	1886.86
424.679	2026.12
424.887	2013.84
425.094	2058.89
425.302	2153.1
425.51	2366.09
425.718	2366.09
425.925	2382.47
426.133	2370.18
426.341	2595.46
426.548	2566.79
426.756	2810.5
426.964	2652.8
427.171	2910.85
427.379	2869.89
427.586	2914.94
427.794	2996.86
428.001	3220.09
428.209	3228.28
428.417	3265.14
428.624	3547.76
428.832	3558
429.039	3572.34
429.247	3670.64
429.454	3947.12
429.662	4070
429.869	3791.47
430.076	4047.47
430.284	3848.82
430.491	4211.31
430.699	4381.29
430.906	4438.63
431.114	4536.93
431.321	4643.43
431.528	4659.81
431.736	5061.21
431.943	5143.13
432.15	5020.25
432.358	5089.89
432.565	5384.79
432.772	5302.87
432.979	5618.26
433.187	5759.57
433.394	5804.63
433.601	6134.35
433.808	6224.46
434.016	6134.35
434.223	6359.63
434.43	6812.23
434.637	6705.73
434.844	6859.33
435.052	7322.17
435.259	7221.82
435.466	7076.41
435.673	7234.11
435.88	7602.74
436.087	7995.95
436.294	7954.99
436.501	7871.03
436.708	7932.47
436.915	8233.52
437.122	8614.44
437.329	8591.91
437.537	8950.31
437.743	9034.27
437.95	8802.85
438.157	9267.74
438.364	9452.06
438.571	9640.47
438.778	9722.39
438.985	10547.72
439.192	10320.4
439.399	10394.12
439.606	10232.33
439.813	10779.14
440.02	11663.86
440.227	11311.61
440.433	11080.19
440.64	11670.01
440.847	11463.16
441.054	11911.67
441.261	12601.83
441.467	12368.37
441.674	12685.8
441.881	13195.75
442.088	12900.84
442.294	13003.24
442.501	13248.99
442.708	13574.62
442.914	13869.53
443.121	14707.15
443.328	14414.29
443.534	15098.31
443.741	14723.53
443.948	14498.25
444.154	15882.68
444.361	15366.59
444.568	15550.91
444.774	15624.64
444.981	15780.28
445.187	16181.68
445.394	16867.75
445.6	17029.54
445.807	18364.82
446.013	17381.79
446.22	17711.52
446.426	18721.16
446.633	18880.91
446.839	19356.04
447.046	18424.21
447.252	19509.63
447.459	19722.62
447.665	19607.94
447.871	20298.1
448.078	21338.47
448.284	20232.57
448.491	20777.33
448.697	21686.62
448.903	22153.56
449.11	22178.14
449.316	21594.47
449.522	22161.75
449.728	22733.14
449.935	22987.08
450.141	22851.92
450.347	23548.23
450.553	22597.97
450.76	23245.13
450.966	23947.58
451.172	23574.85
451.378	24123.71
451.584	23568.71
451.791	24463.67
451.997	24154.43
452.203	24549.68
452.409	24682.8
452.615	24512.82
452.821	23566.66
453.027	23361.86
453.233	24525.11
453.44	23630.15
453.646	24103.23
453.852	23923.01
454.058	24172.86
454.264	23904.57
454.47	24353.08
454.676	23630.15
454.882	24346.94
455.088	22362.45
455.294	22808.91
455.5	22995.28
455.705	23069
455.911	22243.67
456.117	21891.42
456.323	21713.25
456.529	20310.39
456.735	21551.46
456.941	20965.74
457.147	20257.14
457.352	19929.47
457.558	19722.62
457.764	19726.72
457.97	19476.87
458.176	19081.61
458.381	19163.53
458.587	18004.38
458.793	17914.27
458.999	17000.87
459.204	18262.42
459.41	17787.29
459.616	16544.17
459.821	16939.43
460.027	16718.25
460.233	16204.21
460.438	15770.04
460.644	15485.37
460.85	14936.52
461.055	14703.05
461.261	14768.59
461.466	13597.15
461.672	13197.79
461.878	14174.67
462.083	13246.94
462.289	12585.45
462.494	12646.89
462.7	12081.65
462.905	11694.58
463.111	12368.37
463.316	12288.5
463.522	12100.08
463.727	12186.1
463.932	12126.71
464.138	11901.43
464.343	12098.03
464.549	11518.46
464.754	11979.25
464.959	12009.97
465.165	11852.28
465.37	11473.4
465.575	10934.79
465.781	11475.45
465.986	11696.63
466.191	11141.63
466.397	10848.77
466.602	10643.98
466.807	10908.16
467.012	10875.4
467.218	10680.84
467.423	10631.69
467.628	10678.79
467.833	11106.82
