Data from USB4F104151__124__14-43-58-089.txt Node

Date: Thu Mar 13 14:43:58 EDT 2025
User: louis
Spectrometer: USB4F10415
Trigger mode: 4
Integration Time (sec): 2.000000E-2
Scans to average: 1
Electric dark correction enabled: true
Nonlinearity correction enabled: false
Boxcar width: 0
XAxis mode: Wavelengths
Number of Pixels in Spectrum: 3648
>>>>>Begin Spectral Data<<<<<
178.204	-187.22
178.424	-187.22
178.644	-187.22
178.864	-150.36
179.084	-146.26
179.304	-37.72
179.524	62.63
179.744	9.39
179.964	46.25
180.184	-23.38
180.404	-9.05
180.624	-4.95
180.844	-27.48
181.064	-29.52
181.283	-11.09
181.503	17.58
181.723	7.34
181.943	-9.05
182.163	-19.29
182.383	5.29
182.602	-9.05
182.822	70.83
183.042	72.87
183.262	21.67
183.482	25.77
183.701	-43.86
183.921	7.34
184.141	5.29
184.361	21.67
184.58	50.35
184.8	-56.15
185.02	-54.1
185.239	156.84
185.459	72.87
185.679	-11.09
185.898	15.53
186.118	1.19
186.338	-9.05
186.557	46.25
186.777	-60.24
186.997	5.29
187.216	103.59
187.436	95.4
187.655	52.39
187.875	29.87
188.095	50.35
188.314	81.07
188.534	79.02
188.753	-93.01
188.973	-41.81
189.192	66.73
189.412	-2.9
189.631	-50
189.851	-4.95
190.07	54.44
190.29	-80.72
190.509	25.77
190.729	48.3
190.948	64.68
191.168	115.88
191.387	13.48
191.607	-23.38
191.826	46.25
192.045	5.29
192.265	54.44
192.484	-17.24
192.704	29.87
192.923	5.29
193.142	83.11
193.362	17.58
193.581	46.25
193.8	7.34
194.02	7.34
194.239	19.63
194.458	31.91
194.678	-11.09
194.897	17.58
195.116	-19.29
195.335	-41.81
195.555	33.96
195.774	-21.33
195.993	56.49
196.212	1.19
196.432	-19.29
196.651	15.53
196.87	54.44
197.089	119.98
197.308	-0.85
197.528	7.34
197.747	-41.81
197.966	70.83
198.185	-17.24
198.404	9.39
198.623	-2.9
198.842	46.25
199.062	52.39
199.281	60.59
199.5	-19.29
199.719	27.82
199.938	-47.96
200.157	44.2
200.376	15.53
200.595	-23.38
200.814	29.87
201.033	-27.48
201.252	-35.67
201.471	21.67
201.69	46.25
201.909	5.29
202.128	76.97
202.347	25.77
202.566	50.35
202.785	1.19
203.004	-39.76
203.223	29.87
203.442	21.67
203.661	-64.34
203.879	79.02
204.098	89.26
204.317	-68.44
204.536	13.48
204.755	29.87
204.974	7.34
205.193	46.25
205.411	7.34
205.63	23.72
205.849	42.15
206.068	-47.96
206.287	-9.05
206.505	46.25
206.724	42.15
206.943	-27.48
207.162	-60.24
207.381	-37.72
207.599	23.72
207.818	33.96
208.037	-33.62
208.255	-43.86
208.474	15.53
208.693	52.39
208.911	-56.15
209.13	25.77
209.349	-19.29
209.567	115.88
209.786	62.63
210.005	46.25
210.223	5.29
210.442	-60.24
210.661	64.68
210.879	21.67
211.098	9.39
211.316	5.29
211.535	50.35
211.753	33.96
211.972	56.49
212.191	13.48
212.409	-33.62
212.628	46.25
212.846	1.19
213.065	23.72
213.283	-43.86
213.502	60.59
213.72	-50
213.938	15.53
214.157	-68.44
214.375	21.67
214.594	21.67
214.812	1.19
215.031	-52.05
215.249	17.58
215.467	3.24
215.686	13.48
215.904	70.83
216.122	38.06
216.341	36.01
216.559	40.11
216.778	42.15
216.996	13.48
217.214	11.43
217.432	11.43
217.651	-23.38
217.869	-72.53
218.087	36.01
218.306	-23.38
218.524	-31.57
218.742	27.82
218.96	-27.48
219.179	-27.48
219.397	38.06
219.615	54.44
219.833	99.5
220.051	-0.85
220.27	29.87
220.488	-19.29
220.706	81.07
220.924	33.96
221.142	-7
221.36	54.44
221.578	7.34
221.796	79.02
222.015	27.82
222.233	1.19
222.451	7.34
222.669	-19.29
222.887	42.15
223.105	-60.24
223.323	-2.9
223.541	-50
223.759	-0.85
223.977	50.35
224.195	115.88
224.413	107.69
224.631	54.44
224.849	13.48
225.067	124.07
225.285	5.29
225.503	-27.48
225.721	21.67
225.939	-80.72
226.157	-29.52
226.375	42.15
226.592	40.11
226.81	64.68
227.028	83.11
227.246	13.48
227.464	9.39
227.682	62.63
227.9	5.29
228.117	5.29
228.335	74.92
228.553	-23.38
228.771	29.87
228.989	46.25
229.206	107.69
229.424	42.15
229.642	-7
229.86	29.87
230.077	72.87
230.295	38.06
230.513	31.91
230.731	58.54
230.948	33.96
231.166	54.44
231.384	-72.53
231.601	-2.9
231.819	33.96
232.037	23.72
232.254	-43.86
232.472	-2.9
232.689	-19.29
232.907	42.15
233.125	46.25
233.342	11.43
233.56	66.73
233.777	-52.05
233.995	13.48
234.213	-25.43
234.43	25.77
234.648	40.11
234.865	-17.24
235.083	-2.9
235.3	-2.9
235.518	64.68
235.735	36.01
235.953	177.32
236.17	23.72
236.388	31.91
236.605	-54.1
236.822	-2.9
237.04	11.43
237.257	-13.14
237.475	54.44
237.692	42.15
237.909	29.87
238.127	56.49
238.344	154.79
238.562	29.87
238.779	13.48
238.996	-41.81
239.214	-15.19
239.431	25.77
239.648	1.19
239.865	62.63
240.083	31.91
240.3	13.48
240.517	9.39
240.735	5.29
240.952	101.55
241.169	52.39
241.386	17.58
241.603	-2.9
241.821	13.48
242.038	66.73
242.255	38.06
242.472	64.68
242.689	-9.05
242.907	23.72
243.124	-62.29
243.341	13.48
243.558	29.87
243.775	13.48
243.992	-7
244.209	3.24
244.426	64.68
244.643	25.77
244.86	13.48
245.078	-11.09
245.295	23.72
245.512	76.97
245.729	17.58
245.946	-9.05
246.163	46.25
246.38	21.67
246.597	21.67
246.814	15.53
247.031	17.58
247.248	17.58
247.464	-15.19
247.681	-0.85
247.898	46.25
248.115	-19.29
248.332	46.25
248.549	23.72
248.766	91.31
248.983	38.06
249.2	25.77
249.417	148.65
249.633	3.24
249.85	79.02
250.067	19.63
250.284	-35.67
250.501	58.54
250.717	-43.86
250.934	-41.81
251.151	66.73
251.368	-13.14
251.585	46.25
251.801	-27.48
252.018	46.25
252.235	54.44
252.451	-7
252.668	60.59
252.885	21.67
253.102	101.55
253.318	25.77
253.535	-25.43
253.752	-25.43
253.968	-47.96
254.185	54.44
254.401	21.67
254.618	19.63
254.835	46.25
255.051	48.3
255.268	-23.38
255.484	-0.85
255.701	-21.33
255.917	87.21
256.134	-37.72
256.351	25.77
256.567	54.44
256.784	23.72
257	-45.91
257.217	-2.9
257.433	31.91
257.65	46.25
257.866	-7
258.082	-39.76
258.299	-43.86
258.515	23.72
258.732	-19.29
258.948	-11.09
259.165	21.67
259.381	-11.09
259.597	56.49
259.814	-33.62
260.03	-11.09
260.246	5.29
260.463	-52.05
260.679	56.49
260.895	-23.38
261.112	54.44
261.328	62.63
261.544	-41.81
261.761	95.4
261.977	-43.86
262.193	-19.29
262.409	-11.09
262.626	23.72
262.842	1.19
263.058	13.48
263.274	87.21
263.49	54.44
263.707	13.48
263.923	38.06
264.139	-15.19
264.355	29.87
264.571	-29.52
264.787	38.06
265.004	62.63
265.22	-0.85
265.436	-35.67
265.652	-4.95
265.868	19.63
266.084	76.97
266.3	29.87
266.516	-13.14
266.732	-11.09
266.948	-43.86
267.164	21.67
267.38	54.44
267.596	23.72
267.812	126.12
268.028	-25.43
268.244	56.49
268.46	1.19
268.676	25.77
268.892	87.21
269.108	-19.29
269.324	54.44
269.54	31.91
269.756	13.48
269.972	38.06
270.188	7.34
270.403	17.58
270.619	-80.72
270.835	38.06
271.051	-2.9
271.267	64.68
271.483	38.06
271.698	-25.43
271.914	-31.57
272.13	-9.05
272.346	-25.43
272.562	46.25
272.777	25.77
272.993	-27.48
273.209	56.49
273.425	52.39
273.64	5.29
273.856	31.91
274.072	40.11
274.287	58.54
274.503	9.39
274.719	54.44
274.934	-66.39
275.15	-56.15
275.366	70.83
275.581	-23.38
275.797	-58.2
276.012	-41.81
276.228	7.34
276.444	83.11
276.659	42.15
276.875	-47.96
277.09	-64.34
277.306	31.91
277.521	17.58
277.737	-25.43
277.952	95.4
278.168	33.96
278.383	50.35
278.599	66.73
278.814	5.29
279.03	54.44
279.245	27.82
279.461	-9.05
279.676	1.19
279.892	15.53
280.107	58.54
280.322	21.67
280.538	-9.05
280.753	11.43
280.969	50.35
281.184	40.11
281.399	-50
281.615	72.87
281.83	29.87
282.045	-21.33
282.26	-11.09
282.476	-7
282.691	13.48
282.906	25.77
283.122	50.35
283.337	-9.05
283.552	79.02
283.767	46.25
283.983	31.91
284.198	46.25
284.413	15.53
284.628	-45.91
284.843	46.25
285.058	48.3
285.274	62.63
285.489	9.39
285.704	56.49
285.919	1.19
286.134	-0.85
286.349	17.58
286.564	38.06
286.779	-31.57
286.995	70.83
287.21	-13.14
287.425	68.78
287.64	17.58
287.855	25.77
288.07	21.67
288.285	62.63
288.5	70.83
288.715	1.19
288.93	13.48
289.145	-29.52
289.36	87.21
289.575	38.06
289.79	31.91
290.004	-39.76
290.219	29.87
290.434	31.91
290.649	-76.63
290.864	-60.24
291.079	7.34
291.294	1.19
291.509	29.87
291.724	-35.67
291.938	62.63
292.153	27.82
292.368	87.21
292.583	33.96
292.798	79.02
293.012	70.83
293.227	52.39
293.442	40.11
293.657	46.25
293.871	13.48
294.086	-95.06
294.301	13.48
294.516	19.63
294.73	25.77
294.945	-2.9
295.16	9.39
295.374	23.72
295.589	13.48
295.804	31.91
296.018	-52.05
296.233	62.63
296.447	9.39
296.662	-50
296.877	111.78
297.091	9.39
297.306	-27.48
297.52	-4.95
297.735	9.39
297.949	74.92
298.164	15.53
298.378	-27.48
298.593	13.48
298.807	29.87
299.022	29.87
299.236	62.63
299.451	19.63
299.665	17.58
299.88	-35.67
300.094	-21.33
300.309	38.06
300.523	85.16
300.737	7.34
300.952	83.11
301.166	21.67
301.381	-31.57
301.595	-31.57
301.809	17.58
302.024	-66.39
302.238	-58.2
302.452	56.49
302.667	-47.96
302.881	46.25
303.095	-2.9
303.309	79.02
303.524	-7
303.738	13.48
303.952	-0.85
304.166	29.87
304.381	-17.24
304.595	46.25
304.809	-54.1
305.023	72.87
305.237	-0.85
305.452	54.44
305.666	1.19
305.88	38.06
306.094	1.19
306.308	81.07
306.522	38.06
306.736	70.83
306.95	33.96
307.164	29.87
307.379	3.24
307.593	31.91
307.807	54.44
308.021	25.77
308.235	101.55
308.449	-27.48
308.663	17.58
308.877	79.02
309.091	38.06
309.305	23.72
309.519	-113.49
309.733	60.59
309.947	29.87
310.161	64.68
310.374	72.87
310.588	48.3
310.802	54.44
311.016	-19.29
311.23	40.11
311.444	38.06
311.658	40.11
311.872	62.63
312.085	-64.34
312.299	58.54
312.513	-41.81
312.727	44.2
312.941	38.06
313.154	95.4
313.368	-9.05
313.582	5.29
313.796	31.91
314.009	-2.9
314.223	-11.09
314.437	33.96
314.651	5.29
314.864	-45.91
315.078	21.67
315.292	-2.9
315.505	29.87
315.719	23.72
315.933	70.83
316.146	17.58
316.36	-2.9
316.573	21.67
316.787	36.01
317.001	33.96
317.214	-11.09
317.428	50.35
317.641	17.58
317.855	46.25
318.068	1.19
318.282	23.72
318.495	27.82
318.709	29.87
318.922	31.91
319.136	70.83
319.349	-2.9
319.563	-80.72
319.776	-17.24
319.99	-19.29
320.203	54.44
320.417	-13.14
320.63	29.87
320.843	38.06
321.057	23.72
321.27	44.2
321.483	-47.96
321.697	62.63
321.91	38.06
322.124	23.72
322.337	15.53
322.55	17.58
322.763	-2.9
322.977	38.06
323.19	23.72
323.403	99.5
323.617	-43.86
323.83	85.16
324.043	1.19
324.256	-23.38
324.469	-7
324.683	15.53
324.896	-0.85
325.109	46.25
325.322	17.58
325.535	99.5
325.748	95.4
325.962	11.43
326.175	46.25
326.388	31.91
326.601	58.54
326.814	-2.9
327.027	17.58
327.24	1.19
327.453	-2.9
327.666	-9.05
327.879	21.67
328.092	40.11
328.305	21.67
328.518	1.19
328.731	-11.09
328.944	7.34
329.157	17.58
329.37	-56.15
329.583	68.78
329.796	103.59
330.009	-33.62
330.222	5.29
330.435	-15.19
330.648	13.48
330.861	-19.29
331.073	38.06
331.286	33.96
331.499	31.91
331.712	-19.29
331.925	-43.86
332.138	95.4
332.35	74.92
332.563	15.53
332.776	-7
332.989	-15.19
333.202	1.19
333.414	54.44
333.627	-11.09
333.84	17.58
334.053	29.87
334.265	3.24
334.478	-41.81
334.691	58.54
334.903	-11.09
335.116	5.29
335.329	95.4
335.541	50.35
335.754	29.87
335.966	56.49
336.179	91.31
336.392	-17.24
336.604	21.67
336.817	40.11
337.029	72.87
337.242	-2.9
337.454	81.07
337.667	-52.05
337.88	103.59
338.092	13.48
338.305	29.87
338.517	23.72
338.729	-15.19
338.942	72.87
339.154	27.82
339.367	-52.05
339.579	-27.48
339.792	-9.05
340.004	62.63
340.217	99.5
340.429	87.21
340.641	-33.62
340.854	7.34
341.066	-39.76
341.278	21.67
341.491	13.48
341.703	46.25
341.915	40.11
342.128	-0.85
342.34	13.48
342.552	21.67
342.764	68.78
342.977	23.72
343.189	54.44
343.401	-39.76
343.613	36.01
343.826	25.77
344.038	-35.67
344.25	68.78
344.462	7.34
344.674	-43.86
344.886	13.48
345.099	56.49
345.311	54.44
345.523	31.91
345.735	-0.85
345.947	-4.95
346.159	13.48
346.371	54.44
346.583	-15.19
346.795	87.21
347.007	3.24
347.219	-4.95
347.431	42.15
347.643	38.06
347.855	-17.24
348.067	-58.2
348.279	38.06
348.491	62.63
348.703	74.92
348.915	-4.95
349.127	-80.72
349.339	-17.24
349.551	-0.85
349.763	79.02
349.975	64.68
350.187	27.82
350.399	97.45
350.61	-4.95
350.822	21.67
351.034	38.06
351.246	97.45
351.458	19.63
351.669	95.4
351.881	44.2
352.093	1.19
352.305	25.77
352.517	-25.43
352.728	40.11
352.94	38.06
353.152	48.3
353.363	-56.15
353.575	58.54
353.787	58.54
353.999	81.07
354.21	56.49
354.422	17.58
354.633	1.19
354.845	5.29
355.057	54.44
355.268	58.54
355.48	17.58
355.692	-25.43
355.903	99.5
356.115	-2.9
356.326	-70.48
356.538	79.02
356.749	25.77
356.961	48.3
357.172	13.48
357.384	36.01
357.595	52.39
357.807	-76.63
358.018	-2.9
358.23	68.78
358.441	87.21
358.653	56.49
358.864	7.34
359.075	-11.09
359.287	9.39
359.498	64.68
359.709	-76.63
359.921	60.59
360.132	23.72
360.344	31.91
360.555	29.87
360.766	-19.29
360.977	29.87
361.189	15.53
361.4	33.96
361.611	95.4
361.823	19.63
362.034	66.73
362.245	-43.86
362.456	17.58
362.667	40.11
362.879	29.87
363.09	52.39
363.301	-33.62
363.512	-27.48
363.723	74.92
363.935	40.11
364.146	89.26
364.357	13.48
364.568	85.16
364.779	7.34
364.99	62.63
365.201	-82.77
365.412	-23.38
365.623	-33.62
365.834	124.07
366.045	33.96
366.256	81.07
366.467	58.54
366.678	13.48
366.889	31.91
367.1	23.72
367.311	85.16
367.522	-62.29
367.733	54.44
367.944	46.25
368.155	23.72
368.366	91.31
368.577	21.67
368.788	136.36
368.999	38.06
369.209	62.63
369.42	152.74
369.631	68.78
369.842	70.83
370.053	40.11
370.264	42.15
370.474	-2.9
370.685	-58.2
370.896	5.29
371.107	36.01
371.317	-39.76
371.528	-0.85
371.739	23.72
371.95	50.35
372.16	79.02
372.371	42.15
372.582	52.39
372.792	81.07
373.003	-15.19
373.214	33.96
373.424	124.07
373.635	-66.39
373.846	23.72
374.056	60.59
374.267	11.43
374.477	15.53
374.688	-68.44
374.898	64.68
375.109	-56.15
375.319	46.25
375.53	46.25
375.74	109.74
375.951	36.01
376.161	13.48
376.372	48.3
376.582	21.67
376.793	56.49
377.003	-27.48
377.214	29.87
377.424	101.55
377.635	5.29
377.845	-62.29
378.055	21.67
378.266	40.11
378.476	56.49
378.686	42.15
378.897	66.73
379.107	29.87
379.317	72.87
379.528	21.67
379.738	17.58
379.948	13.48
380.158	58.54
380.369	25.77
380.579	13.48
380.789	50.35
380.999	1.19
381.21	17.58
381.42	64.68
381.63	56.49
381.84	31.91
382.05	56.49
382.261	29.87
382.471	46.25
382.681	29.87
382.891	103.59
383.101	56.49
383.311	38.06
383.521	62.63
383.731	15.53
383.941	54.44
384.151	11.43
384.361	119.98
384.571	68.78
384.781	54.44
384.991	87.21
385.201	9.39
385.411	19.63
385.621	38.06
385.831	62.63
386.041	46.25
386.251	62.63
386.461	128.17
386.671	-52.05
386.881	64.68
387.091	23.72
387.301	60.59
387.511	-11.09
387.72	99.5
387.93	124.07
388.14	-31.57
388.35	50.35
388.56	64.68
388.769	38.06
388.979	81.07
389.189	-41.81
389.399	72.87
389.609	-13.14
389.818	-9.05
390.028	-27.48
390.238	107.69
390.447	48.3
390.657	48.3
390.867	70.83
391.076	-19.29
391.286	38.06
391.496	31.91
391.705	38.06
391.915	-0.85
392.125	46.25
392.334	13.48
392.544	31.91
392.753	-23.38
392.963	9.39
393.172	60.59
393.382	48.3
393.591	66.73
393.801	-29.52
394.01	119.98
394.22	154.79
394.429	-27.48
394.639	23.72
394.848	93.35
395.058	9.39
395.267	19.63
395.477	56.49
395.686	105.64
395.895	79.02
396.105	103.59
396.314	38.06
396.524	48.3
396.733	56.49
396.942	126.12
397.152	95.4
397.361	119.98
397.57	-0.85
397.78	132.26
397.989	54.44
398.198	111.78
398.407	17.58
398.617	83.11
398.826	9.39
399.035	107.69
399.244	74.92
399.453	122.02
399.663	103.59
399.872	46.25
400.081	105.64
400.29	134.31
400.499	46.25
400.708	113.83
400.917	29.87
401.127	111.78
401.336	38.06
401.545	210.09
401.754	128.17
401.963	111.78
402.172	29.87
402.381	79.02
402.59	103.59
402.799	87.21
403.008	107.69
403.217	89.26
403.426	107.69
403.635	87.21
403.844	93.35
404.053	132.26
404.262	72.87
404.471	216.23
404.68	95.4
404.888	60.59
405.097	169.13
405.306	162.98
405.515	105.64
405.724	136.36
405.933	144.55
406.142	140.46
406.35	185.51
406.559	154.79
406.768	152.74
406.977	146.6
407.185	136.36
407.394	214.18
407.603	74.92
407.812	119.98
408.02	146.6
408.229	167.08
408.438	177.32
408.646	154.79
408.855	185.51
409.064	218.28
409.272	208.04
409.481	244.9
409.69	246.95
409.898	240.81
410.107	251.05
410.315	271.53
410.524	193.7
410.733	226.47
410.941	228.52
411.15	251.05
411.358	283.81
411.567	335.01
411.775	337.06
411.984	330.92
412.192	335.01
412.401	345.25
412.609	408.74
412.818	441.51
413.026	443.56
413.234	443.56
413.443	382.12
413.651	367.78
413.86	484.52
414.068	421.03
414.276	537.76
414.485	541.86
414.693	496.8
414.901	554.15
415.11	527.52
415.318	568.48
415.526	529.57
415.734	593.06
415.943	617.63
416.151	652.45
416.359	668.83
416.567	693.41
416.776	707.74
416.984	707.74
417.192	785.57
417.4	744.61
417.608	914.59
417.817	859.29
418.025	849.05
418.233	996.51
418.441	754.85
418.649	957.6
418.857	988.32
419.065	980.12
419.273	1094.81
419.481	1105.05
419.689	1103
419.897	1213.59
420.105	1158.3
420.313	1275.03
420.521	1285.27
420.729	1283.22
420.937	1236.12
421.145	1430.68
421.353	1395.86
421.561	1465.49
421.769	1553.55
421.977	1588.37
422.185	1641.62
422.393	1803.41
422.601	1754.26
422.809	1813.65
423.017	1758.35
423.224	1823.89
423.432	1971.34
423.64	2006.16
423.848	2225.29
424.056	2077.83
424.263	2278.54
424.471	2299.02
424.679	2339.97
424.887	2337.93
425.094	2555.01
425.302	2571.4
425.51	2489.48
425.718	2557.06
425.925	2700.42
426.133	2823.3
426.341	2980.99
426.548	3044.48
426.756	3060.86
426.964	3030.14
427.171	3222.65
427.379	3376.25
427.586	3327.1
427.794	3474.55
428.001	3740.79
428.209	3966.06
428.417	3773.55
428.624	4068.46
428.832	4035.69
429.039	4144.24
429.247	4213.87
429.454	4293.74
429.662	4781.15
429.869	4355.18
430.076	4760.67
430.284	4609.12
430.491	4955.23
430.699	5112.92
430.906	5217.37
431.114	5108.83
431.321	5278.81
431.528	5672.02
431.736	5727.32
431.943	5925.97
432.15	5794.9
432.358	5846.1
432.565	6110.29
432.772	6007.89
432.979	6468.68
433.187	6659.14
433.394	6681.67
433.601	7038.02
433.808	7115.84
434.016	7009.34
434.223	7578.68
434.43	7834.68
434.637	7732.28
434.844	8154.16
435.052	8352.81
435.259	8262.7
435.466	8375.34
435.673	8256.56
435.88	8752.17
436.087	9303.07
436.294	9239.58
436.501	9077.79
436.708	9212.96
436.915	9456.67
437.122	10050.58
437.329	10077.2
437.537	10032.15
437.743	10269.71
437.95	10339.34
438.157	10998.79
438.364	11072.51
438.571	11088.9
438.778	11209.73
438.985	12182.51
439.192	11832.31
439.399	12162.03
439.606	11820.02
439.813	12393.45
440.02	13433.82
440.227	12794.86
440.433	13239.26
440.64	13345.76
440.847	13325.28
441.054	13681.63
441.261	14527.44
441.467	14332.88
441.674	14506.96
441.881	15053.76
442.088	15010.76
442.294	15010.76
442.501	15391.68
442.708	15512.51
442.914	16473.01
443.121	17011.62
443.328	16606.13
443.534	17496.99
443.741	17197.99
443.948	17005.48
444.154	18144.15
444.361	18066.33
444.568	18039.7
444.774	18002.84
444.981	18324.37
445.187	18877.32
445.394	19624.83
445.6	19438.47
445.807	21275.49
446.013	20540.27
446.22	20491.12
446.426	21320.55
446.633	21773.15
446.839	22354.77
447.046	21576.55
447.252	22737.74
447.459	22717.26
447.665	22788.94
447.871	23642.95
448.078	24646.45
448.284	23282.5
448.491	24089.4
448.697	24912.69
448.903	25760.55
449.11	25727.78
449.316	25266.99
449.522	25869.09
449.728	26393.37
449.935	26645.27
450.141	26878.74
450.347	27284.23
450.553	26456.85
450.76	26977.04
450.966	27548.42
451.172	27136.78
451.378	28355.32
451.584	27505.41
451.791	28394.23
451.997	28082.94
452.203	28625.65
452.409	28721.91
452.615	28732.15
452.821	27308.81
453.027	27462.41
453.233	28560.12
453.44	27564.81
453.646	27855.62
453.852	28025.6
454.058	28533.5
454.264	27716.36
454.47	28304.12
454.676	27521.8
454.882	28730.1
455.088	26235.67
455.294	26559.25
455.5	26911.5
455.705	27253.51
455.911	26069.79
456.117	25598.76
456.323	25287.46
456.529	24286.01
456.735	25207.59
456.941	24439.61
457.147	24163.13
457.352	23540.55
457.558	23268.17
457.764	23169.87
457.97	22911.82
458.176	22477.65
458.381	21926.75
458.587	21148.52
458.793	21388.13
458.999	20292.47
459.204	21506.91
459.41	20749.17
459.616	19682.17
459.821	19721.09
460.027	19749.76
460.233	19235.72
460.438	18346.9
460.644	18463.63
460.85	17605.53
461.055	17271.72
461.261	17675.16
461.466	16145.33
461.672	15705.02
461.878	16642.99
462.083	15463.36
462.289	15152.07
462.494	14986.18
462.7	14521.29
462.905	14242.77
463.111	14814.15
463.316	14470.09
463.522	14068.69
463.727	14300.11
463.932	14347.22
464.138	14279.63
464.343	14218.19
464.549	13622.23
464.754	14089.17
464.959	14085.08
465.165	14095.32
465.37	13231.07
465.575	13108.19
465.781	13771.74
465.986	13560.8
466.191	13171.68
466.397	12786.66
466.602	12309.49
466.807	12735.46
467.012	12854.25
467.218	12706.79
