Data from USB4F104151__54__14-43-09-640.txt Node

Date: Thu Mar 13 14:43:09 EDT 2025
User: louis
Spectrometer: USB4F10415
Trigger mode: 4
Integration Time (sec): 2.000000E-2
Scans to average: 1
Electric dark correction enabled: true
Nonlinearity correction enabled: false
Boxcar width: 0
XAxis mode: Wavelengths
Number of Pixels in Spectrum: 3648
>>>>>Begin Spectral Data<<<<<
178.204	-106.15
178.424	-106.15
178.644	-106.15
178.864	-114.34
179.084	-120.49
179.304	-26.28
179.524	0.34
179.744	-34.47
179.964	14.68
180.184	-16.04
180.404	65.88
180.624	-71.34
180.844	24.92
181.064	31.06
181.283	35.16
181.503	-46.76
181.723	22.87
181.943	-42.67
182.163	39.25
182.383	53.59
182.602	14.68
182.822	14.68
183.042	-30.38
183.262	-3.75
183.482	49.49
183.701	10.58
183.921	8.53
184.141	-24.23
184.361	69.97
184.58	72.02
184.8	31.06
185.02	26.96
185.239	-7.85
185.459	-9.9
185.679	61.78
185.898	-26.28
186.118	63.83
186.338	-26.28
186.557	96.6
186.777	-42.67
186.997	49.49
187.216	-9.9
187.436	31.06
187.655	155.99
187.875	55.64
188.095	63.83
188.314	22.87
188.534	104.79
188.753	-34.47
188.973	20.82
189.192	92.5
189.412	10.58
189.631	31.06
189.851	-26.28
190.07	31.06
190.29	-54.95
190.509	59.73
190.729	-18.09
190.948	84.31
191.168	168.27
191.387	41.3
191.607	-16.04
191.826	74.07
192.045	76.12
192.265	-7.85
192.484	6.49
192.704	18.77
192.923	-67.24
193.142	63.83
193.362	-9.9
193.581	104.79
193.8	29.01
194.02	29.01
194.239	12.63
194.458	-42.67
194.678	-7.85
194.897	6.49
195.116	63.83
195.335	90.45
195.555	26.96
195.774	49.49
195.993	-16.04
196.212	6.49
196.432	-59.05
196.651	57.68
196.87	2.39
197.089	47.44
197.308	133.46
197.528	6.49
197.747	39.25
197.966	88.4
198.185	47.44
198.404	-1.71
198.623	10.58
198.842	41.3
199.062	-3.75
199.281	61.78
199.5	98.64
199.719	16.73
199.938	10.58
200.157	84.31
200.376	51.54
200.595	82.26
200.814	-22.19
201.033	0.34
201.252	47.44
201.471	-40.62
201.69	96.6
201.909	63.83
202.128	45.4
202.347	-26.28
202.566	-30.38
202.785	6.49
203.004	12.63
203.223	123.22
203.442	72.02
203.661	26.96
203.879	-24.23
204.098	55.64
204.317	-38.57
204.536	49.49
204.755	31.06
204.974	-1.71
205.193	12.63
205.411	80.21
205.63	39.25
205.849	80.21
206.068	-7.85
206.287	-16.04
206.505	51.54
206.724	33.11
206.943	-48.81
207.162	22.87
207.381	26.96
207.599	-18.09
207.818	14.68
208.037	33.11
208.255	-30.38
208.474	41.3
208.693	35.16
208.911	45.4
209.13	22.87
209.349	0.34
209.567	72.02
209.786	8.53
210.005	-1.71
210.223	-1.71
210.442	8.53
210.661	16.73
210.879	20.82
211.098	110.93
211.316	24.92
211.535	67.92
211.753	59.73
211.972	162.13
212.191	-30.38
212.409	10.58
212.628	63.83
212.846	-48.81
213.065	-1.71
213.283	80.21
213.502	59.73
213.72	18.77
213.938	-38.57
214.157	47.44
214.375	115.03
214.594	-16.04
214.812	-36.52
215.031	10.58
215.249	6.49
215.467	47.44
215.686	51.54
215.904	22.87
216.122	26.96
216.341	90.45
216.559	18.77
216.778	24.92
216.996	80.21
217.214	-42.67
217.432	-26.28
217.651	14.68
217.869	-5.8
218.087	24.92
218.306	0.34
218.524	47.44
218.742	92.5
218.96	18.77
219.179	0.34
219.397	-38.57
219.615	121.17
219.833	6.49
220.051	14.68
220.27	16.73
220.488	86.36
220.706	41.3
220.924	-1.71
221.142	29.01
221.36	-38.57
221.578	92.5
221.796	31.06
222.015	26.96
222.233	14.68
222.451	92.5
222.669	-1.71
222.887	84.31
223.105	-22.19
223.323	22.87
223.541	20.82
223.759	31.06
223.977	-16.04
224.195	47.44
224.413	110.93
224.631	74.07
224.849	-9.9
225.067	14.68
225.285	-5.8
225.503	106.84
225.721	67.92
225.939	29.01
226.157	72.02
226.375	94.55
226.592	-57
226.81	33.11
227.028	-9.9
227.246	65.88
227.464	24.92
227.682	104.79
227.9	-18.09
228.117	39.25
228.335	80.21
228.553	22.87
228.771	49.49
228.989	22.87
229.206	8.53
229.424	-32.43
229.642	-65.19
229.86	33.11
230.077	39.25
230.295	-1.71
230.513	16.73
230.731	88.4
230.948	74.07
231.166	18.77
231.384	-30.38
231.601	55.64
231.819	65.88
232.037	55.64
232.254	18.77
232.472	39.25
232.689	8.53
232.907	90.45
233.125	-91.82
233.342	0.34
233.56	10.58
233.777	63.83
233.995	-18.09
234.213	55.64
234.43	88.4
234.648	31.06
234.865	-13.99
235.083	39.25
235.3	6.49
235.518	117.08
235.735	31.06
235.953	39.25
236.17	39.25
236.388	-9.9
236.605	0.34
236.822	24.92
237.04	41.3
237.257	22.87
237.475	41.3
237.692	55.64
237.909	-18.09
238.127	29.01
238.344	8.53
238.562	137.56
238.779	8.53
238.996	-11.95
239.214	-32.43
239.431	31.06
239.648	-40.62
239.865	10.58
240.083	47.44
240.3	8.53
240.517	29.01
240.735	-7.85
240.952	65.88
241.169	65.88
241.386	12.63
241.603	86.36
241.821	-30.38
242.038	63.83
242.255	51.54
242.472	24.92
242.689	90.45
242.907	94.55
243.124	-5.8
243.341	72.02
243.558	-26.28
243.775	31.06
243.992	6.49
244.209	106.84
244.426	96.6
244.643	96.6
244.86	18.77
245.078	-1.71
245.295	80.21
245.512	-20.14
245.729	-32.43
245.946	-18.09
246.163	33.11
246.38	61.78
246.597	26.96
246.814	43.35
247.031	24.92
247.248	31.06
247.464	-5.8
247.681	90.45
247.898	-16.04
248.115	12.63
248.332	35.16
248.549	108.88
248.766	115.03
248.983	49.49
249.2	10.58
249.417	39.25
249.633	35.16
249.85	41.3
250.067	-42.67
250.284	106.84
250.501	33.11
250.717	-5.8
250.934	-48.81
251.151	-38.57
251.368	6.49
251.585	88.4
251.801	31.06
252.018	6.49
252.235	137.56
252.451	-16.04
252.668	37.2
252.885	51.54
253.102	76.12
253.318	82.26
253.535	-34.47
253.752	-34.47
253.968	10.58
254.185	16.73
254.401	22.87
254.618	6.49
254.835	-24.23
255.051	47.44
255.268	82.26
255.484	-30.38
255.701	47.44
255.917	47.44
256.134	-28.33
256.351	45.4
256.567	-26.28
256.784	-30.38
257	24.92
257.217	22.87
257.433	65.88
257.65	8.53
257.866	-1.71
258.082	4.44
258.299	18.77
258.515	39.25
258.732	-7.85
258.948	0.34
259.165	18.77
259.381	59.73
259.597	0.34
259.814	104.79
260.03	47.44
260.246	-1.71
260.463	104.79
260.679	78.16
260.895	-18.09
261.112	76.12
261.328	-7.85
261.544	63.83
261.761	78.16
261.977	0.34
262.193	-5.8
262.409	-26.28
262.626	55.64
262.842	-20.14
263.058	6.49
263.274	0.34
263.49	43.35
263.707	82.26
263.923	-16.04
264.139	51.54
264.355	-20.14
264.571	63.83
264.787	26.96
265.004	51.54
265.22	55.64
265.436	12.63
265.652	47.44
265.868	-32.43
266.084	-13.99
266.3	31.06
266.516	24.92
266.732	20.82
266.948	26.96
267.164	-13.99
267.38	22.87
267.596	57.68
267.812	37.2
268.028	121.17
268.244	51.54
268.46	72.02
268.676	-26.28
268.892	41.3
269.108	8.53
269.324	98.64
269.54	-26.28
269.756	90.45
269.972	-32.43
270.188	-48.81
270.403	16.73
270.619	35.16
270.835	94.55
271.051	2.39
271.267	-5.8
271.483	-30.38
271.698	82.26
271.914	57.68
272.13	6.49
272.346	72.02
272.562	41.3
272.777	47.44
272.993	22.87
273.209	10.58
273.425	4.44
273.64	39.25
273.856	88.4
274.072	6.49
274.287	98.64
274.503	57.68
274.719	22.87
274.934	-5.8
275.15	41.3
275.366	121.17
275.581	-54.95
275.797	63.83
276.012	61.78
276.228	6.49
276.444	-24.23
276.659	24.92
276.875	-40.62
277.09	61.78
277.306	84.31
277.521	18.77
277.737	74.07
277.952	18.77
278.168	22.87
278.383	-18.09
278.599	22.87
278.814	57.68
279.03	39.25
279.245	76.12
279.461	-48.81
279.676	2.39
279.892	24.92
280.107	80.21
280.322	-5.8
280.538	16.73
280.753	16.73
280.969	24.92
281.184	-16.04
281.399	108.88
281.615	35.16
281.83	14.68
282.045	6.49
282.26	-50.86
282.476	35.16
282.691	76.12
282.906	33.11
283.122	-26.28
283.337	31.06
283.552	-42.67
283.767	22.87
283.983	8.53
284.198	80.21
284.413	-22.19
284.628	6.49
284.843	8.53
285.058	35.16
285.274	76.12
285.489	63.83
285.704	88.4
285.919	22.87
286.134	55.64
286.349	-24.23
286.564	10.58
286.779	33.11
286.995	24.92
287.21	-9.9
287.425	47.44
287.64	4.44
287.855	72.02
288.07	45.4
288.285	74.07
288.5	92.5
288.715	33.11
288.93	63.83
289.145	-9.9
289.36	47.44
289.575	-16.04
289.79	110.93
290.004	22.87
290.219	22.87
290.434	0.34
290.649	-83.63
290.864	22.87
291.079	65.88
291.294	47.44
291.509	33.11
291.724	74.07
291.938	-138.92
292.153	49.49
292.368	41.3
292.583	8.53
292.798	110.93
293.012	31.06
293.227	76.12
293.442	90.45
293.657	8.53
293.871	115.03
294.086	16.73
294.301	80.21
294.516	47.44
294.73	90.45
294.945	16.73
295.16	57.68
295.374	104.79
295.589	72.02
295.804	39.25
296.018	65.88
296.233	129.36
296.447	14.68
296.662	18.77
296.877	125.27
297.091	35.16
297.306	112.98
297.52	67.92
297.735	57.68
297.949	-54.95
298.164	47.44
298.378	45.4
298.593	6.49
298.807	-28.33
299.022	55.64
299.236	67.92
299.451	65.88
299.665	47.44
299.88	26.96
300.094	100.69
300.309	-9.9
300.523	-1.71
300.737	22.87
300.952	18.77
301.166	69.97
301.381	31.06
301.595	98.64
301.809	8.53
302.024	-5.8
302.238	47.44
302.452	-18.09
302.667	-18.09
302.881	47.44
303.095	72.02
303.309	-9.9
303.524	29.01
303.738	98.64
303.952	26.96
304.166	41.3
304.381	-34.47
304.595	184.66
304.809	41.3
305.023	47.44
305.237	-13.99
305.452	63.83
305.666	-24.23
305.88	39.25
306.094	41.3
306.308	74.07
306.522	6.49
306.736	106.84
306.95	63.83
307.164	16.73
307.379	31.06
307.593	22.87
307.807	43.35
308.021	63.83
308.235	137.56
308.449	-13.99
308.663	-40.62
308.877	45.4
309.091	-9.9
309.305	35.16
309.519	10.58
309.733	57.68
309.947	-5.8
310.161	55.64
310.374	24.92
310.588	131.41
310.802	-1.71
311.016	2.39
311.23	86.36
311.444	33.11
311.658	-16.04
311.872	26.96
312.085	18.77
312.299	57.68
312.513	123.22
312.727	51.54
312.941	10.58
313.154	43.35
313.368	14.68
313.582	-38.57
313.796	-18.09
314.009	-28.33
314.223	82.26
314.437	49.49
314.651	31.06
314.864	33.11
315.078	61.78
315.292	-22.19
315.505	-18.09
315.719	22.87
315.933	-18.09
316.146	20.82
316.36	6.49
316.573	-1.71
316.787	-3.75
317.001	-20.14
317.214	-13.99
317.428	2.39
317.641	49.49
317.855	55.64
318.068	24.92
318.282	117.08
318.495	82.26
318.709	67.92
318.922	18.77
319.136	76.12
319.349	74.07
319.563	-13.99
319.776	0.34
319.99	39.25
320.203	43.35
320.417	22.87
320.63	61.78
320.843	24.92
321.057	43.35
321.27	90.45
321.483	106.84
321.697	92.5
321.91	18.77
322.124	-1.71
322.337	74.07
322.55	55.64
322.763	18.77
322.977	-7.85
323.19	18.77
323.403	80.21
323.617	31.06
323.83	82.26
324.043	74.07
324.256	86.36
324.469	31.06
324.683	43.35
324.896	-9.9
325.109	63.83
325.322	20.82
325.535	96.6
325.748	55.64
325.962	16.73
326.175	12.63
326.388	39.25
326.601	78.16
326.814	0.34
327.027	10.58
327.24	47.44
327.453	6.49
327.666	49.49
327.879	104.79
328.092	47.44
328.305	59.73
328.518	16.73
328.731	39.25
328.944	14.68
329.157	139.6
329.37	22.87
329.583	47.44
329.796	104.79
330.009	86.36
330.222	63.83
330.435	51.54
330.648	67.92
330.861	72.02
331.073	98.64
331.286	98.64
331.499	63.83
331.712	22.87
331.925	6.49
332.138	125.27
332.35	74.07
332.563	12.63
332.776	112.98
332.989	0.34
333.202	8.53
333.414	39.25
333.627	31.06
333.84	35.16
334.053	96.6
334.265	-50.86
334.478	14.68
334.691	55.64
334.903	14.68
335.116	41.3
335.329	-22.19
335.541	166.23
335.754	110.93
335.966	33.11
336.179	80.21
336.392	63.83
336.604	6.49
336.817	-22.19
337.029	47.44
337.242	2.39
337.454	41.3
337.667	-9.9
337.88	35.16
338.092	43.35
338.305	39.25
338.517	-42.67
338.729	72.02
338.942	88.4
339.154	47.44
339.367	12.63
339.579	63.83
339.792	-87.72
340.004	135.51
340.217	88.4
340.429	72.02
340.641	18.77
340.854	-26.28
341.066	31.06
341.278	49.49
341.491	26.96
341.703	14.68
341.915	65.88
342.128	2.39
342.34	55.64
342.552	18.77
342.764	8.53
342.977	16.73
343.189	26.96
343.401	31.06
343.613	43.35
343.826	26.96
344.038	22.87
344.25	78.16
344.462	74.07
344.674	-1.71
344.886	112.98
345.099	6.49
345.311	26.96
345.523	18.77
345.735	8.53
345.947	88.4
346.159	78.16
346.371	-16.04
346.583	-38.57
346.795	63.83
347.007	-28.33
347.219	51.54
347.431	37.2
347.643	55.64
347.855	49.49
348.067	-16.04
348.279	74.07
348.491	41.3
348.703	162.13
348.915	55.64
349.127	72.02
349.339	88.4
349.551	49.49
349.763	80.21
349.975	55.64
350.187	29.01
350.399	8.53
350.61	47.44
350.822	47.44
351.034	-59.05
351.246	43.35
351.458	82.26
351.669	65.88
351.881	39.25
352.093	84.31
352.305	31.06
352.517	6.49
352.728	43.35
352.94	22.87
353.152	63.83
353.363	-120.49
353.575	8.53
353.787	104.79
353.999	92.5
354.21	188.75
354.422	-16.04
354.633	6.49
354.845	26.96
355.057	88.4
355.268	80.21
355.48	51.54
355.692	-44.71
355.903	22.87
356.115	31.06
356.326	-46.76
356.538	33.11
356.749	0.34
356.961	125.27
357.172	8.53
357.384	-1.71
357.595	55.64
357.807	43.35
358.018	24.92
358.23	37.2
358.441	-22.19
358.653	43.35
358.864	67.92
359.075	26.96
359.287	26.96
359.498	110.93
359.709	33.11
359.921	43.35
360.132	117.08
360.344	22.87
360.555	31.06
360.766	10.58
360.977	10.58
361.189	41.3
361.4	26.96
361.611	121.17
361.823	117.08
362.034	47.44
362.245	-24.23
362.456	14.68
362.667	72.02
362.879	59.73
363.09	47.44
363.301	18.77
363.512	57.68
363.723	16.73
363.935	55.64
364.146	104.79
364.357	26.96
364.568	108.88
364.779	33.11
364.99	112.98
365.201	55.64
365.412	74.07
365.623	51.54
365.834	57.68
366.045	2.39
366.256	57.68
366.467	63.83
366.678	55.64
366.889	84.31
367.1	31.06
367.311	31.06
367.522	115.03
367.733	57.68
367.944	121.17
368.155	59.73
368.366	63.83
368.577	43.35
368.788	41.3
368.999	6.49
369.209	24.92
369.42	131.41
369.631	90.45
369.842	33.11
370.053	41.3
370.264	-26.28
370.474	76.12
370.685	0.34
370.896	139.6
371.107	14.68
371.317	47.44
371.528	-34.47
371.739	72.02
371.95	14.68
372.16	63.83
372.371	29.01
372.582	10.58
372.792	133.46
373.003	39.25
373.214	45.4
373.424	47.44
373.635	18.77
373.846	33.11
374.056	74.07
374.267	63.83
374.477	47.44
374.688	6.49
374.898	4.44
375.109	80.21
375.319	78.16
375.53	35.16
375.74	6.49
375.951	14.68
376.161	78.16
376.372	26.96
376.582	0.34
376.793	88.4
377.003	39.25
377.214	-5.8
377.424	47.44
377.635	37.2
377.845	43.35
378.055	67.92
378.266	2.39
378.476	76.12
378.686	45.4
378.897	74.07
379.107	37.2
379.317	74.07
379.528	51.54
379.738	49.49
379.948	20.82
380.158	90.45
380.369	24.92
380.579	47.44
380.789	33.11
380.999	84.31
381.21	-5.8
381.42	119.12
381.63	10.58
381.84	-11.95
382.05	88.4
382.261	92.5
382.471	57.68
382.681	47.44
382.891	59.73
383.101	74.07
383.311	-57
383.521	100.69
383.731	-9.9
383.941	76.12
384.151	41.3
384.361	22.87
384.571	59.73
384.781	-11.95
384.991	51.54
385.201	145.75
385.411	51.54
385.621	39.25
385.831	76.12
386.041	31.06
386.251	59.73
386.461	31.06
386.671	39.25
386.881	104.79
387.091	-26.28
387.301	59.73
387.511	47.44
387.72	74.07
387.93	119.12
388.14	4.44
388.35	55.64
388.56	86.36
388.769	61.78
388.979	39.25
389.189	49.49
389.399	125.27
389.609	26.96
389.818	72.02
390.028	-30.38
390.238	133.46
390.447	-5.8
390.657	80.21
390.867	72.02
391.076	57.68
391.286	39.25
391.496	29.01
391.705	33.11
391.915	16.73
392.125	104.79
392.334	78.16
392.544	86.36
392.753	61.78
392.963	74.07
393.172	65.88
393.382	43.35
393.591	88.4
393.801	117.08
394.01	131.41
394.22	59.73
394.429	51.54
394.639	51.54
394.848	57.68
395.058	135.51
395.267	47.44
395.477	84.31
395.686	112.98
395.895	162.13
396.105	59.73
396.314	63.83
396.524	84.31
396.733	149.84
396.942	74.07
397.152	69.97
397.361	10.58
397.57	72.02
397.78	22.87
397.989	49.49
398.198	213.33
398.407	78.16
398.617	88.4
398.826	49.49
399.035	55.64
399.244	131.41
399.453	141.65
399.663	110.93
399.872	57.68
400.081	125.27
400.29	2.39
400.499	108.88
400.708	74.07
400.917	131.41
401.127	121.17
401.336	100.69
401.545	158.03
401.754	76.12
401.963	186.71
402.172	92.5
402.381	125.27
402.59	86.36
402.799	135.51
403.008	106.84
403.217	244.05
403.426	153.94
403.635	133.46
403.844	98.64
404.053	153.94
404.262	104.79
404.471	153.94
404.68	96.6
404.888	121.17
405.097	53.59
405.306	180.56
405.515	151.89
405.724	174.42
405.933	258.39
406.142	176.47
406.35	235.86
406.559	82.26
406.768	178.51
406.977	229.71
407.185	188.75
407.394	270.67
407.603	196.95
407.812	237.91
408.02	250.19
408.229	180.56
408.438	149.84
408.646	213.33
408.855	231.76
409.064	278.87
409.272	278.87
409.481	227.67
409.69	289.1
409.898	270.67
410.107	354.64
410.315	293.2
410.524	342.35
410.733	268.63
410.941	336.21
411.15	319.82
411.358	354.64
411.567	428.37
411.775	319.82
411.984	393.55
412.192	420.17
412.401	424.27
412.609	516.43
412.818	493.9
413.026	448.85
413.234	452.94
413.443	459.09
413.651	498
413.86	524.62
414.068	559.44
414.276	624.97
414.485	655.69
414.693	571.72
414.901	653.64
415.11	629.07
415.318	571.72
415.526	629.07
415.734	723.27
415.943	682.31
416.151	829.77
416.359	758.09
416.567	878.92
416.776	797
416.984	840.01
417.192	907.59
417.4	917.83
417.608	815.43
417.817	891.21
418.025	983.37
418.233	1030.47
418.441	971.08
418.649	1098.05
418.857	1192.26
419.065	1188.16
419.273	1235.27
419.481	1337.66
419.689	1270.08
419.897	1425.73
420.105	1313.09
420.313	1415.49
420.521	1448.26
420.729	1474.88
420.937	1524.03
421.145	1583.42
421.353	1595.71
421.561	1777.98
421.769	1843.51
421.977	1814.84
422.185	1878.33
422.393	2036.02
422.601	2169.14
422.809	2111.8
423.017	2199.86
423.224	2216.24
423.432	2292.02
423.64	2220.34
423.848	2480.43
424.056	2443.57
424.263	2718
424.471	2660.65
424.679	2773.29
424.887	2824.49
425.094	2916.65
425.302	2949.42
425.51	2926.89
425.718	3201.32
425.925	3137.83
426.133	3287.33
426.341	3586.33
426.548	3586.33
426.756	3598.62
426.964	3660.06
427.171	3832.09
427.379	3930.39
427.586	4131.09
427.794	4129.05
428.001	4319.51
428.209	4577.55
428.417	4446.48
428.624	4788.49
428.832	4854.03
429.039	4833.55
429.247	4722.96
429.454	5310.72
429.662	5562.62
429.869	5333.25
430.076	5476.61
430.284	5306.63
430.491	5763.33
430.699	5953.79
430.906	5937.4
431.114	5941.5
431.321	6222.07
431.528	6295.8
431.736	6891.76
431.943	7174.38
432.15	6902
432.358	6985.96
432.565	7289.06
432.772	7239.91
432.979	7678.18
433.187	7946.46
433.394	7973.08
433.601	8530.13
433.808	8288.47
434.016	8335.57
434.223	8595.67
434.43	9287.88
434.637	9081.03
434.844	9560.26
435.052	9787.58
435.259	9746.62
435.466	9746.62
435.673	9672.9
435.88	10465.46
436.087	10860.72
436.294	10877.1
436.501	10690.74
436.708	10844.34
436.915	11229.35
437.122	11718.82
437.329	11540.65
437.537	12142.75
437.743	12271.77
437.95	12191.9
438.157	12683.41
438.364	13179.02
438.571	13365.39
438.778	13101.2
438.985	14450.81
439.192	14049.41
439.399	14356.6
439.606	14102.65
439.813	14964.85
440.02	15829.09
440.227	15515.75
440.433	15319.15
440.64	15851.62
440.847	15605.86
441.054	16238.69
441.261	17229.9
441.467	17297.49
441.674	17125.46
441.881	18053.19
442.088	17856.58
442.294	17696.84
442.501	18219.07
442.708	18686.01
442.914	19101.75
443.121	20170.79
443.328	19390.51
443.534	20928.53
443.741	20078.63
443.948	19763.24
444.154	21374.99
444.361	21348.37
444.568	21448.72
444.774	21374.99
444.981	21557.26
445.187	22235.14
445.394	23300.08
445.6	22917.11
445.807	24971.22
446.013	23848.94
446.22	24512.48
446.426	25593.81
446.633	25657.29
446.839	26595.26
447.046	25415.63
447.252	26945.47
447.459	27123.64
447.665	26757.05
447.871	28137.38
448.078	29409.17
448.284	27522.99
448.491	28770.21
448.697	29591.44
448.903	30226.31
449.11	30310.28
449.316	30209.93
449.522	30396.29
449.728	31262.58
449.935	31442.81
450.141	31240.06
450.347	32118.64
450.553	31018.88
450.76	31369.08
450.966	32759.65
451.172	32282.47
451.378	33103.71
451.584	32380.78
451.791	33337.18
451.997	32868.19
452.203	33754.96
452.409	33392.47
452.615	33865.55
452.821	32223.08
453.027	31960.94
453.233	33615.7
453.44	32499.56
453.646	32522.09
453.852	33126.24
454.058	33582.93
454.264	32309.1
454.47	33507.16
454.676	32032.62
454.882	33443.67
455.088	30576.51
455.294	31072.12
455.5	31983.47
455.705	31823.73
455.911	30617.47
456.117	30183.3
456.323	29734.8
456.529	28170.15
456.735	29513.62
456.941	28589.99
457.147	28350.37
457.352	27686.83
457.558	27254.71
457.764	27752.37
457.97	26689.47
458.176	26122.18
458.381	26023.88
458.587	24803.29
458.793	24860.63
458.999	23562.22
459.204	25485.26
459.41	24942.55
459.616	23048.18
459.821	23455.73
460.027	22968.31
460.233	22429.7
460.438	21506.06
460.644	21323.79
460.85	20572.19
461.055	19984.42
461.261	20453.41
461.466	19105.84
461.672	18292.8
461.878	19529.77
462.083	18395.2
462.289	17827.91
462.494	17739.85
462.7	16803.92
462.905	16099.42
463.111	17084.5
463.316	17102.93
463.522	16625.75
463.727	16664.66
463.932	16535.64
464.138	16449.63
464.343	16810.07
464.549	16037.98
464.754	16633.94
464.959	16504.92
465.165	16248.93
465.37	15540.33
465.575	15556.71
465.781	15845.48
465.986	16134.24
466.191	15253.61
466.397	15276.14
466.602	14461.05
466.807	14911.6
467.012	14788.72
467.218	14796.92
467.423	14379.13
467.628	14657.65
