Data from USB4F104151__51__14-43-06-341.txt Node

Date: Thu Mar 13 14:43:06 EDT 2025
User: louis
Spectrometer: USB4F10415
Trigger mode: 4
Integration Time (sec): 2.000000E-2
Scans to average: 1
Electric dark correction enabled: true
Nonlinearity correction enabled: false
Boxcar width: 0
XAxis mode: Wavelengths
Number of Pixels in Spectrum: 3648
>>>>>Begin Spectral Data<<<<<
178.204	-107.35
178.424	-107.35
178.644	-107.35
178.864	-54.1
179.084	-144.21
179.304	-41.81
179.524	31.91
179.744	23.72
179.964	42.15
180.184	3.24
180.404	-11.09
180.624	44.2
180.844	-39.76
181.064	-9.05
181.283	-54.1
181.503	9.39
181.723	1.19
181.943	-58.2
182.163	68.78
182.383	9.39
182.602	66.73
182.822	54.44
183.042	15.53
183.262	48.3
183.482	23.72
183.701	89.26
183.921	23.72
184.141	-9.05
184.361	66.73
184.58	17.58
184.8	-17.24
185.02	-25.43
185.239	162.98
185.459	36.01
185.679	-0.85
185.898	27.82
186.118	70.83
186.338	93.35
186.557	-15.19
186.777	72.87
186.997	66.73
187.216	54.44
187.436	113.83
187.655	76.97
187.875	64.68
188.095	25.77
188.314	52.39
188.534	89.26
188.753	36.01
188.973	11.43
189.192	72.87
189.412	74.92
189.631	5.29
189.851	36.01
190.07	89.26
190.29	29.87
190.509	-33.62
190.729	44.2
190.948	91.31
191.168	83.11
191.387	68.78
191.607	13.48
191.826	-0.85
192.045	48.3
192.265	38.06
192.484	99.5
192.704	-33.62
192.923	13.48
193.142	148.65
193.362	68.78
193.581	56.49
193.8	36.01
194.02	56.49
194.239	15.53
194.458	64.68
194.678	3.24
194.897	3.24
195.116	113.83
195.335	11.43
195.555	42.15
195.774	-7
195.993	40.11
196.212	105.64
196.432	48.3
196.651	23.72
196.87	15.53
197.089	93.35
197.308	81.07
197.528	74.92
197.747	105.64
197.966	-15.19
198.185	7.34
198.404	60.59
198.623	36.01
198.842	40.11
199.062	11.43
199.281	13.48
199.5	109.74
199.719	89.26
199.938	91.31
200.157	74.92
200.376	50.35
200.595	85.16
200.814	-39.76
201.033	-25.43
201.252	66.73
201.471	50.35
201.69	62.63
201.909	56.49
202.128	72.87
202.347	99.5
202.566	85.16
202.785	56.49
203.004	48.3
203.223	85.16
203.442	60.59
203.661	89.26
203.879	-4.95
204.098	99.5
204.317	-17.24
204.536	56.49
204.755	29.87
204.974	64.68
205.193	27.82
205.411	107.69
205.63	64.68
205.849	13.48
206.068	-15.19
206.287	81.07
206.505	48.3
206.724	70.83
206.943	-21.33
207.162	58.54
207.381	-19.29
207.599	48.3
207.818	40.11
208.037	-9.05
208.255	48.3
208.474	50.35
208.693	128.17
208.911	50.35
209.13	-0.85
209.349	162.98
209.567	21.67
209.786	66.73
210.005	40.11
210.223	44.2
210.442	-37.72
210.661	-21.33
210.879	60.59
211.098	48.3
211.316	144.55
211.535	56.49
211.753	-13.14
211.972	33.96
212.191	15.53
212.409	115.88
212.628	105.64
212.846	27.82
213.065	44.2
213.283	101.55
213.502	-15.19
213.72	64.68
213.938	83.11
214.157	44.2
214.375	50.35
214.594	-21.33
214.812	66.73
215.031	23.72
215.249	33.96
215.467	107.69
215.686	85.16
215.904	52.39
216.122	11.43
216.341	56.49
216.559	122.02
216.778	81.07
216.996	56.49
217.214	81.07
217.432	56.49
217.651	66.73
217.869	-7
218.087	17.58
218.306	15.53
218.524	36.01
218.742	23.72
218.96	19.63
219.179	-29.52
219.397	29.87
219.615	97.45
219.833	64.68
220.051	1.19
220.27	122.02
220.488	74.92
220.706	15.53
220.924	87.21
221.142	40.11
221.36	19.63
221.578	64.68
221.796	19.63
222.015	74.92
222.233	91.31
222.451	122.02
222.669	11.43
222.887	76.97
223.105	-23.38
223.323	105.64
223.541	-0.85
223.759	9.39
223.977	52.39
224.195	97.45
224.413	36.01
224.631	52.39
224.849	19.63
225.067	66.73
225.285	46.25
225.503	64.68
225.721	-33.62
225.939	99.5
226.157	40.11
226.375	97.45
226.592	-21.33
226.81	107.69
227.028	40.11
227.246	89.26
227.464	31.91
227.682	97.45
227.9	64.68
228.117	36.01
228.335	107.69
228.553	-31.57
228.771	42.15
228.989	52.39
229.206	42.15
229.424	40.11
229.642	42.15
229.86	56.49
230.077	85.16
230.295	-0.85
230.513	-0.85
230.731	103.59
230.948	44.2
231.166	97.45
231.384	72.87
231.601	-25.43
231.819	46.25
232.037	56.49
232.254	66.73
232.472	-11.09
232.689	-50
232.907	-0.85
233.125	1.19
233.342	-0.85
233.56	44.2
233.777	44.2
233.995	-0.85
234.213	109.74
234.43	40.11
234.648	44.2
234.865	97.45
235.083	33.96
235.3	7.34
235.518	60.59
235.735	93.35
235.953	72.87
236.17	113.83
236.388	56.49
236.605	33.96
236.822	89.26
237.04	68.78
237.257	-0.85
237.475	-11.09
237.692	154.79
237.909	113.83
238.127	25.77
238.344	56.49
238.562	-7
238.779	7.34
238.996	-15.19
239.214	19.63
239.431	42.15
239.648	79.02
239.865	44.2
240.083	60.59
240.3	83.11
240.517	-9.05
240.735	52.39
240.952	64.68
241.169	50.35
241.386	31.91
241.603	15.53
241.821	126.12
242.038	60.59
242.255	9.39
242.472	52.39
242.689	-33.62
242.907	48.3
243.124	36.01
243.341	40.11
243.558	9.39
243.775	-4.95
243.992	-33.62
244.209	48.3
244.426	179.37
244.643	93.35
244.86	52.39
245.078	68.78
245.295	97.45
245.512	83.11
245.729	64.68
245.946	105.64
246.163	-33.62
246.38	64.68
246.597	17.58
246.814	11.43
247.031	54.44
247.248	11.43
247.464	33.96
247.681	-23.38
247.898	25.77
248.115	81.07
248.332	66.73
248.549	52.39
248.766	95.4
248.983	130.22
249.2	83.11
249.417	76.97
249.633	74.92
249.85	40.11
250.067	38.06
250.284	68.78
250.501	122.02
250.717	83.11
250.934	56.49
251.151	101.55
251.368	7.34
251.585	72.87
251.801	50.35
252.018	66.73
252.235	115.88
252.451	13.48
252.668	42.15
252.885	154.79
253.102	74.92
253.318	48.3
253.535	31.91
253.752	5.29
253.968	23.72
254.185	33.96
254.401	15.53
254.618	95.4
254.835	25.77
255.051	126.12
255.268	38.06
255.484	76.97
255.701	64.68
255.917	87.21
256.134	-39.76
256.351	-2.9
256.567	21.67
256.784	-9.05
257	-35.67
257.217	27.82
257.433	11.43
257.65	93.35
257.866	-7
258.082	23.72
258.299	15.53
258.515	115.88
258.732	40.11
258.948	36.01
259.165	91.31
259.381	27.82
259.597	76.97
259.814	72.87
260.03	79.02
260.246	62.63
260.463	58.54
260.679	117.93
260.895	44.2
261.112	44.2
261.328	40.11
261.544	-0.85
261.761	101.55
261.977	25.77
262.193	31.91
262.409	142.5
262.626	17.58
262.842	72.87
263.058	44.2
263.274	103.59
263.49	33.96
263.707	122.02
263.923	68.78
264.139	-17.24
264.355	17.58
264.571	89.26
264.787	99.5
265.004	42.15
265.22	93.35
265.436	23.72
265.652	-19.29
265.868	29.87
266.084	11.43
266.3	81.07
266.516	36.01
266.732	74.92
266.948	60.59
267.164	7.34
267.38	85.16
267.596	72.87
267.812	62.63
268.028	72.87
268.244	-41.81
268.46	81.07
268.676	68.78
268.892	48.3
269.108	-15.19
269.324	-45.91
269.54	52.39
269.756	89.26
269.972	-25.43
270.188	19.63
270.403	19.63
270.619	17.58
270.835	36.01
271.051	56.49
271.267	60.59
271.483	-41.81
271.698	83.11
271.914	64.68
272.13	83.11
272.346	58.54
272.562	58.54
272.777	50.35
272.993	56.49
273.209	9.39
273.425	-9.05
273.64	64.68
273.856	44.2
274.072	60.59
274.287	25.77
274.503	15.53
274.719	23.72
274.934	56.49
275.15	38.06
275.366	31.91
275.581	54.44
275.797	19.63
276.012	-103.25
276.228	124.07
276.444	56.49
276.659	40.11
276.875	17.58
277.09	56.49
277.306	64.68
277.521	15.53
277.737	72.87
277.952	68.78
278.168	25.77
278.383	27.82
278.599	50.35
278.814	46.25
279.03	122.02
279.245	117.93
279.461	48.3
279.676	138.41
279.892	29.87
280.107	9.39
280.322	-11.09
280.538	74.92
280.753	-25.43
280.969	181.42
281.184	95.4
281.399	15.53
281.615	42.15
281.83	31.91
282.045	7.34
282.26	3.24
282.476	70.83
282.691	25.77
282.906	126.12
283.122	46.25
283.337	9.39
283.552	44.2
283.767	74.92
283.983	60.59
284.198	31.91
284.413	-23.38
284.628	36.01
284.843	68.78
285.058	13.48
285.274	81.07
285.489	7.34
285.704	56.49
285.919	7.34
286.134	-13.14
286.349	-17.24
286.564	72.87
286.779	154.79
286.995	62.63
287.21	7.34
287.425	31.91
287.64	64.68
287.855	72.87
288.07	33.96
288.285	105.64
288.5	91.31
288.715	89.26
288.93	19.63
289.145	81.07
289.36	19.63
289.575	50.35
289.79	48.3
290.004	-0.85
290.219	79.02
290.434	1.19
290.649	70.83
290.864	-9.05
291.079	-76.63
291.294	40.11
291.509	56.49
291.724	72.87
291.938	44.2
292.153	64.68
292.368	48.3
292.583	-25.43
292.798	146.6
293.012	117.93
293.227	48.3
293.442	-25.43
293.657	54.44
293.871	89.26
294.086	33.96
294.301	40.11
294.516	27.82
294.73	48.3
294.945	-0.85
295.16	38.06
295.374	56.49
295.589	23.72
295.804	21.67
296.018	66.73
296.233	113.83
296.447	27.82
296.662	36.01
296.877	33.96
297.091	74.92
297.306	64.68
297.52	38.06
297.735	31.91
297.949	17.58
298.164	33.96
298.378	56.49
298.593	-0.85
298.807	-84.82
299.022	52.39
299.236	11.43
299.451	89.26
299.665	72.87
299.88	66.73
300.094	5.29
300.309	81.07
300.523	44.2
300.737	52.39
300.952	64.68
301.166	54.44
301.381	-9.05
301.595	31.91
301.809	76.97
302.024	-15.19
302.238	52.39
302.452	27.82
302.667	7.34
302.881	64.68
303.095	60.59
303.309	107.69
303.524	40.11
303.738	74.92
303.952	56.49
304.166	105.64
304.381	19.63
304.595	138.41
304.809	52.39
305.023	44.2
305.237	19.63
305.452	72.87
305.666	23.72
305.88	42.15
306.094	66.73
306.308	138.41
306.522	72.87
306.736	68.78
306.95	19.63
307.164	89.26
307.379	70.83
307.593	76.97
307.807	60.59
308.021	99.5
308.235	25.77
308.449	27.82
308.663	83.11
308.877	87.21
309.091	56.49
309.305	52.39
309.519	-31.57
309.733	83.11
309.947	-23.38
310.161	70.83
310.374	52.39
310.588	68.78
310.802	52.39
311.016	-4.95
311.23	9.39
311.444	-17.24
311.658	17.58
311.872	81.07
312.085	101.55
312.299	58.54
312.513	56.49
312.727	95.4
312.941	56.49
313.154	66.73
313.368	-39.76
313.582	1.19
313.796	15.53
314.009	138.41
314.223	136.36
314.437	31.91
314.651	25.77
314.864	48.3
315.078	40.11
315.292	44.2
315.505	21.67
315.719	76.97
315.933	-25.43
316.146	113.83
316.36	11.43
316.573	58.54
316.787	81.07
317.001	11.43
317.214	31.91
317.428	64.68
317.641	44.2
317.855	109.74
318.068	50.35
318.282	25.77
318.495	99.5
318.709	89.26
318.922	36.01
319.136	56.49
319.349	23.72
319.563	103.59
319.776	56.49
319.99	31.91
320.203	48.3
320.417	126.12
320.63	31.91
320.843	83.11
321.057	25.77
321.27	19.63
321.483	40.11
321.697	83.11
321.91	113.83
322.124	48.3
322.337	68.78
322.55	132.26
322.763	91.31
322.977	-33.62
323.19	31.91
323.403	72.87
323.617	40.11
323.83	64.68
324.043	-7
324.256	52.39
324.469	-33.62
324.683	144.55
324.896	58.54
325.109	3.24
325.322	48.3
325.535	68.78
325.748	31.91
325.962	23.72
326.175	23.72
326.388	-4.95
326.601	79.02
326.814	83.11
327.027	29.87
327.24	83.11
327.453	-4.95
327.666	83.11
327.879	27.82
328.092	64.68
328.305	99.5
328.518	-17.24
328.731	81.07
328.944	23.72
329.157	33.96
329.37	89.26
329.583	50.35
329.796	89.26
330.009	15.53
330.222	23.72
330.435	25.77
330.648	89.26
330.861	54.44
331.073	105.64
331.286	165.03
331.499	60.59
331.712	17.58
331.925	79.02
332.138	62.63
332.35	72.87
332.563	15.53
332.776	105.64
332.989	66.73
333.202	64.68
333.414	81.07
333.627	52.39
333.84	76.97
334.053	138.41
334.265	64.68
334.478	58.54
334.691	-9.05
334.903	7.34
335.116	-0.85
335.329	-23.38
335.541	-39.76
335.754	113.83
335.966	27.82
336.179	122.02
336.392	42.15
336.604	48.3
336.817	93.35
337.029	76.97
337.242	38.06
337.454	81.07
337.667	-9.05
337.88	36.01
338.092	19.63
338.305	113.83
338.517	89.26
338.729	64.68
338.942	89.26
339.154	56.49
339.367	5.29
339.579	130.22
339.792	9.39
340.004	-0.85
340.217	13.48
340.429	9.39
340.641	-23.38
340.854	40.11
341.066	31.91
341.278	15.53
341.491	54.44
341.703	62.63
341.915	36.01
342.128	70.83
342.34	91.31
342.552	23.72
342.764	25.77
342.977	83.11
343.189	79.02
343.401	70.83
343.613	-7
343.826	-9.05
344.038	58.54
344.25	101.55
344.462	-4.95
344.674	44.2
344.886	31.91
345.099	58.54
345.311	74.92
345.523	70.83
345.735	64.68
345.947	138.41
346.159	-25.43
346.371	85.16
346.583	44.2
346.795	132.26
347.007	74.92
347.219	19.63
347.431	36.01
347.643	138.41
347.855	-23.38
348.067	38.06
348.279	-25.43
348.491	83.11
348.703	89.26
348.915	58.54
349.127	40.11
349.339	99.5
349.551	31.91
349.763	109.74
349.975	19.63
350.187	72.87
350.399	27.82
350.61	64.68
350.822	81.07
351.034	50.35
351.246	27.82
351.458	-7
351.669	117.93
351.881	81.07
352.093	89.26
352.305	115.88
352.517	117.93
352.728	40.11
352.94	-9.05
353.152	7.34
353.363	1.19
353.575	109.74
353.787	66.73
353.999	113.83
354.21	136.36
354.422	50.35
354.633	74.92
354.845	27.82
355.057	58.54
355.268	36.01
355.48	130.22
355.692	7.34
355.903	38.06
356.115	36.01
356.326	66.73
356.538	91.31
356.749	44.2
356.961	72.87
357.172	23.72
357.384	31.91
357.595	60.59
357.807	87.21
358.018	99.5
358.23	97.45
358.441	33.96
358.653	93.35
358.864	19.63
359.075	-23.38
359.287	72.87
359.498	107.69
359.709	117.93
359.921	31.91
360.132	81.07
360.344	58.54
360.555	64.68
360.766	130.22
360.977	81.07
361.189	154.79
361.4	31.91
361.611	50.35
361.823	154.79
362.034	64.68
362.245	66.73
362.456	138.41
362.667	-17.24
362.879	66.73
363.09	60.59
363.301	60.59
363.512	83.11
363.723	36.01
363.935	-15.19
364.146	72.87
364.357	1.19
364.568	138.41
364.779	81.07
364.99	89.26
365.201	97.45
365.412	64.68
365.623	-0.85
365.834	64.68
366.045	25.77
366.256	48.3
366.467	40.11
366.678	85.16
366.889	72.87
367.1	117.93
367.311	64.68
367.522	89.26
367.733	97.45
367.944	56.49
368.155	146.6
368.366	56.49
368.577	85.16
368.788	76.97
368.999	81.07
369.209	85.16
369.42	64.68
369.631	60.59
369.842	130.22
370.053	33.96
370.264	144.55
370.474	1.19
370.685	31.91
370.896	46.25
371.107	79.02
371.317	81.07
371.528	62.63
371.739	150.7
371.95	97.45
372.16	99.5
372.371	85.16
372.582	17.58
372.792	83.11
373.003	66.73
373.214	48.3
373.424	124.07
373.635	9.39
373.846	97.45
374.056	58.54
374.267	64.68
374.477	76.97
374.688	56.49
374.898	76.97
375.109	85.16
375.319	83.11
375.53	29.87
375.74	19.63
375.951	93.35
376.161	66.73
376.372	138.41
376.582	62.63
376.793	97.45
377.003	64.68
377.214	101.55
377.424	56.49
377.635	56.49
377.845	17.58
378.055	58.54
378.266	50.35
378.476	38.06
378.686	56.49
378.897	105.64
379.107	50.35
379.317	126.12
379.528	89.26
379.738	117.93
379.948	40.11
380.158	146.6
380.369	9.39
380.579	187.56
380.789	66.73
380.999	85.16
381.21	91.31
381.42	99.5
381.63	72.87
381.84	44.2
382.05	74.92
382.261	33.96
382.471	64.68
382.681	107.69
382.891	89.26
383.101	154.79
383.311	81.07
383.521	72.87
383.731	85.16
383.941	46.25
384.151	124.07
384.361	101.55
384.571	76.97
384.781	48.3
384.991	105.64
385.201	126.12
385.411	72.87
385.621	115.88
385.831	128.17
386.041	66.73
386.251	93.35
386.461	175.27
386.671	83.11
386.881	58.54
387.091	79.02
387.301	33.96
387.511	105.64
387.72	107.69
387.93	109.74
388.14	64.68
388.35	-9.05
388.56	31.91
388.769	101.55
388.979	99.5
389.189	66.73
389.399	58.54
389.609	93.35
389.818	113.83
390.028	46.25
390.238	15.53
390.447	126.12
390.657	156.84
390.867	83.11
391.076	89.26
391.286	1.19
391.496	89.26
391.705	-29.52
391.915	146.6
392.125	107.69
392.334	50.35
392.544	56.49
392.753	72.87
392.963	54.44
393.172	97.45
393.382	68.78
393.591	113.83
393.801	42.15
394.01	179.37
394.22	105.64
394.429	83.11
394.639	64.68
394.848	72.87
395.058	72.87
395.267	97.45
395.477	72.87
395.686	107.69
395.895	124.07
396.105	107.69
396.314	138.41
396.524	74.92
396.733	117.93
396.942	138.41
397.152	126.12
397.361	134.31
397.57	99.5
397.78	105.64
397.989	146.6
398.198	162.98
398.407	81.07
398.617	115.88
398.826	68.78
399.035	85.16
399.244	91.31
399.453	154.79
399.663	154.79
399.872	105.64
400.081	83.11
400.29	140.46
400.499	68.78
400.708	220.33
400.917	64.68
401.127	91.31
401.336	58.54
401.545	154.79
401.754	165.03
401.963	68.78
402.172	46.25
402.381	156.84
402.59	109.74
402.799	162.98
403.008	140.46
403.217	167.08
403.426	171.18
403.635	130.22
403.844	126.12
404.053	216.23
404.262	122.02
404.471	169.13
404.68	148.65
404.888	91.31
405.097	132.26
405.306	171.18
405.515	267.43
405.724	150.7
405.933	177.32
406.142	130.22
406.35	249
406.559	195.75
406.768	195.75
406.977	240.81
407.185	189.61
407.394	171.18
407.603	169.13
407.812	224.42
408.02	197.8
408.229	212.14
408.438	208.04
408.646	236.71
408.855	177.32
409.064	222.38
409.272	269.48
409.481	298.15
409.69	343.21
409.898	224.42
410.107	320.68
410.315	343.21
410.524	283.81
410.733	375.97
410.941	279.72
411.15	326.82
411.358	363.69
411.567	437.41
411.775	410.79
411.984	310.44
412.192	457.89
412.401	404.64
412.609	466.08
412.818	470.18
413.026	541.86
413.234	375.97
413.443	445.6
413.651	584.87
413.86	531.62
414.068	554.15
414.276	640.16
414.485	597.15
414.693	629.92
414.901	656.54
415.11	656.54
415.318	621.73
415.526	785.57
415.734	711.84
415.943	728.22
416.151	732.32
416.359	887.97
416.567	754.85
416.776	787.61
416.984	912.54
417.192	976.03
417.4	916.64
417.608	920.73
417.817	963.74
418.025	994.46
418.233	1148.06
418.441	982.17
418.649	1059.99
418.857	1174.68
419.065	1246.36
419.273	1236.12
419.481	1240.22
419.689	1275.03
419.897	1350.81
420.105	1539.22
420.313	1416.34
420.521	1420.44
420.729	1457.3
420.937	1481.88
421.145	1514.64
421.353	1723.54
421.561	1776.78
421.769	1756.3
421.977	1862.8
422.185	1914
422.393	2002.06
422.601	2038.92
422.809	2028.68
423.017	2137.23
423.224	2106.51
423.432	2335.88
423.64	2276.49
423.848	2555.01
424.056	2401.41
424.263	2493.57
424.471	2665.6
424.679	2612.35
424.887	2763.9
425.094	2966.65
425.302	2919.55
425.51	3013.76
425.718	3124.35
425.925	3157.11
426.133	3316.86
426.341	3542.13
426.548	3560.56
426.756	3636.34
426.964	3697.78
427.171	3890.29
427.379	3923.05
427.586	3828.85
427.794	4117.61
428.001	4398.18
428.209	4349.03
428.417	4303.98
428.624	4635.75
428.832	4670.56
429.039	4521.06
429.247	4779.11
429.454	4977.76
429.662	5295.19
429.869	5102.68
430.076	5489.75
430.284	5401.69
430.491	5471.32
430.699	5909.58
430.906	5950.54
431.114	5831.76
431.321	6196.3
431.528	6120.53
431.736	6675.52
431.943	6929.47
432.15	6581.32
432.358	6837.31
432.565	7279.68
432.772	7027.78
432.979	7507
433.187	7498.81
433.394	7668.79
433.601	8301.61
433.808	8338.48
434.016	8072.24
434.223	8440.87
434.43	8961.06
434.637	8825.89
434.844	9585.69
435.052	9583.64
435.259	9468.95
435.466	9571.35
435.673	9550.87
435.88	9970.71
436.087	10613.77
436.294	10488.84
436.501	10222.61
436.708	10566.67
436.915	10869.76
437.122	11459.58
437.329	11387.9
437.537	11699.19
437.743	11891.7
437.95	11889.65
438.157	12389.36
438.364	12792.81
438.571	12704.74
438.778	12854.25
438.985	14253.01
439.192	13507.55
439.399	14017.49
439.606	13634.52
439.813	14605.26
440.02	15293.38
440.227	15137.73
440.433	14928.84
440.64	15317.95
440.847	15367.1
441.054	15508.41
441.261	16618.41
441.467	16729
441.674	16843.69
441.881	17470.37
442.088	17564.57
442.294	17275.81
442.501	17683.36
442.708	18095
442.914	18641.81
443.121	19497.86
443.328	19170.18
443.534	20294.52
443.741	19706.75
443.948	19475.33
444.154	20761.45
444.361	21121.9
444.568	21101.42
444.774	20753.26
444.981	21021.55
445.187	21547.87
445.394	22723.41
445.6	22326.1
445.807	24214.33
446.013	23487.3
446.22	23866.17
446.426	24789.81
446.633	24879.92
446.839	25897.76
447.046	24781.62
447.252	26467.09
447.459	26217.24
447.665	26071.84
447.871	27110.16
448.078	28410.62
448.284	27325.19
448.491	28052.22
448.697	28783.35
448.903	29690.6
449.11	29852.39
449.316	29055.73
449.522	29795.04
449.728	30276.32
449.935	30526.17
450.141	30266.08
450.347	31277.77
450.553	30556.89
450.76	30671.57
450.966	31972.03
451.172	31349.45
451.378	32363.2
451.584	31623.88
451.791	32412.35
451.997	32193.22
452.203	32799.41
452.409	32848.57
452.615	32844.47
452.821	31478.47
453.027	31245.01
453.233	32559.8
453.44	31695.56
453.646	32010.95
453.852	32082.63
454.058	32942.77
454.264	31501
454.47	32522.94
454.676	31828.68
454.882	32654.01
455.088	30157.53
455.294	30051.04
455.5	30749.4
455.705	30913.23
455.911	29600.49
456.117	29405.93
456.323	29213.42
456.529	27450.12
456.735	28492.54
456.941	27982.59
457.147	27527.94
457.352	26635.03
457.558	26516.25
457.764	26569.49
457.97	26057.5
458.176	25338.66
458.381	25631.52
458.587	24054.59
458.793	24204.09
458.999	23171.91
459.204	24662.83
459.41	23913.28
459.616	22485.84
459.821	22356.82
460.027	22219.61
460.233	21568.35
460.438	20915.05
460.644	21162.86
460.85	20046.71
461.055	19633.02
461.261	19710.85
461.466	18062.23
461.672	17720.22
461.878	18668.43
462.083	17728.41
462.289	17558.43
462.494	17128.36
462.7	16442.29
462.905	15858.62
463.111	16642.99
463.316	16587.69
463.522	16278.45
463.727	16393.14
463.932	16292.79
464.138	15936.44
464.343	16260.02
464.549	15571.9
464.754	15997.88
464.959	15969.21
465.165	15866.81
465.37	15365.06
465.575	14738.38
465.781	15694.78
465.986	15469.5
466.191	15066.05
466.397	14857.16
466.602	14031.83
466.807	14377.94
467.012	14492.62
467.218	14373.84
