Data from USB4F104151__69__14-43-20-964.txt Node

Date: Thu Mar 13 14:43:20 EDT 2025
User: louis
Spectrometer: USB4F10415
Trigger mode: 4
Integration Time (sec): 2.000000E-2
Scans to average: 1
Electric dark correction enabled: true
Nonlinearity correction enabled: false
Boxcar width: 0
XAxis mode: Wavelengths
Number of Pixels in Spectrum: 3648
>>>>>Begin Spectral Data<<<<<
178.204	-145.41
178.424	-145.41
178.644	-145.41
178.864	-34.82
179.084	-75.77
179.304	34.82
179.524	-47.1
179.744	12.29
179.964	90.11
180.184	-55.3
180.404	18.43
180.624	8.19
180.844	-38.91
181.064	-34.82
181.283	-4.1
181.503	2.05
181.723	14.34
181.943	-96.25
182.163	51.2
182.383	20.48
182.602	36.86
182.822	30.72
183.042	-38.91
183.262	10.24
183.482	-12.29
183.701	-22.53
183.921	-16.38
184.141	-26.62
184.361	12.29
184.58	67.58
184.8	20.48
185.02	-30.72
185.239	116.73
185.459	40.96
185.679	14.34
185.898	43.01
186.118	67.58
186.338	79.87
186.557	94.21
186.777	59.39
186.997	-45.06
187.216	12.29
187.436	67.58
187.655	20.48
187.875	53.25
188.095	18.43
188.314	34.82
188.534	67.58
188.753	28.67
188.973	18.43
189.192	34.82
189.412	26.62
189.631	32.77
189.851	-88.06
190.07	55.3
190.29	-6.14
190.509	-36.86
190.729	-10.24
190.948	73.73
191.168	96.25
191.387	69.63
191.607	-30.72
191.826	30.72
192.045	88.06
192.265	83.97
192.484	30.72
192.704	-45.06
192.923	-38.91
193.142	92.16
193.362	40.96
193.581	-0
193.8	-10.24
194.02	26.62
194.239	-10.24
194.458	45.06
194.678	-24.58
194.897	18.43
195.116	51.2
195.335	67.58
195.555	61.44
195.774	79.87
195.993	43.01
196.212	-24.58
196.432	26.62
196.651	51.2
196.87	10.24
197.089	149.5
197.308	-24.58
197.528	18.43
197.747	71.68
197.966	2.05
198.185	75.77
198.404	61.44
198.623	-12.29
198.842	106.49
199.062	-2.05
199.281	47.1
199.5	-69.63
199.719	-4.1
199.938	-0
200.157	26.62
200.376	77.82
200.595	45.06
200.814	30.72
201.033	2.05
201.252	71.68
201.471	55.3
201.69	94.21
201.909	98.3
202.128	-22.53
202.347	38.91
202.566	51.2
202.785	18.43
203.004	-0
203.223	38.91
203.442	8.19
203.661	-20.48
203.879	59.39
204.098	94.21
204.317	-12.29
204.536	-43.01
204.755	43.01
204.974	63.49
205.193	28.67
205.411	110.59
205.63	92.16
205.849	-14.34
206.068	-36.86
206.287	83.97
206.505	2.05
206.724	-6.14
206.943	18.43
207.162	24.58
207.381	10.24
207.599	-6.14
207.818	59.39
208.037	10.24
208.255	12.29
208.474	-51.2
208.693	10.24
208.911	67.58
209.13	51.2
209.349	45.06
209.567	38.91
209.786	-2.05
210.005	20.48
210.223	-10.24
210.442	-4.1
210.661	18.43
210.879	81.92
211.098	-86.01
211.316	51.2
211.535	45.06
211.753	-20.48
211.972	40.96
212.191	-34.82
212.409	59.39
212.628	26.62
212.846	-32.77
213.065	59.39
213.283	75.77
213.502	-2.05
213.72	59.39
213.938	-14.34
214.157	16.38
214.375	-30.72
214.594	45.06
214.812	47.1
215.031	53.25
215.249	30.72
215.467	26.62
215.686	47.1
215.904	83.97
216.122	2.05
216.341	51.2
216.559	2.05
216.778	63.49
216.996	22.53
217.214	20.48
217.432	2.05
217.651	75.77
217.869	-20.48
218.087	34.82
218.306	-6.14
218.524	28.67
218.742	-43.01
218.96	34.82
219.179	2.05
219.397	-14.34
219.615	100.35
219.833	75.77
220.051	-10.24
220.27	18.43
220.488	61.44
220.706	34.82
220.924	-63.49
221.142	61.44
221.36	-2.05
221.578	43.01
221.796	18.43
222.015	18.43
222.233	49.15
222.451	59.39
222.669	77.82
222.887	24.58
223.105	83.97
223.323	2.05
223.541	-22.53
223.759	18.43
223.977	18.43
224.195	10.24
224.413	51.2
224.631	36.86
224.849	-14.34
225.067	116.73
225.285	-55.3
225.503	-53.25
225.721	-98.3
225.939	30.72
226.157	57.34
226.375	184.32
226.592	10.24
226.81	8.19
227.028	38.91
227.246	94.21
227.464	51.2
227.682	71.68
227.9	10.24
228.117	32.77
228.335	2.05
228.553	18.43
228.771	67.58
228.989	65.53
229.206	34.82
229.424	43.01
229.642	28.67
229.86	-53.25
230.077	100.35
230.295	8.19
230.513	67.58
230.731	51.2
230.948	47.1
231.166	71.68
231.384	-8.19
231.601	14.34
231.819	81.92
232.037	-49.15
232.254	2.05
232.472	81.92
232.689	88.06
232.907	71.68
233.125	-14.34
233.342	2.05
233.56	53.25
233.777	-10.24
233.995	-6.14
234.213	81.92
234.43	65.53
234.648	28.67
234.865	14.34
235.083	63.49
235.3	-30.72
235.518	-6.14
235.735	65.53
235.953	75.77
236.17	45.06
236.388	116.73
236.605	24.58
236.822	47.1
237.04	4.1
237.257	51.2
237.475	2.05
237.692	47.1
237.909	32.77
238.127	47.1
238.344	108.54
238.562	2.05
238.779	-83.97
238.996	4.1
239.214	106.49
239.431	43.01
239.648	20.48
239.865	75.77
240.083	2.05
240.3	34.82
240.517	-10.24
240.735	67.58
240.952	-30.72
241.169	51.2
241.386	-20.48
241.603	79.87
241.821	34.82
242.038	139.26
242.255	59.39
242.472	-14.34
242.689	47.1
242.907	71.68
243.124	43.01
243.341	6.14
243.558	43.01
243.775	-14.34
243.992	28.67
244.209	30.72
244.426	6.14
244.643	16.38
244.86	67.58
245.078	45.06
245.295	116.73
245.512	-20.48
245.729	-4.1
245.946	73.73
246.163	75.77
246.38	38.91
246.597	-18.43
246.814	-10.24
247.031	-38.91
247.248	-6.14
247.464	20.48
247.681	59.39
247.898	-14.34
248.115	77.82
248.332	30.72
248.549	94.21
248.766	77.82
248.983	4.1
249.2	-57.34
249.417	61.44
249.633	10.24
249.85	57.34
250.067	10.24
250.284	43.01
250.501	83.97
250.717	38.91
250.934	-45.06
251.151	-30.72
251.368	47.1
251.585	-24.58
251.801	75.77
252.018	-53.25
252.235	94.21
252.451	-2.05
252.668	55.3
252.885	30.72
253.102	-45.06
253.318	10.24
253.535	-10.24
253.752	53.25
253.968	-4.1
254.185	28.67
254.401	67.58
254.618	96.25
254.835	-2.05
255.051	53.25
255.268	34.82
255.484	88.06
255.701	-6.14
255.917	59.39
256.134	6.14
256.351	94.21
256.567	-55.3
256.784	-20.48
257	-4.1
257.217	63.49
257.433	104.45
257.65	-6.14
257.866	43.01
258.082	38.91
258.299	67.58
258.515	18.43
258.732	6.14
258.948	-4.1
259.165	-6.14
259.381	18.43
259.597	51.2
259.814	53.25
260.03	75.77
260.246	83.97
260.463	-22.53
260.679	20.48
260.895	65.53
261.112	-2.05
261.328	86.01
261.544	-18.43
261.761	10.24
261.977	-71.68
262.193	-0
262.409	51.2
262.626	96.25
262.842	67.58
263.058	79.87
263.274	32.77
263.49	104.45
263.707	51.2
263.923	20.48
264.139	10.24
264.355	61.44
264.571	-24.58
264.787	8.19
265.004	86.01
265.22	10.24
265.436	-38.91
265.652	-77.82
265.868	116.73
266.084	12.29
266.3	81.92
266.516	2.05
266.732	18.43
266.948	-36.86
267.164	61.44
267.38	16.38
267.596	4.1
267.812	28.67
268.028	92.16
268.244	83.97
268.46	51.2
268.676	75.77
268.892	43.01
269.108	30.72
269.324	81.92
269.54	-0
269.756	45.06
269.972	24.58
270.188	16.38
270.403	-18.43
270.619	-26.62
270.835	77.82
271.051	-34.82
271.267	32.77
271.483	53.25
271.698	26.62
271.914	30.72
272.13	51.2
272.346	-79.87
272.562	45.06
272.777	108.54
272.993	10.24
273.209	28.67
273.425	-20.48
273.64	-4.1
273.856	63.49
274.072	36.86
274.287	108.54
274.503	10.24
274.719	69.63
274.934	-20.48
275.15	2.05
275.366	-28.67
275.581	34.82
275.797	108.54
276.012	-0
276.228	18.43
276.444	18.43
276.659	26.62
276.875	12.29
277.09	12.29
277.306	-47.1
277.521	32.77
277.737	-10.24
277.952	86.01
278.168	2.05
278.383	71.68
278.599	86.01
278.814	51.2
279.03	-6.14
279.245	36.86
279.461	-67.58
279.676	131.07
279.892	-45.06
280.107	-14.34
280.322	-63.49
280.538	55.3
280.753	-30.72
280.969	30.72
281.184	-6.14
281.399	59.39
281.615	20.48
281.83	22.53
282.045	-0
282.26	18.43
282.476	34.82
282.691	4.1
282.906	22.53
283.122	10.24
283.337	18.43
283.552	20.48
283.767	-20.48
283.983	-38.91
284.198	94.21
284.413	94.21
284.628	59.39
284.843	16.38
285.058	-14.34
285.274	73.73
285.489	36.86
285.704	79.87
285.919	-30.72
286.134	55.3
286.349	4.1
286.564	-14.34
286.779	47.1
286.995	-20.48
287.21	47.1
287.425	36.86
287.64	16.38
287.855	26.62
288.07	-28.67
288.285	26.62
288.5	116.73
288.715	86.01
288.93	-6.14
289.145	-14.34
289.36	-18.43
289.575	45.06
289.79	43.01
290.004	20.48
290.219	47.1
290.434	-47.1
290.649	-30.72
290.864	69.63
291.079	26.62
291.294	88.06
291.509	36.86
291.724	30.72
291.938	75.77
292.153	14.34
292.368	83.97
292.583	51.2
292.798	43.01
293.012	30.72
293.227	-65.54
293.442	8.19
293.657	83.97
293.871	22.53
294.086	-10.24
294.301	100.35
294.516	71.68
294.73	83.97
294.945	-12.29
295.16	-20.48
295.374	51.2
295.589	20.48
295.804	18.43
296.018	-32.77
296.233	67.58
296.447	34.82
296.662	14.34
296.877	-12.29
297.091	10.24
297.306	10.24
297.52	-28.67
297.735	4.1
297.949	59.39
298.164	59.39
298.378	-4.1
298.593	40.96
298.807	28.67
299.022	22.53
299.236	51.2
299.451	67.58
299.665	4.1
299.88	4.1
300.094	53.25
300.309	32.77
300.523	10.24
300.737	28.67
300.952	47.1
301.166	30.72
301.381	-34.82
301.595	49.15
301.809	-10.24
302.024	6.14
302.238	49.15
302.452	75.77
302.667	-6.14
302.881	63.49
303.095	98.3
303.309	6.14
303.524	-55.3
303.738	55.3
303.952	20.48
304.166	45.06
304.381	-22.53
304.595	149.5
304.809	38.91
305.023	34.82
305.237	-22.53
305.452	77.82
305.666	63.49
305.88	-2.05
306.094	-4.1
306.308	34.82
306.522	4.1
306.736	59.39
306.95	30.72
307.164	-14.34
307.379	-4.1
307.593	12.29
307.807	10.24
308.021	100.35
308.235	12.29
308.449	34.82
308.663	67.58
308.877	96.25
309.091	-14.34
309.305	75.77
309.519	-43.01
309.733	86.01
309.947	-36.86
310.161	51.2
310.374	92.16
310.588	63.49
310.802	22.53
311.016	-34.82
311.23	61.44
311.444	51.2
311.658	59.39
311.872	61.44
312.085	14.34
312.299	77.82
312.513	75.77
312.727	24.58
312.941	22.53
313.154	45.06
313.368	-4.1
313.582	2.05
313.796	20.48
314.009	-12.29
314.223	79.87
314.437	100.35
314.651	14.34
314.864	2.05
315.078	26.62
315.292	18.43
315.505	12.29
315.719	100.35
315.933	83.97
316.146	22.53
316.36	51.2
316.573	55.3
316.787	30.72
317.001	67.58
317.214	18.43
317.428	-14.34
317.641	-71.68
317.855	-18.43
318.068	-6.14
318.282	36.86
318.495	79.87
318.709	-14.34
318.922	32.77
319.136	133.12
319.349	83.97
319.563	32.77
319.776	96.25
319.99	92.16
320.203	30.72
320.417	34.82
320.63	45.06
320.843	118.78
321.057	71.68
321.27	26.62
321.483	16.38
321.697	106.49
321.91	55.3
322.124	63.49
322.337	10.24
322.55	100.35
322.763	71.68
322.977	-10.24
323.19	12.29
323.403	10.24
323.617	-96.25
323.83	-8.19
324.043	18.43
324.256	59.39
324.469	-14.34
324.683	51.2
324.896	18.43
325.109	88.06
325.322	-79.87
325.535	51.2
325.748	26.62
325.962	-61.44
326.175	100.35
326.388	69.63
326.601	10.24
326.814	43.01
327.027	40.96
327.24	79.87
327.453	-10.24
327.666	12.29
327.879	69.63
328.092	49.15
328.305	79.87
328.518	-2.05
328.731	69.63
328.944	43.01
329.157	79.87
329.37	59.39
329.583	114.69
329.796	104.45
330.009	-36.86
330.222	-2.05
330.435	-38.91
330.648	61.44
330.861	92.16
331.073	-14.34
331.286	-6.14
331.499	36.86
331.712	51.2
331.925	59.39
332.138	4.1
332.35	59.39
332.563	30.72
332.776	69.63
332.989	8.19
333.202	-10.24
333.414	16.38
333.627	131.07
333.84	79.87
334.053	26.62
334.265	38.91
334.478	22.53
334.691	30.72
334.903	20.48
335.116	55.3
335.329	40.96
335.541	30.72
335.754	116.73
335.966	83.97
336.179	34.82
336.392	38.91
336.604	65.53
336.817	8.19
337.029	26.62
337.242	12.29
337.454	43.01
337.667	4.1
337.88	4.1
338.092	-28.67
338.305	67.58
338.517	26.62
338.729	34.82
338.942	4.1
339.154	10.24
339.367	36.86
339.579	96.25
339.792	18.43
340.004	43.01
340.217	-2.05
340.429	100.35
340.641	-12.29
340.854	10.24
341.066	59.39
341.278	59.39
341.491	124.93
341.703	38.91
341.915	-20.48
342.128	26.62
342.34	12.29
342.552	45.06
342.764	18.43
342.977	-20.48
343.189	45.06
343.401	34.82
343.613	53.25
343.826	-10.24
344.038	20.48
344.25	10.24
344.462	-12.29
344.674	2.05
344.886	26.62
345.099	55.3
345.311	-18.43
345.523	-2.05
345.735	34.82
345.947	2.05
346.159	94.21
346.371	16.38
346.583	88.06
346.795	43.01
347.007	10.24
347.219	-47.1
347.431	16.38
347.643	61.44
347.855	-43.01
348.067	116.73
348.279	-28.67
348.491	14.34
348.703	-24.58
348.915	32.77
349.127	26.62
349.339	6.14
349.551	-26.62
349.763	34.82
349.975	118.78
350.187	59.39
350.399	53.25
350.61	38.91
350.822	12.29
351.034	-18.43
351.246	100.35
351.458	36.86
351.669	10.24
351.881	75.77
352.093	-22.53
352.305	69.63
352.517	45.06
352.728	69.63
352.94	71.68
353.152	100.35
353.363	75.77
353.575	53.25
353.787	75.77
353.999	26.62
354.21	135.17
354.422	83.97
354.633	30.72
354.845	10.24
355.057	75.77
355.268	10.24
355.48	-6.14
355.692	69.63
355.903	69.63
356.115	28.67
356.326	-12.29
356.538	104.45
356.749	4.1
356.961	92.16
357.172	34.82
357.384	28.67
357.595	34.82
357.807	55.3
358.018	12.29
358.23	43.01
358.441	59.39
358.653	116.73
358.864	36.86
359.075	-12.29
359.287	53.25
359.498	139.26
359.709	10.24
359.921	10.24
360.132	43.01
360.344	112.64
360.555	43.01
360.766	18.43
360.977	45.06
361.189	18.43
361.4	71.68
361.611	51.2
361.823	75.77
362.034	73.73
362.245	-18.43
362.456	2.05
362.667	86.01
362.879	81.92
363.09	61.44
363.301	14.34
363.512	43.01
363.723	-14.34
363.935	51.2
364.146	81.92
364.357	34.82
364.568	77.82
364.779	-30.72
364.99	75.77
365.201	38.91
365.412	63.49
365.623	-4.1
365.834	-30.72
366.045	88.06
366.256	47.1
366.467	100.35
366.678	53.25
366.889	-2.05
367.1	102.4
367.311	40.96
367.522	124.93
367.733	88.06
367.944	40.96
368.155	94.21
368.366	10.24
368.577	59.39
368.788	43.01
368.999	26.62
369.209	75.77
369.42	30.72
369.631	92.16
369.842	-20.48
370.053	83.97
370.264	55.3
370.474	-86.01
370.685	71.68
370.896	16.38
371.107	65.53
371.317	38.91
371.528	-2.05
371.739	53.25
371.95	79.87
372.16	22.53
372.371	88.06
372.582	118.78
372.792	34.82
373.003	59.39
373.214	-32.77
373.424	36.86
373.635	20.48
373.846	120.83
374.056	57.34
374.267	83.97
374.477	92.16
374.688	22.53
374.898	92.16
375.109	-8.19
375.319	2.05
375.53	167.93
375.74	133.12
375.951	34.82
376.161	20.48
376.372	69.63
376.582	22.53
376.793	34.82
377.003	43.01
377.214	-4.1
377.424	75.77
377.635	124.93
377.845	10.24
378.055	51.2
378.266	-22.53
378.476	59.39
378.686	88.06
378.897	18.43
379.107	51.2
379.317	53.25
379.528	2.05
379.738	18.43
379.948	57.34
380.158	26.62
380.369	108.54
380.579	34.82
380.789	10.24
380.999	65.53
381.21	65.53
381.42	100.35
381.63	26.62
381.84	88.06
382.05	63.49
382.261	98.3
382.471	67.58
382.681	8.19
382.891	59.39
383.101	51.2
383.311	16.38
383.521	83.97
383.731	118.78
383.941	165.89
384.151	18.43
384.361	34.82
384.571	57.34
384.781	47.1
384.991	131.07
385.201	108.54
385.411	86.01
385.621	165.89
385.831	16.38
386.041	94.21
386.251	-28.67
386.461	-0
386.671	-22.53
386.881	12.29
387.091	67.58
387.301	45.06
387.511	43.01
387.72	18.43
387.93	10.24
388.14	-8.19
388.35	94.21
388.56	14.34
388.769	112.64
388.979	-6.14
389.189	55.3
389.399	30.72
389.609	110.59
389.818	69.63
390.028	83.97
390.238	32.77
390.447	43.01
390.657	75.77
390.867	120.83
391.076	-45.06
391.286	4.1
391.496	79.87
391.705	43.01
391.915	63.49
392.125	59.39
392.334	43.01
392.544	86.01
392.753	43.01
392.963	-53.25
393.172	61.44
393.382	53.25
393.591	100.35
393.801	94.21
394.01	133.12
394.22	14.34
394.429	34.82
394.639	28.67
394.848	86.01
395.058	61.44
395.267	98.3
395.477	92.16
395.686	124.93
395.895	118.78
396.105	178.17
396.314	55.3
396.524	83.97
396.733	10.24
396.942	174.08
397.152	83.97
397.361	67.58
397.57	69.63
397.78	79.87
397.989	86.01
398.198	135.17
398.407	149.5
398.617	43.01
398.826	2.05
399.035	133.12
399.244	34.82
399.453	151.55
399.663	116.73
399.872	67.58
400.081	75.77
400.29	116.73
400.499	79.87
400.708	61.44
400.917	34.82
401.127	-18.43
401.336	100.35
401.545	88.06
401.754	174.08
401.963	129.02
402.172	34.82
402.381	118.78
402.59	94.21
402.799	141.31
403.008	120.83
403.217	159.74
403.426	34.82
403.635	100.35
403.844	100.35
404.053	104.45
404.262	63.49
404.471	118.78
404.68	135.17
404.888	94.21
405.097	92.16
405.306	182.27
405.515	124.93
405.724	192.51
405.933	118.78
406.142	190.46
406.35	98.3
406.559	139.26
406.768	145.41
406.977	182.27
407.185	192.51
407.394	118.78
407.603	157.69
407.812	165.89
408.02	157.69
408.229	174.08
408.438	231.42
408.646	122.88
408.855	198.65
409.064	180.22
409.272	245.76
409.481	280.57
409.69	251.9
409.898	229.37
410.107	233.47
410.315	221.18
410.524	210.94
410.733	333.82
410.941	149.5
411.15	305.15
411.358	286.72
411.567	305.15
411.775	280.57
411.984	403.45
412.192	342.01
412.401	346.11
412.609	393.21
412.818	458.74
413.026	380.92
413.234	411.64
413.443	503.8
413.651	409.59
413.86	417.79
414.068	497.66
414.276	387.07
414.485	509.94
414.693	471.03
414.901	567.29
415.11	477.18
415.318	495.61
415.526	579.58
415.734	550.9
415.943	624.63
416.151	673.78
416.359	634.87
416.567	659.45
416.776	727.03
416.984	741.36
417.192	849.91
417.4	749.56
417.608	675.83
417.817	698.36
418.025	739.32
418.233	950.26
418.441	817.14
418.649	829.43
418.857	1011.7
419.065	946.16
419.273	1066.99
419.481	1077.23
419.689	1083.38
419.897	1167.34
420.105	1066.99
420.313	1144.81
420.521	1222.64
420.729	1234.93
420.937	1124.33
421.145	1290.22
421.353	1402.86
421.561	1501.16
421.769	1462.25
421.977	1509.35
422.185	1533.93
422.393	1685.48
422.601	1726.44
422.809	1695.72
423.017	1660.9
423.224	1791.97
423.432	1918.95
423.64	1902.56
423.848	1980.39
424.056	2013.15
424.263	2150.37
424.471	2138.08
424.679	2115.55
424.887	2344.92
425.094	2336.73
425.302	2336.73
425.51	2490.33
425.718	2590.68
425.925	2664.41
426.133	2729.94
426.341	2822.1
426.548	2879.44
426.756	2912.21
426.964	2942.93
427.171	3041.23
427.379	3125.2
427.586	3291.09
427.794	3317.71
428.001	3473.35
428.209	3751.88
428.417	3641.29
428.624	3803.08
428.832	4036.55
429.039	3770.31
429.247	3770.31
429.454	4315.07
429.662	4591.55
429.869	4345.79
430.076	4442.04
430.284	4345.79
430.491	4532.15
430.699	4794.29
430.906	4771.77
431.114	4896.69
431.321	5087.15
431.528	5064.63
431.736	5459.88
431.943	5715.88
432.15	5738.41
432.358	5719.98
432.565	6084.52
432.772	5924.77
432.979	6305.7
433.187	6416.29
433.394	6469.53
433.601	6772.63
433.808	6883.22
434.016	6825.88
434.223	7165.84
434.43	7444.37
434.637	7391.12
434.844	7755.66
435.052	7927.69
435.259	7942.02
435.466	8058.76
435.673	7915.4
435.88	8392.58
436.087	8925.05
436.294	8828.79
436.501	8521.6
436.708	8845.18
436.915	9103.22
437.122	9602.93
437.329	9312.11
437.537	9693.04
437.743	9989.99
437.95	9828.2
438.157	10364.77
438.364	10749.79
438.571	10776.41
438.778	10753.88
438.985	11581.26
439.192	11118.42
439.399	11849.55
439.606	11380.56
439.813	12134.21
440.02	12756.8
440.227	12355.4
440.433	12459.84
440.64	13008.7
440.847	12861.24
441.054	13012.79
441.261	14028.59
441.467	13762.35
441.674	13930.28
441.881	14386.98
442.088	14550.82
442.294	14186.28
442.501	14886.68
442.708	15107.87
442.914	15722.26
443.121	16205.58
443.328	15884.05
443.534	17043.2
443.741	16475.91
443.948	16197.38
444.154	17581.81
444.361	17352.44
444.568	17401.59
444.774	17315.58
444.981	17608.44
445.187	18269.93
445.394	18839.26
445.6	18749.15
445.807	20442.82
446.013	19670.74
446.22	20029.13
446.426	20543.17
446.633	20862.66
446.839	21788.34
447.046	20942.53
447.252	21958.32
447.459	22046.38
447.665	21673.65
447.871	22503.08
448.078	23826.07
448.284	22640.29
448.491	23426.71
448.697	24116.88
448.903	24604.3
449.11	24688.26
449.316	24235.66
449.522	24747.65
449.728	25382.52
449.935	25849.46
450.141	25833.08
450.347	26127.99
450.553	25110.14
450.76	25839.22
450.966	26818.15
451.172	26703.46
451.378	27158.11
451.584	26627.69
451.791	27262.56
451.997	26891.88
452.203	27498.08
452.409	27934.29
452.615	27848.28
452.821	26480.24
453.027	26386.03
453.233	27813.46
453.44	26566.25
453.646	26662.51
453.852	27051.62
454.058	27594.33
454.264	26912.36
454.47	27455.07
454.676	26513
454.882	27496.03
455.088	25147.01
455.294	25454.2
455.5	26269.3
455.705	26447.47
455.911	25196.16
456.117	24831.62
456.323	24534.67
456.529	23113.38
456.735	24661.64
456.941	23836.31
457.147	23318.17
457.352	22769.32
457.558	22496.94
457.764	22703.78
457.97	22267.56
458.176	21518.01
458.381	21630.65
458.587	20653.76
458.793	20639.43
458.999	19662.55
459.204	21102.27
459.41	20426.44
459.616	19009.25
459.821	19144.41
460.027	19033.82
460.233	18736.87
460.438	17702.64
460.644	18163.43
460.85	17051.39
461.055	16723.71
461.261	17100.54
461.466	15652.63
461.672	15101.72
461.878	16195.34
462.083	15064.86
462.289	14909.21
462.494	14587.68
462.7	14059.31
462.905	13348.66
463.111	14260.01
463.316	13821.74
463.522	13924.14
463.727	13879.08
463.932	13838.12
464.138	13723.44
464.343	13621.04
464.549	13354.8
464.754	13772.59
464.959	13850.41
465.165	13510.45
465.37	12908.35
465.575	12715.84
465.781	13242.17
465.986	13188.92
466.191	12816.19
466.397	12711.74
466.602	11720.53
466.807	12590.91
467.012	12300.1
467.218	12300.1
467.423	12289.86
467.628	12214.09
