Data from USB4F104151__271__14-46-10-038.txt Node

Date: Thu Mar 13 14:46:10 EDT 2025
User: louis
Spectrometer: USB4F10415
Trigger mode: 4
Integration Time (sec): 2.000000E-2
Scans to average: 1
Electric dark correction enabled: true
Nonlinearity correction enabled: false
Boxcar width: 0
XAxis mode: Wavelengths
Number of Pixels in Spectrum: 3648
>>>>>Begin Spectral Data<<<<<
178.204	-88.06
178.424	-88.06
178.644	-88.06
178.864	-137.21
179.084	-110.59
179.304	49.15
179.524	0
179.744	-57.34
179.964	-6.14
180.184	26.62
180.404	16.38
180.624	4.1
180.844	26.62
181.064	-73.73
181.283	10.24
181.503	-55.3
181.723	59.39
181.943	-65.53
182.163	108.54
182.383	55.3
182.602	32.77
182.822	49.15
183.042	69.63
183.262	-6.14
183.482	-6.14
183.701	6.14
183.921	-4.1
184.141	-12.29
184.361	32.77
184.58	57.34
184.8	0
185.02	40.96
185.239	14.34
185.459	24.58
185.679	4.1
185.898	-2.05
186.118	0
186.338	-24.58
186.557	22.53
186.777	-22.53
186.997	12.29
187.216	24.58
187.436	81.92
187.655	-28.67
187.875	49.15
188.095	2.05
188.314	-28.67
188.534	53.25
188.753	6.14
188.973	36.86
189.192	47.1
189.412	75.77
189.631	59.39
189.851	53.25
190.07	86.01
190.29	-38.91
190.509	32.77
190.729	-83.97
190.948	88.06
191.168	86.01
191.387	10.24
191.607	16.38
191.826	24.58
192.045	-18.43
192.265	0
192.484	8.19
192.704	16.38
192.923	4.1
193.142	-8.19
193.362	18.43
193.581	73.73
193.8	26.62
194.02	116.73
194.239	-26.62
194.458	53.25
194.678	-20.48
194.897	-4.1
195.116	75.77
195.335	-12.29
195.555	69.63
195.774	45.06
195.993	16.38
196.212	51.2
196.432	65.54
196.651	36.86
196.87	24.58
197.089	79.87
197.308	2.05
197.528	120.83
197.747	-69.63
197.966	-32.77
198.185	8.19
198.404	65.54
198.623	32.77
198.842	43.01
199.062	0
199.281	114.69
199.5	32.77
199.719	10.24
199.938	-6.14
200.157	18.43
200.376	-8.19
200.595	43.01
200.814	16.38
201.033	16.38
201.252	20.48
201.471	36.86
201.69	8.19
201.909	53.25
202.128	69.63
202.347	49.15
202.566	-47.1
202.785	-24.58
203.004	-22.53
203.223	159.74
203.442	-36.86
203.661	-12.29
203.879	2.05
204.098	38.91
204.317	96.25
204.536	49.15
204.755	49.15
204.974	81.92
205.193	34.82
205.411	153.6
205.63	4.1
205.849	-8.19
206.068	38.91
206.287	-22.53
206.505	57.34
206.724	-16.38
206.943	26.62
207.162	36.86
207.381	79.87
207.599	18.43
207.818	-10.24
208.037	-32.77
208.255	-53.25
208.474	-12.29
208.693	-12.29
208.911	81.92
209.13	53.25
209.349	77.82
209.567	135.17
209.786	-22.53
210.005	8.19
210.223	47.1
210.442	-32.77
210.661	18.43
210.879	-12.29
211.098	36.86
211.316	61.44
211.535	57.34
211.753	32.77
211.972	26.62
212.191	47.1
212.409	53.25
212.628	0
212.846	-6.14
213.065	51.2
213.283	147.45
213.502	-47.1
213.72	102.4
213.938	-24.58
214.157	43.01
214.375	43.01
214.594	36.86
214.812	69.63
215.031	32.77
215.249	69.63
215.467	-20.48
215.686	43.01
215.904	92.16
216.122	-14.34
216.341	114.69
216.559	16.38
216.778	-92.16
216.996	24.58
217.214	8.19
217.432	-38.91
217.651	-16.38
217.869	16.38
218.087	-26.62
218.306	16.38
218.524	40.96
218.742	-47.1
218.96	28.67
219.179	16.38
219.397	65.54
219.615	75.77
219.833	20.48
220.051	0
220.27	59.39
220.488	51.2
220.706	32.77
220.924	0
221.142	10.24
221.36	-28.67
221.578	18.43
221.796	12.29
222.015	18.43
222.233	-2.05
222.451	102.4
222.669	-6.14
222.887	28.67
223.105	67.58
223.323	-36.86
223.541	-59.39
223.759	24.58
223.977	-49.15
224.195	75.77
224.413	90.11
224.631	40.96
224.849	45.06
225.067	96.25
225.285	12.29
225.503	49.15
225.721	30.72
225.939	34.82
226.157	61.44
226.375	108.54
226.592	16.38
226.81	-20.48
227.028	49.15
227.246	10.24
227.464	0
227.682	40.96
227.9	-12.29
228.117	26.62
228.335	-12.29
228.553	45.06
228.771	16.38
228.989	49.15
229.206	32.77
229.424	-14.34
229.642	-14.34
229.86	10.24
230.077	16.38
230.295	-4.1
230.513	32.77
230.731	67.58
230.948	40.96
231.166	67.58
231.384	-16.38
231.601	20.48
231.819	6.14
232.037	98.3
232.254	-2.05
232.472	53.25
232.689	45.06
232.907	57.34
233.125	0
233.342	16.38
233.56	4.1
233.777	34.82
233.995	16.38
234.213	90.11
234.43	69.63
234.648	51.2
234.865	49.15
235.083	-6.14
235.3	43.01
235.518	94.21
235.735	114.69
235.953	57.34
236.17	-8.19
236.388	0
236.605	-51.2
236.822	8.19
237.04	53.25
237.257	10.24
237.475	49.15
237.692	22.53
237.909	65.54
238.127	49.15
238.344	-12.29
238.562	49.15
238.779	-22.53
238.996	-16.38
239.214	36.86
239.431	40.96
239.648	12.29
239.865	57.34
240.083	-12.29
240.3	-14.34
240.517	110.59
240.735	-30.72
240.952	-4.1
241.169	49.15
241.386	43.01
241.603	40.96
241.821	59.39
242.038	36.86
242.255	59.39
242.472	20.48
242.689	10.24
242.907	65.54
243.124	-53.25
243.341	24.58
243.558	43.01
243.775	-12.29
243.992	38.91
244.209	81.92
244.426	75.77
244.643	71.68
244.86	-30.72
245.078	63.49
245.295	34.82
245.512	36.86
245.729	-20.48
245.946	16.38
246.163	73.73
246.38	92.16
246.597	-22.53
246.814	73.73
247.031	36.86
247.248	108.54
247.464	49.15
247.681	26.62
247.898	34.82
248.115	16.38
248.332	-32.77
248.549	106.49
248.766	16.38
248.983	49.15
249.2	57.34
249.417	131.07
249.633	65.54
249.85	49.15
250.067	49.15
250.284	40.96
250.501	28.67
250.717	28.67
250.934	40.96
251.151	40.96
251.368	-16.38
251.585	24.58
251.801	67.58
252.018	49.15
252.235	2.05
252.451	-6.14
252.668	-22.53
252.885	40.96
253.102	-14.34
253.318	24.58
253.535	-8.19
253.752	43.01
253.968	90.11
254.185	10.24
254.401	-36.86
254.618	57.34
254.835	16.38
255.051	114.69
255.268	102.4
255.484	43.01
255.701	12.29
255.917	83.97
256.134	18.43
256.351	-14.34
256.567	-38.91
256.784	53.25
257	-32.77
257.217	83.97
257.433	83.97
257.65	-16.38
257.866	47.1
258.082	-67.58
258.299	-38.91
258.515	43.01
258.732	24.58
258.948	38.91
259.165	59.39
259.381	40.96
259.597	26.62
259.814	32.77
260.03	-4.1
260.246	26.62
260.463	45.06
260.679	26.62
260.895	20.48
261.112	-20.48
261.328	-61.44
261.544	-22.53
261.761	45.06
261.977	-22.53
262.193	-20.48
262.409	32.77
262.626	77.82
262.842	0
263.058	81.92
263.274	16.38
263.49	28.67
263.707	45.06
263.923	-65.53
264.139	10.24
264.355	8.19
264.571	57.34
264.787	131.07
265.004	90.11
265.22	-12.29
265.436	-16.38
265.652	43.01
265.868	34.82
266.084	-14.34
266.3	-22.53
266.516	26.62
266.732	51.2
266.948	2.05
267.164	-6.14
267.38	57.34
267.596	18.43
267.812	45.06
268.028	67.58
268.244	-24.58
268.46	100.35
268.676	40.96
268.892	151.55
269.108	69.63
269.324	43.01
269.54	-24.58
269.756	65.54
269.972	-43.01
270.188	30.72
270.403	-53.25
270.619	36.86
270.835	24.58
271.051	141.31
271.267	0
271.483	53.25
271.698	-49.15
271.914	45.06
272.13	18.43
272.346	-20.48
272.562	-32.77
272.777	22.53
272.993	-59.39
273.209	32.77
273.425	77.82
273.64	-40.96
273.856	32.77
274.072	32.77
274.287	12.29
274.503	26.62
274.719	94.21
274.934	61.44
275.15	53.25
275.366	53.25
275.581	32.77
275.797	49.15
276.012	8.19
276.228	114.69
276.444	57.34
276.659	36.86
276.875	-67.58
277.09	-73.73
277.306	57.34
277.521	26.62
277.737	34.82
277.952	53.25
278.168	32.77
278.383	65.54
278.599	108.54
278.814	81.92
279.03	38.91
279.245	94.21
279.461	59.39
279.676	129.02
279.892	16.38
280.107	34.82
280.322	8.19
280.538	102.4
280.753	59.39
280.969	86.01
281.184	-40.96
281.399	34.82
281.615	-12.29
281.83	12.29
282.045	-57.34
282.26	-59.39
282.476	49.15
282.691	16.38
282.906	8.19
283.122	10.24
283.337	-16.38
283.552	36.86
283.767	-4.1
283.983	96.25
284.198	59.39
284.413	32.77
284.628	28.67
284.843	-8.19
285.058	65.54
285.274	45.06
285.489	-2.05
285.704	20.48
285.919	24.58
286.134	24.58
286.349	0
286.564	36.86
286.779	30.72
286.995	14.34
287.21	8.19
287.425	-20.48
287.64	-36.86
287.855	75.77
288.07	26.62
288.285	75.77
288.5	67.58
288.715	126.97
288.93	57.34
289.145	0
289.36	59.39
289.575	94.21
289.79	102.4
290.004	-6.14
290.219	28.67
290.434	12.29
290.649	-16.38
290.864	81.92
291.079	12.29
291.294	36.86
291.509	24.58
291.724	40.96
291.938	2.05
292.153	8.19
292.368	-4.1
292.583	12.29
292.798	26.62
293.012	-55.3
293.227	40.96
293.442	8.19
293.657	73.73
293.871	26.62
294.086	30.72
294.301	90.11
294.516	57.34
294.73	59.39
294.945	-16.38
295.16	51.2
295.374	57.34
295.589	8.19
295.804	0
296.018	28.67
296.233	94.21
296.447	8.19
296.662	43.01
296.877	114.69
297.091	36.86
297.306	-16.38
297.52	40.96
297.735	49.15
297.949	18.43
298.164	53.25
298.378	12.29
298.593	57.34
298.807	-8.19
299.022	118.78
299.236	77.82
299.451	40.96
299.665	51.2
299.88	12.29
300.094	43.01
300.309	67.58
300.523	0
300.737	2.05
300.952	34.82
301.166	63.49
301.381	-24.58
301.595	24.58
301.809	24.58
302.024	86.01
302.238	114.69
302.452	16.38
302.667	0
302.881	90.11
303.095	16.38
303.309	34.82
303.524	47.1
303.738	86.01
303.952	53.25
304.166	16.38
304.381	-4.1
304.595	106.49
304.809	28.67
305.023	79.87
305.237	-34.82
305.452	73.73
305.666	0
305.88	28.67
306.094	-8.19
306.308	81.92
306.522	65.54
306.736	92.16
306.95	49.15
307.164	-12.29
307.379	0
307.593	51.2
307.807	-47.1
308.021	67.58
308.235	16.38
308.449	40.96
308.663	-4.1
308.877	57.34
309.091	8.19
309.305	34.82
309.519	30.72
309.733	61.44
309.947	-18.43
310.161	88.06
310.374	16.38
310.588	57.34
310.802	-53.25
311.016	16.38
311.23	8.19
311.444	8.19
311.658	32.77
311.872	10.24
312.085	81.92
312.299	65.54
312.513	51.2
312.727	-14.34
312.941	-8.19
313.154	32.77
313.368	75.77
313.582	32.77
313.796	53.25
314.009	-16.38
314.223	92.16
314.437	65.54
314.651	34.82
314.864	-14.34
315.078	18.43
315.292	18.43
315.505	-22.53
315.719	24.58
315.933	51.2
316.146	-24.58
316.36	26.62
316.573	92.16
316.787	92.16
317.001	77.82
317.214	-8.19
317.428	174.08
317.641	141.31
317.855	-12.29
318.068	22.53
318.282	98.3
318.495	73.73
318.709	77.82
318.922	26.62
319.136	-14.34
319.349	65.54
319.563	20.48
319.776	-16.38
319.99	-4.1
320.203	-10.24
320.417	40.96
320.63	6.14
320.843	149.5
321.057	38.91
321.27	6.14
321.483	28.67
321.697	18.43
321.91	32.77
322.124	14.34
322.337	-6.14
322.55	24.58
322.763	16.38
322.977	24.58
323.19	-30.72
323.403	18.43
323.617	22.53
323.83	16.38
324.043	36.86
324.256	34.82
324.469	-16.38
324.683	6.14
324.896	-16.38
325.109	102.4
325.322	-8.19
325.535	69.63
325.748	75.77
325.962	10.24
326.175	40.96
326.388	53.25
326.601	65.54
326.814	79.87
327.027	45.06
327.24	94.21
327.453	32.77
327.666	-24.58
327.879	49.15
328.092	-24.58
328.305	-6.14
328.518	26.62
328.731	92.16
328.944	47.1
329.157	49.15
329.37	63.49
329.583	-22.53
329.796	59.39
330.009	0
330.222	12.29
330.435	49.15
330.648	26.62
330.861	67.58
331.073	2.05
331.286	34.82
331.499	47.1
331.712	-8.19
331.925	73.73
332.138	16.38
332.35	57.34
332.563	75.77
332.776	90.11
332.989	0
333.202	20.48
333.414	22.53
333.627	55.3
333.84	55.3
334.053	-24.58
334.265	6.14
334.478	16.38
334.691	65.54
334.903	2.05
335.116	30.72
335.329	71.68
335.541	32.77
335.754	126.97
335.966	63.49
336.179	65.54
336.392	49.15
336.604	-4.1
336.817	69.63
337.029	45.06
337.242	16.38
337.454	65.54
337.667	6.14
337.88	90.11
338.092	59.39
338.305	8.19
338.517	57.34
338.729	18.43
338.942	49.15
339.154	-20.48
339.367	-2.05
339.579	55.3
339.792	-28.67
340.004	-6.14
340.217	49.15
340.429	32.77
340.641	40.96
340.854	-24.58
341.066	2.05
341.278	36.86
341.491	126.97
341.703	24.58
341.915	-22.53
342.128	77.82
342.34	24.58
342.552	49.15
342.764	92.16
342.977	83.97
343.189	-10.24
343.401	24.58
343.613	-24.58
343.826	79.87
344.038	4.1
344.25	63.49
344.462	59.39
344.674	102.4
344.886	2.05
345.099	75.77
345.311	40.96
345.523	86.01
345.735	-6.14
345.947	92.16
346.159	38.91
346.371	47.1
346.583	0
346.795	139.26
347.007	-6.14
347.219	24.58
347.431	16.38
347.643	49.15
347.855	-47.1
348.067	57.34
348.279	-2.05
348.491	38.91
348.703	24.58
348.915	59.39
349.127	28.67
349.339	2.05
349.551	36.86
349.763	75.77
349.975	36.86
350.187	57.34
350.399	69.63
350.61	57.34
350.822	0
351.034	106.49
351.246	102.4
351.458	20.48
351.669	57.34
351.881	8.19
352.093	73.73
352.305	120.83
352.517	81.92
352.728	81.92
352.94	10.24
353.152	32.77
353.363	59.39
353.575	57.34
353.787	92.16
353.999	30.72
354.21	83.97
354.422	81.92
354.633	49.15
354.845	83.97
355.057	51.2
355.268	51.2
355.48	75.77
355.692	77.82
355.903	98.3
356.115	16.38
356.326	-30.72
356.538	94.21
356.749	59.39
356.961	63.49
357.172	45.06
357.384	-24.58
357.595	163.84
357.807	75.77
358.018	-24.58
358.23	57.34
358.441	98.3
358.653	57.34
358.864	20.48
359.075	57.34
359.287	-4.1
359.498	106.49
359.709	-20.48
359.921	61.44
360.132	92.16
360.344	133.12
360.555	-24.58
360.766	18.43
360.977	57.34
361.189	24.58
361.4	16.38
361.611	16.38
361.823	106.49
362.034	-24.58
362.245	8.19
362.456	0
362.667	36.86
362.879	45.06
363.09	14.34
363.301	73.73
363.512	167.93
363.723	22.53
363.935	40.96
364.146	69.63
364.357	67.58
364.568	104.45
364.779	-4.1
364.99	75.77
365.201	40.96
365.412	57.34
365.623	-8.19
365.834	34.82
366.045	10.24
366.256	90.11
366.467	43.01
366.678	26.62
366.889	45.06
367.1	24.58
367.311	67.58
367.522	71.68
367.733	-10.24
367.944	59.39
368.155	45.06
368.366	10.24
368.577	110.59
368.788	57.34
368.999	-43.01
369.209	112.64
369.42	86.01
369.631	118.78
369.842	8.19
370.053	75.77
370.264	118.78
370.474	73.73
370.685	16.38
370.896	43.01
371.107	83.97
371.317	-20.48
371.528	-24.58
371.739	114.69
371.95	114.69
372.16	16.38
372.371	-30.72
372.582	24.58
372.792	24.58
373.003	24.58
373.214	38.91
373.424	77.82
373.635	16.38
373.846	106.49
374.056	16.38
374.267	34.82
374.477	49.15
374.688	81.92
374.898	67.58
375.109	81.92
375.319	90.11
375.53	65.54
375.74	73.73
375.951	51.2
376.161	83.97
376.372	34.82
376.582	16.38
376.793	-28.67
377.003	57.34
377.214	49.15
377.424	45.06
377.635	10.24
377.845	83.97
378.055	49.15
378.266	16.38
378.476	-28.67
378.686	53.25
378.897	38.91
379.107	114.69
379.317	79.87
379.528	45.06
379.738	30.72
379.948	57.34
380.158	-16.38
380.369	26.62
380.579	12.29
380.789	8.19
380.999	51.2
381.21	12.29
381.42	51.2
381.63	79.87
381.84	40.96
382.05	59.39
382.261	32.77
382.471	65.54
382.681	-10.24
382.891	40.96
383.101	116.73
383.311	-26.62
383.521	94.21
383.731	-4.1
383.941	47.1
384.151	88.06
384.361	-6.14
384.571	59.39
384.781	108.54
384.991	176.13
385.201	116.73
385.411	110.59
385.621	157.69
385.831	137.21
386.041	106.49
386.251	98.3
386.461	20.48
386.671	36.86
386.881	90.11
387.091	22.53
387.301	16.38
387.511	49.15
387.72	86.01
387.93	77.82
388.14	49.15
388.35	-38.91
388.56	94.21
388.769	57.34
388.979	57.34
389.189	-6.14
389.399	24.58
389.609	65.54
389.818	100.35
390.028	43.01
390.238	147.45
390.447	120.83
390.657	90.11
390.867	10.24
391.076	-8.19
391.286	106.49
391.496	118.78
391.705	-4.1
391.915	139.26
392.125	149.5
392.334	159.74
392.544	104.45
392.753	4.1
392.963	22.53
393.172	94.21
393.382	45.06
393.591	55.3
393.801	61.44
394.01	77.82
394.22	100.35
394.429	43.01
394.639	22.53
394.848	67.58
395.058	83.97
395.267	94.21
395.477	90.11
395.686	59.39
395.895	94.21
396.105	147.45
396.314	59.39
396.524	57.34
396.733	63.49
396.942	116.73
397.152	77.82
397.361	147.45
397.57	59.39
397.78	59.39
397.989	92.16
398.198	133.12
398.407	28.67
398.617	69.63
398.826	83.97
399.035	133.12
399.244	65.54
399.453	18.43
399.663	94.21
399.872	100.35
400.081	71.68
400.29	147.45
400.499	81.92
400.708	81.92
400.917	32.77
401.127	81.92
401.336	114.69
401.545	190.46
401.754	186.37
401.963	180.22
402.172	59.39
402.381	51.2
402.59	102.4
402.799	116.73
403.008	96.25
403.217	73.73
403.426	102.4
403.635	73.73
403.844	149.5
404.053	133.12
404.262	180.22
404.471	83.97
404.68	137.21
404.888	147.45
405.097	120.83
405.306	147.45
405.515	149.5
405.724	114.69
405.933	106.49
406.142	131.07
406.35	180.22
406.559	139.26
406.768	161.79
406.977	225.28
407.185	131.07
407.394	215.04
407.603	114.69
407.812	174.08
408.02	196.61
408.229	174.08
408.438	178.17
408.646	190.46
408.855	206.84
409.064	270.33
409.272	206.84
409.481	204.8
409.69	249.85
409.898	237.56
410.107	204.8
410.315	249.85
410.524	247.8
410.733	237.56
410.941	303.1
411.15	403.45
411.358	233.47
411.567	417.79
411.775	342.01
411.984	325.63
412.192	366.59
412.401	401.4
412.609	438.27
412.818	460.79
413.026	428.03
413.234	372.73
413.443	452.6
413.651	444.41
413.86	483.32
414.068	532.47
414.276	524.28
414.485	462.84
414.693	557.05
414.901	729.08
415.11	651.25
415.318	602.1
415.526	581.62
415.734	606.2
415.943	645.11
416.151	686.07
416.359	659.45
416.567	737.27
416.776	743.41
416.984	763.89
417.192	870.39
417.4	905.2
417.608	835.57
417.817	862.19
418.025	925.68
418.233	1015.79
418.441	931.83
418.649	1042.42
418.857	1112.05
419.065	1163.25
419.273	1081.33
419.481	1208.3
419.689	1210.35
419.897	1212.4
420.105	1302.51
420.313	1255.4
420.521	1376.23
420.729	1337.32
420.937	1445.87
421.145	1511.4
421.353	1662.95
421.561	1609.7
421.769	1638.37
421.977	1691.62
422.185	1703.91
422.393	1904.61
422.601	1949.67
422.809	1925.09
423.017	2058.21
423.224	2082.78
423.432	2213.85
423.64	2115.55
423.848	2287.58
424.056	2172.89
424.263	2293.73
424.471	2361.31
424.679	2600.92
424.887	2660.31
425.094	2639.83
425.302	2641.88
425.51	2727.89
425.718	2906.07
425.925	2904.02
426.133	3055.57
426.341	3170.26
426.548	3284.94
426.756	3254.22
426.964	3440.59
427.171	3629
427.379	3731.4
427.586	3684.3
427.794	3856.33
428.001	3960.77
428.209	4018.11
428.417	4151.23
428.624	4374.46
428.832	4300.73
429.039	4394.94
429.247	4405.18
429.454	4730.81
429.662	5089.2
429.869	4636.6
430.076	4888.5
430.284	4886.45
430.491	5242.8
430.699	5365.68
430.906	5531.56
431.114	5463.98
431.321	5851.05
431.528	5955.49
431.736	6121.38
431.943	6506.4
432.15	6373.28
432.358	6301.6
432.565	6698.91
432.772	6737.82
432.979	7014.29
433.187	7024.53
433.394	7223.19
433.601	7683.98
433.808	7679.88
434.016	7563.15
434.223	7993.22
434.43	8411.01
434.637	8429.44
434.844	8810.36
435.052	9019.25
435.259	8765.31
435.466	8961.91
435.673	8929.14
435.88	9447.28
436.087	9944.94
436.294	10057.57
436.501	9633.64
436.708	9922.41
436.915	10403.68
437.122	10864.47
437.329	10731.36
437.537	10800.99
437.743	11280.21
437.95	11167.57
438.157	11642.7
438.364	12242.76
438.571	12105.54
438.778	12193.61
438.985	13334.32
439.192	12734.27
439.399	13141.82
439.606	12982.07
439.813	13692.72
440.02	14378.79
440.227	14497.57
440.433	14036.78
440.64	14421.8
440.847	14477.09
441.054	15167.26
441.261	15712.02
441.467	15714.06
441.674	15724.3
441.881	16649.99
442.088	16576.26
442.294	16699.14
442.501	16711.42
442.708	17211.13
442.914	17581.81
443.121	18310.89
443.328	18177.77
443.534	19398.36
443.741	18890.46
443.948	18487.01
444.154	19914.45
444.361	19924.69
444.568	19795.67
444.774	19875.54
444.981	20174.54
445.187	20715.2
445.394	21577.4
445.6	21409.47
445.807	23795.35
446.013	22437.55
446.22	23049.89
446.426	23580.31
446.633	23940.75
446.839	24950.4
447.046	23815.83
447.252	24958.6
447.459	24923.78
447.665	24985.22
447.871	26277.49
448.078	26990.18
448.284	25908.85
448.491	26951.27
448.697	28122.71
448.903	28118.61
449.11	28382.8
449.316	28055.12
449.522	28503.63
449.728	29257.28
449.935	29351.49
450.141	29623.87
450.347	30236.21
450.553	29527.61
450.76	29720.12
450.966	30662.19
451.172	30379.57
451.378	31184.42
451.584	30590.51
451.791	31333.92
451.997	31088.17
452.203	31714.84
452.409	31823.39
452.615	31729.18
452.821	30803.5
453.027	30604.85
453.233	31909.4
453.44	30606.89
453.646	31307.3
453.852	31125.03
454.058	31925.78
454.264	30686.76
454.47	31708.7
454.676	30846.51
454.882	31985.18
455.088	29191.75
455.294	29306.43
455.5	30115.38
455.705	30428.72
455.911	29048.39
456.117	28837.45
456.323	28444.24
456.529	26947.17
456.735	27977.3
456.941	27080.29
457.147	26877.54
457.352	26340.97
457.558	25833.08
457.764	26015.35
457.97	25308.8
458.176	25036.42
458.381	25042.56
458.587	23785.11
458.793	23606.94
458.999	22406.83
459.204	24082.06
459.41	23459.48
459.616	22224.56
459.821	22130.35
460.027	21978.8
460.233	21624.5
460.438	20514.5
460.644	20700.87
460.85	19611.35
461.055	19498.71
461.261	19726.03
461.466	18030.32
461.672	17549.04
461.878	18726.63
462.083	17563.38
462.289	17104.64
462.494	17051.39
462.7	16367.37
462.905	15707.92
463.111	16461.57
463.316	16383.75
463.522	16228.1
463.727	16273.16
463.932	16416.52
464.138	16033.55
464.343	16011.02
464.549	15533.84
464.754	15918.86
464.959	16264.97
465.165	16015.12
465.37	15261.46
465.575	14870.3
465.781	15597.33
465.986	15501.08
466.191	14810.91
466.397	14647.07
466.602	13879.08
466.807	14540.58
467.012	14610.21
467.218	14253.86
467.423	14266.15
467.628	14585.63
467.833	14812.96
468.038	14565.15
468.244	14217
