Data from USB4F104151__98__14-43-38-013.txt Node

Date: Thu Mar 13 14:43:38 EDT 2025
User: louis
Spectrometer: USB4F10415
Trigger mode: 4
Integration Time (sec): 2.000000E-2
Scans to average: 1
Electric dark correction enabled: true
Nonlinearity correction enabled: false
Boxcar width: 0
XAxis mode: Wavelengths
Number of Pixels in Spectrum: 3648
>>>>>Begin Spectral Data<<<<<
178.204	-73.9
178.424	-73.9
178.644	-73.9
178.864	-127.14
179.084	-137.38
179.304	-55.47
179.524	20.31
179.744	-20.65
179.964	-22.7
180.184	38.74
180.404	-8.36
180.624	16.21
180.844	32.6
181.064	-8.36
181.283	16.21
181.503	-30.89
181.723	22.36
181.943	-61.61
182.163	102.23
182.383	-4.27
182.602	122.71
182.822	98.13
183.042	-24.75
183.262	-18.6
183.482	81.75
183.701	1.88
183.921	108.37
184.141	-39.08
184.361	36.69
184.58	57.17
184.8	34.64
185.02	16.21
185.239	48.98
185.459	42.84
185.679	69.46
185.898	18.26
186.118	42.84
186.338	42.84
186.557	40.79
186.777	-26.79
186.997	46.93
187.216	57.17
187.436	73.56
187.655	48.98
187.875	26.45
188.095	48.98
188.314	65.36
188.534	-14.51
188.753	10.07
188.973	32.6
189.192	85.84
189.412	-0.17
189.631	3.93
189.851	57.17
190.07	24.4
190.29	-12.46
190.509	-6.31
190.729	28.5
190.948	59.22
191.168	128.85
191.387	38.74
191.607	65.36
191.826	1.88
192.045	24.4
192.265	32.6
192.484	8.02
192.704	106.32
192.923	10.07
193.142	53.08
193.362	24.4
193.581	36.69
193.8	10.07
194.02	40.79
194.239	98.13
194.458	81.75
194.678	32.6
194.897	26.45
195.116	83.8
195.335	3.93
195.555	42.84
195.774	12.12
195.993	16.21
196.212	65.36
196.432	28.5
196.651	65.36
196.87	-2.22
197.089	132.95
197.308	135
197.528	8.02
197.747	-86.19
197.966	51.03
198.185	163.67
198.404	22.36
198.623	106.32
198.842	30.55
199.062	34.64
199.281	104.28
199.5	-32.94
199.719	-2.22
199.938	75.6
200.157	98.13
200.376	-10.41
200.595	53.08
200.814	53.08
201.033	48.98
201.252	98.13
201.471	59.22
201.69	81.75
201.909	46.93
202.128	83.8
202.347	36.69
202.566	12.12
202.785	36.69
203.004	77.65
203.223	48.98
203.442	16.21
203.661	40.79
203.879	98.13
204.098	48.98
204.317	-71.85
204.536	55.12
204.755	-41.13
204.974	73.56
205.193	10.07
205.411	32.6
205.63	87.89
205.849	91.99
206.068	16.21
206.287	10.07
206.505	59.22
206.724	-2.22
206.943	-0.17
207.162	48.98
207.381	48.98
207.599	81.75
207.818	1.88
208.037	67.41
208.255	26.45
208.474	24.4
208.693	57.17
208.911	-32.94
209.13	65.36
209.349	65.36
209.567	-28.84
209.786	10.07
210.005	40.79
210.223	12.12
210.442	42.84
210.661	42.84
210.879	48.98
211.098	18.26
211.316	-8.36
211.535	67.41
211.753	-16.55
211.972	46.93
212.191	-16.55
212.409	-8.36
212.628	110.42
212.846	-12.46
213.065	83.8
213.283	65.36
213.502	-14.51
213.72	3.93
213.938	40.79
214.157	-0.17
214.375	-14.51
214.594	34.64
214.812	132.95
215.031	73.56
215.249	44.88
215.467	48.98
215.686	53.08
215.904	116.56
216.122	44.88
216.341	34.64
216.559	36.69
216.778	32.6
216.996	26.45
217.214	10.07
217.432	3.93
217.651	40.79
217.869	122.71
218.087	51.03
218.306	26.45
218.524	26.45
218.742	51.03
218.96	-16.55
219.179	118.61
219.397	-4.27
219.615	96.08
219.833	12.12
220.051	-20.65
220.27	83.8
220.488	91.99
220.706	8.02
220.924	-8.36
221.142	69.46
221.36	38.74
221.578	16.21
221.796	5.97
222.015	108.37
222.233	53.08
222.451	81.75
222.669	12.12
222.887	-4.27
223.105	12.12
223.323	20.31
223.541	-6.31
223.759	67.41
223.977	-65.71
224.195	184.15
224.413	18.26
224.631	67.41
224.849	24.4
225.067	75.6
225.285	-65.71
225.503	8.02
225.721	69.46
225.939	-61.61
226.157	65.36
226.375	65.36
226.592	3.93
226.81	16.21
227.028	63.32
227.246	48.98
227.464	36.69
227.682	77.65
227.9	96.08
228.117	26.45
228.335	-10.41
228.553	24.4
228.771	-12.46
228.989	12.12
229.206	28.5
229.424	73.56
229.642	-67.75
229.86	-10.41
230.077	1.88
230.295	-51.37
230.513	75.6
230.731	18.26
230.948	96.08
231.166	48.98
231.384	102.23
231.601	-24.75
231.819	44.88
232.037	-16.55
232.254	38.74
232.472	40.79
232.689	16.21
232.907	38.74
233.125	36.69
233.342	-2.22
233.56	55.12
233.777	-47.27
233.995	28.5
234.213	59.22
234.43	12.12
234.648	65.36
234.865	61.27
235.083	120.66
235.3	22.36
235.518	18.26
235.735	73.56
235.953	67.41
236.17	-20.65
236.388	65.36
236.605	-24.75
236.822	32.6
237.04	71.51
237.257	-0.17
237.475	32.6
237.692	30.55
237.909	44.88
238.127	59.22
238.344	8.02
238.562	163.67
238.779	10.07
238.996	48.98
239.214	65.36
239.431	22.36
239.648	-55.47
239.865	100.18
240.083	44.88
240.3	75.6
240.517	3.93
240.735	44.88
240.952	59.22
241.169	55.12
241.386	94.04
241.603	14.17
241.821	32.6
242.038	59.22
242.255	57.17
242.472	-45.23
242.689	130.9
242.907	73.56
243.124	75.6
243.341	89.94
243.558	-14.51
243.775	-24.75
243.992	20.31
244.209	24.4
244.426	28.5
244.643	18.26
244.86	26.45
245.078	28.5
245.295	79.7
245.512	46.93
245.729	28.5
245.946	8.02
246.163	124.76
246.38	26.45
246.597	24.4
246.814	44.88
247.031	44.88
247.248	48.98
247.464	69.46
247.681	32.6
247.898	51.03
248.115	14.17
248.332	48.98
248.549	40.79
248.766	98.13
248.983	42.84
249.2	112.47
249.417	26.45
249.633	-20.65
249.85	-32.94
250.067	-12.46
250.284	3.93
250.501	91.99
250.717	106.32
250.934	1.88
251.151	26.45
251.368	-41.13
251.585	26.45
251.801	51.03
252.018	-8.36
252.235	151.38
252.451	61.27
252.668	24.4
252.885	73.56
253.102	48.98
253.318	73.56
253.535	-0.17
253.752	16.21
253.968	-41.13
254.185	22.36
254.401	-16.55
254.618	83.8
254.835	16.21
255.051	42.84
255.268	28.5
255.484	-8.36
255.701	42.84
255.917	114.52
256.134	-0.17
256.351	63.32
256.567	-57.51
256.784	10.07
257	1.88
257.217	63.32
257.433	18.26
257.65	-6.31
257.866	26.45
258.082	-8.36
258.299	48.98
258.515	8.02
258.732	14.17
258.948	16.21
259.165	94.04
259.381	24.4
259.597	59.22
259.814	69.46
260.03	-16.55
260.246	-8.36
260.463	48.98
260.679	75.6
260.895	1.88
261.112	46.93
261.328	73.56
261.544	16.21
261.761	102.23
261.977	-41.13
262.193	24.4
262.409	89.94
262.626	67.41
262.842	10.07
263.058	69.46
263.274	57.17
263.49	-6.31
263.707	75.6
263.923	3.93
264.139	-10.41
264.355	36.69
264.571	96.08
264.787	98.13
265.004	89.94
265.22	-39.08
265.436	24.4
265.652	48.98
265.868	48.98
266.084	-53.42
266.3	57.17
266.516	-12.46
266.732	59.22
266.948	59.22
267.164	69.46
267.38	18.26
267.596	10.07
267.812	102.23
268.028	61.27
268.244	12.12
268.46	73.56
268.676	-47.27
268.892	63.32
269.108	42.84
269.324	83.8
269.54	53.08
269.756	28.5
269.972	-49.32
270.188	26.45
270.403	-12.46
270.619	57.17
270.835	20.31
271.051	24.4
271.267	55.12
271.483	8.02
271.698	32.6
271.914	42.84
272.13	-8.36
272.346	-8.36
272.562	12.12
272.777	94.04
272.993	51.03
273.209	65.36
273.425	28.5
273.64	71.51
273.856	89.94
274.072	-16.55
274.287	94.04
274.503	73.56
274.719	53.08
274.934	-0.17
275.15	3.93
275.366	81.75
275.581	44.88
275.797	85.84
276.012	-4.27
276.228	-61.61
276.444	-32.94
276.659	3.93
276.875	89.94
277.09	18.26
277.306	-32.94
277.521	132.95
277.737	44.88
277.952	3.93
278.168	40.79
278.383	89.94
278.599	32.6
278.814	24.4
279.03	-32.94
279.245	85.84
279.461	26.45
279.676	69.46
279.892	22.36
280.107	-16.55
280.322	-0.17
280.538	51.03
280.753	51.03
280.969	53.08
281.184	3.93
281.399	139.09
281.615	40.79
281.83	89.94
282.045	34.64
282.26	26.45
282.476	63.32
282.691	120.66
282.906	28.5
283.122	-4.27
283.337	-37.03
283.552	53.08
283.767	10.07
283.983	89.94
284.198	44.88
284.413	38.74
284.628	-32.94
284.843	40.79
285.058	73.56
285.274	34.64
285.489	42.84
285.704	91.99
285.919	-12.46
286.134	85.84
286.349	8.02
286.564	61.27
286.779	71.51
286.995	65.36
287.21	-51.37
287.425	61.27
287.64	73.56
287.855	-6.31
288.07	1.88
288.285	28.5
288.5	18.26
288.715	96.08
288.93	20.31
289.145	-45.23
289.36	8.02
289.575	-20.65
289.79	57.17
290.004	40.79
290.219	22.36
290.434	57.17
290.649	69.46
290.864	114.52
291.079	1.88
291.294	-4.27
291.509	-12.46
291.724	24.4
291.938	40.79
292.153	106.32
292.368	-24.75
292.583	57.17
292.798	116.56
293.012	-12.46
293.227	36.69
293.442	32.6
293.657	126.8
293.871	18.26
294.086	3.93
294.301	130.9
294.516	81.75
294.73	89.94
294.945	16.21
295.16	46.93
295.374	94.04
295.589	57.17
295.804	18.26
296.018	83.8
296.233	73.56
296.447	102.23
296.662	-18.6
296.877	26.45
297.091	61.27
297.306	42.84
297.52	75.6
297.735	26.45
297.949	20.31
298.164	120.66
298.378	-4.27
298.593	10.07
298.807	5.97
299.022	42.84
299.236	75.6
299.451	38.74
299.665	10.07
299.88	71.51
300.094	16.21
300.309	53.08
300.523	53.08
300.737	5.97
300.952	59.22
301.166	3.93
301.381	26.45
301.595	8.02
301.809	63.32
302.024	34.64
302.238	10.07
302.452	65.36
302.667	-18.6
302.881	100.18
303.095	51.03
303.309	-10.41
303.524	16.21
303.738	53.08
303.952	10.07
304.166	81.75
304.381	-10.41
304.595	32.6
304.809	-32.94
305.023	65.36
305.237	-12.46
305.452	3.93
305.666	24.4
305.88	36.69
306.094	24.4
306.308	122.71
306.522	57.17
306.736	24.4
306.95	42.84
307.164	79.7
307.379	-6.31
307.593	116.56
307.807	65.36
308.021	71.51
308.235	65.36
308.449	-12.46
308.663	65.36
308.877	73.56
309.091	40.79
309.305	32.6
309.519	102.23
309.733	38.74
309.947	40.79
310.161	83.8
310.374	57.17
310.588	118.61
310.802	36.69
311.016	16.21
311.23	34.64
311.444	-12.46
311.658	18.26
311.872	67.41
312.085	40.79
312.299	81.75
312.513	118.61
312.727	59.22
312.941	24.4
313.154	22.36
313.368	36.69
313.582	10.07
313.796	-6.31
314.009	51.03
314.223	106.32
314.437	-0.17
314.651	53.08
314.864	77.65
315.078	57.17
315.292	-8.36
315.505	26.45
315.719	24.4
315.933	48.98
316.146	51.03
316.36	-16.55
316.573	75.6
316.787	65.36
317.001	36.69
317.214	75.6
317.428	48.98
317.641	8.02
317.855	10.07
318.068	81.75
318.282	40.79
318.495	108.37
318.709	55.12
318.922	57.17
319.136	110.42
319.349	55.12
319.563	42.84
319.776	18.26
319.99	32.6
320.203	100.18
320.417	91.99
320.63	32.6
320.843	100.18
321.057	40.79
321.27	61.27
321.483	16.21
321.697	1.88
321.91	73.56
322.124	67.41
322.337	-16.55
322.55	67.41
322.763	16.21
322.977	51.03
323.19	18.26
323.403	20.31
323.617	1.88
323.83	73.56
324.043	100.18
324.256	96.08
324.469	10.07
324.683	81.75
324.896	18.26
325.109	22.36
325.322	-16.55
325.535	89.94
325.748	48.98
325.962	16.21
326.175	83.8
326.388	46.93
326.601	-10.41
326.814	42.84
327.027	36.69
327.24	69.46
327.453	48.98
327.666	44.88
327.879	116.56
328.092	-28.84
328.305	16.21
328.518	77.65
328.731	75.6
328.944	71.51
329.157	55.12
329.37	40.79
329.583	-6.31
329.796	34.64
330.009	12.12
330.222	-12.46
330.435	8.02
330.648	98.13
330.861	65.36
331.073	8.02
331.286	124.76
331.499	-0.17
331.712	-45.23
331.925	5.97
332.138	10.07
332.35	77.65
332.563	36.69
332.776	59.22
332.989	22.36
333.202	73.56
333.414	24.4
333.627	-20.65
333.84	40.79
334.053	69.46
334.265	89.94
334.478	24.4
334.691	73.56
334.903	-0.17
335.116	24.4
335.329	40.79
335.541	40.79
335.754	122.71
335.966	-57.51
336.179	42.84
336.392	26.45
336.604	40.79
336.817	51.03
337.029	16.21
337.242	1.88
337.454	65.36
337.667	12.12
337.88	89.94
338.092	67.41
338.305	57.17
338.517	28.5
338.729	81.75
338.942	91.99
339.154	22.36
339.367	-22.7
339.579	53.08
339.792	18.26
340.004	122.71
340.217	44.88
340.429	-16.55
340.641	36.69
340.854	53.08
341.066	14.17
341.278	48.98
341.491	77.65
341.703	38.74
341.915	48.98
342.128	118.61
342.34	18.26
342.552	8.02
342.764	3.93
342.977	34.64
343.189	18.26
343.401	57.17
343.613	-55.47
343.826	3.93
344.038	-6.31
344.25	91.99
344.462	28.5
344.674	106.32
344.886	51.03
345.099	-4.27
345.311	40.79
345.523	57.17
345.735	-43.18
345.947	12.12
346.159	57.17
346.371	108.37
346.583	-45.23
346.795	89.94
347.007	116.56
347.219	71.51
347.431	71.51
347.643	28.5
347.855	28.5
348.067	161.62
348.279	63.32
348.491	114.52
348.703	48.98
348.915	48.98
349.127	-39.08
349.339	16.21
349.551	-55.47
349.763	65.36
349.975	89.94
350.187	53.08
350.399	46.93
350.61	-57.51
350.822	8.02
351.034	32.6
351.246	20.31
351.458	67.41
351.669	75.6
351.881	26.45
352.093	126.8
352.305	83.8
352.517	51.03
352.728	118.61
352.94	40.79
353.152	34.64
353.363	-20.65
353.575	79.7
353.787	32.6
353.999	118.61
354.21	8.02
354.422	-18.6
354.633	1.88
354.845	67.41
355.057	5.97
355.268	-16.55
355.48	96.08
355.692	85.84
355.903	16.21
356.115	8.02
356.326	8.02
356.538	130.9
356.749	79.7
356.961	57.17
357.172	42.84
357.384	83.8
357.595	100.18
357.807	-22.7
358.018	26.45
358.23	-4.27
358.441	130.9
358.653	40.79
358.864	42.84
359.075	57.17
359.287	48.98
359.498	53.08
359.709	8.02
359.921	16.21
360.132	110.42
360.344	57.17
360.555	-8.36
360.766	124.76
360.977	32.6
361.189	18.26
361.4	1.88
361.611	75.6
361.823	44.88
362.034	-0.17
362.245	36.69
362.456	-12.46
362.667	28.5
362.879	73.56
363.09	51.03
363.301	77.65
363.512	110.42
363.723	18.26
363.935	61.27
364.146	42.84
364.357	87.89
364.568	98.13
364.779	79.7
364.99	73.56
365.201	20.31
365.412	100.18
365.623	22.36
365.834	48.98
366.045	98.13
366.256	65.36
366.467	77.65
366.678	24.4
366.889	10.07
367.1	77.65
367.311	110.42
367.522	59.22
367.733	81.75
367.944	51.03
368.155	65.36
368.366	-0.17
368.577	114.52
368.788	65.36
368.999	-12.46
369.209	3.93
369.42	143.19
369.631	106.32
369.842	20.31
370.053	44.88
370.264	40.79
370.474	51.03
370.685	122.71
370.896	40.79
371.107	89.94
371.317	63.32
371.528	77.65
371.739	26.45
371.95	-22.7
372.16	32.6
372.371	-16.55
372.582	65.36
372.792	67.41
373.003	57.17
373.214	77.65
373.424	145.24
373.635	53.08
373.846	81.75
374.056	1.88
374.267	100.18
374.477	-6.31
374.688	75.6
374.898	10.07
375.109	98.13
375.319	151.38
375.53	51.03
375.74	-6.31
375.951	34.64
376.161	65.36
376.372	57.17
376.582	51.03
376.793	57.17
377.003	18.26
377.214	-8.36
377.424	65.36
377.635	59.22
377.845	-8.36
378.055	110.42
378.266	81.75
378.476	59.22
378.686	110.42
378.897	42.84
379.107	16.21
379.317	106.32
379.528	65.36
379.738	61.27
379.948	18.26
380.158	98.13
380.369	22.36
380.579	36.69
380.789	44.88
380.999	51.03
381.21	118.61
381.42	126.8
381.63	73.56
381.84	79.7
382.05	100.18
382.261	71.51
382.471	85.84
382.681	114.52
382.891	106.32
383.101	24.4
383.311	-67.75
383.521	81.75
383.731	65.36
383.941	83.8
384.151	16.21
384.361	98.13
384.571	46.93
384.781	102.23
384.991	89.94
385.201	100.18
385.411	48.98
385.621	132.95
385.831	34.64
386.041	53.08
386.251	8.02
386.461	65.36
386.671	55.12
386.881	14.17
387.091	57.17
387.301	157.52
387.511	1.88
387.72	135
387.93	87.89
388.14	1.88
388.35	48.98
388.56	122.71
388.769	81.75
388.979	91.99
389.189	12.12
389.399	42.84
389.609	75.6
389.818	24.4
390.028	38.74
390.238	126.8
390.447	26.45
390.657	-14.51
390.867	5.97
391.076	18.26
391.286	98.13
391.496	36.69
391.705	36.69
391.915	57.17
392.125	94.04
392.334	98.13
392.544	32.6
392.753	98.13
392.963	53.08
393.172	1.88
393.382	36.69
393.591	124.76
393.801	-8.36
394.01	180.05
394.22	100.18
394.429	102.23
394.639	32.6
394.848	89.94
395.058	132.95
395.267	85.84
395.477	141.14
395.686	149.33
395.895	87.89
396.105	114.52
396.314	91.99
396.524	18.26
396.733	-8.36
396.942	26.45
397.152	14.17
397.361	139.09
397.57	100.18
397.78	81.75
397.989	132.95
398.198	116.56
398.407	130.9
398.617	112.47
398.826	18.26
399.035	173.91
399.244	110.42
399.453	118.61
399.663	159.57
399.872	163.67
400.081	8.02
400.29	198.48
400.499	67.41
400.708	139.09
400.917	114.52
401.127	149.33
401.336	-0.17
401.545	122.71
401.754	85.84
401.963	147.28
402.172	130.9
402.381	112.47
402.59	89.94
402.799	126.8
403.008	128.85
403.217	87.89
403.426	79.7
403.635	163.67
403.844	153.43
404.053	163.67
404.262	149.33
404.471	175.95
404.68	139.09
404.888	106.32
405.097	114.52
405.306	108.37
405.515	208.72
405.724	171.86
405.933	169.81
406.142	200.53
406.35	157.52
406.559	155.47
406.768	182.1
406.977	221.01
407.185	139.09
407.394	192.34
407.603	155.47
407.812	225.11
408.02	253.78
408.229	223.06
408.438	188.24
408.646	239.44
408.855	307.02
409.064	280.4
409.272	239.44
409.481	302.93
409.69	196.43
409.898	192.34
410.107	221.01
410.315	347.98
410.524	247.63
410.733	366.42
410.941	327.5
411.15	403.28
411.358	388.94
411.567	368.46
411.775	417.61
411.984	311.12
412.192	425.81
412.401	362.32
412.609	393.04
412.818	444.24
413.026	479.05
413.234	452.43
413.443	491.34
413.651	458.57
413.86	540.49
414.068	503.63
414.276	552.78
414.485	606.03
414.693	634.7
414.901	595.79
415.11	649.04
415.318	649.04
415.526	589.64
415.734	687.95
415.943	634.7
416.151	749.39
416.359	700.23
416.567	847.69
416.776	778.06
416.984	851.78
417.192	835.4
417.4	747.34
417.608	917.32
417.817	884.55
418.025	960.33
418.233	991.05
418.441	978.76
418.649	1107.78
418.857	1103.68
419.065	1165.12
419.273	1007.43
419.481	1181.51
419.689	1244.99
419.897	1294.15
420.105	1386.3
420.313	1353.54
420.521	1351.49
420.729	1523.52
420.937	1472.32
421.145	1531.71
421.353	1605.44
421.561	1648.44
421.769	1662.78
421.977	1779.51
422.185	1802.04
422.393	1861.43
422.601	2051.89
422.809	1982.26
423.017	2031.41
423.224	2064.18
423.432	2066.23
423.64	2219.83
423.848	2363.19
424.056	2250.55
424.263	2486.06
424.471	2387.76
424.679	2492.21
424.887	2643.76
425.094	2750.25
425.302	2860.84
425.51	2803.5
425.718	2770.73
425.925	3039.01
426.133	2998.06
426.341	3223.33
426.548	3288.87
426.756	3352.35
426.964	3360.55
427.171	3589.92
427.379	3745.56
427.586	3821.34
427.794	3811.1
428.001	3964.7
428.209	4245.27
428.417	4173.59
428.624	4452.11
428.832	4425.49
429.039	4390.67
429.247	4347.67
429.454	4849.42
429.662	5170.95
429.869	4884.23
430.076	5252.87
430.284	5050.12
430.491	5211.91
430.699	5535.49
430.906	5431.04
431.114	5656.32
431.321	5881.6
431.528	5854.97
431.736	6328.05
431.943	6504.18
432.15	6416.12
432.358	6405.88
432.565	6815.47
432.772	6919.92
432.979	7036.65
433.187	7126.76
433.394	7380.71
433.601	7818.97
433.808	7866.08
434.016	7710.43
434.223	8132.31
434.43	8597.2
434.637	8335.06
434.844	8896.21
435.052	9086.67
435.259	8955.6
435.466	9367.24
435.673	8849.1
435.88	9610.95
436.087	10043.07
436.294	10036.92
436.501	9789.12
436.708	10118.84
436.915	10215.1
437.122	10712.75
437.329	10743.47
437.537	11089.58
437.743	11384.49
437.95	11171.5
438.157	11624.1
438.364	12205.72
438.571	12146.33
438.778	12373.66
438.985	13272.71
439.192	12830.35
439.399	13162.12
439.606	12963.47
439.813	13790.85
440.02	14503.54
440.227	14161.53
440.433	14061.18
440.64	14706.29
440.847	14528.12
441.054	14780.02
441.261	15697.51
441.467	15486.57
441.674	15988.32
441.881	16531.03
442.088	16205.41
442.294	16240.22
442.501	16617.05
442.708	16954.96
442.914	17356.36
443.121	18472.51
443.328	17999.43
443.534	19019.32
443.741	18669.11
443.948	18286.14
444.154	19885.61
444.361	19648.04
444.568	19736.1
444.774	19703.34
444.981	20008.48
445.187	20692.51
445.394	21345.81
445.6	21327.38
445.807	22971.89
446.013	22353.41
446.22	22703.61
446.426	23487.98
446.633	23780.84
446.839	24640.99
447.046	23485.93
447.252	25013.72
447.459	24837.59
447.665	24784.35
447.871	25744.84
448.078	26779.07
448.284	25759.18
448.491	26172.87
448.697	27360.69
448.903	27708.85
449.11	27956.65
449.316	27555.25
449.522	28347.81
449.728	28808.61
449.935	28994.97
450.141	29109.66
450.347	29953.42
450.553	28802.46
450.76	29240.73
450.966	30174.6
451.172	29777.29
451.378	30545.28
451.584	29971.85
451.791	30825.85
451.997	30492.04
452.203	31004.03
452.409	31059.32
452.615	31305.08
452.821	30029.2
453.027	29891.98
453.233	31112.57
453.44	29906.32
453.646	30668.16
453.852	30690.69
454.058	30928.25
454.264	30324.1
454.47	30999.93
454.676	29984.14
454.882	31071.61
455.088	28360.1
455.294	29224.34
455.5	29388.18
455.705	29719.95
455.911	28513.7
456.117	27895.21
456.323	27549.1
456.529	26246.6
456.735	27633.07
456.941	26713.53
457.147	26064.33
457.352	25738.7
457.558	25150.93
457.764	25210.32
457.97	24995.29
458.176	24438.24
458.381	24804.83
458.587	23033.33
458.793	23141.88
458.999	22195.71
459.204	23576.05
459.41	22846.97
459.616	21478.93
459.821	21415.44
460.027	21222.93
460.233	20956.69
460.438	20069.92
460.644	20434.46
460.85	19185.2
461.055	18875.96
461.261	18921.01
461.466	17579.59
461.672	17194.57
461.878	17751.62
462.083	17223.25
462.289	16827.99
462.494	16236.13
462.7	15711.85
462.905	15283.82
463.111	15883.87
463.316	16045.66
463.522	15629.93
463.727	15466.09
463.932	15550.06
464.138	15380.07
464.343	15482.47
464.549	14970.48
464.754	15494.76
464.959	15318.64
465.165	15081.07
465.37	14384.76
465.575	14044.8
465.781	14716.53
465.986	14999.15
466.191	14278.27
466.397	14069.37
466.602	13188.75
466.807	13807.23
467.012	13897.35
467.218	13952.64
467.423	13541
467.628	13770.37
467.833	14311.03
