Data from USB4F104151__245__14-45-48-663.txt Node

Date: Thu Mar 13 14:45:48 EDT 2025
User: louis
Spectrometer: USB4F10415
Trigger mode: 4
Integration Time (sec): 2.000000E-2
Scans to average: 1
Electric dark correction enabled: true
Nonlinearity correction enabled: false
Boxcar width: 0
XAxis mode: Wavelengths
Number of Pixels in Spectrum: 3648
>>>>>Begin Spectral Data<<<<<
178.204	-105.98
178.424	-105.98
178.644	-105.98
178.864	-151.04
179.084	-153.09
179.304	-24.06
179.524	4.61
179.744	84.48
179.964	-28.16
180.184	25.09
180.404	-7.68
180.624	-38.4
180.844	-1.54
181.064	-26.11
181.283	-48.64
181.503	35.33
181.723	25.09
181.943	-32.26
182.163	70.14
182.383	66.05
182.602	-24.06
182.822	-7.68
183.042	27.14
183.262	-15.87
183.482	94.72
183.701	45.57
183.921	8.7
184.141	53.76
184.361	82.43
184.58	49.66
184.8	27.14
185.02	10.75
185.239	61.95
185.459	68.09
185.679	0.51
185.898	68.09
186.118	74.24
186.338	16.9
186.557	47.62
186.777	-15.87
186.997	23.04
187.216	8.7
187.436	10.75
187.655	64
187.875	39.42
188.095	16.9
188.314	-5.63
188.534	115.2
188.753	16.9
188.973	37.38
189.192	72.19
189.412	-3.58
189.631	27.14
189.851	37.38
190.07	57.86
190.29	41.47
190.509	18.94
190.729	33.28
190.948	27.14
191.168	107.01
191.387	33.28
191.607	-50.69
191.826	78.33
192.045	29.18
192.265	29.18
192.484	-7.68
192.704	57.86
192.923	6.66
193.142	57.86
193.362	23.04
193.581	39.42
193.8	31.23
194.02	27.14
194.239	43.52
194.458	35.33
194.678	98.81
194.897	57.86
195.116	31.23
195.335	4.61
195.555	0.51
195.774	61.95
195.993	2.56
196.212	37.38
196.432	0.51
196.651	49.66
196.87	-15.87
197.089	102.91
197.308	131.58
197.528	115.2
197.747	14.85
197.966	-1.54
198.185	70.14
198.404	-11.78
198.623	25.09
198.842	98.81
199.062	90.62
199.281	92.67
199.5	37.38
199.719	92.67
199.938	66.05
200.157	113.15
200.376	74.24
200.595	8.7
200.814	-40.45
201.033	31.23
201.252	84.48
201.471	2.56
201.69	137.73
201.909	-5.63
202.128	33.28
202.347	27.14
202.566	-11.78
202.785	-7.68
203.004	49.66
203.223	141.82
203.442	18.94
203.661	-11.78
203.879	8.7
204.098	-11.78
204.317	29.18
204.536	90.62
204.755	25.09
204.974	68.09
205.193	139.77
205.411	143.87
205.63	37.38
205.849	-22.02
206.068	-5.63
206.287	-28.16
206.505	35.33
206.724	66.05
206.943	43.52
207.162	-73.21
207.381	-19.97
207.599	-28.16
207.818	0.51
208.037	6.66
208.255	0.51
208.474	72.19
208.693	49.66
208.911	-5.63
209.13	107.01
209.349	18.94
209.567	33.28
209.786	113.15
210.005	37.38
210.223	4.61
210.442	-44.54
210.661	57.86
210.879	-105.98
211.098	-15.87
211.316	-7.68
211.535	-3.58
211.753	94.72
211.972	51.71
212.191	-79.36
212.409	66.05
212.628	100.86
212.846	55.81
213.065	49.66
213.283	82.43
213.502	-65.02
213.72	51.71
213.938	72.19
214.157	49.66
214.375	76.29
214.594	-15.87
214.812	61.95
215.031	-77.31
215.249	-30.21
215.467	4.61
215.686	66.05
215.904	-30.21
216.122	12.8
216.341	0.51
216.559	-15.87
216.778	49.66
216.996	66.05
217.214	27.14
217.432	-40.45
217.651	25.09
217.869	23.04
218.087	18.94
218.306	33.28
218.524	12.8
218.742	-13.82
218.96	-3.58
219.179	2.56
219.397	29.18
219.615	64
219.833	25.09
220.051	78.33
220.27	66.05
220.488	57.86
220.706	-15.87
220.924	-13.82
221.142	25.09
221.36	12.8
221.578	-22.02
221.796	-40.45
222.015	-32.26
222.233	20.99
222.451	68.09
222.669	-69.12
222.887	4.61
223.105	41.47
223.323	-22.02
223.541	-28.16
223.759	12.8
223.977	-7.68
224.195	33.28
224.413	70.14
224.631	-32.26
224.849	84.48
225.067	64
225.285	14.85
225.503	10.75
225.721	-3.58
225.939	-52.74
226.157	-3.58
226.375	76.29
226.592	-44.54
226.81	-19.97
227.028	27.14
227.246	68.09
227.464	25.09
227.682	43.52
227.9	-3.58
228.117	66.05
228.335	55.81
228.553	92.67
228.771	47.62
228.989	25.09
229.206	76.29
229.424	-3.58
229.642	-3.58
229.86	45.57
230.077	137.73
230.295	66.05
230.513	78.33
230.731	70.14
230.948	57.86
231.166	61.95
231.384	-32.26
231.601	-38.4
231.819	23.04
232.037	68.09
232.254	-5.63
232.472	-3.58
232.689	-24.06
232.907	-58.88
233.125	25.09
233.342	66.05
233.56	76.29
233.777	74.24
233.995	-40.45
234.213	-1.54
234.43	49.66
234.648	-22.02
234.865	33.28
235.083	49.66
235.3	-32.26
235.518	-54.78
235.735	82.43
235.953	66.05
236.17	-5.63
236.388	35.33
236.605	66.05
236.822	25.09
237.04	33.28
237.257	33.28
237.475	-60.93
237.692	66.05
237.909	10.75
238.127	-13.82
238.344	43.52
238.562	-40.45
238.779	51.71
238.996	49.66
239.214	-65.02
239.431	8.7
239.648	-15.87
239.865	37.38
240.083	66.05
240.3	4.61
240.517	18.94
240.735	2.56
240.952	131.58
241.169	84.48
241.386	6.66
241.603	33.28
241.821	-22.02
242.038	37.38
242.255	27.14
242.472	18.94
242.689	29.18
242.907	68.09
243.124	-13.82
243.341	-5.63
243.558	0.51
243.775	37.38
243.992	23.04
244.209	66.05
244.426	57.86
244.643	-7.68
244.86	59.9
245.078	66.05
245.295	-3.58
245.512	61.95
245.729	-24.06
245.946	41.47
246.163	57.86
246.38	76.29
246.597	45.57
246.814	49.66
247.031	25.09
247.248	-7.68
247.464	27.14
247.681	104.96
247.898	-17.92
248.115	25.09
248.332	39.42
248.549	98.81
248.766	76.29
248.983	2.56
249.2	-1.54
249.417	25.09
249.633	64
249.85	94.72
250.067	18.94
250.284	4.61
250.501	18.94
250.717	53.76
250.934	0.51
251.151	31.23
251.368	49.66
251.585	-13.82
251.801	86.53
252.018	18.94
252.235	35.33
252.451	-46.59
252.668	-15.87
252.885	4.61
253.102	20.99
253.318	57.86
253.535	-15.87
253.752	-15.87
253.968	41.47
254.185	-81.41
254.401	-11.78
254.618	31.23
254.835	33.28
255.051	70.14
255.268	33.28
255.484	14.85
255.701	-87.55
255.917	59.9
256.134	-1.54
256.351	57.86
256.567	8.7
256.784	39.42
257	27.14
257.217	16.9
257.433	82.43
257.65	92.67
257.866	-32.26
258.082	-11.78
258.299	2.56
258.515	2.56
258.732	-36.35
258.948	-54.78
259.165	47.62
259.381	33.28
259.597	72.19
259.814	-13.82
260.03	61.95
260.246	16.9
260.463	41.47
260.679	59.9
260.895	12.8
261.112	57.86
261.328	51.71
261.544	20.99
261.761	57.86
261.977	41.47
262.193	-58.88
262.409	35.33
262.626	98.81
262.842	88.57
263.058	-19.97
263.274	33.28
263.49	82.43
263.707	78.33
263.923	25.09
264.139	-46.59
264.355	8.7
264.571	176.64
264.787	10.75
265.004	25.09
265.22	-17.92
265.436	51.71
265.652	20.99
265.868	35.33
266.084	-7.68
266.3	-48.64
266.516	-46.59
266.732	70.14
266.948	70.14
267.164	8.7
267.38	37.38
267.596	47.62
267.812	18.94
268.028	43.52
268.244	-40.45
268.46	-7.68
268.676	57.86
268.892	33.28
269.108	-13.82
269.324	-13.82
269.54	18.94
269.756	45.57
269.972	-40.45
270.188	27.14
270.403	-36.35
270.619	-26.11
270.835	86.53
271.051	31.23
271.267	-15.87
271.483	-17.92
271.698	100.86
271.914	68.09
272.13	41.47
272.346	66.05
272.562	-15.87
272.777	37.38
272.993	-81.41
273.209	51.71
273.425	16.9
273.64	66.05
273.856	74.24
274.072	-60.93
274.287	-13.82
274.503	14.85
274.719	66.05
274.934	25.09
275.15	33.28
275.366	0.51
275.581	2.56
275.797	16.9
276.012	59.9
276.228	-28.16
276.444	-50.69
276.659	80.38
276.875	-40.45
277.09	25.09
277.306	20.99
277.521	20.99
277.737	-3.58
277.952	53.76
278.168	72.19
278.383	-17.92
278.599	66.05
278.814	0.51
279.03	-19.97
279.245	70.14
279.461	-38.4
279.676	47.62
279.892	-28.16
280.107	-1.54
280.322	20.99
280.538	25.09
280.753	57.86
280.969	39.42
281.184	66.05
281.399	39.42
281.615	76.29
281.83	-36.35
282.045	-28.16
282.26	-7.68
282.476	-17.92
282.691	8.7
282.906	-15.87
283.122	29.18
283.337	33.28
283.552	23.04
283.767	0.51
283.983	-32.26
284.198	12.8
284.413	-9.73
284.628	12.8
284.843	82.43
285.058	-13.82
285.274	82.43
285.489	74.24
285.704	39.42
285.919	-44.54
286.134	33.28
286.349	8.7
286.564	16.9
286.779	57.86
286.995	66.05
287.21	8.7
287.425	100.86
287.64	74.24
287.855	61.95
288.07	-19.97
288.285	64
288.5	27.14
288.715	117.25
288.93	-48.64
289.145	8.7
289.36	70.14
289.575	127.49
289.79	55.81
290.004	35.33
290.219	41.47
290.434	49.66
290.649	-22.02
290.864	2.56
291.079	-30.21
291.294	23.04
291.509	33.28
291.724	90.62
291.938	35.33
292.153	16.9
292.368	29.18
292.583	20.99
292.798	49.66
293.012	27.14
293.227	49.66
293.442	-7.68
293.657	86.53
293.871	109.05
294.086	-24.06
294.301	47.62
294.516	68.09
294.73	43.52
294.945	66.05
295.16	-28.16
295.374	31.23
295.589	82.43
295.804	25.09
296.018	2.56
296.233	18.94
296.447	90.62
296.662	10.75
296.877	-5.63
297.091	61.95
297.306	88.57
297.52	-30.21
297.735	107.01
297.949	107.01
298.164	88.57
298.378	27.14
298.593	-24.06
298.807	16.9
299.022	123.39
299.236	43.52
299.451	74.24
299.665	39.42
299.88	41.47
300.094	59.9
300.309	104.96
300.523	39.42
300.737	47.62
300.952	-11.78
301.166	10.75
301.381	49.66
301.595	123.39
301.809	78.33
302.024	59.9
302.238	-5.63
302.452	82.43
302.667	23.04
302.881	25.09
303.095	98.81
303.309	35.33
303.524	-69.12
303.738	37.38
303.952	-3.58
304.166	12.8
304.381	10.75
304.595	115.2
304.809	-24.06
305.023	27.14
305.237	-15.87
305.452	100.86
305.666	74.24
305.88	64
306.094	4.61
306.308	41.47
306.522	96.77
306.736	-15.87
306.95	57.86
307.164	12.8
307.379	20.99
307.593	102.91
307.807	39.42
308.021	51.71
308.235	43.52
308.449	0.51
308.663	-13.82
308.877	123.39
309.091	-1.54
309.305	25.09
309.519	-36.35
309.733	82.43
309.947	-56.83
310.161	-7.68
310.374	37.38
310.588	45.57
310.802	-1.54
311.016	14.85
311.23	18.94
311.444	-48.64
311.658	10.75
311.872	64
312.085	61.95
312.299	57.86
312.513	47.62
312.727	55.81
312.941	27.14
313.154	68.09
313.368	43.52
313.582	33.28
313.796	59.9
314.009	-28.16
314.223	-34.3
314.437	16.9
314.651	-9.73
314.864	-5.63
315.078	-46.59
315.292	-15.87
315.505	66.05
315.719	14.85
315.933	37.38
316.146	84.48
316.36	43.52
316.573	8.7
316.787	35.33
317.001	76.29
317.214	37.38
317.428	57.86
317.641	-13.82
317.855	66.05
318.068	43.52
318.282	8.7
318.495	6.66
318.709	92.67
318.922	-9.73
319.136	78.33
319.349	10.75
319.563	25.09
319.776	57.86
319.99	41.47
320.203	80.38
320.417	-48.64
320.63	-13.82
320.843	90.62
321.057	33.28
321.27	18.94
321.483	-11.78
321.697	119.29
321.91	20.99
322.124	-17.92
322.337	61.95
322.55	10.75
322.763	61.95
322.977	-69.12
323.19	-5.63
323.403	-7.68
323.617	86.53
323.83	2.56
324.043	6.66
324.256	4.61
324.469	0.51
324.683	49.66
324.896	-40.45
325.109	57.86
325.322	-30.21
325.535	82.43
325.748	4.61
325.962	8.7
326.175	-3.58
326.388	86.53
326.601	37.38
326.814	45.57
327.027	29.18
327.24	119.29
327.453	-5.63
327.666	2.56
327.879	57.86
328.092	0.51
328.305	43.52
328.518	41.47
328.731	8.7
328.944	49.66
329.157	45.57
329.37	33.28
329.583	39.42
329.796	18.94
330.009	-48.64
330.222	80.38
330.435	2.56
330.648	76.29
330.861	-38.4
331.073	70.14
331.286	53.76
331.499	119.29
331.712	-30.21
331.925	33.28
332.138	16.9
332.35	14.85
332.563	53.76
332.776	41.47
332.989	-17.92
333.202	49.66
333.414	4.61
333.627	-32.26
333.84	43.52
334.053	55.81
334.265	-9.73
334.478	76.29
334.691	68.09
334.903	59.9
335.116	-56.83
335.329	39.42
335.541	-7.68
335.754	90.62
335.966	47.62
336.179	-5.63
336.392	-5.63
336.604	-15.87
336.817	96.77
337.029	68.09
337.242	-22.02
337.454	4.61
337.667	78.33
337.88	94.72
338.092	45.57
338.305	16.9
338.517	33.28
338.729	35.33
338.942	82.43
339.154	51.71
339.367	4.61
339.579	57.86
339.792	0.51
340.004	23.04
340.217	55.81
340.429	66.05
340.641	86.53
340.854	90.62
341.066	12.8
341.278	127.49
341.491	76.29
341.703	90.62
341.915	-7.68
342.128	98.81
342.34	4.61
342.552	25.09
342.764	-36.35
342.977	0.51
343.189	76.29
343.401	18.94
343.613	35.33
343.826	90.62
344.038	-24.06
344.25	27.14
344.462	-38.4
344.674	43.52
344.886	-56.83
345.099	74.24
345.311	-26.11
345.523	-24.06
345.735	-40.45
345.947	78.33
346.159	20.99
346.371	-32.26
346.583	37.38
346.795	57.86
347.007	41.47
347.219	33.28
347.431	-13.82
347.643	27.14
347.855	25.09
348.067	-7.68
348.279	25.09
348.491	64
348.703	10.75
348.915	53.76
349.127	-15.87
349.339	131.58
349.551	25.09
349.763	27.14
349.975	16.9
350.187	90.62
350.399	61.95
350.61	66.05
350.822	70.14
351.034	10.75
351.246	53.76
351.458	61.95
351.669	49.66
351.881	107.01
352.093	45.57
352.305	12.8
352.517	10.75
352.728	41.47
352.94	70.14
353.152	115.2
353.363	-13.82
353.575	8.7
353.787	49.66
353.999	-15.87
354.21	98.81
354.422	90.62
354.633	2.56
354.845	90.62
355.057	23.04
355.268	55.81
355.48	76.29
355.692	16.9
355.903	0.51
356.115	33.28
356.326	16.9
356.538	66.05
356.749	37.38
356.961	84.48
357.172	76.29
357.384	25.09
357.595	68.09
357.807	8.7
358.018	90.62
358.23	-38.4
358.441	8.7
358.653	49.66
358.864	-28.16
359.075	-26.11
359.287	51.71
359.498	-9.73
359.709	57.86
359.921	-24.06
360.132	35.33
360.344	2.56
360.555	16.9
360.766	-7.68
360.977	29.18
361.189	-1.54
361.4	74.24
361.611	-5.63
361.823	45.57
362.034	4.61
362.245	-15.87
362.456	35.33
362.667	16.9
362.879	51.71
363.09	47.62
363.301	51.71
363.512	25.09
363.723	-3.58
363.935	49.66
364.146	-15.87
364.357	70.14
364.568	55.81
364.779	18.94
364.99	70.14
365.201	-15.87
365.412	14.85
365.623	29.18
365.834	59.9
366.045	41.47
366.256	76.29
366.467	35.33
366.678	88.57
366.889	20.99
367.1	84.48
367.311	43.52
367.522	25.09
367.733	107.01
367.944	33.28
368.155	43.52
368.366	64
368.577	45.57
368.788	68.09
368.999	117.25
369.209	27.14
369.42	150.01
369.631	45.57
369.842	4.61
370.053	-48.64
370.264	33.28
370.474	8.7
370.685	41.47
370.896	18.94
371.107	18.94
371.317	115.2
371.528	100.86
371.739	84.48
371.95	51.71
372.16	-15.87
372.371	20.99
372.582	45.57
372.792	16.9
373.003	27.14
373.214	57.86
373.424	100.86
373.635	-24.06
373.846	35.33
374.056	76.29
374.267	25.09
374.477	18.94
374.688	16.9
374.898	53.76
375.109	88.57
375.319	53.76
375.53	8.7
375.74	-40.45
375.951	6.66
376.161	-9.73
376.372	84.48
376.582	16.9
376.793	47.62
377.003	-44.54
377.214	96.77
377.424	57.86
377.635	0.51
377.845	107.01
378.055	94.72
378.266	16.9
378.476	49.66
378.686	37.38
378.897	43.52
379.107	80.38
379.317	45.57
379.528	29.18
379.738	16.9
379.948	18.94
380.158	100.86
380.369	49.66
380.579	51.71
380.789	-54.78
380.999	-22.02
381.21	49.66
381.42	18.94
381.63	72.19
381.84	12.8
382.05	100.86
382.261	41.47
382.471	-3.58
382.681	29.18
382.891	133.63
383.101	70.14
383.311	-65.02
383.521	41.47
383.731	111.1
383.941	27.14
384.151	23.04
384.361	-7.68
384.571	147.97
384.781	53.76
384.991	43.52
385.201	141.82
385.411	94.72
385.621	70.14
385.831	88.57
386.041	96.77
386.251	-15.87
386.461	74.24
386.671	-54.78
386.881	49.66
387.091	41.47
387.301	37.38
387.511	18.94
387.72	127.49
387.93	115.2
388.14	4.61
388.35	-15.87
388.56	113.15
388.769	43.52
388.979	16.9
389.189	107.01
389.399	47.62
389.609	68.09
389.818	82.43
390.028	55.81
390.238	123.39
390.447	12.8
390.657	80.38
390.867	-3.58
391.076	29.18
391.286	35.33
391.496	41.47
391.705	-19.97
391.915	92.67
392.125	16.9
392.334	10.75
392.544	-9.73
392.753	27.14
392.963	127.49
393.172	86.53
393.382	55.81
393.591	131.58
393.801	123.39
394.01	4.61
394.22	33.28
394.429	4.61
394.639	90.62
394.848	33.28
395.058	37.38
395.267	49.66
395.477	33.28
395.686	66.05
395.895	92.67
396.105	154.11
396.314	16.9
396.524	61.95
396.733	109.05
396.942	6.66
397.152	10.75
397.361	53.76
397.57	43.52
397.78	100.86
397.989	43.52
398.198	100.86
398.407	45.57
398.617	139.77
398.826	-36.35
399.035	115.2
399.244	41.47
399.453	90.62
399.663	55.81
399.872	98.81
400.081	123.39
400.29	115.2
400.499	-15.87
400.708	64
400.917	53.76
401.127	70.14
401.336	113.15
401.545	123.39
401.754	76.29
401.963	49.66
402.172	27.14
402.381	57.86
402.59	33.28
402.799	64
403.008	139.77
403.217	141.82
403.426	115.2
403.635	-13.82
403.844	84.48
404.053	90.62
404.262	109.05
404.471	139.77
404.68	150.01
404.888	123.39
405.097	121.34
405.306	133.63
405.515	86.53
405.724	98.81
405.933	205.31
406.142	98.81
406.35	150.01
406.559	109.05
406.768	139.77
406.977	190.97
407.185	139.77
407.394	176.64
407.603	66.05
407.812	141.82
408.02	125.44
408.229	238.08
408.438	156.16
408.646	74.24
408.855	133.63
409.064	131.58
409.272	178.69
409.481	154.11
409.69	231.93
409.898	246.27
410.107	164.35
410.315	279.04
410.524	229.88
410.733	182.78
410.941	186.88
411.15	279.04
411.358	256.51
411.567	238.08
411.775	250.36
411.984	358.91
412.192	246.27
412.401	322.04
412.609	348.67
412.818	344.57
413.026	430.59
413.234	354.81
413.443	422.39
413.651	381.43
413.86	311.8
414.068	430.59
414.276	385.53
414.485	467.45
414.693	516.6
414.901	492.02
415.11	520.7
415.318	518.65
415.526	477.69
415.734	549.37
415.943	512.5
416.151	549.37
416.359	606.71
416.567	643.57
416.776	594.42
416.984	674.29
417.192	696.82
417.4	715.25
417.608	731.64
417.817	737.78
418.025	811.51
418.233	836.08
418.441	778.74
418.649	877.04
418.857	799.22
419.065	971.25
419.273	909.81
419.481	934.39
419.689	969.2
419.897	1067.5
420.105	1106.42
420.313	1067.5
420.521	1122.8
420.729	1196.53
420.937	1192.43
421.145	1286.64
421.353	1198.57
421.561	1470.95
421.769	1399.27
421.977	1460.71
422.185	1499.63
422.393	1503.72
422.601	1632.74
422.809	1565.16
423.017	1747.43
423.224	1665.51
423.432	1827.3
423.64	1776.1
423.848	1884.64
424.056	1927.65
424.263	2023.91
424.471	2050.53
424.679	2081.25
424.887	2134.5
425.094	2230.75
425.302	2335.2
425.51	2331.1
425.718	2458.07
425.925	2351.58
426.133	2478.55
426.341	2675.16
426.548	2679.26
426.756	2683.35
426.964	2892.24
427.171	2976.21
427.379	2968.02
427.586	3041.75
427.794	3207.63
428.001	3340.75
428.209	3547.59
428.417	3314.13
428.624	3592.65
428.832	3576.27
429.039	3539.4
429.247	3531.21
429.454	3940.8
429.662	4215.23
429.869	3858.89
430.076	4317.63
430.284	4061.63
430.491	4291.01
430.699	4567.48
430.906	4395.45
431.114	4676.02
431.321	4714.94
431.528	4792.76
431.736	5204.4
431.943	5360.05
432.15	5290.42
432.358	5222.83
432.565	5501.36
432.772	5517.74
432.979	5874.09
433.187	5931.43
433.394	5849.51
433.601	6422.94
433.808	6357.41
434.016	6420.89
434.223	6652.31
434.43	6914.45
434.637	6883.73
434.844	7301.52
435.052	7381.39
435.259	7369.1
435.466	7360.91
435.673	7494.03
435.88	7946.63
436.087	8380.8
436.294	8364.42
436.501	8147.33
436.708	8276.35
436.915	8407.42
437.122	8962.42
437.329	8839.55
437.537	9206.13
437.743	9097.59
437.95	9372.02
438.157	9785.71
438.364	10140.01
438.571	10056.04
438.778	9859.43
438.985	11141.46
439.192	10473.82
439.399	10887.51
439.606	10643.81
439.813	11209.04
440.02	11802.96
440.227	11929.93
440.433	11485.52
440.64	12038.47
440.847	11979.08
441.054	12226.89
441.261	12792.12
441.467	12951.87
441.674	13146.42
441.881	13533.49
442.088	13611.31
442.294	13201.72
442.501	13820.21
442.708	14137.64
442.914	14770.46
443.121	15401.24
443.328	15028.51
443.534	15896.85
443.741	15489.3
443.948	15149.34
444.154	16199.94
444.361	16097.55
444.568	16398.6
444.774	16173.32
444.981	16320.77
445.187	16912.64
445.394	17772.78
445.6	17436.92
445.807	19044.57
446.013	18133.23
446.22	18843.87
446.426	19370.2
446.633	19407.06
446.839	20353.23
447.046	19247.32
447.252	20578.5
447.459	20109.52
447.665	20420.81
447.871	21373.11
448.078	22202.54
448.284	21129.41
448.491	21620.92
448.697	22771.88
448.903	23314.59
449.11	23204
449.316	22700.2
449.522	23193.76
449.728	23933.07
449.935	24266.89
450.141	23785.62
450.347	24543.37
450.553	23814.29
450.76	24074.38
450.966	24807.56
451.172	24424.59
451.378	25364.6
451.584	24995.97
451.791	25395.32
451.997	25284.73
452.203	26024.05
452.409	25981.04
452.615	25696.38
452.821	24690.82
453.027	24500.36
453.233	26089.59
453.44	24924.29
453.646	24793.22
453.852	25165.95
454.058	25165.95
454.264	25034.88
454.47	25573.5
454.676	24692.87
454.882	25647.22
455.088	23195.81
455.294	23969.94
455.5	24500.36
455.705	24756.36
455.911	23400.6
456.117	23122.08
456.323	22636.71
456.529	21528.76
456.735	22810.79
456.941	22069.42
457.147	21688.5
457.352	20914.37
457.558	20904.13
457.764	20842.69
457.97	20512.97
458.176	20213.96
458.381	19996.88
458.587	18931.94
458.793	19056.86
458.999	18313.45
459.204	19321.05
459.41	18817.25
459.616	17404.15
459.821	17563.89
460.027	17424.63
460.233	17125.63
460.438	16507.14
460.644	16691.46
460.85	15982.86
461.055	15477.01
461.261	15532.31
461.466	14410.02
461.672	13779.25
461.878	14999.84
462.083	14068.01
462.289	13674.8
462.494	13461.81
462.7	12853.56
462.905	12626.24
463.111	13097.27
463.316	13232.44
463.522	12759.36
463.727	12687.68
463.932	12755.26
464.138	12788.03
464.343	12685.63
464.549	12468.55
464.754	12691.77
464.959	12609.86
465.165	12550.46
465.37	11970.89
465.575	11757.9
465.781	12196.17
465.986	12292.42
466.191	11780.43
466.397	11639.12
466.602	11055.45
466.807	11471.18
467.012	11469.14
467.218	11192.66
467.423	11200.85
467.628	11372.88
467.833	11764.04
