Data from USB4F104151__241__14-45-47-243.txt Node

Date: Thu Mar 13 14:45:47 EDT 2025
User: louis
Spectrometer: USB4F10415
Trigger mode: 4
Integration Time (sec): 2.000000E-2
Scans to average: 1
Electric dark correction enabled: true
Nonlinearity correction enabled: false
Boxcar width: 0
XAxis mode: Wavelengths
Number of Pixels in Spectrum: 3648
>>>>>Begin Spectral Data<<<<<
178.204	-132.78
178.424	-132.78
178.644	-132.78
178.864	-110.25
179.084	-124.58
179.304	-18.09
179.524	-46.76
179.744	-81.58
179.964	43.35
180.184	26.96
180.404	16.73
180.624	20.82
180.844	41.3
181.064	-46.76
181.283	12.63
181.503	10.58
181.723	20.82
181.943	-50.86
182.163	57.68
182.383	43.35
182.602	90.45
182.822	104.79
183.042	-7.85
183.262	26.96
183.482	59.73
183.701	67.92
183.921	24.92
184.141	57.68
184.361	104.79
184.58	59.73
184.8	35.16
185.02	33.11
185.239	-5.8
185.459	-52.91
185.679	12.63
185.898	-52.91
186.118	63.83
186.338	47.44
186.557	31.06
186.777	51.54
186.997	26.96
187.216	-65.19
187.436	53.59
187.655	4.44
187.875	47.44
188.095	41.3
188.314	-18.09
188.534	4.44
188.753	-7.85
188.973	112.98
189.192	53.59
189.412	45.4
189.631	26.96
189.851	37.2
190.07	104.79
190.29	-28.33
190.509	22.87
190.729	39.25
190.948	88.4
191.168	151.89
191.387	67.92
191.607	59.73
191.826	76.12
192.045	-52.91
192.265	39.25
192.484	-38.57
192.704	10.58
192.923	-13.99
193.142	100.69
193.362	-16.04
193.581	67.92
193.8	86.36
194.02	43.35
194.239	80.21
194.458	2.39
194.678	-26.28
194.897	-36.52
195.116	-36.52
195.335	-5.8
195.555	82.26
195.774	-18.09
195.993	108.88
196.212	47.44
196.432	-5.8
196.651	37.2
196.87	-22.19
197.089	-30.38
197.308	0.34
197.528	69.97
197.747	37.2
197.966	51.54
198.185	51.54
198.404	-50.86
198.623	84.31
198.842	2.39
199.062	96.6
199.281	35.16
199.5	26.96
199.719	63.83
199.938	47.44
200.157	51.54
200.376	43.35
200.595	47.44
200.814	22.87
201.033	43.35
201.252	26.96
201.471	-5.8
201.69	18.77
201.909	84.31
202.128	22.87
202.347	76.12
202.566	26.96
202.785	-46.76
203.004	-28.33
203.223	84.31
203.442	2.39
203.661	-1.71
203.879	16.73
204.098	108.88
204.317	53.59
204.536	53.59
204.755	53.59
204.974	47.44
205.193	100.69
205.411	78.16
205.63	35.16
205.849	8.53
206.068	10.58
206.287	37.2
206.505	108.88
206.724	-40.62
206.943	24.92
207.162	-28.33
207.381	41.3
207.599	26.96
207.818	65.88
208.037	59.73
208.255	24.92
208.474	-3.75
208.693	67.92
208.911	29.01
209.13	10.58
209.349	16.73
209.567	45.4
209.786	117.08
210.005	20.82
210.223	51.54
210.442	-61.1
210.661	10.58
210.879	-44.71
211.098	12.63
211.316	35.16
211.535	82.26
211.753	-1.71
211.972	67.92
212.191	29.01
212.409	31.06
212.628	22.87
212.846	31.06
213.065	18.77
213.283	35.16
213.502	6.49
213.72	43.35
213.938	14.68
214.157	74.07
214.375	39.25
214.594	0.34
214.812	18.77
215.031	33.11
215.249	-24.23
215.467	-63.15
215.686	43.35
215.904	78.16
216.122	76.12
216.341	37.2
216.559	76.12
216.778	35.16
216.996	18.77
217.214	59.73
217.432	-38.57
217.651	-9.9
217.869	-22.19
218.087	84.31
218.306	51.54
218.524	80.21
218.742	-7.85
218.96	55.64
219.179	-63.15
219.397	-3.75
219.615	86.36
219.833	2.39
220.051	35.16
220.27	14.68
220.488	72.02
220.706	31.06
220.924	26.96
221.142	51.54
221.36	53.59
221.578	47.44
221.796	43.35
222.015	67.92
222.233	-18.09
222.451	18.77
222.669	-46.76
222.887	43.35
223.105	26.96
223.323	121.17
223.541	-67.24
223.759	12.63
223.977	96.6
224.195	-1.71
224.413	86.36
224.631	-11.95
224.849	84.31
225.067	92.5
225.285	53.59
225.503	92.5
225.721	-30.38
225.939	49.49
226.157	2.39
226.375	151.89
226.592	63.83
226.81	59.73
227.028	63.83
227.246	51.54
227.464	88.4
227.682	90.45
227.9	98.64
228.117	37.2
228.335	4.44
228.553	31.06
228.771	84.31
228.989	18.77
229.206	-30.38
229.424	-26.28
229.642	26.96
229.86	18.77
230.077	2.39
230.295	51.54
230.513	18.77
230.731	104.79
230.948	-18.09
231.166	108.88
231.384	18.77
231.601	53.59
231.819	84.31
232.037	-52.91
232.254	-61.1
232.472	31.06
232.689	35.16
232.907	12.63
233.125	76.12
233.342	31.06
233.56	-18.09
233.777	10.58
233.995	43.35
234.213	115.03
234.43	-22.19
234.648	53.59
234.865	4.44
235.083	35.16
235.3	72.02
235.518	135.51
235.735	96.6
235.953	110.93
236.17	84.31
236.388	43.35
236.605	69.97
236.822	88.4
237.04	12.63
237.257	69.97
237.475	47.44
237.692	-34.47
237.909	-38.57
238.127	67.92
238.344	67.92
238.562	61.78
238.779	47.44
238.996	-30.38
239.214	26.96
239.431	47.44
239.648	39.25
239.865	35.16
240.083	24.92
240.3	47.44
240.517	-13.99
240.735	51.54
240.952	35.16
241.169	78.16
241.386	80.21
241.603	22.87
241.821	39.25
242.038	4.44
242.255	35.16
242.472	2.39
242.689	96.6
242.907	106.84
243.124	59.73
243.341	61.78
243.558	-26.28
243.775	47.44
243.992	2.39
244.209	53.59
244.426	8.53
244.643	12.63
244.86	-5.8
245.078	92.5
245.295	14.68
245.512	-13.99
245.729	-7.85
245.946	61.78
246.163	49.49
246.38	45.4
246.597	43.35
246.814	88.4
247.031	0.34
247.248	80.21
247.464	51.54
247.681	141.65
247.898	51.54
248.115	84.31
248.332	20.82
248.549	-5.8
248.766	78.16
248.983	59.73
249.2	49.49
249.417	104.79
249.633	67.92
249.85	33.11
250.067	29.01
250.284	92.5
250.501	59.73
250.717	94.55
250.934	-59.05
251.151	37.2
251.368	18.77
251.585	51.54
251.801	-18.09
252.018	-38.57
252.235	78.16
252.451	-30.38
252.668	37.2
252.885	51.54
253.102	43.35
253.318	37.2
253.535	-5.8
253.752	45.4
253.968	18.77
254.185	59.73
254.401	29.01
254.618	92.5
254.835	14.68
255.051	47.44
255.268	47.44
255.484	53.59
255.701	-22.19
255.917	55.64
256.134	37.2
256.351	29.01
256.567	-16.04
256.784	53.59
257	0.34
257.217	43.35
257.433	12.63
257.65	51.54
257.866	-30.38
258.082	-13.99
258.299	61.78
258.515	53.59
258.732	43.35
258.948	45.4
259.165	59.73
259.381	-22.19
259.597	47.44
259.814	35.16
260.03	22.87
260.246	2.39
260.463	20.82
260.679	67.92
260.895	20.82
261.112	-24.23
261.328	-52.91
261.544	-44.71
261.761	14.68
261.977	22.87
262.193	-13.99
262.409	31.06
262.626	92.5
262.842	45.4
263.058	51.54
263.274	43.35
263.49	80.21
263.707	72.02
263.923	8.53
264.139	-54.95
264.355	53.59
264.571	43.35
264.787	51.54
265.004	18.77
265.22	84.31
265.436	10.58
265.652	45.4
265.868	67.92
266.084	-104.11
266.3	31.06
266.516	18.77
266.732	57.68
266.948	47.44
267.164	76.12
267.38	26.96
267.596	-16.04
267.812	84.31
268.028	45.4
268.244	37.2
268.46	18.77
268.676	-30.38
268.892	63.83
269.108	-3.75
269.324	-77.48
269.54	61.78
269.756	35.16
269.972	-1.71
270.188	-22.19
270.403	67.92
270.619	37.2
270.835	100.69
271.051	18.77
271.267	35.16
271.483	-34.47
271.698	69.97
271.914	10.58
272.13	35.16
272.346	10.58
272.562	-13.99
272.777	67.92
272.993	57.68
273.209	22.87
273.425	76.12
273.64	59.73
273.856	76.12
274.072	20.82
274.287	22.87
274.503	-11.95
274.719	-18.09
274.934	26.96
275.15	-38.57
275.366	96.6
275.581	8.53
275.797	-9.9
276.012	84.31
276.228	63.83
276.444	35.16
276.659	-5.8
276.875	26.96
277.09	35.16
277.306	92.5
277.521	43.35
277.737	4.44
277.952	37.2
278.168	94.55
278.383	59.73
278.599	53.59
278.814	94.55
279.03	18.77
279.245	53.59
279.461	-22.19
279.676	37.2
279.892	-71.34
280.107	4.44
280.322	51.54
280.538	84.31
280.753	20.82
280.969	43.35
281.184	86.36
281.399	117.08
281.615	37.2
281.83	2.39
282.045	-20.14
282.26	53.59
282.476	24.92
282.691	110.93
282.906	-11.95
283.122	106.84
283.337	-63.15
283.552	69.97
283.767	29.01
283.983	61.78
284.198	69.97
284.413	43.35
284.628	53.59
284.843	35.16
285.058	12.63
285.274	72.02
285.489	14.68
285.704	86.36
285.919	106.84
286.134	-28.33
286.349	10.58
286.564	-38.57
286.779	47.44
286.995	31.06
287.21	10.58
287.425	57.68
287.64	-18.09
287.855	125.27
288.07	22.87
288.285	112.98
288.5	-20.14
288.715	51.54
288.93	35.16
289.145	18.77
289.36	20.82
289.575	61.78
289.79	65.88
290.004	14.68
290.219	20.82
290.434	14.68
290.649	100.69
290.864	6.49
291.079	115.03
291.294	67.92
291.509	-28.33
291.724	86.36
291.938	31.06
292.153	76.12
292.368	43.35
292.583	78.16
292.798	59.73
293.012	2.39
293.227	18.77
293.442	67.92
293.657	18.77
293.871	31.06
294.086	57.68
294.301	26.96
294.516	131.41
294.73	51.54
294.945	-3.75
295.16	47.44
295.374	67.92
295.589	76.12
295.804	18.77
296.018	51.54
296.233	96.6
296.447	43.35
296.662	31.06
296.877	51.54
297.091	-11.95
297.306	-3.75
297.52	88.4
297.735	59.73
297.949	69.97
298.164	106.84
298.378	35.16
298.593	-18.09
298.807	10.58
299.022	86.36
299.236	115.03
299.451	65.88
299.665	-7.85
299.88	2.39
300.094	31.06
300.309	57.68
300.523	35.16
300.737	16.73
300.952	-5.8
301.166	24.92
301.381	-11.95
301.595	47.44
301.809	67.92
302.024	-5.8
302.238	-11.95
302.452	29.01
302.667	35.16
302.881	35.16
303.095	47.44
303.309	-1.71
303.524	43.35
303.738	6.49
303.952	43.35
304.166	16.73
304.381	76.12
304.595	78.16
304.809	-1.71
305.023	84.31
305.237	43.35
305.452	39.25
305.666	39.25
305.88	100.69
306.094	90.45
306.308	18.77
306.522	12.63
306.736	67.92
306.95	117.08
307.164	37.2
307.379	51.54
307.593	65.88
307.807	112.98
308.021	76.12
308.235	-22.19
308.449	4.44
308.663	22.87
308.877	117.08
309.091	26.96
309.305	18.77
309.519	6.49
309.733	39.25
309.947	49.49
310.161	10.58
310.374	39.25
310.588	43.35
310.802	-50.86
311.016	-3.75
311.23	74.07
311.444	61.78
311.658	53.59
311.872	92.5
312.085	10.58
312.299	45.4
312.513	74.07
312.727	43.35
312.941	53.59
313.154	69.97
313.368	43.35
313.582	69.97
313.796	-46.76
314.009	37.2
314.223	59.73
314.437	-13.99
314.651	-79.53
314.864	29.01
315.078	-11.95
315.292	53.59
315.505	6.49
315.719	55.64
315.933	59.73
316.146	-13.99
316.36	-40.62
316.573	100.69
316.787	100.69
317.001	45.4
317.214	10.58
317.428	-26.28
317.641	76.12
317.855	55.64
318.068	-18.09
318.282	22.87
318.495	41.3
318.709	59.73
318.922	88.4
319.136	102.74
319.349	141.65
319.563	-13.99
319.776	86.36
319.99	20.82
320.203	37.2
320.417	59.73
320.63	10.58
320.843	33.11
321.057	33.11
321.27	92.5
321.483	69.97
321.697	35.16
321.91	37.2
322.124	-20.14
322.337	57.68
322.55	80.21
322.763	-26.28
322.977	45.4
323.19	102.74
323.403	43.35
323.617	45.4
323.83	14.68
324.043	-32.43
324.256	45.4
324.469	4.44
324.683	18.77
324.896	61.78
325.109	59.73
325.322	-30.38
325.535	100.69
325.748	-9.9
325.962	18.77
326.175	-11.95
326.388	10.58
326.601	37.2
326.814	43.35
327.027	69.97
327.24	82.26
327.453	-46.76
327.666	67.92
327.879	69.97
328.092	45.4
328.305	10.58
328.518	-5.8
328.731	35.16
328.944	55.64
329.157	31.06
329.37	84.31
329.583	43.35
329.796	37.2
330.009	76.12
330.222	53.59
330.435	94.55
330.648	86.36
330.861	26.96
331.073	35.16
331.286	76.12
331.499	61.78
331.712	41.3
331.925	53.59
332.138	51.54
332.35	78.16
332.563	35.16
332.776	94.55
332.989	8.53
333.202	2.39
333.414	37.2
333.627	26.96
333.84	76.12
334.053	43.35
334.265	125.27
334.478	22.87
334.691	26.96
334.903	-20.14
335.116	55.64
335.329	12.63
335.541	47.44
335.754	78.16
335.966	67.92
336.179	33.11
336.392	100.69
336.604	76.12
336.817	-38.57
337.029	76.12
337.242	110.93
337.454	43.35
337.667	26.96
337.88	39.25
338.092	35.16
338.305	112.98
338.517	33.11
338.729	84.31
338.942	100.69
339.154	29.01
339.367	-38.57
339.579	112.98
339.792	-5.8
340.004	86.36
340.217	37.2
340.429	92.5
340.641	45.4
340.854	51.54
341.066	39.25
341.278	47.44
341.491	131.41
341.703	26.96
341.915	10.58
342.128	61.78
342.34	112.98
342.552	69.97
342.764	31.06
342.977	31.06
343.189	51.54
343.401	74.07
343.613	43.35
343.826	-22.19
344.038	31.06
344.25	96.6
344.462	24.92
344.674	47.44
344.886	51.54
345.099	10.58
345.311	-28.33
345.523	26.96
345.735	18.77
345.947	26.96
346.159	-1.71
346.371	2.39
346.583	59.73
346.795	106.84
347.007	94.55
347.219	76.12
347.431	-38.57
347.643	59.73
347.855	43.35
348.067	37.2
348.279	43.35
348.491	80.21
348.703	74.07
348.915	2.39
349.127	84.31
349.339	94.55
349.551	63.83
349.763	115.03
349.975	37.2
350.187	96.6
350.399	149.84
350.61	31.06
350.822	76.12
351.034	72.02
351.246	127.32
351.458	69.97
351.669	43.35
351.881	63.83
352.093	86.36
352.305	43.35
352.517	26.96
352.728	92.5
352.94	72.02
353.152	-11.95
353.363	76.12
353.575	63.83
353.787	84.31
353.999	55.64
354.21	86.36
354.422	18.77
354.633	18.77
354.845	51.54
355.057	61.78
355.268	39.25
355.48	57.68
355.692	51.54
355.903	39.25
356.115	2.39
356.326	12.63
356.538	127.32
356.749	158.03
356.961	61.78
357.172	59.73
357.384	57.68
357.595	67.92
357.807	51.54
358.018	-9.9
358.23	22.87
358.441	164.18
358.653	-67.24
358.864	33.11
359.075	59.73
359.287	92.5
359.498	61.78
359.709	37.2
359.921	-5.8
360.132	55.64
360.344	69.97
360.555	24.92
360.766	29.01
360.977	-13.99
361.189	98.64
361.4	-22.19
361.611	12.63
361.823	108.88
362.034	135.51
362.245	63.83
362.456	26.96
362.667	72.02
362.879	39.25
363.09	6.49
363.301	20.82
363.512	22.87
363.723	82.26
363.935	-87.72
364.146	76.12
364.357	10.58
364.568	92.5
364.779	-54.95
364.99	67.92
365.201	104.79
365.412	14.68
365.623	18.77
365.834	59.73
366.045	82.26
366.256	20.82
366.467	20.82
366.678	14.68
366.889	31.06
367.1	10.58
367.311	65.88
367.522	10.58
367.733	106.84
367.944	94.55
368.155	20.82
368.366	35.16
368.577	67.92
368.788	-5.8
368.999	96.6
369.209	76.12
369.42	121.17
369.631	158.03
369.842	76.12
370.053	90.45
370.264	22.87
370.474	92.5
370.685	55.64
370.896	31.06
371.107	55.64
371.317	82.26
371.528	-11.95
371.739	104.79
371.95	37.2
372.16	115.03
372.371	2.39
372.582	22.87
372.792	121.17
373.003	18.77
373.214	53.59
373.424	121.17
373.635	-1.71
373.846	102.74
374.056	43.35
374.267	84.31
374.477	92.5
374.688	39.25
374.898	39.25
375.109	-5.8
375.319	31.06
375.53	92.5
375.74	43.35
375.951	67.92
376.161	51.54
376.372	76.12
376.582	-16.04
376.793	31.06
377.003	18.77
377.214	43.35
377.424	139.6
377.635	67.92
377.845	59.73
378.055	102.74
378.266	-11.95
378.476	59.73
378.686	-1.71
378.897	55.64
379.107	-22.19
379.317	106.84
379.528	53.59
379.738	112.98
379.948	88.4
380.158	102.74
380.369	39.25
380.579	67.92
380.789	-1.71
380.999	4.44
381.21	96.6
381.42	100.69
381.63	39.25
381.84	151.89
382.05	33.11
382.261	22.87
382.471	4.44
382.681	47.44
382.891	67.92
383.101	78.16
383.311	59.73
383.521	59.73
383.731	33.11
383.941	84.31
384.151	45.4
384.361	61.78
384.571	78.16
384.781	22.87
384.991	84.31
385.201	41.3
385.411	29.01
385.621	43.35
385.831	94.55
386.041	8.53
386.251	26.96
386.461	110.93
386.671	92.5
386.881	-5.8
387.091	69.97
387.301	-13.99
387.511	43.35
387.72	59.73
387.93	8.53
388.14	-30.38
388.35	67.92
388.56	98.64
388.769	110.93
388.979	59.73
389.189	26.96
389.399	51.54
389.609	78.16
389.818	119.12
390.028	26.96
390.238	45.4
390.447	86.36
390.657	63.83
390.867	53.59
391.076	-1.71
391.286	82.26
391.496	98.64
391.705	35.16
391.915	86.36
392.125	82.26
392.334	84.31
392.544	41.3
392.753	35.16
392.963	41.3
393.172	74.07
393.382	69.97
393.591	112.98
393.801	4.44
394.01	158.03
394.22	43.35
394.429	20.82
394.639	104.79
394.848	47.44
395.058	69.97
395.267	45.4
395.477	4.44
395.686	92.5
395.895	131.41
396.105	139.6
396.314	76.12
396.524	59.73
396.733	137.56
396.942	41.3
397.152	67.92
397.361	139.6
397.57	67.92
397.78	86.36
397.989	84.31
398.198	125.27
398.407	-11.95
398.617	125.27
398.826	-1.71
399.035	35.16
399.244	20.82
399.453	67.92
399.663	76.12
399.872	155.99
400.081	100.69
400.29	141.65
400.499	39.25
400.708	198.99
400.917	55.64
401.127	29.01
401.336	96.6
401.545	76.12
401.754	69.97
401.963	170.32
402.172	26.96
402.381	59.73
402.59	143.7
402.799	53.59
403.008	100.69
403.217	59.73
403.426	112.98
403.635	69.97
403.844	47.44
404.053	190.8
404.262	76.12
404.471	166.23
404.68	125.27
404.888	121.17
405.097	135.51
405.306	78.16
405.515	63.83
405.724	51.54
405.933	106.84
406.142	174.42
406.35	258.39
406.559	147.8
406.768	76.12
406.977	121.17
407.185	162.13
407.394	162.13
407.603	84.31
407.812	201.04
408.02	233.81
408.229	174.42
408.438	209.23
408.646	174.42
408.855	239.95
409.064	209.23
409.272	170.32
409.481	158.03
409.69	190.8
409.898	174.42
410.107	291.15
410.315	307.54
410.524	215.38
410.733	291.15
410.941	256.34
411.15	338.26
411.358	289.1
411.567	379.22
411.775	272.72
411.984	248.15
412.192	330.06
412.401	221.52
412.609	346.45
412.818	373.07
413.026	358.74
413.234	395.6
413.443	305.49
413.651	457.04
413.86	411.98
414.068	469.33
414.276	502.09
414.485	475.47
414.693	442.7
414.901	518.48
415.11	485.71
415.318	493.9
415.526	510.29
415.734	534.86
415.943	559.44
416.151	510.29
416.359	624.97
416.567	682.31
416.776	692.55
416.984	674.12
417.192	678.22
417.4	706.89
417.608	584.01
417.817	792.91
418.025	739.66
418.233	825.67
418.441	805.19
418.649	932.17
418.857	993.61
419.065	977.22
419.273	936.26
419.481	952.65
419.689	985.41
419.897	1114.44
420.105	1124.68
420.313	1128.77
420.521	1126.72
420.729	1157.44
420.937	1263.94
421.145	1268.03
421.353	1364.29
421.561	1354.05
421.769	1419.58
421.977	1401.15
422.185	1427.78
422.393	1544.51
422.601	1698.11
422.809	1626.43
423.017	1636.67
423.224	1698.11
423.432	1788.22
423.64	1780.03
423.848	1927.48
424.056	1851.71
424.263	2052.41
424.471	2025.78
424.679	2165.04
424.887	2244.92
425.094	2224.44
425.302	2216.24
425.51	2281.78
425.718	2398.51
425.925	2398.51
426.133	2519.34
426.341	2672.94
426.548	2693.42
426.756	2779.43
426.964	2838.83
427.171	2992.42
427.379	3035.43
427.586	3109.16
427.794	3229.99
428.001	3424.55
428.209	3580.19
428.417	3352.87
428.624	3694.88
428.832	3615.01
429.039	3705.12
429.247	3520.8
429.454	3924.25
429.662	4213.01
429.869	4032.79
430.076	4249.88
430.284	4352.27
430.491	4368.66
430.699	4641.04
430.906	4434.19
431.114	4446.48
431.321	4770.06
431.528	4825.36
431.736	5255.43
431.943	5304.58
432.15	5243.14
432.358	5173.51
432.565	5499.14
432.772	5622.02
432.979	5835
433.187	6039.8
433.394	5966.07
433.601	6572.27
433.808	6461.68
434.016	6461.68
434.223	6770.93
434.43	6842.6
434.637	6910.19
434.844	7385.32
435.052	7432.42
435.259	7336.17
435.466	7715.04
435.673	7545.06
435.88	7985.37
436.087	8366.29
436.294	8083.67
436.501	8288.47
436.708	8202.46
436.915	8665.3
437.122	9050.32
437.329	8966.35
437.537	9238.73
437.743	9255.11
437.95	9109.71
438.157	9668.8
438.364	10129.59
438.571	10072.25
438.778	10234.04
438.985	11149.48
439.192	10590.39
439.399	10981.55
439.606	10614.96
439.813	11157.68
440.02	11872.42
440.227	11708.58
440.433	11796.64
440.64	12128.41
440.847	11991.2
441.054	12349.59
441.261	13203.6
441.467	12863.63
441.674	13082.77
441.881	13256.84
442.088	13652.1
442.294	13561.99
442.501	13873.28
442.708	13994.11
442.914	14639.22
443.121	15501.42
443.328	14846.07
443.534	15779.94
443.741	15222.89
443.948	15186.03
444.154	16472.15
444.361	16334.94
444.568	16345.18
444.774	16281.69
444.981	16425.05
445.187	17111.12
445.394	17752.13
445.6	17170.51
445.807	18917.43
446.013	18448.44
446.22	18843.7
446.426	19292.21
446.633	19441.71
446.839	20115.49
447.046	19263.54
447.252	20492.32
447.459	20357.15
447.665	20340.77
447.871	21350.42
448.078	22214.66
448.284	21147.67
448.491	21741.58
448.697	22755.32
448.903	22892.54
449.11	23220.21
449.316	22810.62
449.522	23083
449.728	23619.56
449.935	23748.59
450.141	23953.38
450.347	24248.29
450.553	23799.79
450.76	24090.6
450.966	24776.67
451.172	24610.78
451.378	25487.31
451.584	24743.9
451.791	25382.87
451.997	25599.95
452.203	25786.32
452.409	25966.54
452.615	25661.39
452.821	24874.97
453.027	24623.07
453.233	25688.01
453.44	24897.5
453.646	25319.38
453.852	25167.83
454.058	25165.78
454.264	25034.71
454.47	25491.41
454.676	24649.69
454.882	25583.57
455.088	23447.54
455.294	23734.25
455.5	24156.13
455.705	24532.96
455.911	23443.44
456.117	23312.37
456.323	22783.99
456.529	21735.43
456.735	22732.79
456.941	21843.98
457.147	21712.91
457.352	20981.78
457.558	20727.83
457.764	20824.09
457.97	20611.1
458.176	19947.56
458.381	20019.24
458.587	18999.35
458.793	18958.39
458.999	17999.94
459.204	19593.26
459.41	18792.5
459.616	17430.6
459.821	17586.25
460.027	17700.94
460.233	17102.93
460.438	16263.26
460.644	16779.35
460.85	15792.23
461.055	15761.51
461.261	15534.18
461.466	14565.5
461.672	14174.33
461.878	14993.52
462.083	13805.7
462.289	13826.18
462.494	13758.6
462.7	13078.67
462.905	12683.41
463.111	13037.71
463.316	13021.33
463.522	12744.85
463.727	12865.68
463.932	12845.2
464.138	12628.12
464.343	12839.06
464.549	12337.31
464.754	12726.42
464.959	12650.64
465.165	12576.92
465.37	11878.56
465.575	11790.5
465.781	12136.6
465.986	12306.59
466.191	11954.33
466.397	11585.7
466.602	11135.15
466.807	11274.41
467.012	11430.05
467.218	11331.75
467.423	11178.15
467.628	11405.48
467.833	11993.25
