Data from USB4F104151__304__14-46-39-891.txt Node

Date: Thu Mar 13 14:46:39 EDT 2025
User: louis
Spectrometer: USB4F10415
Trigger mode: 4
Integration Time (sec): 2.000000E-2
Scans to average: 1
Electric dark correction enabled: true
Nonlinearity correction enabled: false
Boxcar width: 0
XAxis mode: Wavelengths
Number of Pixels in Spectrum: 3648
>>>>>Begin Spectral Data<<<<<
178.204	-145.75
178.424	-145.75
178.644	-145.75
178.864	-35.16
179.084	-125.27
179.304	-14.68
179.524	-35.16
179.744	-24.92
179.964	71.34
180.184	-59.73
180.404	40.62
180.624	-26.96
180.844	20.14
181.064	3.75
181.283	16.04
181.503	-0.34
181.723	9.9
181.943	-51.54
182.163	59.05
182.383	7.85
182.602	61.1
182.822	24.23
183.042	-2.39
183.262	5.8
183.482	-18.77
183.701	34.47
183.921	87.72
184.141	63.15
184.361	11.95
184.58	-41.3
184.8	16.04
185.02	-18.77
185.239	13.99
185.459	34.47
185.679	87.72
185.898	-10.58
186.118	52.91
186.338	-4.44
186.557	95.91
186.777	24.23
186.997	-0.34
187.216	-14.68
187.436	40.62
187.655	30.38
187.875	93.87
188.095	112.3
188.314	54.95
188.534	97.96
188.753	32.43
188.973	65.19
189.192	50.86
189.412	50.86
189.631	-8.53
189.851	24.23
190.07	59.05
190.29	-10.58
190.509	-14.68
190.729	42.67
190.948	120.49
191.168	114.34
191.387	67.24
191.607	-35.16
191.826	69.29
192.045	36.52
192.265	81.58
192.484	38.57
192.704	79.53
192.923	13.99
193.142	75.43
193.362	13.99
193.581	67.24
193.8	-18.77
194.02	22.19
194.239	-41.3
194.458	-18.77
194.678	83.63
194.897	26.28
195.116	22.19
195.335	54.95
195.555	50.86
195.774	40.62
195.993	22.19
196.212	48.81
196.432	46.76
196.651	63.15
196.87	5.8
197.089	71.34
197.308	40.62
197.528	30.38
197.747	1.71
197.966	-18.77
198.185	30.38
198.404	9.9
198.623	104.11
198.842	-26.96
199.062	116.39
199.281	54.95
199.5	-10.58
199.719	-2.39
199.938	-43.35
200.157	24.23
200.376	34.47
200.595	22.19
200.814	24.23
201.033	54.95
201.252	91.82
201.471	61.1
201.69	54.95
201.909	75.43
202.128	73.39
202.347	5.8
202.566	-6.49
202.785	-6.49
203.004	22.19
203.223	106.15
203.442	-0.34
203.661	-39.25
203.879	114.34
204.098	108.2
204.317	32.43
204.536	63.15
204.755	38.57
204.974	85.67
205.193	24.23
205.411	120.49
205.63	40.62
205.849	38.57
206.068	36.52
206.287	-10.58
206.505	140.97
206.724	-39.25
206.943	85.67
207.162	38.57
207.381	38.57
207.599	71.34
207.818	36.52
208.037	22.19
208.255	-51.54
208.474	79.53
208.693	73.39
208.911	20.14
209.13	9.9
209.349	100.01
209.567	-4.44
209.786	42.67
210.005	46.76
210.223	46.76
210.442	61.1
210.661	75.43
210.879	-49.49
211.098	-6.49
211.316	5.8
211.535	46.76
211.753	34.47
211.972	48.81
212.191	16.04
212.409	48.81
212.628	-2.39
212.846	-6.49
213.065	71.34
213.283	24.23
213.502	-16.73
213.72	30.38
213.938	61.1
214.157	44.71
214.375	120.49
214.594	32.43
214.812	38.57
215.031	32.43
215.249	26.28
215.467	16.04
215.686	95.91
215.904	87.72
216.122	-8.53
216.341	38.57
216.559	-2.39
216.778	79.53
216.996	61.1
217.214	16.04
217.432	57
217.651	9.9
217.869	50.86
218.087	30.38
218.306	83.63
218.524	87.72
218.742	40.62
218.96	46.76
219.179	-43.35
219.397	108.2
219.615	28.33
219.833	79.53
220.051	11.95
220.27	110.25
220.488	85.67
220.706	67.24
220.924	38.57
221.142	46.76
221.36	30.38
221.578	81.58
221.796	46.76
222.015	104.11
222.233	-10.58
222.451	57
222.669	32.43
222.887	26.28
223.105	-35.16
223.323	24.23
223.541	1.71
223.759	91.82
223.977	-20.82
224.195	87.72
224.413	67.24
224.631	136.87
224.849	9.9
225.067	130.73
225.285	-0.34
225.503	79.53
225.721	22.19
225.939	100.01
226.157	57
226.375	57
226.592	-26.96
226.81	28.33
227.028	30.38
227.246	69.29
227.464	48.81
227.682	81.58
227.9	7.85
228.117	57
228.335	83.63
228.553	-43.35
228.771	89.77
228.989	120.49
229.206	44.71
229.424	22.19
229.642	13.99
229.86	40.62
230.077	57
230.295	13.99
230.513	13.99
230.731	83.63
230.948	81.58
231.166	108.2
231.384	38.57
231.601	48.81
231.819	44.71
232.037	-51.54
232.254	5.8
232.472	48.81
232.689	-26.96
232.907	48.81
233.125	5.8
233.342	16.04
233.56	1.71
233.777	34.47
233.995	11.95
234.213	79.53
234.43	-14.68
234.648	-14.68
234.865	57
235.083	30.38
235.3	71.34
235.518	-39.25
235.735	54.95
235.953	89.77
236.17	-18.77
236.388	102.06
236.605	71.34
236.822	95.91
237.04	22.19
237.257	50.86
237.475	-0.34
237.692	65.19
237.909	34.47
238.127	-14.68
238.344	24.23
238.562	46.76
238.779	42.67
238.996	-86.36
239.214	67.24
239.431	63.15
239.648	108.2
239.865	5.8
240.083	48.81
240.3	9.9
240.517	-67.92
240.735	52.91
240.952	112.3
241.169	-10.58
241.386	44.71
241.603	65.19
241.821	-24.92
242.038	71.34
242.255	42.67
242.472	57
242.689	50.86
242.907	22.19
243.124	5.8
243.341	34.47
243.558	30.38
243.775	-43.35
243.992	38.57
244.209	-6.49
244.426	40.62
244.643	108.2
244.86	38.57
245.078	-24.92
245.295	40.62
245.512	-55.64
245.729	30.38
245.946	46.76
246.163	5.8
246.38	26.28
246.597	46.76
246.814	32.43
247.031	-10.58
247.248	57
247.464	57
247.681	-22.87
247.898	9.9
248.115	67.24
248.332	-12.63
248.549	87.72
248.766	79.53
248.983	30.38
249.2	44.71
249.417	42.67
249.633	54.95
249.85	40.62
250.067	42.67
250.284	-8.53
250.501	87.72
250.717	48.81
250.934	-2.39
251.151	81.58
251.368	79.53
251.585	67.24
251.801	75.43
252.018	-6.49
252.235	52.91
252.451	44.71
252.668	-2.39
252.885	57
253.102	1.71
253.318	-0.34
253.535	22.19
253.752	91.82
253.968	30.38
254.185	-6.49
254.401	34.47
254.618	32.43
254.835	-16.73
255.051	54.95
255.268	42.67
255.484	73.39
255.701	42.67
255.917	89.77
256.134	24.23
256.351	32.43
256.567	-22.87
256.784	32.43
257	22.19
257.217	71.34
257.433	61.1
257.65	73.39
257.866	65.19
258.082	1.71
258.299	42.67
258.515	-26.96
258.732	40.62
258.948	42.67
259.165	34.47
259.381	63.15
259.597	100.01
259.814	46.76
260.03	22.19
260.246	46.76
260.463	38.57
260.679	46.76
260.895	20.14
261.112	-4.44
261.328	44.71
261.544	40.62
261.761	132.78
261.977	54.95
262.193	-14.68
262.409	104.11
262.626	95.91
262.842	16.04
263.058	30.38
263.274	46.76
263.49	16.04
263.707	54.95
263.923	67.24
264.139	22.19
264.355	87.72
264.571	124.58
264.787	36.52
265.004	54.95
265.22	46.76
265.436	-18.77
265.652	54.95
265.868	24.23
266.084	34.47
266.3	67.24
266.516	13.99
266.732	46.76
266.948	59.05
267.164	24.23
267.38	63.15
267.596	81.58
267.812	116.39
268.028	-12.63
268.244	18.09
268.46	87.72
268.676	-47.44
268.892	22.19
269.108	36.52
269.324	-6.49
269.54	22.19
269.756	79.53
269.972	-22.87
270.188	38.57
270.403	-10.58
270.619	46.76
270.835	91.82
271.051	36.52
271.267	24.23
271.483	22.19
271.698	-43.35
271.914	50.86
272.13	-33.11
272.346	40.62
272.562	-31.06
272.777	42.67
272.993	87.72
273.209	63.15
273.425	116.39
273.64	-2.39
273.856	97.96
274.072	59.05
274.287	3.75
274.503	22.19
274.719	-18.77
274.934	59.05
275.15	44.71
275.366	32.43
275.581	38.57
275.797	54.95
276.012	30.38
276.228	28.33
276.444	59.05
276.659	122.54
276.875	18.09
277.09	32.43
277.306	-0.34
277.521	26.28
277.737	57
277.952	106.15
278.168	-26.96
278.383	89.77
278.599	38.57
278.814	48.81
279.03	32.43
279.245	5.8
279.461	36.52
279.676	169.64
279.892	69.29
280.107	73.39
280.322	-8.53
280.538	9.9
280.753	75.43
280.969	118.44
281.184	130.73
281.399	77.48
281.615	46.76
281.83	32.43
282.045	13.99
282.26	7.85
282.476	-10.58
282.691	42.67
282.906	16.04
283.122	38.57
283.337	16.04
283.552	54.95
283.767	75.43
283.983	42.67
284.198	-2.39
284.413	116.39
284.628	32.43
284.843	-26.96
285.058	75.43
285.274	42.67
285.489	-43.35
285.704	89.77
285.919	-55.64
286.134	20.14
286.349	42.67
286.564	-8.53
286.779	54.95
286.995	1.71
287.21	1.71
287.425	79.53
287.64	26.28
287.855	-24.92
288.07	26.28
288.285	48.81
288.5	57
288.715	63.15
288.93	54.95
289.145	54.95
289.36	73.39
289.575	40.62
289.79	81.58
290.004	20.14
290.219	110.25
290.434	48.81
290.649	59.05
290.864	16.04
291.079	61.1
291.294	-59.73
291.509	63.15
291.724	34.47
291.938	-2.39
292.153	116.39
292.368	46.76
292.583	89.77
292.798	63.15
293.012	63.15
293.227	40.62
293.442	46.76
293.657	59.05
293.871	71.34
294.086	71.34
294.301	87.72
294.516	38.57
294.73	114.34
294.945	-8.53
295.16	30.38
295.374	65.19
295.589	52.91
295.804	71.34
296.018	-2.39
296.233	104.11
296.447	22.19
296.662	1.71
296.877	71.34
297.091	63.15
297.306	13.99
297.52	46.76
297.735	63.15
297.949	-10.58
298.164	97.96
298.378	38.57
298.593	22.19
298.807	-33.11
299.022	42.67
299.236	130.73
299.451	65.19
299.665	26.28
299.88	-24.92
300.094	73.39
300.309	26.28
300.523	20.14
300.737	73.39
300.952	54.95
301.166	50.86
301.381	38.57
301.595	-16.73
301.809	16.04
302.024	24.23
302.238	20.14
302.452	54.95
302.667	65.19
302.881	67.24
303.095	7.85
303.309	87.72
303.524	69.29
303.738	100.01
303.952	59.05
304.166	-41.3
304.381	-10.58
304.595	38.57
304.809	52.91
305.023	11.95
305.237	-4.44
305.452	85.67
305.666	42.67
305.88	9.9
306.094	104.11
306.308	30.38
306.522	28.33
306.736	83.63
306.95	-6.49
307.164	65.19
307.379	50.86
307.593	93.87
307.807	95.91
308.021	30.38
308.235	63.15
308.449	-16.73
308.663	63.15
308.877	81.58
309.091	73.39
309.305	46.76
309.519	-2.39
309.733	104.11
309.947	54.95
310.161	36.52
310.374	87.72
310.588	1.71
310.802	22.19
311.016	34.47
311.23	91.82
311.444	-10.58
311.658	-22.87
311.872	93.87
312.085	112.3
312.299	32.43
312.513	-2.39
312.727	13.99
312.941	79.53
313.154	46.76
313.368	46.76
313.582	-14.68
313.796	46.76
314.009	59.05
314.223	79.53
314.437	-2.39
314.651	136.87
314.864	-18.77
315.078	42.67
315.292	32.43
315.505	83.63
315.719	46.76
315.933	30.38
316.146	-100.69
316.36	-0.34
316.573	24.23
316.787	48.81
317.001	20.14
317.214	46.76
317.428	30.38
317.641	13.99
317.855	36.52
318.068	67.24
318.282	130.73
318.495	112.3
318.709	57
318.922	63.15
319.136	136.87
319.349	24.23
319.563	1.71
319.776	67.24
319.99	57
320.203	73.39
320.417	75.43
320.63	9.9
320.843	46.76
321.057	38.57
321.27	30.38
321.483	3.75
321.697	63.15
321.91	95.91
322.124	18.09
322.337	65.19
322.55	34.47
322.763	46.76
322.977	42.67
323.19	63.15
323.403	65.19
323.617	69.29
323.83	16.04
324.043	46.76
324.256	63.15
324.469	38.57
324.683	120.49
324.896	18.09
325.109	67.24
325.322	44.71
325.535	34.47
325.748	40.62
325.962	87.72
326.175	52.91
326.388	13.99
326.601	106.15
326.814	57
327.027	30.38
327.24	42.67
327.453	-20.82
327.666	106.15
327.879	73.39
328.092	79.53
328.305	-16.73
328.518	73.39
328.731	59.05
328.944	93.87
329.157	79.53
329.37	-16.73
329.583	73.39
329.796	46.76
330.009	128.68
330.222	-14.68
330.435	91.82
330.648	18.09
330.861	57
331.073	77.48
331.286	9.9
331.499	59.05
331.712	87.72
331.925	63.15
332.138	71.34
332.35	67.24
332.563	48.81
332.776	71.34
332.989	61.1
333.202	40.62
333.414	46.76
333.627	71.34
333.84	54.95
334.053	71.34
334.265	91.82
334.478	57
334.691	-8.53
334.903	18.09
335.116	5.8
335.329	67.24
335.541	-4.44
335.754	122.54
335.966	95.91
336.179	85.67
336.392	18.09
336.604	75.43
336.817	63.15
337.029	145.06
337.242	5.8
337.454	128.68
337.667	5.8
337.88	32.43
338.092	38.57
338.305	136.87
338.517	32.43
338.729	-14.68
338.942	128.68
339.154	108.2
339.367	-2.39
339.579	1.71
339.792	9.9
340.004	75.43
340.217	22.19
340.429	16.04
340.641	18.09
340.854	-26.96
341.066	32.43
341.278	63.15
341.491	122.54
341.703	13.99
341.915	-22.87
342.128	134.82
342.34	38.57
342.552	22.19
342.764	36.52
342.977	59.05
343.189	132.78
343.401	128.68
343.613	-0.34
343.826	30.38
344.038	50.86
344.25	34.47
344.462	83.63
344.674	-8.53
344.886	104.11
345.099	65.19
345.311	79.53
345.523	59.05
345.735	-8.53
345.947	57
346.159	79.53
346.371	44.71
346.583	42.67
346.795	122.54
347.007	-35.16
347.219	122.54
347.431	71.34
347.643	71.34
347.855	13.99
348.067	30.38
348.279	140.97
348.491	57
348.703	40.62
348.915	65.19
349.127	36.52
349.339	57
349.551	65.19
349.763	85.67
349.975	71.34
350.187	61.1
350.399	124.58
350.61	13.99
350.822	65.19
351.034	46.76
351.246	46.76
351.458	79.53
351.669	71.34
351.881	89.77
352.093	81.58
352.305	95.91
352.517	38.57
352.728	124.58
352.94	26.28
353.152	114.34
353.363	40.62
353.575	122.54
353.787	50.86
353.999	61.1
354.21	71.34
354.422	122.54
354.633	36.52
354.845	65.19
355.057	40.62
355.268	9.9
355.48	77.48
355.692	11.95
355.903	28.33
356.115	28.33
356.326	50.86
356.538	102.06
356.749	50.86
356.961	42.67
357.172	3.75
357.384	-18.77
357.595	118.44
357.807	69.29
358.018	73.39
358.23	87.72
358.441	50.86
358.653	77.48
358.864	106.15
359.075	-2.39
359.287	46.76
359.498	128.68
359.709	65.19
359.921	81.58
360.132	147.11
360.344	100.01
360.555	75.43
360.766	89.77
360.977	91.82
361.189	97.96
361.4	40.62
361.611	30.38
361.823	79.53
362.034	22.19
362.245	-20.82
362.456	52.91
362.667	46.76
362.879	54.95
363.09	54.95
363.301	7.85
363.512	28.33
363.723	5.8
363.935	7.85
364.146	71.34
364.357	-47.44
364.568	24.23
364.779	40.62
364.99	102.06
365.201	-31.06
365.412	104.11
365.623	106.15
365.834	95.91
366.045	81.58
366.256	73.39
366.467	57
366.678	104.11
366.889	63.15
367.1	38.57
367.311	54.95
367.522	-8.53
367.733	59.05
367.944	132.78
368.155	-45.4
368.366	36.52
368.577	57
368.788	-4.44
368.999	102.06
369.209	50.86
369.42	59.05
369.631	112.3
369.842	54.95
370.053	-0.34
370.264	57
370.474	79.53
370.685	65.19
370.896	7.85
371.107	143.02
371.317	128.68
371.528	71.34
371.739	83.63
371.95	67.24
372.16	95.91
372.371	32.43
372.582	73.39
372.792	79.53
373.003	34.47
373.214	40.62
373.424	108.2
373.635	52.91
373.846	71.34
374.056	71.34
374.267	65.19
374.477	46.76
374.688	63.15
374.898	32.43
375.109	40.62
375.319	48.81
375.53	140.97
375.74	69.29
375.951	114.34
376.161	48.81
376.372	136.87
376.582	79.53
376.793	95.91
377.003	63.15
377.214	30.38
377.424	104.11
377.635	32.43
377.845	13.99
378.055	54.95
378.266	9.9
378.476	100.01
378.686	71.34
378.897	57
379.107	128.68
379.317	65.19
379.528	40.62
379.738	79.53
379.948	-8.53
380.158	87.72
380.369	120.49
380.579	79.53
380.789	57
380.999	48.81
381.21	120.49
381.42	85.67
381.63	-35.16
381.84	165.54
382.05	89.77
382.261	40.62
382.471	46.76
382.681	1.71
382.891	26.28
383.101	91.82
383.311	65.19
383.521	36.52
383.731	54.95
383.941	79.53
384.151	-24.92
384.361	38.57
384.571	50.86
384.781	54.95
384.991	149.16
385.201	106.15
385.411	87.72
385.621	63.15
385.831	122.54
386.041	100.01
386.251	34.47
386.461	97.96
386.671	38.57
386.881	-29.01
387.091	40.62
387.301	177.83
387.511	54.95
387.72	32.43
387.93	143.02
388.14	-10.58
388.35	9.9
388.56	83.63
388.769	112.3
388.979	-6.49
389.189	24.23
389.399	46.76
389.609	106.15
389.818	16.04
390.028	32.43
390.238	83.63
390.447	65.19
390.657	120.49
390.867	20.14
391.076	-18.77
391.286	-2.39
391.496	79.53
391.705	5.8
391.915	104.11
392.125	73.39
392.334	48.81
392.544	161.45
392.753	100.01
392.963	79.53
393.172	91.82
393.382	50.86
393.591	116.39
393.801	69.29
394.01	114.34
394.22	128.68
394.429	89.77
394.639	87.72
394.848	81.58
395.058	132.78
395.267	87.72
395.477	126.63
395.686	73.39
395.895	138.92
396.105	157.35
396.314	97.96
396.524	100.01
396.733	95.91
396.942	54.95
397.152	104.11
397.361	120.49
397.57	100.01
397.78	263.85
397.989	97.96
398.198	186.02
398.407	169.64
398.617	95.91
398.826	87.72
399.035	120.49
399.244	118.44
399.453	89.77
399.663	140.97
399.872	73.39
400.081	104.11
400.29	179.88
400.499	95.91
400.708	204.46
400.917	122.54
401.127	140.97
401.336	116.39
401.545	173.74
401.754	138.92
401.963	108.2
402.172	97.96
402.381	192.17
402.59	79.53
402.799	169.64
403.008	120.49
403.217	153.26
403.426	194.22
403.635	104.11
403.844	224.94
404.053	136.87
404.262	124.58
404.471	198.31
404.68	128.68
404.888	163.5
405.097	163.5
405.306	136.87
405.515	237.22
405.724	181.93
405.933	177.83
406.142	224.94
406.35	329.38
406.559	192.17
406.768	130.73
406.977	210.6
407.185	226.98
407.394	216.74
407.603	79.53
407.812	247.46
408.02	218.79
408.229	179.88
408.438	280.23
408.646	220.84
408.855	204.46
409.064	304.81
409.272	276.13
409.481	308.9
409.69	274.09
409.898	259.75
410.107	347.81
410.315	315.05
410.524	366.25
410.733	325.29
410.941	374.44
411.15	349.86
411.358	448.16
411.567	409.25
411.775	452.26
411.984	349.86
412.192	401.06
412.401	392.87
412.609	550.56
412.818	491.17
413.026	497.32
413.234	624.29
413.443	476.84
413.651	554.66
413.86	542.37
414.068	663.2
414.276	753.31
414.485	718.5
414.693	761.5
414.901	734.88
415.11	734.88
415.318	704.16
415.526	736.93
415.734	755.36
415.943	829.09
416.151	886.43
416.359	894.62
416.567	900.76
416.776	945.82
416.984	1015.45
417.192	1005.21
417.4	1062.55
417.608	1070.75
417.817	1070.75
418.025	1173.14
418.233	1154.71
418.441	1156.76
418.649	1205.91
418.857	1328.79
419.065	1377.94
419.273	1367.7
419.481	1441.43
419.689	1584.79
419.897	1517.2
420.105	1513.11
420.313	1687.18
420.521	1681.04
420.729	1713.81
420.937	1744.53
421.145	1746.58
421.353	1889.93
421.561	1982.09
421.769	1926.8
421.977	2098.83
422.185	2045.58
422.393	2322.06
422.601	2297.48
422.809	2424.45
423.017	2397.83
423.224	2414.21
423.432	2453.13
423.64	2541.19
423.848	2848.38
424.056	2670.21
424.263	2932.35
424.471	2893.44
424.679	2948.73
424.887	3098.24
425.094	3225.21
425.302	3163.77
425.51	3417.72
425.718	3415.67
425.925	3589.75
426.133	3677.81
426.341	3718.77
426.548	4021.87
426.756	4134.51
426.964	4064.88
427.171	4245.1
427.379	4372.07
427.586	4458.09
427.794	4671.08
428.001	4742.75
428.209	5043.81
428.417	4904.54
428.624	5275.23
428.832	5299.8
429.039	5291.61
429.247	5156.44
429.454	5629.52
429.662	6166.09
429.869	5774.93
430.076	6229.58
430.284	5967.44
430.491	6127.18
430.699	6561.35
430.906	6575.69
431.114	6651.46
431.321	7018.05
431.528	7083.58
431.736	7454.26
431.943	7644.73
432.15	7628.34
432.358	7626.29
432.565	8095.28
432.772	8025.65
432.979	8459.82
433.187	8508.97
433.394	8762.92
433.601	9358.88
433.808	9352.73
434.016	9031.2
434.223	9721.37
434.43	10257.93
434.637	9897.49
434.844	10649.1
435.052	10819.08
435.259	10704.39
435.466	10974.72
435.673	10796.55
435.88	11359.74
436.087	11990.52
436.294	11884.02
436.501	11687.42
436.708	12008.95
436.915	12318.19
437.122	12873.19
437.329	12901.86
437.537	13280.74
437.743	13497.82
437.95	13383.13
438.157	14157.27
438.364	14345.68
438.571	14601.68
438.778	14552.52
438.985	16039.35
439.192	15283.65
439.399	15576.51
439.606	15279.55
439.813	16119.22
440.02	17298.85
440.227	16829.87
440.433	16899.5
440.64	17364.39
440.847	17323.43
441.054	17798.56
441.261	18668.94
441.467	18642.32
441.674	18810.25
441.881	19707.26
442.088	19402.11
442.294	19271.04
442.501	19801.47
442.708	20376.95
442.914	21071.21
443.121	21667.17
443.328	21280.1
443.534	22793.55
443.741	21982.56
443.948	21658.98
444.154	23752
444.361	23162.19
444.568	23334.21
444.774	23616.83
444.981	23881.02
445.187	24573.24
445.394	25351.46
445.6	25087.28
445.807	27477.26
446.013	26172.7
446.22	26967.31
446.426	27829.51
446.633	28011.78
446.839	29017.33
447.046	27997.44
447.252	29338.86
447.459	29611.24
447.665	29164.78
447.871	30287.07
448.078	31825.09
448.284	30319.84
448.491	31167.7
448.697	32345.28
448.903	32931
449.11	33033.39
449.316	32554.17
449.522	32994.48
449.728	33963.17
449.935	34178.21
450.141	34505.88
450.347	35237.01
450.553	33834.15
450.76	34333.85
450.966	35767.43
451.172	35353.74
451.378	36183.17
451.584	35144.85
451.791	36387.97
451.997	36023.43
452.203	36500.61
452.409	36742.27
452.615	36762.75
452.821	35589.26
453.027	35005.59
453.233	37026.93
453.44	35603.6
453.646	35896.45
453.852	36121.73
454.058	36654.2
454.264	35411.09
454.47	36418.69
454.676	35398.8
454.882	36609.15
455.088	33332.4
455.294	34055.33
455.5	34534.56
455.705	35081.36
455.911	33537.19
456.117	33090.74
456.323	32146.62
456.529	30631.13
456.735	32330.94
456.941	31212.75
457.147	30893.27
457.352	30065.89
457.558	30108.9
457.764	29813.99
457.97	29209.84
458.176	28194.04
458.381	28884.21
458.587	27243.79
458.793	27497.74
458.999	26041.63
459.204	28142.85
459.41	27004.17
459.616	25490.73
459.821	25027.88
460.027	25228.59
460.233	24519.99
460.438	23444.8
460.644	23893.31
460.85	22717.78
461.055	22134.1
461.261	22256.98
461.466	20469.11
461.672	20026.75
461.878	21439.84
462.083	20225.4
462.289	19352.96
462.494	19389.83
462.7	18832.78
462.905	17866.14
463.111	18699.66
463.316	18746.76
463.522	18412.95
463.727	18089.37
463.932	18312.6
464.138	17958.3
464.343	18273.68
464.549	17767.84
464.754	18079.13
464.959	18122.13
465.165	17993.11
465.37	17284.51
465.575	16725.42
465.781	17331.62
465.986	17771.93
466.191	16850.35
466.397	16459.18
466.602	15840.7
466.807	16473.52
467.012	16526.77
467.218	16356.79
467.423	15816.12
