Data from USB4F104151__155__14-44-38-399.txt Node

Date: Thu Mar 13 14:44:38 EDT 2025
User: louis
Spectrometer: USB4F10415
Trigger mode: 4
Integration Time (sec): 2.000000E-2
Scans to average: 1
Electric dark correction enabled: true
Nonlinearity correction enabled: false
Boxcar width: 0
XAxis mode: Wavelengths
Number of Pixels in Spectrum: 3648
>>>>>Begin Spectral Data<<<<<
178.204	-111.96
178.424	-111.96
178.644	-111.96
178.864	-126.29
179.084	-91.48
179.304	15.02
179.524	19.11
179.744	-13.65
179.964	84.65
180.184	-3.41
180.404	4.78
180.624	-38.23
180.844	21.16
181.064	-5.46
181.283	-30.04
181.503	-27.99
181.723	-25.94
181.943	-27.99
182.163	117.42
182.383	2.73
182.602	15.02
182.822	25.26
183.042	43.69
183.262	8.87
183.482	33.45
183.701	55.98
183.921	35.5
184.141	29.35
184.361	60.07
184.58	60.07
184.8	43.69
185.02	68.27
185.239	62.12
185.459	51.88
185.679	-13.65
185.898	21.16
186.118	76.46
186.338	43.69
186.557	53.93
186.777	51.88
186.997	-11.61
187.216	109.22
187.436	109.22
187.655	-13.65
187.875	21.16
188.095	51.88
188.314	66.22
188.534	76.46
188.753	-77.14
188.973	72.36
189.192	84.65
189.412	78.51
189.631	43.69
189.851	-27.99
190.07	92.84
190.29	-42.32
190.509	62.12
190.729	10.92
190.948	88.75
191.168	162.47
191.387	27.31
191.607	43.69
191.826	150.18
192.045	101.03
192.265	160.42
192.484	78.51
192.704	70.31
192.923	64.17
193.142	195.24
193.362	109.22
193.581	68.27
193.8	144.04
194.02	2.73
194.239	8.87
194.458	12.97
194.678	96.94
194.897	8.87
195.116	2.73
195.335	92.84
195.555	60.07
195.774	78.51
195.993	47.79
196.212	10.92
196.432	10.92
196.651	45.74
196.87	78.51
197.089	39.59
197.308	76.46
197.528	66.22
197.747	-19.8
197.966	49.83
198.185	45.74
198.404	-15.7
198.623	2.73
198.842	70.31
199.062	68.27
199.281	53.93
199.5	15.02
199.719	86.7
199.938	35.5
200.157	37.55
200.376	64.17
200.595	60.07
200.814	10.92
201.033	123.56
201.252	101.03
201.471	64.17
201.69	15.02
201.909	62.12
202.128	55.98
202.347	66.22
202.566	76.46
202.785	19.11
203.004	29.35
203.223	35.5
203.442	35.5
203.661	60.07
203.879	-1.37
204.098	103.08
204.317	-3.41
204.536	39.59
204.755	55.98
204.974	94.89
205.193	68.27
205.411	125.61
205.63	12.97
205.849	53.93
206.068	21.16
206.287	53.93
206.505	-15.7
206.724	94.89
206.943	70.31
207.162	76.46
207.381	19.11
207.599	45.74
207.818	31.4
208.037	58.03
208.255	60.07
208.474	94.89
208.693	-5.46
208.911	78.51
209.13	49.83
209.349	98.99
209.567	35.5
209.786	72.36
210.005	39.59
210.223	19.11
210.442	8.87
210.661	4.78
210.879	45.74
211.098	31.4
211.316	27.31
211.535	105.13
211.753	72.36
211.972	2.73
212.191	6.83
212.409	-1.37
212.628	76.46
212.846	37.55
213.065	70.31
213.283	58.03
213.502	60.07
213.72	43.69
213.938	70.31
214.157	6.83
214.375	66.22
214.594	53.93
214.812	129.7
215.031	35.5
215.249	68.27
215.467	12.97
215.686	35.5
215.904	68.27
216.122	-17.75
216.341	84.65
216.559	113.32
216.778	27.31
216.996	51.88
217.214	76.46
217.432	84.65
217.651	15.02
217.869	2.73
218.087	74.41
218.306	23.21
218.524	55.98
218.742	127.66
218.96	70.31
219.179	45.74
219.397	60.07
219.615	131.75
219.833	92.84
220.051	10.92
220.27	64.17
220.488	84.65
220.706	88.75
220.924	70.31
221.142	41.64
221.36	23.21
221.578	51.88
221.796	51.88
222.015	68.27
222.233	62.12
222.451	47.79
222.669	2.73
222.887	84.65
223.105	21.16
223.323	101.03
223.541	-42.32
223.759	92.84
223.977	53.93
224.195	47.79
224.413	51.88
224.631	62.12
224.849	90.79
225.067	92.84
225.285	60.07
225.503	23.21
225.721	60.07
225.939	76.46
226.157	41.64
226.375	166.57
226.592	43.69
226.81	-9.56
227.028	68.27
227.246	84.65
227.464	94.89
227.682	-11.61
227.9	10.92
228.117	58.03
228.335	127.66
228.553	21.16
228.771	45.74
228.989	37.55
229.206	37.55
229.424	15.02
229.642	62.12
229.86	43.69
230.077	74.41
230.295	45.74
230.513	43.69
230.731	92.84
230.948	109.22
231.166	86.7
231.384	2.73
231.601	-30.04
231.819	103.08
232.037	12.97
232.254	68.27
232.472	88.75
232.689	-3.41
232.907	-5.46
233.125	-1.37
233.342	-38.23
233.56	86.7
233.777	-44.37
233.995	37.55
234.213	60.07
234.43	25.26
234.648	-11.61
234.865	78.51
235.083	129.7
235.3	133.8
235.518	19.11
235.735	29.35
235.953	53.93
236.17	84.65
236.388	84.65
236.605	23.21
236.822	62.12
237.04	10.92
237.257	98.99
237.475	21.16
237.692	37.55
237.909	17.07
238.127	51.88
238.344	66.22
238.562	-13.65
238.779	10.92
238.996	12.97
239.214	-11.61
239.431	68.27
239.648	53.93
239.865	70.31
240.083	2.73
240.3	29.35
240.517	-54.61
240.735	-25.94
240.952	84.65
241.169	103.08
241.386	12.97
241.603	70.31
241.821	37.55
242.038	64.17
242.255	-13.65
242.472	37.55
242.689	92.84
242.907	133.8
243.124	43.69
243.341	72.36
243.558	47.79
243.775	-1.37
243.992	111.27
244.209	49.83
244.426	76.46
244.643	76.46
244.86	37.55
245.078	146.09
245.295	33.45
245.512	-13.65
245.729	43.69
245.946	27.31
246.163	2.73
246.38	35.5
246.597	-27.99
246.814	-46.42
247.031	29.35
247.248	2.73
247.464	17.07
247.681	119.46
247.898	84.65
248.115	43.69
248.332	60.07
248.549	35.5
248.766	64.17
248.983	115.37
249.2	51.88
249.417	109.22
249.633	29.35
249.85	43.69
250.067	-46.42
250.284	53.93
250.501	76.46
250.717	68.27
250.934	37.55
251.151	76.46
251.368	-3.41
251.585	10.92
251.801	29.35
252.018	76.46
252.235	39.59
252.451	-21.85
252.668	113.32
252.885	76.46
253.102	-13.65
253.318	51.88
253.535	19.11
253.752	-13.65
253.968	35.5
254.185	62.12
254.401	68.27
254.618	51.88
254.835	55.98
255.051	92.84
255.268	29.35
255.484	49.83
255.701	135.85
255.917	66.22
256.134	80.55
256.351	62.12
256.567	31.4
256.784	133.8
257	33.45
257.217	141.99
257.433	131.75
257.65	8.87
257.866	94.89
258.082	27.31
258.299	-11.61
258.515	37.55
258.732	105.13
258.948	35.5
259.165	33.45
259.381	35.5
259.597	66.22
259.814	35.5
260.03	-3.41
260.246	23.21
260.463	47.79
260.679	-3.41
260.895	47.79
261.112	107.18
261.328	-25.94
261.544	-34.13
261.761	152.23
261.977	37.55
262.193	55.98
262.409	84.65
262.626	92.84
262.842	103.08
263.058	25.26
263.274	51.88
263.49	76.46
263.707	103.08
263.923	51.88
264.139	-44.37
264.355	68.27
264.571	60.07
264.787	82.6
265.004	76.46
265.22	53.93
265.436	72.36
265.652	78.51
265.868	152.23
266.084	53.93
266.3	43.69
266.516	2.73
266.732	12.97
266.948	49.83
267.164	51.88
267.38	80.55
267.596	19.11
267.812	113.32
268.028	60.07
268.244	72.36
268.46	62.12
268.676	92.84
268.892	86.7
269.108	74.41
269.324	55.98
269.54	-11.61
269.756	94.89
269.972	80.55
270.188	17.07
270.403	2.73
270.619	84.65
270.835	96.94
271.051	154.28
271.267	45.74
271.483	35.5
271.698	88.75
271.914	35.5
272.13	64.17
272.346	101.03
272.562	37.55
272.777	74.41
272.993	27.31
273.209	10.92
273.425	23.21
273.64	35.5
273.856	6.83
274.072	31.4
274.287	-50.52
274.503	41.64
274.719	62.12
274.934	51.88
275.15	-11.61
275.366	62.12
275.581	27.31
275.797	31.4
276.012	37.55
276.228	68.27
276.444	0.68
276.659	68.27
276.875	21.16
277.09	37.55
277.306	45.74
277.521	92.84
277.737	35.5
277.952	152.23
278.168	86.7
278.383	39.59
278.599	39.59
278.814	35.5
279.03	47.79
279.245	76.46
279.461	72.36
279.676	64.17
279.892	8.87
280.107	33.45
280.322	80.55
280.538	84.65
280.753	37.55
280.969	70.31
281.184	78.51
281.399	127.66
281.615	4.78
281.83	2.73
282.045	72.36
282.26	12.97
282.476	76.46
282.691	60.07
282.906	-1.37
283.122	37.55
283.337	113.32
283.552	51.88
283.767	29.35
283.983	-1.37
284.198	84.65
284.413	19.11
284.628	-5.46
284.843	6.83
285.058	62.12
285.274	47.79
285.489	35.5
285.704	29.35
285.919	-21.85
286.134	43.69
286.349	19.11
286.564	45.74
286.779	103.08
286.995	103.08
287.21	10.92
287.425	70.31
287.64	23.21
287.855	117.42
288.07	-66.9
288.285	166.57
288.5	80.55
288.715	55.98
288.93	-5.46
289.145	23.21
289.36	113.32
289.575	-13.65
289.79	80.55
290.004	70.31
290.219	19.11
290.434	92.84
290.649	78.51
290.864	76.46
291.079	35.5
291.294	27.31
291.509	27.31
291.724	78.51
291.938	15.02
292.153	68.27
292.368	12.97
292.583	62.12
292.798	6.83
293.012	25.26
293.227	119.46
293.442	-46.42
293.657	21.16
293.871	103.08
294.086	78.51
294.301	86.7
294.516	72.36
294.73	92.84
294.945	43.69
295.16	19.11
295.374	117.42
295.589	72.36
295.804	-34.13
296.018	60.07
296.233	84.65
296.447	117.42
296.662	68.27
296.877	35.5
297.091	37.55
297.306	60.07
297.52	51.88
297.735	25.26
297.949	68.27
298.164	133.8
298.378	98.99
298.593	8.87
298.807	49.83
299.022	43.69
299.236	17.07
299.451	70.31
299.665	45.74
299.88	74.41
300.094	29.35
300.309	51.88
300.523	80.55
300.737	19.11
300.952	133.8
301.166	-5.46
301.381	103.08
301.595	51.88
301.809	53.93
302.024	101.03
302.238	-11.61
302.452	125.61
302.667	29.35
302.881	101.03
303.095	139.94
303.309	47.79
303.524	43.69
303.738	76.46
303.952	35.5
304.166	8.87
304.381	-17.75
304.595	156.33
304.809	6.83
305.023	68.27
305.237	35.5
305.452	72.36
305.666	35.5
305.88	60.07
306.094	68.27
306.308	90.79
306.522	39.59
306.736	78.51
306.95	103.08
307.164	84.65
307.379	88.75
307.593	103.08
307.807	62.12
308.021	80.55
308.235	125.61
308.449	60.07
308.663	62.12
308.877	113.32
309.091	35.5
309.305	72.36
309.519	35.5
309.733	117.42
309.947	12.97
310.161	29.35
310.374	105.13
310.588	88.75
310.802	31.4
311.016	109.22
311.23	-21.85
311.444	37.55
311.658	80.55
311.872	53.93
312.085	94.89
312.299	47.79
312.513	84.65
312.727	60.07
312.941	10.92
313.154	84.65
313.368	4.78
313.582	76.46
313.796	94.89
314.009	60.07
314.223	109.22
314.437	109.22
314.651	45.74
314.864	86.7
315.078	109.22
315.292	33.45
315.505	-42.32
315.719	35.5
315.933	53.93
316.146	68.27
316.36	-11.61
316.573	84.65
316.787	51.88
317.001	101.03
317.214	51.88
317.428	47.79
317.641	0.68
317.855	19.11
318.068	27.31
318.282	55.98
318.495	92.84
318.709	78.51
318.922	-30.04
319.136	35.5
319.349	92.84
319.563	62.12
319.776	19.11
319.99	-32.08
320.203	-3.41
320.417	68.27
320.63	129.7
320.843	105.13
321.057	80.55
321.27	8.87
321.483	76.46
321.697	127.66
321.91	68.27
322.124	19.11
322.337	74.41
322.55	45.74
322.763	4.78
322.977	62.12
323.19	15.02
323.403	80.55
323.617	53.93
323.83	101.03
324.043	94.89
324.256	21.16
324.469	53.93
324.683	53.93
324.896	12.97
325.109	-32.08
325.322	-30.04
325.535	53.93
325.748	131.75
325.962	19.11
326.175	68.27
326.388	-17.75
326.601	53.93
326.814	62.12
327.027	82.6
327.24	60.07
327.453	-19.8
327.666	55.98
327.879	51.88
328.092	70.31
328.305	66.22
328.518	4.78
328.731	96.94
328.944	64.17
329.157	135.85
329.37	80.55
329.583	82.6
329.796	103.08
330.009	76.46
330.222	82.6
330.435	72.36
330.648	10.92
330.861	109.22
331.073	53.93
331.286	92.84
331.499	68.27
331.712	-27.99
331.925	49.83
332.138	19.11
332.35	35.5
332.563	15.02
332.776	84.65
332.989	105.13
333.202	70.31
333.414	-7.51
333.627	43.69
333.84	2.73
334.053	101.03
334.265	39.59
334.478	117.42
334.691	64.17
334.903	45.74
335.116	10.92
335.329	29.35
335.541	74.41
335.754	86.7
335.966	86.7
336.179	2.73
336.392	78.51
336.604	43.69
336.817	66.22
337.029	123.56
337.242	121.51
337.454	27.31
337.667	2.73
337.88	117.42
338.092	60.07
338.305	55.98
338.517	6.83
338.729	70.31
338.942	78.51
339.154	55.98
339.367	27.31
339.579	88.75
339.792	-66.9
340.004	35.5
340.217	27.31
340.429	141.99
340.641	35.5
340.854	53.93
341.066	31.4
341.278	107.18
341.491	78.51
341.703	62.12
341.915	31.4
342.128	53.93
342.34	43.69
342.552	21.16
342.764	68.27
342.977	-42.32
343.189	96.94
343.401	43.69
343.613	27.31
343.826	78.51
344.038	64.17
344.25	109.22
344.462	29.35
344.674	92.84
344.886	60.07
345.099	66.22
345.311	84.65
345.523	101.03
345.735	37.55
345.947	27.31
346.159	47.79
346.371	25.26
346.583	64.17
346.795	80.55
347.007	94.89
347.219	31.4
347.431	27.31
347.643	80.55
347.855	-1.37
348.067	92.84
348.279	-46.42
348.491	78.51
348.703	6.83
348.915	62.12
349.127	29.35
349.339	64.17
349.551	6.83
349.763	70.31
349.975	107.18
350.187	109.22
350.399	96.94
350.61	19.11
350.822	-27.99
351.034	51.88
351.246	0.68
351.458	109.22
351.669	12.97
351.881	43.69
352.093	101.03
352.305	31.4
352.517	62.12
352.728	80.55
352.94	53.93
353.152	62.12
353.363	55.98
353.575	-5.46
353.787	148.14
353.999	96.94
354.21	150.18
354.422	31.4
354.633	-17.75
354.845	43.69
355.057	29.35
355.268	37.55
355.48	49.83
355.692	15.02
355.903	10.92
356.115	51.88
356.326	17.07
356.538	101.03
356.749	70.31
356.961	33.45
357.172	29.35
357.384	64.17
357.595	105.13
357.807	80.55
358.018	37.55
358.23	47.79
358.441	176.81
358.653	111.27
358.864	76.46
359.075	-50.52
359.287	47.79
359.498	174.76
359.709	-62.8
359.921	60.07
360.132	19.11
360.344	51.88
360.555	43.69
360.766	113.32
360.977	68.27
361.189	70.31
361.4	-30.04
361.611	62.12
361.823	64.17
362.034	-32.08
362.245	35.5
362.456	82.6
362.667	123.56
362.879	2.73
363.09	43.69
363.301	62.12
363.512	68.27
363.723	-21.85
363.935	66.22
364.146	117.42
364.357	84.65
364.568	27.31
364.779	0.68
364.99	43.69
365.201	109.22
365.412	43.69
365.623	-46.42
365.834	84.65
366.045	98.99
366.256	-34.13
366.467	6.83
366.678	86.7
366.889	-7.51
367.1	86.7
367.311	113.32
367.522	41.64
367.733	60.07
367.944	80.55
368.155	27.31
368.366	125.61
368.577	96.94
368.788	88.75
368.999	21.16
369.209	35.5
369.42	133.8
369.631	121.51
369.842	127.66
370.053	72.36
370.264	101.03
370.474	133.8
370.685	92.84
370.896	62.12
371.107	111.27
371.317	10.92
371.528	35.5
371.739	88.75
371.95	68.27
372.16	76.46
372.371	21.16
372.582	90.79
372.792	92.84
373.003	55.98
373.214	76.46
373.424	70.31
373.635	53.93
373.846	113.32
374.056	70.31
374.267	105.13
374.477	127.66
374.688	15.02
374.898	60.07
375.109	25.26
375.319	133.8
375.53	66.22
375.74	94.89
375.951	51.88
376.161	164.52
376.372	88.75
376.582	113.32
376.793	76.46
377.003	76.46
377.214	19.11
377.424	60.07
377.635	64.17
377.845	72.36
378.055	125.61
378.266	133.8
378.476	62.12
378.686	55.98
378.897	137.9
379.107	53.93
379.317	133.8
379.528	41.64
379.738	45.74
379.948	47.79
380.158	60.07
380.369	70.31
380.579	111.27
380.789	39.59
380.999	39.59
381.21	82.6
381.42	158.38
381.63	55.98
381.84	64.17
382.05	39.59
382.261	90.79
382.471	35.5
382.681	105.13
382.891	121.51
383.101	72.36
383.311	60.07
383.521	10.92
383.731	158.38
383.941	76.46
384.151	10.92
384.361	41.64
384.571	125.61
384.781	94.89
384.991	82.6
385.201	78.51
385.411	68.27
385.621	19.11
385.831	19.11
386.041	43.69
386.251	92.84
386.461	76.46
386.671	-21.85
386.881	101.03
387.091	127.66
387.301	19.11
387.511	47.79
387.72	68.27
387.93	62.12
388.14	39.59
388.35	90.79
388.56	86.7
388.769	55.98
388.979	60.07
389.189	88.75
389.399	92.84
389.609	6.83
389.818	84.65
390.028	150.18
390.238	29.35
390.447	53.93
390.657	-5.46
390.867	92.84
391.076	6.83
391.286	115.37
391.496	31.4
391.705	70.31
391.915	76.46
392.125	117.42
392.334	29.35
392.544	84.65
392.753	86.7
392.963	86.7
393.172	125.61
393.382	-11.61
393.591	113.32
393.801	92.84
394.01	135.85
394.22	76.46
394.429	137.9
394.639	111.27
394.848	135.85
395.058	55.98
395.267	78.51
395.477	74.41
395.686	51.88
395.895	141.99
396.105	158.38
396.314	84.65
396.524	88.75
396.733	96.94
396.942	150.18
397.152	113.32
397.361	154.28
397.57	125.61
397.78	103.08
397.989	96.94
398.198	150.18
398.407	111.27
398.617	84.65
398.826	109.22
399.035	133.8
399.244	88.75
399.453	141.99
399.663	152.23
399.872	117.42
400.081	150.18
400.29	150.18
400.499	84.65
400.708	72.36
400.917	96.94
401.127	123.56
401.336	113.32
401.545	113.32
401.754	109.22
401.963	133.8
402.172	82.6
402.381	150.18
402.59	150.18
402.799	103.08
403.008	119.46
403.217	144.04
403.426	166.57
403.635	154.28
403.844	92.84
404.053	96.94
404.262	199.34
404.471	199.34
404.68	176.81
404.888	137.9
405.097	121.51
405.306	203.43
405.515	178.86
405.724	199.34
405.933	117.42
406.142	170.66
406.35	199.34
406.559	111.27
406.768	129.7
406.977	258.73
407.185	80.55
407.394	199.34
407.603	203.43
407.812	176.81
408.02	199.34
408.229	223.91
408.438	158.38
408.646	191.14
408.855	211.62
409.064	182.95
409.272	256.68
409.481	207.53
409.69	225.96
409.898	273.06
410.107	277.16
410.315	289.45
410.524	254.63
410.733	316.07
410.941	314.02
411.15	309.93
411.358	248.49
411.567	395.94
411.775	324.26
411.984	275.11
412.192	400.04
412.401	400.04
412.609	379.56
412.818	506.53
413.026	428.71
413.234	420.52
413.443	438.95
413.651	395.94
413.86	488.1
414.068	559.78
414.276	631.46
414.485	514.72
414.693	539.3
414.901	602.79
415.11	553.63
415.318	551.59
415.526	625.31
415.734	699.04
415.943	576.16
416.151	633.5
416.359	672.42
416.567	707.23
416.776	662.18
416.984	774.81
417.192	793.25
417.4	764.57
417.608	740
417.817	922.27
418.025	961.18
418.233	1018.52
418.441	850.59
418.649	778.91
418.857	969.37
419.065	1061.53
419.273	971.42
419.481	1084.06
419.689	1108.63
419.897	1198.74
420.105	1170.07
420.313	1231.51
420.521	1264.28
420.729	1354.39
420.937	1274.52
421.145	1370.77
421.353	1438.36
421.561	1536.66
421.769	1565.33
421.977	1600.15
422.185	1553.04
422.393	1731.22
422.601	1823.37
422.809	1761.94
423.017	1673.87
423.224	1862.29
423.432	1938.06
423.64	2007.69
423.848	2132.62
424.056	2067.08
424.263	2222.73
424.471	2198.15
424.679	2400.9
424.887	2298.5
425.094	2472.58
425.302	2476.68
425.51	2611.84
425.718	2620.03
425.925	2617.99
426.133	2835.07
426.341	2949.76
426.548	3027.58
426.756	3029.63
426.964	3119.74
427.171	3289.72
427.379	3336.82
427.586	3371.64
427.794	3519.09
428.001	3719.79
428.209	3893.87
428.417	3791.47
428.624	4082.28
428.832	3951.21
429.039	3953.26
429.247	4006.51
429.454	4360.81
429.662	4635.24
429.869	4393.58
430.076	4581.99
430.284	4412.01
430.491	4708.96
430.699	4997.73
430.906	5050.97
431.114	5122.65
431.321	5263.96
431.528	5296.73
431.736	5644.88
431.943	5841.49
432.15	5687.89
432.358	5681.75
432.565	6150.73
432.772	6060.62
432.979	6470.22
433.187	6574.66
433.394	6677.06
433.601	6806.08
433.808	7131.71
434.016	6912.58
434.223	7318.07
434.43	7727.67
434.637	7526.97
434.844	7891.51
435.052	8098.35
435.259	8143.41
435.466	8210.99
435.673	8112.69
435.88	8653.35
436.087	8925.73
436.294	9194.01
436.501	8817.19
436.708	8958.5
436.915	9224.73
437.122	9751.06
437.329	9716.25
437.537	10037.78
437.743	10078.74
437.95	10168.85
438.157	10607.11
438.364	11080.19
438.571	10973.7
438.778	10949.12
438.985	12085.75
439.192	11430.4
439.399	11901.43
439.606	11571.71
439.813	12323.31
440.02	13105.63
440.227	12849.64
440.433	12728.81
440.64	13269.47
440.847	13144.55
441.054	13248.99
441.261	14346.7
441.467	14248.4
441.674	14485.97
441.881	14911.94
442.088	14766.54
442.294	14735.82
442.501	15071.68
442.708	15628.73
442.914	15976.89
443.121	16884.14
443.328	16085.43
443.534	17256.87
443.741	16812.46
443.948	16601.52
444.154	17789.34
444.361	17678.75
444.568	18041.24
444.774	17762.72
444.981	18155.93
445.187	18434.45
445.394	19274.12
445.6	19116.42
445.807	20916.59
446.013	20027.77
446.22	20652.4
446.426	21213.54
446.633	21498.21
446.839	22049.11
447.046	21391.72
447.252	22823.25
447.459	22575.44
447.665	22434.13
447.871	23361.86
448.078	24357.17
448.284	23228.74
448.491	24119.61
448.697	24793.39
448.903	25235.75
449.11	25461.03
449.316	25211.18
449.522	25397.54
449.728	26163.48
449.935	26269.98
450.141	26249.5
450.347	26972.43
450.553	26054.94
450.76	26325.27
450.966	27281.67
451.172	27138.32
451.378	27787.52
451.584	27083.02
451.791	27781.38
451.997	28027.13
452.203	28088.57
452.409	28299.51
452.615	28338.43
452.821	26861.84
453.027	26788.11
453.233	28303.61
453.44	27142.41
453.646	27814.15
453.852	27287.82
454.058	27896.06
454.264	27142.41
454.47	28225.79
454.676	27181.32
454.882	28180.73
455.088	25854.24
455.294	26235.16
455.5	26272.03
455.705	26607.89
455.911	25727.27
456.117	25438.5
456.323	25006.38
456.529	23652.67
456.735	24912.17
456.941	23896.38
457.147	23824.7
457.352	23015.76
457.558	22733.14
457.764	22960.46
457.97	22557.01
458.176	22081.88
458.381	21602.66
458.587	20732.27
458.793	20930.92
458.999	19714.43
459.204	21383.52
459.41	20562.29
459.616	19141
459.821	19325.32
460.027	19169.67
460.233	19003.78
460.438	17975.7
460.644	18250.13
460.85	17095.08
461.055	16961.96
461.261	16970.15
461.466	15651.26
461.672	15288.77
461.878	16505.26
462.083	15438.27
462.289	14985.67
462.494	14965.19
462.7	14264.78
462.905	13752.79
463.111	14223.83
463.316	14211.54
463.522	14051.8
463.727	13957.59
463.932	14166.48
464.138	13920.73
464.343	13976.02
464.549	13634.01
464.754	13957.59
464.959	13732.31
465.165	13617.63
465.37	13101.54
465.575	12913.13
465.781	13212.13
465.986	13390.3
466.191	12872.17
466.397	12638.7
466.602	12095.99
466.807	12546.54
467.012	12593.64
