Data from USB4F104151__118__14-43-53-850.txt Node

Date: Thu Mar 13 14:43:53 EDT 2025
User: louis
Spectrometer: USB4F10415
Trigger mode: 4
Integration Time (sec): 2.000000E-2
Scans to average: 1
Electric dark correction enabled: true
Nonlinearity correction enabled: false
Boxcar width: 0
XAxis mode: Wavelengths
Number of Pixels in Spectrum: 3648
>>>>>Begin Spectral Data<<<<<
178.204	-96.43
178.424	-96.43
178.644	-96.43
178.864	-161.96
179.084	-112.81
179.304	-22.7
179.524	14.17
179.744	-10.41
179.964	85.84
180.184	-51.37
180.404	-0.17
180.624	-34.99
180.844	3.93
181.064	-12.46
181.283	1.88
181.503	-10.41
181.723	36.69
181.943	-39.08
182.163	112.47
182.383	22.36
182.602	18.26
182.822	1.88
183.042	20.31
183.262	57.17
183.482	18.26
183.701	51.03
183.921	18.26
184.141	-22.7
184.361	59.22
184.58	14.17
184.8	-41.13
185.02	-20.65
185.239	67.41
185.459	59.22
185.679	51.03
185.898	-14.51
186.118	14.17
186.338	42.84
186.557	20.31
186.777	-51.37
186.997	-24.75
187.216	18.26
187.436	102.23
187.655	48.98
187.875	108.37
188.095	-4.27
188.314	32.6
188.534	57.17
188.753	-2.22
188.973	-22.7
189.192	112.47
189.412	63.32
189.631	69.46
189.851	-14.51
190.07	18.26
190.29	-10.41
190.509	-2.22
190.729	53.08
190.948	87.89
191.168	108.37
191.387	53.08
191.607	42.84
191.826	32.6
192.045	-16.55
192.265	18.26
192.484	-30.89
192.704	-22.7
192.923	-26.79
193.142	38.74
193.362	28.5
193.581	61.27
193.8	20.31
194.02	20.31
194.239	-45.23
194.458	-45.23
194.678	36.69
194.897	12.12
195.116	-2.22
195.335	26.45
195.555	-39.08
195.774	-8.36
195.993	-22.7
196.212	3.93
196.432	1.88
196.651	-22.7
196.87	34.64
197.089	36.69
197.308	18.26
197.528	-24.75
197.747	-10.41
197.966	59.22
198.185	-8.36
198.404	14.17
198.623	3.93
198.842	18.26
199.062	46.93
199.281	18.26
199.5	-39.08
199.719	18.26
199.938	18.26
200.157	10.07
200.376	-12.46
200.595	1.88
200.814	59.22
201.033	81.75
201.252	3.93
201.471	5.97
201.69	102.23
201.909	30.55
202.128	83.8
202.347	-8.36
202.566	12.12
202.785	-30.89
203.004	-49.32
203.223	69.46
203.442	22.36
203.661	-45.23
203.879	83.8
204.098	108.37
204.317	12.12
204.536	46.93
204.755	59.22
204.974	77.65
205.193	-22.7
205.411	102.23
205.63	-4.27
205.849	-53.42
206.068	14.17
206.287	-6.31
206.505	91.99
206.724	-10.41
206.943	-12.46
207.162	22.36
207.381	46.93
207.599	67.41
207.818	-51.37
208.037	42.84
208.255	67.41
208.474	3.93
208.693	20.31
208.911	34.64
209.13	-71.85
209.349	51.03
209.567	30.55
209.786	26.45
210.005	30.55
210.223	-47.27
210.442	10.07
210.661	79.7
210.879	55.12
211.098	-2.22
211.316	53.08
211.535	-14.51
211.753	-14.51
211.972	16.21
212.191	-53.42
212.409	26.45
212.628	38.74
212.846	38.74
213.065	42.84
213.283	53.08
213.502	-0.17
213.72	79.7
213.938	63.32
214.157	67.41
214.375	69.46
214.594	44.88
214.812	91.99
215.031	85.84
215.249	24.4
215.467	-30.89
215.686	5.97
215.904	91.99
216.122	-30.89
216.341	63.32
216.559	-28.84
216.778	91.99
216.996	51.03
217.214	-43.18
217.432	1.88
217.651	20.31
217.869	10.07
218.087	34.64
218.306	-4.27
218.524	34.64
218.742	24.4
218.96	26.45
219.179	-2.22
219.397	118.61
219.615	79.7
219.833	51.03
220.051	26.45
220.27	18.26
220.488	73.56
220.706	69.46
220.924	44.88
221.142	12.12
221.36	-22.7
221.578	73.56
221.796	-84.14
222.015	18.26
222.233	34.64
222.451	-6.31
222.669	-32.94
222.887	1.88
223.105	20.31
223.323	96.08
223.541	-47.27
223.759	63.32
223.977	55.12
224.195	104.28
224.413	34.64
224.631	12.12
224.849	-2.22
225.067	149.33
225.285	30.55
225.503	44.88
225.721	-4.27
225.939	-6.31
226.157	-34.99
226.375	145.24
226.592	-37.03
226.81	59.22
227.028	34.64
227.246	108.37
227.464	-4.27
227.682	26.45
227.9	26.45
228.117	83.8
228.335	-22.7
228.553	1.88
228.771	-22.7
228.989	51.03
229.206	3.93
229.424	55.12
229.642	48.98
229.86	-30.89
230.077	1.88
230.295	28.5
230.513	10.07
230.731	85.84
230.948	67.41
231.166	34.64
231.384	63.32
231.601	-12.46
231.819	104.28
232.037	3.93
232.254	-39.08
232.472	-12.46
232.689	-34.99
232.907	18.26
233.125	-18.6
233.342	-30.89
233.56	-6.31
233.777	-2.22
233.995	-55.47
234.213	96.08
234.43	-51.37
234.648	-6.31
234.865	28.5
235.083	73.56
235.3	120.66
235.518	1.88
235.735	40.79
235.953	14.17
236.17	20.31
236.388	38.74
236.605	46.93
236.822	83.8
237.04	44.88
237.257	8.02
237.475	46.93
237.692	63.32
237.909	30.55
238.127	-2.22
238.344	18.26
238.562	5.97
238.779	-2.22
238.996	-28.84
239.214	-2.22
239.431	55.12
239.648	71.51
239.865	69.46
240.083	102.23
240.3	20.31
240.517	26.45
240.735	42.84
240.952	18.26
241.169	22.36
241.386	46.93
241.603	5.97
241.821	-53.42
242.038	26.45
242.255	65.36
242.472	46.93
242.689	5.97
242.907	59.22
243.124	18.26
243.341	-47.27
243.558	44.88
243.775	-10.41
243.992	-88.23
244.209	65.36
244.426	67.41
244.643	67.41
244.86	-20.65
245.078	75.6
245.295	-6.31
245.512	83.8
245.729	5.97
245.946	-26.79
246.163	32.6
246.38	26.45
246.597	-34.99
246.814	14.17
247.031	-14.51
247.248	-34.99
247.464	108.37
247.681	16.21
247.898	12.12
248.115	34.64
248.332	-61.61
248.549	28.5
248.766	94.04
248.983	100.18
249.2	10.07
249.417	-10.41
249.633	38.74
249.85	83.8
250.067	36.69
250.284	-26.79
250.501	59.22
250.717	53.08
250.934	42.84
251.151	100.18
251.368	-18.6
251.585	22.36
251.801	48.98
252.018	10.07
252.235	73.56
252.451	22.36
252.668	-6.31
252.885	79.7
253.102	48.98
253.318	26.45
253.535	44.88
253.752	30.55
253.968	24.4
254.185	8.02
254.401	-10.41
254.618	-10.41
254.835	-6.31
255.051	75.6
255.268	-12.46
255.484	100.18
255.701	59.22
255.917	108.37
256.134	-26.79
256.351	51.03
256.567	-32.94
256.784	67.41
257	-14.51
257.217	83.8
257.433	48.98
257.65	51.03
257.866	91.99
258.082	65.36
258.299	3.93
258.515	67.41
258.732	3.93
258.948	-0.17
259.165	-55.47
259.381	1.88
259.597	-6.31
259.814	57.17
260.03	-2.22
260.246	10.07
260.463	-37.03
260.679	67.41
260.895	-20.65
261.112	71.51
261.328	-51.37
261.544	-63.66
261.761	124.76
261.977	3.93
262.193	10.07
262.409	26.45
262.626	-55.47
262.842	108.37
263.058	16.21
263.274	-14.51
263.49	22.36
263.707	83.8
263.923	12.12
264.139	-45.23
264.355	79.7
264.571	77.65
264.787	16.21
265.004	59.22
265.22	-51.37
265.436	8.02
265.652	28.5
265.868	18.26
266.084	26.45
266.3	-2.22
266.516	-53.42
266.732	85.84
266.948	36.69
267.164	44.88
267.38	116.56
267.596	55.12
267.812	153.43
268.028	44.88
268.244	14.17
268.46	-20.65
268.676	18.26
268.892	34.64
269.108	-49.32
269.324	-2.22
269.54	42.84
269.756	79.7
269.972	46.93
270.188	53.08
270.403	-63.66
270.619	3.93
270.835	53.08
271.051	-22.7
271.267	-20.65
271.483	-20.65
271.698	30.55
271.914	14.17
272.13	55.12
272.346	18.26
272.562	-14.51
272.777	12.12
272.993	10.07
273.209	-14.51
273.425	18.26
273.64	10.07
273.856	20.31
274.072	-86.19
274.287	34.64
274.503	53.08
274.719	22.36
274.934	16.21
275.15	22.36
275.366	-37.03
275.581	18.26
275.797	12.12
276.012	1.88
276.228	-14.51
276.444	34.64
276.659	85.84
276.875	28.5
277.09	28.5
277.306	40.79
277.521	48.98
277.737	14.17
277.952	8.02
278.168	38.74
278.383	53.08
278.599	10.07
278.814	10.07
279.03	20.31
279.245	104.28
279.461	61.27
279.676	61.27
279.892	3.93
280.107	-10.41
280.322	26.45
280.538	118.61
280.753	-10.41
280.969	22.36
281.184	36.69
281.399	-30.89
281.615	-12.46
281.83	59.22
282.045	-4.27
282.26	10.07
282.476	44.88
282.691	22.36
282.906	-14.51
283.122	24.4
283.337	81.75
283.552	-34.99
283.767	18.26
283.983	57.17
284.198	-30.89
284.413	30.55
284.628	12.12
284.843	83.8
285.058	18.26
285.274	16.21
285.489	59.22
285.704	51.03
285.919	-24.75
286.134	18.26
286.349	77.65
286.564	1.88
286.779	57.17
286.995	40.79
287.21	20.31
287.425	46.93
287.64	-2.22
287.855	5.97
288.07	-6.31
288.285	24.4
288.5	24.4
288.715	59.22
288.93	26.45
289.145	51.03
289.36	-6.31
289.575	44.88
289.79	-43.18
290.004	-14.51
290.219	75.6
290.434	44.88
290.649	3.93
290.864	-4.27
291.079	34.64
291.294	59.22
291.509	59.22
291.724	26.45
291.938	38.74
292.153	28.5
292.368	-28.84
292.583	55.12
292.798	22.36
293.012	12.12
293.227	1.88
293.442	12.12
293.657	77.65
293.871	59.22
294.086	5.97
294.301	85.84
294.516	59.22
294.73	1.88
294.945	-6.31
295.16	-80.04
295.374	46.93
295.589	51.03
295.804	63.32
296.018	67.41
296.233	12.12
296.447	67.41
296.662	30.55
296.877	77.65
297.091	3.93
297.306	10.07
297.52	14.17
297.735	1.88
297.949	-10.41
298.164	40.79
298.378	-61.61
298.593	20.31
298.807	38.74
299.022	12.12
299.236	61.27
299.451	-41.13
299.665	59.22
299.88	75.6
300.094	5.97
300.309	14.17
300.523	-4.27
300.737	5.97
300.952	-2.22
301.166	32.6
301.381	18.26
301.595	-2.22
301.809	20.31
302.024	20.31
302.238	10.07
302.452	16.21
302.667	-4.27
302.881	-30.89
303.095	12.12
303.309	34.64
303.524	-49.32
303.738	48.98
303.952	42.84
304.166	96.08
304.381	32.6
304.595	106.32
304.809	10.07
305.023	77.65
305.237	34.64
305.452	38.74
305.666	91.99
305.88	34.64
306.094	118.61
306.308	10.07
306.522	34.64
306.736	-53.42
306.95	24.4
307.164	55.12
307.379	10.07
307.593	51.03
307.807	-0.17
308.021	26.45
308.235	16.21
308.449	-86.19
308.663	3.93
308.877	145.24
309.091	-8.36
309.305	87.89
309.519	-61.61
309.733	3.93
309.947	-0.17
310.161	30.55
310.374	77.65
310.588	91.99
310.802	-30.89
311.016	44.88
311.23	94.04
311.444	-6.31
311.658	-61.61
311.872	-14.51
312.085	69.46
312.299	106.32
312.513	87.89
312.727	53.08
312.941	-22.7
313.154	46.93
313.368	-34.99
313.582	46.93
313.796	94.04
314.009	51.03
314.223	112.47
314.437	61.27
314.651	20.31
314.864	46.93
315.078	8.02
315.292	-6.31
315.505	-14.51
315.719	20.31
315.933	-0.17
316.146	42.84
316.36	1.88
316.573	46.93
316.787	-16.55
317.001	-26.79
317.214	-6.31
317.428	85.84
317.641	42.84
317.855	22.36
318.068	30.55
318.282	42.84
318.495	83.8
318.709	53.08
318.922	-2.22
319.136	85.84
319.349	55.12
319.563	10.07
319.776	20.31
319.99	36.69
320.203	55.12
320.417	63.32
320.63	42.84
320.843	102.23
321.057	42.84
321.27	44.88
321.483	-20.65
321.697	55.12
321.91	-6.31
322.124	71.51
322.337	-22.7
322.55	22.36
322.763	46.93
322.977	-34.99
323.19	10.07
323.403	65.36
323.617	42.84
323.83	61.27
324.043	-22.7
324.256	42.84
324.469	-26.79
324.683	51.03
324.896	51.03
325.109	53.08
325.322	48.98
325.535	18.26
325.748	18.26
325.962	42.84
326.175	24.4
326.388	22.36
326.601	42.84
326.814	-0.17
327.027	18.26
327.24	89.94
327.453	18.26
327.666	26.45
327.879	34.64
328.092	32.6
328.305	-12.46
328.518	51.03
328.731	18.26
328.944	-2.22
329.157	79.7
329.37	-0.17
329.583	83.8
329.796	91.99
330.009	18.26
330.222	53.08
330.435	28.5
330.648	-2.22
330.861	116.56
331.073	59.22
331.286	59.22
331.499	32.6
331.712	-18.6
331.925	20.31
332.138	18.26
332.35	85.84
332.563	32.6
332.776	96.08
332.989	-80.04
333.202	-14.51
333.414	-20.65
333.627	8.02
333.84	5.97
334.053	40.79
334.265	26.45
334.478	28.5
334.691	-24.75
334.903	46.93
335.116	-30.89
335.329	69.46
335.541	20.31
335.754	87.89
335.966	16.21
336.179	5.97
336.392	-80.04
336.604	-18.6
336.817	44.88
337.029	32.6
337.242	5.97
337.454	-2.22
337.667	46.93
337.88	24.4
338.092	53.08
338.305	118.61
338.517	-20.65
338.729	36.69
338.942	-55.47
339.154	51.03
339.367	-8.36
339.579	-2.22
339.792	46.93
340.004	116.56
340.217	20.31
340.429	75.6
340.641	30.55
340.854	28.5
341.066	46.93
341.278	85.84
341.491	61.27
341.703	75.6
341.915	-30.89
342.128	63.32
342.34	-39.08
342.552	-2.22
342.764	22.36
342.977	118.61
343.189	28.5
343.401	69.46
343.613	-2.22
343.826	46.93
344.038	14.17
344.25	12.12
344.462	-10.41
344.674	59.22
344.886	30.55
345.099	94.04
345.311	102.23
345.523	-77.99
345.735	10.07
345.947	77.65
346.159	10.07
346.371	130.9
346.583	83.8
346.795	77.65
347.007	22.36
347.219	10.07
347.431	-22.7
347.643	10.07
347.855	-20.65
348.067	116.56
348.279	-10.41
348.491	14.17
348.703	3.93
348.915	36.69
349.127	12.12
349.339	-2.22
349.551	-18.6
349.763	63.32
349.975	20.31
350.187	-8.36
350.399	100.18
350.61	-18.6
350.822	-32.94
351.034	18.26
351.246	20.31
351.458	42.84
351.669	46.93
351.881	83.8
352.093	14.17
352.305	18.26
352.517	34.64
352.728	81.75
352.94	69.46
353.152	-22.7
353.363	-10.41
353.575	51.03
353.787	100.18
353.999	1.88
354.21	110.42
354.422	14.17
354.633	3.93
354.845	48.98
355.057	61.27
355.268	1.88
355.48	83.8
355.692	18.26
355.903	-4.27
356.115	32.6
356.326	36.69
356.538	61.27
356.749	22.36
356.961	59.22
357.172	-10.41
357.384	12.12
357.595	59.22
357.807	-102.57
358.018	-6.31
358.23	34.64
358.441	34.64
358.653	108.37
358.864	61.27
359.075	51.03
359.287	34.64
359.498	61.27
359.709	51.03
359.921	69.46
360.132	55.12
360.344	85.84
360.555	-14.51
360.766	28.5
360.977	10.07
361.189	106.32
361.4	75.6
361.611	36.69
361.823	32.6
362.034	69.46
362.245	16.21
362.456	124.76
362.667	16.21
362.879	-2.22
363.09	30.55
363.301	59.22
363.512	26.45
363.723	30.55
363.935	-26.79
364.146	-47.27
364.357	-45.23
364.568	110.42
364.779	1.88
364.99	44.88
365.201	-6.31
365.412	1.88
365.623	-2.22
365.834	5.97
366.045	12.12
366.256	87.89
366.467	61.27
366.678	30.55
366.889	5.97
367.1	38.74
367.311	26.45
367.522	44.88
367.733	67.41
367.944	12.12
368.155	28.5
368.366	36.69
368.577	30.55
368.788	44.88
368.999	12.12
369.209	100.18
369.42	106.32
369.631	143.19
369.842	20.31
370.053	-12.46
370.264	102.23
370.474	14.17
370.685	69.46
370.896	83.8
371.107	75.6
371.317	51.03
371.528	51.03
371.739	75.6
371.95	3.93
372.16	126.8
372.371	5.97
372.582	42.84
372.792	61.27
373.003	79.7
373.214	-6.31
373.424	42.84
373.635	26.45
373.846	59.22
374.056	12.12
374.267	46.93
374.477	55.12
374.688	42.84
374.898	48.98
375.109	24.4
375.319	59.22
375.53	100.18
375.74	44.88
375.951	20.31
376.161	55.12
376.372	75.6
376.582	26.45
376.793	59.22
377.003	85.84
377.214	59.22
377.424	75.6
377.635	53.08
377.845	55.12
378.055	73.56
378.266	1.88
378.476	61.27
378.686	61.27
378.897	-14.51
379.107	44.88
379.317	42.84
379.528	14.17
379.738	38.74
379.948	61.27
380.158	67.41
380.369	8.02
380.579	16.21
380.789	38.74
380.999	30.55
381.21	71.51
381.42	26.45
381.63	3.93
381.84	46.93
382.05	-18.6
382.261	42.84
382.471	55.12
382.681	26.45
382.891	22.36
383.101	34.64
383.311	30.55
383.521	20.31
383.731	-20.65
383.941	5.97
384.151	51.03
384.361	57.17
384.571	34.64
384.781	16.21
384.991	128.85
385.201	55.12
385.411	108.37
385.621	67.41
385.831	3.93
386.041	42.84
386.251	32.6
386.461	32.6
386.671	83.8
386.881	18.26
387.091	-69.8
387.301	77.65
387.511	18.26
387.72	34.64
387.93	30.55
388.14	-18.6
388.35	-2.22
388.56	32.6
388.769	153.43
388.979	22.36
389.189	36.69
389.399	65.36
389.609	55.12
389.818	100.18
390.028	28.5
390.238	69.46
390.447	59.22
390.657	124.76
390.867	26.45
391.076	26.45
391.286	18.26
391.496	12.12
391.705	91.99
391.915	75.6
392.125	44.88
392.334	108.37
392.544	46.93
392.753	44.88
392.963	-39.08
393.172	1.88
393.382	122.71
393.591	149.33
393.801	28.5
394.01	3.93
394.22	59.22
394.429	55.12
394.639	18.26
394.848	16.21
395.058	128.85
395.267	30.55
395.477	38.74
395.686	55.12
395.895	110.42
396.105	96.08
396.314	30.55
396.524	10.07
396.733	67.41
396.942	30.55
397.152	128.85
397.361	233.3
397.57	-6.31
397.78	36.69
397.989	165.71
398.198	110.42
398.407	61.27
398.617	130.9
398.826	12.12
399.035	71.51
399.244	141.14
399.453	10.07
399.663	61.27
399.872	151.38
400.081	124.76
400.29	59.22
400.499	102.23
400.708	120.66
400.917	77.65
401.127	44.88
401.336	106.32
401.545	157.52
401.754	91.99
401.963	108.37
402.172	-2.22
402.381	30.55
402.59	48.98
402.799	18.26
403.008	102.23
403.217	26.45
403.426	132.95
403.635	100.18
403.844	214.87
404.053	135
404.262	26.45
404.471	132.95
404.68	143.19
404.888	124.76
405.097	102.23
405.306	132.95
405.515	132.95
405.724	67.41
405.933	75.6
406.142	135
406.35	126.8
406.559	104.28
406.768	85.84
406.977	132.95
407.185	157.52
407.394	137.04
407.603	102.23
407.812	192.34
408.02	243.54
408.229	175.95
408.438	173.91
408.646	108.37
408.855	190.29
409.064	173.91
409.272	198.48
409.481	184.15
409.69	196.43
409.898	141.14
410.107	173.91
410.315	161.62
410.524	237.39
410.733	284.5
410.941	284.5
411.15	223.06
411.358	270.16
411.567	206.67
411.775	251.73
411.984	261.97
412.192	304.98
412.401	317.26
412.609	434
412.818	337.74
413.026	337.74
413.234	403.28
413.443	345.94
413.651	321.36
413.86	407.38
414.068	460.62
414.276	405.33
414.485	370.51
414.693	421.71
414.901	577.36
415.11	427.85
415.318	448.33
415.526	513.87
415.734	522.06
415.943	558.92
416.151	616.27
416.359	483.15
416.567	528.21
416.776	610.12
416.984	642.89
417.192	630.6
417.4	632.65
417.608	634.7
417.817	661.32
418.025	667.47
418.233	757.58
418.441	657.23
418.649	749.39
418.857	786.25
419.065	902.98
419.273	913.22
419.481	888.65
419.689	921.42
419.897	960.33
420.105	1009.48
420.313	1042.25
420.521	1079.11
420.729	1111.88
420.937	1161.03
421.145	1052.49
421.353	1265.47
421.561	1337.15
421.769	1310.53
421.977	1298.24
422.185	1333.06
422.393	1386.3
422.601	1482.56
422.809	1492.8
423.017	1500.99
423.224	1552.19
423.432	1623.87
423.64	1691.45
423.848	1861.43
424.056	1656.64
424.263	1816.38
424.471	1896.25
424.679	1988.41
424.887	1976.12
425.094	1972.02
425.302	2074.42
425.51	2090.81
425.718	2221.88
425.925	2215.73
426.133	2373.43
426.341	2484.02
426.548	2547.5
426.756	2524.97
426.964	2545.45
427.171	2729.77
427.379	2774.83
427.586	2948.9
427.794	2916.14
428.001	3018.54
428.209	3223.33
428.417	3041.06
428.624	3405.6
428.832	3209
429.039	3254.05
429.247	3258.15
429.454	3608.35
429.662	3962.65
429.869	3524.38
430.076	3983.13
430.284	3823.39
430.491	3841.82
430.699	4151.06
430.906	4206.36
431.114	4171.54
431.321	4474.64
431.528	4511.5
431.736	4790.03
431.943	4998.92
432.15	4820.75
432.358	4941.58
432.565	5158.66
432.772	5037.83
432.979	5402.37
433.187	5609.22
433.394	5590.78
433.601	5875.45
433.808	5953.27
434.016	5893.88
434.223	5883.64
434.43	6444.79
434.637	6463.22
434.844	6782.7
435.052	6825.71
435.259	6735.6
435.466	6926.06
435.673	6819.57
435.88	7374.56
436.087	7560.93
436.294	7522.02
436.501	7560.93
436.708	7679.71
436.915	7956.19
437.122	8185.56
437.329	8224.47
437.537	8279.77
437.743	8627.92
437.95	8554.19
438.157	8890.06
438.364	9070.28
438.571	9158.35
438.778	9424.58
438.985	10028.73
439.192	9776.83
439.399	10065.6
439.606	9940.67
439.813	10337.98
440.02	11052.72
440.227	10835.63
440.433	10479.29
440.64	11071.15
440.847	10774.19
441.054	11099.82
441.261	11835.04
441.467	11822.75
441.674	11873.95
441.881	12453.53
442.088	12387.99
442.294	12238.49
442.501	12379.8
442.708	12680.85
442.914	13448.84
443.121	13866.63
443.328	13651.59
443.534	14689.91
443.741	14096
443.948	13801.09
444.154	15066.74
444.361	15025.78
444.568	14849.65
444.774	14986.86
444.981	15040.11
445.187	15521.38
445.394	16160.35
445.6	15814.24
445.807	17565.26
446.013	16815.7
446.22	16991.83
446.426	17589.83
446.633	17884.74
446.839	18437.69
447.046	17505.87
447.252	18753.08
447.459	18802.23
447.665	18712.12
447.871	19510.83
448.078	20309.54
448.284	19351.09
448.491	19973.67
448.697	20575.77
448.903	20848.15
449.11	21063.19
449.316	20870.68
449.522	21192.21
449.728	21751.31
449.935	21739.02
450.141	21655.05
450.347	22420.99
450.553	21923.33
450.76	22273.54
450.966	22552.06
451.172	22359.55
451.378	23182.84
451.584	22726.14
451.791	23272.95
451.997	23281.14
452.203	23686.64
452.409	23684.59
452.615	23346.67
452.821	22578.68
453.027	22320.64
453.233	23727.6
453.44	22449.66
453.646	22832.63
453.852	22801.91
454.058	23342.58
454.264	22490.62
454.47	23113.2
454.676	22560.25
454.882	23236.08
455.088	21466.64
455.294	21620.24
455.5	22101.51
455.705	22590.97
455.911	21212.69
456.117	21181.97
456.323	20860.44
456.529	19545.64
456.735	20551.2
456.941	20131.36
457.147	19500.59
457.352	18994.74
457.558	18908.72
457.764	19064.37
457.97	18693.69
458.176	18015.81
458.381	18124.35
458.587	17405.52
458.793	17348.17
458.999	16461.4
459.204	17614.41
459.41	17133.14
459.616	16004.71
459.821	15887.97
460.027	16139.87
460.233	15672.93
460.438	14968.43
460.644	15031.92
460.85	14395
461.055	14016.13
461.261	14255.74
461.466	13297.29
461.672	12621.46
461.878	13405.83
462.083	12717.72
462.289	12517.01
462.494	12373.66
462.7	11724.45
462.905	11427.49
463.111	11857.57
463.316	11789.99
463.522	11513.51
463.727	11533.99
463.932	11605.67
464.138	11712.16
464.343	11626.15
464.549	11265.71
464.754	11611.81
464.959	11474.6
465.165	11445.93
465.37	10735.28
465.575	10641.07
465.781	11167.4
465.986	11267.75
466.191	10737.33
466.397	10610.36
466.602	9875.13
466.807	10448.57
467.012	10307.26
467.218	10315.45
467.423	10127.03
467.628	10159.8
