Data from USB4F104151__260__14-45-59-600.txt Node

Date: Thu Mar 13 14:45:59 EDT 2025
User: louis
Spectrometer: USB4F10415
Trigger mode: 4
Integration Time (sec): 2.000000E-2
Scans to average: 1
Electric dark correction enabled: true
Nonlinearity correction enabled: false
Boxcar width: 0
XAxis mode: Wavelengths
Number of Pixels in Spectrum: 3648
>>>>>Begin Spectral Data<<<<<
178.204	-137.04
178.424	-137.04
178.644	-137.04
178.864	-149.33
179.084	-71.51
179.304	-1.88
179.524	6.31
179.744	26.79
179.964	-5.97
180.184	37.03
180.404	-28.5
180.624	-20.31
180.844	-1.88
181.064	65.71
181.283	-42.84
181.503	-5.97
181.723	-28.5
181.943	18.6
182.163	77.99
182.383	10.41
182.602	43.18
182.822	65.71
183.042	34.99
183.262	16.55
183.482	80.04
183.701	-100.18
183.921	20.65
184.141	45.23
184.361	-20.31
184.58	-14.17
184.8	12.46
185.02	-12.12
185.239	133.29
185.459	22.7
185.679	6.31
185.898	30.89
186.118	80.04
186.338	67.75
186.557	63.66
186.777	18.6
186.997	86.19
187.216	37.03
187.436	75.95
187.655	4.27
187.875	47.27
188.095	4.27
188.314	69.8
188.534	20.65
188.753	28.84
188.973	45.23
189.192	84.14
189.412	20.65
189.631	69.8
189.851	18.6
190.07	104.62
190.29	92.33
190.509	24.75
190.729	-3.93
190.948	102.57
191.168	73.9
191.387	59.56
191.607	45.23
191.826	-22.36
192.045	47.27
192.265	26.79
192.484	67.75
192.704	71.85
192.923	26.79
193.142	69.8
193.362	4.27
193.581	26.79
193.8	92.33
194.02	71.85
194.239	2.22
194.458	51.37
194.678	47.27
194.897	26.79
195.116	10.41
195.335	4.27
195.555	32.94
195.774	34.99
195.993	-12.12
196.212	-8.02
196.432	55.47
196.651	22.7
196.87	49.32
197.089	26.79
197.308	0.17
197.528	106.67
197.747	22.7
197.966	-18.26
198.185	84.14
198.404	63.66
198.623	16.55
198.842	30.89
199.062	118.95
199.281	57.51
199.5	-14.17
199.719	65.71
199.938	112.81
200.157	37.03
200.376	-5.97
200.595	-1.88
200.814	92.33
201.033	12.46
201.252	116.9
201.471	-16.21
201.69	53.42
201.909	10.41
202.128	47.27
202.347	71.85
202.566	43.18
202.785	-34.64
203.004	14.51
203.223	69.8
203.442	77.99
203.661	-10.07
203.879	45.23
204.098	75.95
204.317	-55.12
204.536	100.52
204.755	-1.88
204.974	77.99
205.193	-1.88
205.411	151.72
205.63	34.99
205.849	10.41
206.068	-48.98
206.287	86.19
206.505	88.23
206.724	110.76
206.943	12.46
207.162	108.71
207.381	4.27
207.599	49.32
207.818	22.7
208.037	102.57
208.255	2.22
208.474	53.42
208.693	34.99
208.911	-30.55
209.13	69.8
209.349	45.23
209.567	47.27
209.786	41.13
210.005	6.31
210.223	100.52
210.442	59.56
210.661	12.46
210.879	-30.55
211.098	-5.97
211.316	34.99
211.535	118.95
211.753	4.27
211.972	51.37
212.191	-48.98
212.409	2.22
212.628	45.23
212.846	20.65
213.065	82.09
213.283	75.95
213.502	106.67
213.72	-51.03
213.938	-55.12
214.157	2.22
214.375	59.56
214.594	43.18
214.812	108.71
215.031	34.99
215.249	69.8
215.467	53.42
215.686	34.99
215.904	45.23
216.122	28.84
216.341	75.95
216.559	28.84
216.778	65.71
216.996	75.95
217.214	67.75
217.432	32.94
217.651	16.55
217.869	51.37
218.087	12.46
218.306	53.42
218.524	2.22
218.742	-61.27
218.96	20.65
219.179	-10.07
219.397	-1.88
219.615	37.03
219.833	88.23
220.051	10.41
220.27	86.19
220.488	61.61
220.706	43.18
220.924	-14.17
221.142	18.6
221.36	39.08
221.578	34.99
221.796	-30.55
222.015	51.37
222.233	43.18
222.451	86.19
222.669	-46.93
222.887	51.37
223.105	37.03
223.323	43.18
223.541	6.31
223.759	16.55
223.977	-26.45
224.195	12.46
224.413	96.43
224.631	12.46
224.849	84.14
225.067	57.51
225.285	-5.97
225.503	53.42
225.721	-38.74
225.939	96.43
226.157	49.32
226.375	143.53
226.592	55.47
226.81	94.38
227.028	67.75
227.246	108.71
227.464	-5.97
227.682	12.46
227.9	67.75
228.117	110.76
228.335	-46.93
228.553	82.09
228.771	75.95
228.989	69.8
229.206	104.62
229.424	67.75
229.642	-5.97
229.86	12.46
230.077	57.51
230.295	30.89
230.513	4.27
230.731	129.19
230.948	12.46
231.166	26.79
231.384	34.99
231.601	110.76
231.819	118.95
232.037	82.09
232.254	-16.21
232.472	-22.36
232.689	-22.36
232.907	47.27
233.125	2.22
233.342	112.81
233.56	22.7
233.777	47.27
233.995	-46.93
234.213	86.19
234.43	94.38
234.648	30.89
234.865	-8.02
235.083	53.42
235.3	41.13
235.518	67.75
235.735	57.51
235.953	53.42
236.17	84.14
236.388	59.56
236.605	-14.17
236.822	47.27
237.04	69.8
237.257	71.85
237.475	-61.27
237.692	57.51
237.909	-5.97
238.127	-5.97
238.344	41.13
238.562	39.08
238.779	18.6
238.996	18.6
239.214	8.36
239.431	10.41
239.648	-3.93
239.865	20.65
240.083	45.23
240.3	59.56
240.517	-18.26
240.735	-1.88
240.952	55.47
241.169	71.85
241.386	49.32
241.603	45.23
241.821	-14.17
242.038	108.71
242.255	-42.84
242.472	-5.97
242.689	71.85
242.907	43.18
243.124	88.23
243.341	-28.5
243.558	108.71
243.775	34.99
243.992	10.41
244.209	30.89
244.426	80.04
244.643	20.65
244.86	6.31
245.078	14.51
245.295	0.17
245.512	-22.36
245.729	26.79
245.946	75.95
246.163	116.9
246.38	67.75
246.597	100.52
246.814	-20.31
247.031	71.85
247.248	73.9
247.464	139.43
247.681	12.46
247.898	84.14
248.115	4.27
248.332	26.79
248.549	69.8
248.766	61.61
248.983	100.52
249.2	14.51
249.417	22.7
249.633	-20.31
249.85	75.95
250.067	10.41
250.284	75.95
250.501	90.28
250.717	53.42
250.934	-20.31
251.151	-34.64
251.368	-34.64
251.585	100.52
251.801	-18.26
252.018	41.13
252.235	34.99
252.451	37.03
252.668	-59.22
252.885	53.42
253.102	10.41
253.318	75.95
253.535	53.42
253.752	28.84
253.968	39.08
254.185	-3.93
254.401	43.18
254.618	10.41
254.835	-3.93
255.051	51.37
255.268	6.31
255.484	75.95
255.701	-14.17
255.917	37.03
256.134	-3.93
256.351	88.23
256.567	34.99
256.784	133.29
257	-14.17
257.217	14.51
257.433	67.75
257.65	102.57
257.866	-28.5
258.082	47.27
258.299	26.79
258.515	121
258.732	-12.12
258.948	100.52
259.165	34.99
259.381	26.79
259.597	18.6
259.814	69.8
260.03	-14.17
260.246	59.56
260.463	26.79
260.679	75.95
260.895	51.37
261.112	139.43
261.328	20.65
261.544	51.37
261.761	26.79
261.977	28.84
262.193	18.6
262.409	94.38
262.626	28.84
262.842	61.61
263.058	-16.21
263.274	10.41
263.49	63.66
263.707	75.95
263.923	49.32
264.139	-10.07
264.355	43.18
264.571	20.65
264.787	59.56
265.004	59.56
265.22	-28.5
265.436	37.03
265.652	61.61
265.868	80.04
266.084	18.6
266.3	75.95
266.516	47.27
266.732	-5.97
266.948	49.32
267.164	63.66
267.38	59.56
267.596	39.08
267.812	94.38
268.028	26.79
268.244	47.27
268.46	110.76
268.676	10.41
268.892	69.8
269.108	-30.55
269.324	-14.17
269.54	43.18
269.756	59.56
269.972	-12.12
270.188	96.43
270.403	-30.55
270.619	43.18
270.835	39.08
271.051	22.7
271.267	20.65
271.483	69.8
271.698	59.56
271.914	59.56
272.13	41.13
272.346	-30.55
272.562	51.37
272.777	75.95
272.993	77.99
273.209	32.94
273.425	47.27
273.64	-26.45
273.856	86.19
274.072	39.08
274.287	59.56
274.503	73.9
274.719	59.56
274.934	59.56
275.15	61.61
275.366	53.42
275.581	-14.17
275.797	80.04
276.012	-18.26
276.228	18.6
276.444	82.09
276.659	34.99
276.875	-32.6
277.09	28.84
277.306	69.8
277.521	34.99
277.737	71.85
277.952	61.61
278.168	59.56
278.383	-46.93
278.599	39.08
278.814	18.6
279.03	-20.31
279.245	22.7
279.461	67.75
279.676	43.18
279.892	-36.69
280.107	18.6
280.322	34.99
280.538	20.65
280.753	80.04
280.969	112.81
281.184	-32.6
281.399	75.95
281.615	34.99
281.83	12.46
282.045	-77.65
282.26	16.55
282.476	80.04
282.691	2.22
282.906	30.89
283.122	116.9
283.337	30.89
283.552	12.46
283.767	2.22
283.983	43.18
284.198	20.65
284.413	100.52
284.628	8.36
284.843	47.27
285.058	43.18
285.274	26.79
285.489	37.03
285.704	59.56
285.919	24.75
286.134	28.84
286.349	75.95
286.564	32.94
286.779	26.79
286.995	41.13
287.21	-34.64
287.425	20.65
287.64	53.42
287.855	75.95
288.07	-55.12
288.285	28.84
288.5	92.33
288.715	45.23
288.93	-5.97
289.145	6.31
289.36	-10.07
289.575	32.94
289.79	55.47
290.004	22.7
290.219	55.47
290.434	34.99
290.649	26.79
290.864	49.32
291.079	32.94
291.294	34.99
291.509	49.32
291.724	24.75
291.938	43.18
292.153	37.03
292.368	63.66
292.583	26.79
292.798	20.65
293.012	47.27
293.227	28.84
293.442	4.27
293.657	61.61
293.871	55.47
294.086	34.99
294.301	26.79
294.516	149.67
294.73	39.08
294.945	-12.12
295.16	10.41
295.374	51.37
295.589	112.81
295.804	77.99
296.018	-5.97
296.233	37.03
296.447	77.99
296.662	6.31
296.877	84.14
297.091	65.71
297.306	69.8
297.52	14.51
297.735	20.65
297.949	-14.17
298.164	57.51
298.378	-22.36
298.593	14.51
298.807	32.94
299.022	104.62
299.236	63.66
299.451	49.32
299.665	-55.12
299.88	10.41
300.094	20.65
300.309	92.33
300.523	75.95
300.737	63.66
300.952	12.46
301.166	59.56
301.381	-3.93
301.595	108.71
301.809	45.23
302.024	37.03
302.238	18.6
302.452	51.37
302.667	45.23
302.881	67.75
303.095	98.47
303.309	45.23
303.524	55.47
303.738	-8.02
303.952	16.55
304.166	43.18
304.381	14.51
304.595	12.46
304.809	20.65
305.023	104.62
305.237	22.7
305.452	-1.88
305.666	75.95
305.88	45.23
306.094	75.95
306.308	20.65
306.522	6.31
306.736	100.52
306.95	16.55
307.164	59.56
307.379	-38.74
307.593	65.71
307.807	61.61
308.021	55.47
308.235	118.95
308.449	59.56
308.663	65.71
308.877	96.43
309.091	2.22
309.305	96.43
309.519	-38.74
309.733	108.71
309.947	-14.17
310.161	55.47
310.374	39.08
310.588	43.18
310.802	88.23
311.016	59.56
311.23	2.22
311.444	39.08
311.658	137.38
311.872	75.95
312.085	18.6
312.299	45.23
312.513	39.08
312.727	30.89
312.941	14.51
313.154	63.66
313.368	41.13
313.582	45.23
313.796	45.23
314.009	-38.74
314.223	26.79
314.437	53.42
314.651	67.75
314.864	-5.97
315.078	-38.74
315.292	86.19
315.505	43.18
315.719	92.33
315.933	102.57
316.146	75.95
316.36	34.99
316.573	106.67
316.787	-5.97
317.001	-55.12
317.214	51.37
317.428	43.18
317.641	67.75
317.855	-34.64
318.068	45.23
318.282	92.33
318.495	30.89
318.709	-32.6
318.922	86.19
319.136	114.86
319.349	26.79
319.563	-30.55
319.776	92.33
319.99	10.41
320.203	47.27
320.417	45.23
320.63	75.95
320.843	96.43
321.057	41.13
321.27	43.18
321.483	18.6
321.697	106.67
321.91	-44.88
322.124	114.86
322.337	26.79
322.55	-38.74
322.763	53.42
322.977	-12.12
323.19	8.36
323.403	30.89
323.617	18.6
323.83	53.42
324.043	75.95
324.256	39.08
324.469	-12.12
324.683	14.51
324.896	57.51
325.109	71.85
325.322	-8.02
325.535	98.47
325.748	59.56
325.962	-14.17
326.175	-77.65
326.388	75.95
326.601	34.99
326.814	-5.97
327.027	14.51
327.24	108.71
327.453	-28.5
327.666	84.14
327.879	75.95
328.092	147.62
328.305	39.08
328.518	14.51
328.731	34.99
328.944	20.65
329.157	59.56
329.37	18.6
329.583	67.75
329.796	86.19
330.009	104.62
330.222	92.33
330.435	84.14
330.648	10.41
330.861	-10.07
331.073	10.41
331.286	34.99
331.499	20.65
331.712	-46.93
331.925	96.43
332.138	26.79
332.35	116.9
332.563	28.84
332.776	92.33
332.989	116.9
333.202	2.22
333.414	-5.97
333.627	75.95
333.84	53.42
334.053	51.37
334.265	20.65
334.478	67.75
334.691	51.37
334.903	69.8
335.116	20.65
335.329	4.27
335.541	14.51
335.754	61.61
335.966	45.23
336.179	-14.17
336.392	26.79
336.604	26.79
336.817	100.52
337.029	45.23
337.242	10.41
337.454	-30.55
337.667	-51.03
337.88	41.13
338.092	65.71
338.305	96.43
338.517	43.18
338.729	47.27
338.942	86.19
339.154	24.75
339.367	55.47
339.579	28.84
339.792	18.6
340.004	118.95
340.217	86.19
340.429	45.23
340.641	43.18
340.854	18.6
341.066	-22.36
341.278	141.48
341.491	96.43
341.703	86.19
341.915	2.22
342.128	96.43
342.34	10.41
342.552	30.89
342.764	-34.64
342.977	59.56
343.189	47.27
343.401	61.61
343.613	6.31
343.826	55.47
344.038	55.47
344.25	53.42
344.462	59.56
344.674	4.27
344.886	26.79
345.099	4.27
345.311	26.79
345.523	47.27
345.735	-1.88
345.947	63.66
346.159	57.51
346.371	88.23
346.583	39.08
346.795	92.33
347.007	-5.97
347.219	59.56
347.431	16.55
347.643	131.24
347.855	-24.4
348.067	63.66
348.279	37.03
348.491	6.31
348.703	80.04
348.915	12.46
349.127	18.6
349.339	2.22
349.551	45.23
349.763	69.8
349.975	69.8
350.187	67.75
350.399	20.65
350.61	-30.55
350.822	4.27
351.034	26.79
351.246	63.66
351.458	86.19
351.669	16.55
351.881	102.57
352.093	102.57
352.305	102.57
352.517	6.31
352.728	63.66
352.94	131.24
353.152	84.14
353.363	-14.17
353.575	-46.93
353.787	20.65
353.999	90.28
354.21	4.27
354.422	57.51
354.633	22.7
354.845	-5.97
355.057	26.79
355.268	96.43
355.48	67.75
355.692	37.03
355.903	28.84
356.115	37.03
356.326	10.41
356.538	129.19
356.749	108.71
356.961	14.51
357.172	-26.45
357.384	63.66
357.595	59.56
357.807	10.41
358.018	-10.07
358.23	43.18
358.441	133.29
358.653	84.14
358.864	30.89
359.075	75.95
359.287	67.75
359.498	67.75
359.709	49.32
359.921	28.84
360.132	80.04
360.344	80.04
360.555	47.27
360.766	30.89
360.977	49.32
361.189	110.76
361.4	65.71
361.611	51.37
361.823	88.23
362.034	-16.21
362.245	-1.88
362.456	67.75
362.667	-12.12
362.879	-10.07
363.09	69.8
363.301	-1.88
363.512	118.95
363.723	8.36
363.935	28.84
364.146	55.47
364.357	0.17
364.568	71.85
364.779	28.84
364.99	110.76
365.201	-1.88
365.412	80.04
365.623	92.33
365.834	67.75
366.045	57.51
366.256	43.18
366.467	43.18
366.678	34.99
366.889	57.51
367.1	28.84
367.311	135.34
367.522	-3.93
367.733	51.37
367.944	43.18
368.155	41.13
368.366	26.79
368.577	55.47
368.788	116.9
368.999	32.94
369.209	55.47
369.42	108.71
369.631	20.65
369.842	18.6
370.053	-30.55
370.264	45.23
370.474	-14.17
370.685	20.65
370.896	12.46
371.107	47.27
371.317	-5.97
371.528	-28.5
371.739	106.67
371.95	-28.5
372.16	43.18
372.371	-34.64
372.582	59.56
372.792	67.75
373.003	20.65
373.214	100.52
373.424	71.85
373.635	26.79
373.846	98.47
374.056	51.37
374.267	-18.26
374.477	80.04
374.688	45.23
374.898	20.65
375.109	28.84
375.319	88.23
375.53	53.42
375.74	12.46
375.951	18.6
376.161	18.6
376.372	61.61
376.582	75.95
376.793	96.43
377.003	28.84
377.214	100.52
377.424	-5.97
377.635	118.95
377.845	18.6
378.055	43.18
378.266	26.79
378.476	94.38
378.686	10.41
378.897	-12.12
379.107	63.66
379.317	55.47
379.528	30.89
379.738	108.71
379.948	80.04
380.158	67.75
380.369	59.56
380.579	-1.88
380.789	0.17
380.999	108.71
381.21	28.84
381.42	45.23
381.63	43.18
381.84	127.14
382.05	47.27
382.261	53.42
382.471	2.22
382.681	37.03
382.891	34.99
383.101	43.18
383.311	28.84
383.521	43.18
383.731	77.99
383.941	118.95
384.151	34.99
384.361	39.08
384.571	18.6
384.781	75.95
384.991	116.9
385.201	102.57
385.411	125.1
385.621	34.99
385.831	59.56
386.041	77.99
386.251	159.91
386.461	174.25
386.671	51.37
386.881	53.42
387.091	-18.26
387.301	129.19
387.511	67.75
387.72	80.04
387.93	12.46
388.14	43.18
388.35	41.13
388.56	141.48
388.769	49.32
388.979	63.66
389.189	80.04
389.399	110.76
389.609	100.52
389.818	92.33
390.028	88.23
390.238	90.28
390.447	18.6
390.657	61.61
390.867	2.22
391.076	61.61
391.286	77.99
391.496	10.41
391.705	8.36
391.915	135.34
392.125	100.52
392.334	49.32
392.544	153.77
392.753	67.75
392.963	16.55
393.172	67.75
393.382	30.89
393.591	174.25
393.801	100.52
394.01	63.66
394.22	88.23
394.429	149.67
394.639	67.75
394.848	37.03
395.058	153.77
395.267	59.56
395.477	49.32
395.686	157.86
395.895	182.44
396.105	127.14
396.314	77.99
396.524	121
396.733	59.56
396.942	112.81
397.152	77.99
397.361	125.1
397.57	67.75
397.78	147.62
397.989	141.48
398.198	67.75
398.407	61.61
398.617	125.1
398.826	129.19
399.035	96.43
399.244	116.9
399.453	57.51
399.663	108.71
399.872	118.95
400.081	77.99
400.29	121
400.499	88.23
400.708	209.06
400.917	84.14
401.127	59.56
401.336	73.9
401.545	100.52
401.754	141.48
401.963	59.56
402.172	125.1
402.381	90.28
402.59	67.75
402.799	104.62
403.008	96.43
403.217	82.09
403.426	168.1
403.635	121
403.844	133.29
404.053	182.44
404.262	30.89
404.471	131.24
404.68	112.81
404.888	100.52
405.097	141.48
405.306	141.48
405.515	186.54
405.724	110.76
405.933	188.58
406.142	110.76
406.35	157.86
406.559	182.44
406.768	145.58
406.977	272.55
407.185	194.73
407.394	227.5
407.603	174.25
407.812	168.1
408.02	184.49
408.229	207.02
408.438	207.02
408.646	102.57
408.855	133.29
409.064	166.06
409.272	227.5
409.481	280.74
409.69	190.63
409.898	256.17
410.107	274.6
410.315	231.59
410.524	188.58
410.733	305.32
410.941	256.17
411.15	290.98
411.358	368.81
411.567	389.28
411.775	346.28
411.984	348.33
412.192	280.74
412.401	381.09
412.609	489.64
412.818	350.37
413.026	399.52
413.234	424.1
413.443	397.48
413.651	436.39
413.86	463.01
414.068	446.63
414.276	477.35
414.485	479.4
414.693	526.5
414.901	594.08
415.11	551.07
415.318	526.5
415.526	567.46
415.734	616.61
415.943	624.8
416.151	596.13
416.359	624.8
416.567	725.15
416.776	702.62
416.984	743.58
417.192	788.64
417.4	757.92
417.608	749.73
417.817	766.11
418.025	798.88
418.233	923.8
418.441	856.22
418.649	870.56
418.857	1036.44
419.065	1042.59
419.273	903.32
419.481	987.29
419.689	1151.13
419.897	1198.23
420.105	1216.66
420.313	1138.84
420.521	1255.58
420.729	1271.96
420.937	1269.91
421.145	1427.6
421.353	1460.37
421.561	1509.52
421.769	1411.22
421.977	1534.1
422.185	1532.05
422.393	1607.83
422.601	1763.47
422.809	1691.79
423.017	1818.77
423.224	1833.1
423.432	1898.64
423.64	1910.93
423.848	2197.64
424.056	2091.15
424.263	2250.89
424.471	2091.15
424.679	2199.69
424.887	2300.04
425.094	2410.63
425.302	2287.75
425.51	2459.78
425.718	2492.55
425.925	2594.95
426.133	2582.66
426.341	2873.47
426.548	2992.25
426.756	2934.91
426.964	3016.83
427.171	3227.77
427.379	3235.96
427.586	3278.97
427.794	3444.85
428.001	3604.6
428.209	3788.91
428.417	3750
428.624	3813.49
428.832	3954.8
429.039	3876.98
429.247	3819.63
429.454	4307.05
429.662	4468.84
429.869	4114.54
430.076	4601.96
430.284	4589.67
430.491	4737.12
430.699	5072.99
430.906	4814.95
431.114	4857.95
431.321	5126.24
431.528	5122.14
431.736	5587.03
431.943	5757.01
432.15	5648.47
432.358	5689.43
432.565	6158.41
432.772	5912.66
432.979	6400.07
433.187	6445.13
433.394	6248.52
433.601	6879.3
433.808	6918.21
434.016	7065.66
434.223	7186.49
434.43	7581.75
434.637	7399.48
434.844	7907.38
435.052	8003.63
435.259	8013.87
435.466	7782.45
435.673	7968.82
435.88	8472.62
436.087	8812.58
436.294	9068.58
436.501	8730.66
436.708	8980.51
436.915	9203.74
437.122	9588.76
437.329	9689.11
437.537	9971.73
437.743	10108.94
437.95	10033.17
438.157	10528.78
438.364	10872.84
438.571	10758.15
438.778	10866.69
438.985	11997.17
439.192	11401.21
439.399	11765.75
439.606	11356.16
439.813	12199.92
440.02	12990.44
440.227	12845.03
440.433	12374
440.64	12808.17
440.847	12982.24
441.054	13426.65
441.261	14282.7
441.467	13811.67
441.674	14057.43
441.881	14751.69
442.088	14686.15
442.294	14583.76
442.501	14950.34
442.708	15374.27
442.914	15845.3
443.121	16574.38
443.328	16086.97
443.534	17121.19
443.741	16836.52
443.948	16504.75
444.154	17788.83
444.361	17487.78
444.568	17659.81
444.774	17708.96
444.981	17827.74
445.187	18272.15
445.394	19163.01
445.6	18810.76
445.807	20875.12
446.013	20129.66
446.22	19943.29
446.426	21157.74
446.633	21270.37
446.839	21903.2
447.046	21223.27
447.252	22552.4
447.459	22429.52
447.665	22200.15
447.871	23230.28
448.078	24112.95
448.284	23125.83
448.491	23445.32
448.697	24473.4
448.903	25362.22
449.11	25122.6
449.316	24672.05
449.522	25124.65
449.728	25843.49
449.935	25974.56
450.141	26105.63
450.347	26707.73
450.553	25546.53
450.76	26337.05
450.966	26992.4
451.172	26875.66
451.378	27653.89
451.584	27092.75
451.791	27727.62
451.997	27582.21
452.203	28370.68
452.409	28319.48
452.615	28120.83
452.821	27113.23
453.027	26517.27
453.233	28122.88
453.44	26715.92
453.646	27578.12
453.852	27449.1
454.058	27774.72
454.264	27332.36
454.47	28157.69
454.676	27238.16
454.882	28243.71
455.088	25485.09
455.294	26158.88
455.5	26664.72
455.705	26732.31
455.911	25610.02
456.117	25487.14
456.323	25089.84
456.529	24041.28
456.735	24760.11
456.941	24221.5
457.147	23924.54
457.352	23113.55
457.558	23035.72
457.764	22841.17
457.97	22550.35
458.176	22042.46
458.381	22214.49
458.587	21090.15
458.793	20883.31
458.999	19752.83
459.204	21356.39
459.41	20698.99
459.616	19572.61
459.821	19591.04
460.027	19359.62
460.233	19163.01
460.438	18169.75
460.644	18386.83
460.85	17616.8
461.055	17362.85
461.261	17469.34
461.466	15919.03
461.672	15747
461.878	16795.56
462.083	15667.13
462.289	15210.43
462.494	15103.94
462.7	14491.6
462.905	13854.68
463.111	14575.56
463.316	14624.72
463.522	14323.66
463.727	14413.77
463.932	14329.81
464.138	13920.21
464.343	14286.8
464.549	13729.75
464.754	14165.97
464.959	14043.09
465.165	13762.52
465.37	13211.62
465.575	13420.51
465.781	13412.32
465.986	13438.94
466.191	13113.31
466.397	12984.29
466.602	12335.09
466.807	12752.87
467.012	12685.29
467.218	12527.6
