Data from USB4F104151__189__14-45-11-272.txt Node

Date: Thu Mar 13 14:45:11 EDT 2025
User: louis
Spectrometer: USB4F10415
Trigger mode: 4
Integration Time (sec): 2.000000E-2
Scans to average: 1
Electric dark correction enabled: true
Nonlinearity correction enabled: false
Boxcar width: 0
XAxis mode: Wavelengths
Number of Pixels in Spectrum: 3648
>>>>>Begin Spectral Data<<<<<
178.204	-83.28
178.424	-83.28
178.644	-83.28
178.864	-148.82
179.084	-83.28
179.304	-3.41
179.524	-58.71
179.744	15.02
179.964	78.51
180.184	-5.46
180.404	62.12
180.624	-52.56
180.844	51.88
181.064	-71
181.283	23.21
181.503	-42.32
181.723	2.73
181.943	-144.72
182.163	58.03
182.383	10.92
182.602	62.12
182.822	60.07
183.042	-3.41
183.262	-34.13
183.482	6.83
183.701	21.16
183.921	-3.41
184.141	-3.41
184.361	33.45
184.58	-36.18
184.8	31.4
185.02	21.16
185.239	12.97
185.459	64.17
185.679	62.12
185.898	-19.8
186.118	70.31
186.338	53.93
186.557	45.74
186.777	12.97
186.997	-27.99
187.216	8.87
187.436	58.03
187.655	-7.51
187.875	12.97
188.095	4.78
188.314	49.83
188.534	68.27
188.753	29.35
188.973	-34.13
189.192	76.46
189.412	58.03
189.631	78.51
189.851	72.36
190.07	4.78
190.29	12.97
190.509	-34.13
190.729	-77.14
190.948	60.07
191.168	121.51
191.387	45.74
191.607	-7.51
191.826	-23.89
192.045	-3.41
192.265	37.55
192.484	-52.56
192.704	33.45
192.923	53.93
193.142	66.22
193.362	62.12
193.581	62.12
193.8	49.83
194.02	41.64
194.239	-36.18
194.458	-19.8
194.678	78.51
194.897	33.45
195.116	58.03
195.335	21.16
195.555	-7.51
195.774	-9.56
195.993	39.59
196.212	-21.84
196.432	-11.61
196.651	-44.37
196.87	35.5
197.089	90.79
197.308	-3.41
197.528	-1.37
197.747	15.02
197.966	78.51
198.185	64.17
198.404	37.55
198.623	31.4
198.842	80.55
199.062	-7.51
199.281	64.17
199.5	-11.61
199.719	-3.41
199.938	4.78
200.157	58.03
200.376	86.7
200.595	41.64
200.814	29.35
201.033	-42.32
201.252	72.36
201.471	-15.7
201.69	-25.94
201.909	62.12
202.128	6.83
202.347	62.12
202.566	-3.41
202.785	45.74
203.004	12.97
203.223	94.89
203.442	12.97
203.661	-36.18
203.879	0.68
204.098	47.79
204.317	-7.51
204.536	31.4
204.755	-21.84
204.974	-1.37
205.193	-13.65
205.411	23.21
205.63	6.83
205.849	-48.47
206.068	49.83
206.287	-7.51
206.505	-5.46
206.724	37.55
206.943	45.74
207.162	-34.13
207.381	78.51
207.599	-44.37
207.818	-34.13
208.037	12.97
208.255	37.55
208.474	45.74
208.693	70.31
208.911	35.5
209.13	-48.47
209.349	-11.61
209.567	41.64
209.786	113.32
210.005	-38.23
210.223	12.97
210.442	64.17
210.661	80.55
210.879	-40.28
211.098	29.35
211.316	33.45
211.535	62.12
211.753	-19.8
211.972	78.51
212.191	43.69
212.409	8.87
212.628	19.11
212.846	-30.04
213.065	-56.66
213.283	-34.13
213.502	-50.52
213.72	62.12
213.938	-3.41
214.157	21.16
214.375	-19.8
214.594	-27.99
214.812	-3.41
215.031	-52.56
215.249	19.11
215.467	-13.65
215.686	-38.23
215.904	37.55
216.122	29.35
216.341	23.21
216.559	35.5
216.778	98.99
216.996	33.45
217.214	41.64
217.432	86.7
217.651	-9.56
217.869	-9.56
218.087	-77.14
218.306	-3.41
218.524	41.64
218.742	-38.23
218.96	88.75
219.179	41.64
219.397	25.26
219.615	107.18
219.833	37.55
220.051	-7.51
220.27	37.55
220.488	39.59
220.706	21.16
220.924	25.26
221.142	-11.61
221.36	29.35
221.578	-19.8
221.796	37.55
222.015	17.07
222.233	-15.7
222.451	23.21
222.669	-11.61
222.887	29.35
223.105	-3.41
223.323	-89.43
223.541	-48.47
223.759	66.22
223.977	-27.99
224.195	86.7
224.413	-7.51
224.631	94.89
224.849	-7.51
225.067	64.17
225.285	-40.28
225.503	-1.37
225.721	-85.33
225.939	0.68
226.157	2.73
226.375	131.75
226.592	-77.14
226.81	-3.41
227.028	31.4
227.246	92.84
227.464	-19.8
227.682	-9.56
227.9	10.92
228.117	-42.32
228.335	37.55
228.553	41.64
228.771	4.78
228.989	-1.37
229.206	-38.23
229.424	6.83
229.642	4.78
229.86	64.17
230.077	25.26
230.295	15.02
230.513	39.59
230.731	76.46
230.948	-11.61
231.166	86.7
231.384	4.78
231.601	53.93
231.819	19.11
232.037	-25.94
232.254	-32.08
232.472	8.87
232.689	4.78
232.907	62.12
233.125	33.45
233.342	-60.76
233.56	45.74
233.777	29.35
233.995	-11.61
234.213	68.27
234.43	12.97
234.648	37.55
234.865	23.21
235.083	25.26
235.3	39.59
235.518	29.35
235.735	103.08
235.953	51.88
236.17	8.87
236.388	55.98
236.605	37.55
236.822	6.83
237.04	-11.61
237.257	12.97
237.475	0.68
237.692	-7.51
237.909	-34.13
238.127	25.26
238.344	45.74
238.562	17.07
238.779	21.16
238.996	86.7
239.214	39.59
239.431	94.89
239.648	2.73
239.865	-19.8
240.083	39.59
240.3	-19.8
240.517	-21.84
240.735	45.74
240.952	62.12
241.169	45.74
241.386	-9.56
241.603	-13.65
241.821	17.07
242.038	49.83
242.255	21.16
242.472	12.97
242.689	-3.41
242.907	25.26
243.124	-30.04
243.341	-32.08
243.558	-11.61
243.775	-54.61
243.992	2.73
244.209	37.55
244.426	-11.61
244.643	125.61
244.86	-1.37
245.078	27.31
245.295	60.07
245.512	-23.89
245.729	-7.51
245.946	-34.13
246.163	12.97
246.38	29.35
246.597	70.31
246.814	64.17
247.031	-32.08
247.248	55.98
247.464	76.46
247.681	-9.56
247.898	103.08
248.115	19.11
248.332	-54.61
248.549	111.27
248.766	74.41
248.983	-3.41
249.2	80.55
249.417	74.41
249.633	15.02
249.85	33.45
250.067	25.26
250.284	-11.61
250.501	74.41
250.717	37.55
250.934	-77.14
251.151	39.59
251.368	-15.7
251.585	12.97
251.801	31.4
252.018	-17.75
252.235	49.83
252.451	49.83
252.668	-7.51
252.885	76.46
253.102	33.45
253.318	41.64
253.535	-13.65
253.752	45.74
253.968	-1.37
254.185	33.45
254.401	-11.61
254.618	62.12
254.835	-50.52
255.051	45.74
255.268	-1.37
255.484	33.45
255.701	23.21
255.917	62.12
256.134	-5.46
256.351	29.35
256.567	-13.65
256.784	21.16
257	-66.9
257.217	55.98
257.433	10.92
257.65	111.27
257.866	152.23
258.082	35.5
258.299	12.97
258.515	131.75
258.732	-30.04
258.948	-27.99
259.165	37.55
259.381	23.21
259.597	66.22
259.814	-3.41
260.03	45.74
260.246	0.68
260.463	27.31
260.679	70.31
260.895	90.79
261.112	-1.37
261.328	25.26
261.544	37.55
261.761	37.55
261.977	-7.51
262.193	39.59
262.409	31.4
262.626	45.74
262.842	-52.56
263.058	0.68
263.274	80.55
263.49	35.5
263.707	23.21
263.923	27.31
264.139	-19.8
264.355	86.7
264.571	-1.37
264.787	29.35
265.004	6.83
265.22	-23.89
265.436	17.07
265.652	-17.75
265.868	64.17
266.084	-34.13
266.3	29.35
266.516	-34.13
266.732	27.31
266.948	2.73
267.164	94.89
267.38	43.69
267.596	-27.99
267.812	92.84
268.028	47.79
268.244	-42.32
268.46	-40.28
268.676	-3.41
268.892	-36.18
269.108	-52.56
269.324	8.87
269.54	-44.37
269.756	164.52
269.972	37.55
270.188	6.83
270.403	-7.51
270.619	19.11
270.835	21.16
271.051	37.55
271.267	0.68
271.483	35.5
271.698	17.07
271.914	62.12
272.13	29.35
272.346	21.16
272.562	0.68
272.777	45.74
272.993	-44.37
273.209	-3.41
273.425	45.74
273.64	29.35
273.856	21.16
274.072	17.07
274.287	-7.51
274.503	21.16
274.719	-7.51
274.934	21.16
275.15	-17.75
275.366	86.7
275.581	10.92
275.797	29.35
276.012	55.98
276.228	12.97
276.444	107.18
276.659	111.27
276.875	-25.94
277.09	-17.75
277.306	31.4
277.521	-11.61
277.737	27.31
277.952	15.02
278.168	31.4
278.383	-15.7
278.599	2.73
278.814	-5.46
279.03	37.55
279.245	25.26
279.461	49.83
279.676	-9.56
279.892	-17.75
280.107	35.5
280.322	4.78
280.538	58.03
280.753	25.26
280.969	21.16
281.184	-7.51
281.399	21.16
281.615	111.27
281.83	15.02
282.045	31.4
282.26	-60.76
282.476	-11.61
282.691	55.98
282.906	113.32
283.122	27.31
283.337	-30.04
283.552	107.18
283.767	37.55
283.983	21.16
284.198	53.93
284.413	-38.23
284.628	29.35
284.843	4.78
285.058	29.35
285.274	45.74
285.489	-60.76
285.704	-23.89
285.919	-83.28
286.134	64.17
286.349	70.31
286.564	-1.37
286.779	101.03
286.995	-21.84
287.21	-3.41
287.425	70.31
287.64	6.83
287.855	-1.37
288.07	-13.65
288.285	45.74
288.5	88.75
288.715	35.5
288.93	-25.94
289.145	4.78
289.36	49.83
289.575	-34.13
289.79	-11.61
290.004	70.31
290.219	62.12
290.434	4.78
290.649	-40.28
290.864	4.78
291.079	37.55
291.294	8.87
291.509	78.51
291.724	-34.13
291.938	41.64
292.153	62.12
292.368	-5.46
292.583	23.21
292.798	21.16
293.012	-32.08
293.227	74.41
293.442	23.21
293.657	21.16
293.871	88.75
294.086	17.07
294.301	135.85
294.516	47.79
294.73	19.11
294.945	-50.52
295.16	47.79
295.374	39.59
295.589	41.64
295.804	0.68
296.018	29.35
296.233	-1.37
296.447	86.7
296.662	-15.7
296.877	8.87
297.091	39.59
297.306	17.07
297.52	64.17
297.735	-48.47
297.949	53.93
298.164	41.64
298.378	62.12
298.593	31.4
298.807	53.93
299.022	21.16
299.236	53.93
299.451	4.78
299.665	-9.56
299.88	2.73
300.094	64.17
300.309	105.13
300.523	-48.47
300.737	21.16
300.952	33.45
301.166	25.26
301.381	39.59
301.595	15.02
301.809	12.97
302.024	41.64
302.238	-27.99
302.452	62.12
302.667	62.12
302.881	47.79
303.095	70.31
303.309	-11.61
303.524	-17.75
303.738	-42.32
303.952	80.55
304.166	74.41
304.381	0.68
304.595	72.36
304.809	2.73
305.023	60.07
305.237	49.83
305.452	-3.41
305.666	-21.84
305.88	8.87
306.094	21.16
306.308	25.26
306.522	39.59
306.736	33.45
306.95	-7.51
307.164	-19.8
307.379	31.4
307.593	96.94
307.807	72.36
308.021	119.46
308.235	-7.51
308.449	41.64
308.663	37.55
308.877	113.32
309.091	-40.28
309.305	-3.41
309.519	-68.95
309.733	-23.89
309.947	15.02
310.161	66.22
310.374	6.83
310.588	62.12
310.802	49.83
311.016	31.4
311.23	41.64
311.444	4.78
311.658	-9.56
311.872	23.21
312.085	45.74
312.299	45.74
312.513	72.36
312.727	-3.41
312.941	-52.56
313.154	62.12
313.368	-17.75
313.582	64.17
313.796	-25.94
314.009	-36.18
314.223	37.55
314.437	45.74
314.651	17.07
314.864	58.03
315.078	80.55
315.292	78.51
315.505	29.35
315.719	0.68
315.933	58.03
316.146	-42.32
316.36	-19.8
316.573	60.07
316.787	-3.41
317.001	64.17
317.214	12.97
317.428	-25.94
317.641	64.17
317.855	-34.13
318.068	-3.41
318.282	4.78
318.495	55.98
318.709	21.16
318.922	-7.51
319.136	94.89
319.349	53.93
319.563	33.45
319.776	12.97
319.99	-50.52
320.203	37.55
320.417	12.97
320.63	86.7
320.843	105.13
321.057	17.07
321.27	66.22
321.483	-9.56
321.697	45.74
321.91	8.87
322.124	92.84
322.337	-93.52
322.55	-7.51
322.763	43.69
322.977	78.51
323.19	53.93
323.403	15.02
323.617	-19.8
323.83	51.88
324.043	51.88
324.256	21.16
324.469	-60.76
324.683	33.45
324.896	78.51
325.109	4.78
325.322	-11.61
325.535	29.35
325.748	119.46
325.962	-1.37
326.175	70.31
326.388	111.27
326.601	60.07
326.814	74.41
327.027	37.55
327.24	137.9
327.453	-30.04
327.666	23.21
327.879	6.83
328.092	98.99
328.305	-44.37
328.518	49.83
328.731	-36.18
328.944	-46.42
329.157	45.74
329.37	103.08
329.583	68.27
329.796	37.55
330.009	-15.7
330.222	37.55
330.435	29.35
330.648	6.83
330.861	17.07
331.073	-3.41
331.286	96.94
331.499	96.94
331.712	-1.37
331.925	-23.89
332.138	-13.65
332.35	55.98
332.563	103.08
332.776	74.41
332.989	-19.8
333.202	90.79
333.414	55.98
333.627	37.55
333.84	55.98
334.053	47.79
334.265	12.97
334.478	6.83
334.691	19.11
334.903	10.92
335.116	-3.41
335.329	23.21
335.541	84.65
335.754	-1.37
335.966	31.4
336.179	111.27
336.392	-3.41
336.604	-7.51
336.817	25.26
337.029	94.89
337.242	53.93
337.454	62.12
337.667	10.92
337.88	-1.37
338.092	39.59
338.305	80.55
338.517	0.68
338.729	37.55
338.942	41.64
339.154	62.12
339.367	-40.28
339.579	107.18
339.792	-9.56
340.004	-23.89
340.217	-17.75
340.429	-1.37
340.641	-27.99
340.854	62.12
341.066	-15.7
341.278	41.64
341.491	111.27
341.703	70.31
341.915	-71
342.128	47.79
342.34	39.59
342.552	-34.13
342.764	12.97
342.977	39.59
343.189	51.88
343.401	45.74
343.613	58.03
343.826	0.68
344.038	-32.08
344.25	2.73
344.462	72.36
344.674	70.31
344.886	47.79
345.099	-7.51
345.311	103.08
345.523	78.51
345.735	-1.37
345.947	-1.37
346.159	-7.51
346.371	-32.08
346.583	19.11
346.795	39.59
347.007	51.88
347.219	-7.51
347.431	-7.51
347.643	45.74
347.855	31.4
348.067	84.65
348.279	-25.94
348.491	105.13
348.703	45.74
348.915	107.18
349.127	21.16
349.339	53.93
349.551	-27.99
349.763	39.59
349.975	-34.13
350.187	19.11
350.399	53.93
350.61	105.13
350.822	-11.61
351.034	68.27
351.246	86.7
351.458	-15.7
351.669	31.4
351.881	45.74
352.093	37.55
352.305	8.87
352.517	60.07
352.728	80.55
352.94	37.55
353.152	70.31
353.363	-1.37
353.575	47.79
353.787	4.78
353.999	78.51
354.21	37.55
354.422	58.03
354.633	33.45
354.845	66.22
355.057	-17.75
355.268	96.94
355.48	0.68
355.692	64.17
355.903	47.79
356.115	47.79
356.326	23.21
356.538	62.12
356.749	-15.7
356.961	25.26
357.172	39.59
357.384	21.16
357.595	25.26
357.807	53.93
358.018	0.68
358.23	-1.37
358.441	21.16
358.653	-7.51
358.864	53.93
359.075	31.4
359.287	29.35
359.498	39.59
359.709	109.23
359.921	-7.51
360.132	53.93
360.344	-13.65
360.555	-1.37
360.766	39.59
360.977	76.46
361.189	113.32
361.4	-38.23
361.611	41.64
361.823	146.09
362.034	58.03
362.245	-27.99
362.456	-23.89
362.667	17.07
362.879	8.87
363.09	12.97
363.301	45.74
363.512	29.35
363.723	0.68
363.935	-38.23
364.146	33.45
364.357	51.88
364.568	96.94
364.779	41.64
364.99	115.37
365.201	17.07
365.412	70.31
365.623	39.59
365.834	-23.89
366.045	49.83
366.256	12.97
366.467	70.31
366.678	-1.37
366.889	2.73
367.1	29.35
367.311	58.03
367.522	15.02
367.733	29.35
367.944	45.74
368.155	55.98
368.366	41.64
368.577	66.22
368.788	55.98
368.999	-17.75
369.209	101.03
369.42	86.7
369.631	64.17
369.842	125.61
370.053	45.74
370.264	21.16
370.474	-3.41
370.685	29.35
370.896	-32.08
371.107	25.26
371.317	41.64
371.528	-3.41
371.739	94.89
371.95	-23.89
372.16	62.12
372.371	-42.32
372.582	-3.41
372.792	76.46
373.003	78.51
373.214	60.07
373.424	29.35
373.635	15.02
373.846	88.75
374.056	8.87
374.267	60.07
374.477	-1.37
374.688	53.93
374.898	47.79
375.109	49.83
375.319	29.35
375.53	45.74
375.74	8.87
375.951	15.02
376.161	37.55
376.372	31.4
376.582	41.64
376.793	64.17
377.003	-11.61
377.214	43.69
377.424	49.83
377.635	-38.23
377.845	45.74
378.055	117.42
378.266	58.03
378.476	21.16
378.686	43.69
378.897	39.59
379.107	21.16
379.317	41.64
379.528	-7.51
379.738	39.59
379.948	2.73
380.158	90.79
380.369	86.7
380.579	94.89
380.789	0.68
380.999	94.89
381.21	49.83
381.42	82.6
381.63	-27.99
381.84	23.21
382.05	21.16
382.261	29.35
382.471	39.59
382.681	17.07
382.891	66.22
383.101	45.74
383.311	-19.8
383.521	12.97
383.731	15.02
383.941	66.22
384.151	47.79
384.361	49.83
384.571	62.12
384.781	113.32
384.991	70.31
385.201	152.23
385.411	80.55
385.621	80.55
385.831	-48.47
386.041	31.4
386.251	92.84
386.461	131.75
386.671	31.4
386.881	62.12
387.091	-1.37
387.301	64.17
387.511	-11.61
387.72	107.18
387.93	90.79
388.14	0.68
388.35	41.64
388.56	139.94
388.769	72.36
388.979	64.17
389.189	55.98
389.399	92.84
389.609	41.64
389.818	23.21
390.028	53.93
390.238	70.31
390.447	10.92
390.657	33.45
390.867	-19.8
391.076	60.07
391.286	55.98
391.496	58.03
391.705	10.92
391.915	109.23
392.125	70.31
392.334	41.64
392.544	31.4
392.753	62.12
392.963	-25.94
393.172	55.98
393.382	41.64
393.591	78.51
393.801	37.55
394.01	141.99
394.22	25.26
394.429	78.51
394.639	55.98
394.848	70.31
395.058	103.08
395.267	55.98
395.477	53.93
395.686	68.27
395.895	105.13
396.105	72.36
396.314	60.07
396.524	-3.41
396.733	-7.51
396.942	-11.61
397.152	72.36
397.361	53.93
397.57	127.66
397.78	58.03
397.989	78.51
398.198	135.85
398.407	37.55
398.617	94.89
398.826	72.36
399.035	39.59
399.244	47.79
399.453	17.07
399.663	152.23
399.872	195.24
400.081	17.07
400.29	109.23
400.499	39.59
400.708	62.12
400.917	88.75
401.127	37.55
401.336	70.31
401.545	148.14
401.754	92.84
401.963	123.56
402.172	137.9
402.381	80.55
402.59	115.37
402.799	119.46
403.008	55.98
403.217	127.66
403.426	64.17
403.635	53.93
403.844	113.32
404.053	88.75
404.262	86.7
404.471	139.94
404.68	98.99
404.888	113.32
405.097	51.88
405.306	111.27
405.515	111.27
405.724	70.31
405.933	70.31
406.142	127.66
406.35	156.33
406.559	74.41
406.768	127.66
406.977	152.23
407.185	90.79
407.394	162.47
407.603	152.23
407.812	160.42
408.02	234.15
408.229	150.18
408.438	152.23
408.646	187.05
408.855	105.13
409.064	252.58
409.272	135.85
409.481	287.4
409.69	193.19
409.898	201.38
410.107	182.95
410.315	252.58
410.524	254.63
410.733	299.69
410.941	277.16
411.15	336.55
411.358	309.93
411.567	303.78
411.775	303.78
411.984	307.88
412.192	352.93
412.401	291.49
412.609	381.6
412.818	424.61
413.026	334.5
413.234	441
413.443	408.23
413.651	391.84
413.86	484
414.068	498.34
414.276	512.67
414.485	451.24
414.693	522.91
414.901	584.35
415.11	549.54
415.318	574.11
415.526	629.41
415.734	610.98
415.943	561.83
416.151	692.9
416.359	653.98
416.567	709.28
416.776	699.04
416.984	729.76
417.192	778.91
417.4	766.62
417.608	797.34
417.817	815.77
418.025	889.5
418.233	930.46
418.441	901.79
418.649	987.8
418.857	1077.91
419.065	1077.91
419.273	1139.35
419.481	1125.02
419.689	1102.49
419.897	1147.55
420.105	1139.35
420.313	1270.42
420.521	1266.33
420.729	1372.82
420.937	1307.29
421.145	1340.05
421.353	1553.04
421.561	1634.96
421.769	1544.85
421.977	1663.63
422.185	1643.15
422.393	1782.42
422.601	1837.71
422.809	1802.9
423.017	1825.42
423.224	1843.85
423.432	1952.4
423.64	2120.33
423.848	2142.86
424.056	2196.11
424.263	2216.58
424.471	2257.54
424.679	2396.81
424.887	2577.03
425.094	2591.36
425.302	2562.69
425.51	2566.79
425.718	2767.49
425.925	2783.87
426.133	2890.37
426.341	3117.69
426.548	3166.84
426.756	3080.83
426.964	3265.14
427.171	3306.1
427.379	3445.37
427.586	3373.69
427.794	3568.24
428.001	3740.27
428.209	4010.61
428.417	3920.49
428.624	4289.13
428.832	4182.63
429.039	4094.57
429.247	4158.06
429.454	4635.24
429.662	4891.23
429.869	4452.97
430.076	4952.67
430.284	4420.2
430.491	4872.8
430.699	5065.31
430.906	5210.72
431.114	5231.19
431.321	5362.26
431.528	5431.9
431.736	5810.77
431.943	6189.64
432.15	6074.96
432.358	6126.16
432.565	6316.62
432.772	6296.14
432.979	6695.49
433.187	6658.63
433.394	6791.75
433.601	7352.89
433.808	7324.22
434.016	7371.32
434.223	7631.41
434.43	8057.39
434.637	7911.99
434.844	8493.61
435.052	8475.18
435.259	8405.55
435.466	8634.92
435.673	8546.86
435.88	9056.8
436.087	9437.72
436.294	9601.56
436.501	9226.78
436.708	9490.97
436.915	9603.61
437.122	10236.43
437.329	10293.77
437.537	10453.52
437.743	10574.35
437.95	10797.57
438.157	11194.88
438.364	11717.11
438.571	11549.18
438.778	11813.37
438.985	12587.5
439.192	12106.23
439.399	12530.16
439.606	12194.29
439.813	12839.4
440.02	13916.63
440.227	13283.81
440.433	13363.68
440.64	13693.4
440.847	13859.29
441.054	14189.01
441.261	15102.4
441.467	14946.76
441.674	15319.49
441.881	15720.89
442.088	15595.96
442.294	15534.53
442.501	15823.29
442.708	16128.44
442.914	16923.05
443.121	17371.55
443.328	17269.16
443.534	18332.05
443.741	18002.33
443.948	17502.62
444.154	19300.74
444.361	18907.53
444.568	19261.83
444.774	18842
444.981	18925.96
445.187	19702.14
445.394	20851.05
445.6	20226.42
445.807	22032.73
446.013	21397.86
446.22	21875.04
446.426	22446.42
446.633	22665.55
446.839	23531.84
447.046	22866.25
447.252	23931.2
447.459	23937.34
447.665	23986.49
447.871	25270.57
448.078	26075.42
448.284	24746.29
448.491	25620.77
448.697	26265.88
448.903	26839.31
449.11	27244.81
449.316	26706.2
449.522	27236.62
449.728	27996.42
449.935	28477.69
450.141	27889.92
450.347	28965.1
450.553	27967.74
450.76	28363
450.966	29376.75
451.172	28897.52
451.378	29593.83
451.584	29321.45
451.791	29909.22
451.997	29593.83
452.203	30413.02
452.409	30464.22
452.615	30251.23
452.821	29198.57
453.027	29251.82
453.233	30406.87
453.44	29147.37
453.646	29577.45
453.852	29710.57
454.058	30140.64
454.264	29440.23
454.47	30142.69
454.676	29389.03
454.882	29993.18
455.088	27697.41
455.294	28168.44
455.5	28580.09
455.705	28932.34
455.911	27867.39
456.117	27494.66
456.323	26698
456.529	25426.21
456.735	26972.43
456.941	26106.14
457.147	25731.36
457.352	24742.19
457.558	24621.36
457.764	24877.36
457.97	24156.47
458.176	23615.81
458.381	23793.98
458.587	22835.53
458.793	22788.43
458.999	21475.68
459.204	23241.03
459.41	22458.71
459.616	20990.31
459.821	21219.69
460.027	20988.27
460.233	20525.43
460.438	19579.26
460.644	19720.57
460.85	18796.94
461.055	18772.36
461.261	18213.27
461.466	17353.12
461.672	16587.18
461.878	17766.81
462.083	16802.22
462.289	16495.02
462.494	16320.95
462.7	15421.89
462.905	15131.08
463.111	15628.73
463.316	15569.34
463.522	15456.7
463.727	15282.63
463.932	15376.83
464.138	15126.98
464.343	15352.26
464.549	14883.27
464.754	15145.41
464.959	15100.36
465.165	15018.44
465.37	14574.03
465.575	14033.36
465.781	14328.27
465.986	14545.36
466.191	14229.97
466.397	13967.83
466.602	13230.56
466.807	13746.65
467.012	13730.27
