Data from USB4F104151__262__14-46-02-419.txt Node

Date: Thu Mar 13 14:46:02 EDT 2025
User: louis
Spectrometer: USB4F10415
Trigger mode: 4
Integration Time (sec): 2.000000E-2
Scans to average: 1
Electric dark correction enabled: true
Nonlinearity correction enabled: false
Boxcar width: 0
XAxis mode: Wavelengths
Number of Pixels in Spectrum: 3648
>>>>>Begin Spectral Data<<<<<
178.204	-52.39
178.424	-52.39
178.644	-52.39
178.864	-126.12
179.084	-183.46
179.304	-74.92
179.524	-33.96
179.744	29.52
179.964	-1.19
180.184	37.72
180.404	35.67
180.624	-1.19
180.844	-36.01
181.064	2.9
181.283	-17.58
181.503	54.1
181.723	4.95
181.943	-70.83
182.163	74.58
182.383	45.91
182.602	78.68
182.822	-27.82
183.042	-9.39
183.262	27.48
183.482	-5.29
183.701	-25.77
183.921	-85.16
184.141	-31.91
184.361	84.82
184.58	54.1
184.8	-21.67
185.02	-33.96
185.239	33.62
185.459	-68.78
185.679	27.48
185.898	-74.92
186.118	99.16
186.338	21.33
186.557	74.58
186.777	-29.87
186.997	-29.87
187.216	35.67
187.436	47.96
187.655	35.67
187.875	-36.01
188.095	72.53
188.314	13.14
188.534	54.1
188.753	82.77
188.973	19.29
189.192	35.67
189.412	19.29
189.631	74.58
189.851	27.48
190.07	80.72
190.29	21.33
190.509	43.86
190.729	2.9
190.948	66.39
191.168	103.25
191.387	70.48
191.607	29.52
191.826	37.72
192.045	-5.29
192.265	101.2
192.484	-29.87
192.704	52.05
192.923	23.38
193.142	123.73
193.362	29.52
193.581	37.72
193.8	86.87
194.02	54.1
194.239	-5.29
194.458	11.09
194.678	-19.63
194.897	35.67
195.116	2.9
195.335	76.63
195.555	43.86
195.774	76.63
195.993	13.14
196.212	31.57
196.432	-70.83
196.651	21.33
196.87	11.09
197.089	117.59
197.308	13.14
197.528	11.09
197.747	4.95
197.966	23.38
198.185	35.67
198.404	11.09
198.623	78.68
198.842	129.88
199.062	2.9
199.281	35.67
199.5	27.48
199.719	31.57
199.938	43.86
200.157	39.76
200.376	-29.87
200.595	-19.63
200.814	50
201.033	27.48
201.252	101.2
201.471	43.86
201.69	117.59
201.909	43.86
202.128	62.29
202.347	84.82
202.566	-13.48
202.785	-48.3
203.004	-62.63
203.223	107.35
203.442	76.63
203.661	15.19
203.879	31.57
204.098	43.86
204.317	64.34
204.536	45.91
204.755	-29.87
204.974	11.09
205.193	56.15
205.411	60.24
205.63	70.48
205.849	33.62
206.068	27.48
206.287	43.86
206.505	88.92
206.724	52.05
206.943	70.48
207.162	-13.48
207.381	-5.29
207.599	43.86
207.818	-5.29
208.037	19.29
208.255	78.68
208.474	27.48
208.693	39.76
208.911	21.33
209.13	45.91
209.349	105.3
209.567	52.05
209.786	76.63
210.005	56.15
210.223	70.48
210.442	4.95
210.661	17.24
210.879	29.52
211.098	-62.63
211.316	9.05
211.535	68.44
211.753	-3.24
211.972	-1.19
212.191	17.24
212.409	37.72
212.628	43.86
212.846	29.52
213.065	2.9
213.283	43.86
213.502	23.38
213.72	23.38
213.938	19.29
214.157	21.33
214.375	35.67
214.594	11.09
214.812	62.29
215.031	93.01
215.249	31.57
215.467	52.05
215.686	64.34
215.904	43.86
216.122	-29.87
216.341	121.68
216.559	68.44
216.778	70.48
216.996	25.43
217.214	-5.29
217.432	56.15
217.651	66.39
217.869	-21.67
218.087	2.9
218.306	25.43
218.524	7
218.742	90.96
218.96	-7.34
219.179	9.05
219.397	35.67
219.615	27.48
219.833	72.53
220.051	11.09
220.27	47.96
220.488	60.24
220.706	7
220.924	74.58
221.142	-46.25
221.36	19.29
221.578	64.34
221.796	-25.77
222.015	27.48
222.233	35.67
222.451	2.9
222.669	52.05
222.887	103.25
223.105	35.67
223.323	70.48
223.541	-29.87
223.759	21.33
223.977	68.44
224.195	41.81
224.413	-19.63
224.631	47.96
224.849	111.44
225.067	76.63
225.285	-17.58
225.503	19.29
225.721	-17.58
225.939	-3.24
226.157	11.09
226.375	-15.53
226.592	-13.48
226.81	11.09
227.028	19.29
227.246	93.01
227.464	19.29
227.682	45.91
227.9	50
228.117	62.29
228.335	19.29
228.553	-33.96
228.771	37.72
228.989	25.43
229.206	68.44
229.424	-13.48
229.642	54.1
229.86	-5.29
230.077	62.29
230.295	27.48
230.513	15.19
230.731	39.76
230.948	54.1
231.166	76.63
231.384	64.34
231.601	23.38
231.819	99.16
232.037	72.53
232.254	7
232.472	56.15
232.689	19.29
232.907	27.48
233.125	-5.29
233.342	29.52
233.56	-5.29
233.777	47.96
233.995	-5.29
234.213	35.67
234.43	-27.82
234.648	50
234.865	27.48
235.083	119.64
235.3	2.9
235.518	101.2
235.735	78.68
235.953	37.72
236.17	56.15
236.388	11.09
236.605	43.86
236.822	56.15
237.04	70.48
237.257	78.68
237.475	-3.24
237.692	11.09
237.909	54.1
238.127	52.05
238.344	7
238.562	166.74
238.779	-33.96
238.996	7
239.214	33.62
239.431	35.67
239.648	52.05
239.865	4.95
240.083	13.14
240.3	-5.29
240.517	-31.91
240.735	76.63
240.952	52.05
241.169	95.06
241.386	-27.82
241.603	54.1
241.821	35.67
242.038	2.9
242.255	-29.87
242.472	68.44
242.689	7
242.907	113.49
243.124	37.72
243.341	-13.48
243.558	19.29
243.775	19.29
243.992	-105.64
244.209	43.86
244.426	109.4
244.643	50
244.86	-1.19
245.078	2.9
245.295	84.82
245.512	-5.29
245.729	-33.96
245.946	93.01
246.163	-5.29
246.38	-13.48
246.597	64.34
246.814	76.63
247.031	7
247.248	68.44
247.464	39.76
247.681	70.48
247.898	43.86
248.115	52.05
248.332	-42.15
248.549	43.86
248.766	-25.77
248.983	66.39
249.2	70.48
249.417	103.25
249.633	-68.78
249.85	4.95
250.067	119.64
250.284	19.29
250.501	76.63
250.717	25.43
250.934	45.91
251.151	78.68
251.368	11.09
251.585	68.44
251.801	-74.92
252.018	-38.06
252.235	62.29
252.451	19.29
252.668	-7.34
252.885	-25.77
253.102	2.9
253.318	-33.96
253.535	-44.2
253.752	17.24
253.968	-52.39
254.185	-44.2
254.401	107.35
254.618	-21.67
254.835	-25.77
255.051	101.2
255.268	37.72
255.484	60.24
255.701	9.05
255.917	93.01
256.134	21.33
256.351	17.24
256.567	2.9
256.784	7
257	54.1
257.217	-29.87
257.433	66.39
257.65	35.67
257.866	113.49
258.082	43.86
258.299	23.38
258.515	19.29
258.732	-13.48
258.948	-60.59
259.165	62.29
259.381	39.76
259.597	37.72
259.814	-5.29
260.03	105.3
260.246	27.48
260.463	-19.63
260.679	29.52
260.895	31.57
261.112	88.92
261.328	43.86
261.544	80.72
261.761	103.25
261.977	13.14
262.193	37.72
262.409	29.52
262.626	0.85
262.842	13.14
263.058	-40.11
263.274	129.88
263.49	43.86
263.707	72.53
263.923	60.24
264.139	-40.11
264.355	60.24
264.571	-21.67
264.787	0.85
265.004	29.52
265.22	43.86
265.436	66.39
265.652	2.9
265.868	64.34
266.084	0.85
266.3	62.29
266.516	31.57
266.732	27.48
266.948	68.44
267.164	2.9
267.38	64.34
267.596	52.05
267.812	105.3
268.028	86.87
268.244	47.96
268.46	43.86
268.676	-33.96
268.892	76.63
269.108	27.48
269.324	11.09
269.54	33.62
269.756	9.05
269.972	-11.43
270.188	101.2
270.403	-19.63
270.619	-13.48
270.835	13.14
271.051	60.24
271.267	35.67
271.483	21.33
271.698	17.24
271.914	64.34
272.13	62.29
272.346	-1.19
272.562	66.39
272.777	66.39
272.993	-1.19
273.209	2.9
273.425	62.29
273.64	-11.43
273.856	17.24
274.072	15.19
274.287	-3.24
274.503	66.39
274.719	64.34
274.934	45.91
275.15	-5.29
275.366	7
275.581	19.29
275.797	76.63
276.012	45.91
276.228	-5.29
276.444	64.34
276.659	2.9
276.875	27.48
277.09	-13.48
277.306	7
277.521	35.67
277.737	17.24
277.952	35.67
278.168	31.57
278.383	-3.24
278.599	37.72
278.814	54.1
279.03	-13.48
279.245	74.58
279.461	31.57
279.676	76.63
279.892	15.19
280.107	0.85
280.322	-29.87
280.538	111.44
280.753	84.82
280.969	84.82
281.184	2.9
281.399	37.72
281.615	2.9
281.83	84.82
282.045	-58.54
282.26	19.29
282.476	-9.39
282.691	70.48
282.906	74.58
283.122	-38.06
283.337	31.57
283.552	43.86
283.767	17.24
283.983	19.29
284.198	-21.67
284.413	27.48
284.628	-54.44
284.843	54.1
285.058	29.52
285.274	19.29
285.489	-27.82
285.704	68.44
285.919	68.44
286.134	43.86
286.349	52.05
286.564	2.9
286.779	60.24
286.995	60.24
287.21	11.09
287.425	146.26
287.64	-25.77
287.855	-1.19
288.07	-31.91
288.285	72.53
288.5	78.68
288.715	113.49
288.93	13.14
289.145	19.29
289.36	86.87
289.575	62.29
289.79	7
290.004	15.19
290.219	2.9
290.434	88.92
290.649	-70.83
290.864	54.1
291.079	-13.48
291.294	68.44
291.509	23.38
291.724	37.72
291.938	27.48
292.153	-19.63
292.368	35.67
292.583	35.67
292.798	129.88
293.012	111.44
293.227	43.86
293.442	-44.2
293.657	45.91
293.871	29.52
294.086	39.76
294.301	84.82
294.516	-9.39
294.73	43.86
294.945	60.24
295.16	133.97
295.374	15.19
295.589	72.53
295.804	-40.11
296.018	-3.24
296.233	101.2
296.447	2.9
296.662	68.44
296.877	152.4
297.091	25.43
297.306	133.97
297.52	23.38
297.735	2.9
297.949	88.92
298.164	72.53
298.378	13.14
298.593	29.52
298.807	27.48
299.022	-31.91
299.236	52.05
299.451	27.48
299.665	-76.97
299.88	41.81
300.094	-36.01
300.309	29.52
300.523	-5.29
300.737	2.9
300.952	17.24
301.166	66.39
301.381	23.38
301.595	27.48
301.809	27.48
302.024	97.11
302.238	9.05
302.452	84.82
302.667	-13.48
302.881	39.76
303.095	-17.58
303.309	47.96
303.524	-62.63
303.738	60.24
303.952	43.86
304.166	29.52
304.381	15.19
304.595	45.91
304.809	23.38
305.023	7
305.237	15.19
305.452	-19.63
305.666	-5.29
305.88	84.82
306.094	-1.19
306.308	101.2
306.522	117.59
306.736	33.62
306.95	-25.77
307.164	2.9
307.379	78.68
307.593	41.81
307.807	115.54
308.021	29.52
308.235	11.09
308.449	-52.39
308.663	-15.53
308.877	37.72
309.091	35.67
309.305	7
309.519	-15.53
309.733	-38.06
309.947	29.52
310.161	31.57
310.374	13.14
310.588	117.59
310.802	21.33
311.016	58.2
311.23	35.67
311.444	95.06
311.658	-13.48
311.872	76.63
312.085	60.24
312.299	103.25
312.513	66.39
312.727	25.43
312.941	50
313.154	35.67
313.368	23.38
313.582	76.63
313.796	37.72
314.009	62.29
314.223	117.59
314.437	11.09
314.651	35.67
314.864	76.63
315.078	35.67
315.292	-93.35
315.505	31.57
315.719	78.68
315.933	35.67
316.146	41.81
316.36	-38.06
316.573	45.91
316.787	109.4
317.001	88.92
317.214	-64.68
317.428	56.15
317.641	25.43
317.855	2.9
318.068	43.86
318.282	68.44
318.495	86.87
318.709	76.63
318.922	-9.39
319.136	88.92
319.349	68.44
319.563	76.63
319.776	97.11
319.99	62.29
320.203	52.05
320.417	19.29
320.63	82.77
320.843	127.83
321.057	19.29
321.27	21.33
321.483	21.33
321.697	60.24
321.91	4.95
322.124	7
322.337	4.95
322.55	13.14
322.763	-1.19
322.977	27.48
323.19	0.85
323.403	111.44
323.617	11.09
323.83	70.48
324.043	21.33
324.256	35.67
324.469	35.67
324.683	74.58
324.896	70.48
325.109	60.24
325.322	-44.2
325.535	35.67
325.748	39.76
325.962	17.24
326.175	-13.48
326.388	7
326.601	58.2
326.814	-21.67
327.027	4.95
327.24	150.36
327.453	99.16
327.666	68.44
327.879	33.62
328.092	58.2
328.305	70.48
328.518	84.82
328.731	62.29
328.944	9.05
329.157	27.48
329.37	84.82
329.583	62.29
329.796	60.24
330.009	-13.48
330.222	86.87
330.435	109.4
330.648	54.1
330.861	-46.25
331.073	54.1
331.286	72.53
331.499	68.44
331.712	-38.06
331.925	31.57
332.138	68.44
332.35	78.68
332.563	-33.96
332.776	19.29
332.989	11.09
333.202	31.57
333.414	56.15
333.627	-46.25
333.84	-33.96
334.053	31.57
334.265	27.48
334.478	60.24
334.691	31.57
334.903	80.72
335.116	13.14
335.329	21.33
335.541	78.68
335.754	70.48
335.966	43.86
336.179	-11.43
336.392	2.9
336.604	21.33
336.817	2.9
337.029	-1.19
337.242	21.33
337.454	35.67
337.667	27.48
337.88	45.91
338.092	37.72
338.305	21.33
338.517	23.38
338.729	7
338.942	76.63
339.154	11.09
339.367	17.24
339.579	99.16
339.792	-29.87
340.004	62.29
340.217	72.53
340.429	72.53
340.641	2.9
340.854	-13.48
341.066	-3.24
341.278	4.95
341.491	68.44
341.703	111.44
341.915	56.15
342.128	17.24
342.34	19.29
342.552	-3.24
342.764	45.91
342.977	68.44
343.189	86.87
343.401	37.72
343.613	68.44
343.826	76.63
344.038	29.52
344.25	21.33
344.462	64.34
344.674	-21.67
344.886	56.15
345.099	68.44
345.311	76.63
345.523	60.24
345.735	-38.06
345.947	70.48
346.159	68.44
346.371	66.39
346.583	27.48
346.795	93.01
347.007	47.96
347.219	60.24
347.431	21.33
347.643	76.63
347.855	-9.39
348.067	43.86
348.279	-3.24
348.491	23.38
348.703	84.82
348.915	62.29
349.127	45.91
349.339	101.2
349.551	35.67
349.763	45.91
349.975	68.44
350.187	50
350.399	19.29
350.61	31.57
350.822	-33.96
351.034	50
351.246	-1.19
351.458	31.57
351.669	52.05
351.881	68.44
352.093	76.63
352.305	93.01
352.517	76.63
352.728	27.48
352.94	2.9
353.152	13.14
353.363	-95.4
353.575	27.48
353.787	74.58
353.999	19.29
354.21	78.68
354.422	43.86
354.633	-5.29
354.845	76.63
355.057	-3.24
355.268	-3.24
355.48	64.34
355.692	17.24
355.903	27.48
356.115	45.91
356.326	19.29
356.538	52.05
356.749	125.78
356.961	50
357.172	29.52
357.384	-3.24
357.595	125.78
357.807	78.68
358.018	-15.53
358.23	35.67
358.441	117.59
358.653	90.96
358.864	43.86
359.075	15.19
359.287	47.96
359.498	68.44
359.709	86.87
359.921	27.48
360.132	68.44
360.344	2.9
360.555	-3.24
360.766	47.96
360.977	31.57
361.189	103.25
361.4	43.86
361.611	95.06
361.823	97.11
362.034	2.9
362.245	93.01
362.456	-5.29
362.667	43.86
362.879	84.82
363.09	54.1
363.301	115.54
363.512	-33.96
363.723	119.64
363.935	35.67
364.146	52.05
364.357	95.06
364.568	105.3
364.779	-21.67
364.99	-3.24
365.201	35.67
365.412	68.44
365.623	-44.2
365.834	2.9
366.045	4.95
366.256	62.29
366.467	47.96
366.678	39.76
366.889	37.72
367.1	-44.2
367.311	52.05
367.522	35.67
367.733	35.67
367.944	52.05
368.155	4.95
368.366	78.68
368.577	78.68
368.788	68.44
368.999	4.95
369.209	60.24
369.42	142.16
369.631	84.82
369.842	68.44
370.053	84.82
370.264	58.2
370.474	68.44
370.685	35.67
370.896	-1.19
371.107	95.06
371.317	60.24
371.528	52.05
371.739	88.92
371.95	52.05
372.16	52.05
372.371	2.9
372.582	31.57
372.792	31.57
373.003	84.82
373.214	52.05
373.424	35.67
373.635	72.53
373.846	66.39
374.056	56.15
374.267	60.24
374.477	27.48
374.688	27.48
374.898	133.97
375.109	35.67
375.319	144.21
375.53	43.86
375.74	72.53
375.951	21.33
376.161	33.62
376.372	129.88
376.582	23.38
376.793	2.9
377.003	13.14
377.214	70.48
377.424	43.86
377.635	19.29
377.845	31.57
378.055	136.02
378.266	60.24
378.476	54.1
378.686	43.86
378.897	35.67
379.107	93.01
379.317	2.9
379.528	76.63
379.738	72.53
379.948	-52.39
380.158	-5.29
380.369	39.76
380.579	80.72
380.789	4.95
380.999	47.96
381.21	74.58
381.42	39.76
381.63	62.29
381.84	43.86
382.05	76.63
382.261	142.16
382.471	56.15
382.681	37.72
382.891	109.4
383.101	43.86
383.311	27.48
383.521	56.15
383.731	52.05
383.941	80.72
384.151	7
384.361	111.44
384.571	68.44
384.781	86.87
384.991	101.2
385.201	158.55
385.411	47.96
385.621	68.44
385.831	144.21
386.041	150.36
386.251	80.72
386.461	148.31
386.671	47.96
386.881	17.24
387.091	93.01
387.301	52.05
387.511	33.62
387.72	52.05
387.93	93.01
388.14	29.52
388.35	39.76
388.56	109.4
388.769	158.55
388.979	88.92
389.189	80.72
389.399	62.29
389.609	43.86
389.818	148.31
390.028	52.05
390.238	103.25
390.447	-42.15
390.657	93.01
390.867	19.29
391.076	13.14
391.286	50
391.496	74.58
391.705	64.34
391.915	138.07
392.125	107.35
392.334	15.19
392.544	68.44
392.753	29.52
392.963	129.88
393.172	45.91
393.382	-21.67
393.591	154.45
393.801	27.48
394.01	158.55
394.22	101.2
394.429	78.68
394.639	17.24
394.848	62.29
395.058	142.16
395.267	101.2
395.477	62.29
395.686	4.95
395.895	156.5
396.105	45.91
396.314	43.86
396.524	54.1
396.733	103.25
396.942	95.06
397.152	95.06
397.361	142.16
397.57	76.63
397.78	146.26
397.989	90.96
398.198	125.78
398.407	113.49
398.617	66.39
398.826	70.48
399.035	64.34
399.244	58.2
399.453	142.16
399.663	152.4
399.872	35.67
400.081	50
400.29	103.25
400.499	41.81
400.708	193.36
400.917	136.02
401.127	133.97
401.336	129.88
401.545	179.03
401.754	162.64
401.963	117.59
402.172	133.97
402.381	168.79
402.59	144.21
402.799	90.96
403.008	205.65
403.217	86.87
403.426	185.17
403.635	90.96
403.844	146.26
404.053	125.78
404.262	129.88
404.471	185.17
404.68	150.36
404.888	138.07
405.097	193.36
405.306	117.59
405.515	185.17
405.724	101.2
405.933	174.93
406.142	133.97
406.35	166.74
406.559	183.12
406.768	258.9
406.977	187.22
407.185	240.47
407.394	195.41
407.603	219.99
407.812	152.4
408.02	240.47
408.229	207.7
408.438	219.99
408.646	191.31
408.855	228.18
409.064	308.05
409.272	297.81
409.481	236.37
409.69	217.94
409.898	269.14
410.107	316.24
410.315	318.29
410.524	265.04
410.733	412.5
410.941	406.35
411.15	377.68
411.358	400.21
411.567	441.17
411.775	447.31
411.984	361.3
412.192	379.73
412.401	412.5
412.609	510.8
412.818	559.95
413.026	471.89
413.234	478.03
413.443	510.8
413.651	535.37
413.86	521.04
414.068	576.33
414.276	596.81
414.485	652.11
414.693	611.15
414.901	684.87
415.11	734.03
415.318	738.12
415.526	820.04
415.734	762.7
415.943	756.55
416.151	777.03
416.359	785.23
416.567	904.01
416.776	889.67
416.984	904.01
417.192	920.39
417.4	938.82
417.608	944.97
417.817	938.82
418.025	1016.65
418.233	1182.53
418.441	1131.33
418.649	1141.57
418.857	1260.35
419.065	1258.31
419.273	1194.82
419.481	1356.61
419.689	1452.86
419.897	1465.15
420.105	1452.86
420.313	1594.17
420.521	1667.9
420.729	1628.99
420.937	1602.36
421.145	1674.04
421.353	1848.12
421.561	1899.32
421.769	1880.89
421.977	2065.21
422.185	1887.03
422.393	2153.27
422.601	2353.97
422.809	2288.43
423.017	2267.95
423.224	2409.26
423.432	2474.8
423.64	2474.8
423.848	2685.74
424.056	2566.96
424.263	2825
424.471	2870.06
424.679	2935.59
424.887	3001.13
425.094	3111.72
425.302	3115.81
425.51	3283.75
425.718	3500.83
425.925	3339.04
426.133	3490.59
426.341	3674.91
426.548	3805.98
426.756	3830.55
426.964	3922.71
427.171	4137.75
427.379	4051.74
427.586	4223.76
427.794	4477.71
428.001	4633.36
428.209	4858.64
428.417	4750.09
428.624	5163.78
428.832	5159.69
429.039	5057.29
429.247	5098.25
429.454	5534.46
429.662	5882.62
429.869	5593.86
430.076	5884.67
430.284	5866.24
430.491	5944.06
430.699	6370.04
430.906	6261.49
431.114	6421.24
431.321	6834.93
431.528	6748.91
431.736	7224.04
431.943	7617.25
432.15	7293.67
432.358	7475.94
432.565	7828.19
432.772	7803.61
432.979	8131.29
433.187	8280.79
433.394	8475.35
433.601	9069.26
433.808	9226.95
434.016	8932.05
434.223	9312.97
434.43	9972.41
434.637	9718.47
434.844	10289.85
435.052	10564.28
435.259	10525.36
435.466	10537.65
435.673	10449.59
435.88	11063.98
436.087	11725.47
436.294	11819.68
436.501	11424.42
436.708	11659.94
436.915	11741.86
437.122	12726.93
437.329	12669.59
437.537	12993.17
437.743	13357.71
437.95	13197.96
438.157	13816.45
438.364	14328.44
438.571	14021.25
438.778	14197.37
438.985	15546.98
439.192	14903.92
439.399	15309.42
439.606	15065.71
439.813	15854.18
440.02	16839.25
440.227	16538.2
440.433	16452.19
440.64	17117.78
440.847	16699.99
441.054	17345.1
441.261	18225.73
441.467	18446.91
441.674	18580.03
441.881	19397.17
442.088	19335.73
442.294	19294.77
442.501	19581.48
442.708	20130.34
442.914	21039.64
443.121	21754.38
443.328	21187.09
443.534	22870.52
443.741	22063.62
443.948	21363.22
444.154	23454.19
444.361	23298.55
444.568	23265.78
444.774	23329.27
444.981	23554.54
445.187	24330.72
445.394	25326.03
445.6	24832.47
445.807	27507.12
446.013	26311.11
446.22	26833.34
446.426	27722.16
446.633	28283.3
446.839	29313.43
447.046	27720.11
447.252	29221.27
447.459	29569.43
447.665	29460.88
447.871	30583.17
448.078	32104.81
448.284	30685.57
448.491	31576.44
448.697	32678.24
448.903	33335.64
449.11	33427.8
449.316	32801.12
449.522	33452.37
449.728	34228.56
449.935	34697.54
450.141	34675.01
450.347	35215.68
450.553	34390.34
450.76	34705.73
450.966	36157.74
451.172	35361.08
451.378	36262.19
451.584	35817.78
451.791	36321.58
451.997	36938.02
452.203	37304.6
452.409	37243.17
452.615	37329.18
452.821	36190.51
453.027	35518.78
453.233	37613.85
453.44	35750.2
453.646	36632.87
453.852	36581.67
454.058	37755.16
454.264	36546.86
454.47	37409.05
454.676	36303.15
454.882	37333.28
455.088	34306.38
455.294	34705.73
455.5	35373.37
455.705	35944.75
455.911	34289.99
456.117	34005.33
456.323	33423.7
456.529	31787.38
456.735	33026.4
456.941	32291.18
457.147	31572.34
457.352	30970.24
457.558	30456.2
457.764	30486.92
457.97	30083.47
458.176	29596.05
458.381	29458.84
458.587	28195.24
458.793	28172.71
458.999	26683.84
459.204	28477.86
459.41	28148.14
459.616	26032.58
459.821	26061.26
460.027	25954.76
460.233	25575.89
460.438	24097.25
460.644	24680.92
460.85	23261.68
461.055	23239.15
461.261	23128.56
461.466	21154.32
461.672	20783.64
461.878	22370.82
462.083	20705.82
462.289	20408.86
462.494	20384.29
462.7	19337.77
462.905	18690.62
463.111	19397.17
463.316	19665.45
463.522	18942.52
463.727	19130.93
463.932	18926.13
464.138	18858.55
464.343	18858.55
464.549	18557.5
464.754	18764.34
464.959	18725.43
465.165	18778.68
465.37	17920.58
465.575	17396.3
465.781	18135.62
465.986	18440.76
466.191	17451.6
466.397	17226.32
466.602	16349.79
466.807	17093.2
467.012	17128.02
467.218	17052.24
467.423	16912.98
467.628	16964.18
467.833	17742.41
468.038	16869.97
468.244	16722.52
