Data from USB4F104151__62__14-43-14-619.txt Node

Date: Thu Mar 13 14:43:14 EDT 2025
User: louis
Spectrometer: USB4F10415
Trigger mode: 4
Integration Time (sec): 2.000000E-2
Scans to average: 1
Electric dark correction enabled: true
Nonlinearity correction enabled: false
Boxcar width: 0
XAxis mode: Wavelengths
Number of Pixels in Spectrum: 3648
>>>>>Begin Spectral Data<<<<<
178.204	-193.19
178.424	-193.19
178.644	-193.19
178.864	-176.81
179.084	-53.93
179.304	-19.11
179.524	21.85
179.744	42.32
179.964	-19.11
180.184	1.37
180.404	-37.55
180.624	-21.16
180.844	-4.78
181.064	-12.97
181.283	44.37
181.503	-27.31
181.723	32.08
181.943	-39.59
182.163	79.19
182.383	9.56
182.602	13.65
182.822	15.7
183.042	-12.97
183.262	-15.02
183.482	36.18
183.701	-8.87
183.921	-4.78
184.141	9.56
184.361	21.85
184.58	9.56
184.8	48.47
185.02	-41.64
185.239	71
185.459	13.65
185.679	11.61
185.898	-80.55
186.118	52.56
186.338	95.57
186.557	7.51
186.777	38.23
186.997	11.61
187.216	30.04
187.436	-8.87
187.655	73.04
187.875	52.56
188.095	-6.83
188.314	17.75
188.534	21.85
188.753	5.46
188.973	27.99
189.192	85.33
189.412	-29.35
189.631	36.18
189.851	-4.78
190.07	95.57
190.29	48.47
190.509	3.41
190.729	-72.36
190.948	44.37
191.168	136.53
191.387	-12.97
191.607	-37.55
191.826	7.51
192.045	-21.16
192.265	62.8
192.484	-12.97
192.704	38.23
192.923	-12.97
193.142	44.37
193.362	36.18
193.581	54.61
193.8	-29.35
194.02	38.23
194.239	54.61
194.458	-0.68
194.678	1.37
194.897	-6.83
195.116	-0.68
195.335	-12.97
195.555	-29.35
195.774	-68.27
195.993	-8.87
196.212	60.76
196.432	46.42
196.651	1.37
196.87	19.8
197.089	99.67
197.308	101.72
197.528	140.63
197.747	-19.11
197.966	21.85
198.185	34.13
198.404	19.8
198.623	68.95
198.842	122.2
199.062	-74.41
199.281	-12.97
199.5	-15.02
199.719	27.99
199.938	21.85
200.157	-19.11
200.376	75.09
200.595	122.2
200.814	46.42
201.033	-27.31
201.252	3.41
201.471	-43.69
201.69	36.18
201.909	13.65
202.128	-27.31
202.347	13.65
202.566	-70.31
202.785	-31.4
203.004	60.76
203.223	81.24
203.442	52.56
203.661	-58.03
203.879	19.8
204.098	75.09
204.317	-37.55
204.536	27.99
204.755	-29.35
204.974	-2.73
205.193	-29.35
205.411	-78.51
205.63	-12.97
205.849	15.7
206.068	52.56
206.287	-4.78
206.505	68.95
206.724	40.28
206.943	19.8
207.162	44.37
207.381	60.76
207.599	-37.55
207.818	-86.7
208.037	-21.16
208.255	71
208.474	-21.16
208.693	56.66
208.911	52.56
209.13	-8.87
209.349	-17.07
209.567	-37.55
209.786	36.18
210.005	34.13
210.223	27.99
210.442	-70.31
210.661	93.52
210.879	-43.69
211.098	-12.97
211.316	-2.73
211.535	54.61
211.753	-33.45
211.972	120.15
212.191	-68.27
212.409	-12.97
212.628	32.08
212.846	21.85
213.065	95.57
213.283	1.37
213.502	21.85
213.72	-12.97
213.938	-62.12
214.157	-4.78
214.375	-2.73
214.594	-23.21
214.812	93.52
215.031	11.61
215.249	27.99
215.467	-49.83
215.686	-19.11
215.904	32.08
216.122	-2.73
216.341	-8.87
216.559	-10.92
216.778	36.18
216.996	11.61
217.214	21.85
217.432	-66.22
217.651	21.85
217.869	46.42
218.087	11.61
218.306	11.61
218.524	11.61
218.742	-72.36
218.96	60.76
219.179	-53.93
219.397	54.61
219.615	132.44
219.833	101.72
220.051	-51.88
220.27	89.43
220.488	3.41
220.706	42.32
220.924	-17.07
221.142	-29.35
221.36	-2.73
221.578	-0.68
221.796	-27.31
222.015	150.87
222.233	3.41
222.451	101.72
222.669	-76.46
222.887	-41.64
223.105	-37.55
223.323	3.41
223.541	19.8
223.759	19.8
223.977	-66.22
224.195	60.76
224.413	-12.97
224.631	27.99
224.849	-15.02
225.067	52.56
225.285	-29.35
225.503	-35.5
225.721	-29.35
225.939	27.99
226.157	21.85
226.375	81.24
226.592	-10.92
226.81	-49.83
227.028	27.99
227.246	85.33
227.464	7.51
227.682	-4.78
227.9	-2.73
228.117	52.56
228.335	54.61
228.553	64.85
228.771	-2.73
228.989	15.7
229.206	-33.45
229.424	75.09
229.642	-21.16
229.86	32.08
230.077	-19.11
230.295	62.8
230.513	40.28
230.731	11.61
230.948	-19.11
231.166	56.66
231.384	30.04
231.601	32.08
231.819	38.23
232.037	21.85
232.254	-0.68
232.472	77.14
232.689	15.7
232.907	30.04
233.125	54.61
233.342	11.61
233.56	-15.02
233.777	54.61
233.995	40.28
234.213	101.72
234.43	62.8
234.648	-2.73
234.865	73.04
235.083	38.23
235.3	3.41
235.518	38.23
235.735	11.61
235.953	38.23
236.17	9.56
236.388	32.08
236.605	19.8
236.822	52.56
237.04	7.51
237.257	5.46
237.475	11.61
237.692	44.37
237.909	50.52
238.127	-4.78
238.344	101.72
238.562	34.13
238.779	9.56
238.996	-49.83
239.214	13.65
239.431	-4.78
239.648	36.18
239.865	36.18
240.083	36.18
240.3	-12.97
240.517	13.65
240.735	21.85
240.952	54.61
241.169	-64.17
241.386	52.56
241.603	-8.87
241.821	-35.5
242.038	36.18
242.255	68.95
242.472	-10.92
242.689	77.14
242.907	68.95
243.124	60.76
243.341	5.46
243.558	50.52
243.775	40.28
243.992	52.56
244.209	-60.07
244.426	109.91
244.643	1.37
244.86	38.23
245.078	3.41
245.295	44.37
245.512	52.56
245.729	52.56
245.946	-27.31
246.163	-17.07
246.38	-4.78
246.597	27.99
246.814	36.18
247.031	36.18
247.248	-43.69
247.464	-4.78
247.681	27.99
247.898	-2.73
248.115	-12.97
248.332	52.56
248.549	27.99
248.766	27.99
248.983	36.18
249.2	38.23
249.417	109.91
249.633	-49.83
249.85	27.99
250.067	-29.35
250.284	-8.87
250.501	99.67
250.717	-70.31
250.934	-70.31
251.151	-15.02
251.368	60.76
251.585	5.46
251.801	7.51
252.018	48.47
252.235	-0.68
252.451	-4.78
252.668	-4.78
252.885	-17.07
253.102	56.66
253.318	13.65
253.535	-96.94
253.752	32.08
253.968	3.41
254.185	44.37
254.401	-39.59
254.618	30.04
254.835	77.14
255.051	44.37
255.268	62.8
255.484	77.14
255.701	-37.55
255.917	3.41
256.134	11.61
256.351	36.18
256.567	46.42
256.784	-29.35
257	11.61
257.217	54.61
257.433	27.99
257.65	-101.03
257.866	83.28
258.082	-88.75
258.299	3.41
258.515	36.18
258.732	-39.59
258.948	40.28
259.165	48.47
259.381	66.9
259.597	122.2
259.814	9.56
260.03	66.9
260.246	3.41
260.463	7.51
260.679	64.85
260.895	-53.93
261.112	-45.74
261.328	60.76
261.544	60.76
261.761	52.56
261.977	48.47
262.193	-12.97
262.409	-8.87
262.626	60.76
262.842	68.95
263.058	11.61
263.274	13.65
263.49	95.57
263.707	-12.97
263.923	38.23
264.139	-8.87
264.355	40.28
264.571	15.7
264.787	64.85
265.004	32.08
265.22	-27.31
265.436	42.32
265.652	-10.92
265.868	36.18
266.084	60.76
266.3	11.61
266.516	30.04
266.732	-51.88
266.948	52.56
267.164	-37.55
267.38	5.46
267.596	42.32
267.812	34.13
268.028	11.61
268.244	-8.87
268.46	13.65
268.676	56.66
268.892	-8.87
269.108	-43.69
269.324	25.94
269.54	-0.68
269.756	-4.78
269.972	-23.21
270.188	32.08
270.403	32.08
270.619	46.42
270.835	-10.92
271.051	101.72
271.267	5.46
271.483	42.32
271.698	19.8
271.914	-21.16
272.13	32.08
272.346	93.52
272.562	36.18
272.777	36.18
272.993	15.7
273.209	-2.73
273.425	-25.26
273.64	-27.31
273.856	-0.68
274.072	-19.11
274.287	-62.12
274.503	71
274.719	30.04
274.934	-2.73
275.15	3.41
275.366	-2.73
275.581	19.8
275.797	56.66
276.012	32.08
276.228	-92.84
276.444	-148.14
276.659	23.89
276.875	-12.97
277.09	5.46
277.306	-12.97
277.521	38.23
277.737	36.18
277.952	-12.97
278.168	15.7
278.383	25.94
278.599	-4.78
278.814	11.61
279.03	-49.83
279.245	68.95
279.461	44.37
279.676	91.48
279.892	-41.64
280.107	-10.92
280.322	36.18
280.538	23.89
280.753	7.51
280.969	-39.59
281.184	-27.31
281.399	101.72
281.615	7.51
281.83	-19.11
282.045	-10.92
282.26	-4.78
282.476	-12.97
282.691	19.8
282.906	-17.07
283.122	3.41
283.337	-45.74
283.552	32.08
283.767	44.37
283.983	54.61
284.198	-4.78
284.413	116.05
284.628	36.18
284.843	-41.64
285.058	77.14
285.274	21.85
285.489	-33.45
285.704	11.61
285.919	-8.87
286.134	27.99
286.349	38.23
286.564	11.61
286.779	64.85
286.995	-0.68
287.21	-35.5
287.425	13.65
287.64	-2.73
287.855	-19.11
288.07	-53.93
288.285	32.08
288.5	77.14
288.715	25.94
288.93	3.41
289.145	36.18
289.36	27.99
289.575	60.76
289.79	75.09
290.004	-43.69
290.219	95.57
290.434	-0.68
290.649	-2.73
290.864	-17.07
291.079	-10.92
291.294	19.8
291.509	21.85
291.724	30.04
291.938	-33.45
292.153	52.56
292.368	21.85
292.583	19.8
292.798	-43.69
293.012	-19.11
293.227	46.42
293.442	27.99
293.657	50.52
293.871	60.76
294.086	13.65
294.301	62.8
294.516	15.7
294.73	-37.55
294.945	-78.51
295.16	48.47
295.374	46.42
295.589	60.76
295.804	-29.35
296.018	15.7
296.233	87.38
296.447	85.33
296.662	3.41
296.877	38.23
297.091	54.61
297.306	-0.68
297.52	1.37
297.735	36.18
297.949	15.7
298.164	-2.73
298.378	68.95
298.593	5.46
298.807	30.04
299.022	87.38
299.236	5.46
299.451	-45.74
299.665	-60.07
299.88	3.41
300.094	32.08
300.309	21.85
300.523	11.61
300.737	23.89
300.952	-10.92
301.166	-45.74
301.381	-31.4
301.595	-10.92
301.809	52.56
302.024	-58.03
302.238	73.04
302.452	27.99
302.667	48.47
302.881	44.37
303.095	27.99
303.309	60.76
303.524	48.47
303.738	5.46
303.952	-6.83
304.166	103.76
304.381	-25.26
304.595	38.23
304.809	13.65
305.023	23.89
305.237	-51.88
305.452	15.7
305.666	126.29
305.88	85.33
306.094	27.99
306.308	48.47
306.522	-4.78
306.736	25.94
306.95	-6.83
307.164	52.56
307.379	46.42
307.593	13.65
307.807	1.37
308.021	-2.73
308.235	32.08
308.449	46.42
308.663	48.47
308.877	68.95
309.091	27.99
309.305	19.8
309.519	3.41
309.733	11.61
309.947	-19.11
310.161	-37.55
310.374	25.94
310.588	56.66
310.802	-10.92
311.016	62.8
311.23	19.8
311.444	15.7
311.658	-37.55
311.872	36.18
312.085	66.9
312.299	56.66
312.513	36.18
312.727	36.18
312.941	19.8
313.154	5.46
313.368	3.41
313.582	15.7
313.796	62.8
314.009	-19.11
314.223	85.33
314.437	27.99
314.651	27.99
314.864	60.76
315.078	23.89
315.292	-47.79
315.505	56.66
315.719	79.19
315.933	19.8
316.146	36.18
316.36	-8.87
316.573	-0.68
316.787	87.38
317.001	93.52
317.214	-27.31
317.428	44.37
317.641	-0.68
317.855	-60.07
318.068	11.61
318.282	52.56
318.495	89.43
318.709	32.08
318.922	-31.4
319.136	54.61
319.349	62.8
319.563	-19.11
319.776	34.13
319.99	48.47
320.203	66.9
320.417	19.8
320.63	42.32
320.843	91.48
321.057	-10.92
321.27	-2.73
321.483	-29.35
321.697	-6.83
321.91	7.51
322.124	27.99
322.337	122.2
322.55	30.04
322.763	-45.74
322.977	21.85
323.19	-0.68
323.403	44.37
323.617	-51.88
323.83	5.46
324.043	73.04
324.256	13.65
324.469	-45.74
324.683	79.19
324.896	30.04
325.109	-45.74
325.322	-35.5
325.535	19.8
325.748	62.8
325.962	46.42
326.175	71
326.388	-21.16
326.601	73.04
326.814	30.04
327.027	3.41
327.24	36.18
327.453	-15.02
327.666	27.99
327.879	13.65
328.092	1.37
328.305	48.47
328.518	3.41
328.731	-21.16
328.944	19.8
329.157	-94.89
329.37	30.04
329.583	36.18
329.796	21.85
330.009	7.51
330.222	-21.16
330.435	-21.16
330.648	-60.07
330.861	66.9
331.073	38.23
331.286	73.04
331.499	-8.87
331.712	-25.26
331.925	-19.11
332.138	-53.93
332.35	-27.31
332.563	-76.46
332.776	50.52
332.989	3.41
333.202	-45.74
333.414	1.37
333.627	-62.12
333.84	27.99
334.053	15.7
334.265	7.51
334.478	-43.69
334.691	81.24
334.903	27.99
335.116	19.8
335.329	-35.5
335.541	71
335.754	60.76
335.966	-37.55
336.179	9.56
336.392	11.61
336.604	64.85
336.817	-12.97
337.029	-17.07
337.242	21.85
337.454	46.42
337.667	36.18
337.88	79.19
338.092	54.61
338.305	44.37
338.517	7.51
338.729	3.41
338.942	79.19
339.154	27.99
339.367	-51.88
339.579	-8.87
339.792	-21.16
340.004	46.42
340.217	46.42
340.429	-2.73
340.641	-66.22
340.854	34.13
341.066	56.66
341.278	42.32
341.491	-29.35
341.703	52.56
341.915	25.94
342.128	52.56
342.34	32.08
342.552	21.85
342.764	-51.88
342.977	54.61
343.189	30.04
343.401	-0.68
343.613	5.46
343.826	19.8
344.038	-10.92
344.25	19.8
344.462	-12.97
344.674	-8.87
344.886	71
345.099	103.76
345.311	23.89
345.523	-2.73
345.735	11.61
345.947	17.75
346.159	118.1
346.371	-0.68
346.583	-66.22
346.795	85.33
347.007	-6.83
347.219	38.23
347.431	19.8
347.643	27.99
347.855	-37.55
348.067	97.62
348.279	-45.74
348.491	73.04
348.703	-27.31
348.915	17.75
349.127	-35.5
349.339	32.08
349.551	-62.12
349.763	97.62
349.975	-60.07
350.187	7.51
350.399	38.23
350.61	54.61
350.822	30.04
351.034	77.14
351.246	23.89
351.458	40.28
351.669	23.89
351.881	58.71
352.093	52.56
352.305	44.37
352.517	25.94
352.728	87.38
352.94	1.37
353.152	91.48
353.363	7.51
353.575	-60.07
353.787	9.56
353.999	77.14
354.21	27.99
354.422	85.33
354.633	64.85
354.845	54.61
355.057	-33.45
355.268	11.61
355.48	66.9
355.692	-51.88
355.903	48.47
356.115	13.65
356.326	-78.51
356.538	11.61
356.749	44.37
356.961	15.7
357.172	19.8
357.384	68.95
357.595	44.37
357.807	27.99
358.018	-10.92
358.23	114
358.441	68.95
358.653	62.8
358.864	23.89
359.075	-21.16
359.287	-55.98
359.498	62.8
359.709	5.46
359.921	36.18
360.132	9.56
360.344	15.7
360.555	-19.11
360.766	77.14
360.977	-2.73
361.189	44.37
361.4	30.04
361.611	48.47
361.823	54.61
362.034	15.7
362.245	-35.5
362.456	46.42
362.667	58.71
362.879	81.24
363.09	79.19
363.301	60.76
363.512	56.66
363.723	-58.03
363.935	5.46
364.146	95.57
364.357	50.52
364.568	5.46
364.779	-35.5
364.99	75.09
365.201	-19.11
365.412	93.52
365.623	19.8
365.834	52.56
366.045	7.51
366.256	1.37
366.467	52.56
366.678	36.18
366.889	25.94
367.1	-35.5
367.311	60.76
367.522	-0.68
367.733	-29.35
367.944	21.85
368.155	52.56
368.366	50.52
368.577	60.76
368.788	52.56
368.999	36.18
369.209	68.95
369.42	58.71
369.631	36.18
369.842	23.89
370.053	21.85
370.264	36.18
370.474	32.08
370.685	-23.21
370.896	15.7
371.107	23.89
371.317	95.57
371.528	11.61
371.739	15.7
371.95	-49.83
372.16	25.94
372.371	-21.16
372.582	36.18
372.792	81.24
373.003	68.95
373.214	-39.59
373.424	81.24
373.635	-41.64
373.846	-29.35
374.056	-4.78
374.267	-0.68
374.477	27.99
374.688	-35.5
374.898	68.95
375.109	71
375.319	75.09
375.53	60.76
375.74	85.33
375.951	-10.92
376.161	27.99
376.372	109.91
376.582	-27.31
376.793	62.8
377.003	23.89
377.214	7.51
377.424	44.37
377.635	-2.73
377.845	9.56
378.055	48.47
378.266	36.18
378.476	44.37
378.686	32.08
378.897	62.8
379.107	38.23
379.317	32.08
379.528	99.67
379.738	122.2
379.948	62.8
380.158	77.14
380.369	5.46
380.579	21.85
380.789	58.71
380.999	77.14
381.21	11.61
381.42	71
381.63	36.18
381.84	54.61
382.05	36.18
382.261	-2.73
382.471	17.75
382.681	-25.26
382.891	23.89
383.101	25.94
383.311	-60.07
383.521	27.99
383.731	46.42
383.941	46.42
384.151	-10.92
384.361	-62.12
384.571	34.13
384.781	44.37
384.991	130.39
385.201	79.19
385.411	64.85
385.621	19.8
385.831	68.95
386.041	15.7
386.251	30.04
386.461	54.61
386.671	36.18
386.881	17.75
387.091	19.8
387.301	99.67
387.511	48.47
387.72	32.08
387.93	9.56
388.14	27.99
388.35	3.41
388.56	62.8
388.769	-0.68
388.979	46.42
389.189	32.08
389.399	50.52
389.609	60.76
389.818	5.46
390.028	83.28
390.238	-4.78
390.447	50.52
390.657	50.52
390.867	-51.88
391.076	46.42
391.286	68.95
391.496	27.99
391.705	-53.93
391.915	-27.31
392.125	64.85
392.334	11.61
392.544	-21.16
392.753	75.09
392.963	40.28
393.172	46.42
393.382	21.85
393.591	46.42
393.801	44.37
394.01	83.28
394.22	103.76
394.429	27.99
394.639	60.76
394.848	-4.78
395.058	36.18
395.267	44.37
395.477	71
395.686	56.66
395.895	77.14
396.105	146.77
396.314	64.85
396.524	68.95
396.733	95.57
396.942	126.29
397.152	60.76
397.361	152.92
397.57	85.33
397.78	38.23
397.989	146.77
398.198	128.34
398.407	64.85
398.617	126.29
398.826	52.56
399.035	187.73
399.244	128.34
399.453	15.7
399.663	44.37
399.872	85.33
400.081	-10.92
400.29	142.68
400.499	56.66
400.708	56.66
400.917	36.18
401.127	101.72
401.336	60.76
401.545	169.3
401.754	175.44
401.963	99.67
402.172	77.14
402.381	13.65
402.59	89.43
402.799	62.8
403.008	177.49
403.217	107.86
403.426	105.81
403.635	134.48
403.844	99.67
404.053	71
404.262	179.54
404.471	218.45
404.68	81.24
404.888	66.9
405.097	128.34
405.306	148.82
405.515	85.33
405.724	185.68
405.933	105.81
406.142	169.3
406.35	165.2
406.559	148.82
406.768	116.05
406.977	197.97
407.185	142.68
407.394	163.15
407.603	126.29
407.812	169.3
408.02	197.97
408.229	159.06
408.438	171.35
408.646	218.45
408.855	183.63
409.064	214.35
409.272	146.77
409.481	232.79
409.69	187.73
409.898	234.83
410.107	275.79
410.315	159.06
410.524	177.49
410.733	355.66
410.941	261.46
411.15	347.47
411.358	378.19
411.567	308.56
411.775	324.94
411.984	341.33
412.192	453.97
412.401	427.34
412.609	382.29
412.818	425.29
413.026	372.05
413.234	441.68
413.443	494.93
413.651	488.78
413.86	453.97
414.068	527.69
414.276	480.59
414.485	501.07
414.693	515.41
414.901	531.79
415.11	566.6
415.318	644.43
415.526	597.32
415.734	650.57
415.943	648.52
416.151	718.15
416.359	714.06
416.567	648.52
416.776	773.45
416.984	746.83
417.192	798.03
417.4	863.56
417.608	740.68
417.817	896.33
418.025	888.14
418.233	996.68
418.441	896.33
418.649	1011.01
418.857	974.15
419.065	1072.45
419.273	963.91
419.481	1117.51
419.689	1142.08
419.897	1224
420.105	1215.81
420.313	1307.97
420.521	1283.39
420.729	1330.5
420.937	1426.75
421.145	1430.85
421.353	1467.71
421.561	1576.25
421.769	1547.58
421.977	1609.02
422.185	1600.83
422.393	1817.91
422.601	1840.44
422.809	1897.78
423.017	1779
423.224	1971.51
423.432	2020.66
423.64	1955.13
423.848	2209.08
424.056	2037.05
424.263	2346.29
424.471	2297.14
424.679	2256.18
424.887	2551.09
425.094	2583.85
425.302	2514.22
425.51	2694.44
425.718	2725.16
425.925	2759.98
426.133	2923.82
426.341	3038.5
426.548	3069.22
426.756	3202.34
426.964	3159.33
427.171	3286.31
427.379	3460.38
427.586	3452.19
427.794	3648.8
428.001	3730.72
428.209	4039.96
428.417	4013.34
428.624	4099.35
428.832	4279.57
429.039	4140.31
429.247	4037.91
429.454	4625.68
429.662	4877.58
429.869	4525.33
430.076	4910.35
430.284	4703.5
430.491	4984.07
430.699	5199.11
430.906	5020.94
431.114	5264.65
431.321	5408
431.528	5524.74
431.736	5952.76
431.943	6114.55
432.15	5887.23
432.358	6081.78
432.565	6292.73
432.772	6321.4
432.979	6628.59
433.187	6810.86
433.394	6913.26
433.601	7329
433.808	7261.41
434.016	7199.98
434.223	7498.98
434.43	8129.75
434.637	7896.28
434.844	8504.53
435.052	8490.2
435.259	8475.86
435.466	8400.09
435.673	8420.56
435.88	8883.41
436.087	9393.35
436.294	9653.44
436.501	9293
436.708	9315.53
436.915	9637.06
437.122	10153.15
437.329	10046.65
437.537	10316.98
437.743	10704.05
437.95	10493.11
438.157	10939.57
438.364	11465.89
438.571	11445.41
438.778	11506.85
438.985	12577.94
439.192	11926.69
439.399	12469.4
439.606	12303.51
439.813	12786.83
440.02	13644.93
440.227	13292.68
440.433	13118.61
440.64	13702.28
440.847	13624.45
441.054	14017.66
441.261	14941.3
441.467	14464.12
441.674	15047.79
441.881	15469.67
442.088	15584.36
442.294	15436.91
442.501	15838.31
442.708	16114.78
442.914	16626.78
443.121	17482.83
443.328	16880.72
443.534	18037.83
443.741	17603.66
443.948	17173.58
444.154	18689.08
444.361	18490.43
444.568	18662.46
444.774	18748.47
444.981	18881.59
445.187	19377.2
445.394	19956.77
445.6	19979.3
445.807	21754.89
446.013	20726.81
446.22	21097.49
446.426	22369.28
446.633	22170.63
446.839	22920.18
447.046	22217.73
447.252	23282.67
447.459	23452.66
447.665	23288.82
447.871	24339.43
448.078	25328.59
448.284	24202.21
448.491	24792.03
448.697	25971.66
448.903	26237.89
449.11	26121.16
449.316	25957.32
449.522	26364.87
449.728	27282.36
449.935	27206.58
450.141	27098.04
450.347	28091.3
450.553	27106.23
450.76	27366.32
450.966	28435.36
451.172	28083.11
451.378	28918.68
451.584	28189.61
451.791	29279.13
451.997	28789.66
452.203	29731.73
452.409	29057.95
452.615	29359
452.821	28048.3
453.027	27898.8
453.233	29533.07
453.44	28443.56
453.646	28625.82
453.852	28930.97
454.058	29166.49
454.264	28146.6
454.47	29021.08
454.676	28046.25
454.882	29408.15
455.088	26954.68
455.294	27139
455.5	27872.17
455.705	28287.91
455.911	26811.32
456.117	26291.14
456.323	25750.48
456.529	24710.11
456.735	25820.11
456.941	25101.27
457.147	24421.34
457.352	24097.77
457.558	23968.74
457.764	23593.97
457.97	23376.88
458.176	22639.61
458.381	23102.45
458.587	21488.65
458.793	21742.6
458.999	20888.6
459.204	22141.96
459.41	21556.24
459.616	20401.18
459.821	20229.15
460.027	20075.56
460.233	19751.98
460.438	18418.75
460.644	19057.71
460.85	17976.39
461.055	17529.93
461.261	17802.31
461.466	16438.36
461.672	15834.21
461.878	17173.58
462.083	16073.82
462.289	15592.55
462.494	15604.84
462.7	14879.86
462.905	14427.26
463.111	14795.89
463.316	15244.4
463.522	14697.59
463.727	14527.61
463.932	14793.84
464.138	14376.06
464.343	14482.55
464.549	14005.38
464.754	14455.93
464.959	14177.4
465.165	14019.71
465.37	13630.6
465.575	13282.44
465.781	13765.76
465.986	13835.39
466.191	13466.76
466.397	13130.89
466.602	12713.11
466.807	12876.94
467.012	13100.17
467.218	12891.28
467.423	12745.87
