Data from USB4F104151__26__14-42-45-746.txt Node

Date: Thu Mar 13 14:42:45 EDT 2025
User: louis
Spectrometer: USB4F10415
Trigger mode: 4
Integration Time (sec): 2.000000E-2
Scans to average: 1
Electric dark correction enabled: true
Nonlinearity correction enabled: false
Boxcar width: 0
XAxis mode: Wavelengths
Number of Pixels in Spectrum: 3648
>>>>>Begin Spectral Data<<<<<
178.204	-86.87
178.424	-86.87
178.644	-86.87
178.864	-179.03
179.084	-146.26
179.304	-2.9
179.524	17.58
179.744	42.15
179.964	13.48
180.184	-15.19
180.404	9.39
180.624	-68.44
180.844	33.96
181.064	-78.68
181.283	27.82
181.503	-31.57
181.723	52.39
181.943	-39.76
182.163	44.2
182.383	-21.33
182.602	48.3
182.822	25.77
183.042	19.63
183.262	-90.96
183.482	66.73
183.701	-35.67
183.921	66.73
184.141	-27.48
184.361	25.77
184.58	-15.19
184.8	29.87
185.02	-2.9
185.239	15.53
185.459	29.87
185.679	50.35
185.898	-113.49
186.118	36.01
186.338	-58.2
186.557	-15.19
186.777	-7
186.997	87.21
187.216	-47.96
187.436	9.39
187.655	9.39
187.875	-60.24
188.095	-11.09
188.314	29.87
188.534	64.68
188.753	-56.15
188.973	50.35
189.192	66.73
189.412	17.58
189.631	19.63
189.851	-43.86
190.07	-4.95
190.29	-60.24
190.509	-35.67
190.729	-23.38
190.948	52.39
191.168	124.07
191.387	-76.63
191.607	-35.67
191.826	36.01
192.045	48.3
192.265	7.34
192.484	-13.14
192.704	21.67
192.923	7.34
193.142	-15.19
193.362	64.68
193.581	44.2
193.8	21.67
194.02	-29.52
194.239	17.58
194.458	46.25
194.678	74.92
194.897	-62.29
195.116	58.54
195.335	-7
195.555	-9.05
195.774	36.01
195.993	17.58
196.212	-43.86
196.432	7.34
196.651	-23.38
196.87	5.29
197.089	44.2
197.308	-2.9
197.528	-31.57
197.747	33.96
197.966	-4.95
198.185	60.59
198.404	9.39
198.623	54.44
198.842	46.25
199.062	23.72
199.281	17.58
199.5	-47.96
199.719	19.63
199.938	85.16
200.157	36.01
200.376	25.77
200.595	38.06
200.814	9.39
201.033	-4.95
201.252	5.29
201.471	19.63
201.69	66.73
201.909	3.24
202.128	3.24
202.347	74.92
202.566	42.15
202.785	-121.68
203.004	13.48
203.223	62.63
203.442	-45.91
203.661	-2.9
203.879	-84.82
204.098	21.67
204.317	-45.91
204.536	25.77
204.755	66.73
204.974	-7
205.193	1.19
205.411	13.48
205.63	-21.33
205.849	-31.57
206.068	-15.19
206.287	-45.91
206.505	27.82
206.724	70.83
206.943	-35.67
207.162	-39.76
207.381	23.72
207.599	50.35
207.818	-82.77
208.037	-15.19
208.255	5.29
208.474	44.2
208.693	83.11
208.911	52.39
209.13	-21.33
209.349	91.31
209.567	11.43
209.786	5.29
210.005	-11.09
210.223	1.19
210.442	-62.29
210.661	66.73
210.879	-45.91
211.098	3.24
211.316	19.63
211.535	27.82
211.753	44.2
211.972	-21.33
212.191	21.67
212.409	38.06
212.628	15.53
212.846	85.16
213.065	42.15
213.283	58.54
213.502	-31.57
213.72	54.44
213.938	1.19
214.157	11.43
214.375	-39.76
214.594	-21.33
214.812	-7
215.031	62.63
215.249	-2.9
215.467	15.53
215.686	-29.52
215.904	-11.09
216.122	-37.72
216.341	19.63
216.559	83.11
216.778	33.96
216.996	25.77
217.214	25.77
217.432	-25.43
217.651	50.35
217.869	124.07
218.087	9.39
218.306	-41.81
218.524	-7
218.742	33.96
218.96	62.63
219.179	31.91
219.397	17.58
219.615	117.93
219.833	17.58
220.051	-70.48
220.27	38.06
220.488	-35.67
220.706	21.67
220.924	-39.76
221.142	25.77
221.36	72.87
221.578	50.35
221.796	-52.05
222.015	54.44
222.233	29.87
222.451	42.15
222.669	42.15
222.887	50.35
223.105	50.35
223.323	9.39
223.541	50.35
223.759	19.63
223.977	-41.81
224.195	38.06
224.413	-15.19
224.631	85.16
224.849	17.58
225.067	66.73
225.285	33.96
225.503	-35.67
225.721	-62.29
225.939	17.58
226.157	54.44
226.375	101.55
226.592	-52.05
226.81	33.96
227.028	-25.43
227.246	15.53
227.464	56.49
227.682	13.48
227.9	33.96
228.117	87.21
228.335	93.35
228.553	42.15
228.771	-27.48
228.989	52.39
229.206	60.59
229.424	-54.1
229.642	29.87
229.86	52.39
230.077	-7
230.295	74.92
230.513	97.45
230.731	27.82
230.948	72.87
231.166	50.35
231.384	27.82
231.601	3.24
231.819	46.25
232.037	60.59
232.254	-64.34
232.472	-2.9
232.689	-13.14
232.907	42.15
233.125	-21.33
233.342	29.87
233.56	-7
233.777	-43.86
233.995	42.15
234.213	33.96
234.43	17.58
234.648	66.73
234.865	-7
235.083	36.01
235.3	-15.19
235.518	-11.09
235.735	19.63
235.953	-39.76
236.17	-31.57
236.388	-0.85
236.605	54.44
236.822	-4.95
237.04	105.64
237.257	76.97
237.475	9.39
237.692	11.43
237.909	13.48
238.127	1.19
238.344	27.82
238.562	66.73
238.779	-56.15
238.996	-2.9
239.214	-23.38
239.431	-31.57
239.648	-43.86
239.865	-13.14
240.083	62.63
240.3	27.82
240.517	38.06
240.735	-39.76
240.952	17.58
241.169	58.54
241.386	42.15
241.603	33.96
241.821	-7
242.038	27.82
242.255	44.2
242.472	13.48
242.689	74.92
242.907	33.96
243.124	-4.95
243.341	-29.52
243.558	38.06
243.775	42.15
243.992	-45.91
244.209	-31.57
244.426	54.44
244.643	19.63
244.86	-31.57
245.078	-7
245.295	-17.24
245.512	-19.29
245.729	-76.63
245.946	27.82
246.163	-11.09
246.38	54.44
246.597	42.15
246.814	-56.15
247.031	58.54
247.248	-9.05
247.464	33.96
247.681	76.97
247.898	101.55
248.115	42.15
248.332	-37.72
248.549	54.44
248.766	66.73
248.983	1.19
249.2	52.39
249.417	60.59
249.633	33.96
249.85	50.35
250.067	-7
250.284	33.96
250.501	36.01
250.717	-39.76
250.934	-15.19
251.151	-11.09
251.368	-56.15
251.585	52.39
251.801	-23.38
252.018	-47.96
252.235	-9.05
252.451	-21.33
252.668	-11.09
252.885	33.96
253.102	58.54
253.318	68.78
253.535	48.3
253.752	17.58
253.968	9.39
254.185	13.48
254.401	-13.14
254.618	-21.33
254.835	-7
255.051	68.78
255.268	-47.96
255.484	9.39
255.701	-37.72
255.917	66.73
256.134	-25.43
256.351	25.77
256.567	-31.57
256.784	29.87
257	-27.48
257.217	-47.96
257.433	56.49
257.65	74.92
257.866	7.34
258.082	1.19
258.299	17.58
258.515	-19.29
258.732	21.67
258.948	-29.52
259.165	5.29
259.381	19.63
259.597	33.96
259.814	29.87
260.03	13.48
260.246	27.82
260.463	15.53
260.679	76.97
260.895	25.77
261.112	29.87
261.328	9.39
261.544	-35.67
261.761	83.11
261.977	50.35
262.193	9.39
262.409	11.43
262.626	-31.57
262.842	50.35
263.058	50.35
263.274	42.15
263.49	-13.14
263.707	44.2
263.923	50.35
264.139	-72.53
264.355	29.87
264.571	99.5
264.787	-31.57
265.004	5.29
265.22	-27.48
265.436	-80.72
265.652	15.53
265.868	42.15
266.084	-7
266.3	1.19
266.516	25.77
266.732	33.96
266.948	-11.09
267.164	-15.19
267.38	15.53
267.596	25.77
267.812	19.63
268.028	89.26
268.244	-64.34
268.46	27.82
268.676	25.77
268.892	79.02
269.108	21.67
269.324	11.43
269.54	-21.33
269.756	68.78
269.972	-54.1
270.188	7.34
270.403	-80.72
270.619	29.87
270.835	54.44
271.051	-31.57
271.267	-15.19
271.483	-9.05
271.698	-4.95
271.914	-45.91
272.13	36.01
272.346	-0.85
272.562	-39.76
272.777	66.73
272.993	5.29
273.209	38.06
273.425	68.78
273.64	50.35
273.856	11.43
274.072	33.96
274.287	-52.05
274.503	58.54
274.719	23.72
274.934	-31.57
275.15	-21.33
275.366	72.87
275.581	-50
275.797	27.82
276.012	23.72
276.228	29.87
276.444	17.58
276.659	50.35
276.875	-21.33
277.09	-17.24
277.306	50.35
277.521	58.54
277.737	-2.9
277.952	54.44
278.168	50.35
278.383	74.92
278.599	33.96
278.814	17.58
279.03	-47.96
279.245	-15.19
279.461	21.67
279.676	13.48
279.892	-23.38
280.107	19.63
280.322	74.92
280.538	-11.09
280.753	1.19
280.969	-4.95
281.184	-17.24
281.399	50.35
281.615	76.97
281.83	52.39
282.045	-33.62
282.26	44.2
282.476	-4.95
282.691	95.4
282.906	23.72
283.122	29.87
283.337	-0.85
283.552	-39.76
283.767	1.19
283.983	-29.52
284.198	-50
284.413	74.92
284.628	-50
284.843	27.82
285.058	27.82
285.274	-31.57
285.489	-52.05
285.704	-7
285.919	-47.96
286.134	40.11
286.349	25.77
286.564	-31.57
286.779	17.58
286.995	44.2
287.21	-0.85
287.425	48.3
287.64	1.19
287.855	-54.1
288.07	-11.09
288.285	33.96
288.5	-31.57
288.715	-9.05
288.93	-23.38
289.145	-78.68
289.36	66.73
289.575	25.77
289.79	48.3
290.004	9.39
290.219	-54.1
290.434	-23.38
290.649	1.19
290.864	-97.11
291.079	38.06
291.294	-95.06
291.509	-13.14
291.724	-25.43
291.938	33.96
292.153	58.54
292.368	5.29
292.583	-21.33
292.798	21.67
293.012	25.77
293.227	44.2
293.442	9.39
293.657	68.78
293.871	81.07
294.086	17.58
294.301	36.01
294.516	25.77
294.73	-21.33
294.945	15.53
295.16	38.06
295.374	9.39
295.589	50.35
295.804	-62.29
296.018	29.87
296.233	52.39
296.447	58.54
296.662	13.48
296.877	1.19
297.091	17.58
297.306	21.67
297.52	48.3
297.735	70.83
297.949	-64.34
298.164	66.73
298.378	42.15
298.593	-70.48
298.807	9.39
299.022	21.67
299.236	103.59
299.451	-11.09
299.665	62.63
299.88	-15.19
300.094	-4.95
300.309	3.24
300.523	25.77
300.737	9.39
300.952	3.24
301.166	21.67
301.381	-25.43
301.595	11.43
301.809	33.96
302.024	83.11
302.238	25.77
302.452	-52.05
302.667	52.39
302.881	13.48
303.095	42.15
303.309	74.92
303.524	11.43
303.738	19.63
303.952	-54.1
304.166	68.78
304.381	-78.68
304.595	52.39
304.809	21.67
305.023	33.96
305.237	-68.44
305.452	-78.68
305.666	50.35
305.88	3.24
306.094	83.11
306.308	-23.38
306.522	70.83
306.736	17.58
306.95	48.3
307.164	79.02
307.379	-88.92
307.593	64.68
307.807	62.63
308.021	9.39
308.235	13.48
308.449	-11.09
308.663	-45.91
308.877	9.39
309.091	17.58
309.305	52.39
309.519	11.43
309.733	48.3
309.947	33.96
310.161	58.54
310.374	3.24
310.588	36.01
310.802	19.63
311.016	17.58
311.23	58.54
311.444	42.15
311.658	31.91
311.872	-64.34
312.085	44.2
312.299	95.4
312.513	66.73
312.727	23.72
312.941	-52.05
313.154	25.77
313.368	19.63
313.582	3.24
313.796	3.24
314.009	-23.38
314.223	-15.19
314.437	42.15
314.651	50.35
314.864	70.83
315.078	-62.29
315.292	-15.19
315.505	17.58
315.719	-7
315.933	-4.95
316.146	25.77
316.36	-2.9
316.573	13.48
316.787	23.72
317.001	40.11
317.214	-21.33
317.428	25.77
317.641	-2.9
317.855	9.39
318.068	-43.86
318.282	-7
318.495	132.26
318.709	38.06
318.922	-2.9
319.136	83.11
319.349	40.11
319.563	42.15
319.776	-2.9
319.99	1.19
320.203	13.48
320.417	17.58
320.63	-17.24
320.843	-9.05
321.057	-7
321.27	21.67
321.483	1.19
321.697	54.44
321.91	60.59
322.124	29.87
322.337	-4.95
322.55	9.39
322.763	25.77
322.977	27.82
323.19	19.63
323.403	42.15
323.617	42.15
323.83	36.01
324.043	-52.05
324.256	50.35
324.469	50.35
324.683	21.67
324.896	7.34
325.109	66.73
325.322	-39.76
325.535	-23.38
325.748	-0.85
325.962	-27.48
326.175	13.48
326.388	74.92
326.601	74.92
326.814	21.67
327.027	17.58
327.24	13.48
327.453	-2.9
327.666	9.39
327.879	-2.9
328.092	91.31
328.305	-2.9
328.518	25.77
328.731	33.96
328.944	-4.95
329.157	33.96
329.37	-0.85
329.583	44.2
329.796	21.67
330.009	1.19
330.222	11.43
330.435	46.25
330.648	-45.91
330.861	70.83
331.073	-0.85
331.286	42.15
331.499	40.11
331.712	23.72
331.925	21.67
332.138	42.15
332.35	42.15
332.563	-7
332.776	9.39
332.989	-41.81
333.202	-39.76
333.414	-33.62
333.627	33.96
333.84	79.02
334.053	91.31
334.265	-19.29
334.478	-43.86
334.691	19.63
334.903	-7
335.116	-23.38
335.329	58.54
335.541	42.15
335.754	31.91
335.966	1.19
336.179	17.58
336.392	-9.05
336.604	9.39
336.817	115.88
337.029	29.87
337.242	58.54
337.454	50.35
337.667	-7
337.88	62.63
338.092	36.01
338.305	74.92
338.517	23.72
338.729	54.44
338.942	107.69
339.154	15.53
339.367	44.2
339.579	52.39
339.792	-19.29
340.004	19.63
340.217	5.29
340.429	31.91
340.641	42.15
340.854	-37.72
341.066	76.97
341.278	62.63
341.491	74.92
341.703	70.83
341.915	-0.85
342.128	1.19
342.34	50.35
342.552	-37.72
342.764	-13.14
342.977	79.02
343.189	-7
343.401	60.59
343.613	-56.15
343.826	42.15
344.038	9.39
344.25	52.39
344.462	-27.48
344.674	38.06
344.886	-25.43
345.099	-43.86
345.311	-7
345.523	50.35
345.735	-103.25
345.947	21.67
346.159	-82.77
346.371	-7
346.583	-70.48
346.795	52.39
347.007	1.19
347.219	50.35
347.431	17.58
347.643	36.01
347.855	-7
348.067	9.39
348.279	-17.24
348.491	33.96
348.703	-39.76
348.915	17.58
349.127	-23.38
349.339	9.39
349.551	42.15
349.763	89.26
349.975	36.01
350.187	31.91
350.399	58.54
350.61	58.54
350.822	17.58
351.034	128.17
351.246	11.43
351.458	17.58
351.669	-31.57
351.881	58.54
352.093	72.87
352.305	87.21
352.517	19.63
352.728	74.92
352.94	13.48
353.152	25.77
353.363	-54.1
353.575	42.15
353.787	-37.72
353.999	25.77
354.21	124.07
354.422	62.63
354.633	13.48
354.845	21.67
355.057	-2.9
355.268	25.77
355.48	76.97
355.692	33.96
355.903	11.43
356.115	1.19
356.326	-80.72
356.538	48.3
356.749	17.58
356.961	85.16
357.172	23.72
357.384	-7
357.595	89.26
357.807	33.96
358.018	-7
358.23	1.19
358.441	50.35
358.653	21.67
358.864	-54.1
359.075	-29.52
359.287	-0.85
359.498	17.58
359.709	17.58
359.921	13.48
360.132	97.45
360.344	42.15
360.555	21.67
360.766	9.39
360.977	36.01
361.189	33.96
361.4	-37.72
361.611	58.54
361.823	27.82
362.034	95.4
362.245	1.19
362.456	-21.33
362.667	79.02
362.879	19.63
363.09	33.96
363.301	85.16
363.512	-4.95
363.723	9.39
363.935	50.35
364.146	-23.38
364.357	-56.15
364.568	-19.29
364.779	-11.09
364.99	68.78
365.201	-64.34
365.412	40.11
365.623	1.19
365.834	58.54
366.045	17.58
366.256	66.73
366.467	-2.9
366.678	33.96
366.889	107.69
367.1	38.06
367.311	58.54
367.522	-4.95
367.733	79.02
367.944	-35.67
368.155	17.58
368.366	66.73
368.577	-2.9
368.788	58.54
368.999	42.15
369.209	17.58
369.42	-21.33
369.631	60.59
369.842	25.77
370.053	3.24
370.264	29.87
370.474	-7
370.685	9.39
370.896	58.54
371.107	21.67
371.317	42.15
371.528	29.87
371.739	132.26
371.95	13.48
372.16	50.35
372.371	-43.86
372.582	31.91
372.792	13.48
373.003	42.15
373.214	17.58
373.424	21.67
373.635	5.29
373.846	93.35
374.056	-27.48
374.267	-37.72
374.477	66.73
374.688	42.15
374.898	33.96
375.109	40.11
375.319	46.25
375.53	132.26
375.74	1.19
375.951	-47.96
376.161	46.25
376.372	70.83
376.582	9.39
376.793	-23.38
377.003	1.19
377.214	9.39
377.424	13.48
377.635	74.92
377.845	62.63
378.055	87.21
378.266	-7
378.476	7.34
378.686	-11.09
378.897	60.59
379.107	76.97
379.317	11.43
379.528	17.58
379.738	66.73
379.948	-7
380.158	38.06
380.369	33.96
380.579	9.39
380.789	62.63
380.999	21.67
381.21	66.73
381.42	91.31
381.63	50.35
381.84	42.15
382.05	29.87
382.261	111.78
382.471	17.58
382.681	33.96
382.891	-0.85
383.101	11.43
383.311	-27.48
383.521	-29.52
383.731	70.83
383.941	42.15
384.151	-29.52
384.361	81.07
384.571	-35.67
384.781	68.78
384.991	109.74
385.201	11.43
385.411	66.73
385.621	-2.9
385.831	42.15
386.041	9.39
386.251	-23.38
386.461	79.02
386.671	15.53
386.881	124.07
387.091	-21.33
387.301	124.07
387.511	74.92
387.72	66.73
387.93	1.19
388.14	27.82
388.35	62.63
388.56	50.35
388.769	13.48
388.979	31.91
389.189	58.54
389.399	1.19
389.609	81.07
389.818	99.5
390.028	91.31
390.238	68.78
390.447	-72.53
390.657	19.63
390.867	33.96
391.076	17.58
391.286	91.31
391.496	36.01
391.705	38.06
391.915	50.35
392.125	72.87
392.334	33.96
392.544	91.31
392.753	58.54
392.963	70.83
393.172	83.11
393.382	-2.9
393.591	1.19
393.801	5.29
394.01	46.25
394.22	25.77
394.429	87.21
394.639	46.25
394.848	58.54
395.058	46.25
395.267	29.87
395.477	62.63
395.686	50.35
395.895	72.87
396.105	74.92
396.314	19.63
396.524	50.35
396.733	85.16
396.942	66.73
397.152	52.39
397.361	70.83
397.57	95.4
397.78	76.97
397.989	76.97
398.198	83.11
398.407	58.54
398.617	29.87
398.826	138.41
399.035	9.39
399.244	81.07
399.453	13.48
399.663	148.65
399.872	66.73
400.081	-54.1
400.29	156.84
400.499	33.96
400.708	99.5
400.917	17.58
401.127	109.74
401.336	62.63
401.545	126.12
401.754	93.35
401.963	158.89
402.172	54.44
402.381	58.54
402.59	48.3
402.799	115.88
403.008	74.92
403.217	62.63
403.426	68.78
403.635	25.77
403.844	72.87
404.053	83.11
404.262	70.83
404.471	83.11
404.68	99.5
404.888	95.4
405.097	144.55
405.306	134.31
405.515	140.46
405.724	44.2
405.933	132.26
406.142	85.16
406.35	148.65
406.559	83.11
406.768	99.5
406.977	134.31
407.185	111.78
407.394	173.22
407.603	158.89
407.812	173.22
408.02	177.32
408.229	87.21
408.438	140.46
408.646	158.89
408.855	177.32
409.064	205.99
409.272	177.32
409.481	238.76
409.69	158.89
409.898	173.22
410.107	244.9
410.315	216.23
410.524	165.03
410.733	218.28
410.941	179.37
411.15	371.88
411.358	222.38
411.567	263.33
411.775	285.86
411.984	316.58
412.192	246.95
412.401	224.42
412.609	382.12
412.818	404.64
413.026	306.34
413.234	359.59
413.443	328.87
413.651	371.88
413.86	371.88
414.068	408.74
414.276	324.77
414.485	427.17
414.693	537.76
414.901	529.57
415.11	478.37
415.318	488.61
415.526	504.99
415.734	468.13
415.943	539.81
416.151	576.67
416.359	611.49
416.567	586.91
416.776	631.97
416.984	679.07
417.192	722.08
417.4	689.31
417.608	650.4
417.817	752.8
418.025	724.13
418.233	773.28
418.441	840.86
418.649	791.71
418.857	943.26
419.065	943.26
419.273	879.77
419.481	953.5
419.689	928.92
419.897	1107.1
420.105	1000.6
420.313	1074.33
420.521	1123.48
420.729	1133.72
420.937	1064.09
421.145	1238.17
421.353	1227.93
421.561	1217.69
421.769	1424.53
421.977	1354.9
422.185	1346.71
422.393	1508.5
422.601	1569.94
422.809	1498.26
423.017	1543.32
423.224	1737.87
423.432	1729.68
423.64	1647.76
423.848	1977.48
424.056	1770.64
424.263	1819.79
424.471	1877.13
424.679	2036.88
424.887	2075.79
425.094	2090.12
425.302	2114.7
425.51	2307.21
425.718	2278.54
425.925	2395.27
426.133	2317.45
426.341	2575.49
426.548	2772.1
426.756	2688.13
426.964	2712.71
427.171	2884.73
427.379	2888.83
427.586	3085.44
427.794	3030.14
428.001	3241.08
428.209	3286.14
428.417	3327.1
428.624	3728.5
428.832	3417.21
429.039	3499.13
429.247	3492.98
429.454	3869.81
429.662	4066.41
429.869	3918.96
430.076	3953.77
430.284	4064.36
430.491	4142.19
430.699	4441.19
430.906	4402.28
431.114	4547.69
431.321	4662.37
431.528	4676.71
431.736	4959.33
431.943	5180.51
432.15	5110.88
432.358	5082.21
432.565	5522.52
432.772	5477.46
432.979	5688.4
433.187	5786.71
433.394	5778.51
433.601	6243.4
433.808	6300.75
434.016	6194.25
434.223	6562.89
434.43	6784.07
434.637	6681.67
434.844	6997.06
435.052	7246.91
435.259	7212.09
435.466	7177.28
435.673	7234.62
435.88	7490.62
436.087	7973.94
436.294	7844.91
436.501	7816.24
436.708	8139.82
436.915	8356.91
437.122	8741.93
437.329	8485.93
437.537	8852.52
437.743	9192.48
437.95	8965.15
438.157	9481.24
438.364	9683.99
438.571	9683.99
438.778	10044.43
438.985	10460.17
439.192	10206.22
439.399	10429.45
439.606	10423.31
439.813	11039.75
440.02	11439.1
440.227	11326.46
440.433	11293.69
440.64	11521.02
440.847	11615.23
441.054	11856.89
441.261	12622.83
441.467	12477.42
441.674	12727.27
441.881	13200.35
442.088	13384.67
442.294	13130.72
442.501	13353.95
442.708	13755.35
442.914	14435.28
443.121	14715.85
443.328	14472.14
443.534	15479.74
443.741	15051.72
443.948	14578.64
444.154	15711.16
444.361	15756.22
444.568	16069.56
444.774	15930.3
444.981	16098.23
445.187	16505.77
445.394	17496.99
445.6	17046.44
445.807	18891.66
446.013	17644.45
446.22	18242.45
446.426	18625.42
446.633	18940.81
446.839	19618.69
447.046	19129.22
447.252	20054.9
447.459	20173.69
447.665	19884.92
447.871	20595.57
448.078	21642.08
448.284	20882.28
448.491	21341.03
448.697	22324.05
448.903	22549.33
449.11	22487.89
449.316	22137.69
449.522	22522.71
449.728	23413.57
449.935	23472.96
450.141	23225.16
450.347	23663.43
450.553	23401.29
450.76	23436.1
450.966	24511.28
451.172	23892.8
451.378	24724.27
451.584	24359.73
451.791	24744.75
451.997	24507.19
452.203	24996.65
452.409	25097
452.615	25105.2
452.821	24159.03
453.027	23819.07
453.233	25254.7
453.44	24189.75
453.646	24812.34
453.852	24572.72
454.058	25008.94
454.264	24118.07
454.47	24748.85
454.676	23929.66
454.882	25056.04
455.088	22790.99
455.294	23321.41
455.5	23638.85
455.705	23819.07
455.911	22954.83
456.117	22463.32
456.323	22149.98
456.529	21107.56
456.735	21904.22
456.941	21429.09
457.147	21046.12
457.352	20282.23
457.558	20226.93
457.764	20308.85
457.97	19999.61
458.176	19379.07
458.381	19254.15
458.587	18561.94
458.793	18555.79
458.999	17488.8
459.204	19032.97
459.41	17851.29
459.616	17064.87
459.821	17259.43
460.027	17187.75
460.233	16688.04
460.438	16149.43
460.644	16020.41
460.85	15369.15
461.055	14861.26
461.261	15002.57
461.466	14109.65
461.672	13560.8
461.878	14509.01
462.083	13530.08
462.289	13333.47
462.494	13042.66
462.7	12479.47
462.905	12168.18
463.111	12729.32
463.316	12784.62
463.522	12506.09
463.727	12436.46
463.932	12424.17
464.138	12268.53
464.343	12311.53
464.549	12012.53
464.754	12426.22
464.959	12147.7
465.165	12282.86
465.37	11772.92
465.575	11457.53
465.781	11707.38
465.986	11983.86
466.191	11480.06
466.397	11355.13
466.602	10691.59
466.807	11256.83
467.012	11029.51
467.218	10972.16
467.423	10830.85
467.628	11025.41
467.833	11338.75
468.038	11076.61
468.244	10710.02
