Data from USB4F104151__257__14-45-58-601.txt Node

Date: Thu Mar 13 14:45:58 EDT 2025
User: louis
Spectrometer: USB4F10415
Trigger mode: 4
Integration Time (sec): 2.000000E-2
Scans to average: 1
Electric dark correction enabled: true
Nonlinearity correction enabled: false
Boxcar width: 0
XAxis mode: Wavelengths
Number of Pixels in Spectrum: 3648
>>>>>Begin Spectral Data<<<<<
178.204	-99.84
178.424	-99.84
178.644	-99.84
178.864	-85.5
179.084	-134.65
179.304	-77.31
179.524	-44.54
179.744	-28.16
179.964	41.47
180.184	-3.58
180.404	70.14
180.624	53.76
180.844	-7.68
181.064	-19.97
181.283	-1.54
181.503	37.38
181.723	-19.97
181.943	-30.21
182.163	92.67
182.383	8.7
182.602	41.47
182.822	47.62
183.042	57.86
183.262	20.99
183.482	16.9
183.701	49.66
183.921	10.75
184.141	-24.06
184.361	168.45
184.58	45.57
184.8	57.86
185.02	-36.35
185.239	74.24
185.459	-3.58
185.679	0.51
185.898	25.09
186.118	25.09
186.338	-9.73
186.557	-1.54
186.777	-69.12
186.997	29.18
187.216	6.66
187.436	78.33
187.655	39.42
187.875	104.96
188.095	-17.92
188.314	25.09
188.534	55.81
188.753	45.57
188.973	55.81
189.192	53.76
189.412	6.66
189.631	90.62
189.851	0.51
190.07	80.38
190.29	20.99
190.509	20.99
190.729	29.18
190.948	53.76
191.168	111.1
191.387	70.14
191.607	-26.11
191.826	-7.68
192.045	55.81
192.265	-19.97
192.484	25.09
192.704	94.72
192.923	64
193.142	64
193.362	61.95
193.581	80.38
193.8	61.95
194.02	12.8
194.239	4.61
194.458	16.9
194.678	57.86
194.897	25.09
195.116	35.33
195.335	8.7
195.555	29.18
195.774	-44.54
195.993	66.05
196.212	4.61
196.432	-44.54
196.651	64
196.87	-38.4
197.089	29.18
197.308	8.7
197.528	84.48
197.747	-36.35
197.966	53.76
198.185	80.38
198.404	98.81
198.623	78.33
198.842	45.57
199.062	41.47
199.281	152.06
199.5	18.94
199.719	66.05
199.938	20.99
200.157	37.38
200.376	55.81
200.595	-48.64
200.814	-17.92
201.033	104.96
201.252	51.71
201.471	45.57
201.69	49.66
201.909	55.81
202.128	47.62
202.347	66.05
202.566	10.75
202.785	-44.54
203.004	68.09
203.223	119.29
203.442	-26.11
203.661	61.95
203.879	20.99
204.098	74.24
204.317	-22.02
204.536	-15.87
204.755	70.14
204.974	27.14
205.193	57.86
205.411	20.99
205.63	-44.54
205.849	49.66
206.068	-32.26
206.287	6.66
206.505	47.62
206.724	113.15
206.943	41.47
207.162	-26.11
207.381	-1.54
207.599	53.76
207.818	37.38
208.037	0.51
208.255	70.14
208.474	94.72
208.693	92.67
208.911	27.14
209.13	80.38
209.349	29.18
209.567	-22.02
209.786	78.33
210.005	119.29
210.223	102.91
210.442	20.99
210.661	29.18
210.879	-13.82
211.098	-34.3
211.316	43.52
211.535	66.05
211.753	8.7
211.972	16.9
212.191	-9.73
212.409	61.95
212.628	74.24
212.846	16.9
213.065	33.28
213.283	76.29
213.502	20.99
213.72	18.94
213.938	-7.68
214.157	59.9
214.375	25.09
214.594	-15.87
214.812	72.19
215.031	70.14
215.249	12.8
215.467	70.14
215.686	39.42
215.904	29.18
216.122	14.85
216.341	74.24
216.559	23.04
216.778	-3.58
216.996	61.95
217.214	-26.11
217.432	59.9
217.651	-1.54
217.869	20.99
218.087	53.76
218.306	4.61
218.524	72.19
218.742	-15.87
218.96	29.18
219.179	-19.97
219.397	57.86
219.615	72.19
219.833	45.57
220.051	-50.69
220.27	119.29
220.488	33.28
220.706	-50.69
220.924	-28.16
221.142	61.95
221.36	43.52
221.578	80.38
221.796	35.33
222.015	0.51
222.233	51.71
222.451	57.86
222.669	-19.97
222.887	53.76
223.105	31.23
223.323	0.51
223.541	-7.68
223.759	86.53
223.977	-34.3
224.195	107.01
224.413	8.7
224.631	123.39
224.849	-28.16
225.067	141.82
225.285	29.18
225.503	45.57
225.721	-38.4
225.939	74.24
226.157	-1.54
226.375	20.99
226.592	-7.68
226.81	-52.74
227.028	115.2
227.246	86.53
227.464	98.81
227.682	53.76
227.9	59.9
228.117	-26.11
228.335	70.14
228.553	70.14
228.771	47.62
228.989	78.33
229.206	10.75
229.424	53.76
229.642	20.99
229.86	33.28
230.077	39.42
230.295	-32.26
230.513	61.95
230.731	-15.87
230.948	143.87
231.166	82.43
231.384	-19.97
231.601	29.18
231.819	82.43
232.037	78.33
232.254	8.7
232.472	16.9
232.689	-5.63
232.907	49.66
233.125	37.38
233.342	66.05
233.56	-44.54
233.777	39.42
233.995	33.28
234.213	55.81
234.43	29.18
234.648	-65.02
234.865	-1.54
235.083	76.29
235.3	47.62
235.518	-24.06
235.735	31.23
235.953	109.05
236.17	8.7
236.388	76.29
236.605	61.95
236.822	4.61
237.04	102.91
237.257	45.57
237.475	-11.78
237.692	12.8
237.909	-13.82
238.127	80.38
238.344	35.33
238.562	61.95
238.779	-28.16
238.996	-5.63
239.214	0.51
239.431	41.47
239.648	49.66
239.865	-15.87
240.083	0.51
240.3	47.62
240.517	-28.16
240.735	4.61
240.952	107.01
241.169	154.11
241.386	80.38
241.603	41.47
241.821	31.23
242.038	25.09
242.255	-28.16
242.472	-11.78
242.689	29.18
242.907	57.86
243.124	4.61
243.341	-5.63
243.558	0.51
243.775	-9.73
243.992	-34.3
244.209	37.38
244.426	78.33
244.643	49.66
244.86	23.04
245.078	111.1
245.295	18.94
245.512	61.95
245.729	-24.06
245.946	61.95
246.163	70.14
246.38	4.61
246.597	-13.82
246.814	76.29
247.031	29.18
247.248	29.18
247.464	33.28
247.681	100.86
247.898	37.38
248.115	61.95
248.332	-52.74
248.549	90.62
248.766	37.38
248.983	4.61
249.2	-7.68
249.417	70.14
249.633	-36.35
249.85	102.91
250.067	6.66
250.284	33.28
250.501	78.33
250.717	35.33
250.934	-3.58
251.151	29.18
251.368	4.61
251.585	-3.58
251.801	-3.58
252.018	72.19
252.235	47.62
252.451	14.85
252.668	47.62
252.885	86.53
253.102	25.09
253.318	70.14
253.535	-24.06
253.752	98.81
253.968	-1.54
254.185	94.72
254.401	51.71
254.618	10.75
254.835	-34.3
255.051	6.66
255.268	37.38
255.484	31.23
255.701	59.9
255.917	0.51
256.134	20.99
256.351	53.76
256.567	53.76
256.784	29.18
257	-34.3
257.217	74.24
257.433	-1.54
257.65	70.14
257.866	70.14
258.082	-3.58
258.299	49.66
258.515	0.51
258.732	-15.87
258.948	-65.02
259.165	8.7
259.381	20.99
259.597	-32.26
259.814	49.66
260.03	47.62
260.246	8.7
260.463	49.66
260.679	100.86
260.895	12.8
261.112	-26.11
261.328	29.18
261.544	-58.88
261.761	29.18
261.977	39.42
262.193	-44.54
262.409	55.81
262.626	49.66
262.842	29.18
263.058	23.04
263.274	47.62
263.49	0.51
263.707	53.76
263.923	125.44
264.139	-58.88
264.355	27.14
264.571	8.7
264.787	37.38
265.004	29.18
265.22	-1.54
265.436	78.33
265.652	37.38
265.868	72.19
266.084	-9.73
266.3	39.42
266.516	45.57
266.732	39.42
266.948	76.29
267.164	86.53
267.38	61.95
267.596	41.47
267.812	49.66
268.028	6.66
268.244	14.85
268.46	20.99
268.676	78.33
268.892	74.24
269.108	-1.54
269.324	-19.97
269.54	-9.73
269.756	37.38
269.972	14.85
270.188	-1.54
270.403	47.62
270.619	72.19
270.835	25.09
271.051	-5.63
271.267	-19.97
271.483	8.7
271.698	-1.54
271.914	70.14
272.13	49.66
272.346	61.95
272.562	43.52
272.777	66.05
272.993	55.81
273.209	-38.4
273.425	20.99
273.64	-28.16
273.856	4.61
274.072	37.38
274.287	-7.68
274.503	49.66
274.719	10.75
274.934	45.57
275.15	-34.3
275.366	61.95
275.581	35.33
275.797	49.66
276.012	4.61
276.228	-3.58
276.444	8.7
276.659	53.76
276.875	41.47
277.09	0.51
277.306	-1.54
277.521	41.47
277.737	23.04
277.952	43.52
278.168	49.66
278.383	37.38
278.599	88.57
278.814	55.81
279.03	47.62
279.245	31.23
279.461	-26.11
279.676	53.76
279.892	20.99
280.107	0.51
280.322	12.8
280.538	20.99
280.753	47.62
280.969	59.9
281.184	68.09
281.399	55.81
281.615	-28.16
281.83	29.18
282.045	-1.54
282.26	-32.26
282.476	23.04
282.691	4.61
282.906	47.62
283.122	55.81
283.337	35.33
283.552	76.29
283.767	43.52
283.983	145.92
284.198	53.76
284.413	27.14
284.628	53.76
284.843	86.53
285.058	80.38
285.274	29.18
285.489	25.09
285.704	6.66
285.919	-19.97
286.134	27.14
286.349	8.7
286.564	104.96
286.779	90.62
286.995	2.56
287.21	12.8
287.425	59.9
287.64	12.8
287.855	31.23
288.07	0.51
288.285	27.14
288.5	-7.68
288.715	72.19
288.93	-22.02
289.145	61.95
289.36	12.8
289.575	-28.16
289.79	61.95
290.004	-3.58
290.219	55.81
290.434	8.7
290.649	29.18
290.864	61.95
291.079	61.95
291.294	14.85
291.509	14.85
291.724	29.18
291.938	-3.58
292.153	-15.87
292.368	33.28
292.583	20.99
292.798	33.28
293.012	61.95
293.227	64
293.442	29.18
293.657	14.85
293.871	64
294.086	78.33
294.301	14.85
294.516	20.99
294.73	33.28
294.945	-36.35
295.16	29.18
295.374	72.19
295.589	64
295.804	0.51
296.018	76.29
296.233	172.54
296.447	53.76
296.662	27.14
296.877	154.11
297.091	66.05
297.306	-17.92
297.52	14.85
297.735	45.57
297.949	74.24
298.164	61.95
298.378	-7.68
298.593	70.14
298.807	64
299.022	-3.58
299.236	4.61
299.451	82.43
299.665	41.47
299.88	25.09
300.094	49.66
300.309	8.7
300.523	49.66
300.737	-26.11
300.952	20.99
301.166	74.24
301.381	-32.26
301.595	61.95
301.809	14.85
302.024	-22.02
302.238	23.04
302.452	43.52
302.667	23.04
302.881	107.01
303.095	23.04
303.309	6.66
303.524	-3.58
303.738	86.53
303.952	20.99
304.166	47.62
304.381	86.53
304.595	74.24
304.809	-5.63
305.023	74.24
305.237	27.14
305.452	49.66
305.666	41.47
305.88	14.85
306.094	84.48
306.308	29.18
306.522	-42.5
306.736	45.57
306.95	-36.35
307.164	27.14
307.379	78.33
307.593	78.33
307.807	80.38
308.021	102.91
308.235	88.57
308.449	-15.87
308.663	61.95
308.877	61.95
309.091	12.8
309.305	45.57
309.519	14.85
309.733	61.95
309.947	-48.64
310.161	51.71
310.374	57.86
310.588	-3.58
310.802	29.18
311.016	61.95
311.23	20.99
311.444	64
311.658	76.29
311.872	70.14
312.085	47.62
312.299	20.99
312.513	78.33
312.727	57.86
312.941	16.9
313.154	70.14
313.368	74.24
313.582	27.14
313.796	76.29
314.009	8.7
314.223	45.57
314.437	47.62
314.651	16.9
314.864	-11.78
315.078	16.9
315.292	-9.73
315.505	27.14
315.719	61.95
315.933	23.04
316.146	86.53
316.36	4.61
316.573	-3.58
316.787	16.9
317.001	78.33
317.214	66.05
317.428	14.85
317.641	82.43
317.855	72.19
318.068	61.95
318.282	92.67
318.495	64
318.709	0.51
318.922	107.01
319.136	61.95
319.349	45.57
319.563	12.8
319.776	90.62
319.99	82.43
320.203	82.43
320.417	102.91
320.63	12.8
320.843	16.9
321.057	33.28
321.27	37.38
321.483	25.09
321.697	53.76
321.91	57.86
322.124	25.09
322.337	20.99
322.55	-19.97
322.763	59.9
322.977	51.71
323.19	55.81
323.403	61.95
323.617	12.8
323.83	74.24
324.043	37.38
324.256	90.62
324.469	-26.11
324.683	39.42
324.896	82.43
325.109	-3.58
325.322	-36.35
325.535	53.76
325.748	70.14
325.962	14.85
326.175	43.52
326.388	53.76
326.601	55.81
326.814	16.9
327.027	68.09
327.24	55.81
327.453	-3.58
327.666	41.47
327.879	102.91
328.092	31.23
328.305	98.81
328.518	25.09
328.731	53.76
328.944	-9.73
329.157	45.57
329.37	29.18
329.583	100.86
329.796	57.86
330.009	-97.79
330.222	29.18
330.435	86.53
330.648	25.09
330.861	33.28
331.073	39.42
331.286	-24.06
331.499	115.2
331.712	25.09
331.925	88.57
332.138	-7.68
332.35	-7.68
332.563	31.23
332.776	66.05
332.989	0.51
333.202	80.38
333.414	-46.59
333.627	-17.92
333.84	37.38
334.053	-9.73
334.265	-77.31
334.478	37.38
334.691	-34.3
334.903	-3.58
335.116	-13.82
335.329	29.18
335.541	0.51
335.754	88.57
335.966	37.38
336.179	-11.78
336.392	16.9
336.604	-32.26
336.817	86.53
337.029	18.94
337.242	37.38
337.454	43.52
337.667	-1.54
337.88	47.62
338.092	41.47
338.305	0.51
338.517	25.09
338.729	33.28
338.942	53.76
339.154	78.33
339.367	12.8
339.579	74.24
339.792	20.99
340.004	111.1
340.217	12.8
340.429	70.14
340.641	-56.83
340.854	29.18
341.066	33.28
341.278	74.24
341.491	137.73
341.703	6.66
341.915	61.95
342.128	78.33
342.34	64
342.552	20.99
342.764	33.28
342.977	10.75
343.189	-19.97
343.401	49.66
343.613	23.04
343.826	29.18
344.038	-11.78
344.25	78.33
344.462	53.76
344.674	88.57
344.886	18.94
345.099	64
345.311	-11.78
345.523	-26.11
345.735	4.61
345.947	59.9
346.159	51.71
346.371	41.47
346.583	-36.35
346.795	78.33
347.007	-11.78
347.219	125.44
347.431	8.7
347.643	90.62
347.855	43.52
348.067	82.43
348.279	23.04
348.491	33.28
348.703	49.66
348.915	8.7
349.127	-13.82
349.339	51.71
349.551	47.62
349.763	57.86
349.975	14.85
350.187	96.77
350.399	14.85
350.61	119.29
350.822	8.7
351.034	12.8
351.246	-36.35
351.458	31.23
351.669	41.47
351.881	4.61
352.093	160.25
352.305	33.28
352.517	80.38
352.728	23.04
352.94	0.51
353.152	61.95
353.363	-1.54
353.575	12.8
353.787	84.48
353.999	72.19
354.21	86.53
354.422	86.53
354.633	37.38
354.845	45.57
355.057	-11.78
355.268	80.38
355.48	8.7
355.692	31.23
355.903	45.57
356.115	150.01
356.326	-44.54
356.538	27.14
356.749	74.24
356.961	53.76
357.172	53.76
357.384	100.86
357.595	129.53
357.807	37.38
358.018	53.76
358.23	18.94
358.441	125.44
358.653	25.09
358.864	53.76
359.075	20.99
359.287	43.52
359.498	57.86
359.709	90.62
359.921	45.57
360.132	59.9
360.344	53.76
360.555	14.85
360.766	72.19
360.977	-3.58
361.189	59.9
361.4	12.8
361.611	20.99
361.823	86.53
362.034	45.57
362.245	20.99
362.456	78.33
362.667	29.18
362.879	53.76
363.09	92.67
363.301	23.04
363.512	100.86
363.723	47.62
363.935	76.29
364.146	61.95
364.357	14.85
364.568	45.57
364.779	47.62
364.99	8.7
365.201	-11.78
365.412	47.62
365.623	12.8
365.834	68.09
366.045	33.28
366.256	41.47
366.467	4.61
366.678	29.18
366.889	-3.58
367.1	27.14
367.311	117.25
367.522	66.05
367.733	70.14
367.944	45.57
368.155	25.09
368.366	104.96
368.577	33.28
368.788	104.96
368.999	31.23
369.209	74.24
369.42	86.53
369.631	66.05
369.842	29.18
370.053	25.09
370.264	20.99
370.474	-9.73
370.685	6.66
370.896	45.57
371.107	84.48
371.317	119.29
371.528	49.66
371.739	64
371.95	129.53
372.16	29.18
372.371	-17.92
372.582	61.95
372.792	55.81
373.003	33.28
373.214	-3.58
373.424	143.87
373.635	61.95
373.846	68.09
374.056	37.38
374.267	86.53
374.477	39.42
374.688	70.14
374.898	55.81
375.109	127.49
375.319	23.04
375.53	127.49
375.74	20.99
375.951	-5.63
376.161	55.81
376.372	86.53
376.582	8.7
376.793	53.76
377.003	74.24
377.214	39.42
377.424	51.71
377.635	20.99
377.845	6.66
378.055	12.8
378.266	0.51
378.476	27.14
378.686	-32.26
378.897	31.23
379.107	12.8
379.317	47.62
379.528	41.47
379.738	78.33
379.948	96.77
380.158	90.62
380.369	94.72
380.579	78.33
380.789	37.38
380.999	23.04
381.21	88.57
381.42	68.09
381.63	-17.92
381.84	66.05
382.05	14.85
382.261	84.48
382.471	-11.78
382.681	57.86
382.891	64
383.101	37.38
383.311	20.99
383.521	78.33
383.731	41.47
383.941	96.77
384.151	12.8
384.361	80.38
384.571	25.09
384.781	20.99
384.991	37.38
385.201	78.33
385.411	47.62
385.621	51.71
385.831	18.94
386.041	53.76
386.251	84.48
386.461	20.99
386.671	29.18
386.881	102.91
387.091	31.23
387.301	29.18
387.511	-17.92
387.72	104.96
387.93	61.95
388.14	29.18
388.35	147.97
388.56	94.72
388.769	61.95
388.979	76.29
389.189	-1.54
389.399	86.53
389.609	57.86
389.818	139.77
390.028	-1.54
390.238	80.38
390.447	20.99
390.657	-28.16
390.867	104.96
391.076	45.57
391.286	53.76
391.496	107.01
391.705	16.9
391.915	100.86
392.125	70.14
392.334	57.86
392.544	104.96
392.753	41.47
392.963	43.52
393.172	-1.54
393.382	96.77
393.591	61.95
393.801	29.18
394.01	150.01
394.22	-1.54
394.429	16.9
394.639	86.53
394.848	16.9
395.058	20.99
395.267	8.7
395.477	64
395.686	123.39
395.895	137.73
396.105	90.62
396.314	137.73
396.524	70.14
396.733	-3.58
396.942	133.63
397.152	121.34
397.361	20.99
397.57	154.11
397.78	45.57
397.989	92.67
398.198	195.07
398.407	135.68
398.617	47.62
398.826	115.2
399.035	123.39
399.244	74.24
399.453	80.38
399.663	76.29
399.872	61.95
400.081	57.86
400.29	37.38
400.499	141.82
400.708	94.72
400.917	49.66
401.127	49.66
401.336	78.33
401.545	137.73
401.754	74.24
401.963	66.05
402.172	131.58
402.381	55.81
402.59	57.86
402.799	154.11
403.008	80.38
403.217	199.16
403.426	27.14
403.635	119.29
403.844	35.33
404.053	104.96
404.262	119.29
404.471	154.11
404.68	119.29
404.888	205.31
405.097	70.14
405.306	86.53
405.515	129.53
405.724	143.87
405.933	154.11
406.142	113.15
406.35	139.77
406.559	119.29
406.768	176.64
406.977	205.31
407.185	180.73
407.394	225.79
407.603	74.24
407.812	162.3
408.02	195.07
408.229	233.98
408.438	231.93
408.646	176.64
408.855	203.26
409.064	170.49
409.272	158.21
409.481	244.22
409.69	123.39
409.898	201.21
410.107	322.04
410.315	297.47
410.524	203.26
410.733	236.03
410.941	244.22
411.15	274.94
411.358	291.32
411.567	346.62
411.775	244.22
411.984	334.33
412.192	293.37
412.401	391.67
412.609	365.05
412.818	463.35
413.026	379.39
413.234	412.15
413.443	356.86
413.651	381.43
413.86	489.98
414.068	555.51
414.276	455.16
414.485	477.69
414.693	504.31
414.901	549.37
415.11	567.8
415.318	545.27
415.526	610.81
415.734	627.19
415.943	610.81
416.151	616.95
416.359	623.09
416.567	643.57
416.776	709.11
416.984	729.59
417.192	774.64
417.4	848.37
417.608	791.03
417.817	770.55
418.025	903.67
418.233	881.14
418.441	858.61
418.649	889.33
418.857	967.15
419.065	1014.26
419.273	987.63
419.481	1057.26
419.689	1122.8
419.897	1120.75
420.105	1184.24
420.313	1255.92
420.521	1186.29
420.729	1325.55
420.937	1278.44
421.145	1417.71
421.353	1358.32
421.561	1407.47
421.769	1524.2
421.977	1563.11
422.185	1587.69
422.393	1647.08
422.601	1647.08
422.809	1667.56
423.017	1628.65
423.224	1839.59
423.432	1911.27
423.64	1788.39
423.848	2120.16
424.056	1946.08
424.263	2093.54
424.471	2200.03
424.679	2202.08
424.887	2374.11
425.094	2367.96
425.302	2265.57
425.51	2451.93
425.718	2537.95
425.925	2529.75
426.133	2669.02
426.341	2845.14
426.548	2937.3
426.756	2787.8
426.964	3011.03
427.171	3232.21
427.379	3228.11
427.586	3234.25
427.794	3412.43
428.001	3506.63
428.209	3834.31
428.417	3684.81
428.624	3926.47
428.832	4018.63
429.039	3903.94
429.247	3932.61
429.454	4331.97
429.662	4673.98
429.869	4299.2
430.076	4569.53
430.284	4411.84
430.491	4602.3
430.699	4944.31
430.906	4825.53
431.114	4929.97
431.321	5169.59
431.528	5249.46
431.736	5558.7
431.943	5872.04
432.15	5646.76
432.358	5798.31
432.565	6027.68
432.772	5872.04
432.979	6343.07
433.187	6115.75
433.394	6418.85
433.601	7018.9
433.808	6977.94
434.016	6683.03
434.223	7131.54
434.43	7487.89
434.637	7584.14
434.844	7778.7
435.052	7887.24
435.259	7958.92
435.466	8092.04
435.673	7936.39
435.88	8393.09
436.087	8892.79
436.294	9017.72
436.501	8714.62
436.708	8896.89
436.915	9132.4
437.122	9576.81
437.329	9556.33
437.537	9924.97
437.743	10129.77
437.95	9920.87
438.157	10494.3
438.364	10662.24
438.571	10844.51
438.778	10828.12
438.985	11864.39
439.192	11452.75
439.399	11735.37
439.606	11325.78
439.813	12138.82
440.02	13089.08
440.227	12558.66
440.433	12587.33
440.64	12900.67
440.847	13029.69
441.054	13226.29
441.261	14020.91
441.467	13898.03
441.674	14057.77
441.881	14651.68
442.088	14844.19
442.294	14463.27
442.501	14784.8
442.708	15026.46
442.914	15536.4
443.121	16390.41
443.328	15980.81
443.534	17271.03
443.741	16587.01
443.948	16357.64
444.154	17643.76
444.361	17506.55
444.568	17627.38
444.774	17590.52
444.981	17674.48
445.187	18714.85
445.394	19038.43
445.6	18964.7
445.807	20625.61
446.013	19806.42
446.22	20158.67
446.426	20971.71
446.633	21188.8
446.839	22180.01
447.046	21096.64
447.252	22180.01
447.459	22165.68
447.665	22034.61
447.871	23206.05
448.078	24049.81
448.284	22982.82
448.491	23824.53
448.697	24422.54
448.903	24991.87
449.11	25495.67
449.316	24395.92
449.522	24975.49
449.728	25940.08
449.935	26062.96
450.141	25954.42
450.347	26779.75
450.553	25956.47
450.76	26146.93
450.966	27244.64
451.172	26876.01
451.378	27441.25
451.584	26650.73
451.791	27488.35
451.997	27697.24
452.203	28069.97
452.409	28149.84
452.615	28010.58
452.821	26527.85
453.027	26628.2
453.233	28403.79
453.44	26861.67
453.646	27207.78
453.852	27287.65
454.058	28065.88
454.264	27201.63
454.47	27764.82
454.676	27066.47
454.882	27678.81
455.088	25743.48
455.294	25714.81
455.5	26574.95
455.705	26878.05
455.911	25350.27
456.117	25432.19
456.323	24889.48
456.529	23793.81
456.735	24750.21
456.941	24125.58
457.147	23537.82
457.352	23130.27
457.558	22616.23
457.764	22855.84
457.97	22421.67
458.176	22171.82
458.381	22118.57
458.587	21022.91
458.793	20977.86
458.999	19484.89
459.204	21315.77
459.41	20891.84
459.616	19284.19
459.821	19468.5
460.027	19347.67
460.233	18745.57
460.438	18120.94
460.644	18120.94
460.85	17375.48
461.055	16920.83
461.261	17168.63
461.466	15755.54
461.672	15501.59
461.878	16640.26
462.083	15644.95
462.289	15130.91
462.494	14825.76
462.7	14518.56
462.905	13848.88
463.111	14266.66
463.316	14573.86
463.522	14147.88
463.727	14166.31
463.932	14119.21
464.138	14094.63
464.343	14123.3
464.549	13701.42
464.754	14219.56
464.959	14086.44
465.165	13922.6
465.37	13439.28
465.575	13003.07
465.781	13525.3
465.986	13605.17
466.191	13021.5
466.397	12982.59
466.602	12147.01
466.807	12409.15
467.012	12622.14
467.218	12519.74
467.423	12620.1
467.628	12583.23
467.833	12998.97
468.038	12652.86
468.244	12380.48
468.449	12843.32
