Data from USB4F104151__57__14-43-10-860.txt Node

Date: Thu Mar 13 14:43:10 EDT 2025
User: louis
Spectrometer: USB4F10415
Trigger mode: 4
Integration Time (sec): 2.000000E-2
Scans to average: 1
Electric dark correction enabled: true
Nonlinearity correction enabled: false
Boxcar width: 0
XAxis mode: Wavelengths
Number of Pixels in Spectrum: 3648
>>>>>Begin Spectral Data<<<<<
178.204	-76.8
178.424	-76.8
178.644	-76.8
178.864	-93.18
179.084	-78.85
179.304	-56.32
179.524	-29.7
179.744	46.08
179.964	9.22
180.184	-23.55
180.404	25.6
180.624	50.18
180.844	-52.22
181.064	9.22
181.283	37.89
181.503	-39.94
181.723	23.55
181.943	-23.55
182.163	33.79
182.383	50.18
182.602	11.26
182.822	84.99
183.042	46.08
183.262	60.42
183.482	11.26
183.701	-5.12
183.921	37.89
184.141	11.26
184.361	21.5
184.58	19.46
184.8	109.57
185.02	13.31
185.239	74.75
185.459	60.42
185.679	5.12
185.898	-50.18
186.118	21.5
186.338	44.03
186.557	15.36
186.777	-11.26
186.997	-7.17
187.216	25.6
187.436	84.99
187.655	3.07
187.875	13.31
188.095	19.46
188.314	113.66
188.534	37.89
188.753	58.37
188.973	70.65
189.192	105.47
189.412	58.37
189.631	13.31
189.851	62.46
190.07	41.98
190.29	50.18
190.509	107.52
190.729	35.84
190.948	99.33
191.168	132.09
191.387	31.74
191.607	-7.17
191.826	66.56
192.045	29.7
192.265	68.61
192.484	91.13
192.704	58.37
192.923	3.07
193.142	76.8
193.362	44.03
193.581	-23.55
193.8	17.41
194.02	70.65
194.239	33.79
194.458	-7.17
194.678	-29.7
194.897	134.14
195.116	23.55
195.335	60.42
195.555	72.7
195.774	23.55
195.993	-27.65
196.212	9.22
196.432	82.94
196.651	41.98
196.87	-31.74
197.089	76.8
197.308	52.22
197.528	84.99
197.747	15.36
197.966	-37.89
198.185	58.37
198.404	62.46
198.623	7.17
198.842	74.75
199.062	74.75
199.281	109.57
199.5	62.46
199.719	31.74
199.938	58.37
200.157	25.6
200.376	99.33
200.595	101.37
200.814	50.18
201.033	35.84
201.252	121.85
201.471	56.32
201.69	91.13
201.909	7.17
202.128	66.56
202.347	103.42
202.566	54.27
202.785	50.18
203.004	1.02
203.223	87.04
203.442	-15.36
203.661	62.46
203.879	60.42
204.098	82.94
204.317	-7.17
204.536	78.85
204.755	15.36
204.974	119.81
205.193	41.98
205.411	136.19
205.63	119.81
205.849	-21.5
206.068	54.27
206.287	27.65
206.505	25.6
206.724	68.61
206.943	29.7
207.162	27.65
207.381	74.75
207.599	17.41
207.818	23.55
208.037	46.08
208.255	82.94
208.474	109.57
208.693	19.46
208.911	93.18
209.13	60.42
209.349	23.55
209.567	91.13
209.786	33.79
210.005	60.42
210.223	25.6
210.442	19.46
210.661	91.13
210.879	93.18
211.098	46.08
211.316	87.04
211.535	66.56
211.753	74.75
211.972	87.04
212.191	39.94
212.409	58.37
212.628	60.42
212.846	9.22
213.065	-5.12
213.283	146.43
213.502	9.22
213.72	121.85
213.938	7.17
214.157	19.46
214.375	87.04
214.594	76.8
214.812	84.99
215.031	93.18
215.249	52.22
215.467	62.46
215.686	68.61
215.904	150.53
216.122	93.18
216.341	19.46
216.559	84.99
216.778	89.09
216.996	80.89
217.214	21.5
217.432	5.12
217.651	70.65
217.869	52.22
218.087	60.42
218.306	25.6
218.524	105.47
218.742	35.84
218.96	41.98
219.179	13.31
219.397	99.33
219.615	87.04
219.833	82.94
220.051	37.89
220.27	46.08
220.488	50.18
220.706	44.03
220.924	19.46
221.142	52.22
221.36	62.46
221.578	68.61
221.796	117.76
222.015	-5.12
222.233	17.41
222.451	58.37
222.669	74.75
222.887	115.71
223.105	5.12
223.323	17.41
223.541	25.6
223.759	66.56
223.977	111.61
224.195	-1.02
224.413	66.56
224.631	58.37
224.849	13.31
225.067	134.14
225.285	-15.36
225.503	93.18
225.721	11.26
225.939	9.22
226.157	58.37
226.375	99.33
226.592	33.79
226.81	-3.07
227.028	74.75
227.246	74.75
227.464	9.22
227.682	21.5
227.9	91.13
228.117	117.76
228.335	-39.94
228.553	41.98
228.771	78.85
228.989	58.37
229.206	54.27
229.424	91.13
229.642	54.27
229.86	11.26
230.077	109.57
230.295	31.74
230.513	13.31
230.731	70.65
230.948	142.33
231.166	136.19
231.384	1.02
231.601	60.42
231.819	99.33
232.037	-21.5
232.254	52.22
232.472	46.08
232.689	66.56
232.907	3.07
233.125	1.02
233.342	91.13
233.56	84.99
233.777	-23.55
233.995	35.84
234.213	111.61
234.43	58.37
234.648	-39.94
234.865	29.7
235.083	17.41
235.3	41.98
235.518	35.84
235.735	70.65
235.953	62.46
236.17	62.46
236.388	52.22
236.605	115.71
236.822	25.6
237.04	99.33
237.257	25.6
237.475	1.02
237.692	-7.17
237.909	17.41
238.127	29.7
238.344	35.84
238.562	72.7
238.779	52.22
238.996	82.94
239.214	1.02
239.431	41.98
239.648	41.98
239.865	33.79
240.083	17.41
240.3	132.09
240.517	64.51
240.735	109.57
240.952	35.84
241.169	84.99
241.386	60.42
241.603	91.13
241.821	9.22
242.038	13.31
242.255	-39.94
242.472	-19.46
242.689	-5.12
242.907	82.94
243.124	7.17
243.341	33.79
243.558	-13.31
243.775	21.5
243.992	-80.89
244.209	48.13
244.426	109.57
244.643	46.08
244.86	1.02
245.078	84.99
245.295	101.37
245.512	84.99
245.729	87.04
245.946	21.5
246.163	80.89
246.38	50.18
246.597	66.56
246.814	54.27
247.031	91.13
247.248	3.07
247.464	21.5
247.681	48.13
247.898	21.5
248.115	-7.17
248.332	-17.41
248.549	99.33
248.766	76.8
248.983	44.03
249.2	17.41
249.417	66.56
249.633	87.04
249.85	62.46
250.067	35.84
250.284	39.94
250.501	82.94
250.717	82.94
250.934	27.65
251.151	21.5
251.368	5.12
251.585	91.13
251.801	9.22
252.018	-27.65
252.235	74.75
252.451	58.37
252.668	-19.46
252.885	56.32
253.102	-21.5
253.318	99.33
253.535	-17.41
253.752	23.55
253.968	21.5
254.185	41.98
254.401	60.42
254.618	82.94
254.835	78.85
255.051	119.81
255.268	-7.17
255.484	117.76
255.701	111.61
255.917	68.61
256.134	62.46
256.351	29.7
256.567	-31.74
256.784	3.07
257	21.5
257.217	89.09
257.433	93.18
257.65	9.22
257.866	84.99
258.082	17.41
258.299	82.94
258.515	107.52
258.732	66.56
258.948	39.94
259.165	-48.13
259.381	78.85
259.597	84.99
259.814	60.42
260.03	64.51
260.246	-76.8
260.463	21.5
260.679	68.61
260.895	115.71
261.112	74.75
261.328	58.37
261.544	74.75
261.761	66.56
261.977	-13.31
262.193	62.46
262.409	107.52
262.626	78.85
262.842	44.03
263.058	-19.46
263.274	52.22
263.49	33.79
263.707	35.84
263.923	66.56
264.139	-15.36
264.355	56.32
264.571	76.8
264.787	101.37
265.004	64.51
265.22	41.98
265.436	-29.7
265.652	-13.31
265.868	48.13
266.084	76.8
266.3	17.41
266.516	27.65
266.732	13.31
266.948	25.6
267.164	-48.13
267.38	21.5
267.596	140.29
267.812	-9.22
268.028	35.84
268.244	50.18
268.46	70.65
268.676	115.71
268.892	64.51
269.108	58.37
269.324	52.22
269.54	82.94
269.756	35.84
269.972	5.12
270.188	19.46
270.403	-23.55
270.619	21.5
270.835	84.99
271.051	17.41
271.267	58.37
271.483	39.94
271.698	78.85
271.914	103.42
272.13	19.46
272.346	119.81
272.562	33.79
272.777	115.71
272.993	15.36
273.209	-13.31
273.425	37.89
273.64	29.7
273.856	31.74
274.072	66.56
274.287	11.26
274.503	56.32
274.719	74.75
274.934	44.03
275.15	37.89
275.366	66.56
275.581	41.98
275.797	17.41
276.012	-78.85
276.228	52.22
276.444	68.61
276.659	46.08
276.875	-56.32
277.09	52.22
277.306	68.61
277.521	-19.46
277.737	50.18
277.952	5.12
278.168	64.51
278.383	35.84
278.599	46.08
278.814	150.53
279.03	23.55
279.245	50.18
279.461	58.37
279.676	21.5
279.892	19.46
280.107	39.94
280.322	-17.41
280.538	177.15
280.753	46.08
280.969	76.8
281.184	140.29
281.399	52.22
281.615	13.31
281.83	109.57
282.045	21.5
282.26	5.12
282.476	25.6
282.691	84.99
282.906	115.71
283.122	87.04
283.337	35.84
283.552	154.62
283.767	35.84
283.983	107.52
284.198	46.08
284.413	60.42
284.628	68.61
284.843	70.65
285.058	91.13
285.274	58.37
285.489	1.02
285.704	54.27
285.919	60.42
286.134	93.18
286.349	50.18
286.564	74.75
286.779	142.33
286.995	33.79
287.21	-3.07
287.425	68.61
287.64	44.03
287.855	78.85
288.07	5.12
288.285	25.6
288.5	15.36
288.715	66.56
288.93	35.84
289.145	35.84
289.36	115.71
289.575	37.89
289.79	17.41
290.004	46.08
290.219	58.37
290.434	60.42
290.649	99.33
290.864	58.37
291.079	13.31
291.294	76.8
291.509	41.98
291.724	-35.84
291.938	64.51
292.153	54.27
292.368	27.65
292.583	19.46
292.798	33.79
293.012	-19.46
293.227	31.74
293.442	-23.55
293.657	84.99
293.871	21.5
294.086	44.03
294.301	156.67
294.516	87.04
294.73	-3.07
294.945	66.56
295.16	68.61
295.374	66.56
295.589	9.22
295.804	64.51
296.018	74.75
296.233	33.79
296.447	5.12
296.662	31.74
296.877	84.99
297.091	156.67
297.306	21.5
297.52	19.46
297.735	48.13
297.949	46.08
298.164	44.03
298.378	64.51
298.593	17.41
298.807	97.28
299.022	54.27
299.236	21.5
299.451	-5.12
299.665	-9.22
299.88	35.84
300.094	19.46
300.309	50.18
300.523	66.56
300.737	74.75
300.952	37.89
301.166	27.65
301.381	33.79
301.595	-48.13
301.809	44.03
302.024	72.7
302.238	60.42
302.452	33.79
302.667	54.27
302.881	33.79
303.095	64.51
303.309	72.7
303.524	37.89
303.738	52.22
303.952	9.22
304.166	166.91
304.381	58.37
304.595	17.41
304.809	87.04
305.023	54.27
305.237	-19.46
305.452	107.52
305.666	128
305.88	111.61
306.094	115.71
306.308	76.8
306.522	103.42
306.736	46.08
306.95	44.03
307.164	-11.26
307.379	13.31
307.593	50.18
307.807	142.33
308.021	11.26
308.235	-21.5
308.449	5.12
308.663	33.79
308.877	105.47
309.091	54.27
309.305	60.42
309.519	54.27
309.733	33.79
309.947	58.37
310.161	50.18
310.374	17.41
310.588	82.94
310.802	-7.17
311.016	140.29
311.23	52.22
311.444	-21.5
311.658	33.79
311.872	144.38
312.085	111.61
312.299	54.27
312.513	115.71
312.727	87.04
312.941	31.74
313.154	-13.31
313.368	93.18
313.582	11.26
313.796	-17.41
314.009	62.46
314.223	68.61
314.437	21.5
314.651	74.75
314.864	-21.5
315.078	60.42
315.292	3.07
315.505	-82.94
315.719	27.65
315.933	95.23
316.146	41.98
316.36	3.07
316.573	25.6
316.787	58.37
317.001	84.99
317.214	39.94
317.428	-23.55
317.641	105.47
317.855	35.84
318.068	46.08
318.282	74.75
318.495	101.37
318.709	23.55
318.922	1.02
319.136	66.56
319.349	48.13
319.563	11.26
319.776	19.46
319.99	1.02
320.203	48.13
320.417	50.18
320.63	54.27
320.843	109.57
321.057	74.75
321.27	66.56
321.483	9.22
321.697	13.31
321.91	62.46
322.124	52.22
322.337	109.57
322.55	64.51
322.763	123.9
322.977	117.76
323.19	66.56
323.403	35.84
323.617	37.89
323.83	66.56
324.043	48.13
324.256	46.08
324.469	19.46
324.683	39.94
324.896	60.42
325.109	74.75
325.322	13.31
325.535	93.18
325.748	97.28
325.962	58.37
326.175	27.65
326.388	58.37
326.601	35.84
326.814	35.84
327.027	46.08
327.24	62.46
327.453	5.12
327.666	93.18
327.879	103.42
328.092	117.76
328.305	91.13
328.518	25.6
328.731	82.94
328.944	109.57
329.157	46.08
329.37	91.13
329.583	107.52
329.796	52.22
330.009	44.03
330.222	80.89
330.435	89.09
330.648	70.65
330.861	60.42
331.073	60.42
331.286	46.08
331.499	70.65
331.712	54.27
331.925	66.56
332.138	58.37
332.35	82.94
332.563	101.37
332.776	95.23
332.989	-11.26
333.202	52.22
333.414	56.32
333.627	1.02
333.84	31.74
334.053	140.29
334.265	25.6
334.478	78.85
334.691	25.6
334.903	66.56
335.116	41.98
335.329	66.56
335.541	109.57
335.754	68.61
335.966	46.08
336.179	-15.36
336.392	46.08
336.604	107.52
336.817	89.09
337.029	41.98
337.242	82.94
337.454	52.22
337.667	37.89
337.88	140.29
338.092	41.98
338.305	58.37
338.517	-13.31
338.729	76.8
338.942	31.74
339.154	50.18
339.367	25.6
339.579	80.89
339.792	-58.37
340.004	78.85
340.217	44.03
340.429	25.6
340.641	5.12
340.854	44.03
341.066	7.17
341.278	50.18
341.491	123.9
341.703	9.22
341.915	19.46
342.128	101.37
342.34	52.22
342.552	78.85
342.764	50.18
342.977	33.79
343.189	62.46
343.401	41.98
343.613	23.55
343.826	146.43
344.038	19.46
344.25	123.9
344.462	-3.07
344.674	82.94
344.886	66.56
345.099	15.36
345.311	99.33
345.523	-23.55
345.735	-35.84
345.947	82.94
346.159	93.18
346.371	74.75
346.583	66.56
346.795	111.61
347.007	50.18
347.219	-15.36
347.431	19.46
347.643	56.32
347.855	91.13
348.067	103.42
348.279	60.42
348.491	58.37
348.703	82.94
348.915	93.18
349.127	27.65
349.339	29.7
349.551	58.37
349.763	66.56
349.975	-27.65
350.187	99.33
350.399	109.57
350.61	68.61
350.822	-31.74
351.034	23.55
351.246	58.37
351.458	58.37
351.669	31.74
351.881	117.76
352.093	123.9
352.305	177.15
352.517	62.46
352.728	117.76
352.94	50.18
353.152	74.75
353.363	33.79
353.575	78.85
353.787	9.22
353.999	82.94
354.21	99.33
354.422	31.74
354.633	82.94
354.845	60.42
355.057	89.09
355.268	66.56
355.48	41.98
355.692	41.98
355.903	21.5
356.115	41.98
356.326	-3.07
356.538	91.13
356.749	44.03
356.961	39.94
357.172	54.27
357.384	9.22
357.595	140.29
357.807	48.13
358.018	-11.26
358.23	33.79
358.441	39.94
358.653	19.46
358.864	33.79
359.075	1.02
359.287	91.13
359.498	82.94
359.709	140.29
359.921	44.03
360.132	17.41
360.344	72.7
360.555	33.79
360.766	-15.36
360.977	1.02
361.189	132.09
361.4	74.75
361.611	95.23
361.823	-5.12
362.034	97.28
362.245	21.5
362.456	91.13
362.667	44.03
362.879	62.46
363.09	91.13
363.301	41.98
363.512	103.42
363.723	82.94
363.935	-13.31
364.146	17.41
364.357	68.61
364.568	21.5
364.779	1.02
364.99	103.42
365.201	72.7
365.412	130.05
365.623	31.74
365.834	62.46
366.045	52.22
366.256	134.14
366.467	111.61
366.678	156.67
366.889	64.51
367.1	17.41
367.311	152.57
367.522	54.27
367.733	17.41
367.944	119.81
368.155	95.23
368.366	123.9
368.577	25.6
368.788	115.71
368.999	-15.36
369.209	107.52
369.42	162.81
369.631	150.53
369.842	123.9
370.053	58.37
370.264	27.65
370.474	72.7
370.685	76.8
370.896	142.33
371.107	76.8
371.317	95.23
371.528	64.51
371.739	148.48
371.95	9.22
372.16	50.18
372.371	19.46
372.582	44.03
372.792	80.89
373.003	80.89
373.214	82.94
373.424	76.8
373.635	41.98
373.846	76.8
374.056	89.09
374.267	76.8
374.477	25.6
374.688	117.76
374.898	87.04
375.109	50.18
375.319	66.56
375.53	183.29
375.74	33.79
375.951	58.37
376.161	99.33
376.372	134.14
376.582	27.65
376.793	78.85
377.003	9.22
377.214	33.79
377.424	50.18
377.635	93.18
377.845	97.28
378.055	140.29
378.266	-7.17
378.476	39.94
378.686	33.79
378.897	33.79
379.107	64.51
379.317	78.85
379.528	156.67
379.738	60.42
379.948	58.37
380.158	101.37
380.369	60.42
380.579	91.13
380.789	66.56
380.999	58.37
381.21	-1.02
381.42	60.42
381.63	50.18
381.84	84.99
382.05	117.76
382.261	140.29
382.471	93.18
382.681	44.03
382.891	25.6
383.101	99.33
383.311	-7.17
383.521	52.22
383.731	68.61
383.941	58.37
384.151	70.65
384.361	50.18
384.571	29.7
384.781	52.22
384.991	99.33
385.201	154.62
385.411	109.57
385.621	97.28
385.831	84.99
386.041	95.23
386.251	39.94
386.461	62.46
386.671	70.65
386.881	33.79
387.091	87.04
387.301	82.94
387.511	148.48
387.72	46.08
387.93	115.71
388.14	25.6
388.35	101.37
388.56	142.33
388.769	41.98
388.979	78.85
389.189	123.9
389.399	41.98
389.609	13.31
389.818	134.14
390.028	84.99
390.238	68.61
390.447	101.37
390.657	21.5
390.867	56.32
391.076	50.18
391.286	62.46
391.496	130.05
391.705	48.13
391.915	144.38
392.125	115.71
392.334	41.98
392.544	84.99
392.753	91.13
392.963	17.41
393.172	111.61
393.382	21.5
393.591	115.71
393.801	35.84
394.01	117.76
394.22	15.36
394.429	119.81
394.639	58.37
394.848	101.37
395.058	27.65
395.267	158.72
395.477	117.76
395.686	101.37
395.895	117.76
396.105	189.44
396.314	154.62
396.524	101.37
396.733	93.18
396.942	164.86
397.152	41.98
397.361	78.85
397.57	103.42
397.78	142.33
397.989	74.75
398.198	109.57
398.407	91.13
398.617	123.9
398.826	136.19
399.035	60.42
399.244	148.48
399.453	46.08
399.663	123.9
399.872	183.29
400.081	101.37
400.29	119.81
400.499	91.13
400.708	181.25
400.917	17.41
401.127	136.19
401.336	154.62
401.545	218.11
401.754	-1.02
401.963	128
402.172	123.9
402.381	66.56
402.59	91.13
402.799	58.37
403.008	191.49
403.217	181.25
403.426	189.44
403.635	119.81
403.844	128
404.053	173.05
404.262	185.34
404.471	175.1
404.68	109.57
404.888	109.57
405.097	89.09
405.306	177.15
405.515	115.71
405.724	117.76
405.933	136.19
406.142	150.53
406.35	234.49
406.559	175.1
406.768	191.49
406.977	246.78
407.185	150.53
407.394	222.2
407.603	156.67
407.812	156.67
408.02	246.78
408.229	230.4
408.438	214.01
408.646	175.1
408.855	152.57
409.064	263.16
409.272	289.79
409.481	328.7
409.69	347.13
409.898	214.01
410.107	351.23
410.315	232.44
410.524	234.49
410.733	316.41
410.941	295.93
411.15	410.62
411.358	373.75
411.567	433.15
411.775	365.56
411.984	457.72
412.192	404.47
412.401	455.67
412.609	480.25
412.818	502.78
413.026	494.58
413.234	470.01
413.443	498.68
413.651	537.59
413.86	508.92
414.068	525.3
414.276	691.19
414.485	527.35
414.693	515.06
414.901	623.61
415.11	709.62
415.318	719.86
415.526	721.91
415.734	683
415.943	705.53
416.151	834.55
416.359	865.27
416.567	871.41
416.776	943.09
416.984	902.13
417.192	922.61
417.4	869.36
417.608	885.75
417.817	920.56
418.025	1016.82
418.233	1043.44
418.441	1041.39
418.649	1002.48
418.857	1115.12
419.065	1260.52
419.273	1172.46
419.481	1233.9
419.689	1346.54
419.897	1313.77
420.105	1401.83
420.313	1360.88
420.521	1504.23
420.729	1510.38
420.937	1600.49
421.145	1659.88
421.353	1731.56
421.561	1858.53
421.769	1895.4
421.977	1844.2
422.185	1897.44
422.393	1893.35
422.601	2034.66
422.809	2051.04
423.017	2157.54
423.224	2155.49
423.432	2255.84
423.64	2245.6
423.848	2532.31
424.056	2474.97
424.263	2505.69
424.471	2524.12
424.679	2657.24
424.887	2896.85
425.094	2888.66
425.302	2876.37
425.51	2978.77
425.718	3083.22
425.925	3134.42
426.133	3130.32
426.341	3328.97
426.548	3501
426.756	3468.24
426.964	3650.5
427.171	3695.56
427.379	3953.6
427.586	3976.13
427.794	4000.71
428.001	4238.27
428.209	4582.33
428.417	4518.84
428.624	4746.17
428.832	4662.2
429.039	4772.79
429.247	4703.16
429.454	5137.33
429.662	5540.78
429.869	4850.61
430.076	5415.85
430.284	5186.48
430.491	5505.96
430.699	5878.69
430.906	5813.16
431.114	5956.52
431.321	6116.26
431.528	6239.14
431.736	6603.68
431.943	6919.06
432.15	6828.95
432.358	7021.46
432.565	7287.7
432.772	7048.08
432.979	7545.74
433.187	7603.08
433.394	7752.59
433.601	8172.42
433.808	8348.54
434.016	8272.77
434.223	8399.74
434.43	9003.89
434.637	9020.28
434.844	9519.98
435.052	9638.76
435.259	9603.95
435.466	9548.65
435.673	9374.58
435.88	9991.02
436.087	10601.31
436.294	10621.79
436.501	10333.03
436.708	10537.82
436.915	10814.3
437.122	11397.97
437.329	11338.58
437.537	11821.9
437.743	11789.13
437.95	11690.83
438.157	12550.98
438.364	12991.29
438.571	12790.59
438.778	12915.51
438.985	14156.58
439.192	13607.73
439.399	13923.12
439.606	13701.93
439.813	14289.7
440.02	15082.27
440.227	14881.56
440.433	15020.83
440.64	15461.14
440.847	15377.17
441.054	15622.93
441.261	16614.15
441.467	16753.41
441.674	16868.09
441.881	17349.37
442.088	17335.03
442.294	17451.77
442.501	17484.53
442.708	18066.16
442.914	18580.2
443.121	19477.21
443.328	18887.39
443.534	20308.68
443.741	19720.92
443.948	19423.96
444.154	20914.88
444.361	20830.91
444.568	21037.76
444.774	20712.13
444.981	21080.77
445.187	21592.76
445.394	22393.51
445.6	22409.9
445.807	24500.87
446.013	23278.24
446.22	23796.37
446.426	24722.05
446.633	25033.35
446.839	26174.06
447.046	24740.49
447.252	26053.23
447.459	26212.98
447.665	26231.41
447.871	27552.35
448.078	28265.04
448.284	27105.89
448.491	27845.21
448.697	28779.08
448.903	29391.42
449.11	29512.25
449.316	29016.65
449.522	29485.63
449.728	30466.61
449.935	30495.28
450.141	30519.85
450.347	31164.96
450.553	30194.23
450.76	30650.92
450.966	32074.26
451.172	31496.74
451.378	32254.48
451.584	31277.6
451.791	32027.16
451.997	32287.25
452.203	32750.09
452.409	32590.35
452.615	32559.63
452.821	31310.37
453.027	31339.04
453.233	32950.79
453.44	31513.12
453.646	31633.95
453.852	32320.02
454.058	32549.39
454.264	31789.59
454.47	32483.86
454.676	31050.28
454.882	32666.13
455.088	29948.47
455.294	30399.02
455.5	30945.83
455.705	31486.5
455.911	29616.7
456.117	29014.6
456.323	28924.49
456.529	27206.24
456.735	28852.81
456.941	27904.6
457.147	27292.26
457.352	26710.63
457.558	26493.55
457.764	26319.47
457.97	26313.33
458.176	25537.15
458.381	25496.19
458.587	24124.05
458.793	24392.33
458.999	22958.75
459.204	24703.62
459.41	23954.07
459.616	22426.28
459.821	22457
460.027	22129.33
460.233	21920.43
460.438	20859.59
460.644	20839.11
460.85	20007.63
461.055	19761.87
461.261	19849.94
461.466	18416.36
461.672	17982.19
461.878	18885.34
462.083	17560.31
462.289	17586.93
462.494	17105.66
462.7	16427.78
462.905	15989.52
463.111	16638.72
463.316	16468.74
463.522	16251.66
463.727	16360.2
463.932	16073.48
464.138	15948.56
464.343	16028.43
464.549	15647.51
464.754	16139.02
464.959	15885.07
465.165	15563.54
465.37	15450.9
465.575	14844.7
465.781	15426.32
465.986	15473.43
466.191	14967.58
466.397	14678.82
466.602	14056.23
466.807	14615.33
467.012	14365.48
467.218	14453.54
467.423	14097.19
