Data from USB4F104151__217__14-45-29-887.txt Node

Date: Thu Mar 13 14:45:29 EDT 2025
User: louis
Spectrometer: USB4F10415
Trigger mode: 4
Integration Time (sec): 2.000000E-2
Scans to average: 1
Electric dark correction enabled: true
Nonlinearity correction enabled: false
Boxcar width: 0
XAxis mode: Wavelengths
Number of Pixels in Spectrum: 3648
>>>>>Begin Spectral Data<<<<<
178.204	-139.6
178.424	-139.6
178.644	-139.6
178.864	-102.74
179.084	-106.84
179.304	-0.34
179.524	52.91
179.744	28.33
179.964	89.77
180.184	-76.12
180.404	-16.73
180.624	28.33
180.844	-22.87
181.064	-8.53
181.283	-4.44
181.503	-57.68
181.723	-12.63
181.943	-31.06
182.163	42.67
182.383	-14.68
182.602	50.86
182.822	40.62
183.042	85.67
183.262	-41.3
183.482	50.86
183.701	42.67
183.921	1.71
184.141	-57.68
184.361	67.24
184.58	81.58
184.8	75.43
185.02	81.58
185.239	20.14
185.459	-4.44
185.679	57
185.898	-90.45
186.118	57
186.338	69.29
186.557	91.82
186.777	7.85
186.997	26.28
187.216	65.19
187.436	57
187.655	50.86
187.875	83.63
188.095	36.52
188.314	65.19
188.534	11.95
188.753	-6.49
188.973	24.23
189.192	102.06
189.412	3.75
189.631	-14.68
189.851	36.52
190.07	61.1
190.29	-20.82
190.509	3.75
190.729	32.43
190.948	34.47
191.168	134.82
191.387	108.2
191.607	24.23
191.826	-31.06
192.045	-26.96
192.265	7.85
192.484	81.58
192.704	132.78
192.923	-33.11
193.142	143.02
193.362	24.23
193.581	18.09
193.8	9.9
194.02	52.91
194.239	-12.63
194.458	28.33
194.678	7.85
194.897	40.62
195.116	-6.49
195.335	52.91
195.555	18.09
195.774	30.38
195.993	-0.34
196.212	40.62
196.432	3.75
196.651	40.62
196.87	32.43
197.089	81.58
197.308	24.23
197.528	24.23
197.747	-12.63
197.966	-0.34
198.185	73.39
198.404	-12.63
198.623	-4.44
198.842	34.47
199.062	32.43
199.281	75.43
199.5	-29.01
199.719	16.04
199.938	54.95
200.157	91.82
200.376	-61.78
200.595	36.52
200.814	16.04
201.033	61.1
201.252	83.63
201.471	9.9
201.69	11.95
201.909	65.19
202.128	95.91
202.347	52.91
202.566	77.48
202.785	-41.3
203.004	34.47
203.223	54.95
203.442	7.85
203.661	1.71
203.879	104.11
204.098	71.34
204.317	40.62
204.536	61.1
204.755	-18.77
204.974	1.71
205.193	59.05
205.411	65.19
205.63	24.23
205.849	20.14
206.068	30.38
206.287	-69.97
206.505	83.63
206.724	-8.53
206.943	-0.34
207.162	-22.87
207.381	20.14
207.599	73.39
207.818	48.81
208.037	44.71
208.255	20.14
208.474	26.28
208.693	81.58
208.911	-8.53
209.13	40.62
209.349	-24.92
209.567	67.24
209.786	-6.49
210.005	67.24
210.223	97.96
210.442	36.52
210.661	50.86
210.879	9.9
211.098	16.04
211.316	-16.73
211.535	91.82
211.753	24.23
211.972	52.91
212.191	38.57
212.409	9.9
212.628	-2.39
212.846	32.43
213.065	65.19
213.283	89.77
213.502	93.87
213.72	-14.68
213.938	73.39
214.157	69.29
214.375	-24.92
214.594	-16.73
214.812	36.52
215.031	-33.11
215.249	-26.96
215.467	75.43
215.686	7.85
215.904	73.39
216.122	-33.11
216.341	26.28
216.559	100.01
216.778	42.67
216.996	11.95
217.214	75.43
217.432	89.77
217.651	-4.44
217.869	24.23
218.087	-0.34
218.306	-49.49
218.524	48.81
218.742	-33.11
218.96	75.43
219.179	5.8
219.397	28.33
219.615	50.86
219.833	97.96
220.051	-24.92
220.27	3.75
220.488	65.19
220.706	61.1
220.924	-16.73
221.142	32.43
221.36	28.33
221.578	-16.73
221.796	32.43
222.015	-22.87
222.233	7.85
222.451	75.43
222.669	40.62
222.887	-16.73
223.105	-47.44
223.323	97.96
223.541	26.28
223.759	69.29
223.977	16.04
224.195	52.91
224.413	13.99
224.631	42.67
224.849	69.29
225.067	48.81
225.285	-67.92
225.503	54.95
225.721	-53.59
225.939	32.43
226.157	-26.96
226.375	36.52
226.592	-4.44
226.81	-57.68
227.028	48.81
227.246	57
227.464	20.14
227.682	-2.39
227.9	73.39
228.117	20.14
228.335	65.19
228.553	-16.73
228.771	57
228.989	50.86
229.206	104.11
229.424	24.23
229.642	32.43
229.86	24.23
230.077	34.47
230.295	26.28
230.513	73.39
230.731	48.81
230.948	20.14
231.166	57
231.384	81.58
231.601	18.09
231.819	30.38
232.037	22.19
232.254	32.43
232.472	87.72
232.689	-8.53
232.907	42.67
233.125	42.67
233.342	52.91
233.56	48.81
233.777	11.95
233.995	91.82
234.213	122.54
234.43	-16.73
234.648	-8.53
234.865	83.63
235.083	-0.34
235.3	11.95
235.518	97.96
235.735	65.19
235.953	67.24
236.17	59.05
236.388	26.28
236.605	69.29
236.822	73.39
237.04	91.82
237.257	34.47
237.475	44.71
237.692	118.44
237.909	32.43
238.127	57
238.344	57
238.562	81.58
238.779	-22.87
238.996	-0.34
239.214	28.33
239.431	-14.68
239.648	11.95
239.865	95.91
240.083	16.04
240.3	-20.82
240.517	42.67
240.735	110.25
240.952	118.44
241.169	9.9
241.386	-8.53
241.603	-4.44
241.821	26.28
242.038	22.19
242.255	40.62
242.472	59.05
242.689	67.24
242.907	75.43
243.124	46.76
243.341	16.04
243.558	-51.54
243.775	3.75
243.992	36.52
244.209	81.58
244.426	124.58
244.643	5.8
244.86	54.95
245.078	63.15
245.295	81.58
245.512	85.67
245.729	36.52
245.946	57
246.163	73.39
246.38	28.33
246.597	57
246.814	-4.44
247.031	65.19
247.248	65.19
247.464	24.23
247.681	57
247.898	16.04
248.115	167.59
248.332	5.8
248.549	18.09
248.766	75.43
248.983	-0.34
249.2	9.9
249.417	7.85
249.633	-12.63
249.85	36.52
250.067	32.43
250.284	24.23
250.501	30.38
250.717	36.52
250.934	32.43
251.151	40.62
251.368	36.52
251.585	106.15
251.801	48.81
252.018	-10.58
252.235	44.71
252.451	-6.49
252.668	-0.34
252.885	24.23
253.102	24.23
253.318	38.57
253.535	79.53
253.752	-8.53
253.968	16.04
254.185	-12.63
254.401	42.67
254.618	87.72
254.835	75.43
255.051	32.43
255.268	93.87
255.484	48.81
255.701	-35.16
255.917	85.67
256.134	-12.63
256.351	57
256.567	-37.2
256.784	67.24
257	26.28
257.217	75.43
257.433	20.14
257.65	65.19
257.866	1.71
258.082	48.81
258.299	-65.88
258.515	-65.88
258.732	40.62
258.948	-20.82
259.165	52.91
259.381	-33.11
259.597	61.1
259.814	61.1
260.03	89.77
260.246	18.09
260.463	93.87
260.679	61.1
260.895	7.85
261.112	16.04
261.328	57
261.544	3.75
261.761	126.63
261.977	57
262.193	-10.58
262.409	89.77
262.626	-8.53
262.842	40.62
263.058	42.67
263.274	1.71
263.49	32.43
263.707	91.82
263.923	-6.49
264.139	-0.34
264.355	73.39
264.571	65.19
264.787	16.04
265.004	1.71
265.22	50.86
265.436	-24.92
265.652	32.43
265.868	40.62
266.084	-47.44
266.3	52.91
266.516	-20.82
266.732	-8.53
266.948	-0.34
267.164	-8.53
267.38	24.23
267.596	50.86
267.812	48.81
268.028	-8.53
268.244	81.58
268.46	-16.73
268.676	-8.53
268.892	73.39
269.108	-41.3
269.324	16.04
269.54	48.81
269.756	48.81
269.972	-0.34
270.188	-22.87
270.403	40.62
270.619	-0.34
270.835	89.77
271.051	16.04
271.267	-41.3
271.483	-22.87
271.698	44.71
271.914	18.09
272.13	69.29
272.346	16.04
272.562	134.82
272.777	75.43
272.993	-0.34
273.209	3.75
273.425	18.09
273.64	42.67
273.856	73.39
274.072	50.86
274.287	40.62
274.503	-26.96
274.719	7.85
274.934	-16.73
275.15	-22.87
275.366	48.81
275.581	7.85
275.797	16.04
276.012	46.76
276.228	-24.92
276.444	42.67
276.659	36.52
276.875	-63.83
277.09	65.19
277.306	26.28
277.521	52.91
277.737	-18.77
277.952	34.47
278.168	69.29
278.383	32.43
278.599	44.71
278.814	102.06
279.03	5.8
279.245	40.62
279.461	-20.82
279.676	81.58
279.892	22.19
280.107	18.09
280.322	-12.63
280.538	-45.4
280.753	85.67
280.969	50.86
281.184	32.43
281.399	67.24
281.615	18.09
281.83	75.43
282.045	-45.4
282.26	-43.35
282.476	3.75
282.691	52.91
282.906	65.19
283.122	65.19
283.337	102.06
283.552	11.95
283.767	69.29
283.983	48.81
284.198	50.86
284.413	52.91
284.628	34.47
284.843	118.44
285.058	77.48
285.274	9.9
285.489	54.95
285.704	40.62
285.919	-98.64
286.134	59.05
286.349	65.19
286.564	57
286.779	89.77
286.995	9.9
287.21	-39.25
287.425	24.23
287.64	50.86
287.855	73.39
288.07	40.62
288.285	28.33
288.5	16.04
288.715	11.95
288.93	-0.34
289.145	32.43
289.36	50.86
289.575	16.04
289.79	57
290.004	83.63
290.219	-2.39
290.434	52.91
290.649	40.62
290.864	-33.11
291.079	-20.82
291.294	130.73
291.509	71.34
291.724	81.58
291.938	87.72
292.153	9.9
292.368	-24.92
292.583	18.09
292.798	18.09
293.012	-4.44
293.227	-96.6
293.442	48.81
293.657	5.8
293.871	44.71
294.086	100.01
294.301	97.96
294.516	50.86
294.73	67.24
294.945	28.33
295.16	147.11
295.374	65.19
295.589	42.67
295.804	28.33
296.018	3.75
296.233	-16.73
296.447	28.33
296.662	32.43
296.877	73.39
297.091	-8.53
297.306	48.81
297.52	26.28
297.735	57
297.949	38.57
298.164	42.67
298.378	-22.87
298.593	24.23
298.807	-47.44
299.022	36.52
299.236	32.43
299.451	-8.53
299.665	-18.77
299.88	-8.53
300.094	59.05
300.309	7.85
300.523	48.81
300.737	-16.73
300.952	54.95
301.166	69.29
301.381	20.14
301.595	83.63
301.809	18.09
302.024	-0.34
302.238	52.91
302.452	73.39
302.667	-31.06
302.881	97.96
303.095	85.67
303.309	34.47
303.524	-4.44
303.738	36.52
303.952	57
304.166	73.39
304.381	3.75
304.595	75.43
304.809	9.9
305.023	65.19
305.237	-33.11
305.452	73.39
305.666	40.62
305.88	52.91
306.094	81.58
306.308	-0.34
306.522	44.71
306.736	-6.49
306.95	50.86
307.164	85.67
307.379	34.47
307.593	48.81
307.807	85.67
308.021	50.86
308.235	54.95
308.449	16.04
308.663	40.62
308.877	134.82
309.091	22.19
309.305	65.19
309.519	-4.44
309.733	95.91
309.947	11.95
310.161	63.15
310.374	16.04
310.588	97.96
310.802	36.52
311.016	32.43
311.23	106.15
311.444	67.24
311.658	9.9
311.872	48.81
312.085	102.06
312.299	59.05
312.513	81.58
312.727	-22.87
312.941	-22.87
313.154	110.25
313.368	36.52
313.582	67.24
313.796	40.62
314.009	104.11
314.223	77.48
314.437	36.52
314.651	91.82
314.864	65.19
315.078	-20.82
315.292	16.04
315.505	7.85
315.719	3.75
315.933	32.43
316.146	42.67
316.36	18.09
316.573	40.62
316.787	108.2
317.001	34.47
317.214	24.23
317.428	85.67
317.641	16.04
317.855	48.81
318.068	34.47
318.282	34.47
318.495	108.2
318.709	81.58
318.922	-24.92
319.136	81.58
319.349	24.23
319.563	-24.92
319.776	-16.73
319.99	16.04
320.203	89.77
320.417	130.73
320.63	-26.96
320.843	36.52
321.057	-4.44
321.27	-8.53
321.483	67.24
321.697	81.58
321.91	-8.53
322.124	-8.53
322.337	77.48
322.55	57
322.763	44.71
322.977	91.82
323.19	26.28
323.403	-22.87
323.617	151.21
323.83	120.49
324.043	-4.44
324.256	48.81
324.469	83.63
324.683	48.81
324.896	26.28
325.109	67.24
325.322	-39.25
325.535	73.39
325.748	-8.53
325.962	36.52
326.175	93.87
326.388	83.63
326.601	-41.3
326.814	7.85
327.027	-4.44
327.24	87.72
327.453	40.62
327.666	77.48
327.879	32.43
328.092	71.34
328.305	-8.53
328.518	40.62
328.731	-20.82
328.944	26.28
329.157	24.23
329.37	48.81
329.583	9.9
329.796	44.71
330.009	-61.78
330.222	-6.49
330.435	3.75
330.648	65.19
330.861	9.9
331.073	28.33
331.286	52.91
331.499	18.09
331.712	-49.49
331.925	122.54
332.138	-16.73
332.35	-8.53
332.563	77.48
332.776	93.87
332.989	57
333.202	22.19
333.414	-16.73
333.627	9.9
333.84	7.85
334.053	65.19
334.265	-14.68
334.478	18.09
334.691	20.14
334.903	7.85
335.116	38.57
335.329	83.63
335.541	32.43
335.754	87.72
335.966	-8.53
336.179	-12.63
336.392	13.99
336.604	24.23
336.817	40.62
337.029	3.75
337.242	67.24
337.454	81.58
337.667	32.43
337.88	73.39
338.092	36.52
338.305	54.95
338.517	-29.01
338.729	79.53
338.942	126.63
339.154	5.8
339.367	89.77
339.579	57
339.792	26.28
340.004	-33.11
340.217	54.95
340.429	-12.63
340.641	42.67
340.854	81.58
341.066	63.15
341.278	73.39
341.491	57
341.703	36.52
341.915	52.91
342.128	75.43
342.34	16.04
342.552	1.71
342.764	24.23
342.977	46.76
343.189	-24.92
343.401	16.04
343.613	57
343.826	40.62
344.038	-4.44
344.25	9.9
344.462	-8.53
344.674	11.95
344.886	65.19
345.099	42.67
345.311	16.04
345.523	26.28
345.735	42.67
345.947	69.29
346.159	93.87
346.371	59.05
346.583	22.19
346.795	138.92
347.007	61.1
347.219	106.15
347.431	67.24
347.643	-0.34
347.855	65.19
348.067	81.58
348.279	24.23
348.491	77.48
348.703	42.67
348.915	22.19
349.127	-12.63
349.339	11.95
349.551	67.24
349.763	3.75
349.975	-2.39
350.187	-10.58
350.399	24.23
350.61	16.04
350.822	48.81
351.034	89.77
351.246	13.99
351.458	75.43
351.669	-22.87
351.881	24.23
352.093	69.29
352.305	3.75
352.517	38.57
352.728	81.58
352.94	48.81
353.152	100.01
353.363	48.81
353.575	110.25
353.787	108.2
353.999	30.38
354.21	120.49
354.422	18.09
354.633	100.01
354.845	18.09
355.057	63.15
355.268	40.62
355.48	48.81
355.692	67.24
355.903	-29.01
356.115	24.23
356.326	-8.53
356.538	108.2
356.749	73.39
356.961	89.77
357.172	1.71
357.384	16.04
357.595	163.5
357.807	28.33
358.018	69.29
358.23	65.19
358.441	69.29
358.653	44.71
358.864	57
359.075	-12.63
359.287	73.39
359.498	18.09
359.709	40.62
359.921	65.19
360.132	52.91
360.344	34.47
360.555	71.34
360.766	32.43
360.977	83.63
361.189	44.71
361.4	89.77
361.611	42.67
361.823	65.19
362.034	59.05
362.245	-57.68
362.456	24.23
362.667	100.01
362.879	7.85
363.09	7.85
363.301	61.1
363.512	97.96
363.723	40.62
363.935	50.86
364.146	81.58
364.357	61.1
364.568	75.43
364.779	40.62
364.99	100.01
365.201	-22.87
365.412	91.82
365.623	59.05
365.834	89.77
366.045	9.9
366.256	93.87
366.467	-6.49
366.678	1.71
366.889	69.29
367.1	13.99
367.311	106.15
367.522	69.29
367.733	75.43
367.944	71.34
368.155	3.75
368.366	83.63
368.577	116.39
368.788	36.52
368.999	-29.01
369.209	65.19
369.42	83.63
369.631	106.15
369.842	83.63
370.053	67.24
370.264	65.19
370.474	57
370.685	59.05
370.896	65.19
371.107	24.23
371.317	108.2
371.528	-49.49
371.739	65.19
371.95	67.24
372.16	9.9
372.371	42.67
372.582	7.85
372.792	69.29
373.003	34.47
373.214	83.63
373.424	44.71
373.635	38.57
373.846	89.77
374.056	11.95
374.267	65.19
374.477	69.29
374.688	16.04
374.898	65.19
375.109	30.38
375.319	57
375.53	42.67
375.74	40.62
375.951	-24.92
376.161	16.04
376.372	42.67
376.582	-35.16
376.793	-6.49
377.003	48.81
377.214	9.9
377.424	89.77
377.635	67.24
377.845	36.52
378.055	89.77
378.266	7.85
378.476	36.52
378.686	83.63
378.897	44.71
379.107	73.39
379.317	95.91
379.528	44.71
379.738	79.53
379.948	65.19
380.158	57
380.369	3.75
380.579	40.62
380.789	54.95
380.999	13.99
381.21	87.72
381.42	69.29
381.63	11.95
381.84	69.29
382.05	73.39
382.261	85.67
382.471	30.38
382.681	32.43
382.891	30.38
383.101	134.82
383.311	75.43
383.521	20.14
383.731	28.33
383.941	122.54
384.151	-4.44
384.361	-10.58
384.571	-14.68
384.781	46.76
384.991	104.11
385.201	77.48
385.411	46.76
385.621	73.39
385.831	-37.2
386.041	67.24
386.251	11.95
386.461	106.15
386.671	-10.58
386.881	36.52
387.091	24.23
387.301	106.15
387.511	73.39
387.72	122.54
387.93	61.1
388.14	-8.53
388.35	38.57
388.56	130.73
388.769	24.23
388.979	38.57
389.189	32.43
389.399	36.52
389.609	65.19
389.818	65.19
390.028	28.33
390.238	108.2
390.447	-8.53
390.657	42.67
390.867	85.67
391.076	-8.53
391.286	69.29
391.496	83.63
391.705	9.9
391.915	50.86
392.125	-6.49
392.334	20.14
392.544	93.87
392.753	95.91
392.963	-0.34
393.172	-0.34
393.382	-39.25
393.591	102.06
393.801	24.23
394.01	122.54
394.22	85.67
394.429	67.24
394.639	-0.34
394.848	59.05
395.058	57
395.267	28.33
395.477	42.67
395.686	108.2
395.895	77.48
396.105	132.78
396.314	91.82
396.524	52.91
396.733	52.91
396.942	69.29
397.152	11.95
397.361	126.63
397.57	89.77
397.78	57
397.989	73.39
398.198	106.15
398.407	26.28
398.617	81.58
398.826	75.43
399.035	102.06
399.244	110.25
399.453	89.77
399.663	124.58
399.872	100.01
400.081	7.85
400.29	183.98
400.499	40.62
400.708	89.77
400.917	155.3
401.127	97.96
401.336	38.57
401.545	122.54
401.754	118.44
401.963	57
402.172	106.15
402.381	138.92
402.59	97.96
402.799	155.3
403.008	175.78
403.217	136.87
403.426	24.23
403.635	138.92
403.844	100.01
404.053	130.73
404.262	75.43
404.471	138.92
404.68	159.4
404.888	130.73
405.097	73.39
405.306	138.92
405.515	106.15
405.724	138.92
405.933	173.74
406.142	108.2
406.35	157.35
406.559	218.79
406.768	165.54
406.977	233.13
407.185	138.92
407.394	192.17
407.603	138.92
407.812	249.51
408.02	171.69
408.229	212.65
408.438	220.84
408.646	222.89
408.855	245.41
409.064	259.75
409.272	253.61
409.481	249.51
409.69	143.02
409.898	284.33
410.107	245.41
410.315	323.24
410.524	222.89
410.733	247.46
410.941	321.19
411.15	362.15
411.358	368.29
411.567	384.68
411.775	335.53
411.984	368.29
412.192	394.92
412.401	401.06
412.609	394.92
412.818	450.21
413.026	401.06
413.234	470.69
413.443	347.81
413.651	417.44
413.86	392.87
414.068	417.44
414.276	579.23
414.485	503.46
414.693	534.18
414.901	519.84
415.11	560.8
415.318	646.82
415.526	585.38
415.734	616.1
415.943	741.02
416.151	679.58
416.359	695.97
416.567	663.2
416.776	753.31
416.984	853.66
417.192	824.99
417.4	925.34
417.608	888.48
417.817	882.33
418.025	822.94
418.233	1033.88
418.441	906.91
418.649	984.73
418.857	1060.51
419.065	1220.25
419.273	1072.79
419.481	1123.99
419.689	1175.19
419.897	1253.02
420.105	1316.5
420.313	1400.47
420.521	1343.13
420.729	1308.31
420.937	1449.62
421.145	1502.87
421.353	1631.89
421.561	1615.51
421.769	1554.07
421.977	1717.9
422.185	1654.42
422.393	1670.8
422.601	1937.04
422.809	1967.76
423.017	1967.76
423.224	1959.56
423.432	2021
423.64	2002.57
423.848	2281.1
424.056	2262.66
424.263	2424.45
424.471	2379.4
424.679	2487.94
424.887	2614.91
425.094	2584.2
425.302	2711.17
425.51	2621.06
425.718	2875.01
425.925	2991.74
426.133	2893.44
426.341	3133.05
426.548	3237.5
426.756	3182.2
426.964	3288.7
427.171	3513.97
427.379	3608.18
427.586	3661.43
427.794	3866.22
428.001	3958.38
428.209	4015.73
428.417	4073.07
428.624	4367.98
428.832	4300.39
429.039	4247.15
429.247	4202.09
429.454	4722.27
429.662	4992.61
429.869	4603.49
430.076	4968.03
430.284	4882.02
430.491	5195.36
430.699	5291.61
430.906	5244.51
431.114	5381.72
431.321	5619.28
431.528	5799.51
431.736	6196.81
431.943	6397.51
432.15	6118.99
432.358	6147.66
432.565	6590.02
432.772	6520.39
432.979	6790.72
433.187	6940.22
433.394	7126.59
433.601	7644.73
433.808	7495.22
434.016	7495.22
434.223	7831.09
434.43	8244.78
434.637	8166.96
434.844	8539.69
435.052	8781.35
435.259	8838.69
435.466	8767.01
435.673	8810.02
435.88	9342.49
436.087	9717.27
436.294	9805.33
436.501	9623.06
436.708	9868.82
436.915	10307.09
437.122	10550.79
437.329	10421.77
437.537	10870.28
437.743	10935.81
437.95	10874.37
438.157	11488.76
438.364	11619.83
438.571	11972.08
438.778	11795.96
438.985	13082.08
439.192	12328.43
439.399	12721.64
439.606	12590.57
439.813	13010.4
440.02	14042.58
440.227	13936.09
440.433	13667.8
440.64	14026.2
440.847	14175.7
441.054	14435.79
441.261	15494.59
441.467	15300.03
441.674	15508.93
441.881	16076.21
442.088	16090.55
442.294	15801.79
442.501	16225.72
442.708	16410.03
442.914	17417.63
443.121	17956.25
443.328	17352.1
443.534	18517.39
443.741	17943.96
443.948	18048.41
444.154	19316.1
444.361	19209.61
444.568	18972.04
444.774	19305.86
444.981	19273.09
445.187	19815.8
445.394	20712.81
445.6	20602.22
445.807	22447.44
446.013	21527.91
446.22	21679.46
446.426	22685.01
446.633	23004.49
446.839	23766.34
447.046	22838.61
447.252	24028.48
447.459	24307
447.665	24182.07
447.871	25210.15
448.078	26113.31
448.284	24976.69
448.491	25718.05
448.697	26709.27
448.903	26936.59
449.11	26934.54
449.316	26500.37
449.522	26856.72
449.728	27909.38
449.935	28216.57
450.141	28192
450.347	28654.84
450.553	27989.25
450.76	28226.81
450.966	29000.94
451.172	28796.15
451.378	29506.79
451.584	29033.71
451.791	29930.72
451.997	29721.83
452.203	30303.45
452.409	30031.07
452.615	30106.85
452.821	29195.5
453.027	28368.12
453.233	29904.1
453.44	28925.17
453.646	29314.28
453.852	29103.34
454.058	30170.33
454.264	29013.23
454.47	29910.24
454.676	29005.04
454.882	30362.84
455.088	27477.26
455.294	27825.41
455.5	28325.11
455.705	28634.36
455.911	27053.33
456.117	26965.26
456.323	26692.88
456.529	25519.4
456.735	26684.69
456.941	25781.54
457.147	25611.56
457.352	24593.72
457.558	24190.27
457.764	24311.1
457.97	23891.26
458.176	23516.48
458.381	23305.54
458.587	22291.8
458.793	21882.2
458.999	21155.18
459.204	22658.38
459.41	22142.3
459.616	20493.68
459.821	20624.75
460.027	20596.08
460.233	20012.41
460.438	19056.01
460.644	19422.59
460.85	18466.19
461.055	18060.7
461.261	18115.99
461.466	16780.71
461.672	16299.44
461.878	17491.36
462.083	16358.83
462.289	16096.69
462.494	15736.25
462.7	14992.84
462.905	14755.27
463.111	15193.54
463.316	15250.88
463.522	15062.47
463.727	14986.69
463.932	15007.17
464.138	14915.02
464.343	14853.58
464.549	14370.26
464.754	14751.18
464.959	14958.02
465.165	14626.25
465.37	13975
465.575	13690.33
465.781	14054.87
465.986	14181.84
466.191	13743.58
466.397	13376.99
466.602	12629.48
466.807	13213.15
467.012	13096.42
467.218	13198.82
467.423	12938.73
467.628	12973.54
467.833	13581.79
468.038	13012.45
468.244	12824.04
468.449	13239.78
