Data from USB4F104151__192__14-45-13-411.txt Node

Date: Thu Mar 13 14:45:13 EDT 2025
User: louis
Spectrometer: USB4F10415
Trigger mode: 4
Integration Time (sec): 2.000000E-2
Scans to average: 1
Electric dark correction enabled: true
Nonlinearity correction enabled: false
Boxcar width: 0
XAxis mode: Wavelengths
Number of Pixels in Spectrum: 3648
>>>>>Begin Spectral Data<<<<<
178.204	-84.82
178.424	-84.82
178.644	-84.82
178.864	-148.31
179.084	-113.49
179.304	-90.96
179.524	52.39
179.744	29.87
179.964	-19.29
180.184	-31.57
180.404	7.34
180.624	-21.33
180.844	38.06
181.064	-11.09
181.283	54.44
181.503	-17.24
181.723	9.39
181.943	-31.57
182.163	38.06
182.383	-7
182.602	21.67
182.822	29.87
183.042	105.64
183.262	5.29
183.482	5.29
183.701	29.87
183.921	25.77
184.141	-17.24
184.361	29.87
184.58	-0.85
184.8	-27.48
185.02	17.58
185.239	97.45
185.459	-60.24
185.679	119.98
185.898	-31.57
186.118	87.21
186.338	-64.34
186.557	29.87
186.777	-37.72
186.997	-15.19
187.216	31.91
187.436	25.77
187.655	5.29
187.875	70.83
188.095	36.01
188.314	122.02
188.534	64.68
188.753	23.72
188.973	40.11
189.192	21.67
189.412	-23.38
189.631	46.25
189.851	7.34
190.07	97.45
190.29	-7
190.509	5.29
190.729	79.02
190.948	33.96
191.168	173.22
191.387	54.44
191.607	15.53
191.826	13.48
192.045	-21.33
192.265	40.11
192.484	40.11
192.704	21.67
192.923	54.44
193.142	140.46
193.362	-11.09
193.581	79.02
193.8	11.43
194.02	70.83
194.239	3.24
194.458	42.15
194.678	25.77
194.897	7.34
195.116	29.87
195.335	48.3
195.555	81.07
195.774	36.01
195.993	42.15
196.212	-2.9
196.432	29.87
196.651	23.72
196.87	-17.24
197.089	40.11
197.308	21.67
197.528	54.44
197.747	-25.43
197.966	33.96
198.185	66.73
198.404	19.63
198.623	74.92
198.842	89.26
199.062	68.78
199.281	74.92
199.5	5.29
199.719	21.67
199.938	13.48
200.157	48.3
200.376	21.67
200.595	64.68
200.814	48.3
201.033	-17.24
201.252	29.87
201.471	70.83
201.69	-47.96
201.909	46.25
202.128	-2.9
202.347	9.39
202.566	38.06
202.785	-0.85
203.004	-39.76
203.223	119.98
203.442	13.48
203.661	48.3
203.879	29.87
204.098	-17.24
204.317	17.58
204.536	23.72
204.755	50.35
204.974	62.63
205.193	50.35
205.411	111.78
205.63	-7
205.849	9.39
206.068	-35.67
206.287	13.48
206.505	29.87
206.724	-52.05
206.943	23.72
207.162	-31.57
207.381	15.53
207.599	21.67
207.818	74.92
208.037	44.2
208.255	11.43
208.474	7.34
208.693	38.06
208.911	23.72
209.13	9.39
209.349	46.25
209.567	9.39
209.786	11.43
210.005	25.77
210.223	103.59
210.442	62.63
210.661	97.45
210.879	-47.96
211.098	-0.85
211.316	113.83
211.535	15.53
211.753	46.25
211.972	103.59
212.191	23.72
212.409	40.11
212.628	5.29
212.846	-13.14
213.065	119.98
213.283	60.59
213.502	-23.38
213.72	-35.67
213.938	-2.9
214.157	-4.95
214.375	21.67
214.594	56.49
214.812	5.29
215.031	-35.67
215.249	15.53
215.467	27.82
215.686	38.06
215.904	48.3
216.122	21.67
216.341	64.68
216.559	-31.57
216.778	62.63
216.996	72.87
217.214	38.06
217.432	72.87
217.651	21.67
217.869	21.67
218.087	70.83
218.306	-2.9
218.524	87.21
218.742	-45.91
218.96	50.35
219.179	-31.57
219.397	23.72
219.615	103.59
219.833	19.63
220.051	-27.48
220.27	-50
220.488	36.01
220.706	5.29
220.924	-43.86
221.142	31.91
221.36	23.72
221.578	5.29
221.796	36.01
222.015	31.91
222.233	66.73
222.451	62.63
222.669	-17.24
222.887	-35.67
223.105	58.54
223.323	58.54
223.541	-33.62
223.759	58.54
223.977	103.59
224.195	27.82
224.413	-0.85
224.631	25.77
224.849	62.63
225.067	132.26
225.285	-2.9
225.503	58.54
225.721	9.39
225.939	42.15
226.157	-19.29
226.375	44.2
226.592	117.93
226.81	64.68
227.028	31.91
227.246	95.4
227.464	13.48
227.682	29.87
227.9	23.72
228.117	23.72
228.335	62.63
228.553	9.39
228.771	50.35
228.989	54.44
229.206	70.83
229.424	19.63
229.642	29.87
229.86	-39.76
230.077	42.15
230.295	19.63
230.513	56.49
230.731	56.49
230.948	62.63
231.166	107.69
231.384	21.67
231.601	25.77
231.819	99.5
232.037	70.83
232.254	-43.86
232.472	101.55
232.689	-2.9
232.907	101.55
233.125	15.53
233.342	44.2
233.56	13.48
233.777	-29.52
233.995	33.96
234.213	46.25
234.43	13.48
234.648	-39.76
234.865	-11.09
235.083	56.49
235.3	-9.05
235.518	79.02
235.735	70.83
235.953	91.31
236.17	70.83
236.388	27.82
236.605	-13.14
236.822	70.83
237.04	-35.67
237.257	70.83
237.475	25.77
237.692	-9.05
237.909	38.06
238.127	11.43
238.344	-7
238.562	64.68
238.779	-41.81
238.996	-17.24
239.214	-35.67
239.431	-23.38
239.648	5.29
239.865	48.3
240.083	85.16
240.3	48.3
240.517	25.77
240.735	107.69
240.952	27.82
241.169	87.21
241.386	-17.24
241.603	58.54
241.821	-74.58
242.038	79.02
242.255	25.77
242.472	9.39
242.689	5.29
242.907	66.73
243.124	5.29
243.341	79.02
243.558	13.48
243.775	15.53
243.992	-7
244.209	87.21
244.426	103.59
244.643	36.01
244.86	-0.85
245.078	64.68
245.295	-7
245.512	62.63
245.729	-60.24
245.946	72.87
246.163	-43.86
246.38	15.53
246.597	5.29
246.814	25.77
247.031	-35.67
247.248	15.53
247.464	27.82
247.681	29.87
247.898	62.63
248.115	50.35
248.332	103.59
248.549	-2.9
248.766	58.54
248.983	44.2
249.2	29.87
249.417	79.02
249.633	23.72
249.85	85.16
250.067	52.39
250.284	-19.29
250.501	21.67
250.717	15.53
250.934	-9.05
251.151	29.87
251.368	58.54
251.585	1.19
251.801	25.77
252.018	81.07
252.235	89.26
252.451	-11.09
252.668	33.96
252.885	9.39
253.102	38.06
253.318	46.25
253.535	38.06
253.752	-11.09
253.968	48.3
254.185	70.83
254.401	7.34
254.618	70.83
254.835	56.49
255.051	58.54
255.268	76.97
255.484	17.58
255.701	44.2
255.917	15.53
256.134	17.58
256.351	58.54
256.567	15.53
256.784	33.96
257	29.87
257.217	83.11
257.433	-19.29
257.65	-2.9
257.866	40.11
258.082	21.67
258.299	5.29
258.515	68.78
258.732	25.77
258.948	7.34
259.165	9.39
259.381	13.48
259.597	38.06
259.814	-0.85
260.03	-0.85
260.246	40.11
260.463	56.49
260.679	29.87
260.895	5.29
261.112	23.72
261.328	46.25
261.544	13.48
261.761	81.07
261.977	79.02
262.193	-47.96
262.409	3.24
262.626	72.87
262.842	-2.9
263.058	50.35
263.274	103.59
263.49	-11.09
263.707	95.4
263.923	5.29
264.139	-39.76
264.355	-43.86
264.571	54.44
264.787	15.53
265.004	109.74
265.22	42.15
265.436	7.34
265.652	-9.05
265.868	68.78
266.084	-11.09
266.3	62.63
266.516	19.63
266.732	-25.43
266.948	38.06
267.164	-0.85
267.38	74.92
267.596	140.46
267.812	79.02
268.028	119.98
268.244	-9.05
268.46	-76.63
268.676	38.06
268.892	7.34
269.108	5.29
269.324	46.25
269.54	-35.67
269.756	138.41
269.972	31.91
270.188	72.87
270.403	-15.19
270.619	25.77
270.835	-7
271.051	31.91
271.267	-11.09
271.483	1.19
271.698	33.96
271.914	29.87
272.13	11.43
272.346	62.63
272.562	58.54
272.777	58.54
272.993	-21.33
273.209	31.91
273.425	9.39
273.64	13.48
273.856	56.49
274.072	31.91
274.287	13.48
274.503	23.72
274.719	54.44
274.934	74.92
275.15	-50
275.366	48.3
275.581	19.63
275.797	46.25
276.012	21.67
276.228	-27.48
276.444	5.29
276.659	113.83
276.875	-11.09
277.09	66.73
277.306	-33.62
277.521	40.11
277.737	7.34
277.952	56.49
278.168	62.63
278.383	-27.48
278.599	-80.72
278.814	62.63
279.03	46.25
279.245	91.31
279.461	64.68
279.676	38.06
279.892	15.53
280.107	7.34
280.322	-11.09
280.538	5.29
280.753	-23.38
280.969	38.06
281.184	46.25
281.399	132.26
281.615	81.07
281.83	72.87
282.045	-13.14
282.26	36.01
282.476	48.3
282.691	40.11
282.906	70.83
283.122	40.11
283.337	15.53
283.552	31.91
283.767	25.77
283.983	-15.19
284.198	62.63
284.413	95.4
284.628	15.53
284.843	103.59
285.058	-11.09
285.274	11.43
285.489	-0.85
285.704	25.77
285.919	-21.33
286.134	101.55
286.349	21.67
286.564	25.77
286.779	89.26
286.995	70.83
287.21	13.48
287.425	21.67
287.64	-39.76
287.855	-2.9
288.07	64.68
288.285	99.5
288.5	64.68
288.715	87.21
288.93	-52.05
289.145	5.29
289.36	-27.48
289.575	81.07
289.79	111.78
290.004	27.82
290.219	33.96
290.434	-11.09
290.649	-27.48
290.864	42.15
291.079	62.63
291.294	29.87
291.509	-11.09
291.724	27.82
291.938	40.11
292.153	87.21
292.368	17.58
292.583	40.11
292.798	-2.9
293.012	23.72
293.227	70.83
293.442	66.73
293.657	66.73
293.871	33.96
294.086	33.96
294.301	72.87
294.516	-17.24
294.73	5.29
294.945	-27.48
295.16	109.74
295.374	62.63
295.589	122.02
295.804	-31.57
296.018	33.96
296.233	50.35
296.447	87.21
296.662	42.15
296.877	50.35
297.091	-11.09
297.306	48.3
297.52	38.06
297.735	25.77
297.949	19.63
298.164	-23.38
298.378	25.77
298.593	15.53
298.807	52.39
299.022	7.34
299.236	-11.09
299.451	-25.43
299.665	-7
299.88	15.53
300.094	21.67
300.309	-43.86
300.523	-66.39
300.737	-7
300.952	76.97
301.166	17.58
301.381	-68.44
301.595	-17.24
301.809	44.2
302.024	3.24
302.238	3.24
302.452	15.53
302.667	60.59
302.881	70.83
303.095	13.48
303.309	42.15
303.524	13.48
303.738	-9.05
303.952	-7
304.166	52.39
304.381	70.83
304.595	64.68
304.809	38.06
305.023	17.58
305.237	31.91
305.452	48.3
305.666	13.48
305.88	95.4
306.094	107.69
306.308	81.07
306.522	42.15
306.736	56.49
306.95	87.21
307.164	-35.67
307.379	-9.05
307.593	33.96
307.807	38.06
308.021	97.45
308.235	60.59
308.449	1.19
308.663	-29.52
308.877	103.59
309.091	40.11
309.305	-19.29
309.519	64.68
309.733	64.68
309.947	23.72
310.161	-19.29
310.374	81.07
310.588	87.21
310.802	31.91
311.016	70.83
311.23	1.19
311.444	-7
311.658	3.24
311.872	33.96
312.085	76.97
312.299	66.73
312.513	62.63
312.727	79.02
312.941	-9.05
313.154	-35.67
313.368	3.24
313.582	87.21
313.796	83.11
314.009	27.82
314.223	-2.9
314.437	-52.05
314.651	91.31
314.864	70.83
315.078	29.87
315.292	40.11
315.505	-17.24
315.719	54.44
315.933	72.87
316.146	-0.85
316.36	-33.62
316.573	122.02
316.787	42.15
317.001	15.53
317.214	-17.24
317.428	-2.9
317.641	-52.05
317.855	33.96
318.068	-56.15
318.282	52.39
318.495	-27.48
318.709	25.77
318.922	29.87
319.136	58.54
319.349	97.45
319.563	1.19
319.776	21.67
319.99	-2.9
320.203	33.96
320.417	15.53
320.63	46.25
320.843	56.49
321.057	13.48
321.27	23.72
321.483	76.97
321.697	48.3
321.91	119.98
322.124	38.06
322.337	87.21
322.55	9.39
322.763	72.87
322.977	25.77
323.19	13.48
323.403	48.3
323.617	19.63
323.83	46.25
324.043	52.39
324.256	50.35
324.469	72.87
324.683	99.5
324.896	-15.19
325.109	64.68
325.322	-27.48
325.535	81.07
325.748	111.78
325.962	40.11
326.175	46.25
326.388	27.82
326.601	46.25
326.814	38.06
327.027	21.67
327.24	66.73
327.453	-33.62
327.666	99.5
327.879	9.39
328.092	38.06
328.305	5.29
328.518	64.68
328.731	29.87
328.944	19.63
329.157	76.97
329.37	89.26
329.583	87.21
329.796	140.46
330.009	-11.09
330.222	54.44
330.435	95.4
330.648	62.63
330.861	70.83
331.073	48.3
331.286	5.29
331.499	89.26
331.712	-17.24
331.925	29.87
332.138	-25.43
332.35	15.53
332.563	1.19
332.776	72.87
332.989	13.48
333.202	13.48
333.414	5.29
333.627	87.21
333.84	19.63
334.053	128.17
334.265	72.87
334.478	17.58
334.691	87.21
334.903	13.48
335.116	21.67
335.329	83.11
335.541	68.78
335.754	5.29
335.966	136.36
336.179	87.21
336.392	48.3
336.604	58.54
336.817	13.48
337.029	42.15
337.242	58.54
337.454	7.34
337.667	103.59
337.88	-27.48
338.092	25.77
338.305	48.3
338.517	-27.48
338.729	79.02
338.942	72.87
339.154	95.4
339.367	76.97
339.579	91.31
339.792	-41.81
340.004	79.02
340.217	11.43
340.429	54.44
340.641	-7
340.854	79.02
341.066	7.34
341.278	89.26
341.491	58.54
341.703	54.44
341.915	-66.39
342.128	-7
342.34	23.72
342.552	64.68
342.764	25.77
342.977	11.43
343.189	54.44
343.401	42.15
343.613	-43.86
343.826	-11.09
344.038	-47.96
344.25	5.29
344.462	-35.67
344.674	21.67
344.886	48.3
345.099	48.3
345.311	38.06
345.523	-11.09
345.735	7.34
345.947	1.19
346.159	107.69
346.371	33.96
346.583	-31.57
346.795	187.56
347.007	13.48
347.219	-25.43
347.431	-2.9
347.643	95.4
347.855	-78.68
348.067	29.87
348.279	23.72
348.491	29.87
348.703	111.78
348.915	62.63
349.127	27.82
349.339	33.96
349.551	21.67
349.763	79.02
349.975	87.21
350.187	13.48
350.399	58.54
350.61	-9.05
350.822	48.3
351.034	31.91
351.246	97.45
351.458	66.73
351.669	-2.9
351.881	15.53
352.093	21.67
352.305	117.93
352.517	79.02
352.728	81.07
352.94	50.35
353.152	-7
353.363	17.58
353.575	72.87
353.787	64.68
353.999	62.63
354.21	31.91
354.422	13.48
354.633	23.72
354.845	23.72
355.057	21.67
355.268	7.34
355.48	107.69
355.692	29.87
355.903	23.72
356.115	33.96
356.326	40.11
356.538	169.13
356.749	5.29
356.961	70.83
357.172	38.06
357.384	72.87
357.595	95.4
357.807	21.67
358.018	9.39
358.23	-0.85
358.441	111.78
358.653	40.11
358.864	89.26
359.075	-19.29
359.287	97.45
359.498	66.73
359.709	17.58
359.921	64.68
360.132	-4.95
360.344	23.72
360.555	66.73
360.766	66.73
360.977	36.01
361.189	81.07
361.4	9.39
361.611	9.39
361.823	79.02
362.034	113.83
362.245	62.63
362.456	3.24
362.667	13.48
362.879	7.34
363.09	42.15
363.301	38.06
363.512	17.58
363.723	25.77
363.935	79.02
364.146	79.02
364.357	70.83
364.568	38.06
364.779	54.44
364.99	140.46
365.201	5.29
365.412	64.68
365.623	-17.24
365.834	62.63
366.045	40.11
366.256	132.26
366.467	21.67
366.678	64.68
366.889	46.25
367.1	97.45
367.311	50.35
367.522	5.29
367.733	74.92
367.944	19.63
368.155	-25.43
368.366	58.54
368.577	42.15
368.788	-21.33
368.999	56.49
369.209	54.44
369.42	54.44
369.631	107.69
369.842	70.83
370.053	40.11
370.264	21.67
370.474	122.02
370.685	68.78
370.896	5.29
371.107	76.97
371.317	-11.09
371.528	93.35
371.739	81.07
371.95	5.29
372.16	105.64
372.371	9.39
372.582	-0.85
372.792	91.31
373.003	56.49
373.214	115.88
373.424	99.5
373.635	58.54
373.846	150.7
374.056	17.58
374.267	62.63
374.477	54.44
374.688	29.87
374.898	54.44
375.109	122.02
375.319	95.4
375.53	38.06
375.74	17.58
375.951	29.87
376.161	79.02
376.372	15.53
376.582	40.11
376.793	5.29
377.003	-11.09
377.214	-11.09
377.424	74.92
377.635	-2.9
377.845	33.96
378.055	130.22
378.266	-13.14
378.476	95.4
378.686	122.02
378.897	72.87
379.107	42.15
379.317	54.44
379.528	85.16
379.738	56.49
379.948	38.06
380.158	58.54
380.369	62.63
380.579	50.35
380.789	54.44
380.999	33.96
381.21	23.72
381.42	91.31
381.63	87.21
381.84	87.21
382.05	7.34
382.261	103.59
382.471	54.44
382.681	81.07
382.891	111.78
383.101	33.96
383.311	15.53
383.521	15.53
383.731	56.49
383.941	107.69
384.151	-19.29
384.361	60.59
384.571	111.78
384.781	44.2
384.991	97.45
385.201	70.83
385.411	68.78
385.621	79.02
385.831	64.68
386.041	136.36
386.251	46.25
386.461	89.26
386.671	87.21
386.881	9.39
387.091	-35.67
387.301	72.87
387.511	17.58
387.72	-17.24
387.93	-31.57
388.14	31.91
388.35	11.43
388.56	91.31
388.769	38.06
388.979	122.02
389.189	38.06
389.399	64.68
389.609	89.26
389.818	46.25
390.028	38.06
390.238	11.43
390.447	25.77
390.657	-11.09
390.867	15.53
391.076	-23.38
391.286	33.96
391.496	46.25
391.705	33.96
391.915	119.98
392.125	40.11
392.334	-19.29
392.544	54.44
392.753	93.35
392.963	13.48
393.172	5.29
393.382	-11.09
393.591	95.4
393.801	33.96
394.01	119.98
394.22	74.92
394.429	-0.85
394.639	38.06
394.848	54.44
395.058	160.94
395.267	70.83
395.477	70.83
395.686	81.07
395.895	187.56
396.105	62.63
396.314	72.87
396.524	50.35
396.733	-2.9
396.942	122.02
397.152	13.48
397.361	144.55
397.57	95.4
397.78	89.26
397.989	91.31
398.198	152.74
398.407	56.49
398.617	81.07
398.826	107.69
399.035	-7
399.244	95.4
399.453	111.78
399.663	93.35
399.872	70.83
400.081	56.49
400.29	126.12
400.499	79.02
400.708	124.07
400.917	52.39
401.127	74.92
401.336	95.4
401.545	119.98
401.754	142.5
401.963	74.92
402.172	76.97
402.381	70.83
402.59	111.78
402.799	111.78
403.008	136.36
403.217	46.25
403.426	103.59
403.635	95.4
403.844	124.07
404.053	91.31
404.262	122.02
404.471	162.98
404.68	105.64
404.888	169.13
405.097	103.59
405.306	25.77
405.515	146.6
405.724	95.4
405.933	101.55
406.142	187.56
406.35	201.9
406.559	226.47
406.768	175.27
406.977	193.7
407.185	111.78
407.394	99.5
407.603	134.31
407.812	128.17
408.02	203.94
408.229	242.85
408.438	150.7
408.646	193.7
408.855	185.51
409.064	152.74
409.272	203.94
409.481	226.47
409.69	175.27
409.898	148.65
410.107	162.98
410.315	244.9
410.524	218.28
410.733	230.57
410.941	265.38
411.15	218.28
411.358	236.71
411.567	357.54
411.775	341.16
411.984	277.67
412.192	367.78
412.401	308.39
412.609	373.92
412.818	400.55
413.026	373.92
413.234	423.08
413.443	443.56
413.651	357.54
413.86	410.79
414.068	459.94
414.276	435.36
414.485	378.02
414.693	474.28
414.901	541.86
415.11	627.87
415.318	498.85
415.526	507.04
415.734	531.62
415.943	570.53
416.151	617.63
416.359	636.06
416.567	642.21
416.776	615.59
416.984	699.55
417.192	709.79
417.4	654.5
417.608	619.68
417.817	767.13
418.025	842.91
418.233	857.25
418.441	873.63
418.649	922.78
418.857	906.4
419.065	973.98
419.273	900.25
419.481	930.97
419.689	1057.95
419.897	1029.27
420.105	1070.23
420.313	1111.19
420.521	1098.91
420.729	1191.06
420.937	1232.02
421.145	1268.89
421.353	1291.41
421.561	1328.28
421.769	1365.14
421.977	1590.42
422.185	1463.44
422.393	1592.47
422.601	1701.01
422.809	1555.6
423.017	1643.67
423.224	1729.68
423.432	1889.42
423.64	1655.95
423.848	1901.71
424.056	1823.89
424.263	1963.15
424.471	2020.49
424.679	2114.7
424.887	2405.51
425.094	2221.19
425.302	2274.44
425.51	2301.06
425.718	2438.28
425.925	2333.83
426.133	2397.32
426.341	2671.75
426.548	2643.07
426.756	2913.41
426.964	2649.22
427.171	3036.28
427.379	3046.52
427.586	3138.68
427.794	3110.01
428.001	3386.49
428.209	3431.54
428.417	3316.86
428.624	3673.2
428.832	3701.87
429.039	3695.73
429.247	3601.52
429.454	3904.62
429.662	4213.87
429.869	4007.02
430.076	4308.07
430.284	4056.17
430.491	4306.02
430.699	4609.12
430.906	4543.59
431.114	4594.79
431.321	4799.59
431.528	4875.36
431.736	5250.14
431.943	5420.12
432.15	5391.45
432.358	5387.35
432.565	5616.72
432.772	5612.63
432.979	5983.31
433.187	6024.27
433.394	6050.89
433.601	6487.11
433.808	6386.76
434.016	6325.32
434.223	6517.83
434.43	7222.33
434.637	6999.1
434.844	7332.92
435.052	7414.84
435.259	7468.09
435.466	7537.72
435.673	7429.18
435.88	7855.15
436.087	8336.43
436.294	8330.28
436.501	7978.03
436.708	8410.15
436.915	8586.28
437.122	8954.91
437.329	8893.47
437.537	9081.89
437.743	9270.3
437.95	9337.88
438.157	9790.49
438.364	10069.01
438.571	9876.5
438.778	10261.52
438.985	10843.14
439.192	10761.22
439.399	10990.59
439.606	10765.32
439.813	11371.52
440.02	11906.04
440.227	11873.27
440.433	11598.84
440.64	12145.65
440.847	12223.47
441.054	12334.06
441.261	13179.87
441.467	12778.47
441.674	13196.26
441.881	13390.81
442.088	13646.81
442.294	13429.73
442.501	14017.49
442.708	14029.78
442.914	14576.59
443.121	15268.8
443.328	14945.22
443.534	15926.2
443.741	15203.27
443.948	15021
444.154	16280.5
444.361	16391.09
444.568	16468.91
444.774	16241.59
444.981	16329.65
445.187	16749.48
445.394	18078.61
445.6	17490.85
445.807	19000.2
446.013	18312.08
446.22	18752.4
446.426	19334.02
446.633	19526.53
446.839	20353.91
447.046	19305.35
447.252	20546.42
447.459	20353.91
447.665	20347.76
447.871	21326.69
448.078	22416.21
448.284	21302.12
448.491	21818.21
448.697	22829.9
448.903	22790.99
449.11	23137.1
449.316	22747.98
449.522	23208.78
449.728	23673.67
449.935	23651.14
450.141	24132.41
450.347	24576.82
450.553	23737.15
450.76	24011.58
450.966	24658.74
451.172	24466.23
451.378	25416.49
451.584	24898.35
451.791	25199.4
451.997	25078.57
452.203	25588.52
452.409	25488.17
452.615	25740.07
452.821	24539.96
453.027	24283.96
453.233	25639.72
453.44	24474.42
453.646	24978.22
453.852	24873.78
454.058	25815.84
454.264	24771.38
454.47	25340.71
454.676	24589.11
454.882	25463.59
455.088	23429.96
455.294	23808.83
455.5	24187.71
455.705	24711.99
455.911	23055.18
456.117	22891.34
456.323	22584.15
456.529	21578.59
456.735	22426.45
456.941	21783.39
457.147	21441.38
457.352	20933.48
457.558	20743.02
457.764	20751.21
457.97	20562.8
458.176	19876.73
458.381	19950.46
458.587	19075.98
458.793	18887.56
458.999	17963.93
459.204	19403.65
459.41	18799.5
459.616	17476.51
459.821	17601.44
460.027	17400.74
460.233	17048.49
460.438	16290.74
460.644	16610.22
460.85	15670.2
461.055	15414.21
461.261	15369.15
461.466	14351.31
461.672	13790.17
461.878	14715.85
462.083	13872.09
462.289	13577.18
462.494	13501.4
462.7	13018.08
462.905	12592.11
463.111	13030.37
463.316	13057
463.522	12520.43
463.727	12860.39
463.932	12628.97
464.138	12512.24
464.343	12502
464.549	12151.79
464.754	12678.12
464.959	12776.42
465.165	12467.18
465.37	11854.84
465.575	11492.35
465.781	12182.51
465.986	12211.18
466.191	11711.48
466.397	11400.19
466.602	10880
466.807	11420.67
467.012	11238.4
467.218	11441.15
467.423	10951.68
467.628	11179.01
467.833	11678.71
468.038	11033.6
468.244	10953.73
