Data from USB4F104151__175__14-45-01-296.txt Node

Date: Thu Mar 13 14:45:01 EDT 2025
User: louis
Spectrometer: USB4F10415
Trigger mode: 4
Integration Time (sec): 2.000000E-2
Scans to average: 1
Electric dark correction enabled: true
Nonlinearity correction enabled: false
Boxcar width: 0
XAxis mode: Wavelengths
Number of Pixels in Spectrum: 3648
>>>>>Begin Spectral Data<<<<<
178.204	-127.32
178.424	-127.32
178.644	-127.32
178.864	-82.26
179.084	-108.88
179.304	-57.68
179.524	24.23
179.744	-74.07
179.964	67.24
180.184	36.52
180.404	24.23
180.624	48.81
180.844	5.8
181.064	-6.49
181.283	-8.53
181.503	-59.73
181.723	-0.34
181.943	-51.54
182.163	-35.16
182.383	-39.25
182.602	-2.39
182.822	26.28
183.042	93.87
183.262	-47.44
183.482	32.43
183.701	-14.68
183.921	67.24
184.141	5.8
184.361	85.67
184.58	18.09
184.8	54.95
185.02	34.47
185.239	67.24
185.459	40.62
185.679	-2.39
185.898	-41.3
186.118	-18.77
186.338	13.99
186.557	67.24
186.777	42.67
186.997	22.19
187.216	16.04
187.436	63.15
187.655	9.9
187.875	32.43
188.095	81.58
188.314	28.33
188.534	40.62
188.753	13.99
188.973	67.24
189.192	-14.68
189.412	87.72
189.631	34.47
189.851	13.99
190.07	97.96
190.29	1.71
190.509	-74.07
190.729	59.05
190.948	-39.25
191.168	177.83
191.387	30.38
191.607	71.34
191.826	38.57
192.045	75.43
192.265	42.67
192.484	9.9
192.704	9.9
192.923	-74.07
193.142	118.44
193.362	89.77
193.581	46.76
193.8	-6.49
194.02	44.71
194.239	73.39
194.458	48.81
194.678	-45.4
194.897	-14.68
195.116	32.43
195.335	52.91
195.555	85.67
195.774	-14.68
195.993	-0.34
196.212	38.57
196.432	-8.53
196.651	-14.68
196.87	-16.73
197.089	71.34
197.308	-35.16
197.528	5.8
197.747	-76.12
197.966	18.09
198.185	153.26
198.404	42.67
198.623	50.86
198.842	1.71
199.062	-16.73
199.281	32.43
199.5	-43.35
199.719	7.85
199.938	30.38
200.157	30.38
200.376	5.8
200.595	71.34
200.814	69.29
201.033	59.05
201.252	30.38
201.471	-35.16
201.69	18.09
201.909	54.95
202.128	20.14
202.347	50.86
202.566	75.43
202.785	18.09
203.004	-12.63
203.223	128.68
203.442	40.62
203.661	-26.96
203.879	22.19
204.098	-49.49
204.317	26.28
204.536	20.14
204.755	-2.39
204.974	-14.68
205.193	-35.16
205.411	42.67
205.63	5.8
205.849	30.38
206.068	100.01
206.287	75.43
206.505	24.23
206.724	7.85
206.943	-16.73
207.162	13.99
207.381	67.24
207.599	-47.44
207.818	32.43
208.037	3.75
208.255	-24.92
208.474	1.71
208.693	26.28
208.911	38.57
209.13	48.81
209.349	-22.87
209.567	9.9
209.786	32.43
210.005	54.95
210.223	-63.83
210.442	3.75
210.661	-51.54
210.879	75.43
211.098	79.53
211.316	44.71
211.535	71.34
211.753	5.8
211.972	30.38
212.191	81.58
212.409	-57.68
212.628	104.11
212.846	20.14
213.065	59.05
213.283	-59.73
213.502	32.43
213.72	83.63
213.938	3.75
214.157	3.75
214.375	32.43
214.594	-14.68
214.812	79.53
215.031	48.81
215.249	48.81
215.467	1.71
215.686	7.85
215.904	30.38
216.122	18.09
216.341	46.76
216.559	-47.44
216.778	26.28
216.996	22.19
217.214	-4.44
217.432	-18.77
217.651	7.85
217.869	5.8
218.087	-18.77
218.306	63.15
218.524	24.23
218.742	46.76
218.96	-8.53
219.179	11.95
219.397	-14.68
219.615	120.49
219.833	7.85
220.051	-35.16
220.27	30.38
220.488	44.71
220.706	30.38
220.924	3.75
221.142	9.9
221.36	38.57
221.578	63.15
221.796	59.05
222.015	-10.58
222.233	-4.44
222.451	54.95
222.669	-6.49
222.887	16.04
223.105	22.19
223.323	5.8
223.541	18.09
223.759	89.77
223.977	65.19
224.195	54.95
224.413	65.19
224.631	71.34
224.849	-18.77
225.067	106.15
225.285	-39.25
225.503	-10.58
225.721	-59.73
225.939	65.19
226.157	-29.01
226.375	91.82
226.592	3.75
226.81	-18.77
227.028	52.91
227.246	136.87
227.464	9.9
227.682	83.63
227.9	87.72
228.117	40.62
228.335	-6.49
228.553	46.76
228.771	61.1
228.989	77.48
229.206	30.38
229.424	-26.96
229.642	22.19
229.86	22.19
230.077	26.28
230.295	-26.96
230.513	-2.39
230.731	16.04
230.948	30.38
231.166	32.43
231.384	-16.73
231.601	13.99
231.819	124.58
232.037	59.05
232.254	-47.44
232.472	-39.25
232.689	-8.53
232.907	9.9
233.125	-24.92
233.342	59.05
233.56	42.67
233.777	-14.68
233.995	-10.58
234.213	73.39
234.43	18.09
234.648	57
234.865	18.09
235.083	-8.53
235.3	26.28
235.518	57
235.735	11.95
235.953	79.53
236.17	-41.3
236.388	67.24
236.605	1.71
236.822	65.19
237.04	67.24
237.257	95.91
237.475	34.47
237.692	-14.68
237.909	22.19
238.127	-6.49
238.344	-22.87
238.562	46.76
238.779	-18.77
238.996	-49.49
239.214	30.38
239.431	5.8
239.648	22.19
239.865	42.67
240.083	11.95
240.3	-35.16
240.517	-49.49
240.735	50.86
240.952	24.23
241.169	87.72
241.386	16.04
241.603	48.81
241.821	-16.73
242.038	54.95
242.255	81.58
242.472	-35.16
242.689	-0.34
242.907	87.72
243.124	75.43
243.341	-0.34
243.558	24.23
243.775	22.19
243.992	-0.34
244.209	104.11
244.426	50.86
244.643	57
244.86	7.85
245.078	-59.73
245.295	46.76
245.512	-0.34
245.729	-8.53
245.946	32.43
246.163	-0.34
246.38	75.43
246.597	71.34
246.814	54.95
247.031	63.15
247.248	38.57
247.464	-0.34
247.681	3.75
247.898	-63.83
248.115	75.43
248.332	-16.73
248.549	40.62
248.766	65.19
248.983	54.95
249.2	9.9
249.417	1.71
249.633	97.96
249.85	59.05
250.067	-8.53
250.284	57
250.501	1.71
250.717	30.38
250.934	-31.06
251.151	-33.11
251.368	63.15
251.585	-22.87
251.801	-8.53
252.018	-10.58
252.235	52.91
252.451	38.57
252.668	104.11
252.885	-43.35
253.102	59.05
253.318	42.67
253.535	50.86
253.752	-18.77
253.968	-16.73
254.185	-69.97
254.401	-35.16
254.618	95.91
254.835	-43.35
255.051	34.47
255.268	73.39
255.484	-10.58
255.701	18.09
255.917	40.62
256.134	-10.58
256.351	-59.73
256.567	52.91
256.784	13.99
257	54.95
257.217	73.39
257.433	73.39
257.65	-33.11
257.866	59.05
258.082	-22.87
258.299	-31.06
258.515	24.23
258.732	38.57
258.948	-24.92
259.165	73.39
259.381	16.04
259.597	79.53
259.814	-26.96
260.03	-0.34
260.246	22.19
260.463	79.53
260.679	71.34
260.895	48.81
261.112	30.38
261.328	-0.34
261.544	40.62
261.761	63.15
261.977	-14.68
262.193	7.85
262.409	18.09
262.626	-35.16
262.842	-12.63
263.058	-31.06
263.274	71.34
263.49	73.39
263.707	46.76
263.923	30.38
264.139	34.47
264.355	34.47
264.571	54.95
264.787	-35.16
265.004	75.43
265.22	-20.82
265.436	-16.73
265.652	-16.73
265.868	18.09
266.084	26.28
266.3	5.8
266.516	28.33
266.732	-24.92
266.948	42.67
267.164	18.09
267.38	30.38
267.596	79.53
267.812	13.99
268.028	87.72
268.244	42.67
268.46	36.52
268.676	34.47
268.892	95.91
269.108	83.63
269.324	5.8
269.54	69.29
269.756	79.53
269.972	5.8
270.188	-18.77
270.403	-39.25
270.619	-2.39
270.835	16.04
271.051	54.95
271.267	40.62
271.483	-14.68
271.698	59.05
271.914	-10.58
272.13	46.76
272.346	36.52
272.562	-41.3
272.777	112.3
272.993	16.04
273.209	9.9
273.425	95.91
273.64	-0.34
273.856	69.29
274.072	-4.44
274.287	83.63
274.503	-45.4
274.719	13.99
274.934	-10.58
275.15	-41.3
275.366	-43.35
275.581	34.47
275.797	-33.11
276.012	71.34
276.228	22.19
276.444	38.57
276.659	73.39
276.875	-104.79
277.09	42.67
277.306	114.34
277.521	-31.06
277.737	87.72
277.952	106.15
278.168	7.85
278.383	122.54
278.599	44.71
278.814	57
279.03	26.28
279.245	3.75
279.461	87.72
279.676	75.43
279.892	-39.25
280.107	-51.54
280.322	-24.92
280.538	-10.58
280.753	-18.77
280.969	-2.39
281.184	61.1
281.399	-22.87
281.615	54.95
281.83	-10.58
282.045	16.04
282.26	-2.39
282.476	26.28
282.691	18.09
282.906	30.38
283.122	40.62
283.337	30.38
283.552	18.09
283.767	-49.49
283.983	-6.49
284.198	22.19
284.413	13.99
284.628	-12.63
284.843	77.48
285.058	54.95
285.274	40.62
285.489	-22.87
285.704	40.62
285.919	-31.06
286.134	104.11
286.349	-51.54
286.564	28.33
286.779	-2.39
286.995	54.95
287.21	30.38
287.425	13.99
287.64	22.19
287.855	7.85
288.07	38.57
288.285	71.34
288.5	38.57
288.715	-0.34
288.93	13.99
289.145	46.76
289.36	9.9
289.575	-2.39
289.79	36.52
290.004	-61.78
290.219	28.33
290.434	63.15
290.649	24.23
290.864	5.8
291.079	-0.34
291.294	108.2
291.509	63.15
291.724	1.71
291.938	28.33
292.153	-10.58
292.368	-8.53
292.583	95.91
292.798	38.57
293.012	32.43
293.227	-2.39
293.442	-0.34
293.657	34.47
293.871	75.43
294.086	18.09
294.301	75.43
294.516	28.33
294.73	46.76
294.945	5.8
295.16	-4.44
295.374	30.38
295.589	-18.77
295.804	30.38
296.018	28.33
296.233	-35.16
296.447	-6.49
296.662	5.8
296.877	13.99
297.091	-2.39
297.306	40.62
297.52	16.04
297.735	-6.49
297.949	22.19
298.164	38.57
298.378	-4.44
298.593	-20.82
298.807	1.71
299.022	59.05
299.236	63.15
299.451	-10.58
299.665	-49.49
299.88	100.01
300.094	38.57
300.309	30.38
300.523	65.19
300.737	-10.58
300.952	46.76
301.166	67.24
301.381	5.8
301.595	40.62
301.809	44.71
302.024	48.81
302.238	18.09
302.452	73.39
302.667	7.85
302.881	79.53
303.095	-8.53
303.309	-2.39
303.524	16.04
303.738	5.8
303.952	40.62
304.166	13.99
304.381	-26.96
304.595	138.92
304.809	-26.96
305.023	87.72
305.237	-24.92
305.452	-10.58
305.666	151.21
305.88	57
306.094	87.72
306.308	22.19
306.522	34.47
306.736	71.34
306.95	40.62
307.164	149.16
307.379	-18.77
307.593	83.63
307.807	16.04
308.021	36.52
308.235	-8.53
308.449	-35.16
308.663	-18.77
308.877	48.81
309.091	7.85
309.305	54.95
309.519	-18.77
309.733	54.95
309.947	-35.16
310.161	85.67
310.374	67.24
310.588	13.99
310.802	-35.16
311.016	3.75
311.23	-43.35
311.444	5.8
311.658	32.43
311.872	54.95
312.085	18.09
312.299	73.39
312.513	13.99
312.727	-10.58
312.941	81.58
313.154	48.81
313.368	-51.54
313.582	38.57
313.796	36.52
314.009	9.9
314.223	32.43
314.437	7.85
314.651	40.62
314.864	18.09
315.078	18.09
315.292	-4.44
315.505	44.71
315.719	75.43
315.933	-4.44
316.146	-18.77
316.36	-26.96
316.573	120.49
316.787	46.76
317.001	22.19
317.214	40.62
317.428	65.19
317.641	-55.64
317.855	-41.3
318.068	73.39
318.282	-41.3
318.495	40.62
318.709	40.62
318.922	18.09
319.136	73.39
319.349	32.43
319.563	9.9
319.776	42.67
319.99	-10.58
320.203	40.62
320.417	46.76
320.63	-2.39
320.843	36.52
321.057	36.52
321.27	11.95
321.483	57
321.697	95.91
321.91	-8.53
322.124	63.15
322.337	79.53
322.55	-51.54
322.763	-24.92
322.977	48.81
323.19	-18.77
323.403	77.48
323.617	71.34
323.83	77.48
324.043	46.76
324.256	3.75
324.469	34.47
324.683	54.95
324.896	-33.11
325.109	50.86
325.322	-47.44
325.535	54.95
325.748	40.62
325.962	-8.53
326.175	24.23
326.388	85.67
326.601	30.38
326.814	-0.34
327.027	1.71
327.24	42.67
327.453	30.38
327.666	79.53
327.879	-35.16
328.092	-18.77
328.305	81.58
328.518	57
328.731	87.72
328.944	-35.16
329.157	-8.53
329.37	73.39
329.583	42.67
329.796	73.39
330.009	-49.49
330.222	13.99
330.435	38.57
330.648	7.85
330.861	-33.11
331.073	38.57
331.286	54.95
331.499	-35.16
331.712	42.67
331.925	87.72
332.138	38.57
332.35	40.62
332.563	-20.82
332.776	75.43
332.989	16.04
333.202	46.76
333.414	26.28
333.627	104.11
333.84	-59.73
334.053	-26.96
334.265	75.43
334.478	38.57
334.691	155.3
334.903	44.71
335.116	9.9
335.329	5.8
335.541	91.82
335.754	67.24
335.966	-2.39
336.179	67.24
336.392	63.15
336.604	7.85
336.817	30.38
337.029	46.76
337.242	46.76
337.454	54.95
337.667	20.14
337.88	57
338.092	-45.4
338.305	63.15
338.517	40.62
338.729	-0.34
338.942	-26.96
339.154	-18.77
339.367	1.71
339.579	5.8
339.792	-31.06
340.004	128.68
340.217	-0.34
340.429	46.76
340.641	67.24
340.854	50.86
341.066	-8.53
341.278	116.39
341.491	71.34
341.703	63.15
341.915	3.75
342.128	30.38
342.34	30.38
342.552	18.09
342.764	38.57
342.977	1.71
343.189	46.76
343.401	13.99
343.613	1.71
343.826	34.47
344.038	5.8
344.25	-0.34
344.462	57
344.674	-92.5
344.886	-35.16
345.099	13.99
345.311	42.67
345.523	65.19
345.735	-39.25
345.947	79.53
346.159	65.19
346.371	26.28
346.583	46.76
346.795	65.19
347.007	1.71
347.219	-45.4
347.431	-4.44
347.643	48.81
347.855	42.67
348.067	-2.39
348.279	26.28
348.491	-4.44
348.703	120.49
348.915	3.75
349.127	-78.16
349.339	93.87
349.551	30.38
349.763	30.38
349.975	59.05
350.187	13.99
350.399	40.62
350.61	3.75
350.822	20.14
351.034	57
351.246	16.04
351.458	11.95
351.669	5.8
351.881	50.86
352.093	63.15
352.305	13.99
352.517	38.57
352.728	71.34
352.94	-20.82
353.152	38.57
353.363	-10.58
353.575	30.38
353.787	97.96
353.999	22.19
354.21	24.23
354.422	32.43
354.633	38.57
354.845	52.91
355.057	63.15
355.268	48.81
355.48	11.95
355.692	-18.77
355.903	40.62
356.115	61.1
356.326	-26.96
356.538	-6.49
356.749	71.34
356.961	16.04
357.172	38.57
357.384	13.99
357.595	91.82
357.807	-6.49
358.018	100.01
358.23	54.95
358.441	48.81
358.653	38.57
358.864	59.05
359.075	48.81
359.287	-4.44
359.498	95.91
359.709	83.63
359.921	57
360.132	38.57
360.344	79.53
360.555	-41.3
360.766	18.09
360.977	-4.44
361.189	91.82
361.4	-4.44
361.611	97.96
361.823	40.62
362.034	-76.12
362.245	-53.59
362.456	-24.92
362.667	36.52
362.879	130.73
363.09	-20.82
363.301	42.67
363.512	30.38
363.723	5.8
363.935	77.48
364.146	40.62
364.357	-16.73
364.568	20.14
364.779	22.19
364.99	40.62
365.201	7.85
365.412	112.3
365.623	-67.92
365.834	36.52
366.045	-0.34
366.256	54.95
366.467	34.47
366.678	32.43
366.889	11.95
367.1	9.9
367.311	73.39
367.522	-41.3
367.733	30.38
367.944	65.19
368.155	22.19
368.366	32.43
368.577	50.86
368.788	67.24
368.999	5.8
369.209	-29.01
369.42	149.16
369.631	57
369.842	89.77
370.053	-2.39
370.264	116.39
370.474	73.39
370.685	-14.68
370.896	36.52
371.107	46.76
371.317	132.78
371.528	16.04
371.739	-49.49
371.95	22.19
372.16	26.28
372.371	5.8
372.582	-10.58
372.792	13.99
373.003	52.91
373.214	46.76
373.424	100.01
373.635	-2.39
373.846	95.91
374.056	79.53
374.267	61.1
374.477	-26.96
374.688	75.43
374.898	32.43
375.109	128.68
375.319	104.11
375.53	57
375.74	40.62
375.951	38.57
376.161	-6.49
376.372	18.09
376.582	-10.58
376.793	32.43
377.003	32.43
377.214	50.86
377.424	-6.49
377.635	20.14
377.845	46.76
378.055	95.91
378.266	1.71
378.476	65.19
378.686	83.63
378.897	57
379.107	40.62
379.317	97.96
379.528	30.38
379.738	-0.34
379.948	-10.58
380.158	36.52
380.369	22.19
380.579	71.34
380.789	63.15
380.999	71.34
381.21	5.8
381.42	145.06
381.63	3.75
381.84	122.54
382.05	-6.49
382.261	75.43
382.471	114.34
382.681	20.14
382.891	130.73
383.101	1.71
383.311	-35.16
383.521	-6.49
383.731	79.53
383.941	-6.49
384.151	52.91
384.361	65.19
384.571	-4.44
384.781	57
384.991	40.62
385.201	95.91
385.411	79.53
385.621	34.47
385.831	1.71
386.041	13.99
386.251	48.81
386.461	75.43
386.671	-10.58
386.881	-29.01
387.091	71.34
387.301	57
387.511	30.38
387.72	30.38
387.93	61.1
388.14	24.23
388.35	54.95
388.56	65.19
388.769	65.19
388.979	13.99
389.189	-6.49
389.399	65.19
389.609	67.24
389.818	69.29
390.028	73.39
390.238	71.34
390.447	30.38
390.657	26.28
390.867	30.38
391.076	22.19
391.286	57
391.496	1.71
391.705	87.72
391.915	46.76
392.125	57
392.334	-10.58
392.544	95.91
392.753	71.34
392.963	-6.49
393.172	112.3
393.382	-26.96
393.591	50.86
393.801	20.14
394.01	157.35
394.22	79.53
394.429	100.01
394.639	59.05
394.848	-35.16
395.058	81.58
395.267	22.19
395.477	57
395.686	95.91
395.895	114.34
396.105	67.24
396.314	87.72
396.524	89.77
396.733	-8.53
396.942	73.39
397.152	40.62
397.361	112.3
397.57	128.68
397.78	38.57
397.989	67.24
398.198	110.25
398.407	22.19
398.617	116.39
398.826	81.58
399.035	11.95
399.244	34.47
399.453	22.19
399.663	100.01
399.872	57
400.081	59.05
400.29	122.54
400.499	34.47
400.708	16.04
400.917	106.15
401.127	120.49
401.336	54.95
401.545	155.3
401.754	87.72
401.963	136.87
402.172	-0.34
402.381	-16.73
402.59	57
402.799	95.91
403.008	97.96
403.217	63.15
403.426	132.78
403.635	71.34
403.844	120.49
404.053	59.05
404.262	69.29
404.471	220.84
404.68	136.87
404.888	63.15
405.097	59.05
405.306	104.11
405.515	112.3
405.724	122.54
405.933	128.68
406.142	40.62
406.35	128.68
406.559	108.2
406.768	138.92
406.977	161.45
407.185	95.91
407.394	212.65
407.603	-0.34
407.812	159.4
408.02	212.65
408.229	134.82
408.438	132.78
408.646	67.24
408.855	179.88
409.064	177.83
409.272	153.26
409.481	226.98
409.69	153.26
409.898	177.83
410.107	186.02
410.315	210.6
410.524	212.65
410.733	204.46
410.941	186.02
411.15	267.94
411.358	202.41
411.567	263.85
411.775	243.37
411.984	269.99
412.192	226.98
412.401	302.76
412.609	294.57
412.818	321.19
413.026	282.28
413.234	235.18
413.443	315.05
413.651	327.33
413.86	425.64
414.068	423.59
414.276	396.96
414.485	296.61
414.693	362.15
414.901	425.64
415.11	489.12
415.318	515.75
415.526	394.92
415.734	515.75
415.943	497.32
416.151	609.95
416.359	454.31
416.567	591.52
416.776	620.19
416.984	624.29
417.192	661.15
417.4	614.05
417.608	695.97
417.817	622.24
418.025	724.64
418.233	759.46
418.441	698.02
418.649	763.55
418.857	808.61
419.065	857.76
419.273	751.26
419.481	841.37
419.689	978.59
419.897	898.72
420.105	960.16
420.313	1029.79
420.521	1085.08
420.729	976.54
420.937	1054.36
421.145	1095.32
421.353	1078.94
421.561	1261.21
421.769	1212.06
421.977	1396.37
422.185	1291.93
422.393	1400.47
422.601	1429.14
422.809	1515.16
423.017	1472.15
423.224	1531.54
423.432	1570.45
423.64	1564.31
423.848	1752.72
424.056	1615.51
424.263	1742.48
424.471	1722
424.679	1902.22
424.887	2021
425.094	2004.62
425.302	1994.38
425.51	2029.2
425.718	2145.93
425.925	2160.27
426.133	2344.58
426.341	2424.45
426.548	2453.13
426.756	2494.08
426.964	2496.13
427.171	2580.1
427.379	2727.55
427.586	2883.2
427.794	2889.34
428.001	2979.45
428.209	3122.81
428.417	3102.33
428.624	3276.41
428.832	3120.76
429.039	3110.52
429.247	3249.79
429.454	3534.45
429.662	3907.18
429.869	3524.21
430.076	3905.14
430.284	3729.01
430.491	3917.42
430.699	4097.64
430.906	4243.05
431.114	4179.56
431.321	4169.32
431.528	4513.38
431.736	4652.64
431.943	5011.04
432.15	4763.23
432.358	4699.75
432.565	5101.15
432.772	4994.65
432.979	5203.55
433.187	5226.07
433.394	5402.2
433.601	5602.9
433.808	5838.42
434.016	5654.1
434.223	6028.88
434.43	6231.63
434.637	6114.89
434.844	6667.84
435.052	6612.55
435.259	6690.37
435.466	6735.43
435.673	6583.88
435.88	7140.93
436.087	7437.88
436.294	7497.27
436.501	7290.43
436.708	7374.39
436.915	7790.13
437.122	8099.38
437.329	8060.46
437.537	8224.3
437.743	8328.75
437.95	8271.4
438.157	8683.05
438.364	9111.07
438.571	8982.05
438.778	8992.29
438.985	9969.17
439.192	9524.76
439.399	9827.86
439.606	9475.61
439.813	10225.17
440.02	10495.5
440.227	10505.74
440.433	10409.48
440.64	10812.93
440.847	10649.1
441.054	10888.71
441.261	11693.56
441.467	11548.15
441.674	11662.84
441.881	12092.91
442.088	12146.16
442.294	11910.64
442.501	12322.29
442.708	12774.89
442.914	13164
443.121	13544.92
443.328	13188.58
443.534	14226.9
443.741	13923.8
443.948	13667.8
444.154	14454.22
444.361	14271.95
444.568	14609.87
444.774	14472.65
444.981	14861.77
445.187	15105.48
445.394	15539.65
445.6	15605.18
445.807	16956.84
446.013	16410.03
446.22	16438.7
446.426	17348
446.633	17700.25
446.839	18128.28
447.046	17386.91
447.252	18054.55
447.459	18167.19
447.665	18271.64
447.871	19072.39
448.078	20020.6
448.284	18969.99
448.491	19469.7
448.697	20268.41
448.903	20626.8
449.11	20591.98
449.316	20153.72
449.522	20927.85
449.728	21562.72
449.935	21280.1
450.141	21525.86
450.347	21861.73
450.553	21114.22
450.76	21628.26
450.966	22525.27
451.172	22009.18
451.378	22560.08
451.584	21947.74
451.791	22736.21
451.997	22502.74
452.203	22955.34
452.409	23086.41
452.615	22984.01
452.821	22082.91
453.027	21751.13
453.233	22791.5
453.44	22070.62
453.646	22379.86
453.852	22906.19
454.058	22596.95
454.264	21902.68
454.47	22674.77
454.676	22123.87
454.882	23037.26
455.088	20907.37
455.294	21349.73
455.5	21732.7
455.705	22000.99
455.911	20966.76
456.117	20612.46
456.323	20528.5
456.529	19617.15
456.735	20143.48
456.941	19574.14
457.147	19228.04
457.352	18564.5
457.558	18544.02
457.764	18482.58
457.97	18251.16
458.176	17733.02
458.381	18115.99
458.587	16965.03
458.793	16997.8
458.999	15949.24
459.204	17167.78
459.41	16641.45
459.616	15734.2
459.821	15988.15
460.027	15635.9
460.233	15467.97
460.438	14740.94
460.644	14765.51
460.85	14192.08
461.055	14075.35
461.261	13876.69
461.466	12903.91
461.672	12342.77
461.878	13446.62
462.083	12629.48
462.289	12301.81
462.494	12011
462.7	11658.74
462.905	11349.5
463.111	11517.43
463.316	11523.58
463.522	11496.96
463.727	11458.04
463.932	11480.57
464.138	11187.71
464.343	11419.13
464.549	11097.6
464.754	11466.24
464.959	11195.9
465.165	10898.95
465.37	10638.86
465.575	10323.47
465.781	10896.9
465.986	10995.2
466.191	10589.71
466.397	10378.76
466.602	9805.33
466.807	10264.08
467.012	10280.46
467.218	9995.79
467.423	9913.88
467.628	10065.43
467.833	10380.81
468.038	10114.58
468.244	9688.6
468.449	10262.03
