Data from USB4F104151__160__14-44-42-138.txt Node

Date: Thu Mar 13 14:44:42 EDT 2025
User: louis
Spectrometer: USB4F10415
Trigger mode: 4
Integration Time (sec): 2.000000E-2
Scans to average: 1
Electric dark correction enabled: true
Nonlinearity correction enabled: false
Boxcar width: 0
XAxis mode: Wavelengths
Number of Pixels in Spectrum: 3648
>>>>>Begin Spectral Data<<<<<
178.204	-114.17
178.424	-114.17
178.644	-114.17
178.864	-97.79
179.084	-99.84
179.304	-71.17
179.524	-26.11
179.744	-9.73
179.964	47.62
180.184	2.56
180.404	41.47
180.624	4.61
180.844	-40.45
181.064	8.7
181.283	-19.97
181.503	14.85
181.723	47.62
181.943	-67.07
182.163	139.77
182.383	8.7
182.602	107.01
182.822	59.9
183.042	16.9
183.262	31.23
183.482	57.86
183.701	47.62
183.921	47.62
184.141	14.85
184.361	47.62
184.58	-32.26
184.8	-9.73
185.02	53.76
185.239	72.19
185.459	0.51
185.679	49.66
185.898	-40.45
186.118	59.9
186.338	68.09
186.557	27.14
186.777	18.94
186.997	41.47
187.216	51.71
187.436	35.33
187.655	72.19
187.875	82.43
188.095	88.57
188.314	-9.73
188.534	68.09
188.753	88.57
188.973	127.49
189.192	51.71
189.412	59.9
189.631	33.28
189.851	74.24
190.07	35.33
190.29	59.9
190.509	59.9
190.729	23.04
190.948	141.82
191.168	129.53
191.387	145.92
191.607	98.81
191.826	55.81
192.045	27.14
192.265	72.19
192.484	23.04
192.704	102.91
192.923	-9.73
193.142	158.21
193.362	68.09
193.581	72.19
193.8	76.29
194.02	86.53
194.239	41.47
194.458	43.52
194.678	57.86
194.897	57.86
195.116	115.2
195.335	-5.63
195.555	39.42
195.774	43.52
195.993	18.94
196.212	66.05
196.432	-17.92
196.651	55.81
196.87	14.85
197.089	43.52
197.308	39.42
197.528	33.28
197.747	10.75
197.966	41.47
198.185	6.66
198.404	31.23
198.623	47.62
198.842	82.43
199.062	68.09
199.281	55.81
199.5	6.66
199.719	23.04
199.938	55.81
200.157	6.66
200.376	86.53
200.595	25.09
200.814	49.66
201.033	31.23
201.252	129.53
201.471	10.75
201.69	57.86
201.909	-9.73
202.128	27.14
202.347	96.77
202.566	31.23
202.785	51.71
203.004	-17.92
203.223	111.1
203.442	70.14
203.661	39.42
203.879	64
204.098	80.38
204.317	45.57
204.536	37.38
204.755	113.15
204.974	100.86
205.193	113.15
205.411	88.57
205.63	64
205.849	68.09
206.068	-24.06
206.287	31.23
206.505	49.66
206.724	84.48
206.943	43.52
207.162	-9.73
207.381	84.48
207.599	39.42
207.818	6.66
208.037	96.77
208.255	20.99
208.474	88.57
208.693	33.28
208.911	66.05
209.13	31.23
209.349	80.38
209.567	121.34
209.786	57.86
210.005	37.38
210.223	104.96
210.442	47.62
210.661	59.9
210.879	18.94
211.098	-22.02
211.316	70.14
211.535	37.38
211.753	43.52
211.972	66.05
212.191	31.23
212.409	76.29
212.628	0.51
212.846	-60.93
213.065	55.81
213.283	170.49
213.502	14.85
213.72	-19.97
213.938	18.94
214.157	14.85
214.375	-15.87
214.594	90.62
214.812	23.04
215.031	57.86
215.249	-38.4
215.467	39.42
215.686	-32.26
215.904	72.19
216.122	64
216.341	96.77
216.559	35.33
216.778	51.71
216.996	6.66
217.214	47.62
217.432	64
217.651	12.8
217.869	-9.73
218.087	104.96
218.306	-54.78
218.524	6.66
218.742	72.19
218.96	8.7
219.179	66.05
219.397	68.09
219.615	59.9
219.833	47.62
220.051	8.7
220.27	80.38
220.488	123.39
220.706	16.9
220.924	2.56
221.142	18.94
221.36	6.66
221.578	133.63
221.796	31.23
222.015	45.57
222.233	18.94
222.451	133.63
222.669	-48.64
222.887	66.05
223.105	4.61
223.323	29.18
223.541	-1.54
223.759	6.66
223.977	47.62
224.195	55.81
224.413	23.04
224.631	41.47
224.849	80.38
225.067	154.11
225.285	23.04
225.503	82.43
225.721	33.28
225.939	8.7
226.157	113.15
226.375	121.34
226.592	51.71
226.81	29.18
227.028	53.76
227.246	-9.73
227.464	47.62
227.682	59.9
227.9	6.66
228.117	51.71
228.335	64
228.553	39.42
228.771	47.62
228.989	53.76
229.206	88.57
229.424	0.51
229.642	66.05
229.86	-32.26
230.077	51.71
230.295	10.75
230.513	78.33
230.731	-24.06
230.948	10.75
231.166	82.43
231.384	35.33
231.601	-9.73
231.819	115.2
232.037	16.9
232.254	18.94
232.472	76.29
232.689	-73.21
232.907	66.05
233.125	90.62
233.342	-34.3
233.56	147.97
233.777	123.39
233.995	37.38
234.213	88.57
234.43	6.66
234.648	37.38
234.865	-15.87
235.083	96.77
235.3	102.91
235.518	55.81
235.735	147.97
235.953	98.81
236.17	80.38
236.388	88.57
236.605	-48.64
236.822	-32.26
237.04	27.14
237.257	68.09
237.475	43.52
237.692	35.33
237.909	-19.97
238.127	-13.82
238.344	64
238.562	6.66
238.779	84.48
238.996	80.38
239.214	-17.92
239.431	51.71
239.648	55.81
239.865	55.81
240.083	80.38
240.3	68.09
240.517	-34.3
240.735	61.95
240.952	33.28
241.169	25.09
241.386	29.18
241.603	25.09
241.821	31.23
242.038	129.53
242.255	61.95
242.472	39.42
242.689	107.01
242.907	14.85
243.124	33.28
243.341	25.09
243.558	-3.58
243.775	-34.3
243.992	39.42
244.209	23.04
244.426	92.67
244.643	104.96
244.86	64
245.078	98.81
245.295	88.57
245.512	55.81
245.729	8.7
245.946	8.7
246.163	16.9
246.38	66.05
246.597	76.29
246.814	43.52
247.031	-9.73
247.248	39.42
247.464	49.66
247.681	55.81
247.898	47.62
248.115	88.57
248.332	72.19
248.549	47.62
248.766	66.05
248.983	121.34
249.2	39.42
249.417	102.91
249.633	45.57
249.85	33.28
250.067	2.56
250.284	25.09
250.501	0.51
250.717	55.81
250.934	31.23
251.151	59.9
251.368	-9.73
251.585	137.73
251.801	64
252.018	139.77
252.235	51.71
252.451	10.75
252.668	2.56
252.885	78.33
253.102	33.28
253.318	45.57
253.535	70.14
253.752	-17.92
253.968	45.57
254.185	-1.54
254.401	4.61
254.618	12.8
254.835	23.04
255.051	74.24
255.268	82.43
255.484	39.42
255.701	23.04
255.917	64
256.134	57.86
256.351	23.04
256.567	80.38
256.784	37.38
257	18.94
257.217	23.04
257.433	88.57
257.65	33.28
257.866	94.72
258.082	-83.45
258.299	76.29
258.515	88.57
258.732	74.24
258.948	14.85
259.165	64
259.381	16.9
259.597	18.94
259.814	25.09
260.03	80.38
260.246	35.33
260.463	35.33
260.679	47.62
260.895	-1.54
261.112	-5.63
261.328	51.71
261.544	55.81
261.761	41.47
261.977	47.62
262.193	0.51
262.409	39.42
262.626	49.66
262.842	47.62
263.058	-5.63
263.274	55.81
263.49	35.33
263.707	61.95
263.923	88.57
264.139	35.33
264.355	51.71
264.571	66.05
264.787	47.62
265.004	131.58
265.22	43.52
265.436	43.52
265.652	27.14
265.868	80.38
266.084	8.7
266.3	16.9
266.516	6.66
266.732	47.62
266.948	78.33
267.164	33.28
267.38	37.38
267.596	59.9
267.812	154.11
268.028	131.58
268.244	-24.06
268.46	88.57
268.676	31.23
268.892	119.29
269.108	39.42
269.324	8.7
269.54	74.24
269.756	57.86
269.972	-26.11
270.188	59.9
270.403	23.04
270.619	8.7
270.835	23.04
271.051	35.33
271.267	-11.78
271.483	12.8
271.698	35.33
271.914	74.24
272.13	59.9
272.346	35.33
272.562	66.05
272.777	25.09
272.993	55.81
273.209	-50.69
273.425	66.05
273.64	31.23
273.856	35.33
274.072	-26.11
274.287	6.66
274.503	88.57
274.719	80.38
274.934	88.57
275.15	-56.83
275.366	23.04
275.581	53.76
275.797	90.62
276.012	23.04
276.228	61.95
276.444	2.56
276.659	80.38
276.875	-13.82
277.09	35.33
277.306	25.09
277.521	72.19
277.737	31.23
277.952	49.66
278.168	57.86
278.383	129.53
278.599	25.09
278.814	-42.5
279.03	35.33
279.245	72.19
279.461	23.04
279.676	25.09
279.892	14.85
280.107	-60.93
280.322	10.75
280.538	2.56
280.753	18.94
280.969	80.38
281.184	16.9
281.399	55.81
281.615	55.81
281.83	39.42
282.045	-42.5
282.26	37.38
282.476	-11.78
282.691	43.52
282.906	31.23
283.122	33.28
283.337	-26.11
283.552	23.04
283.767	-3.58
283.983	39.42
284.198	-7.68
284.413	-24.06
284.628	23.04
284.843	47.62
285.058	25.09
285.274	57.86
285.489	6.66
285.704	117.25
285.919	-1.54
286.134	6.66
286.349	14.85
286.564	137.73
286.779	86.53
286.995	51.71
287.21	14.85
287.425	20.99
287.64	49.66
287.855	8.7
288.07	6.66
288.285	137.73
288.5	66.05
288.715	96.77
288.93	35.33
289.145	72.19
289.36	27.14
289.575	27.14
289.79	55.81
290.004	27.14
290.219	39.42
290.434	-71.17
290.649	10.75
290.864	35.33
291.079	23.04
291.294	10.75
291.509	31.23
291.724	51.71
291.938	47.62
292.153	51.71
292.368	80.38
292.583	2.56
292.798	25.09
293.012	82.43
293.227	84.48
293.442	27.14
293.657	51.71
293.871	25.09
294.086	14.85
294.301	35.33
294.516	25.09
294.73	131.58
294.945	8.7
295.16	47.62
295.374	55.81
295.589	6.66
295.804	35.33
296.018	41.47
296.233	74.24
296.447	25.09
296.662	72.19
296.877	90.62
297.091	90.62
297.306	57.86
297.52	14.85
297.735	16.9
297.949	-9.73
298.164	-32.26
298.378	90.62
298.593	20.99
298.807	10.75
299.022	72.19
299.236	166.4
299.451	88.57
299.665	92.67
299.88	47.62
300.094	76.29
300.309	23.04
300.523	45.57
300.737	123.39
300.952	-1.54
301.166	64
301.381	35.33
301.595	18.94
301.809	8.7
302.024	107.01
302.238	51.71
302.452	64
302.667	25.09
302.881	82.43
303.095	94.72
303.309	64
303.524	33.28
303.738	64
303.952	51.71
304.166	88.57
304.381	-13.82
304.595	10.75
304.809	6.66
305.023	31.23
305.237	115.2
305.452	47.62
305.666	113.15
305.88	55.81
306.094	66.05
306.308	72.19
306.522	25.09
306.736	8.7
306.95	16.9
307.164	23.04
307.379	39.42
307.593	92.67
307.807	84.48
308.021	8.7
308.235	33.28
308.449	47.62
308.663	35.33
308.877	84.48
309.091	82.43
309.305	66.05
309.519	72.19
309.733	57.86
309.947	-3.58
310.161	23.04
310.374	104.96
310.588	129.53
310.802	35.33
311.016	14.85
311.23	-19.97
311.444	25.09
311.658	41.47
311.872	137.73
312.085	-56.83
312.299	27.14
312.513	100.86
312.727	78.33
312.941	35.33
313.154	113.15
313.368	68.09
313.582	33.28
313.796	31.23
314.009	37.38
314.223	123.39
314.437	66.05
314.651	45.57
314.864	53.76
315.078	68.09
315.292	55.81
315.505	27.14
315.719	4.61
315.933	55.81
316.146	74.24
316.36	70.14
316.573	104.96
316.787	41.47
317.001	47.62
317.214	31.23
317.428	68.09
317.641	72.19
317.855	12.8
318.068	49.66
318.282	6.66
318.495	41.47
318.709	94.72
318.922	119.29
319.136	96.77
319.349	80.38
319.563	55.81
319.776	39.42
319.99	41.47
320.203	18.94
320.417	59.9
320.63	57.86
320.843	123.39
321.057	-1.54
321.27	35.33
321.483	84.48
321.697	66.05
321.91	45.57
322.124	55.81
322.337	98.81
322.55	49.66
322.763	145.92
322.977	41.47
323.19	25.09
323.403	39.42
323.617	100.86
323.83	98.81
324.043	33.28
324.256	-5.63
324.469	-67.07
324.683	80.38
324.896	88.57
325.109	82.43
325.322	59.9
325.535	137.73
325.748	80.38
325.962	80.38
326.175	47.62
326.388	25.09
326.601	74.24
326.814	41.47
327.027	80.38
327.24	160.25
327.453	41.47
327.666	27.14
327.879	64
328.092	82.43
328.305	31.23
328.518	55.81
328.731	16.9
328.944	51.71
329.157	68.09
329.37	72.19
329.583	14.85
329.796	141.82
330.009	-9.73
330.222	25.09
330.435	64
330.648	57.86
330.861	92.67
331.073	14.85
331.286	23.04
331.499	-9.73
331.712	23.04
331.925	8.7
332.138	8.7
332.35	131.58
332.563	55.81
332.776	68.09
332.989	-42.5
333.202	-11.78
333.414	33.28
333.627	47.62
333.84	74.24
334.053	-46.59
334.265	-34.3
334.478	25.09
334.691	8.7
334.903	80.38
335.116	72.19
335.329	86.53
335.541	-13.82
335.754	139.77
335.966	88.57
336.179	82.43
336.392	6.66
336.604	49.66
336.817	10.75
337.029	107.01
337.242	18.94
337.454	14.85
337.667	47.62
337.88	137.73
338.092	104.96
338.305	31.23
338.517	8.7
338.729	125.44
338.942	33.28
339.154	20.99
339.367	-1.54
339.579	43.52
339.792	-71.17
340.004	55.81
340.217	31.23
340.429	80.38
340.641	-7.68
340.854	68.09
341.066	88.57
341.278	133.63
341.491	80.38
341.703	92.67
341.915	35.33
342.128	80.38
342.34	4.61
342.552	39.42
342.764	35.33
342.977	33.28
343.189	59.9
343.401	43.52
343.613	31.23
343.826	66.05
344.038	109.05
344.25	-9.73
344.462	14.85
344.674	64
344.886	14.85
345.099	14.85
345.311	72.19
345.523	-7.68
345.735	72.19
345.947	39.42
346.159	43.52
346.371	72.19
346.583	117.25
346.795	90.62
347.007	41.47
347.219	31.23
347.431	47.62
347.643	66.05
347.855	59.9
348.067	80.38
348.279	-58.88
348.491	37.38
348.703	35.33
348.915	25.09
349.127	16.9
349.339	39.42
349.551	86.53
349.763	43.52
349.975	82.43
350.187	164.35
350.399	80.38
350.61	88.57
350.822	14.85
351.034	18.94
351.246	150.01
351.458	133.63
351.669	80.38
351.881	88.57
352.093	59.9
352.305	178.69
352.517	23.04
352.728	41.47
352.94	59.9
353.152	64
353.363	84.48
353.575	72.19
353.787	145.92
353.999	31.23
354.21	129.53
354.422	6.66
354.633	74.24
354.845	39.42
355.057	121.34
355.268	68.09
355.48	33.28
355.692	55.81
355.903	25.09
356.115	78.33
356.326	29.18
356.538	88.57
356.749	53.76
356.961	154.11
357.172	12.8
357.384	39.42
357.595	113.15
357.807	39.42
358.018	59.9
358.23	72.19
358.441	123.39
358.653	129.53
358.864	55.81
359.075	-46.59
359.287	45.57
359.498	92.67
359.709	86.53
359.921	45.57
360.132	39.42
360.344	82.43
360.555	39.42
360.766	35.33
360.977	16.9
361.189	49.66
361.4	43.52
361.611	113.15
361.823	31.23
362.034	82.43
362.245	72.19
362.456	10.75
362.667	55.81
362.879	61.95
363.09	14.85
363.301	86.53
363.512	78.33
363.723	55.81
363.935	84.48
364.146	68.09
364.357	74.24
364.568	25.09
364.779	74.24
364.99	57.86
365.201	23.04
365.412	8.7
365.623	47.62
365.834	49.66
366.045	35.33
366.256	121.34
366.467	51.71
366.678	125.44
366.889	51.71
367.1	27.14
367.311	64
367.522	64
367.733	86.53
367.944	162.3
368.155	64
368.366	64
368.577	113.15
368.788	-3.58
368.999	72.19
369.209	33.28
369.42	117.25
369.631	156.16
369.842	29.18
370.053	61.95
370.264	82.43
370.474	88.57
370.685	125.44
370.896	18.94
371.107	31.23
371.317	117.25
371.528	0.51
371.739	90.62
371.95	68.09
372.16	78.33
372.371	2.56
372.582	64
372.792	135.68
373.003	27.14
373.214	41.47
373.424	76.29
373.635	43.52
373.846	68.09
374.056	55.81
374.267	80.38
374.477	78.33
374.688	84.48
374.898	113.15
375.109	107.01
375.319	33.28
375.53	74.24
375.74	98.81
375.951	45.57
376.161	68.09
376.372	35.33
376.582	31.23
376.793	72.19
377.003	64
377.214	45.57
377.424	121.34
377.635	64
377.845	109.05
378.055	109.05
378.266	86.53
378.476	-5.63
378.686	18.94
378.897	68.09
379.107	14.85
379.317	47.62
379.528	6.66
379.738	113.15
379.948	-38.4
380.158	104.96
380.369	66.05
380.579	59.9
380.789	-22.02
380.999	64
381.21	31.23
381.42	29.18
381.63	-19.97
381.84	80.38
382.05	6.66
382.261	68.09
382.471	10.75
382.681	137.73
382.891	72.19
383.101	64
383.311	10.75
383.521	-30.21
383.731	129.53
383.941	121.34
384.151	55.81
384.361	43.52
384.571	104.96
384.781	29.18
384.991	53.76
385.201	176.64
385.411	61.95
385.621	45.57
385.831	80.38
386.041	131.58
386.251	72.19
386.461	82.43
386.671	68.09
386.881	135.68
387.091	6.66
387.301	88.57
387.511	98.81
387.72	0.51
387.93	113.15
388.14	88.57
388.35	55.81
388.56	6.66
388.769	72.19
388.979	78.33
389.189	-17.92
389.399	47.62
389.609	92.67
389.818	53.76
390.028	43.52
390.238	66.05
390.447	74.24
390.657	51.71
390.867	64
391.076	18.94
391.286	23.04
391.496	98.81
391.705	27.14
391.915	107.01
392.125	72.19
392.334	49.66
392.544	64
392.753	14.85
392.963	76.29
393.172	37.38
393.382	-9.73
393.591	137.73
393.801	158.21
394.01	84.48
394.22	68.09
394.429	102.91
394.639	64
394.848	135.68
395.058	123.39
395.267	59.9
395.477	72.19
395.686	172.54
395.895	150.01
396.105	156.16
396.314	76.29
396.524	158.21
396.733	66.05
396.942	107.01
397.152	113.15
397.361	76.29
397.57	104.96
397.78	129.53
397.989	66.05
398.198	178.69
398.407	47.62
398.617	107.01
398.826	92.67
399.035	64
399.244	90.62
399.453	150.01
399.663	64
399.872	131.58
400.081	104.96
400.29	96.77
400.499	104.96
400.708	154.11
400.917	82.43
401.127	115.2
401.336	6.66
401.545	115.2
401.754	113.15
401.963	64
402.172	80.38
402.381	90.62
402.59	16.9
402.799	156.16
403.008	170.49
403.217	113.15
403.426	135.68
403.635	66.05
403.844	109.05
404.053	117.25
404.262	96.77
404.471	207.36
404.68	82.43
404.888	96.77
405.097	109.05
405.306	164.35
405.515	129.53
405.724	84.48
405.933	195.07
406.142	215.55
406.35	127.49
406.559	150.01
406.768	147.97
406.977	231.93
407.185	162.3
407.394	96.77
407.603	211.45
407.812	115.2
408.02	178.69
408.229	121.34
408.438	145.92
408.646	133.63
408.855	211.45
409.064	203.26
409.272	252.41
409.481	213.5
409.69	195.07
409.898	281.08
410.107	213.5
410.315	236.03
410.524	250.36
410.733	272.89
410.941	303.61
411.15	322.04
411.358	358.91
411.567	346.62
411.775	342.52
411.984	334.33
412.192	395.77
412.401	363
412.609	358.91
412.818	389.63
413.026	356.86
413.234	424.44
413.443	432.63
413.651	401.91
413.86	446.97
414.068	494.07
414.276	522.74
414.485	518.65
414.693	530.94
414.901	596.47
415.11	518.65
415.318	539.13
415.526	625.14
415.734	621.05
415.943	662.01
416.151	715.25
416.359	647.67
416.567	672.25
416.776	674.29
416.984	766.45
417.192	844.28
417.4	717.3
417.608	772.6
417.817	739.83
418.025	872.95
418.233	975.35
418.441	870.9
418.649	928.24
418.857	948.72
419.065	1047.02
419.273	965.11
419.481	995.82
419.689	1110.51
419.897	1194.48
420.105	1098.22
420.313	1243.63
420.521	1313.26
420.729	1268.2
420.937	1384.94
421.145	1278.44
421.353	1350.12
421.561	1456.62
421.769	1587.69
421.977	1579.5
422.185	1473
422.393	1681.89
422.601	1685.99
422.809	1651.17
423.017	1841.64
423.224	1851.88
423.432	1849.83
423.64	1812.96
423.848	2130.4
424.056	2054.62
424.263	2189.79
424.471	2173.41
424.679	2161.12
424.887	2316.76
425.094	2398.68
425.302	2425.31
425.51	2410.97
425.718	2619.86
425.925	2693.59
426.133	2671.06
426.341	2882
426.548	3011.03
426.756	2865.62
426.964	2939.35
427.171	3254.73
427.379	3291.6
427.586	3283.41
427.794	3449.29
428.001	3615.18
428.209	3860.93
428.417	3684.81
428.624	3881.41
428.832	3920.32
429.039	3797.45
429.247	3951.04
429.454	4274.62
429.662	4592.06
429.869	4188.61
430.076	4514.24
430.284	4561.34
430.491	4725.18
430.699	4831.67
430.906	4972.98
431.114	5069.23
431.321	5202.35
431.528	5282.22
431.736	5554.6
431.943	5773.74
432.15	5523.88
432.358	5798.31
432.565	6138.27
432.772	5923.24
432.979	6363.55
433.187	6519.2
433.394	6310.3
433.601	6996.37
433.808	6738.33
434.016	6814.1
434.223	7199.12
434.43	7608.72
434.637	7295.38
434.844	7940.49
435.052	7909.77
435.259	7995.78
435.466	8092.04
435.673	8055.17
435.88	8436.1
436.087	9089.4
436.294	8919.42
436.501	8769.91
436.708	8935.8
436.915	9003.38
437.122	9867.63
437.329	9765.23
437.537	9875.82
437.743	10017.13
437.95	9855.34
438.157	10611.04
438.364	10676.57
438.571	10785.12
438.778	10977.62
438.985	11792.72
439.192	11481.42
439.399	11665.74
439.606	11632.97
439.813	12237.13
440.02	12732.73
440.227	12400.96
440.433	12443.97
440.64	12831.04
440.847	12822.84
441.054	13146.42
441.261	13924.65
441.467	13777.2
441.674	14108.97
441.881	14430.5
442.088	14717.22
442.294	14154.02
442.501	14934.3
442.708	14909.72
442.914	15683.86
443.121	16355.59
443.328	15886.61
443.534	17146.11
443.741	16546.05
443.948	16261.38
444.154	17369.33
444.361	17594.61
444.568	17355
444.774	17408.25
444.981	17821.94
445.187	18237.67
445.394	19128.54
445.6	18819.3
445.807	20633.8
446.013	19566.81
446.22	20068.56
446.426	21043.39
446.633	20846.79
446.839	21674.17
447.046	20771.01
447.252	22149.29
447.459	22225.07
447.665	21864.63
447.871	22976.67
448.078	23605.4
448.284	22784.16
448.491	23414.94
448.697	24283.28
448.903	24352.91
449.11	24670.34
449.316	24357
449.522	24766.6
449.728	25456.76
449.935	25733.24
450.141	25469.05
450.347	26116.21
450.553	25591.93
450.76	25739.38
450.966	26597.48
451.172	26175.6
451.378	26751.08
451.584	26718.31
451.791	27105.38
451.997	27007.08
452.203	27484.25
452.409	27592.79
452.615	27424.86
452.821	26357.87
453.027	26161.26
453.233	27854.93
453.44	26531.95
453.646	26460.27
453.852	26716.26
454.058	27123.81
454.264	26656.87
454.47	27254.88
454.676	26257.52
454.882	27619.42
455.088	24873.09
455.294	25317.5
455.5	25880.69
455.705	26345.58
455.911	24778.89
456.117	24496.27
456.323	24119.44
456.529	22980.77
456.735	24115.34
456.941	23470.23
457.147	23140.51
457.352	22448.3
457.558	22175.92
457.764	22259.88
457.97	21930.16
458.176	21498.04
458.381	21233.85
458.587	20185.29
458.793	20388.04
458.999	19005.66
459.204	20693.19
459.41	20013.26
459.616	18669.8
459.821	18755.81
460.027	18555.11
460.233	18460.9
460.438	17430.77
460.644	17594.61
460.85	16974.08
461.055	16859.39
461.261	16582.91
461.466	15178.01
461.672	14838.05
461.878	15913.23
462.083	14879
462.289	14749.98
462.494	14278.95
462.7	13769.01
462.905	13347.12
463.111	13971.75
463.316	13736.24
463.522	13316.4
463.727	13592.88
463.932	13599.02
464.138	13572.4
464.343	13611.31
464.549	13173.05
464.754	13582.64
464.959	13414.71
465.165	13058.36
465.37	12798.27
465.575	12458.31
465.781	13109.56
465.986	12931.39
466.191	12441.92
466.397	12017.99
466.602	11805
466.807	12210.5
467.012	12308.8
467.218	12136.77
467.423	11886.92
467.628	11921.74
467.833	12325.19
468.038	11925.83
468.244	11585.87
468.449	11997.51
468.654	11934.03
468.859	11612.49
469.064	11497.81
469.269	11086.17
