Data from USB4F104151__32__14-42-49-925.txt Node

Date: Thu Mar 13 14:42:49 EDT 2025
User: louis
Spectrometer: USB4F10415
Trigger mode: 4
Integration Time (sec): 2.000000E-2
Scans to average: 1
Electric dark correction enabled: true
Nonlinearity correction enabled: false
Boxcar width: 0
XAxis mode: Wavelengths
Number of Pixels in Spectrum: 3648
>>>>>Begin Spectral Data<<<<<
178.204	-81.92
178.424	-81.92
178.644	-81.92
178.864	-155.65
179.084	-149.5
179.304	-18.43
179.524	-22.53
179.744	4.1
179.964	4.1
180.184	-18.43
180.404	59.39
180.624	36.86
180.844	-18.43
181.064	-30.72
181.283	8.19
181.503	-36.86
181.723	32.77
181.943	-61.44
182.163	28.67
182.383	-40.96
182.602	-2.05
182.822	59.39
183.042	40.96
183.262	10.24
183.482	61.44
183.701	-51.2
183.921	53.25
184.141	-24.58
184.361	79.87
184.58	20.48
184.8	79.87
185.02	24.58
185.239	40.96
185.459	-26.62
185.679	-49.15
185.898	-16.38
186.118	-4.1
186.338	32.77
186.557	-16.38
186.777	-16.38
186.997	65.54
187.216	75.77
187.436	18.43
187.655	-24.58
187.875	26.62
188.095	22.53
188.314	81.92
188.534	32.77
188.753	-26.62
188.973	65.54
189.192	57.34
189.412	81.92
189.631	77.82
189.851	-30.72
190.07	-32.77
190.29	18.43
190.509	67.58
190.729	-100.35
190.948	-16.38
191.168	94.21
191.387	51.2
191.607	-24.58
191.826	-40.96
192.045	-8.19
192.265	20.48
192.484	-38.91
192.704	36.86
192.923	-22.53
193.142	40.96
193.362	79.87
193.581	0
193.8	32.77
194.02	49.15
194.239	-114.69
194.458	75.77
194.678	18.43
194.897	55.3
195.116	40.96
195.335	8.19
195.555	0
195.774	-57.34
195.993	34.82
196.212	55.3
196.432	-4.1
196.651	-90.11
196.87	2.05
197.089	147.45
197.308	43.01
197.528	57.34
197.747	-10.24
197.966	26.62
198.185	16.38
198.404	65.54
198.623	43.01
198.842	45.06
199.062	18.43
199.281	126.97
199.5	2.05
199.719	24.58
199.938	73.73
200.157	69.63
200.376	-40.96
200.595	16.38
200.814	-16.38
201.033	-24.58
201.252	81.92
201.471	-6.14
201.69	-16.38
201.909	32.77
202.128	77.82
202.347	26.62
202.566	34.82
202.785	57.34
203.004	-14.34
203.223	110.59
203.442	0
203.661	-10.24
203.879	-28.67
204.098	67.58
204.317	-67.58
204.536	-4.1
204.755	24.58
204.974	34.82
205.193	45.06
205.411	53.25
205.63	2.05
205.849	51.2
206.068	-24.58
206.287	28.67
206.505	34.82
206.724	43.01
206.943	40.96
207.162	2.05
207.381	53.25
207.599	-8.19
207.818	4.1
208.037	71.68
208.255	90.11
208.474	65.54
208.693	40.96
208.911	-12.29
209.13	-6.14
209.349	-6.14
209.567	43.01
209.786	8.19
210.005	20.48
210.223	10.24
210.442	-81.92
210.661	-14.34
210.879	0
211.098	0
211.316	34.82
211.535	10.24
211.753	53.25
211.972	22.53
212.191	2.05
212.409	26.62
212.628	59.39
212.846	16.38
213.065	114.69
213.283	98.3
213.502	8.19
213.72	61.44
213.938	32.77
214.157	4.1
214.375	10.24
214.594	-49.15
214.812	43.01
215.031	40.96
215.249	-53.25
215.467	26.62
215.686	20.48
215.904	65.54
216.122	8.19
216.341	49.15
216.559	0
216.778	65.54
216.996	43.01
217.214	-18.43
217.432	0
217.651	-8.19
217.869	24.58
218.087	0
218.306	-20.48
218.524	-2.05
218.742	-14.34
218.96	20.48
219.179	83.97
219.397	-32.77
219.615	40.96
219.833	10.24
220.051	-14.34
220.27	-6.14
220.488	-14.34
220.706	-16.38
220.924	16.38
221.142	0
221.36	51.2
221.578	-90.11
221.796	55.3
222.015	77.82
222.233	4.1
222.451	133.12
222.669	-53.25
222.887	116.73
223.105	12.29
223.323	30.72
223.541	-45.06
223.759	59.39
223.977	49.15
224.195	45.06
224.413	-14.34
224.631	12.29
224.849	-18.43
225.067	86.01
225.285	-22.53
225.503	47.1
225.721	-79.87
225.939	-8.19
226.157	40.96
226.375	75.77
226.592	-81.92
226.81	77.82
227.028	22.53
227.246	73.73
227.464	-53.25
227.682	-30.72
227.9	8.19
228.117	8.19
228.335	24.58
228.553	-79.87
228.771	45.06
228.989	90.11
229.206	-57.34
229.424	6.14
229.642	-18.43
229.86	-30.72
230.077	65.54
230.295	4.1
230.513	-4.1
230.731	92.16
230.948	67.58
231.166	63.49
231.384	73.73
231.601	18.43
231.819	-14.34
232.037	75.77
232.254	49.15
232.472	16.38
232.689	22.53
232.907	59.39
233.125	-8.19
233.342	20.48
233.56	0
233.777	43.01
233.995	-30.72
234.213	22.53
234.43	10.24
234.648	0
234.865	24.58
235.083	26.62
235.3	65.54
235.518	4.1
235.735	45.06
235.953	53.25
236.17	-16.38
236.388	-16.38
236.605	-32.77
236.822	77.82
237.04	-12.29
237.257	32.77
237.475	-40.96
237.692	18.43
237.909	32.77
238.127	16.38
238.344	-16.38
238.562	14.34
238.779	57.34
238.996	10.24
239.214	22.53
239.431	38.91
239.648	-12.29
239.865	24.58
240.083	81.92
240.3	36.86
240.517	-57.34
240.735	30.72
240.952	40.96
241.169	-32.77
241.386	40.96
241.603	57.34
241.821	-49.15
242.038	-8.19
242.255	49.15
242.472	28.67
242.689	24.58
242.907	45.06
243.124	-20.48
243.341	18.43
243.558	51.2
243.775	26.62
243.992	40.96
244.209	28.67
244.426	49.15
244.643	-36.86
244.86	-32.77
245.078	34.82
245.295	0
245.512	53.25
245.729	-77.82
245.946	55.3
246.163	75.77
246.38	32.77
246.597	16.38
246.814	8.19
247.031	73.73
247.248	-14.34
247.464	36.86
247.681	69.63
247.898	18.43
248.115	-18.43
248.332	24.58
248.549	-16.38
248.766	104.45
248.983	16.38
249.2	16.38
249.417	67.58
249.633	32.77
249.85	20.48
250.067	26.62
250.284	133.12
250.501	90.11
250.717	57.34
250.934	-8.19
251.151	-4.1
251.368	-2.05
251.585	49.15
251.801	-12.29
252.018	-36.86
252.235	49.15
252.451	-24.58
252.668	26.62
252.885	26.62
253.102	-38.91
253.318	-14.34
253.535	-38.91
253.752	4.1
253.968	57.34
254.185	-55.3
254.401	45.06
254.618	32.77
254.835	-49.15
255.051	45.06
255.268	79.87
255.484	-6.14
255.701	16.38
255.917	34.82
256.134	18.43
256.351	10.24
256.567	26.62
256.784	-2.05
257	6.14
257.217	-8.19
257.433	-90.11
257.65	10.24
257.866	24.58
258.082	24.58
258.299	49.15
258.515	49.15
258.732	-8.19
258.948	-28.67
259.165	8.19
259.381	-69.63
259.597	63.49
259.814	0
260.03	20.48
260.246	30.72
260.463	32.77
260.679	-32.77
260.895	-20.48
261.112	28.67
261.328	-55.3
261.544	24.58
261.761	92.16
261.977	-40.96
262.193	16.38
262.409	18.43
262.626	-24.58
262.842	14.34
263.058	-8.19
263.274	12.29
263.49	-32.77
263.707	0
263.923	-6.14
264.139	-18.43
264.355	28.67
264.571	32.77
264.787	94.21
265.004	24.58
265.22	49.15
265.436	34.82
265.652	-45.06
265.868	-6.14
266.084	100.35
266.3	106.49
266.516	-24.58
266.732	59.39
266.948	-22.53
267.164	-8.19
267.38	8.19
267.596	69.63
267.812	77.82
268.028	59.39
268.244	-16.38
268.46	2.05
268.676	32.77
268.892	49.15
269.108	-16.38
269.324	18.43
269.54	51.2
269.756	-16.38
269.972	-22.53
270.188	32.77
270.403	-16.38
270.619	59.39
270.835	77.82
271.051	40.96
271.267	10.24
271.483	-40.96
271.698	34.82
271.914	-12.29
272.13	8.19
272.346	49.15
272.562	-6.14
272.777	43.01
272.993	-16.38
273.209	-16.38
273.425	104.45
273.64	43.01
273.856	6.14
274.072	45.06
274.287	26.62
274.503	57.34
274.719	-20.48
274.934	65.54
275.15	-30.72
275.366	36.86
275.581	4.1
275.797	-24.58
276.012	-20.48
276.228	10.24
276.444	2.05
276.659	81.92
276.875	-32.77
277.09	-36.86
277.306	-32.77
277.521	61.44
277.737	10.24
277.952	-24.58
278.168	59.39
278.383	30.72
278.599	-36.86
278.814	71.68
279.03	20.48
279.245	73.73
279.461	6.14
279.676	2.05
279.892	61.44
280.107	51.2
280.322	30.72
280.538	49.15
280.753	-32.77
280.969	0
281.184	81.92
281.399	65.54
281.615	10.24
281.83	36.86
282.045	-65.53
282.26	-6.14
282.476	36.86
282.691	28.67
282.906	4.1
283.122	34.82
283.337	-26.62
283.552	8.19
283.767	-14.34
283.983	24.58
284.198	73.73
284.413	32.77
284.628	-20.48
284.843	20.48
285.058	0
285.274	32.77
285.489	-57.34
285.704	-24.58
285.919	-49.15
286.134	81.92
286.349	-16.38
286.564	-36.86
286.779	81.92
286.995	-34.82
287.21	-14.34
287.425	26.62
287.64	-51.2
287.855	32.77
288.07	-88.06
288.285	114.69
288.5	63.49
288.715	40.96
288.93	40.96
289.145	26.62
289.36	30.72
289.575	10.24
289.79	-49.15
290.004	36.86
290.219	40.96
290.434	12.29
290.649	-69.63
290.864	-53.25
291.079	-14.34
291.294	-8.19
291.509	20.48
291.724	28.67
291.938	12.29
292.153	2.05
292.368	8.19
292.583	45.06
292.798	49.15
293.012	32.77
293.227	2.05
293.442	65.54
293.657	40.96
293.871	43.01
294.086	20.48
294.301	20.48
294.516	10.24
294.73	61.44
294.945	24.58
295.16	-24.58
295.374	57.34
295.589	22.53
295.804	36.86
296.018	20.48
296.233	75.77
296.447	-16.38
296.662	2.05
296.877	-16.38
297.091	10.24
297.306	4.1
297.52	-57.34
297.735	-71.68
297.949	-4.1
298.164	-14.34
298.378	24.58
298.593	79.87
298.807	-8.19
299.022	28.67
299.236	43.01
299.451	-8.19
299.665	-32.77
299.88	16.38
300.094	49.15
300.309	-18.43
300.523	38.91
300.737	-16.38
300.952	98.3
301.166	65.54
301.381	-24.58
301.595	49.15
301.809	-30.72
302.024	-8.19
302.238	-75.77
302.452	49.15
302.667	-92.16
302.881	34.82
303.095	4.1
303.309	65.54
303.524	-4.1
303.738	51.2
303.952	32.77
304.166	65.54
304.381	-55.3
304.595	63.49
304.809	-24.58
305.023	102.4
305.237	-8.19
305.452	8.19
305.666	-8.19
305.88	126.97
306.094	24.58
306.308	18.43
306.522	83.97
306.736	8.19
306.95	43.01
307.164	28.67
307.379	71.68
307.593	40.96
307.807	-24.58
308.021	73.73
308.235	24.58
308.449	8.19
308.663	26.62
308.877	53.25
309.091	71.68
309.305	10.24
309.519	8.19
309.733	73.73
309.947	12.29
310.161	75.77
310.374	36.86
310.588	6.14
310.802	-28.67
311.016	-10.24
311.23	51.2
311.444	90.11
311.658	-55.3
311.872	18.43
312.085	-8.19
312.299	28.67
312.513	61.44
312.727	32.77
312.941	-30.72
313.154	12.29
313.368	57.34
313.582	-32.77
313.796	81.92
314.009	8.19
314.223	69.63
314.437	81.92
314.651	45.06
314.864	-12.29
315.078	8.19
315.292	34.82
315.505	-6.14
315.719	30.72
315.933	47.1
316.146	-16.38
316.36	-8.19
316.573	75.77
316.787	53.25
317.001	16.38
317.214	26.62
317.428	131.07
317.641	-16.38
317.855	-8.19
318.068	73.73
318.282	34.82
318.495	18.43
318.709	65.54
318.922	-6.14
319.136	43.01
319.349	106.49
319.563	2.05
319.776	-24.58
319.99	-20.48
320.203	73.73
320.417	-14.34
320.63	114.69
320.843	67.58
321.057	65.54
321.27	45.06
321.483	51.2
321.697	133.12
321.91	-16.38
322.124	-4.1
322.337	61.44
322.55	49.15
322.763	28.67
322.977	133.12
323.19	-4.1
323.403	10.24
323.617	-30.72
323.83	61.44
324.043	-32.77
324.256	90.11
324.469	-12.29
324.683	0
324.896	69.63
325.109	81.92
325.322	2.05
325.535	8.19
325.748	45.06
325.962	26.62
326.175	-26.62
326.388	49.15
326.601	57.34
326.814	38.91
327.027	36.86
327.24	-12.29
327.453	0
327.666	8.19
327.879	83.97
328.092	8.19
328.305	96.25
328.518	-47.1
328.731	-28.67
328.944	32.77
329.157	55.3
329.37	-49.15
329.583	20.48
329.796	40.96
330.009	26.62
330.222	12.29
330.435	45.06
330.648	47.1
330.861	43.01
331.073	36.86
331.286	-12.29
331.499	53.25
331.712	4.1
331.925	51.2
332.138	26.62
332.35	114.69
332.563	-14.34
332.776	38.91
332.989	45.06
333.202	-4.1
333.414	69.63
333.627	12.29
333.84	-14.34
334.053	2.05
334.265	-8.19
334.478	4.1
334.691	26.62
334.903	116.73
335.116	55.3
335.329	53.25
335.541	73.73
335.754	65.54
335.966	26.62
336.179	20.48
336.392	32.77
336.604	4.1
336.817	108.54
337.029	59.39
337.242	40.96
337.454	12.29
337.667	26.62
337.88	67.58
338.092	43.01
338.305	75.77
338.517	10.24
338.729	-12.29
338.942	69.63
339.154	-24.58
339.367	32.77
339.579	-8.19
339.792	-28.67
340.004	20.48
340.217	10.24
340.429	73.73
340.641	2.05
340.854	-53.25
341.066	-4.1
341.278	57.34
341.491	34.82
341.703	-45.06
341.915	-16.38
342.128	40.96
342.34	49.15
342.552	67.58
342.764	49.15
342.977	14.34
343.189	49.15
343.401	51.2
343.613	-45.06
343.826	8.19
344.038	-22.53
344.25	32.77
344.462	-16.38
344.674	61.44
344.886	30.72
345.099	6.14
345.311	92.16
345.523	28.67
345.735	-71.68
345.947	26.62
346.159	-14.34
346.371	10.24
346.583	28.67
346.795	118.78
347.007	12.29
347.219	43.01
347.431	-4.1
347.643	45.06
347.855	20.48
348.067	98.3
348.279	-12.29
348.491	30.72
348.703	65.54
348.915	32.77
349.127	40.96
349.339	-22.53
349.551	12.29
349.763	36.86
349.975	90.11
350.187	65.54
350.399	51.2
350.61	8.19
350.822	-22.53
351.034	45.06
351.246	32.77
351.458	49.15
351.669	53.25
351.881	90.11
352.093	36.86
352.305	0
352.517	26.62
352.728	65.54
352.94	28.67
353.152	-6.14
353.363	-22.53
353.575	-4.1
353.787	24.58
353.999	-16.38
354.21	59.39
354.422	-18.43
354.633	8.19
354.845	10.24
355.057	0
355.268	40.96
355.48	6.14
355.692	49.15
355.903	38.91
356.115	75.77
356.326	-26.62
356.538	98.3
356.749	20.48
356.961	86.01
357.172	2.05
357.384	10.24
357.595	16.38
357.807	28.67
358.018	-16.38
358.23	98.3
358.441	63.49
358.653	32.77
358.864	26.62
359.075	38.91
359.287	71.68
359.498	49.15
359.709	30.72
359.921	65.54
360.132	-10.24
360.344	-20.48
360.555	24.58
360.766	47.1
360.977	57.34
361.189	90.11
361.4	-14.34
361.611	67.58
361.823	2.05
362.034	-8.19
362.245	-81.92
362.456	0
362.667	77.82
362.879	51.2
363.09	-30.72
363.301	-8.19
363.512	75.77
363.723	-30.72
363.935	-40.96
364.146	-49.15
364.357	6.14
364.568	10.24
364.779	57.34
364.99	16.38
365.201	40.96
365.412	43.01
365.623	-49.15
365.834	65.54
366.045	-16.38
366.256	59.39
366.467	22.53
366.678	24.58
366.889	40.96
367.1	47.1
367.311	83.97
367.522	-16.38
367.733	96.25
367.944	139.26
368.155	-32.77
368.366	24.58
368.577	38.91
368.788	71.68
368.999	16.38
369.209	73.73
369.42	98.3
369.631	65.54
369.842	-30.72
370.053	57.34
370.264	-12.29
370.474	67.58
370.685	49.15
370.896	8.19
371.107	30.72
371.317	135.17
371.528	65.54
371.739	131.07
371.95	51.2
372.16	114.69
372.371	-12.29
372.582	12.29
372.792	88.06
373.003	6.14
373.214	51.2
373.424	67.58
373.635	-65.53
373.846	102.4
374.056	18.43
374.267	83.97
374.477	53.25
374.688	28.67
374.898	6.14
375.109	65.54
375.319	20.48
375.53	12.29
375.74	55.3
375.951	43.01
376.161	57.34
376.372	32.77
376.582	28.67
376.793	53.25
377.003	36.86
377.214	8.19
377.424	-8.19
377.635	57.34
377.845	24.58
378.055	83.97
378.266	77.82
378.476	24.58
378.686	65.54
378.897	126.97
379.107	28.67
379.317	16.38
379.528	71.68
379.738	28.67
379.948	30.72
380.158	45.06
380.369	32.77
380.579	43.01
380.789	36.86
380.999	16.38
381.21	22.53
381.42	131.07
381.63	53.25
381.84	20.48
382.05	45.06
382.261	65.54
382.471	22.53
382.681	18.43
382.891	49.15
383.101	63.49
383.311	0
383.521	32.77
383.731	40.96
383.941	94.21
384.151	47.1
384.361	65.54
384.571	65.54
384.781	55.3
384.991	59.39
385.201	90.11
385.411	90.11
385.621	104.45
385.831	24.58
386.041	63.49
386.251	73.73
386.461	73.73
386.671	16.38
386.881	10.24
387.091	63.49
387.301	75.77
387.511	6.14
387.72	51.2
387.93	77.82
388.14	16.38
388.35	40.96
388.56	88.06
388.769	8.19
388.979	24.58
389.189	0
389.399	69.63
389.609	53.25
389.818	65.54
390.028	0
390.238	36.86
390.447	45.06
390.657	43.01
390.867	98.3
391.076	34.82
391.286	49.15
391.496	32.77
391.705	77.82
391.915	135.17
392.125	71.68
392.334	51.2
392.544	90.11
392.753	49.15
392.963	32.77
393.172	67.58
393.382	22.53
393.591	59.39
393.801	106.49
394.01	139.26
394.22	43.01
394.429	28.67
394.639	-8.19
394.848	49.15
395.058	116.73
395.267	65.54
395.477	8.19
395.686	100.35
395.895	73.73
396.105	106.49
396.314	124.93
396.524	106.49
396.733	57.34
396.942	75.77
397.152	18.43
397.361	118.78
397.57	38.91
397.78	67.58
397.989	77.82
398.198	139.26
398.407	98.3
398.617	90.11
398.826	53.25
399.035	122.88
399.244	12.29
399.453	53.25
399.663	45.06
399.872	133.12
400.081	24.58
400.29	133.12
400.499	69.63
400.708	98.3
400.917	32.77
401.127	100.35
401.336	96.25
401.545	65.54
401.754	106.49
401.963	139.26
402.172	96.25
402.381	14.34
402.59	102.4
402.799	118.78
403.008	104.45
403.217	106.49
403.426	86.01
403.635	114.69
403.844	126.97
404.053	51.2
404.262	135.17
404.471	172.03
404.68	112.64
404.888	92.16
405.097	98.3
405.306	163.84
405.515	106.49
405.724	114.69
405.933	188.41
406.142	147.45
406.35	149.5
406.559	188.41
406.768	49.15
406.977	176.13
407.185	167.93
407.394	135.17
407.603	83.97
407.812	217.08
408.02	169.98
408.229	155.65
408.438	215.04
408.646	155.65
408.855	180.22
409.064	198.65
409.272	221.18
409.481	229.37
409.69	231.42
409.898	204.8
410.107	241.66
410.315	239.61
410.524	385.02
410.733	262.14
410.941	268.28
411.15	303.1
411.358	329.72
411.567	313.34
411.775	311.29
411.984	296.96
412.192	305.15
412.401	337.91
412.609	397.31
412.818	466.94
413.026	428.03
413.234	362.49
413.443	491.51
413.651	468.98
413.86	493.56
414.068	542.71
414.276	491.51
414.485	544.76
414.693	522.23
414.901	460.79
415.11	503.8
415.318	579.58
415.526	559.1
415.734	645.11
415.943	624.63
416.151	659.45
416.359	698.36
416.567	688.12
416.776	737.27
416.984	753.65
417.192	788.47
417.4	835.57
417.608	694.26
417.817	815.09
418.025	819.19
418.233	958.45
418.441	919.54
418.649	1009.65
418.857	1034.22
419.065	1079.28
419.273	1060.85
419.481	1081.33
419.689	985.07
419.897	1282.03
420.105	1290.22
420.313	1372.14
420.521	1351.66
420.729	1318.89
420.937	1322.99
421.145	1435.63
421.353	1468.39
421.561	1585.13
421.769	1452.01
421.977	1681.38
422.185	1621.99
422.393	1771.49
422.601	1851.36
422.809	1929.19
423.017	1789.92
423.224	1974.24
423.432	1974.24
423.64	1974.24
423.848	2205.66
424.056	2201.57
424.263	2342.88
424.471	2326.49
424.679	2338.78
424.887	2467.8
425.094	2631.64
425.302	2574.3
425.51	2623.45
425.718	2768.85
425.925	2809.81
426.133	2891.73
426.341	3127.25
426.548	3166.16
426.756	3129.3
426.964	3151.82
427.171	3436.49
427.379	3506.12
427.586	3465.16
427.794	3637.19
428.001	4022.21
428.209	3827.65
428.417	3907.52
428.624	4110.27
428.832	4083.65
429.039	4294.59
429.247	4153.28
429.454	4609.98
429.662	4833.21
429.869	4554.68
430.076	5062.58
430.284	4726.71
430.491	4988.85
430.699	5193.65
430.906	5248.94
431.114	5310.38
431.321	5586.86
431.528	5631.91
431.736	6193.06
431.943	6279.07
432.15	6150.05
432.358	6139.81
432.565	6487.97
432.772	6520.73
432.979	6739.87
433.187	6807.45
433.394	6786.97
433.601	7491.47
433.808	7339.92
434.016	7260.05
434.223	7671.69
434.43	8036.23
434.637	8116.1
434.844	8306.56
435.052	8552.32
435.259	8566.65
435.466	8818.55
435.673	8374.14
435.88	9150.32
436.087	9551.73
436.294	9625.45
436.501	9404.27
436.708	9506.67
436.915	9840.49
437.122	10223.46
437.329	10137.45
437.537	10506.08
437.743	10749.79
437.95	10741.6
438.157	11497.3
438.364	11642.7
438.571	11833.16
438.778	11595.6
438.985	12638.02
439.192	12156.74
439.399	12945.21
439.606	12341.06
439.813	13154.1
440.02	13958.95
440.227	13528.88
440.433	13598.51
440.64	14245.67
440.847	13774.64
441.054	14325.54
441.261	15185.69
441.467	15099.67
441.674	15404.82
441.881	15902.48
442.088	15685.39
442.294	15564.56
442.501	16248.58
442.708	16535.3
442.914	17239.8
443.121	17678.07
443.328	17467.13
443.534	18550.5
443.741	18044.65
443.948	17473.27
444.154	19056.35
444.361	19027.68
444.568	19109.6
444.774	19257.05
444.981	19240.67
445.187	19781.33
445.394	20684.48
445.6	20604.61
445.807	22308.52
446.013	21511.86
446.22	22019.76
446.426	22992.55
446.633	23105.18
446.839	24014.48
447.046	22802.08
447.252	24163.98
447.459	24034.96
447.665	23914.13
447.871	25206.4
448.078	26119.79
448.284	24931.97
448.491	25489.02
448.697	26570.35
448.903	27473.5
449.11	27426.4
449.316	26981.99
449.522	27190.88
449.728	28274.26
449.935	28255.82
450.141	28128.85
450.347	29060.68
450.553	28245.58
450.76	28413.52
450.966	29634.11
451.172	29359.68
451.378	29861.43
451.584	29359.68
451.791	30391.86
451.997	29734.46
452.203	30510.64
452.409	30953
452.615	30551.6
452.821	29212.23
453.027	28589.64
453.233	30602.8
453.44	29451.84
453.646	30002.74
453.852	30172.72
454.058	30774.83
454.264	29412.93
454.47	30494.25
454.676	29564.48
454.882	30610.99
455.088	27827.8
455.294	27981.4
455.5	28610.12
455.705	29101.64
455.911	27786.84
456.117	27559.52
456.323	26883.69
456.529	25726.58
456.735	26953.32
456.941	25843.32
457.147	25749.11
457.352	24759.94
457.558	24471.18
457.764	24680.07
457.97	24198.8
458.176	23758.49
458.381	23824.02
458.587	22695.59
458.793	22658.73
458.999	21526.2
459.204	22955.68
459.41	22337.2
459.616	20944.58
459.821	20694.72
460.027	20975.3
460.233	20408.01
460.438	19623.64
460.644	19875.54
460.85	18804.45
461.055	18341.61
461.261	18407.14
461.466	17118.97
461.672	16465.67
461.878	17841.9
462.083	16604.93
462.289	16119.56
462.494	16127.75
462.7	15591.19
462.905	15060.76
463.111	15662.86
463.316	15509.27
463.522	15288.09
463.727	15249.18
463.932	15154.97
464.138	14864.16
464.343	15089.43
464.549	14790.43
464.754	15310.61
464.959	15163.16
465.165	15134.49
465.37	14493.47
465.575	14143.27
465.781	14690.08
465.986	14649.12
466.191	14135.08
466.397	13766.45
466.602	13250.36
466.807	13668.14
467.012	13729.58
467.218	13446.96
467.423	13492.02
467.628	13625.14
467.833	13946.67
468.038	13543.22
