Data from USB4F104151__187__14-45-10-632.txt Node

Date: Thu Mar 13 14:45:10 EDT 2025
User: louis
Spectrometer: USB4F10415
Trigger mode: 4
Integration Time (sec): 2.000000E-2
Scans to average: 1
Electric dark correction enabled: true
Nonlinearity correction enabled: false
Boxcar width: 0
XAxis mode: Wavelengths
Number of Pixels in Spectrum: 3648
>>>>>Begin Spectral Data<<<<<
178.204	-116.9
178.424	-116.9
178.644	-116.9
178.864	-153.77
179.084	-121
179.304	34.64
179.524	32.6
179.744	20.31
179.964	1.88
180.184	24.4
180.404	-24.75
180.624	-16.55
180.844	-37.03
181.064	-26.79
181.283	44.88
181.503	-51.37
181.723	-2.22
181.943	-47.27
182.163	32.6
182.383	-92.33
182.602	-2.22
182.822	85.84
183.042	87.89
183.262	-67.75
183.482	38.74
183.701	-0.17
183.921	89.94
184.141	32.6
184.361	34.64
184.58	48.98
184.8	-43.18
185.02	-8.36
185.239	65.36
185.459	40.79
185.679	85.84
185.898	-26.79
186.118	55.12
186.338	169.81
186.557	-0.17
186.777	3.93
186.997	30.55
187.216	8.02
187.436	100.18
187.655	5.97
187.875	51.03
188.095	-2.22
188.314	100.18
188.534	55.12
188.753	-2.22
188.973	67.41
189.192	63.32
189.412	-14.51
189.631	-2.22
189.851	42.84
190.07	51.03
190.29	30.55
190.509	34.64
190.729	10.07
190.948	18.26
191.168	163.67
191.387	63.32
191.607	14.17
191.826	5.97
192.045	65.36
192.265	51.03
192.484	98.13
192.704	-26.79
192.923	32.6
193.142	65.36
193.362	34.64
193.581	65.36
193.8	-22.7
194.02	40.79
194.239	-16.55
194.458	10.07
194.678	-10.41
194.897	22.36
195.116	46.93
195.335	8.02
195.555	46.93
195.774	-30.89
195.993	-59.56
196.212	46.93
196.432	14.17
196.651	-30.89
196.87	-18.6
197.089	61.27
197.308	36.69
197.528	42.84
197.747	57.17
197.966	100.18
198.185	75.6
198.404	-39.08
198.623	106.32
198.842	46.93
199.062	59.22
199.281	30.55
199.5	20.31
199.719	-43.18
199.938	42.84
200.157	51.03
200.376	-2.22
200.595	75.6
200.814	79.7
201.033	-2.22
201.252	55.12
201.471	-24.75
201.69	16.21
201.909	-20.65
202.128	65.36
202.347	48.98
202.566	57.17
202.785	-26.79
203.004	8.02
203.223	112.47
203.442	79.7
203.661	-32.94
203.879	38.74
204.098	83.8
204.317	40.79
204.536	38.74
204.755	-2.22
204.974	79.7
205.193	-37.03
205.411	112.47
205.63	-0.17
205.849	30.55
206.068	-24.75
206.287	30.55
206.505	14.17
206.724	46.93
206.943	1.88
207.162	-43.18
207.381	42.84
207.599	20.31
207.818	-26.79
208.037	-2.22
208.255	24.4
208.474	75.6
208.693	71.51
208.911	-24.75
209.13	40.79
209.349	51.03
209.567	55.12
209.786	102.23
210.005	34.64
210.223	-20.65
210.442	-82.09
210.661	51.03
210.879	51.03
211.098	46.93
211.316	12.12
211.535	28.5
211.753	30.55
211.972	14.17
212.191	-18.6
212.409	89.94
212.628	-32.94
212.846	-16.55
213.065	22.36
213.283	5.97
213.502	-47.27
213.72	38.74
213.938	-2.22
214.157	98.13
214.375	-6.31
214.594	55.12
214.812	-28.84
215.031	73.56
215.249	26.45
215.467	32.6
215.686	-14.51
215.904	-34.99
216.122	-16.55
216.341	87.89
216.559	57.17
216.778	65.36
216.996	51.03
217.214	1.88
217.432	-8.36
217.651	32.6
217.869	65.36
218.087	-6.31
218.306	57.17
218.524	40.79
218.742	34.64
218.96	32.6
219.179	40.79
219.397	-10.41
219.615	96.08
219.833	30.55
220.051	-73.9
220.27	122.71
220.488	-112.81
220.706	16.21
220.924	20.31
221.142	-2.22
221.36	24.4
221.578	30.55
221.796	46.93
222.015	-14.51
222.233	-24.75
222.451	30.55
222.669	38.74
222.887	61.27
223.105	-61.61
223.323	46.93
223.541	-14.51
223.759	73.56
223.977	91.99
224.195	128.85
224.413	14.17
224.631	124.76
224.849	120.66
225.067	73.56
225.285	8.02
225.503	-18.6
225.721	100.18
225.939	30.55
226.157	42.84
226.375	147.28
226.592	-26.79
226.81	55.12
227.028	73.56
227.246	106.32
227.464	-37.03
227.682	-49.32
227.9	34.64
228.117	-0.17
228.335	30.55
228.553	3.93
228.771	-2.22
228.989	38.74
229.206	18.26
229.424	55.12
229.642	24.4
229.86	-18.6
230.077	18.26
230.295	1.88
230.513	18.26
230.731	8.02
230.948	87.89
231.166	34.64
231.384	24.4
231.601	-43.18
231.819	112.47
232.037	65.36
232.254	-28.84
232.472	5.97
232.689	22.36
232.907	16.21
233.125	-53.42
233.342	55.12
233.56	14.17
233.777	-47.27
233.995	-16.55
234.213	89.94
234.43	16.21
234.648	-53.42
234.865	40.79
235.083	75.6
235.3	-10.41
235.518	38.74
235.735	128.85
235.953	24.4
236.17	8.02
236.388	42.84
236.605	-10.41
236.822	40.79
237.04	34.64
237.257	89.94
237.475	38.74
237.692	38.74
237.909	1.88
238.127	-18.6
238.344	-26.79
238.562	30.55
238.779	-34.99
238.996	-20.65
239.214	48.98
239.431	-18.6
239.648	63.32
239.865	5.97
240.083	91.99
240.3	14.17
240.517	22.36
240.735	61.27
240.952	65.36
241.169	106.32
241.386	55.12
241.603	-22.7
241.821	-6.31
242.038	30.55
242.255	20.31
242.472	20.31
242.689	48.98
242.907	48.98
243.124	12.12
243.341	-16.55
243.558	-43.18
243.775	22.36
243.992	-18.6
244.209	51.03
244.426	63.32
244.643	59.22
244.86	26.45
245.078	69.46
245.295	32.6
245.512	42.84
245.729	38.74
245.946	67.41
246.163	10.07
246.38	55.12
246.597	-43.18
246.814	38.74
247.031	63.32
247.248	55.12
247.464	42.84
247.681	48.98
247.898	14.17
248.115	14.17
248.332	-45.23
248.549	12.12
248.766	-6.31
248.983	63.32
249.2	40.79
249.417	96.08
249.633	59.22
249.85	40.79
250.067	20.31
250.284	20.31
250.501	46.93
250.717	75.6
250.934	-51.37
251.151	30.55
251.368	48.98
251.585	48.98
251.801	89.94
252.018	-10.41
252.235	3.93
252.451	-8.36
252.668	83.8
252.885	46.93
253.102	42.84
253.318	51.03
253.535	5.97
253.752	-14.51
253.968	46.93
254.185	44.88
254.401	53.08
254.618	128.85
254.835	-0.17
255.051	-2.22
255.268	38.74
255.484	-0.17
255.701	46.93
255.917	24.4
256.134	18.26
256.351	44.88
256.567	5.97
256.784	30.55
257	-51.37
257.217	57.17
257.433	22.36
257.65	18.26
257.866	91.99
258.082	22.36
258.299	36.69
258.515	-22.7
258.732	46.93
258.948	8.02
259.165	34.64
259.381	-51.37
259.597	18.26
259.814	38.74
260.03	65.36
260.246	18.26
260.463	20.31
260.679	-18.6
260.895	63.32
261.112	87.89
261.328	-34.99
261.544	14.17
261.761	104.28
261.977	30.55
262.193	1.88
262.409	65.36
262.626	112.47
262.842	38.74
263.058	8.02
263.274	98.13
263.49	67.41
263.707	87.89
263.923	91.99
264.139	18.26
264.355	-10.41
264.571	59.22
264.787	-8.36
265.004	112.47
265.22	16.21
265.436	87.89
265.652	-14.51
265.868	87.89
266.084	-8.36
266.3	79.7
266.516	-0.17
266.732	-43.18
266.948	120.66
267.164	-22.7
267.38	-24.75
267.596	10.07
267.812	112.47
268.028	40.79
268.244	-41.13
268.46	26.45
268.676	14.17
268.892	71.51
269.108	-71.85
269.324	104.28
269.54	18.26
269.756	71.51
269.972	-28.84
270.188	22.36
270.403	-47.27
270.619	98.13
270.835	65.36
271.051	51.03
271.267	-18.6
271.483	81.75
271.698	48.98
271.914	-22.7
272.13	-22.7
272.346	100.18
272.562	8.02
272.777	-14.51
272.993	-4.27
273.209	22.36
273.425	91.99
273.64	67.41
273.856	63.32
274.072	5.97
274.287	30.55
274.503	137.04
274.719	3.93
274.934	-67.75
275.15	-57.51
275.366	32.6
275.581	96.08
275.797	38.74
276.012	-34.99
276.228	108.37
276.444	-26.79
276.659	132.95
276.875	-18.6
277.09	75.6
277.306	5.97
277.521	26.45
277.737	67.41
277.952	26.45
278.168	75.6
278.383	51.03
278.599	14.17
278.814	55.12
279.03	-18.6
279.245	106.32
279.461	26.45
279.676	24.4
279.892	-26.79
280.107	24.4
280.322	81.75
280.538	-43.18
280.753	71.51
280.969	91.99
281.184	40.79
281.399	67.41
281.615	8.02
281.83	98.13
282.045	-2.22
282.26	-14.51
282.476	32.6
282.691	65.36
282.906	65.36
283.122	5.97
283.337	26.45
283.552	46.93
283.767	38.74
283.983	-10.41
284.198	-34.99
284.413	30.55
284.628	5.97
284.843	75.6
285.058	14.17
285.274	-26.79
285.489	5.97
285.704	30.55
285.919	-10.41
286.134	18.26
286.349	3.93
286.564	-0.17
286.779	34.64
286.995	-37.03
287.21	5.97
287.425	34.64
287.64	14.17
287.855	65.36
288.07	46.93
288.285	-34.99
288.5	-8.36
288.715	59.22
288.93	5.97
289.145	40.79
289.36	14.17
289.575	-26.79
289.79	73.56
290.004	16.21
290.219	20.31
290.434	63.32
290.649	18.26
290.864	32.6
291.079	16.21
291.294	46.93
291.509	48.98
291.724	67.41
291.938	-37.03
292.153	79.7
292.368	46.93
292.583	67.41
292.798	104.28
293.012	100.18
293.227	40.79
293.442	-14.51
293.657	71.51
293.871	20.31
294.086	28.5
294.301	104.28
294.516	32.6
294.73	-6.31
294.945	12.12
295.16	69.46
295.374	63.32
295.589	57.17
295.804	-16.55
296.018	-4.27
296.233	34.64
296.447	55.12
296.662	-34.99
296.877	71.51
297.091	48.98
297.306	5.97
297.52	79.7
297.735	55.12
297.949	-0.17
298.164	83.8
298.378	104.28
298.593	-18.6
298.807	-6.31
299.022	-18.6
299.236	87.89
299.451	46.93
299.665	16.21
299.88	40.79
300.094	22.36
300.309	40.79
300.523	16.21
300.737	-10.41
300.952	57.17
301.166	12.12
301.381	34.64
301.595	26.45
301.809	16.21
302.024	51.03
302.238	1.88
302.452	94.04
302.667	96.08
302.881	38.74
303.095	73.56
303.309	51.03
303.524	-0.17
303.738	73.56
303.952	24.4
304.166	130.9
304.381	-41.13
304.595	83.8
304.809	5.97
305.023	63.32
305.237	71.51
305.452	5.97
305.666	28.5
305.88	40.79
306.094	14.17
306.308	51.03
306.522	65.36
306.736	79.7
306.95	55.12
307.164	75.6
307.379	51.03
307.593	141.14
307.807	48.98
308.021	14.17
308.235	44.88
308.449	48.98
308.663	22.36
308.877	46.93
309.091	46.93
309.305	-0.17
309.519	-37.03
309.733	24.4
309.947	38.74
310.161	104.28
310.374	-26.79
310.588	55.12
310.802	-47.27
311.016	30.55
311.23	98.13
311.444	8.02
311.658	-4.27
311.872	65.36
312.085	67.41
312.299	8.02
312.513	51.03
312.727	-10.41
312.941	-10.41
313.154	22.36
313.368	14.17
313.582	48.98
313.796	14.17
314.009	73.56
314.223	30.55
314.437	20.31
314.651	22.36
314.864	63.32
315.078	12.12
315.292	3.93
315.505	30.55
315.719	106.32
315.933	26.45
316.146	30.55
316.36	44.88
316.573	46.93
316.787	98.13
317.001	55.12
317.214	-51.37
317.428	122.71
317.641	24.4
317.855	32.6
318.068	46.93
318.282	18.26
318.495	63.32
318.709	96.08
318.922	46.93
319.136	34.64
319.349	-14.51
319.563	55.12
319.776	46.93
319.99	-10.41
320.203	53.08
320.417	-18.6
320.63	67.41
320.843	89.94
321.057	46.93
321.27	8.02
321.483	44.88
321.697	55.12
321.91	-22.7
322.124	40.79
322.337	1.88
322.55	51.03
322.763	71.51
322.977	24.4
323.19	-39.08
323.403	63.32
323.617	24.4
323.83	73.56
324.043	-39.08
324.256	57.17
324.469	48.98
324.683	22.36
324.896	-16.55
325.109	46.93
325.322	24.4
325.535	48.98
325.748	12.12
325.962	8.02
326.175	-0.17
326.388	38.74
326.601	55.12
326.814	48.98
327.027	38.74
327.24	63.32
327.453	3.93
327.666	38.74
327.879	24.4
328.092	8.02
328.305	10.07
328.518	-47.27
328.731	40.79
328.944	46.93
329.157	12.12
329.37	34.64
329.583	26.45
329.796	63.32
330.009	32.6
330.222	63.32
330.435	32.6
330.648	38.74
330.861	-8.36
331.073	-2.22
331.286	63.32
331.499	51.03
331.712	-51.37
331.925	-34.99
332.138	79.7
332.35	67.41
332.563	30.55
332.776	46.93
332.989	48.98
333.202	44.88
333.414	89.94
333.627	104.28
333.84	67.41
334.053	40.79
334.265	63.32
334.478	46.93
334.691	42.84
334.903	16.21
335.116	22.36
335.329	67.41
335.541	87.89
335.754	71.51
335.966	-18.6
336.179	48.98
336.392	30.55
336.604	36.69
336.817	73.56
337.029	67.41
337.242	98.13
337.454	30.55
337.667	20.31
337.88	79.7
338.092	104.28
338.305	57.17
338.517	46.93
338.729	46.93
338.942	89.94
339.154	18.26
339.367	-10.41
339.579	81.75
339.792	-26.79
340.004	110.42
340.217	38.74
340.429	81.75
340.641	87.89
340.854	14.17
341.066	63.32
341.278	106.32
341.491	120.66
341.703	36.69
341.915	-47.27
342.128	24.4
342.34	-6.31
342.552	-26.79
342.764	8.02
342.977	18.26
343.189	24.4
343.401	1.88
343.613	59.22
343.826	18.26
344.038	32.6
344.25	34.64
344.462	18.26
344.674	20.31
344.886	-39.08
345.099	120.66
345.311	38.74
345.523	18.26
345.735	22.36
345.947	81.75
346.159	-18.6
346.371	22.36
346.583	12.12
346.795	98.13
347.007	40.79
347.219	46.93
347.431	61.27
347.643	89.94
347.855	38.74
348.067	94.04
348.279	34.64
348.491	14.17
348.703	8.02
348.915	42.84
349.127	28.5
349.339	61.27
349.551	10.07
349.763	59.22
349.975	24.4
350.187	28.5
350.399	5.97
350.61	94.04
350.822	14.17
351.034	51.03
351.246	100.18
351.458	108.37
351.669	51.03
351.881	89.94
352.093	10.07
352.305	87.89
352.517	57.17
352.728	89.94
352.94	46.93
353.152	98.13
353.363	30.55
353.575	83.8
353.787	26.45
353.999	18.26
354.21	69.46
354.422	30.55
354.633	30.55
354.845	46.93
355.057	67.41
355.268	55.12
355.48	67.41
355.692	14.17
355.903	106.32
356.115	-18.6
356.326	-43.18
356.538	77.65
356.749	18.26
356.961	14.17
357.172	57.17
357.384	22.36
357.595	81.75
357.807	30.55
358.018	-34.99
358.23	38.74
358.441	22.36
358.653	22.36
358.864	5.97
359.075	38.74
359.287	75.6
359.498	112.47
359.709	91.99
359.921	120.66
360.132	71.51
360.344	81.75
360.555	55.12
360.766	55.12
360.977	22.36
361.189	42.84
361.4	63.32
361.611	122.71
361.823	-24.75
362.034	34.64
362.245	-2.22
362.456	8.02
362.667	145.24
362.879	-32.94
363.09	-51.37
363.301	73.56
363.512	55.12
363.723	30.55
363.935	32.6
364.146	30.55
364.357	57.17
364.568	53.08
364.779	22.36
364.99	24.4
365.201	40.79
365.412	32.6
365.623	-26.79
365.834	-16.55
366.045	89.94
366.256	20.31
366.467	67.41
366.678	53.08
366.889	-32.94
367.1	89.94
367.311	65.36
367.522	44.88
367.733	83.8
367.944	98.13
368.155	18.26
368.366	51.03
368.577	-12.46
368.788	77.65
368.999	5.97
369.209	40.79
369.42	71.51
369.631	180.05
369.842	75.6
370.053	40.79
370.264	114.52
370.474	22.36
370.685	83.8
370.896	79.7
371.107	126.8
371.317	42.84
371.528	112.47
371.739	63.32
371.95	12.12
372.16	38.74
372.371	55.12
372.582	32.6
372.792	26.45
373.003	89.94
373.214	22.36
373.424	55.12
373.635	51.03
373.846	124.76
374.056	-6.31
374.267	-2.22
374.477	53.08
374.688	10.07
374.898	69.46
375.109	32.6
375.319	-26.79
375.53	87.89
375.74	57.17
375.951	36.69
376.161	46.93
376.372	46.93
376.582	63.32
376.793	32.6
377.003	89.94
377.214	-0.17
377.424	91.99
377.635	59.22
377.845	34.64
378.055	22.36
378.266	53.08
378.476	67.41
378.686	67.41
378.897	59.22
379.107	22.36
379.317	51.03
379.528	-32.94
379.738	79.7
379.948	26.45
380.158	71.51
380.369	89.94
380.579	30.55
380.789	-4.27
380.999	22.36
381.21	71.51
381.42	130.9
381.63	48.98
381.84	79.7
382.05	46.93
382.261	-73.9
382.471	87.89
382.681	16.21
382.891	110.42
383.101	98.13
383.311	38.74
383.521	55.12
383.731	124.76
383.941	106.32
384.151	42.84
384.361	104.28
384.571	94.04
384.781	83.8
384.991	36.69
385.201	67.41
385.411	81.75
385.621	69.46
385.831	65.36
386.041	38.74
386.251	65.36
386.461	38.74
386.671	85.84
386.881	16.21
387.091	38.74
387.301	40.79
387.511	67.41
387.72	32.6
387.93	112.47
388.14	44.88
388.35	3.93
388.56	71.51
388.769	20.31
388.979	40.79
389.189	-18.6
389.399	108.37
389.609	-2.22
389.818	63.32
390.028	63.32
390.238	145.24
390.447	120.66
390.657	91.99
390.867	83.8
391.076	30.55
391.286	32.6
391.496	102.23
391.705	79.7
391.915	59.22
392.125	102.23
392.334	30.55
392.544	112.47
392.753	-4.27
392.963	-49.32
393.172	65.36
393.382	30.55
393.591	130.9
393.801	73.56
394.01	63.32
394.22	137.04
394.429	71.51
394.639	114.52
394.848	22.36
395.058	24.4
395.267	100.18
395.477	151.38
395.686	120.66
395.895	139.09
396.105	108.37
396.314	73.56
396.524	42.84
396.733	59.22
396.942	98.13
397.152	63.32
397.361	130.9
397.57	38.74
397.78	145.24
397.989	120.66
398.198	147.28
398.407	46.93
398.617	57.17
398.826	89.94
399.035	120.66
399.244	106.32
399.453	63.32
399.663	85.84
399.872	110.42
400.081	38.74
400.29	114.52
400.499	40.79
400.708	132.95
400.917	51.03
401.127	112.47
401.336	14.17
401.545	161.62
401.754	112.47
401.963	149.33
402.172	116.56
402.381	63.32
402.59	100.18
402.799	77.65
403.008	141.14
403.217	83.8
403.426	77.65
403.635	120.66
403.844	81.75
404.053	120.66
404.262	141.14
404.471	145.24
404.68	104.28
404.888	112.47
405.097	147.28
405.306	87.89
405.515	65.36
405.724	147.28
405.933	139.09
406.142	137.04
406.35	128.85
406.559	87.89
406.768	118.61
406.977	204.63
407.185	194.39
407.394	165.71
407.603	186.19
407.812	178
408.02	171.86
408.229	274.26
408.438	276.31
408.646	96.08
408.855	247.63
409.064	227.15
409.272	225.11
409.481	255.83
409.69	188.24
409.898	198.48
410.107	253.78
410.315	255.83
410.524	311.12
410.733	251.73
410.941	307.02
411.15	333.65
411.358	288.59
411.567	337.74
411.775	300.88
411.984	333.65
412.192	341.84
412.401	425.81
412.609	362.32
412.818	423.76
413.026	407.38
413.234	431.95
413.443	397.14
413.651	485.2
413.86	427.85
414.068	554.83
414.276	542.54
414.485	499.53
414.693	483.15
414.901	571.21
415.11	548.68
415.318	563.02
415.526	630.6
415.734	644.94
415.943	675.66
416.151	636.75
416.359	751.43
416.567	771.91
416.776	708.43
416.984	849.74
417.192	847.69
417.4	872.26
417.608	776.01
417.817	776.01
418.025	868.17
418.233	931.66
418.441	898.89
418.649	1005.38
418.857	1038.15
419.065	1136.45
419.273	1046.34
419.481	1122.12
419.689	1136.45
419.897	1181.51
420.105	1222.47
420.313	1267.52
420.521	1318.72
420.729	1277.76
420.937	1353.54
421.145	1320.77
421.353	1619.77
421.561	1548.09
421.769	1589.05
421.977	1726.27
422.185	1636.16
422.393	1808.19
422.601	1808.19
422.809	1707.84
423.017	1769.27
423.224	1998.65
423.432	1947.45
423.64	2031.41
423.848	2076.47
424.056	2242.36
424.263	2328.37
424.471	2311.99
424.679	2398
424.887	2481.97
425.094	2596.65
425.302	2651.95
425.51	2666.28
425.718	2678.57
425.925	2725.68
426.133	3032.87
426.341	3036.97
426.548	3004.2
426.756	3082.02
426.964	3299.11
427.171	3553.06
427.379	3467.04
427.586	3503.9
427.794	3581.73
428.001	3776.28
428.209	4019.99
428.417	3893.02
428.624	4124.44
428.832	4265.75
429.039	4302.61
429.247	4183.83
429.454	4429.59
429.662	4914.95
429.869	4529.94
430.076	4906.76
430.284	4708.11
430.491	4978.44
430.699	5322.5
430.906	5189.38
431.114	5269.25
431.321	5644.03
431.528	5449.47
431.736	5930.75
431.943	6256.37
432.15	5900.03
432.358	6248.18
432.565	6352.63
432.772	6231.8
432.979	6663.92
433.187	6790.89
433.394	6825.71
433.601	7436
433.808	7509.73
434.016	7331.56
434.223	7659.23
434.43	8115.93
434.637	7972.57
434.844	8298.2
435.052	8894.16
435.259	8505.04
435.466	8595.15
435.673	8517.33
435.88	9074.38
436.087	9524.93
436.294	9600.71
436.501	9445.06
436.708	9262.79
436.915	9860.8
437.122	10364.6
437.329	10294.97
437.537	10456.76
437.743	10839.73
437.95	10630.84
438.157	11220.65
438.364	11615.91
438.571	11441.83
438.778	11689.63
438.985	12891.79
439.192	12332.7
439.399	12539.54
439.606	12310.17
439.813	13368.97
440.02	13751.94
440.227	13743.75
440.433	13530.76
440.64	13887.11
440.847	13772.42
441.054	14335.61
441.261	15021.68
441.467	15023.73
441.674	15253.1
441.881	15871.59
442.088	15920.74
442.294	15646.31
442.501	16195.17
442.708	16393.82
442.914	16905.81
443.121	17634.89
443.328	17499.72
443.534	18392.64
443.741	17882.69
443.948	17743.43
444.154	18996.79
444.361	19062.32
444.568	19121.71
444.774	18871.86
444.981	19217.97
445.187	19928.61
445.394	20620.83
445.6	20502.04
445.807	22398.46
446.013	21671.43
446.22	21663.24
446.426	22937.08
446.633	23135.73
446.839	23735.79
447.046	22537.73
447.252	23956.97
447.459	23903.72
447.665	23932.39
447.871	25337.3
448.078	25949.64
448.284	24880.6
448.491	25865.67
448.697	26916.28
448.903	27100.6
449.11	27364.79
449.316	26973.63
449.522	27248.05
449.728	27731.37
449.935	28118.44
450.141	28401.06
450.347	28921.24
450.553	28179.88
450.76	28616.1
450.966	29427.09
451.172	28843.42
451.378	29775.25
451.584	29226.39
451.791	30309.77
451.997	29894.03
452.203	30289.29
452.409	30563.71
452.615	30320.01
452.821	29488.53
453.027	28968.35
453.233	31063.42
453.44	29490.58
453.646	29949.32
453.852	29805.97
454.058	30395.78
454.264	29244.82
454.47	29818.25
454.676	29248.92
454.882	30461.32
455.088	27882.92
455.294	28558.75
455.5	28726.69
455.705	29271.45
455.911	27782.57
456.117	27604.4
456.323	27086.26
456.529	25521.62
456.735	26963.39
456.941	26146.25
457.147	25628.11
457.352	25228.76
457.558	24673.76
457.764	25007.58
457.97	24788.44
458.176	24057.32
458.381	24042.98
458.587	22865.4
458.793	22963.7
458.999	21612.04
459.204	23100.92
459.41	22347.26
459.616	21356.05
459.821	21366.29
460.027	21061.14
460.233	20483.61
460.438	19766.82
460.644	19711.53
460.85	19072.56
461.055	18708.02
461.261	18503.23
461.466	17251.92
461.672	16758.36
461.878	18314.81
462.083	16907.86
462.289	16352.86
462.494	16402.01
462.7	15515.24
462.905	15214.19
463.111	15816.29
463.316	15808.1
463.522	15351.4
463.727	15375.98
463.932	15177.33
464.138	15152.75
464.343	15310.44
464.549	14802.55
464.754	15447.66
464.959	15302.25
465.165	15076.98
465.37	14415.48
465.575	14274.17
465.781	14751.35
465.986	14888.56
466.191	14450.3
466.397	13688.45
466.602	13276.81
466.807	13887.11
467.012	13661.83
467.218	13686.4
467.423	13532.81
