Data from USB4F104151__158__14-44-41-459.txt Node

Date: Thu Mar 13 14:44:41 EDT 2025
User: louis
Spectrometer: USB4F10415
Trigger mode: 4
Integration Time (sec): 2.000000E-2
Scans to average: 1
Electric dark correction enabled: true
Nonlinearity correction enabled: false
Boxcar width: 0
XAxis mode: Wavelengths
Number of Pixels in Spectrum: 3648
>>>>>Begin Spectral Data<<<<<
178.204	-154.62
178.424	-154.62
178.644	-154.62
178.864	-111.61
179.084	-54.27
179.304	33.79
179.524	1.02
179.744	3.07
179.964	46.08
180.184	-101.37
180.404	1.02
180.624	-7.17
180.844	1.02
181.064	-35.84
181.283	84.99
181.503	-23.55
181.723	-3.07
181.943	-3.07
182.163	58.37
182.383	1.02
182.602	50.18
182.822	41.98
183.042	82.94
183.262	-15.36
183.482	-1.02
183.701	-11.26
183.921	74.75
184.141	5.12
184.361	52.22
184.58	-7.17
184.8	17.41
185.02	-27.65
185.239	74.75
185.459	33.79
185.679	54.27
185.898	-54.27
186.118	-7.17
186.338	-19.46
186.557	41.98
186.777	19.46
186.997	13.31
187.216	39.94
187.436	41.98
187.655	19.46
187.875	1.02
188.095	21.5
188.314	29.7
188.534	72.7
188.753	-31.74
188.973	-23.55
189.192	78.85
189.412	56.32
189.631	11.26
189.851	41.98
190.07	66.56
190.29	-41.98
190.509	-23.55
190.729	74.75
190.948	58.37
191.168	134.14
191.387	68.61
191.607	-7.17
191.826	-23.55
192.045	17.41
192.265	13.31
192.484	-15.36
192.704	-7.17
192.923	-52.22
193.142	84.99
193.362	-11.26
193.581	9.22
193.8	33.79
194.02	74.75
194.239	58.37
194.458	46.08
194.678	-23.55
194.897	19.46
195.116	-5.12
195.335	21.5
195.555	3.07
195.774	41.98
195.993	74.75
196.212	-15.36
196.432	-29.7
196.651	-31.74
196.87	-37.89
197.089	156.67
197.308	44.03
197.528	-7.17
197.747	-3.07
197.966	91.13
198.185	111.61
198.404	54.27
198.623	48.13
198.842	-3.07
199.062	82.94
199.281	31.74
199.5	17.41
199.719	25.6
199.938	52.22
200.157	21.5
200.376	60.42
200.595	62.46
200.814	21.5
201.033	-56.32
201.252	-13.31
201.471	52.22
201.69	33.79
201.909	125.95
202.128	21.5
202.347	91.13
202.566	-46.08
202.785	37.89
203.004	-48.13
203.223	27.65
203.442	-31.74
203.661	-7.17
203.879	-19.46
204.098	82.94
204.317	9.22
204.536	58.37
204.755	-54.27
204.974	13.31
205.193	37.89
205.411	-7.17
205.63	-15.36
205.849	103.42
206.068	9.22
206.287	19.46
206.505	21.5
206.724	1.02
206.943	29.7
207.162	41.98
207.381	31.74
207.599	9.22
207.818	9.22
208.037	-48.13
208.255	33.79
208.474	25.6
208.693	5.12
208.911	140.29
209.13	17.41
209.349	80.89
209.567	19.46
209.786	74.75
210.005	35.84
210.223	103.42
210.442	-99.33
210.661	9.22
210.879	15.36
211.098	27.65
211.316	107.52
211.535	60.42
211.753	11.26
211.972	-56.32
212.191	99.33
212.409	7.17
212.628	87.04
212.846	-64.51
213.065	15.36
213.283	58.37
213.502	-3.07
213.72	1.02
213.938	35.84
214.157	-37.89
214.375	52.22
214.594	3.07
214.812	7.17
215.031	1.02
215.249	9.22
215.467	19.46
215.686	-19.46
215.904	31.74
216.122	-7.17
216.341	5.12
216.559	-17.41
216.778	41.98
216.996	74.75
217.214	-11.26
217.432	50.18
217.651	9.22
217.869	-29.7
218.087	9.22
218.306	33.79
218.524	70.65
218.742	-44.03
218.96	52.22
219.179	-41.98
219.397	-13.31
219.615	91.13
219.833	15.36
220.051	37.89
220.27	35.84
220.488	25.6
220.706	27.65
220.924	-3.07
221.142	-1.02
221.36	-7.17
221.578	29.7
221.796	-3.07
222.015	15.36
222.233	-15.36
222.451	78.85
222.669	-29.7
222.887	-41.98
223.105	-84.99
223.323	-31.74
223.541	-1.02
223.759	25.6
223.977	74.75
224.195	64.51
224.413	27.65
224.631	21.5
224.849	-37.89
225.067	82.94
225.285	15.36
225.503	87.04
225.721	13.31
225.939	50.18
226.157	101.37
226.375	84.99
226.592	-11.26
226.81	44.03
227.028	46.08
227.246	82.94
227.464	60.42
227.682	101.37
227.9	54.27
228.117	66.56
228.335	5.12
228.553	41.98
228.771	-46.08
228.989	11.26
229.206	-7.17
229.424	1.02
229.642	37.89
229.86	-29.7
230.077	146.43
230.295	91.13
230.513	-48.13
230.731	72.7
230.948	54.27
231.166	70.65
231.384	-44.03
231.601	-23.55
231.819	41.98
232.037	-60.42
232.254	-48.13
232.472	62.46
232.689	21.5
232.907	70.65
233.125	33.79
233.342	17.41
233.56	-64.51
233.777	-48.13
233.995	-25.6
234.213	37.89
234.43	41.98
234.648	-21.5
234.865	62.46
235.083	-5.12
235.3	33.79
235.518	-15.36
235.735	74.75
235.953	-3.07
236.17	-72.7
236.388	107.52
236.605	-89.09
236.822	140.29
237.04	9.22
237.257	7.17
237.475	-19.46
237.692	1.02
237.909	33.79
238.127	15.36
238.344	66.56
238.562	50.18
238.779	13.31
238.996	-1.02
239.214	-58.37
239.431	29.7
239.648	-23.55
239.865	117.76
240.083	33.79
240.3	58.37
240.517	50.18
240.735	33.79
240.952	-15.36
241.169	82.94
241.386	62.46
241.603	66.56
241.821	-64.51
242.038	15.36
242.255	29.7
242.472	33.79
242.689	58.37
242.907	-21.5
243.124	76.8
243.341	37.89
243.558	58.37
243.775	1.02
243.992	-132.09
244.209	-39.94
244.426	25.6
244.643	78.85
244.86	3.07
245.078	17.41
245.295	60.42
245.512	33.79
245.729	-11.26
245.946	50.18
246.163	27.65
246.38	76.8
246.597	25.6
246.814	-56.32
247.031	17.41
247.248	5.12
247.464	3.07
247.681	-48.13
247.898	54.27
248.115	11.26
248.332	5.12
248.549	50.18
248.766	74.75
248.983	68.61
249.2	58.37
249.417	17.41
249.633	99.33
249.85	25.6
250.067	58.37
250.284	19.46
250.501	74.75
250.717	27.65
250.934	-31.74
251.151	17.41
251.368	-37.89
251.585	107.52
251.801	19.46
252.018	-31.74
252.235	21.5
252.451	9.22
252.668	-31.74
252.885	3.07
253.102	56.32
253.318	41.98
253.535	60.42
253.752	-7.17
253.968	7.17
254.185	-23.55
254.401	9.22
254.618	29.7
254.835	-7.17
255.051	93.18
255.268	140.29
255.484	-5.12
255.701	70.65
255.917	74.75
256.134	39.94
256.351	-48.13
256.567	44.03
256.784	31.74
257	-35.84
257.217	33.79
257.433	74.75
257.65	74.75
257.866	29.7
258.082	13.31
258.299	-15.36
258.515	13.31
258.732	25.6
258.948	-5.12
259.165	56.32
259.381	-15.36
259.597	50.18
259.814	-21.5
260.03	54.27
260.246	35.84
260.463	19.46
260.679	-1.02
260.895	-29.7
261.112	13.31
261.328	48.13
261.544	25.6
261.761	144.38
261.977	33.79
262.193	25.6
262.409	68.61
262.626	33.79
262.842	58.37
263.058	-62.46
263.274	74.75
263.49	140.29
263.707	3.07
263.923	-5.12
264.139	-31.74
264.355	-15.36
264.571	-25.6
264.787	44.03
265.004	54.27
265.22	11.26
265.436	-64.51
265.652	-31.74
265.868	134.14
266.084	33.79
266.3	91.13
266.516	-19.46
266.732	3.07
266.948	54.27
267.164	9.22
267.38	35.84
267.596	46.08
267.812	-3.07
268.028	19.46
268.244	74.75
268.46	52.22
268.676	19.46
268.892	31.74
269.108	-31.74
269.324	1.02
269.54	-21.5
269.756	54.27
269.972	9.22
270.188	50.18
270.403	-29.7
270.619	7.17
270.835	-7.17
271.051	82.94
271.267	35.84
271.483	-33.79
271.698	58.37
271.914	-15.36
272.13	3.07
272.346	-15.36
272.562	109.57
272.777	27.65
272.993	31.74
273.209	5.12
273.425	-23.55
273.64	41.98
273.856	76.8
274.072	11.26
274.287	11.26
274.503	44.03
274.719	-37.89
274.934	41.98
275.15	-19.46
275.366	5.12
275.581	-23.55
275.797	9.22
276.012	-3.07
276.228	-46.08
276.444	13.31
276.659	-13.31
276.875	35.84
277.09	50.18
277.306	-13.31
277.521	50.18
277.737	138.24
277.952	58.37
278.168	9.22
278.383	35.84
278.599	54.27
278.814	60.42
279.03	-66.56
279.245	21.5
279.461	1.02
279.676	31.74
279.892	25.6
280.107	17.41
280.322	39.94
280.538	52.22
280.753	25.6
280.969	84.99
281.184	29.7
281.399	27.65
281.615	1.02
281.83	23.55
282.045	1.02
282.26	25.6
282.476	-82.94
282.691	-7.17
282.906	23.55
283.122	52.22
283.337	41.98
283.552	19.46
283.767	17.41
283.983	50.18
284.198	-13.31
284.413	117.76
284.628	41.98
284.843	46.08
285.058	17.41
285.274	-3.07
285.489	62.46
285.704	76.8
285.919	27.65
286.134	-15.36
286.349	25.6
286.564	-1.02
286.779	54.27
286.995	-31.74
287.21	9.22
287.425	9.22
287.64	25.6
287.855	41.98
288.07	-5.12
288.285	50.18
288.5	21.5
288.715	70.65
288.93	-21.5
289.145	19.46
289.36	19.46
289.575	84.99
289.79	72.7
290.004	37.89
290.219	1.02
290.434	50.18
290.649	-46.08
290.864	35.84
291.079	-1.02
291.294	-3.07
291.509	11.26
291.724	-13.31
291.938	50.18
292.153	-21.5
292.368	95.23
292.583	82.94
292.798	25.6
293.012	3.07
293.227	-11.26
293.442	25.6
293.657	13.31
293.871	9.22
294.086	-46.08
294.301	89.09
294.516	44.03
294.73	-11.26
294.945	-5.12
295.16	-27.65
295.374	107.52
295.589	27.65
295.804	-35.84
296.018	41.98
296.233	46.08
296.447	29.7
296.662	17.41
296.877	-7.17
297.091	-7.17
297.306	17.41
297.52	35.84
297.735	13.31
297.949	13.31
298.164	72.7
298.378	48.13
298.593	33.79
298.807	-23.55
299.022	-17.41
299.236	-19.46
299.451	41.98
299.665	-11.26
299.88	-13.31
300.094	-37.89
300.309	46.08
300.523	119.81
300.737	-13.31
300.952	13.31
301.166	29.7
301.381	-21.5
301.595	37.89
301.809	-72.7
302.024	-15.36
302.238	-15.36
302.452	44.03
302.667	58.37
302.881	58.37
303.095	15.36
303.309	101.37
303.524	58.37
303.738	50.18
303.952	15.36
304.166	41.98
304.381	7.17
304.595	25.6
304.809	-15.36
305.023	93.18
305.237	70.65
305.452	25.6
305.666	3.07
305.88	95.23
306.094	1.02
306.308	54.27
306.522	93.18
306.736	87.04
306.95	70.65
307.164	-19.46
307.379	-31.74
307.593	35.84
307.807	-35.84
308.021	41.98
308.235	62.46
308.449	-48.13
308.663	41.98
308.877	41.98
309.091	50.18
309.305	87.04
309.519	17.41
309.733	48.13
309.947	33.79
310.161	74.75
310.374	-5.12
310.588	-35.84
310.802	-31.74
311.016	-7.17
311.23	-3.07
311.444	84.99
311.658	15.36
311.872	-5.12
312.085	-15.36
312.299	44.03
312.513	128
312.727	93.18
312.941	-11.26
313.154	82.94
313.368	17.41
313.582	-3.07
313.796	15.36
314.009	1.02
314.223	76.8
314.437	37.89
314.651	76.8
314.864	-7.17
315.078	3.07
315.292	11.26
315.505	-9.22
315.719	41.98
315.933	13.31
316.146	9.22
316.36	-23.55
316.573	54.27
316.787	-27.65
317.001	13.31
317.214	60.42
317.428	-23.55
317.641	-17.41
317.855	7.17
318.068	5.12
318.282	62.46
318.495	68.61
318.709	52.22
318.922	11.26
319.136	66.56
319.349	80.89
319.563	-1.02
319.776	-35.84
319.99	78.85
320.203	91.13
320.417	58.37
320.63	89.09
320.843	72.7
321.057	11.26
321.27	-1.02
321.483	46.08
321.697	91.13
321.91	35.84
322.124	156.67
322.337	9.22
322.55	-21.5
322.763	70.65
322.977	99.33
323.19	87.04
323.403	17.41
323.617	66.56
323.83	-29.7
324.043	58.37
324.256	5.12
324.469	-3.07
324.683	41.98
324.896	-39.94
325.109	-33.79
325.322	50.18
325.535	99.33
325.748	17.41
325.962	72.7
326.175	107.52
326.388	78.85
326.601	-3.07
326.814	25.6
327.027	60.42
327.24	74.75
327.453	-25.6
327.666	-19.46
327.879	31.74
328.092	68.61
328.305	95.23
328.518	66.56
328.731	-11.26
328.944	9.22
329.157	54.27
329.37	19.46
329.583	50.18
329.796	39.94
330.009	-7.17
330.222	-11.26
330.435	19.46
330.648	31.74
330.861	17.41
331.073	109.57
331.286	41.98
331.499	1.02
331.712	56.32
331.925	54.27
332.138	37.89
332.35	78.85
332.563	11.26
332.776	-19.46
332.989	-39.94
333.202	58.37
333.414	9.22
333.627	15.36
333.84	-37.89
334.053	107.52
334.265	-1.02
334.478	-27.65
334.691	-15.36
334.903	17.41
335.116	13.31
335.329	35.84
335.541	48.13
335.754	21.5
335.966	41.98
336.179	58.37
336.392	82.94
336.604	25.6
336.817	84.99
337.029	9.22
337.242	66.56
337.454	37.89
337.667	29.7
337.88	115.71
338.092	17.41
338.305	80.89
338.517	29.7
338.729	56.32
338.942	66.56
339.154	21.5
339.367	-13.31
339.579	48.13
339.792	-19.46
340.004	91.13
340.217	13.31
340.429	17.41
340.641	-54.27
340.854	-23.55
341.066	-7.17
341.278	60.42
341.491	76.8
341.703	41.98
341.915	48.13
342.128	89.09
342.34	-54.27
342.552	41.98
342.764	50.18
342.977	46.08
343.189	46.08
343.401	50.18
343.613	9.22
343.826	123.9
344.038	-39.94
344.25	1.02
344.462	52.22
344.674	9.22
344.886	5.12
345.099	33.79
345.311	-27.65
345.523	-7.17
345.735	-23.55
345.947	132.09
346.159	-21.5
346.371	48.13
346.583	50.18
346.795	150.53
347.007	50.18
347.219	17.41
347.431	25.6
347.643	78.85
347.855	19.46
348.067	93.18
348.279	-23.55
348.491	17.41
348.703	19.46
348.915	-11.26
349.127	-46.08
349.339	91.13
349.551	82.94
349.763	56.32
349.975	9.22
350.187	68.61
350.399	62.46
350.61	13.31
350.822	35.84
351.034	76.8
351.246	33.79
351.458	66.56
351.669	33.79
351.881	76.8
352.093	9.22
352.305	-1.02
352.517	-15.36
352.728	-33.79
352.94	33.79
353.152	62.46
353.363	-48.13
353.575	25.6
353.787	99.33
353.999	27.65
354.21	58.37
354.422	27.65
354.633	46.08
354.845	-11.26
355.057	13.31
355.268	103.42
355.48	9.22
355.692	17.41
355.903	-7.17
356.115	17.41
356.326	-15.36
356.538	103.42
356.749	29.7
356.961	41.98
357.172	-7.17
357.384	37.89
357.595	37.89
357.807	50.18
358.018	52.22
358.23	84.99
358.441	27.65
358.653	41.98
358.864	54.27
359.075	58.37
359.287	105.47
359.498	62.46
359.709	7.17
359.921	-3.07
360.132	91.13
360.344	52.22
360.555	25.6
360.766	76.8
360.977	21.5
361.189	-11.26
361.4	-9.22
361.611	41.98
361.823	91.13
362.034	21.5
362.245	-19.46
362.456	25.6
362.667	46.08
362.879	-13.31
363.09	68.61
363.301	9.22
363.512	54.27
363.723	3.07
363.935	25.6
364.146	66.56
364.357	123.9
364.568	93.18
364.779	29.7
364.99	58.37
365.201	5.12
365.412	119.81
365.623	25.6
365.834	-37.89
366.045	11.26
366.256	74.75
366.467	46.08
366.678	70.65
366.889	17.41
367.1	3.07
367.311	25.6
367.522	84.99
367.733	136.19
367.944	93.18
368.155	29.7
368.366	91.13
368.577	15.36
368.788	-15.36
368.999	-31.74
369.209	80.89
369.42	25.6
369.631	66.56
369.842	82.94
370.053	-13.31
370.264	130.05
370.474	3.07
370.685	21.5
370.896	37.89
371.107	123.9
371.317	99.33
371.528	64.51
371.739	3.07
371.95	58.37
372.16	101.37
372.371	-21.5
372.582	-15.36
372.792	50.18
373.003	50.18
373.214	93.18
373.424	44.03
373.635	37.89
373.846	66.56
374.056	41.98
374.267	66.56
374.477	17.41
374.688	60.42
374.898	103.42
375.109	48.13
375.319	17.41
375.53	87.04
375.74	3.07
375.951	66.56
376.161	41.98
376.372	74.75
376.582	23.55
376.793	1.02
377.003	-13.31
377.214	41.98
377.424	39.94
377.635	58.37
377.845	66.56
378.055	-7.17
378.266	-23.55
378.476	66.56
378.686	41.98
378.897	82.94
379.107	25.6
379.317	-39.94
379.528	52.22
379.738	115.71
379.948	33.79
380.158	119.81
380.369	19.46
380.579	41.98
380.789	60.42
380.999	27.65
381.21	46.08
381.42	76.8
381.63	-48.13
381.84	87.04
382.05	21.5
382.261	84.99
382.471	91.13
382.681	144.38
382.891	74.75
383.101	-46.08
383.311	84.99
383.521	9.22
383.731	-3.07
383.941	44.03
384.151	21.5
384.361	5.12
384.571	78.85
384.781	33.79
384.991	80.89
385.201	41.98
385.411	62.46
385.621	31.74
385.831	5.12
386.041	74.75
386.251	15.36
386.461	76.8
386.671	103.42
386.881	50.18
387.091	41.98
387.301	74.75
387.511	76.8
387.72	66.56
387.93	84.99
388.14	9.22
388.35	1.02
388.56	87.04
388.769	35.84
388.979	95.23
389.189	72.7
389.399	91.13
389.609	37.89
389.818	82.94
390.028	5.12
390.238	68.61
390.447	9.22
390.657	37.89
390.867	44.03
391.076	3.07
391.286	-25.6
391.496	48.13
391.705	25.6
391.915	128
392.125	33.79
392.334	11.26
392.544	89.09
392.753	107.52
392.963	-9.22
393.172	58.37
393.382	46.08
393.591	101.37
393.801	1.02
394.01	175.1
394.22	44.03
394.429	50.18
394.639	21.5
394.848	72.7
395.058	62.46
395.267	76.8
395.477	27.65
395.686	101.37
395.895	164.86
396.105	76.8
396.314	95.23
396.524	3.07
396.733	125.95
396.942	66.56
397.152	41.98
397.361	58.37
397.57	60.42
397.78	107.52
397.989	113.66
398.198	168.96
398.407	44.03
398.617	117.76
398.826	56.32
399.035	99.33
399.244	95.23
399.453	52.22
399.663	58.37
399.872	164.86
400.081	117.76
400.29	76.8
400.499	76.8
400.708	58.37
400.917	144.38
401.127	123.9
401.336	72.7
401.545	121.85
401.754	148.48
401.963	99.33
402.172	58.37
402.381	74.75
402.59	117.76
402.799	103.42
403.008	84.99
403.217	82.94
403.426	23.55
403.635	33.79
403.844	138.24
404.053	84.99
404.262	91.13
404.471	113.66
404.68	33.79
404.888	173.05
405.097	84.99
405.306	76.8
405.515	82.94
405.724	109.57
405.933	60.42
406.142	136.19
406.35	99.33
406.559	93.18
406.768	175.1
406.977	125.95
407.185	160.77
407.394	173.05
407.603	175.1
407.812	181.25
408.02	199.68
408.229	160.77
408.438	203.77
408.646	150.53
408.855	168.96
409.064	158.72
409.272	279.55
409.481	271.36
409.69	230.4
409.898	111.61
410.107	197.63
410.315	259.07
410.524	185.34
410.733	207.87
410.941	214.01
411.15	353.27
411.358	242.68
411.567	265.21
411.775	242.68
411.984	322.56
412.192	347.13
412.401	295.93
412.609	314.36
412.818	357.37
413.026	412.67
413.234	394.23
413.443	451.58
413.651	394.23
413.86	418.81
414.068	517.11
414.276	486.39
414.485	476.15
414.693	519.16
414.901	623.61
415.11	517.11
415.318	615.41
415.526	562.17
415.734	574.46
415.943	639.99
416.151	705.53
416.359	635.89
416.567	717.81
416.776	728.05
416.984	795.64
417.192	844.79
417.4	783.35
417.608	721.91
417.817	861.17
418.025	850.93
418.233	943.09
418.441	893.94
418.649	893.94
418.857	1000.43
419.065	1016.82
419.273	959.47
419.481	1020.91
419.689	1135.6
419.897	1111.02
420.105	1156.08
420.313	1170.41
420.521	1299.44
420.729	1256.43
420.937	1305.58
421.145	1356.78
421.353	1371.12
421.561	1430.51
421.769	1487.85
421.977	1547.24
422.185	1606.63
422.393	1647.59
422.601	1676.26
422.809	1688.55
423.017	1786.85
423.224	1809.38
423.432	1864.68
423.64	2016.23
423.848	2098.14
424.056	1987.55
424.263	2218.97
424.471	2065.38
424.679	2239.45
424.887	2296.8
425.094	2319.32
425.302	2384.86
425.51	2462.68
425.718	2624.47
425.925	2622.42
426.133	2792.41
426.341	2726.87
426.548	2821.08
426.756	2880.47
426.964	2931.67
427.171	3255.25
427.379	3331.02
427.586	3255.25
427.794	3392.46
428.001	3638.22
428.209	3752.9
428.417	3699.66
428.624	3980.23
428.832	3769.29
429.039	3935.17
429.247	3902.4
429.454	4195.26
429.662	4484.03
429.869	4285.37
430.076	4580.28
430.284	4355.01
430.491	4692.92
430.699	4805.56
430.906	4867
431.114	4907.96
431.321	4944.82
431.528	5211.06
431.736	5630.89
431.943	5784.49
432.15	5673.9
432.358	5688.23
432.565	6140.83
432.772	5944.23
432.979	6173.6
433.187	6359.97
433.394	6474.65
433.601	6892.44
433.808	6769.56
434.016	6833.05
434.223	7130
434.43	7605.13
434.637	7306.13
434.844	7934.85
435.052	8045.45
435.259	8053.64
435.466	8049.54
435.673	7957.38
435.88	8465.28
436.087	8663.93
436.294	8989.56
436.501	8756.09
436.708	8731.51
436.915	9253.75
437.122	9728.88
437.329	9452.4
437.537	9751.4
437.743	10015.59
437.95	9976.68
438.157	10406.75
438.364	10703.71
438.571	10851.16
438.778	10875.74
438.985	11819.85
439.192	11549.52
439.399	11713.36
439.606	11514.7
439.813	12081.99
440.02	12993.34
440.227	12405.57
440.433	12530.5
440.64	12931.9
440.847	12684.09
441.054	13116.22
441.261	13951.79
441.467	13861.68
441.674	13943.6
441.881	14615.33
442.088	14394.15
442.294	14451.49
442.501	14840.61
442.708	15039.26
442.914	15690.51
443.121	16147.21
443.328	15760.14
443.534	16890.62
443.741	16466.69
443.948	16384.77
444.154	17591.03
444.361	17453.81
444.568	17451.77
444.774	17427.19
444.981	17621.75
445.187	18031.34
445.394	18926.3
445.6	18858.72
445.807	20576.97
446.013	19524.31
446.22	19978.96
446.426	20826.82
446.633	20980.42
446.839	21490.36
447.046	20599.49
447.252	21920.43
447.459	21889.71
447.665	21713.59
447.871	22729.38
448.078	23415.45
448.284	22637.22
448.491	23032.48
448.697	24113.81
448.903	24652.42
449.11	24717.96
449.316	24003.22
449.522	24906.37
449.728	25623.16
449.935	25797.24
450.141	25506.43
450.347	26145.39
450.553	25467.52
450.76	25379.45
450.966	26362.48
451.172	26298.99
451.378	27099.75
451.584	26448.49
451.791	26788.46
451.997	26989.16
452.203	27271.78
452.409	27583.07
452.615	27447.9
452.821	26434.16
453.027	26012.28
453.233	27525.72
453.44	26450.54
453.646	26626.67
453.852	26940
454.058	26890.85
454.264	26632.81
454.47	27308.64
454.676	26153.58
454.882	27376.22
455.088	24699.53
455.294	25391.74
455.5	25627.26
455.705	25942.64
455.911	24881.8
456.117	24449.67
456.323	23898.77
456.529	22868.64
456.735	24068.75
456.941	23192.22
457.147	22887.07
457.352	22356.65
457.558	21979.82
457.764	22063.79
457.97	21945.01
458.176	21234.36
458.381	21367.48
458.587	20050.64
458.793	20230.86
458.999	19155.68
459.204	20642.5
459.41	19841.75
459.616	18815.71
459.821	18776.8
460.027	18578.15
460.233	17898.22
460.438	17500.92
460.644	17369.85
460.85	16853.76
461.055	16386.82
461.261	16380.68
461.466	15102.75
461.672	14902.04
461.878	15833.87
462.083	14998.3
462.289	14578.47
462.494	14256.93
462.7	13648.69
462.905	13511.47
463.111	13740.85
463.316	13882.16
463.522	13638.45
463.727	13460.27
463.932	13558.58
464.138	13460.27
464.343	13550.39
464.549	13042.49
464.754	13476.66
464.959	13452.08
465.165	13286.2
465.37	12708.67
465.575	12393.28
465.781	13009.72
465.986	12786.49
466.191	12512.07
466.397	12141.38
466.602	11805.52
466.807	12223.3
467.012	12215.11
467.218	12059.46
467.423	11928.39
467.628	12028.74
467.833	12325.7
468.038	11891.53
