Data from USB4F104151__95__14-43-36-854.txt Node

Date: Thu Mar 13 14:43:36 EDT 2025
User: louis
Spectrometer: USB4F10415
Trigger mode: 4
Integration Time (sec): 2.000000E-2
Scans to average: 1
Electric dark correction enabled: true
Nonlinearity correction enabled: false
Boxcar width: 0
XAxis mode: Wavelengths
Number of Pixels in Spectrum: 3648
>>>>>Begin Spectral Data<<<<<
178.204	-75.6
178.424	-75.6
178.644	-75.6
178.864	-85.84
179.084	-173.91
179.304	-1.88
179.524	-24.4
179.744	0.17
179.964	-8.02
180.184	37.03
180.404	-16.21
180.624	-32.6
180.844	10.41
181.064	-18.26
181.283	51.37
181.503	-42.84
181.723	45.23
181.943	-63.32
182.163	-20.31
182.383	-26.45
182.602	51.37
182.822	0.17
183.042	26.79
183.262	63.66
183.482	-8.02
183.701	-28.5
183.921	-67.41
184.141	-34.64
184.361	-14.17
184.58	-34.64
184.8	10.41
185.02	26.79
185.239	41.13
185.459	39.08
185.679	114.86
185.898	-34.64
186.118	-22.36
186.338	84.14
186.557	55.47
186.777	59.56
186.997	43.18
187.216	22.7
187.436	18.6
187.655	6.31
187.875	6.31
188.095	-30.55
188.314	30.89
188.534	59.56
188.753	-42.84
188.973	39.08
189.192	80.04
189.412	53.42
189.631	47.27
189.851	104.62
190.07	14.51
190.29	-10.07
190.509	8.36
190.729	24.75
190.948	71.85
191.168	-10.07
191.387	98.47
191.607	39.08
191.826	43.18
192.045	47.27
192.265	-14.17
192.484	51.37
192.704	18.6
192.923	-10.07
193.142	65.71
193.362	73.9
193.581	22.7
193.8	90.28
194.02	100.52
194.239	-65.36
194.458	16.55
194.678	8.36
194.897	6.31
195.116	-30.55
195.335	49.32
195.555	4.27
195.774	22.7
195.993	71.85
196.212	32.94
196.432	82.09
196.651	32.94
196.87	-5.97
197.089	-5.97
197.308	63.66
197.528	59.56
197.747	55.47
197.966	43.18
198.185	57.51
198.404	-51.03
198.623	32.94
198.842	82.09
199.062	10.41
199.281	16.55
199.5	2.22
199.719	18.6
199.938	63.66
200.157	43.18
200.376	51.37
200.595	-32.6
200.814	-8.02
201.033	-1.88
201.252	77.99
201.471	32.94
201.69	98.47
201.909	-8.02
202.128	71.85
202.347	30.89
202.566	22.7
202.785	-10.07
203.004	-87.89
203.223	102.57
203.442	-24.4
203.661	2.22
203.879	-30.55
204.098	88.23
204.317	10.41
204.536	-5.97
204.755	39.08
204.974	55.47
205.193	16.55
205.411	69.8
205.63	75.95
205.849	43.18
206.068	-55.12
206.287	-51.03
206.505	18.6
206.724	55.47
206.943	-1.88
207.162	129.19
207.381	39.08
207.599	-59.22
207.818	30.89
208.037	47.27
208.255	73.9
208.474	-40.79
208.693	16.55
208.911	-8.02
209.13	-18.26
209.349	39.08
209.567	90.28
209.786	123.05
210.005	26.79
210.223	-22.36
210.442	-32.6
210.661	63.66
210.879	45.23
211.098	6.31
211.316	16.55
211.535	39.08
211.753	6.31
211.972	63.66
212.191	34.99
212.409	55.47
212.628	63.66
212.846	-32.6
213.065	96.43
213.283	53.42
213.502	92.33
213.72	-65.36
213.938	-18.26
214.157	61.61
214.375	47.27
214.594	-5.97
214.812	53.42
215.031	-48.98
215.249	6.31
215.467	26.79
215.686	39.08
215.904	39.08
216.122	-38.74
216.341	90.28
216.559	49.32
216.778	71.85
216.996	45.23
217.214	39.08
217.432	51.37
217.651	0.17
217.869	-32.6
218.087	24.75
218.306	-42.84
218.524	39.08
218.742	-8.02
218.96	41.13
219.179	18.6
219.397	41.13
219.615	108.71
219.833	14.51
220.051	49.32
220.27	24.75
220.488	92.33
220.706	6.31
220.924	6.31
221.142	59.56
221.36	51.37
221.578	39.08
221.796	8.36
222.015	-51.03
222.233	63.66
222.451	51.37
222.669	-12.12
222.887	47.27
223.105	39.08
223.323	-30.55
223.541	-30.55
223.759	63.66
223.977	20.65
224.195	61.61
224.413	39.08
224.631	39.08
224.849	47.27
225.067	51.37
225.285	14.51
225.503	14.51
225.721	-1.88
225.939	8.36
226.157	69.8
226.375	108.71
226.592	-26.45
226.81	14.51
227.028	32.94
227.246	82.09
227.464	63.66
227.682	18.6
227.9	39.08
228.117	39.08
228.335	71.85
228.553	14.51
228.771	-1.88
228.989	0.17
229.206	16.55
229.424	-8.02
229.642	0.17
229.86	-24.4
230.077	-5.97
230.295	-1.88
230.513	-12.12
230.731	92.33
230.948	71.85
231.166	-36.69
231.384	59.56
231.601	-3.93
231.819	8.36
232.037	-26.45
232.254	14.51
232.472	34.99
232.689	6.31
232.907	8.36
233.125	2.22
233.342	80.04
233.56	-12.12
233.777	-1.88
233.995	-26.45
234.213	20.65
234.43	39.08
234.648	8.36
234.865	10.41
235.083	-8.02
235.3	-1.88
235.518	92.33
235.735	14.51
235.953	26.79
236.17	-14.17
236.388	-22.36
236.605	53.42
236.822	104.62
237.04	51.37
237.257	57.51
237.475	6.31
237.692	47.27
237.909	8.36
238.127	34.99
238.344	75.95
238.562	80.04
238.779	0.17
238.996	-46.93
239.214	47.27
239.431	0.17
239.648	-8.02
239.865	34.99
240.083	18.6
240.3	-57.17
240.517	-16.21
240.735	16.55
240.952	118.95
241.169	53.42
241.386	30.89
241.603	41.13
241.821	49.32
242.038	55.47
242.255	18.6
242.472	22.7
242.689	114.86
242.907	-18.26
243.124	16.55
243.341	57.51
243.558	-8.02
243.775	24.75
243.992	26.79
244.209	-5.97
244.426	75.95
244.643	32.94
244.86	90.28
245.078	6.31
245.295	26.79
245.512	32.94
245.729	55.47
245.946	63.66
246.163	47.27
246.38	-20.31
246.597	2.22
246.814	49.32
247.031	10.41
247.248	-1.88
247.464	90.28
247.681	61.61
247.898	22.7
248.115	-18.26
248.332	-104.28
248.549	-59.22
248.766	41.13
248.983	118.95
249.2	34.99
249.417	137.38
249.633	28.84
249.85	30.89
250.067	-91.99
250.284	6.31
250.501	26.79
250.717	39.08
250.934	16.55
251.151	-77.65
251.368	59.56
251.585	26.79
251.801	14.51
252.018	30.89
252.235	67.75
252.451	-26.45
252.668	16.55
252.885	-5.97
253.102	16.55
253.318	30.89
253.535	-34.64
253.752	-10.07
253.968	24.75
254.185	-1.88
254.401	-8.02
254.618	34.99
254.835	30.89
255.051	26.79
255.268	41.13
255.484	55.47
255.701	16.55
255.917	59.56
256.134	-5.97
256.351	26.79
256.567	51.37
256.784	51.37
257	-38.74
257.217	22.7
257.433	71.85
257.65	84.14
257.866	65.71
258.082	8.36
258.299	14.51
258.515	39.08
258.732	-1.88
258.948	-42.84
259.165	16.55
259.381	6.31
259.597	-1.88
259.814	32.94
260.03	51.37
260.246	24.75
260.463	59.56
260.679	49.32
260.895	22.7
261.112	26.79
261.328	55.47
261.544	24.75
261.761	96.43
261.977	-26.45
262.193	-1.88
262.409	-55.12
262.626	-18.26
262.842	32.94
263.058	-5.97
263.274	6.31
263.49	34.99
263.707	16.55
263.923	43.18
264.139	8.36
264.355	34.99
264.571	-63.32
264.787	41.13
265.004	59.56
265.22	-30.55
265.436	6.31
265.652	-22.36
265.868	6.31
266.084	-22.36
266.3	28.84
266.516	-59.22
266.732	80.04
266.948	39.08
267.164	22.7
267.38	77.99
267.596	-14.17
267.812	53.42
268.028	-10.07
268.244	34.99
268.46	82.09
268.676	-10.07
268.892	12.46
269.108	8.36
269.324	0.17
269.54	-18.26
269.756	43.18
269.972	-5.97
270.188	57.51
270.403	-22.36
270.619	49.32
270.835	37.03
271.051	16.55
271.267	8.36
271.483	16.55
271.698	63.66
271.914	61.61
272.13	34.99
272.346	10.41
272.562	-5.97
272.777	-30.55
272.993	65.71
273.209	26.79
273.425	71.85
273.64	6.31
273.856	57.51
274.072	22.7
274.287	-18.26
274.503	10.41
274.719	65.71
274.934	-1.88
275.15	-51.03
275.366	39.08
275.581	47.27
275.797	59.56
276.012	47.27
276.228	59.56
276.444	22.7
276.659	22.7
276.875	16.55
277.09	67.75
277.306	0.17
277.521	94.38
277.737	-14.17
277.952	41.13
278.168	-26.45
278.383	-24.4
278.599	14.51
278.814	6.31
279.03	-18.26
279.245	37.03
279.461	47.27
279.676	49.32
279.892	-26.45
280.107	26.79
280.322	-5.97
280.538	16.55
280.753	-63.32
280.969	6.31
281.184	34.99
281.399	-42.84
281.615	100.52
281.83	22.7
282.045	8.36
282.26	18.6
282.476	-3.93
282.691	59.56
282.906	14.51
283.122	88.23
283.337	12.46
283.552	-42.84
283.767	-16.21
283.983	55.47
284.198	-22.36
284.413	39.08
284.628	61.61
284.843	-40.79
285.058	-16.21
285.274	20.65
285.489	-44.88
285.704	63.66
285.919	-46.93
286.134	-10.07
286.349	-79.7
286.564	73.9
286.779	8.36
286.995	51.37
287.21	-38.74
287.425	63.66
287.64	80.04
287.855	57.51
288.07	45.23
288.285	139.43
288.5	49.32
288.715	24.75
288.93	-69.46
289.145	32.94
289.36	20.65
289.575	16.55
289.79	39.08
290.004	53.42
290.219	22.7
290.434	6.31
290.649	14.51
290.864	73.9
291.079	37.03
291.294	73.9
291.509	47.27
291.724	32.94
291.938	57.51
292.153	47.27
292.368	-20.31
292.583	55.47
292.798	28.84
293.012	121
293.227	22.7
293.442	30.89
293.657	94.38
293.871	75.95
294.086	26.79
294.301	39.08
294.516	92.33
294.73	-48.98
294.945	-22.36
295.16	65.71
295.374	61.61
295.589	98.47
295.804	59.56
296.018	22.7
296.233	43.18
296.447	-40.79
296.662	-55.12
296.877	75.95
297.091	71.85
297.306	30.89
297.52	32.94
297.735	-24.4
297.949	10.41
298.164	20.65
298.378	16.55
298.593	-14.17
298.807	55.47
299.022	121
299.236	86.19
299.451	37.03
299.665	55.47
299.88	51.37
300.094	-18.26
300.309	22.7
300.523	6.31
300.737	26.79
300.952	100.52
301.166	49.32
301.381	-26.45
301.595	14.51
301.809	112.81
302.024	39.08
302.238	-28.5
302.452	116.9
302.667	55.47
302.881	96.43
303.095	71.85
303.309	14.51
303.524	-40.79
303.738	-5.97
303.952	84.14
304.166	63.66
304.381	-69.46
304.595	6.31
304.809	-26.45
305.023	39.08
305.237	30.89
305.452	41.13
305.666	106.67
305.88	57.51
306.094	12.46
306.308	49.32
306.522	63.66
306.736	67.75
306.95	39.08
307.164	-28.5
307.379	-14.17
307.593	67.75
307.807	26.79
308.021	47.27
308.235	-22.36
308.449	-57.17
308.663	20.65
308.877	14.51
309.091	37.03
309.305	47.27
309.519	-38.74
309.733	65.71
309.947	22.7
310.161	-26.45
310.374	-22.36
310.588	47.27
310.802	-32.6
311.016	6.31
311.23	-40.79
311.444	71.85
311.658	4.27
311.872	80.04
312.085	55.47
312.299	53.42
312.513	30.89
312.727	8.36
312.941	2.22
313.154	86.19
313.368	2.22
313.582	88.23
313.796	-8.02
314.009	-42.84
314.223	114.86
314.437	80.04
314.651	-5.97
314.864	30.89
315.078	18.6
315.292	18.6
315.505	-10.07
315.719	32.94
315.933	0.17
316.146	10.41
316.36	26.79
316.573	73.9
316.787	10.41
317.001	71.85
317.214	30.89
317.428	39.08
317.641	82.09
317.855	-18.26
318.068	63.66
318.282	16.55
318.495	96.43
318.709	-26.45
318.922	92.33
319.136	65.71
319.349	18.6
319.563	6.31
319.776	12.46
319.99	-3.93
320.203	-24.4
320.417	32.94
320.63	-1.88
320.843	-1.88
321.057	8.36
321.27	71.85
321.483	37.03
321.697	96.43
321.91	88.23
322.124	30.89
322.337	43.18
322.55	39.08
322.763	34.99
322.977	71.85
323.19	8.36
323.403	22.7
323.617	32.94
323.83	26.79
324.043	30.89
324.256	63.66
324.469	24.75
324.683	6.31
324.896	39.08
325.109	32.94
325.322	0.17
325.535	84.14
325.748	51.37
325.962	-16.21
326.175	73.9
326.388	77.99
326.601	96.43
326.814	-8.02
327.027	41.13
327.24	-8.02
327.453	-89.94
327.666	49.32
327.879	47.27
328.092	-26.45
328.305	32.94
328.518	55.47
328.731	-5.97
328.944	84.14
329.157	24.75
329.37	30.89
329.583	12.46
329.796	47.27
330.009	-8.02
330.222	12.46
330.435	14.51
330.648	22.7
330.861	-1.88
331.073	14.51
331.286	43.18
331.499	22.7
331.712	-8.02
331.925	-26.45
332.138	63.66
332.35	84.14
332.563	49.32
332.776	8.36
332.989	-51.03
333.202	32.94
333.414	-26.45
333.627	49.32
333.84	-5.97
334.053	55.47
334.265	-34.64
334.478	51.37
334.691	104.62
334.903	65.71
335.116	-22.36
335.329	-18.26
335.541	-30.55
335.754	90.28
335.966	49.32
336.179	-22.36
336.392	39.08
336.604	55.47
336.817	24.75
337.029	-8.02
337.242	30.89
337.454	-18.26
337.667	30.89
337.88	22.7
338.092	80.04
338.305	73.9
338.517	55.47
338.729	32.94
338.942	49.32
339.154	-26.45
339.367	14.51
339.579	80.04
339.792	-1.88
340.004	28.84
340.217	30.89
340.429	-1.88
340.641	-1.88
340.854	-10.07
341.066	16.55
341.278	26.79
341.491	166.06
341.703	26.79
341.915	-73.56
342.128	22.7
342.34	65.71
342.552	-24.4
342.764	-10.07
342.977	22.7
343.189	20.65
343.401	12.46
343.613	22.7
343.826	121
344.038	-10.07
344.25	0.17
344.462	2.22
344.674	98.47
344.886	14.51
345.099	71.85
345.311	67.75
345.523	41.13
345.735	-30.55
345.947	47.27
346.159	47.27
346.371	-26.45
346.583	37.03
346.795	92.33
347.007	49.32
347.219	22.7
347.431	55.47
347.643	71.85
347.855	-22.36
348.067	71.85
348.279	32.94
348.491	-14.17
348.703	10.41
348.915	30.89
349.127	6.31
349.339	14.51
349.551	32.94
349.763	106.67
349.975	73.9
350.187	34.99
350.399	16.55
350.61	41.13
350.822	-1.88
351.034	6.31
351.246	6.31
351.458	98.47
351.669	-1.88
351.881	2.22
352.093	43.18
352.305	80.04
352.517	73.9
352.728	75.95
352.94	28.84
353.152	10.41
353.363	6.31
353.575	0.17
353.787	155.82
353.999	49.32
354.21	57.51
354.422	67.75
354.633	49.32
354.845	71.85
355.057	16.55
355.268	-20.31
355.48	98.47
355.692	-42.84
355.903	59.56
356.115	47.27
356.326	41.13
356.538	55.47
356.749	123.05
356.961	71.85
357.172	20.65
357.384	-8.02
357.595	133.29
357.807	39.08
358.018	-10.07
358.23	22.7
358.441	65.71
358.653	26.79
358.864	41.13
359.075	26.79
359.287	47.27
359.498	43.18
359.709	55.47
359.921	100.52
360.132	14.51
360.344	98.47
360.555	37.03
360.766	67.75
360.977	14.51
361.189	0.17
361.4	-14.17
361.611	141.48
361.823	65.71
362.034	24.75
362.245	43.18
362.456	49.32
362.667	73.9
362.879	24.75
363.09	80.04
363.301	47.27
363.512	-14.17
363.723	18.6
363.935	16.55
364.146	-1.88
364.357	-1.88
364.568	22.7
364.779	30.89
364.99	57.51
365.201	10.41
365.412	18.6
365.623	18.6
365.834	14.51
366.045	14.51
366.256	94.38
366.467	82.09
366.678	-26.45
366.889	6.31
367.1	61.61
367.311	-3.93
367.522	41.13
367.733	80.04
367.944	104.62
368.155	-26.45
368.366	63.66
368.577	121
368.788	41.13
368.999	-3.93
369.209	47.27
369.42	133.29
369.631	86.19
369.842	57.51
370.053	65.71
370.264	59.56
370.474	73.9
370.685	39.08
370.896	57.51
371.107	39.08
371.317	63.66
371.528	12.46
371.739	30.89
371.95	55.47
372.16	123.05
372.371	14.51
372.582	118.95
372.792	55.47
373.003	-26.45
373.214	30.89
373.424	123.05
373.635	67.75
373.846	106.67
374.056	18.6
374.267	96.43
374.477	41.13
374.688	22.7
374.898	43.18
375.109	47.27
375.319	24.75
375.53	16.55
375.74	30.89
375.951	30.89
376.161	63.66
376.372	65.71
376.582	8.36
376.793	41.13
377.003	-8.02
377.214	88.23
377.424	-1.88
377.635	-30.55
377.845	8.36
378.055	41.13
378.266	34.99
378.476	57.51
378.686	6.31
378.897	59.56
379.107	34.99
379.317	2.22
379.528	6.31
379.738	80.04
379.948	-55.12
380.158	82.09
380.369	69.8
380.579	-22.36
380.789	-16.21
380.999	51.37
381.21	47.27
381.42	104.62
381.63	-10.07
381.84	75.95
382.05	75.95
382.261	112.81
382.471	49.32
382.681	57.51
382.891	39.08
383.101	49.32
383.311	63.66
383.521	82.09
383.731	-28.5
383.941	16.55
384.151	63.66
384.361	96.43
384.571	-32.6
384.781	34.99
384.991	80.04
385.201	30.89
385.411	71.85
385.621	0.17
385.831	98.47
386.041	37.03
386.251	2.22
386.461	8.36
386.671	18.6
386.881	16.55
387.091	39.08
387.301	24.75
387.511	121
387.72	86.19
387.93	55.47
388.14	41.13
388.35	55.47
388.56	108.71
388.769	10.41
388.979	84.14
389.189	-3.93
389.399	55.47
389.609	73.9
389.818	98.47
390.028	67.75
390.238	30.89
390.447	-14.17
390.657	43.18
390.867	-16.21
391.076	65.71
391.286	37.03
391.496	8.36
391.705	24.75
391.915	43.18
392.125	34.99
392.334	59.56
392.544	55.47
392.753	2.22
392.963	-26.45
393.172	47.27
393.382	22.7
393.591	71.85
393.801	26.79
394.01	90.28
394.22	84.14
394.429	92.33
394.639	43.18
394.848	84.14
395.058	88.23
395.267	139.43
395.477	71.85
395.686	92.33
395.895	143.53
396.105	114.86
396.314	73.9
396.524	131.24
396.733	30.89
396.942	30.89
397.152	75.95
397.361	88.23
397.57	121
397.78	65.71
397.989	106.67
398.198	80.04
398.407	41.13
398.617	34.99
398.826	96.43
399.035	84.14
399.244	80.04
399.453	125.1
399.663	51.37
399.872	55.47
400.081	90.28
400.29	110.76
400.499	67.75
400.708	123.05
400.917	61.61
401.127	112.81
401.336	75.95
401.545	96.43
401.754	170.15
401.963	149.67
402.172	131.24
402.381	77.99
402.59	133.29
402.799	157.86
403.008	155.82
403.217	106.67
403.426	112.81
403.635	114.86
403.844	67.75
404.053	94.38
404.262	69.8
404.471	174.25
404.68	104.62
404.888	131.24
405.097	123.05
405.306	143.53
405.515	196.78
405.724	96.43
405.933	192.68
406.142	112.81
406.35	227.5
406.559	164.01
406.768	116.9
406.977	161.96
407.185	260.26
407.394	149.67
407.603	161.96
407.812	239.78
408.02	252.07
408.229	202.92
408.438	190.63
408.646	268.45
408.855	180.39
409.064	311.46
409.272	161.96
409.481	221.35
409.69	256.17
409.898	243.88
410.107	258.21
410.315	260.26
410.524	233.64
410.733	350.37
410.941	303.27
411.15	317.61
411.358	333.99
411.567	407.72
411.775	368.81
411.984	407.72
412.192	313.51
412.401	440.48
412.609	481.44
412.818	434.34
413.026	391.33
413.234	456.87
413.443	417.96
413.651	411.81
413.86	460.96
414.068	587.94
414.276	608.42
414.485	555.17
414.693	555.17
414.901	649.38
415.11	551.07
415.318	649.38
415.526	616.61
415.734	661.66
415.943	696.48
416.151	731.3
416.359	747.68
416.567	788.64
416.776	819.36
416.984	856.22
417.192	802.97
417.4	837.79
417.608	913.56
417.817	854.17
418.025	1063.07
418.233	1005.72
418.441	921.76
418.649	1091.74
418.857	1136.79
419.065	1075.35
419.273	1157.27
419.481	1165.46
419.689	1235.1
419.897	1286.3
420.105	1337.49
420.313	1333.4
420.521	1427.6
420.729	1380.5
420.937	1460.37
421.145	1507.48
421.353	1599.63
421.561	1777.81
421.769	1777.81
421.977	1833.1
422.185	1747.09
422.393	1955.98
422.601	2031.76
422.809	1906.83
423.017	2029.71
423.224	2037.9
423.432	2220.17
423.64	2216.07
423.848	2463.88
424.056	2300.04
424.263	2490.5
424.471	2492.55
424.679	2521.22
424.887	2680.96
425.094	2824.32
425.302	2699.39
425.51	2793.6
425.718	2902.14
425.925	2957.44
426.133	3123.32
426.341	3266.68
426.548	3326.07
426.756	3467.38
426.964	3524.72
427.171	3512.44
427.379	3659.89
427.586	3756.15
427.794	3827.82
428.001	4046.96
428.209	4255.85
428.417	4182.12
428.624	4446.31
428.832	4388.97
429.039	4454.5
429.247	4399.21
429.454	4806.75
429.662	5347.42
429.869	4999.26
430.076	5269.59
430.284	5095.52
430.491	5337.18
430.699	5546.07
430.906	5572.69
431.114	5806.16
431.321	5871.7
431.528	5857.36
431.736	6400.07
431.943	6645.83
432.15	6385.74
432.358	6553.67
432.565	6854.72
432.772	6903.87
432.979	7168.06
433.187	7288.89
433.394	7217.21
433.601	7888.95
433.808	7714.87
434.016	7618.61
434.223	8245.29
434.43	8607.78
434.637	8558.63
434.844	9025.57
435.052	9130.02
435.259	9054.24
435.466	9044
435.673	9091.1
435.88	9668.63
436.087	10092.56
436.294	10197.01
436.501	9910.29
436.708	10078.22
436.915	10297.36
437.122	10829.83
437.329	10790.92
437.537	11216.9
437.743	11358.21
437.95	11157.5
438.157	11726.84
438.364	12318.7
438.571	12091.38
438.778	12595.18
438.985	13535.2
439.192	13029.35
439.399	13467.61
439.606	13146.08
439.813	13817.82
440.02	14669.77
440.227	14411.73
440.433	14235.6
440.64	14858.18
440.847	14925.77
441.054	15038.41
441.261	15937.46
441.467	15861.69
441.674	16136.12
441.881	16644.01
442.088	16416.69
442.294	16258.99
442.501	16938.92
442.708	17239.97
442.914	17575.84
443.121	18444.18
443.328	18112.41
443.534	19267.46
443.741	18595.73
443.948	18661.26
444.154	19900.28
444.361	19838.84
444.568	19873.66
444.774	20037.5
444.981	20244.34
445.187	20721.52
445.394	21673.82
445.6	21485.41
445.807	23461.7
446.013	22493.01
446.22	22624.08
446.426	23684.93
446.633	23809.86
446.839	24909.61
447.046	23549.76
447.252	24950.57
447.459	25141.04
447.665	24848.18
447.871	25872.16
448.078	27152.14
448.284	25673.51
448.491	26470.17
448.697	27662.08
448.903	28108.54
449.11	28180.22
449.316	27889.41
449.522	28299
449.728	29110
449.935	29302.51
450.141	29529.83
450.347	30082.78
450.553	29112.05
450.76	29503.21
450.966	30232.29
451.172	30291.68
451.378	30942.93
451.584	30308.06
451.791	30934.74
451.997	31170.26
452.203	31420.11
452.409	31502.03
452.615	31315.66
452.821	29880.03
453.027	30142.17
453.233	31637.19
453.44	30263
453.646	30666.45
453.852	30639.83
454.058	31069.9
454.264	30510.81
454.47	31168.21
454.676	30269.15
454.882	31360.72
455.088	28935.92
455.294	28901.11
455.5	29462.25
455.705	29632.23
455.911	28724.98
456.117	28057.34
456.323	28178.17
456.529	26564.37
456.735	27498.25
456.941	26777.36
457.147	26504.98
457.352	25976.61
457.558	25440.04
457.764	25427.75
457.97	25351.98
458.176	24534.84
458.381	24626.99
458.587	23721.79
458.793	23353.16
458.999	22286.17
459.204	24049.47
459.41	23064.39
459.616	21743.45
459.821	21780.32
460.027	21321.57
460.233	21131.11
460.438	20193.14
460.644	20438.9
460.85	19570.56
461.055	19048.33
461.261	19085.19
461.466	17469.34
461.672	17344.42
461.878	18360.21
462.083	17168.29
462.289	16783.27
462.494	16656.3
462.7	15968.18
462.905	15398.85
463.111	15888.31
463.316	16086.97
463.522	15925.18
463.727	15806.39
463.932	15849.4
464.138	15464.38
464.343	15763.39
464.549	15386.56
464.754	15683.52
464.959	15294.4
465.165	15431.62
465.37	14630.86
465.575	14387.15
465.781	14696.39
465.986	14931.91
466.191	14424.01
466.397	14251.99
466.602	13529.05
466.807	14014.42
467.012	13858.78
467.218	13809.62
467.423	13723.61
467.628	13758.42
467.833	14448.59
