Data from USB4F104151__120__14-43-56-769.txt Node

Date: Thu Mar 13 14:43:56 EDT 2025
User: louis
Spectrometer: USB4F10415
Trigger mode: 4
Integration Time (sec): 2.000000E-2
Scans to average: 1
Electric dark correction enabled: true
Nonlinearity correction enabled: false
Boxcar width: 0
XAxis mode: Wavelengths
Number of Pixels in Spectrum: 3648
>>>>>Begin Spectral Data<<<<<
178.204	-152.06
178.424	-152.06
178.644	-152.06
178.864	-154.11
179.084	-162.3
179.304	-90.62
179.524	17.92
179.744	-47.62
179.964	87.55
180.184	28.16
180.404	1.54
180.624	-4.61
180.844	40.45
181.064	-55.81
181.283	-20.99
181.503	-20.99
181.723	65.02
181.943	-45.57
182.163	28.16
182.383	-23.04
182.602	34.3
182.822	58.88
183.042	-14.85
183.262	36.35
183.482	19.97
183.701	-6.66
183.921	28.16
184.141	-41.47
184.361	-20.99
184.58	40.45
184.8	-14.85
185.02	50.69
185.239	75.26
185.459	3.58
185.679	-37.38
185.898	-72.19
186.118	19.97
186.338	36.35
186.557	46.59
186.777	34.3
186.997	26.11
187.216	19.97
187.436	13.82
187.655	36.35
187.875	81.41
188.095	-43.52
188.314	9.73
188.534	69.12
188.753	34.3
188.973	-14.85
189.192	52.74
189.412	-23.04
189.631	-14.85
189.851	13.82
190.07	71.17
190.29	-0.51
190.509	44.54
190.729	-4.61
190.948	34.3
191.168	122.37
191.387	50.69
191.607	-51.71
191.826	15.87
192.045	-6.66
192.265	-4.61
192.484	83.45
192.704	56.83
192.923	-53.76
193.142	67.07
193.362	91.65
193.581	75.26
193.8	26.11
194.02	1.54
194.239	-27.14
194.458	-0.51
194.678	-80.38
194.897	28.16
195.116	-14.85
195.335	50.69
195.555	26.11
195.774	5.63
195.993	-29.18
196.212	-72.19
196.432	-8.7
196.651	-4.61
196.87	50.69
197.089	91.65
197.308	42.5
197.528	11.78
197.747	-0.51
197.966	44.54
198.185	87.55
198.404	-14.85
198.623	-2.56
198.842	15.87
199.062	62.98
199.281	36.35
199.5	11.78
199.719	67.07
199.938	77.31
200.157	108.03
200.376	87.55
200.595	110.08
200.814	-2.56
201.033	19.97
201.252	73.21
201.471	50.69
201.69	36.35
201.909	69.12
202.128	7.68
202.347	7.68
202.566	34.3
202.785	-31.23
203.004	-23.04
203.223	67.07
203.442	13.82
203.661	26.11
203.879	48.64
204.098	28.16
204.317	85.5
204.536	91.65
204.755	5.63
204.974	58.88
205.193	46.59
205.411	71.17
205.63	46.59
205.849	99.84
206.068	1.54
206.287	-18.94
206.505	91.65
206.724	17.92
206.943	-59.9
207.162	-29.18
207.381	-61.95
207.599	-68.09
207.818	-6.66
208.037	71.17
208.255	-57.86
208.474	-31.23
208.693	-25.09
208.911	19.97
209.13	58.88
209.349	44.54
209.567	79.36
209.786	83.45
210.005	9.73
210.223	-80.38
210.442	-59.9
210.661	-12.8
210.879	91.65
211.098	89.6
211.316	36.35
211.535	87.55
211.753	-31.23
211.972	-27.14
212.191	22.02
212.409	28.16
212.628	44.54
212.846	19.97
213.065	-23.04
213.283	89.6
213.502	-6.66
213.72	34.3
213.938	62.98
214.157	26.11
214.375	9.73
214.594	17.92
214.812	67.07
215.031	1.54
215.249	-16.9
215.467	-6.66
215.686	50.69
215.904	42.5
216.122	-37.38
216.341	93.69
216.559	-0.51
216.778	13.82
216.996	-18.94
217.214	40.45
217.432	-16.9
217.651	34.3
217.869	9.73
218.087	34.3
218.306	62.98
218.524	17.92
218.742	-55.81
218.96	-6.66
219.179	-20.99
219.397	75.26
219.615	30.21
219.833	54.78
220.051	11.78
220.27	42.5
220.488	34.3
220.706	44.54
220.924	69.12
221.142	5.63
221.36	34.3
221.578	32.26
221.796	-41.47
222.015	50.69
222.233	30.21
222.451	-23.04
222.669	-41.47
222.887	42.5
223.105	-6.66
223.323	9.73
223.541	-25.09
223.759	52.74
223.977	-12.8
224.195	58.88
224.413	-14.85
224.631	60.93
224.849	65.02
225.067	60.93
225.285	-16.9
225.503	34.3
225.721	-64
225.939	-43.52
226.157	-23.04
226.375	159.23
226.592	-14.85
226.81	52.74
227.028	67.07
227.246	93.69
227.464	22.02
227.682	79.36
227.9	36.35
228.117	46.59
228.335	62.98
228.553	77.31
228.771	-18.94
228.989	26.11
229.206	-14.85
229.424	87.55
229.642	5.63
229.86	13.82
230.077	24.06
230.295	34.3
230.513	-18.94
230.731	-25.09
230.948	-25.09
231.166	126.46
231.384	-18.94
231.601	-14.85
231.819	42.5
232.037	-39.42
232.254	-37.38
232.472	32.26
232.689	3.58
232.907	34.3
233.125	50.69
233.342	22.02
233.56	17.92
233.777	46.59
233.995	-33.28
234.213	62.98
234.43	-4.61
234.648	28.16
234.865	11.78
235.083	-14.85
235.3	89.6
235.518	36.35
235.735	83.45
235.953	67.07
236.17	-16.9
236.388	-6.66
236.605	-31.23
236.822	60.93
237.04	58.88
237.257	-2.56
237.475	-12.8
237.692	38.4
237.909	3.58
238.127	34.3
238.344	-4.61
238.562	38.4
238.779	-45.57
238.996	-6.66
239.214	17.92
239.431	34.3
239.648	-39.42
239.865	-45.57
240.083	52.74
240.3	50.69
240.517	-27.14
240.735	22.02
240.952	38.4
241.169	5.63
241.386	-4.61
241.603	87.55
241.821	-51.71
242.038	-43.52
242.255	13.82
242.472	-88.57
242.689	93.69
242.907	-6.66
243.124	30.21
243.341	-20.99
243.558	-76.29
243.775	-0.51
243.992	-6.66
244.209	108.03
244.426	67.07
244.643	5.63
244.86	-10.75
245.078	17.92
245.295	22.02
245.512	7.68
245.729	17.92
245.946	-4.61
246.163	17.92
246.38	36.35
246.597	67.07
246.814	26.11
247.031	1.54
247.248	22.02
247.464	1.54
247.681	-53.76
247.898	28.16
248.115	3.58
248.332	-10.75
248.549	-31.23
248.766	58.88
248.983	-25.09
249.2	-31.23
249.417	103.93
249.633	5.63
249.85	42.5
250.067	5.63
250.284	9.73
250.501	13.82
250.717	1.54
250.934	22.02
251.151	22.02
251.368	13.82
251.585	56.83
251.801	79.36
252.018	-18.94
252.235	54.78
252.451	-2.56
252.668	7.68
252.885	19.97
253.102	22.02
253.318	1.54
253.535	-27.14
253.752	69.12
253.968	-59.9
254.185	26.11
254.401	17.92
254.618	60.93
254.835	-4.61
255.051	3.58
255.268	26.11
255.484	7.68
255.701	17.92
255.917	77.31
256.134	-86.53
256.351	-6.66
256.567	44.54
256.784	7.68
257	-18.94
257.217	124.41
257.433	38.4
257.65	1.54
257.866	-18.94
258.082	17.92
258.299	13.82
258.515	-20.99
258.732	-39.42
258.948	28.16
259.165	60.93
259.381	22.02
259.597	22.02
259.814	-0.51
260.03	-2.56
260.246	7.68
260.463	30.21
260.679	52.74
260.895	58.88
261.112	3.58
261.328	1.54
261.544	44.54
261.761	95.74
261.977	110.08
262.193	-64
262.409	-4.61
262.626	52.74
262.842	60.93
263.058	42.5
263.274	-6.66
263.49	28.16
263.707	112.13
263.923	32.26
264.139	-6.66
264.355	5.63
264.571	5.63
264.787	-14.85
265.004	26.11
265.22	9.73
265.436	50.69
265.652	40.45
265.868	19.97
266.084	-39.42
266.3	-18.94
266.516	9.73
266.732	71.17
266.948	44.54
267.164	-6.66
267.38	24.06
267.596	-12.8
267.812	108.03
268.028	-29.18
268.244	26.11
268.46	-2.56
268.676	17.92
268.892	32.26
269.108	42.5
269.324	-51.71
269.54	-6.66
269.756	83.45
269.972	5.63
270.188	22.02
270.403	-35.33
270.619	9.73
270.835	-23.04
271.051	-4.61
271.267	-27.14
271.483	38.4
271.698	91.65
271.914	71.17
272.13	-0.51
272.346	-47.62
272.562	-2.56
272.777	85.5
272.993	-31.23
273.209	67.07
273.425	36.35
273.64	-12.8
273.856	-2.56
274.072	5.63
274.287	46.59
274.503	-4.61
274.719	75.26
274.934	91.65
275.15	-43.52
275.366	75.26
275.581	-16.9
275.797	3.58
276.012	-39.42
276.228	9.73
276.444	-18.94
276.659	11.78
276.875	11.78
277.09	52.74
277.306	-14.85
277.521	1.54
277.737	1.54
277.952	42.5
278.168	40.45
278.383	1.54
278.599	56.83
278.814	67.07
279.03	77.31
279.245	42.5
279.461	36.35
279.676	34.3
279.892	-18.94
280.107	52.74
280.322	46.59
280.538	52.74
280.753	71.17
280.969	44.54
281.184	19.97
281.399	81.41
281.615	69.12
281.83	-4.61
282.045	9.73
282.26	67.07
282.476	34.3
282.691	128.51
282.906	13.82
283.122	5.63
283.337	103.93
283.552	26.11
283.767	54.78
283.983	24.06
284.198	17.92
284.413	26.11
284.628	42.5
284.843	-35.33
285.058	-20.99
285.274	-10.75
285.489	-29.18
285.704	58.88
285.919	-4.61
286.134	28.16
286.349	-12.8
286.564	28.16
286.779	42.5
286.995	75.26
287.21	36.35
287.425	13.82
287.64	1.54
287.855	77.31
288.07	17.92
288.285	75.26
288.5	54.78
288.715	15.87
288.93	-80.38
289.145	52.74
289.36	5.63
289.575	48.64
289.79	-10.75
290.004	77.31
290.219	108.03
290.434	67.07
290.649	60.93
290.864	38.4
291.079	-2.56
291.294	-12.8
291.509	44.54
291.724	11.78
291.938	9.73
292.153	87.55
292.368	-33.28
292.583	34.3
292.798	42.5
293.012	62.98
293.227	58.88
293.442	58.88
293.657	75.26
293.871	46.59
294.086	71.17
294.301	79.36
294.516	46.59
294.73	56.83
294.945	-12.8
295.16	-14.85
295.374	44.54
295.589	7.68
295.804	26.11
296.018	19.97
296.233	-29.18
296.447	108.03
296.662	-2.56
296.877	56.83
297.091	-4.61
297.306	36.35
297.52	-6.66
297.735	58.88
297.949	1.54
298.164	46.59
298.378	34.3
298.593	-53.76
298.807	-31.23
299.022	36.35
299.236	26.11
299.451	1.54
299.665	17.92
299.88	22.02
300.094	93.69
300.309	-27.14
300.523	34.3
300.737	24.06
300.952	46.59
301.166	67.07
301.381	32.26
301.595	15.87
301.809	17.92
302.024	19.97
302.238	-86.53
302.452	3.58
302.667	17.92
302.881	46.59
303.095	103.93
303.309	-2.56
303.524	-43.52
303.738	26.11
303.952	-61.95
304.166	42.5
304.381	-68.09
304.595	34.3
304.809	73.21
305.023	38.4
305.237	-18.94
305.452	73.21
305.666	-2.56
305.88	93.69
306.094	130.56
306.308	22.02
306.522	-39.42
306.736	5.63
306.95	-39.42
307.164	71.17
307.379	-20.99
307.593	93.69
307.807	-12.8
308.021	-18.94
308.235	17.92
308.449	-39.42
308.663	32.26
308.877	11.78
309.091	62.98
309.305	3.58
309.519	73.21
309.733	103.93
309.947	-20.99
310.161	91.65
310.374	67.07
310.588	1.54
310.802	-35.33
311.016	65.02
311.23	-2.56
311.444	19.97
311.658	-49.66
311.872	17.92
312.085	103.93
312.299	108.03
312.513	11.78
312.727	22.02
312.941	-18.94
313.154	69.12
313.368	110.08
313.582	26.11
313.796	32.26
314.009	58.88
314.223	36.35
314.437	46.59
314.651	58.88
314.864	-8.7
315.078	24.06
315.292	81.41
315.505	-14.85
315.719	50.69
315.933	30.21
316.146	9.73
316.36	-68.09
316.573	11.78
316.787	50.69
317.001	-6.66
317.214	-4.61
317.428	-6.66
317.641	-51.71
317.855	50.69
318.068	11.78
318.282	-12.8
318.495	65.02
318.709	24.06
318.922	22.02
319.136	91.65
319.349	-27.14
319.563	38.4
319.776	93.69
319.99	-27.14
320.203	40.45
320.417	56.83
320.63	62.98
320.843	71.17
321.057	34.3
321.27	-12.8
321.483	13.82
321.697	56.83
321.91	38.4
322.124	-10.75
322.337	-29.18
322.55	17.92
322.763	1.54
322.977	83.45
323.19	32.26
323.403	54.78
323.617	30.21
323.83	54.78
324.043	11.78
324.256	17.92
324.469	30.21
324.683	17.92
324.896	-2.56
325.109	60.93
325.322	-8.7
325.535	22.02
325.748	93.69
325.962	-14.85
326.175	1.54
326.388	26.11
326.601	3.58
326.814	-20.99
327.027	46.59
327.24	108.03
327.453	-6.66
327.666	-51.71
327.879	11.78
328.092	85.5
328.305	42.5
328.518	-53.76
328.731	-33.28
328.944	83.45
329.157	28.16
329.37	28.16
329.583	-10.75
329.796	-2.56
330.009	19.97
330.222	15.87
330.435	-31.23
330.648	-27.14
330.861	65.02
331.073	34.3
331.286	44.54
331.499	50.69
331.712	-20.99
331.925	34.3
332.138	28.16
332.35	54.78
332.563	-25.09
332.776	87.55
332.989	17.92
333.202	-31.23
333.414	5.63
333.627	-68.09
333.84	9.73
334.053	9.73
334.265	-25.09
334.478	128.51
334.691	1.54
334.903	83.45
335.116	71.17
335.329	52.74
335.541	24.06
335.754	83.45
335.966	-14.85
336.179	3.58
336.392	-18.94
336.604	-64
336.817	-37.38
337.029	103.93
337.242	5.63
337.454	50.69
337.667	42.5
337.88	73.21
338.092	62.98
338.305	15.87
338.517	-4.61
338.729	83.45
338.942	34.3
339.154	9.73
339.367	-10.75
339.579	11.78
339.792	17.92
340.004	50.69
340.217	-14.85
340.429	9.73
340.641	-51.71
340.854	-27.14
341.066	22.02
341.278	-2.56
341.491	42.5
341.703	1.54
341.915	58.88
342.128	48.64
342.34	81.41
342.552	28.16
342.764	34.3
342.977	26.11
343.189	46.59
343.401	101.89
343.613	58.88
343.826	30.21
344.038	-23.04
344.25	9.73
344.462	65.02
344.674	38.4
344.886	26.11
345.099	32.26
345.311	17.92
345.523	28.16
345.735	-31.23
345.947	50.69
346.159	-27.14
346.371	79.36
346.583	22.02
346.795	116.22
347.007	-6.66
347.219	73.21
347.431	-6.66
347.643	75.26
347.855	1.54
348.067	67.07
348.279	-25.09
348.491	24.06
348.703	50.69
348.915	-20.99
349.127	36.35
349.339	17.92
349.551	73.21
349.763	-23.04
349.975	-2.56
350.187	30.21
350.399	93.69
350.61	-20.99
350.822	17.92
351.034	83.45
351.246	-6.66
351.458	22.02
351.669	-14.85
351.881	75.26
352.093	34.3
352.305	46.59
352.517	-8.7
352.728	97.79
352.94	99.84
353.152	30.21
353.363	-4.61
353.575	83.45
353.787	87.55
353.999	30.21
354.21	26.11
354.422	-35.33
354.633	3.58
354.845	34.3
355.057	58.88
355.268	-31.23
355.48	85.5
355.692	17.92
355.903	32.26
356.115	13.82
356.326	22.02
356.538	132.61
356.749	54.78
356.961	-4.61
357.172	42.5
357.384	52.74
357.595	62.98
357.807	28.16
358.018	36.35
358.23	67.07
358.441	110.08
358.653	34.3
358.864	56.83
359.075	19.97
359.287	110.08
359.498	38.4
359.709	13.82
359.921	36.35
360.132	46.59
360.344	34.3
360.555	54.78
360.766	19.97
360.977	38.4
361.189	32.26
361.4	65.02
361.611	36.35
361.823	44.54
362.034	50.69
362.245	1.54
362.456	28.16
362.667	32.26
362.879	19.97
363.09	54.78
363.301	34.3
363.512	75.26
363.723	11.78
363.935	-2.56
364.146	62.98
364.357	11.78
364.568	67.07
364.779	-55.81
364.99	30.21
365.201	-53.76
365.412	67.07
365.623	-8.7
365.834	-33.28
366.045	-6.66
366.256	58.88
366.467	13.82
366.678	44.54
366.889	-18.94
367.1	22.02
367.311	-12.8
367.522	36.35
367.733	-12.8
367.944	93.69
368.155	-59.9
368.366	93.69
368.577	5.63
368.788	65.02
368.999	65.02
369.209	71.17
369.42	89.6
369.631	97.79
369.842	46.59
370.053	13.82
370.264	42.5
370.474	3.58
370.685	101.89
370.896	-20.99
371.107	163.33
371.317	28.16
371.528	17.92
371.739	91.65
371.95	67.07
372.16	-18.94
372.371	-2.56
372.582	62.98
372.792	26.11
373.003	15.87
373.214	50.69
373.424	40.45
373.635	26.11
373.846	50.69
374.056	46.59
374.267	3.58
374.477	77.31
374.688	13.82
374.898	5.63
375.109	24.06
375.319	36.35
375.53	19.97
375.74	87.55
375.951	34.3
376.161	44.54
376.372	-14.85
376.582	7.68
376.793	83.45
377.003	28.16
377.214	67.07
377.424	-57.86
377.635	60.93
377.845	-49.66
378.055	46.59
378.266	26.11
378.476	56.83
378.686	110.08
378.897	77.31
379.107	26.11
379.317	79.36
379.528	30.21
379.738	-12.8
379.948	-12.8
380.158	97.79
380.369	17.92
380.579	-12.8
380.789	91.65
380.999	58.88
381.21	36.35
381.42	83.45
381.63	73.21
381.84	42.5
382.05	17.92
382.261	99.84
382.471	50.69
382.681	67.07
382.891	30.21
383.101	103.93
383.311	9.73
383.521	65.02
383.731	108.03
383.941	87.55
384.151	9.73
384.361	26.11
384.571	69.12
384.781	26.11
384.991	67.07
385.201	58.88
385.411	60.93
385.621	22.02
385.831	9.73
386.041	50.69
386.251	56.83
386.461	81.41
386.671	28.16
386.881	116.22
387.091	132.61
387.301	19.97
387.511	19.97
387.72	42.5
387.93	-23.04
388.14	58.88
388.35	50.69
388.56	83.45
388.769	36.35
388.979	50.69
389.189	114.17
389.399	42.5
389.609	46.59
389.818	62.98
390.028	15.87
390.238	62.98
390.447	30.21
390.657	32.26
390.867	42.5
391.076	1.54
391.286	34.3
391.496	22.02
391.705	3.58
391.915	120.32
392.125	58.88
392.334	3.58
392.544	71.17
392.753	77.31
392.963	32.26
393.172	93.69
393.382	17.92
393.591	34.3
393.801	26.11
394.01	118.27
394.22	79.36
394.429	83.45
394.639	46.59
394.848	83.45
395.058	103.93
395.267	3.58
395.477	67.07
395.686	67.07
395.895	103.93
396.105	144.89
396.314	9.73
396.524	101.89
396.733	60.93
396.942	67.07
397.152	181.76
397.361	85.5
397.57	132.61
397.78	62.98
397.989	42.5
398.198	85.5
398.407	42.5
398.617	52.74
398.826	42.5
399.035	97.79
399.244	128.51
399.453	83.45
399.663	73.21
399.872	77.31
400.081	42.5
400.29	108.03
400.499	54.78
400.708	75.26
400.917	60.93
401.127	62.98
401.336	97.79
401.545	165.37
401.754	112.13
401.963	167.42
402.172	52.74
402.381	28.16
402.59	97.79
402.799	62.98
403.008	91.65
403.217	110.08
403.426	101.89
403.635	67.07
403.844	79.36
404.053	83.45
404.262	71.17
404.471	239.1
404.68	93.69
404.888	69.12
405.097	97.79
405.306	103.93
405.515	157.18
405.724	105.98
405.933	132.61
406.142	136.7
406.35	112.13
406.559	198.14
406.768	122.37
406.977	183.81
407.185	136.7
407.394	212.48
407.603	128.51
407.812	194.05
408.02	136.7
408.229	161.28
408.438	153.09
408.646	173.57
408.855	208.38
409.064	177.66
409.272	210.43
409.481	239.1
409.69	228.86
409.898	275.96
410.107	241.15
410.315	280.06
410.524	284.16
410.733	325.12
410.941	230.91
411.15	222.72
411.358	331.26
411.567	298.49
411.775	370.17
411.984	288.25
412.192	355.83
412.401	435.71
412.609	452.09
412.818	415.23
413.026	419.32
413.234	427.51
413.443	398.84
413.651	513.53
413.86	488.95
414.068	527.86
414.276	536.06
414.485	536.06
414.693	493.05
414.901	693.75
415.11	615.93
415.318	574.97
415.526	648.69
415.734	632.31
415.943	620.02
416.151	642.55
416.359	620.02
416.567	697.85
416.776	755.19
416.984	779.76
417.192	806.39
417.4	724.47
417.608	857.59
417.817	929.27
418.025	919.03
418.233	1064.43
418.441	880.11
418.649	998.9
418.857	1072.62
419.065	1068.53
419.273	1111.54
419.481	1226.22
419.689	1164.78
419.897	1181.17
420.105	1207.79
420.313	1248.75
420.521	1394.15
420.729	1353.2
420.937	1418.73
421.145	1474.03
421.353	1531.37
421.561	1500.65
421.769	1687.01
421.977	1670.63
422.185	1621.48
422.393	1826.28
422.601	1934.82
422.809	1947.11
423.017	1816.04
423.224	1910.24
423.432	2082.27
423.64	2018.79
423.848	2254.3
424.056	2098.66
424.263	2362.84
424.471	2313.69
424.679	2368.99
424.887	2409.95
425.094	2530.78
425.302	2674.14
425.51	2661.85
425.718	2926.04
425.925	2819.54
426.133	3012.05
426.341	3124.69
426.548	3247.57
426.756	3132.88
426.964	3247.57
427.171	3311.05
427.379	3521.99
427.586	3589.58
427.794	3808.71
428.001	3911.11
428.209	3982.79
428.417	4031.94
428.624	4206.02
428.832	4203.97
429.039	4187.58
429.247	4144.58
429.454	4556.22
429.662	5027.25
429.869	4527.55
430.076	5039.54
430.284	4761.02
430.491	5053.87
430.699	5414.32
430.906	5281.2
431.114	5393.84
431.321	5567.92
431.528	5582.25
431.736	6030.76
431.943	6344.1
432.15	6102.43
432.358	6180.26
432.565	6555.04
432.772	6364.57
432.979	6808.98
433.187	6884.76
433.394	6911.38
433.601	7423.37
433.808	7673.23
434.016	7251.35
434.223	7654.8
434.43	8324.48
434.637	8058.25
434.844	8676.73
435.052	8553.85
435.259	8492.41
435.466	8695.16
435.673	8512.89
435.88	9278.83
436.087	9768.3
436.294	9807.21
436.501	9446.77
436.708	9571.69
436.915	9823.59
437.122	10311.01
437.329	10450.27
437.537	10612.06
437.743	10853.72
437.95	10659.17
438.157	11316.56
438.364	11799.88
438.571	11855.18
438.778	11789.64
438.985	12946.75
439.192	12281.16
439.399	12508.48
439.606	12406.08
439.813	12922.17
440.02	13927.72
440.227	13612.34
440.433	13618.48
440.64	13976.87
440.847	14019.88
441.054	14300.45
441.261	15037.72
441.467	14947.61
441.674	15443.22
441.881	15861.01
442.088	15746.32
442.294	15664.4
442.501	15918.35
442.708	16329.99
442.914	16991.48
443.121	17933.55
443.328	17304.82
443.534	18509.03
443.741	17851.63
443.948	17509.62
444.154	18969.82
444.361	18988.25
444.568	19131.61
444.774	19082.46
444.981	19287.26
445.187	19559.64
445.394	20282.57
445.6	20329.67
445.807	22432.94
446.013	21486.78
446.22	21650.61
446.426	22539.43
446.633	22762.66
446.839	23342.24
447.046	22527.14
447.252	24042.64
447.459	23880.85
447.665	23710.87
447.871	24968.32
448.078	25875.57
448.284	24736.9
448.491	25527.42
448.697	26018.93
448.903	26762.34
449.11	27221.09
449.316	26651.75
449.522	26967.14
449.728	27651.16
449.935	27835.48
450.141	28077.14
450.347	28560.46
450.553	27810.9
450.76	28228.69
450.966	29013.06
451.172	28499.02
451.378	29604.92
451.584	28740.68
451.791	29688.89
451.997	29389.89
452.203	29883.45
452.409	29926.46
452.615	29639.74
452.821	28707.91
453.027	28658.76
453.233	29854.78
453.44	29047.88
453.646	29260.87
453.852	29324.35
454.058	29948.98
454.264	29117.51
454.47	29639.74
454.676	28828.74
454.882	29887.54
455.088	27264.1
455.294	27794.52
455.5	28464.21
455.705	28349.52
455.911	27450.46
456.117	26885.22
456.323	26336.37
456.529	25193.6
456.735	26596.46
456.941	25371.77
457.147	25334.91
457.352	24671.37
457.558	23958.67
457.764	24415.37
457.97	23544.98
458.176	23301.28
458.381	23323.8
458.587	22054.06
458.793	22070.45
458.999	21036.22
459.204	22498.47
459.41	21992.62
459.616	20405.45
459.821	20612.29
460.027	20593.86
460.233	20266.19
460.438	19248.35
460.644	19406.04
460.85	18476.26
461.055	18275.56
461.261	18134.25
461.466	16696.58
461.672	16164.11
461.878	17331.45
462.083	16090.38
462.289	16059.66
462.494	15678.74
462.7	15168.79
462.905	14658.85
463.111	15385.88
463.316	15394.07
463.522	15033.63
463.727	14923.04
463.932	15148.31
464.138	14824.73
464.343	14730.53
464.549	14515.49
464.754	14673.18
464.959	14662.94
465.165	14454.05
465.37	14028.07
465.575	13561.14
465.781	14116.14
465.986	14339.37
466.191	13903.15
466.397	13503.79
466.602	12696.89
466.807	13233.46
467.012	13313.33
467.218	13239.61
467.423	13307.19
467.628	13255.99
