Data from USB4F104151__35__14-42-52-504.txt Node

Date: Thu Mar 13 14:42:52 EDT 2025
User: louis
Spectrometer: USB4F10415
Trigger mode: 4
Integration Time (sec): 2.000000E-2
Scans to average: 1
Electric dark correction enabled: true
Nonlinearity correction enabled: false
Boxcar width: 0
XAxis mode: Wavelengths
Number of Pixels in Spectrum: 3648
>>>>>Begin Spectral Data<<<<<
178.204	-108.54
178.424	-108.54
178.644	-108.54
178.864	-118.78
179.084	-16.38
179.304	-26.62
179.524	-6.14
179.744	40.96
179.964	4.1
180.184	-18.43
180.404	12.29
180.624	-20.48
180.844	-18.43
181.064	-45.06
181.283	55.3
181.503	-32.77
181.723	55.3
181.943	-45.06
182.163	18.43
182.383	53.25
182.602	45.06
182.822	43.01
183.042	30.72
183.262	38.91
183.482	57.34
183.701	-38.91
183.921	20.48
184.141	-28.67
184.361	45.06
184.58	49.15
184.8	12.29
185.02	-20.48
185.239	10.24
185.459	20.48
185.679	20.48
185.898	14.34
186.118	92.16
186.338	12.29
186.557	77.82
186.777	-2.05
186.997	69.63
187.216	14.34
187.436	-2.05
187.655	65.54
187.875	20.48
188.095	16.38
188.314	30.72
188.534	30.72
188.753	63.49
188.973	43.01
189.192	55.3
189.412	61.44
189.631	12.29
189.851	59.39
190.07	22.53
190.29	4.1
190.509	26.62
190.729	28.67
190.948	53.25
191.168	153.6
191.387	102.4
191.607	32.77
191.826	20.48
192.045	32.77
192.265	53.25
192.484	30.72
192.704	2.05
192.923	51.2
193.142	122.88
193.362	0
193.581	65.54
193.8	24.58
194.02	53.25
194.239	24.58
194.458	12.29
194.678	28.67
194.897	4.1
195.116	-16.38
195.335	30.72
195.555	4.1
195.774	30.72
195.993	30.72
196.212	34.82
196.432	81.92
196.651	14.34
196.87	38.91
197.089	53.25
197.308	36.86
197.528	30.72
197.747	47.1
197.966	-26.62
198.185	28.67
198.404	20.48
198.623	-18.43
198.842	-12.29
199.062	28.67
199.281	102.4
199.5	14.34
199.719	32.77
199.938	57.34
200.157	6.14
200.376	71.68
200.595	120.83
200.814	75.77
201.033	28.67
201.252	67.58
201.471	47.1
201.69	38.91
201.909	104.45
202.128	79.87
202.347	22.53
202.566	-10.24
202.785	22.53
203.004	0
203.223	133.12
203.442	8.19
203.661	69.63
203.879	16.38
204.098	28.67
204.317	-6.14
204.536	73.73
204.755	36.86
204.974	28.67
205.193	2.05
205.411	118.78
205.63	47.1
205.849	98.3
206.068	-38.91
206.287	30.72
206.505	4.1
206.724	-45.06
206.943	-10.24
207.162	8.19
207.381	45.06
207.599	86.01
207.818	47.1
208.037	-24.58
208.255	88.06
208.474	2.05
208.693	40.96
208.911	-63.49
209.13	53.25
209.349	55.3
209.567	45.06
209.786	6.14
210.005	55.3
210.223	55.3
210.442	-4.1
210.661	75.77
210.879	14.34
211.098	4.1
211.316	-24.58
211.535	24.58
211.753	65.54
211.972	98.3
212.191	-2.05
212.409	-51.2
212.628	94.21
212.846	79.87
213.065	79.87
213.283	104.45
213.502	79.87
213.72	98.3
213.938	32.77
214.157	61.44
214.375	92.16
214.594	-16.38
214.812	-20.48
215.031	96.25
215.249	57.34
215.467	28.67
215.686	59.39
215.904	73.73
216.122	40.96
216.341	102.4
216.559	6.14
216.778	30.72
216.996	28.67
217.214	49.15
217.432	14.34
217.651	36.86
217.869	-69.63
218.087	65.54
218.306	-8.19
218.524	14.34
218.742	-36.86
218.96	53.25
219.179	-12.29
219.397	26.62
219.615	110.59
219.833	-59.39
220.051	-4.1
220.27	38.91
220.488	147.45
220.706	20.48
220.924	-77.82
221.142	-10.24
221.36	51.2
221.578	8.19
221.796	47.1
222.015	100.35
222.233	14.34
222.451	49.15
222.669	4.1
222.887	47.1
223.105	-4.1
223.323	73.73
223.541	-43.01
223.759	36.86
223.977	22.53
224.195	65.54
224.413	47.1
224.631	71.68
224.849	38.91
225.067	61.44
225.285	-18.43
225.503	53.25
225.721	4.1
225.939	20.48
226.157	55.3
226.375	75.77
226.592	71.68
226.81	12.29
227.028	77.82
227.246	32.77
227.464	18.43
227.682	20.48
227.9	4.1
228.117	59.39
228.335	36.86
228.553	45.06
228.771	59.39
228.989	20.48
229.206	126.97
229.424	-2.05
229.642	-6.14
229.86	-4.1
230.077	34.82
230.295	67.58
230.513	14.34
230.731	-86.01
230.948	92.16
231.166	79.87
231.384	98.3
231.601	-36.86
231.819	102.4
232.037	4.1
232.254	-18.43
232.472	63.49
232.689	8.19
232.907	-8.19
233.125	20.48
233.342	14.34
233.56	-28.67
233.777	26.62
233.995	4.1
234.213	14.34
234.43	-75.77
234.648	-4.1
234.865	-4.1
235.083	118.78
235.3	40.96
235.518	-22.53
235.735	49.15
235.953	69.63
236.17	-51.2
236.388	-43.01
236.605	-16.38
236.822	57.34
237.04	118.78
237.257	-4.1
237.475	28.67
237.692	86.01
237.909	88.06
238.127	-20.48
238.344	8.19
238.562	53.25
238.779	4.1
238.996	-32.77
239.214	12.29
239.431	53.25
239.648	12.29
239.865	102.4
240.083	79.87
240.3	43.01
240.517	16.38
240.735	-16.38
240.952	8.19
241.169	30.72
241.386	30.72
241.603	28.67
241.821	36.86
242.038	94.21
242.255	-34.82
242.472	-73.73
242.689	18.43
242.907	63.49
243.124	67.58
243.341	32.77
243.558	2.05
243.775	26.62
243.992	49.15
244.209	38.91
244.426	61.44
244.643	20.48
244.86	-22.53
245.078	53.25
245.295	73.73
245.512	45.06
245.729	-12.29
245.946	96.25
246.163	32.77
246.38	20.48
246.597	47.1
246.814	49.15
247.031	30.72
247.248	110.59
247.464	24.58
247.681	-34.82
247.898	124.93
248.115	28.67
248.332	40.96
248.549	36.86
248.766	36.86
248.983	38.91
249.2	90.11
249.417	69.63
249.633	45.06
249.85	77.82
250.067	-8.19
250.284	51.2
250.501	-12.29
250.717	79.87
250.934	16.38
251.151	8.19
251.368	18.43
251.585	34.82
251.801	6.14
252.018	-40.96
252.235	-10.24
252.451	-26.62
252.668	-61.44
252.885	16.38
253.102	-10.24
253.318	47.1
253.535	-61.44
253.752	34.82
253.968	40.96
254.185	88.06
254.401	-16.38
254.618	69.63
254.835	8.19
255.051	81.92
255.268	65.54
255.484	81.92
255.701	-18.43
255.917	40.96
256.134	-4.1
256.351	38.91
256.567	6.14
256.784	-26.62
257	20.48
257.217	32.77
257.433	94.21
257.65	57.34
257.866	47.1
258.082	-24.58
258.299	79.87
258.515	143.36
258.732	12.29
258.948	-16.38
259.165	6.14
259.381	-4.1
259.597	69.63
259.814	63.49
260.03	-4.1
260.246	22.53
260.463	53.25
260.679	-10.24
260.895	36.86
261.112	28.67
261.328	8.19
261.544	-36.86
261.761	86.01
261.977	-2.05
262.193	-12.29
262.409	63.49
262.626	51.2
262.842	45.06
263.058	-26.62
263.274	45.06
263.49	-24.58
263.707	43.01
263.923	26.62
264.139	28.67
264.355	118.78
264.571	71.68
264.787	-18.43
265.004	53.25
265.22	63.49
265.436	14.34
265.652	-4.1
265.868	61.44
266.084	-18.43
266.3	40.96
266.516	22.53
266.732	65.54
266.948	28.67
267.164	8.19
267.38	86.01
267.596	-8.19
267.812	71.68
268.028	28.67
268.244	22.53
268.46	12.29
268.676	28.67
268.892	67.58
269.108	-8.19
269.324	45.06
269.54	2.05
269.756	36.86
269.972	24.58
270.188	53.25
270.403	-30.72
270.619	-8.19
270.835	32.77
271.051	-53.25
271.267	45.06
271.483	-10.24
271.698	126.97
271.914	53.25
272.13	106.49
272.346	-18.43
272.562	59.39
272.777	94.21
272.993	26.62
273.209	73.73
273.425	0
273.64	36.86
273.856	110.59
274.072	24.58
274.287	-16.38
274.503	88.06
274.719	-12.29
274.934	4.1
275.15	20.48
275.366	61.44
275.581	63.49
275.797	6.14
276.012	28.67
276.228	28.67
276.444	47.1
276.659	94.21
276.875	-43.01
277.09	55.3
277.306	45.06
277.521	45.06
277.737	24.58
277.952	112.64
278.168	18.43
278.383	88.06
278.599	45.06
278.814	77.82
279.03	36.86
279.245	94.21
279.461	14.34
279.676	69.63
279.892	86.01
280.107	4.1
280.322	28.67
280.538	102.4
280.753	36.86
280.969	73.73
281.184	-8.19
281.399	-4.1
281.615	71.68
281.83	55.3
282.045	18.43
282.26	6.14
282.476	-55.3
282.691	90.11
282.906	63.49
283.122	94.21
283.337	32.77
283.552	79.87
283.767	55.3
283.983	20.48
284.198	32.77
284.413	102.4
284.628	-94.21
284.843	77.82
285.058	57.34
285.274	88.06
285.489	40.96
285.704	86.01
285.919	22.53
286.134	81.92
286.349	28.67
286.564	-4.1
286.779	116.73
286.995	14.34
287.21	53.25
287.425	14.34
287.64	16.38
287.855	16.38
288.07	24.58
288.285	110.59
288.5	36.86
288.715	-18.43
288.93	53.25
289.145	45.06
289.36	69.63
289.575	4.1
289.79	55.3
290.004	28.67
290.219	79.87
290.434	16.38
290.649	51.2
290.864	-67.58
291.079	10.24
291.294	77.82
291.509	40.96
291.724	2.05
291.938	20.48
292.153	-10.24
292.368	75.77
292.583	-20.48
292.798	32.77
293.012	18.43
293.227	77.82
293.442	22.53
293.657	137.21
293.871	49.15
294.086	55.3
294.301	135.17
294.516	86.01
294.73	-2.05
294.945	22.53
295.16	-26.62
295.374	108.54
295.589	69.63
295.804	36.86
296.018	45.06
296.233	22.53
296.447	38.91
296.662	45.06
296.877	55.3
297.091	-16.38
297.306	8.19
297.52	47.1
297.735	28.67
297.949	57.34
298.164	88.06
298.378	-49.15
298.593	-75.77
298.807	-40.96
299.022	40.96
299.236	67.58
299.451	-12.29
299.665	12.29
299.88	28.67
300.094	16.38
300.309	40.96
300.523	32.77
300.737	16.38
300.952	65.54
301.166	6.14
301.381	71.68
301.595	36.86
301.809	53.25
302.024	30.72
302.238	12.29
302.452	71.68
302.667	-45.06
302.881	49.15
303.095	57.34
303.309	57.34
303.524	22.53
303.738	90.11
303.952	4.1
304.166	126.97
304.381	-22.53
304.595	16.38
304.809	-12.29
305.023	28.67
305.237	22.53
305.452	-24.58
305.666	57.34
305.88	57.34
306.094	-61.44
306.308	69.63
306.522	61.44
306.736	63.49
306.95	61.44
307.164	102.4
307.379	18.43
307.593	94.21
307.807	69.63
308.021	-2.05
308.235	110.59
308.449	28.67
308.663	69.63
308.877	194.56
309.091	77.82
309.305	45.06
309.519	6.14
309.733	53.25
309.947	45.06
310.161	77.82
310.374	73.73
310.588	106.49
310.802	-40.96
311.016	53.25
311.23	36.86
311.444	47.1
311.658	4.1
311.872	110.59
312.085	83.97
312.299	112.64
312.513	-8.19
312.727	94.21
312.941	28.67
313.154	-20.48
313.368	40.96
313.582	53.25
313.796	36.86
314.009	26.62
314.223	47.1
314.437	36.86
314.651	49.15
314.864	-18.43
315.078	38.91
315.292	30.72
315.505	24.58
315.719	4.1
315.933	-26.62
316.146	4.1
316.36	-8.19
316.573	71.68
316.787	61.44
317.001	24.58
317.214	45.06
317.428	26.62
317.641	-20.48
317.855	-4.1
318.068	20.48
318.282	36.86
318.495	114.69
318.709	135.17
318.922	16.38
319.136	53.25
319.349	6.14
319.563	61.44
319.776	24.58
319.99	-12.29
320.203	63.49
320.417	110.59
320.63	-4.1
320.843	114.69
321.057	57.34
321.27	77.82
321.483	61.44
321.697	79.87
321.91	26.62
322.124	-26.62
322.337	16.38
322.55	8.19
322.763	26.62
322.977	53.25
323.19	49.15
323.403	81.92
323.617	79.87
323.83	22.53
324.043	40.96
324.256	98.3
324.469	-51.2
324.683	71.68
324.896	38.91
325.109	61.44
325.322	-28.67
325.535	120.83
325.748	20.48
325.962	45.06
326.175	-8.19
326.388	63.49
326.601	18.43
326.814	79.87
327.027	83.97
327.24	86.01
327.453	-4.1
327.666	38.91
327.879	86.01
328.092	28.67
328.305	40.96
328.518	-24.58
328.731	18.43
328.944	32.77
329.157	6.14
329.37	53.25
329.583	81.92
329.796	137.21
330.009	-26.62
330.222	38.91
330.435	36.86
330.648	71.68
330.861	-8.19
331.073	6.14
331.286	38.91
331.499	86.01
331.712	-12.29
331.925	6.14
332.138	45.06
332.35	73.73
332.563	-12.29
332.776	36.86
332.989	6.14
333.202	100.35
333.414	36.86
333.627	24.58
333.84	61.44
334.053	34.82
334.265	53.25
334.478	22.53
334.691	106.49
334.903	92.16
335.116	26.62
335.329	55.3
335.541	90.11
335.754	65.54
335.966	28.67
336.179	20.48
336.392	-20.48
336.604	49.15
336.817	43.01
337.029	20.48
337.242	55.3
337.454	32.77
337.667	55.3
337.88	65.54
338.092	102.4
338.305	77.82
338.517	-77.82
338.729	94.21
338.942	0
339.154	-2.05
339.367	-38.91
339.579	-4.1
339.792	4.1
340.004	36.86
340.217	-40.96
340.429	-26.62
340.641	12.29
340.854	51.2
341.066	30.72
341.278	22.53
341.491	6.14
341.703	36.86
341.915	0
342.128	49.15
342.34	61.44
342.552	4.1
342.764	4.1
342.977	14.34
343.189	12.29
343.401	-65.53
343.613	-45.06
343.826	77.82
344.038	12.29
344.25	53.25
344.462	90.11
344.674	38.91
344.886	-18.43
345.099	55.3
345.311	86.01
345.523	6.14
345.735	16.38
345.947	69.63
346.159	20.48
346.371	-6.14
346.583	-28.67
346.795	110.59
347.007	24.58
347.219	77.82
347.431	32.77
347.643	135.17
347.855	36.86
348.067	94.21
348.279	-20.48
348.491	47.1
348.703	69.63
348.915	26.62
349.127	-4.1
349.339	28.67
349.551	22.53
349.763	30.72
349.975	96.25
350.187	-8.19
350.399	36.86
350.61	86.01
350.822	6.14
351.034	79.87
351.246	61.44
351.458	73.73
351.669	126.97
351.881	110.59
352.093	36.86
352.305	69.63
352.517	71.68
352.728	14.34
352.94	6.14
353.152	14.34
353.363	77.82
353.575	59.39
353.787	86.01
353.999	28.67
354.21	69.63
354.422	61.44
354.633	65.54
354.845	69.63
355.057	86.01
355.268	14.34
355.48	79.87
355.692	36.86
355.903	28.67
356.115	20.48
356.326	4.1
356.538	94.21
356.749	61.44
356.961	129.02
357.172	-34.82
357.384	20.48
357.595	63.49
357.807	12.29
358.018	-40.96
358.23	94.21
358.441	174.08
358.653	63.49
358.864	12.29
359.075	-4.1
359.287	98.3
359.498	49.15
359.709	57.34
359.921	86.01
360.132	94.21
360.344	22.53
360.555	6.14
360.766	30.72
360.977	-28.67
361.189	38.91
361.4	22.53
361.611	14.34
361.823	49.15
362.034	-2.05
362.245	-49.15
362.456	61.44
362.667	4.1
362.879	-4.1
363.09	36.86
363.301	55.3
363.512	36.86
363.723	32.77
363.935	36.86
364.146	102.4
364.357	38.91
364.568	38.91
364.779	61.44
364.99	98.3
365.201	65.54
365.412	112.64
365.623	-4.1
365.834	81.92
366.045	61.44
366.256	20.48
366.467	104.45
366.678	16.38
366.889	55.3
367.1	38.91
367.311	90.11
367.522	102.4
367.733	51.2
367.944	129.02
368.155	61.44
368.366	36.86
368.577	53.25
368.788	106.49
368.999	47.1
369.209	4.1
369.42	137.21
369.631	79.87
369.842	20.48
370.053	71.68
370.264	126.97
370.474	-20.48
370.685	-43.01
370.896	8.19
371.107	104.45
371.317	88.06
371.528	53.25
371.739	20.48
371.95	88.06
372.16	102.4
372.371	28.67
372.582	45.06
372.792	26.62
373.003	20.48
373.214	49.15
373.424	2.05
373.635	24.58
373.846	-4.1
374.056	-34.82
374.267	81.92
374.477	90.11
374.688	149.5
374.898	-2.05
375.109	47.1
375.319	28.67
375.53	139.26
375.74	-26.62
375.951	16.38
376.161	65.54
376.372	61.44
376.582	-14.34
376.793	61.44
377.003	38.91
377.214	32.77
377.424	79.87
377.635	8.19
377.845	34.82
378.055	14.34
378.266	57.34
378.476	143.36
378.686	20.48
378.897	-10.24
379.107	137.21
379.317	53.25
379.528	20.48
379.738	88.06
379.948	55.3
380.158	90.11
380.369	53.25
380.579	86.01
380.789	61.44
380.999	36.86
381.21	49.15
381.42	135.17
381.63	81.92
381.84	4.1
382.05	49.15
382.261	88.06
382.471	98.3
382.681	34.82
382.891	77.82
383.101	69.63
383.311	-14.34
383.521	12.29
383.731	43.01
383.941	98.3
384.151	2.05
384.361	32.77
384.571	71.68
384.781	77.82
384.991	159.74
385.201	126.97
385.411	38.91
385.621	22.53
385.831	57.34
386.041	110.59
386.251	120.83
386.461	69.63
386.671	34.82
386.881	-4.1
387.091	36.86
387.301	69.63
387.511	118.78
387.72	57.34
387.93	102.4
388.14	47.1
388.35	30.72
388.56	90.11
388.769	129.02
388.979	61.44
389.189	-6.14
389.399	69.63
389.609	65.54
389.818	161.79
390.028	38.91
390.238	96.25
390.447	-12.29
390.657	102.4
390.867	-8.19
391.076	14.34
391.286	63.49
391.496	55.3
391.705	26.62
391.915	143.36
392.125	98.3
392.334	102.4
392.544	112.64
392.753	65.54
392.963	-4.1
393.172	45.06
393.382	16.38
393.591	57.34
393.801	79.87
394.01	122.88
394.22	110.59
394.429	38.91
394.639	172.03
394.848	38.91
395.058	112.64
395.267	30.72
395.477	47.1
395.686	86.01
395.895	137.21
396.105	126.97
396.314	88.06
396.524	79.87
396.733	112.64
396.942	102.4
397.152	55.3
397.361	129.02
397.57	131.07
397.78	126.97
397.989	176.13
398.198	137.21
398.407	126.97
398.617	96.25
398.826	49.15
399.035	73.73
399.244	65.54
399.453	104.45
399.663	94.21
399.872	143.36
400.081	81.92
400.29	143.36
400.499	86.01
400.708	69.63
400.917	135.17
401.127	61.44
401.336	98.3
401.545	190.46
401.754	122.88
401.963	96.25
402.172	139.26
402.381	86.01
402.59	92.16
402.799	45.06
403.008	145.41
403.217	131.07
403.426	116.73
403.635	135.17
403.844	71.68
404.053	151.55
404.262	122.88
404.471	112.64
404.68	182.27
404.888	129.02
405.097	126.97
405.306	204.8
405.515	159.74
405.724	139.26
405.933	157.69
406.142	163.84
406.35	194.56
406.559	104.45
406.768	65.54
406.977	212.99
407.185	192.51
407.394	143.36
407.603	204.8
407.812	233.47
408.02	237.56
408.229	169.98
408.438	184.32
408.646	163.84
408.855	196.61
409.064	190.46
409.272	241.66
409.481	268.28
409.69	212.99
409.898	225.28
410.107	262.14
410.315	284.67
410.524	253.95
410.733	292.86
410.941	258.04
411.15	323.58
411.358	380.92
411.567	335.87
411.775	405.5
411.984	325.63
412.192	356.35
412.401	397.31
412.609	360.44
412.818	503.8
413.026	407.55
413.234	514.04
413.443	413.69
413.651	440.31
413.86	471.03
414.068	616.44
414.276	638.97
414.485	581.62
414.693	563.19
414.901	673.78
415.11	610.29
415.318	622.58
415.526	645.11
415.734	696.31
415.943	661.49
416.151	739.32
416.359	780.28
416.567	770.04
416.776	823.28
416.984	829.43
417.192	907.25
417.4	796.66
417.608	866.29
417.817	858.1
418.025	917.49
418.233	1052.66
418.441	874.48
418.649	1036.27
418.857	1112.05
419.065	1216.49
419.273	1087.47
419.481	1112.05
419.689	1318.89
419.897	1253.36
420.105	1343.47
420.313	1322.99
420.521	1314.8
420.729	1462.25
420.937	1490.92
421.145	1538.02
421.353	1605.61
421.561	1720.29
421.769	1671.14
421.977	1808.36
422.185	1759.21
422.393	1957.86
422.601	1980.39
422.809	2029.54
423.017	2002.91
423.224	2039.78
423.432	2250.72
423.64	2136.03
423.848	2355.16
424.056	2224.09
424.263	2437.08
424.471	2430.94
424.679	2633.69
424.887	2740.18
425.094	2754.52
425.302	2740.18
425.51	2889.68
425.718	2879.44
425.925	2981.84
426.133	3133.39
426.341	3260.37
426.548	3420.11
426.756	3373
426.964	3422.16
427.171	3534.79
427.379	3626.95
427.586	3876.8
427.794	3848.13
428.001	4235.2
428.209	4255.68
428.417	4245.44
428.624	4476.86
428.832	4562.87
429.039	4448.19
429.247	4534.2
429.454	4935.6
429.662	5156.79
429.869	4976.56
430.076	5230.51
430.284	5091.25
430.491	5265.33
430.699	5619.63
430.906	5672.87
431.114	5805.99
431.321	5713.83
431.528	5978.02
431.736	6344.61
431.943	6694.81
432.15	6412.19
432.358	6483.87
432.565	6915.99
432.772	6754.2
432.979	7219.09
433.187	7262.1
433.394	7489.42
433.601	7677.83
433.808	7817.1
434.016	7907.21
434.223	7976.84
434.43	8624
434.637	8564.61
434.844	9049.97
435.052	9240.44
435.259	9150.32
435.466	9285.49
435.673	9060.21
435.88	9617.26
436.087	10188.64
436.294	10164.07
436.501	9932.65
436.708	10014.57
436.915	10344.29
437.122	11081.56
437.329	10966.87
437.537	11306.84
437.743	11353.94
437.95	11229.01
438.157	11900.75
438.364	12349.25
438.571	12494.66
438.778	12435.27
438.985	13592.37
439.192	13084.47
439.399	13340.47
439.606	12977.98
439.813	13889.32
440.02	14489.38
440.227	14407.46
440.433	14681.89
440.64	14720.8
440.847	14495.52
441.054	15128.35
441.261	15961.87
441.467	15781.65
441.674	16070.41
441.881	16795.39
442.088	16758.53
442.294	16506.63
442.501	17078.01
442.708	17155.83
442.914	17960.69
443.121	18687.71
443.328	18155.24
443.534	19537.62
443.741	18947.81
443.948	18779.87
444.154	20238.03
444.361	20076.24
444.568	20070.09
444.774	20092.62
444.981	20479.69
445.187	21001.92
445.394	22021.81
445.6	21642.93
445.807	23672.47
446.013	22572.71
446.22	22810.28
446.426	23703.19
446.633	24293.01
446.839	25036.42
447.046	23824.02
447.252	25200.26
447.459	24948.36
447.665	25214.59
447.871	26338.93
448.078	27350.62
448.284	26058.35
448.491	26762.86
448.697	27502.17
448.903	28552.78
449.11	28657.23
449.316	27719.26
449.522	28513.87
449.728	29193.79
449.935	29414.98
450.141	29728.31
450.347	30068.28
450.553	29460.03
450.76	29376.06
450.966	30262.83
451.172	30381.62
451.378	31163.94
451.584	30287.41
451.791	31262.24
451.997	31127.08
452.203	31731.23
452.409	31677.98
452.615	31850.01
452.821	30221.87
453.027	29750.84
453.233	31860.25
453.44	30330.42
453.646	30719.53
453.852	30879.27
454.058	31536.67
454.264	30441.01
454.47	31313.44
454.676	30170.68
454.882	31268.39
455.088	28546.64
455.294	28974.66
455.5	29726.27
455.705	29892.15
455.911	28579.4
456.117	28051.03
456.323	28259.92
456.529	26674.79
456.735	27577.95
456.941	26900.07
457.147	26308.21
457.352	25560.7
457.558	25489.02
457.764	25689.72
457.97	25155.2
458.176	24579.72
458.381	24503.95
458.587	23154.33
458.793	23529.11
458.999	22249.13
459.204	23776.92
459.41	23101.09
459.616	21774
459.821	21546.68
460.027	21409.47
460.233	20963.01
460.438	20020.94
460.644	20192.97
460.85	19341.02
461.055	18910.94
461.261	19316.44
461.466	17694.45
461.672	16901.89
461.878	18165.48
462.083	17047.29
462.289	16758.53
462.494	16752.38
462.7	16174.86
462.905	15666.96
463.111	15900.43
463.316	16043.79
463.522	15605.52
463.727	15552.27
463.932	15675.15
464.138	15363.86
464.343	15572.75
464.549	15322.9
464.754	15400.72
464.959	15476.5
465.165	15154.97
465.37	14556.96
465.575	14429.99
465.781	14896.92
465.986	14700.32
466.191	14311.21
466.397	14313.25
466.602	13668.14
466.807	13991.72
467.012	14036.78
467.218	13891.37
467.423	13592.37
467.628	13647.66
467.833	14284.58
468.038	13711.15
