Data from USB4F104151__33__14-42-50-365.txt Node

Date: Thu Mar 13 14:42:50 EDT 2025
User: louis
Spectrometer: USB4F10415
Trigger mode: 4
Integration Time (sec): 2.000000E-2
Scans to average: 1
Electric dark correction enabled: true
Nonlinearity correction enabled: false
Boxcar width: 0
XAxis mode: Wavelengths
Number of Pixels in Spectrum: 3648
>>>>>Begin Spectral Data<<<<<
178.204	-122.71
178.424	-122.71
178.644	-122.71
178.864	-132.95
179.084	-112.47
179.304	-18.26
179.524	39.08
179.744	49.32
179.964	0.17
180.184	22.7
180.404	-34.64
180.624	57.51
180.844	-53.08
181.064	-59.22
181.283	-5.97
181.503	-36.69
181.723	39.08
181.943	-18.26
182.163	41.13
182.383	22.7
182.602	71.85
182.822	6.31
183.042	22.7
183.262	2.22
183.482	24.75
183.701	-55.12
183.921	63.66
184.141	-5.97
184.361	63.66
184.58	14.51
184.8	8.36
185.02	6.31
185.239	77.99
185.459	30.89
185.679	6.31
185.898	16.55
186.118	37.03
186.338	2.22
186.557	-1.88
186.777	-16.21
186.997	-18.26
187.216	-22.36
187.436	69.8
187.655	8.36
187.875	39.08
188.095	-20.31
188.314	-8.02
188.534	32.94
188.753	63.66
188.973	96.43
189.192	49.32
189.412	39.08
189.631	32.94
189.851	-40.79
190.07	24.75
190.29	-18.26
190.509	45.23
190.729	18.6
190.948	90.28
191.168	71.85
191.387	32.94
191.607	55.47
191.826	16.55
192.045	75.95
192.265	-59.22
192.484	47.27
192.704	-18.26
192.923	-40.79
193.142	67.75
193.362	-32.6
193.581	6.31
193.8	2.22
194.02	8.36
194.239	47.27
194.458	-1.88
194.678	-34.64
194.897	-34.64
195.116	30.89
195.335	16.55
195.555	96.43
195.774	26.79
195.993	24.75
196.212	-55.12
196.432	73.9
196.651	-12.12
196.87	-18.26
197.089	47.27
197.308	92.33
197.528	63.66
197.747	22.7
197.966	-16.21
198.185	73.9
198.404	20.65
198.623	32.94
198.842	20.65
199.062	57.51
199.281	71.85
199.5	-63.32
199.719	-67.41
199.938	-51.03
200.157	-1.88
200.376	0.17
200.595	100.52
200.814	18.6
201.033	-1.88
201.252	-34.64
201.471	16.55
201.69	6.31
201.909	30.89
202.128	-51.03
202.347	-1.88
202.566	41.13
202.785	-106.32
203.004	20.65
203.223	59.56
203.442	26.79
203.661	22.7
203.879	4.27
204.098	-34.64
204.317	-40.79
204.536	12.46
204.755	123.05
204.974	20.65
205.193	-1.88
205.411	65.71
205.63	0.17
205.849	-16.21
206.068	8.36
206.287	22.7
206.505	26.79
206.724	16.55
206.943	-10.07
207.162	59.56
207.381	41.13
207.599	-26.45
207.818	4.27
208.037	32.94
208.255	65.71
208.474	22.7
208.693	14.51
208.911	8.36
209.13	22.7
209.349	57.51
209.567	-26.45
209.786	88.23
210.005	55.47
210.223	2.22
210.442	-42.84
210.661	14.51
210.879	61.61
211.098	2.22
211.316	-1.88
211.535	69.8
211.753	6.31
211.972	-24.4
212.191	49.32
212.409	18.6
212.628	10.41
212.846	-28.5
213.065	43.18
213.283	88.23
213.502	-1.88
213.72	-1.88
213.938	16.55
214.157	2.22
214.375	49.32
214.594	6.31
214.812	37.03
215.031	12.46
215.249	-55.12
215.467	0.17
215.686	-30.55
215.904	114.86
216.122	-34.64
216.341	63.66
216.559	32.94
216.778	49.32
216.996	16.55
217.214	24.75
217.432	20.65
217.651	-18.26
217.869	18.6
218.087	47.27
218.306	6.31
218.524	22.7
218.742	4.27
218.96	-14.17
219.179	30.89
219.397	-8.02
219.615	41.13
219.833	-34.64
220.051	47.27
220.27	57.51
220.488	67.75
220.706	108.71
220.924	34.99
221.142	39.08
221.36	55.47
221.578	-22.36
221.796	94.38
222.015	-42.84
222.233	43.18
222.451	18.6
222.669	-5.97
222.887	16.55
223.105	18.6
223.323	30.89
223.541	-14.17
223.759	47.27
223.977	34.99
224.195	88.23
224.413	43.18
224.631	-30.55
224.849	-26.45
225.067	90.28
225.285	18.6
225.503	-26.45
225.721	-28.5
225.939	24.75
226.157	34.99
226.375	94.38
226.592	18.6
226.81	24.75
227.028	67.75
227.246	55.47
227.464	59.56
227.682	43.18
227.9	20.65
228.117	104.62
228.335	18.6
228.553	4.27
228.771	18.6
228.989	39.08
229.206	34.99
229.424	49.32
229.642	-26.45
229.86	10.41
230.077	10.41
230.295	0.17
230.513	14.51
230.731	22.7
230.948	32.94
231.166	-24.4
231.384	47.27
231.601	-30.55
231.819	-8.02
232.037	-26.45
232.254	-63.32
232.472	49.32
232.689	22.7
232.907	73.9
233.125	43.18
233.342	-30.55
233.56	-10.07
233.777	71.85
233.995	63.66
234.213	30.89
234.43	41.13
234.648	-18.26
234.865	37.03
235.083	-44.88
235.3	-57.17
235.518	90.28
235.735	65.71
235.953	88.23
236.17	49.32
236.388	96.43
236.605	30.89
236.822	53.42
237.04	-3.93
237.257	6.31
237.475	-26.45
237.692	73.9
237.909	77.99
238.127	18.6
238.344	6.31
238.562	2.22
238.779	6.31
238.996	6.31
239.214	47.27
239.431	14.51
239.648	26.79
239.865	51.37
240.083	-26.45
240.3	8.36
240.517	-1.88
240.735	22.7
240.952	86.19
241.169	41.13
241.386	92.33
241.603	-14.17
241.821	14.51
242.038	129.19
242.255	102.57
242.472	-10.07
242.689	14.51
242.907	-10.07
243.124	49.32
243.341	-48.98
243.558	-22.36
243.775	-1.88
243.992	-42.84
244.209	30.89
244.426	-28.5
244.643	92.33
244.86	57.51
245.078	51.37
245.295	14.51
245.512	-10.07
245.729	-1.88
245.946	14.51
246.163	4.27
246.38	2.22
246.597	47.27
246.814	47.27
247.031	-10.07
247.248	-24.4
247.464	32.94
247.681	18.6
247.898	-18.26
248.115	0.17
248.332	47.27
248.549	88.23
248.766	133.29
248.983	-1.88
249.2	71.85
249.417	88.23
249.633	22.7
249.85	71.85
250.067	-26.45
250.284	20.65
250.501	47.27
250.717	22.7
250.934	-5.97
251.151	47.27
251.368	10.41
251.585	39.08
251.801	77.99
252.018	-16.21
252.235	41.13
252.451	-51.03
252.668	39.08
252.885	75.95
253.102	-5.97
253.318	-79.7
253.535	-34.64
253.752	88.23
253.968	57.51
254.185	-46.93
254.401	18.6
254.618	-16.21
254.835	-34.64
255.051	22.7
255.268	51.37
255.484	-1.88
255.701	26.79
255.917	-1.88
256.134	-14.17
256.351	-16.21
256.567	-32.6
256.784	24.75
257	6.31
257.217	96.43
257.433	0.17
257.65	71.85
257.866	49.32
258.082	-57.17
258.299	-30.55
258.515	63.66
258.732	-34.64
258.948	71.85
259.165	14.51
259.381	-51.03
259.597	61.61
259.814	-51.03
260.03	39.08
260.246	-8.02
260.463	43.18
260.679	82.09
260.895	-8.02
261.112	6.31
261.328	-51.03
261.544	82.09
261.761	125.1
261.977	43.18
262.193	2.22
262.409	73.9
262.626	51.37
262.842	104.62
263.058	-18.26
263.274	10.41
263.49	-8.02
263.707	80.04
263.923	-5.97
264.139	10.41
264.355	39.08
264.571	55.47
264.787	18.6
265.004	80.04
265.22	-14.17
265.436	41.13
265.652	82.09
265.868	30.89
266.084	-16.21
266.3	63.66
266.516	30.89
266.732	34.99
266.948	16.55
267.164	-22.36
267.38	24.75
267.596	47.27
267.812	39.08
268.028	14.51
268.244	43.18
268.46	47.27
268.676	32.94
268.892	41.13
269.108	-10.07
269.324	39.08
269.54	-46.93
269.756	28.84
269.972	-14.17
270.188	16.55
270.403	-28.5
270.619	47.27
270.835	94.38
271.051	55.47
271.267	-20.31
271.483	30.89
271.698	39.08
271.914	-44.88
272.13	-8.02
272.346	-18.26
272.562	14.51
272.777	-24.4
272.993	-51.03
273.209	-46.93
273.425	41.13
273.64	2.22
273.856	41.13
274.072	0.17
274.287	30.89
274.503	37.03
274.719	55.47
274.934	47.27
275.15	2.22
275.366	12.46
275.581	6.31
275.797	47.27
276.012	-10.07
276.228	80.04
276.444	12.46
276.659	8.36
276.875	-14.17
277.09	53.42
277.306	-32.6
277.521	-34.64
277.737	30.89
277.952	6.31
278.168	65.71
278.383	34.99
278.599	-3.93
278.814	-1.88
279.03	-3.93
279.245	26.79
279.461	39.08
279.676	84.14
279.892	-34.64
280.107	30.89
280.322	-3.93
280.538	22.7
280.753	22.7
280.969	0.17
281.184	86.19
281.399	12.46
281.615	30.89
281.83	121
282.045	-57.17
282.26	59.56
282.476	63.66
282.691	45.23
282.906	39.08
283.122	30.89
283.337	28.84
283.552	20.65
283.767	4.27
283.983	73.9
284.198	28.84
284.413	73.9
284.628	-1.88
284.843	24.75
285.058	61.61
285.274	16.55
285.489	59.56
285.704	82.09
285.919	-3.93
286.134	26.79
286.349	-38.74
286.564	-51.03
286.779	51.37
286.995	82.09
287.21	-34.64
287.425	65.71
287.64	-24.4
287.855	-18.26
288.07	-8.02
288.285	0.17
288.5	73.9
288.715	-28.5
288.93	30.89
289.145	-44.88
289.36	75.95
289.575	86.19
289.79	59.56
290.004	49.32
290.219	-10.07
290.434	22.7
290.649	-57.17
290.864	2.22
291.079	6.31
291.294	57.51
291.509	-53.08
291.724	12.46
291.938	47.27
292.153	22.7
292.368	34.99
292.583	49.32
292.798	14.51
293.012	106.67
293.227	4.27
293.442	-20.31
293.657	39.08
293.871	-1.88
294.086	51.37
294.301	57.51
294.516	112.81
294.73	12.46
294.945	84.14
295.16	-14.17
295.374	39.08
295.589	26.79
295.804	-18.26
296.018	63.66
296.233	63.66
296.447	90.28
296.662	39.08
296.877	22.7
297.091	51.37
297.306	41.13
297.52	34.99
297.735	22.7
297.949	49.32
298.164	110.76
298.378	4.27
298.593	30.89
298.807	-16.21
299.022	22.7
299.236	80.04
299.451	39.08
299.665	84.14
299.88	6.31
300.094	88.23
300.309	22.7
300.523	-8.02
300.737	-26.45
300.952	84.14
301.166	53.42
301.381	65.71
301.595	-26.45
301.809	82.09
302.024	20.65
302.238	18.6
302.452	67.75
302.667	-18.26
302.881	30.89
303.095	16.55
303.309	43.18
303.524	-87.89
303.738	-30.55
303.952	14.51
304.166	-14.17
304.381	8.36
304.595	22.7
304.809	-18.26
305.023	39.08
305.237	-71.51
305.452	-14.17
305.666	-14.17
305.88	98.47
306.094	2.22
306.308	-34.64
306.522	77.99
306.736	22.7
306.95	63.66
307.164	-1.88
307.379	30.89
307.593	18.6
307.807	30.89
308.021	-10.07
308.235	30.89
308.449	-57.17
308.663	2.22
308.877	108.71
309.091	16.55
309.305	26.79
309.519	18.6
309.733	39.08
309.947	6.31
310.161	71.85
310.374	22.7
310.588	-22.36
310.802	26.79
311.016	-10.07
311.23	34.99
311.444	-40.79
311.658	26.79
311.872	86.19
312.085	47.27
312.299	6.31
312.513	104.62
312.727	10.41
312.941	55.47
313.154	32.94
313.368	37.03
313.582	-32.6
313.796	-32.6
314.009	-18.26
314.223	61.61
314.437	63.66
314.651	51.37
314.864	-1.88
315.078	49.32
315.292	-10.07
315.505	0.17
315.719	92.33
315.933	55.47
316.146	30.89
316.36	-8.02
316.573	75.95
316.787	26.79
317.001	92.33
317.214	22.7
317.428	-26.45
317.641	-5.97
317.855	0.17
318.068	-1.88
318.282	55.47
318.495	37.03
318.709	61.61
318.922	24.75
319.136	22.7
319.349	65.71
319.563	43.18
319.776	82.09
319.99	34.99
320.203	63.66
320.417	34.99
320.63	-10.07
320.843	114.86
321.057	55.47
321.27	90.28
321.483	98.47
321.697	139.43
321.91	-36.69
322.124	73.9
322.337	-30.55
322.55	14.51
322.763	22.7
322.977	80.04
323.19	-65.36
323.403	4.27
323.617	80.04
323.83	61.61
324.043	26.79
324.256	-46.93
324.469	14.51
324.683	10.41
324.896	59.56
325.109	67.75
325.322	-104.28
325.535	104.62
325.748	22.7
325.962	116.9
326.175	-26.45
326.388	63.66
326.601	98.47
326.814	24.75
327.027	51.37
327.24	69.8
327.453	26.79
327.666	41.13
327.879	96.43
328.092	71.85
328.305	-34.64
328.518	96.43
328.731	22.7
328.944	55.47
329.157	-8.02
329.37	-34.64
329.583	65.71
329.796	30.89
330.009	-81.75
330.222	39.08
330.435	59.56
330.648	6.31
330.861	-1.88
331.073	2.22
331.286	32.94
331.499	75.95
331.712	-14.17
331.925	84.14
332.138	8.36
332.35	6.31
332.563	-5.97
332.776	34.99
332.989	14.51
333.202	24.75
333.414	-5.97
333.627	-16.21
333.84	-16.21
334.053	-1.88
334.265	20.65
334.478	39.08
334.691	43.18
334.903	131.24
335.116	2.22
335.329	-5.97
335.541	0.17
335.754	71.85
335.966	-18.26
336.179	45.23
336.392	22.7
336.604	32.94
336.817	22.7
337.029	61.61
337.242	63.66
337.454	32.94
337.667	14.51
337.88	80.04
338.092	6.31
338.305	63.66
338.517	65.71
338.729	82.09
338.942	-5.97
339.154	-8.02
339.367	-34.64
339.579	55.47
339.792	-18.26
340.004	-10.07
340.217	6.31
340.429	26.79
340.641	-63.32
340.854	63.66
341.066	18.6
341.278	37.03
341.491	43.18
341.703	65.71
341.915	-59.22
342.128	39.08
342.34	47.27
342.552	26.79
342.764	41.13
342.977	112.81
343.189	20.65
343.401	55.47
343.613	16.55
343.826	47.27
344.038	-5.97
344.25	28.84
344.462	-51.03
344.674	-10.07
344.886	39.08
345.099	24.75
345.311	30.89
345.523	-34.64
345.735	14.51
345.947	41.13
346.159	88.23
346.371	-10.07
346.583	16.55
346.795	112.81
347.007	-8.02
347.219	30.89
347.431	-1.88
347.643	47.27
347.855	10.41
348.067	92.33
348.279	-38.74
348.491	82.09
348.703	43.18
348.915	82.09
349.127	34.99
349.339	88.23
349.551	30.89
349.763	34.99
349.975	30.89
350.187	75.95
350.399	47.27
350.61	8.36
350.822	43.18
351.034	121
351.246	14.51
351.458	41.13
351.669	39.08
351.881	63.66
352.093	-48.98
352.305	90.28
352.517	22.7
352.728	57.51
352.94	47.27
353.152	20.65
353.363	32.94
353.575	63.66
353.787	-24.4
353.999	57.51
354.21	88.23
354.422	22.7
354.633	82.09
354.845	10.41
355.057	-1.88
355.268	41.13
355.48	-5.97
355.692	-18.26
355.903	14.51
356.115	-22.36
356.326	-10.07
356.538	71.85
356.749	-24.4
356.961	10.41
357.172	41.13
357.384	-59.22
357.595	55.47
357.807	-59.22
358.018	39.08
358.23	0.17
358.441	84.14
358.653	-18.26
358.864	-14.17
359.075	47.27
359.287	39.08
359.498	80.04
359.709	0.17
359.921	2.22
360.132	10.41
360.344	92.33
360.555	-8.02
360.766	73.9
360.977	41.13
361.189	14.51
361.4	37.03
361.611	14.51
361.823	75.95
362.034	43.18
362.245	53.42
362.456	-10.07
362.667	104.62
362.879	32.94
363.09	24.75
363.301	-1.88
363.512	-8.02
363.723	55.47
363.935	55.47
364.146	-51.03
364.357	-26.45
364.568	82.09
364.779	6.31
364.99	55.47
365.201	86.19
365.412	32.94
365.623	-8.02
365.834	24.75
366.045	26.79
366.256	84.14
366.467	10.41
366.678	6.31
366.889	-34.64
367.1	43.18
367.311	65.71
367.522	57.51
367.733	108.71
367.944	41.13
368.155	20.65
368.366	84.14
368.577	30.89
368.788	4.27
368.999	-1.88
369.209	6.31
369.42	75.95
369.631	133.29
369.842	41.13
370.053	55.47
370.264	153.77
370.474	0.17
370.685	45.23
370.896	10.41
371.107	82.09
371.317	18.6
371.528	57.51
371.739	73.9
371.95	114.86
372.16	131.24
372.371	-1.88
372.582	67.75
372.792	18.6
373.003	10.41
373.214	-14.17
373.424	47.27
373.635	-34.64
373.846	-10.07
374.056	-20.31
374.267	6.31
374.477	30.89
374.688	49.32
374.898	14.51
375.109	6.31
375.319	30.89
375.53	22.7
375.74	22.7
375.951	57.51
376.161	26.79
376.372	18.6
376.582	-44.88
376.793	127.14
377.003	108.71
377.214	6.31
377.424	59.56
377.635	84.14
377.845	26.79
378.055	104.62
378.266	-55.12
378.476	112.81
378.686	65.71
378.897	88.23
379.107	10.41
379.317	90.28
379.528	10.41
379.738	43.18
379.948	-8.02
380.158	71.85
380.369	55.47
380.579	32.94
380.789	51.37
380.999	59.56
381.21	63.66
381.42	98.47
381.63	-8.02
381.84	61.61
382.05	39.08
382.261	30.89
382.471	63.66
382.681	18.6
382.891	55.47
383.101	20.65
383.311	-57.17
383.521	55.47
383.731	80.04
383.941	6.31
384.151	32.94
384.361	57.51
384.571	39.08
384.781	65.71
384.991	118.95
385.201	106.67
385.411	80.04
385.621	110.76
385.831	51.37
386.041	14.51
386.251	32.94
386.461	43.18
386.671	49.32
386.881	96.43
387.091	-16.21
387.301	51.37
387.511	57.51
387.72	43.18
387.93	41.13
388.14	-8.02
388.35	34.99
388.56	-1.88
388.769	98.47
388.979	82.09
389.189	-1.88
389.399	47.27
389.609	112.81
389.818	63.66
390.028	10.41
390.238	-42.84
390.447	32.94
390.657	90.28
390.867	-16.21
391.076	39.08
391.286	12.46
391.496	65.71
391.705	71.85
391.915	104.62
392.125	131.24
392.334	24.75
392.544	116.9
392.753	104.62
392.963	-8.02
393.172	4.27
393.382	-5.97
393.591	88.23
393.801	53.42
394.01	161.96
394.22	-5.97
394.429	80.04
394.639	-18.26
394.848	121
395.058	57.51
395.267	34.99
395.477	-18.26
395.686	104.62
395.895	90.28
396.105	139.43
396.314	110.76
396.524	96.43
396.733	24.75
396.942	108.71
397.152	65.71
397.361	155.82
397.57	30.89
397.78	112.81
397.989	108.71
398.198	159.91
398.407	86.19
398.617	14.51
398.826	84.14
399.035	47.27
399.244	104.62
399.453	102.57
399.663	39.08
399.872	121
400.081	71.85
400.29	82.09
400.499	69.8
400.708	102.57
400.917	22.7
401.127	94.38
401.336	96.43
401.545	125.1
401.754	86.19
401.963	92.33
402.172	73.9
402.381	45.23
402.59	59.56
402.799	139.43
403.008	182.44
403.217	47.27
403.426	139.43
403.635	104.62
403.844	133.29
404.053	110.76
404.262	71.85
404.471	157.86
404.68	131.24
404.888	151.72
405.097	90.28
405.306	116.9
405.515	149.67
405.724	71.85
405.933	88.23
406.142	194.73
406.35	200.87
406.559	213.16
406.768	157.86
406.977	213.16
407.185	112.81
407.394	166.06
407.603	129.19
407.812	198.82
408.02	155.82
408.229	211.11
408.438	235.69
408.646	219.3
408.855	213.16
409.064	204.97
409.272	247.97
409.481	223.4
409.69	280.74
409.898	213.16
410.107	245.93
410.315	278.69
410.524	241.83
410.733	229.54
410.941	243.88
411.15	301.22
411.358	336.04
411.567	377
411.775	274.6
411.984	325.8
412.192	401.57
412.401	428.2
412.609	374.95
412.818	409.76
413.026	465.06
413.234	405.67
413.443	465.06
413.651	465.06
413.86	436.39
414.068	565.41
414.276	530.59
414.485	465.06
414.693	559.27
414.901	555.17
415.11	630.95
415.318	620.71
415.526	532.64
415.734	663.71
415.943	573.6
416.151	682.14
416.359	637.09
416.567	661.66
416.776	753.82
416.984	759.97
417.192	805.02
417.4	794.78
417.608	833.69
417.817	874.65
418.025	886.94
418.233	929.95
418.441	905.37
418.649	987.29
418.857	1005.72
419.065	1136.79
419.273	1071.26
419.481	1157.27
419.689	1183.9
419.897	1218.71
420.105	1204.38
420.313	1294.49
420.521	1302.68
420.729	1198.23
420.937	1368.21
421.145	1448.08
421.353	1509.52
421.561	1644.69
421.769	1566.87
421.977	1616.02
422.185	1632.4
422.393	1751.18
422.601	1939.6
422.809	1781.9
423.017	1886.35
423.224	1927.31
423.432	2003.08
423.64	2048.14
423.848	2316.42
424.056	2177.16
424.263	2236.55
424.471	2316.42
424.679	2361.48
424.887	2431.11
425.094	2572.42
425.302	2693.25
425.51	2719.87
425.718	2832.51
425.925	2832.51
426.133	2816.13
426.341	3078.27
426.548	3137.66
426.756	3219.58
426.964	3207.29
427.171	3528.82
427.379	3391.61
427.586	3610.74
427.794	3643.51
428.001	3780.72
428.209	3932.27
428.417	3881.07
428.624	4282.47
428.832	4266.09
429.039	4114.54
429.247	4188.27
429.454	4634.72
429.662	5007.45
429.869	4577.38
430.076	4835.42
430.284	4903.01
430.491	4978.78
430.699	5242.97
430.906	5159
431.114	5353.56
431.321	5363.8
431.528	5716.05
431.736	5992.53
431.943	6256.72
432.15	6129.74
432.358	6207.56
432.565	6506.57
432.772	6502.47
432.979	6723.65
433.187	6809.67
433.394	6846.53
433.601	7440.44
433.808	7440.44
434.016	7428.15
434.223	7614.52
434.43	8132.65
434.637	7866.42
434.844	8407.08
435.052	8620.07
435.259	8718.37
435.466	8558.63
435.673	8630.31
435.88	9205.79
436.087	9689.11
436.294	9601.05
436.501	9302.04
436.708	9652.25
436.915	10061.84
437.122	10319.89
437.329	10340.36
437.537	10596.36
437.743	10893.32
437.95	10752.01
438.157	11354.11
438.364	11788.28
438.571	11794.42
438.778	11737.08
438.985	12748.78
439.192	12195.82
439.399	12578.79
439.606	12492.78
439.813	13174.75
440.02	13989.85
440.227	13621.21
440.433	13709.27
440.64	13985.75
440.847	13744.09
441.054	14260.18
441.261	15245.25
441.467	14901.19
441.674	15521.73
441.881	16003
442.088	15990.71
442.294	15677.37
442.501	15931.32
442.708	16418.74
442.914	17127.33
443.121	17983.38
443.328	17590.17
443.534	18409.36
443.741	18014.1
443.948	17883.03
444.154	19212.17
444.361	19259.27
444.568	19208.07
444.774	19048.33
444.981	19236.74
445.187	20074.36
445.394	20698.99
445.6	20719.47
445.807	22550.35
446.013	21647.2
446.22	21692.26
446.426	22697.81
446.633	23144.27
446.839	24057.66
447.046	22896.46
447.252	24231.74
447.459	24203.07
447.665	24131.39
447.871	25325.35
448.078	26175.26
448.284	25112.36
448.491	25614.12
448.697	26765.07
448.903	27215.63
449.11	27604.74
449.316	27098.89
449.522	27660.04
449.728	28280.57
449.935	28147.45
450.141	28233.47
450.347	29019.89
450.553	28325.63
450.76	28788.47
450.966	29230.83
451.172	29361.9
451.378	30652.12
451.584	29701.86
451.791	30371.55
451.997	30306.01
452.203	30711.51
452.409	30781.14
452.615	30582.49
452.821	29404.91
453.027	28999.41
453.233	30752.47
453.44	29429.48
453.646	29742.82
453.852	30037.73
454.058	30418.65
454.264	29439.72
454.47	30406.36
454.676	29544.17
454.882	30140.13
455.088	28006.14
455.294	28116.73
455.5	28890.87
455.705	28935.92
455.911	28053.25
456.117	27563.78
456.323	27088.65
456.529	25769.76
456.735	26830.61
456.941	26310.43
457.147	25962.27
457.352	25048.88
457.558	24837.94
457.764	24831.79
457.97	24518.45
458.176	23912.25
458.381	23621.44
458.587	22779.73
458.793	22941.52
458.999	21477.22
459.204	23152.46
459.41	22257.5
459.616	20879.21
459.821	21178.22
460.027	20957.03
460.233	20713.33
460.438	19775.36
460.644	19863.42
460.85	18859.91
461.055	18612.11
461.261	18825.1
461.466	17020.84
461.672	16682.92
461.878	18134.93
462.083	16758.7
462.289	16433.07
462.494	16254.9
462.7	15523.77
462.905	15013.83
463.111	15755.19
463.316	15851.45
463.522	15304.64
463.727	15398.85
463.932	15425.47
464.138	15300.55
464.343	15404.99
464.549	14737.35
464.754	15310.79
464.959	15202.24
465.165	14936.01
465.37	14485.45
465.575	14071.76
465.781	14546.89
465.986	14645.2
466.191	14196.69
466.397	13950.93
466.602	13279.2
466.807	13400.03
467.012	13729.75
467.218	13754.33
467.423	13346.78
