Data from USB4F104151__101__14-43-40-913.txt Node

Date: Thu Mar 13 14:43:40 EDT 2025
User: louis
Spectrometer: USB4F10415
Trigger mode: 4
Integration Time (sec): 2.000000E-2
Scans to average: 1
Electric dark correction enabled: true
Nonlinearity correction enabled: false
Boxcar width: 0
XAxis mode: Wavelengths
Number of Pixels in Spectrum: 3648
>>>>>Begin Spectral Data<<<<<
178.204	-114.17
178.424	-114.17
178.644	-114.17
178.864	-85.5
179.084	-24.06
179.304	18.94
179.524	90.62
179.744	2.56
179.964	-30.21
180.184	27.14
180.404	10.75
180.624	-15.87
180.844	-22.02
181.064	-40.45
181.283	29.18
181.503	-34.3
181.723	-36.35
181.943	-15.87
182.163	43.52
182.383	57.86
182.602	12.8
182.822	90.62
183.042	31.23
183.262	-5.63
183.482	33.28
183.701	14.85
183.921	27.14
184.141	37.38
184.361	59.9
184.58	-24.06
184.8	123.39
185.02	53.76
185.239	53.76
185.459	78.33
185.679	84.48
185.898	-46.59
186.118	49.66
186.338	35.33
186.557	41.47
186.777	55.81
186.997	51.71
187.216	90.62
187.436	82.43
187.655	-11.78
187.875	49.66
188.095	-7.68
188.314	76.29
188.534	82.43
188.753	98.81
188.973	119.29
189.192	8.7
189.412	-1.54
189.631	18.94
189.851	29.18
190.07	59.9
190.29	68.09
190.509	20.99
190.729	-50.69
190.948	35.33
191.168	215.55
191.387	74.24
191.607	57.86
191.826	51.71
192.045	-44.54
192.265	84.48
192.484	23.04
192.704	16.9
192.923	-3.58
193.142	164.35
193.362	-46.59
193.581	176.64
193.8	59.9
194.02	76.29
194.239	8.7
194.458	35.33
194.678	41.47
194.897	27.14
195.116	61.95
195.335	29.18
195.555	14.85
195.774	-7.68
195.993	84.48
196.212	-7.68
196.432	18.94
196.651	-5.63
196.87	12.8
197.089	41.47
197.308	70.14
197.528	16.9
197.747	51.71
197.966	53.76
198.185	57.86
198.404	100.86
198.623	78.33
198.842	49.66
199.062	82.43
199.281	74.24
199.5	8.7
199.719	10.75
199.938	-32.26
200.157	61.95
200.376	18.94
200.595	98.81
200.814	51.71
201.033	66.05
201.252	35.33
201.471	70.14
201.69	66.05
201.909	41.47
202.128	29.18
202.347	49.66
202.566	27.14
202.785	-22.02
203.004	-13.82
203.223	57.86
203.442	-3.58
203.661	33.28
203.879	-7.68
204.098	86.53
204.317	51.71
204.536	98.81
204.755	94.72
204.974	66.05
205.193	45.57
205.411	98.81
205.63	37.38
205.849	51.71
206.068	-11.78
206.287	41.47
206.505	39.42
206.724	100.86
206.943	70.14
207.162	18.94
207.381	86.53
207.599	109.05
207.818	84.48
208.037	70.14
208.255	10.75
208.474	74.24
208.693	41.47
208.911	0.51
209.13	92.67
209.349	29.18
209.567	-40.45
209.786	168.45
210.005	84.48
210.223	33.28
210.442	74.24
210.661	41.47
210.879	-3.58
211.098	43.52
211.316	16.9
211.535	107.01
211.753	66.05
211.972	16.9
212.191	-52.74
212.409	49.66
212.628	66.05
212.846	57.86
213.065	16.9
213.283	92.67
213.502	45.57
213.72	80.38
213.938	20.99
214.157	84.48
214.375	0.51
214.594	68.09
214.812	12.8
215.031	41.47
215.249	37.38
215.467	90.62
215.686	49.66
215.904	57.86
216.122	-54.78
216.341	68.09
216.559	145.92
216.778	98.81
216.996	82.43
217.214	8.7
217.432	51.71
217.651	74.24
217.869	27.14
218.087	33.28
218.306	76.29
218.524	166.4
218.742	111.1
218.96	49.66
219.179	51.71
219.397	98.81
219.615	-9.73
219.833	123.39
220.051	14.85
220.27	43.52
220.488	55.81
220.706	109.05
220.924	49.66
221.142	-52.74
221.36	92.67
221.578	16.9
221.796	37.38
222.015	76.29
222.233	25.09
222.451	61.95
222.669	47.62
222.887	96.77
223.105	-19.97
223.323	-13.82
223.541	51.71
223.759	90.62
223.977	-15.87
224.195	16.9
224.413	18.94
224.631	29.18
224.849	4.61
225.067	80.38
225.285	37.38
225.503	8.7
225.721	-19.97
225.939	31.23
226.157	121.34
226.375	113.15
226.592	51.71
226.81	43.52
227.028	43.52
227.246	190.97
227.464	59.9
227.682	16.9
227.9	2.56
228.117	156.16
228.335	33.28
228.553	80.38
228.771	18.94
228.989	25.09
229.206	2.56
229.424	18.94
229.642	-56.83
229.86	-5.63
230.077	33.28
230.295	10.75
230.513	0.51
230.731	53.76
230.948	98.81
231.166	51.71
231.384	49.66
231.601	-5.63
231.819	90.62
232.037	20.99
232.254	-7.68
232.472	-56.83
232.689	33.28
232.907	121.34
233.125	61.95
233.342	43.52
233.56	74.24
233.777	12.8
233.995	25.09
234.213	90.62
234.43	37.38
234.648	41.47
234.865	37.38
235.083	59.9
235.3	-22.02
235.518	0.51
235.735	98.81
235.953	8.7
236.17	57.86
236.388	74.24
236.605	45.57
236.822	37.38
237.04	84.48
237.257	10.75
237.475	76.29
237.692	70.14
237.909	47.62
238.127	-28.16
238.344	27.14
238.562	-26.11
238.779	-19.97
238.996	-3.58
239.214	82.43
239.431	98.81
239.648	-30.21
239.865	31.23
240.083	74.24
240.3	61.95
240.517	92.67
240.735	94.72
240.952	141.82
241.169	102.91
241.386	100.86
241.603	57.86
241.821	-26.11
242.038	80.38
242.255	12.8
242.472	29.18
242.689	123.39
242.907	57.86
243.124	35.33
243.341	33.28
243.558	78.33
243.775	66.05
243.992	41.47
244.209	53.76
244.426	113.15
244.643	64
244.86	-3.58
245.078	66.05
245.295	59.9
245.512	-5.63
245.729	18.94
245.946	57.86
246.163	107.01
246.38	74.24
246.597	12.8
246.814	68.09
247.031	10.75
247.248	90.62
247.464	53.76
247.681	10.75
247.898	78.33
248.115	51.71
248.332	10.75
248.549	131.58
248.766	45.57
248.983	57.86
249.2	-15.87
249.417	72.19
249.633	-5.63
249.85	76.29
250.067	66.05
250.284	-7.68
250.501	18.94
250.717	70.14
250.934	-11.78
251.151	41.47
251.368	51.71
251.585	94.72
251.801	92.67
252.018	133.63
252.235	31.23
252.451	100.86
252.668	74.24
252.885	16.9
253.102	25.09
253.318	-28.16
253.535	51.71
253.752	25.09
253.968	-22.02
254.185	-24.06
254.401	84.48
254.618	35.33
254.835	-3.58
255.051	84.48
255.268	66.05
255.484	51.71
255.701	49.66
255.917	117.25
256.134	-36.35
256.351	117.25
256.567	25.09
256.784	0.51
257	-3.58
257.217	117.25
257.433	45.57
257.65	111.1
257.866	121.34
258.082	-30.21
258.299	59.9
258.515	113.15
258.732	70.14
258.948	10.75
259.165	98.81
259.381	35.33
259.597	113.15
259.814	117.25
260.03	61.95
260.246	49.66
260.463	74.24
260.679	0.51
260.895	2.56
261.112	86.53
261.328	49.66
261.544	25.09
261.761	117.25
261.977	76.29
262.193	78.33
262.409	76.29
262.626	27.14
262.842	43.52
263.058	-22.02
263.274	25.09
263.49	98.81
263.707	76.29
263.923	68.09
264.139	-11.78
264.355	12.8
264.571	117.25
264.787	59.9
265.004	78.33
265.22	49.66
265.436	25.09
265.652	86.53
265.868	90.62
266.084	107.01
266.3	90.62
266.516	12.8
266.732	57.86
266.948	-30.21
267.164	25.09
267.38	57.86
267.596	-1.54
267.812	113.15
268.028	41.47
268.244	-24.06
268.46	84.48
268.676	84.48
268.892	41.47
269.108	16.9
269.324	-13.82
269.54	-36.35
269.756	35.33
269.972	-52.74
270.188	8.7
270.403	41.47
270.619	12.8
270.835	49.66
271.051	66.05
271.267	-1.54
271.483	27.14
271.698	74.24
271.914	-26.11
272.13	35.33
272.346	16.9
272.562	-9.73
272.777	90.62
272.993	76.29
273.209	119.29
273.425	70.14
273.64	127.49
273.856	39.42
274.072	20.99
274.287	72.19
274.503	70.14
274.719	25.09
274.934	53.76
275.15	-3.58
275.366	35.33
275.581	-22.02
275.797	102.91
276.012	57.86
276.228	33.28
276.444	57.86
276.659	115.2
276.875	10.75
277.09	-38.4
277.306	74.24
277.521	49.66
277.737	6.66
277.952	27.14
278.168	51.71
278.383	94.72
278.599	51.71
278.814	125.44
279.03	49.66
279.245	78.33
279.461	29.18
279.676	31.23
279.892	72.19
280.107	8.7
280.322	-3.58
280.538	84.48
280.753	31.23
280.969	25.09
281.184	80.38
281.399	82.43
281.615	-62.98
281.83	92.67
282.045	41.47
282.26	-40.45
282.476	-32.26
282.691	43.52
282.906	25.09
283.122	20.99
283.337	66.05
283.552	127.49
283.767	45.57
283.983	133.63
284.198	14.85
284.413	111.1
284.628	41.47
284.843	-32.26
285.058	131.58
285.274	29.18
285.489	35.33
285.704	90.62
285.919	29.18
286.134	2.56
286.349	35.33
286.564	70.14
286.779	27.14
286.995	8.7
287.21	61.95
287.425	90.62
287.64	39.42
287.855	90.62
288.07	-38.4
288.285	109.05
288.5	90.62
288.715	100.86
288.93	4.61
289.145	12.8
289.36	57.86
289.575	72.19
289.79	98.81
290.004	98.81
290.219	78.33
290.434	74.24
290.649	35.33
290.864	37.38
291.079	35.33
291.294	74.24
291.509	82.43
291.724	39.42
291.938	98.81
292.153	111.1
292.368	12.8
292.583	84.48
292.798	86.53
293.012	96.77
293.227	53.76
293.442	57.86
293.657	45.57
293.871	74.24
294.086	47.62
294.301	35.33
294.516	61.95
294.73	49.66
294.945	64
295.16	31.23
295.374	53.76
295.589	43.52
295.804	131.58
296.018	66.05
296.233	96.77
296.447	37.38
296.662	-15.87
296.877	90.62
297.091	68.09
297.306	-7.68
297.52	8.7
297.735	12.8
297.949	31.23
298.164	98.81
298.378	-15.87
298.593	25.09
298.807	-36.35
299.022	2.56
299.236	49.66
299.451	78.33
299.665	10.75
299.88	16.9
300.094	100.86
300.309	94.72
300.523	100.86
300.737	41.47
300.952	49.66
301.166	35.33
301.381	-32.26
301.595	78.33
301.809	27.14
302.024	31.23
302.238	4.61
302.452	100.86
302.667	127.49
302.881	84.48
303.095	78.33
303.309	49.66
303.524	49.66
303.738	98.81
303.952	86.53
304.166	-7.68
304.381	64
304.595	78.33
304.809	57.86
305.023	51.71
305.237	127.49
305.452	25.09
305.666	86.53
305.88	139.77
306.094	-1.54
306.308	90.62
306.522	158.21
306.736	104.96
306.95	-13.82
307.164	66.05
307.379	-30.21
307.593	49.66
307.807	-1.54
308.021	90.62
308.235	74.24
308.449	59.9
308.663	43.52
308.877	186.88
309.091	61.95
309.305	16.9
309.519	2.56
309.733	57.86
309.947	100.86
310.161	76.29
310.374	98.81
310.588	39.42
310.802	51.71
311.016	53.76
311.23	94.72
311.444	39.42
311.658	29.18
311.872	47.62
312.085	33.28
312.299	74.24
312.513	33.28
312.727	102.91
312.941	59.9
313.154	41.47
313.368	-9.73
313.582	115.2
313.796	53.76
314.009	82.43
314.223	76.29
314.437	90.62
314.651	-3.58
314.864	43.52
315.078	80.38
315.292	86.53
315.505	20.99
315.719	57.86
315.933	10.75
316.146	2.56
316.36	70.14
316.573	131.58
316.787	74.24
317.001	2.56
317.214	57.86
317.428	74.24
317.641	29.18
317.855	66.05
318.068	27.14
318.282	-3.58
318.495	82.43
318.709	25.09
318.922	61.95
319.136	82.43
319.349	68.09
319.563	51.71
319.776	137.73
319.99	-24.06
320.203	66.05
320.417	8.7
320.63	10.75
320.843	117.25
321.057	47.62
321.27	43.52
321.483	25.09
321.697	53.76
321.91	61.95
322.124	74.24
322.337	111.1
322.55	68.09
322.763	45.57
322.977	53.76
323.19	80.38
323.403	2.56
323.617	59.9
323.83	78.33
324.043	43.52
324.256	92.67
324.469	0.51
324.683	12.8
324.896	57.86
325.109	74.24
325.322	82.43
325.535	64
325.748	35.33
325.962	20.99
326.175	0.51
326.388	74.24
326.601	45.57
326.814	8.7
327.027	12.8
327.24	41.47
327.453	33.28
327.666	29.18
327.879	74.24
328.092	43.52
328.305	82.43
328.518	92.67
328.731	25.09
328.944	100.86
329.157	16.9
329.37	8.7
329.583	18.94
329.796	152.06
330.009	-5.63
330.222	94.72
330.435	-3.58
330.648	27.14
330.861	2.56
331.073	51.71
331.286	-5.63
331.499	57.86
331.712	-28.16
331.925	76.29
332.138	94.72
332.35	82.43
332.563	37.38
332.776	66.05
332.989	61.95
333.202	66.05
333.414	10.75
333.627	2.56
333.84	43.52
334.053	123.39
334.265	29.18
334.478	59.9
334.691	-5.63
334.903	141.82
335.116	64
335.329	55.81
335.541	76.29
335.754	59.9
335.966	80.38
336.179	74.24
336.392	33.28
336.604	41.47
336.817	57.86
337.029	78.33
337.242	51.71
337.454	39.42
337.667	-24.06
337.88	92.67
338.092	84.48
338.305	66.05
338.517	0.51
338.729	20.99
338.942	47.62
339.154	53.76
339.367	0.51
339.579	68.09
339.792	59.9
340.004	113.15
340.217	10.75
340.429	74.24
340.641	-13.82
340.854	-30.21
341.066	68.09
341.278	121.34
341.491	61.95
341.703	92.67
341.915	-32.26
342.128	82.43
342.34	96.77
342.552	39.42
342.764	2.56
342.977	23.04
343.189	49.66
343.401	-17.92
343.613	41.47
343.826	57.86
344.038	49.66
344.25	61.95
344.462	0.51
344.674	84.48
344.886	20.99
345.099	51.71
345.311	57.86
345.523	-3.58
345.735	4.61
345.947	-54.78
346.159	-22.02
346.371	80.38
346.583	-24.06
346.795	90.62
347.007	90.62
347.219	47.62
347.431	8.7
347.643	107.01
347.855	84.48
348.067	86.53
348.279	33.28
348.491	35.33
348.703	102.91
348.915	59.9
349.127	82.43
349.339	92.67
349.551	66.05
349.763	125.44
349.975	25.09
350.187	66.05
350.399	115.2
350.61	45.57
350.822	-32.26
351.034	90.62
351.246	57.86
351.458	66.05
351.669	72.19
351.881	102.91
352.093	84.48
352.305	127.49
352.517	70.14
352.728	66.05
352.94	59.9
353.152	76.29
353.363	68.09
353.575	41.47
353.787	74.24
353.999	78.33
354.21	82.43
354.422	2.56
354.633	-36.35
354.845	43.52
355.057	35.33
355.268	57.86
355.48	27.14
355.692	57.86
355.903	57.86
356.115	-24.06
356.326	53.76
356.538	57.86
356.749	113.15
356.961	131.58
357.172	53.76
357.384	2.56
357.595	92.67
357.807	64
358.018	45.57
358.23	98.81
358.441	57.86
358.653	35.33
358.864	27.14
359.075	90.62
359.287	59.9
359.498	72.19
359.709	117.25
359.921	64
360.132	66.05
360.344	4.61
360.555	90.62
360.766	84.48
360.977	90.62
361.189	82.43
361.4	49.66
361.611	94.72
361.823	82.43
362.034	84.48
362.245	8.7
362.456	111.1
362.667	43.52
362.879	98.81
363.09	80.38
363.301	70.14
363.512	53.76
363.723	35.33
363.935	-19.97
364.146	33.28
364.357	25.09
364.568	25.09
364.779	25.09
364.99	41.47
365.201	37.38
365.412	49.66
365.623	20.99
365.834	74.24
366.045	25.09
366.256	74.24
366.467	102.91
366.678	41.47
366.889	72.19
367.1	20.99
367.311	84.48
367.522	37.38
367.733	139.77
367.944	137.73
368.155	59.9
368.366	51.71
368.577	43.52
368.788	66.05
368.999	0.51
369.209	70.14
369.42	143.87
369.631	180.73
369.842	53.76
370.053	16.9
370.264	12.8
370.474	31.23
370.685	59.9
370.896	100.86
371.107	115.2
371.317	86.53
371.528	90.62
371.739	86.53
371.95	43.52
372.16	135.68
372.371	66.05
372.582	57.86
372.792	41.47
373.003	57.86
373.214	29.18
373.424	111.1
373.635	41.47
373.846	139.77
374.056	20.99
374.267	74.24
374.477	41.47
374.688	61.95
374.898	66.05
375.109	84.48
375.319	55.81
375.53	147.97
375.74	86.53
375.951	16.9
376.161	29.18
376.372	96.77
376.582	33.28
376.793	94.72
377.003	53.76
377.214	131.58
377.424	49.66
377.635	66.05
377.845	-9.73
378.055	76.29
378.266	68.09
378.476	129.53
378.686	49.66
378.897	27.14
379.107	125.44
379.317	84.48
379.528	57.86
379.738	74.24
379.948	78.33
380.158	94.72
380.369	37.38
380.579	51.71
380.789	41.47
380.999	-15.87
381.21	119.29
381.42	107.01
381.63	98.81
381.84	57.86
382.05	123.39
382.261	49.66
382.471	18.94
382.681	43.52
382.891	94.72
383.101	76.29
383.311	49.66
383.521	98.81
383.731	152.06
383.941	150.01
384.151	74.24
384.361	92.67
384.571	35.33
384.781	107.01
384.991	94.72
385.201	102.91
385.411	107.01
385.621	51.71
385.831	90.62
386.041	12.8
386.251	41.47
386.461	59.9
386.671	135.68
386.881	88.57
387.091	49.66
387.301	80.38
387.511	51.71
387.72	78.33
387.93	27.14
388.14	25.09
388.35	78.33
388.56	123.39
388.769	82.43
388.979	61.95
389.189	2.56
389.399	84.48
389.609	76.29
389.818	98.81
390.028	45.57
390.238	109.05
390.447	39.42
390.657	98.81
390.867	57.86
391.076	8.7
391.286	104.96
391.496	102.91
391.705	49.66
391.915	94.72
392.125	70.14
392.334	109.05
392.544	123.39
392.753	31.23
392.963	135.68
393.172	135.68
393.382	25.09
393.591	186.88
393.801	92.67
394.01	115.2
394.22	111.1
394.429	90.62
394.639	61.95
394.848	86.53
395.058	57.86
395.267	98.81
395.477	82.43
395.686	51.71
395.895	160.25
396.105	115.2
396.314	111.1
396.524	82.43
396.733	117.25
396.942	92.67
397.152	74.24
397.361	143.87
397.57	33.28
397.78	123.39
397.989	156.16
398.198	94.72
398.407	102.91
398.617	123.39
398.826	98.81
399.035	119.29
399.244	104.96
399.453	49.66
399.663	94.72
399.872	145.92
400.081	86.53
400.29	131.58
400.499	131.58
400.708	147.97
400.917	125.44
401.127	84.48
401.336	90.62
401.545	143.87
401.754	84.48
401.963	123.39
402.172	127.49
402.381	90.62
402.59	182.78
402.799	121.34
403.008	152.06
403.217	197.12
403.426	74.24
403.635	102.91
403.844	98.81
404.053	184.83
404.262	129.53
404.471	197.12
404.68	119.29
404.888	141.82
405.097	66.05
405.306	180.73
405.515	180.73
405.724	141.82
405.933	152.06
406.142	121.34
406.35	139.77
406.559	180.73
406.768	150.01
406.977	236.03
407.185	143.87
407.394	248.32
407.603	109.05
407.812	182.78
408.02	221.69
408.229	221.69
408.438	176.64
408.646	166.4
408.855	207.36
409.064	199.16
409.272	272.89
409.481	240.12
409.69	205.31
409.898	176.64
410.107	221.69
410.315	297.47
410.524	164.35
410.733	299.52
410.941	336.38
411.15	410.11
411.358	352.76
411.567	401.91
411.775	358.91
411.984	379.39
412.192	393.72
412.401	379.39
412.609	426.49
412.818	455.16
413.026	473.59
413.234	414.2
413.443	512.5
413.651	412.15
413.86	561.66
414.068	596.47
414.276	520.7
414.485	489.98
414.693	582.14
414.901	606.71
415.11	606.71
415.318	614.9
415.526	713.21
415.734	651.77
415.943	631.29
416.151	670.2
416.359	711.16
416.567	750.07
416.776	788.98
416.984	754.16
417.192	827.89
417.4	782.84
417.608	836.08
417.817	938.48
418.025	803.32
418.233	983.54
418.441	954.87
418.649	952.82
418.857	1020.4
419.065	1044.98
419.273	1063.41
419.481	1161.71
419.689	1065.46
419.897	1245.68
420.105	1290.73
420.313	1380.84
420.521	1335.79
420.729	1313.26
420.937	1389.03
421.145	1458.67
421.353	1573.35
421.561	1503.72
421.769	1659.37
421.977	1690.09
422.185	1720.81
422.393	1806.82
422.601	1786.34
422.809	1810.92
423.017	1862.12
423.224	2056.67
423.432	2073.06
423.64	2132.45
423.848	2314.72
424.056	2306.52
424.263	2378.2
424.471	2318.81
424.679	2427.35
424.887	2556.38
425.094	2599.38
425.302	2542.04
425.51	2626.01
425.718	2769.37
425.925	2820.56
426.133	2869.72
426.341	3051.99
426.548	3301.84
426.756	3271.12
426.964	3246.54
427.171	3330.51
427.379	3559.88
427.586	3475.91
427.794	3678.66
428.001	3860.93
428.209	4043.2
428.417	4002.24
428.624	4207.04
428.832	4145.6
429.039	4223.42
429.247	4161.98
429.454	4616.63
429.662	4895.16
429.869	4688.31
430.076	4866.49
430.284	4819.38
430.491	4942.26
430.699	5228.98
430.906	5317.04
431.114	5341.61
431.321	5595.56
431.528	5587.37
431.736	5890.47
431.943	6367.65
432.15	6009.25
432.358	6111.65
432.565	6551.96
432.772	6365.6
432.979	6758.81
433.187	6865.3
433.394	6861.21
433.601	7266.71
433.808	7514.51
434.016	7383.44
434.223	7637.39
434.43	8085.89
434.637	7907.72
434.844	8458.62
435.052	8581.5
435.259	8421.76
435.466	8647.04
435.673	8573.31
435.88	9220.47
436.087	9574.77
436.294	9496.94
436.501	9253.23
436.708	9486.7
436.915	9890.15
437.122	10285.41
437.329	10099.05
437.537	10424.67
437.743	10858.84
437.95	10383.71
438.157	11145.56
438.364	11516.24
438.571	11594.06
438.778	11448.66
438.985	12691.77
439.192	12058.95
439.399	12347.72
439.606	12093.77
439.813	13011.26
440.02	13674.8
440.227	13345.08
440.433	13328.69
440.64	13699.37
440.847	13715.76
441.054	14256.42
441.261	14932.25
441.467	14745.89
441.674	15008.03
441.881	15515.92
442.088	15442.2
442.294	15419.67
442.501	15690
442.708	16105.74
442.914	16650.5
443.121	17590.52
443.328	17150.2
443.534	18229.48
443.741	17768.69
443.948	17404.15
444.154	18903.26
444.361	18659.56
444.568	18561.25
444.774	18684.13
444.981	18839.78
445.187	19116.25
445.394	20246.73
445.6	20033.74
445.807	21926.07
446.013	21043.39
446.22	21440.7
446.426	22001.84
446.633	22423.72
446.839	23709.85
447.046	22343.85
447.252	23351.45
447.459	23685.27
447.665	23244.96
447.871	24244.37
448.078	25514.11
448.284	24121.49
448.491	25131.14
448.697	25956.47
448.903	26648.68
449.11	26382.45
449.316	25927.8
449.522	26370.16
449.728	27236.45
449.935	27502.68
450.141	27672.67
450.347	27899.99
450.553	27428.96
450.76	27572.32
450.966	28700.75
451.172	28364.88
451.378	29065.28
451.584	28282.96
451.791	28950.6
451.997	28831.82
452.203	29272.13
452.409	29608
452.615	29716.54
452.821	28162.13
453.027	27908.18
453.233	29716.54
453.44	28600.4
453.646	28790.86
453.852	29057.09
454.058	29610.04
454.264	28745.8
454.47	29157.44
454.676	28674.12
454.882	29431.87
455.088	26730.6
455.294	27504.73
455.5	28000.34
455.705	28272.72
455.911	26626.15
456.117	26417.26
456.323	26341.49
456.529	24742.02
456.735	26050.67
456.941	25989.24
457.147	24877.19
457.352	24338.57
457.558	23892.12
457.764	23777.43
457.97	23586.97
458.176	23120.03
458.381	22999.2
458.587	21924.02
458.793	22159.53
458.999	20953.28
459.204	22593.7
459.41	21708.98
459.616	20414.66
459.821	20478.15
460.027	20422.86
460.233	19714.26
460.438	19005.66
460.644	18981.09
460.85	18352.36
461.055	18059.5
461.261	17795.31
461.466	16670.98
461.672	16075.02
461.878	17113.34
462.083	16138.51
462.289	15847.69
462.494	15515.92
462.7	14815.52
462.905	14653.73
463.111	15106.33
463.316	15063.32
463.522	14797.09
463.727	14782.75
463.932	14719.26
464.138	14512.42
464.343	14422.31
464.549	14385.44
464.754	14420.26
464.959	14518.56
465.165	14362.92
465.37	14014.76
465.575	13687.09
465.781	14160.17
465.986	14006.57
466.191	13625.65
466.397	13443.38
466.602	12702.01
466.807	13277.49
467.012	12996.92
467.218	12984.63
467.423	12849.47
467.628	12935.48
