Data from USB4F104151__206__14-45-23-629.txt Node

Date: Thu Mar 13 14:45:23 EDT 2025
User: louis
Spectrometer: USB4F10415
Trigger mode: 4
Integration Time (sec): 2.000000E-2
Scans to average: 1
Electric dark correction enabled: true
Nonlinearity correction enabled: false
Boxcar width: 0
XAxis mode: Wavelengths
Number of Pixels in Spectrum: 3648
>>>>>Begin Spectral Data<<<<<
178.204	-181.42
178.424	-181.42
178.644	-181.42
178.864	-162.98
179.084	-97.45
179.304	-11.43
179.524	-52.39
179.744	-60.59
179.964	31.57
180.184	37.72
180.404	15.19
180.624	33.62
180.844	47.96
181.064	-19.63
181.283	-15.53
181.503	29.52
181.723	-36.01
181.943	-11.43
182.163	13.14
182.383	23.38
182.602	56.15
182.822	-15.53
183.042	13.14
183.262	-107.69
183.482	7
183.701	-66.73
183.921	-11.43
184.141	-44.2
184.361	58.2
184.58	-27.82
184.8	-3.24
185.02	62.29
185.239	-3.24
185.459	-23.72
185.679	-5.29
185.898	-81.07
186.118	39.76
186.338	-52.39
186.557	68.44
186.777	-1.19
186.997	-27.82
187.216	68.44
187.436	97.11
187.655	9.05
187.875	29.52
188.095	-19.63
188.314	37.72
188.534	97.11
188.753	-66.73
188.973	-46.25
189.192	25.43
189.412	-1.19
189.631	33.62
189.851	29.52
190.07	9.05
190.29	-3.24
190.509	-27.82
190.729	-19.63
190.948	-29.87
191.168	50
191.387	23.38
191.607	-15.53
191.826	-23.72
192.045	-5.29
192.265	-17.58
192.484	-11.43
192.704	37.72
192.923	-3.24
193.142	50
193.362	66.39
193.581	70.48
193.8	23.38
194.02	-19.63
194.239	-50.35
194.458	-11.43
194.678	-44.2
194.897	0.85
195.116	0.85
195.335	62.29
195.555	-38.06
195.774	4.95
195.993	39.76
196.212	-58.54
196.432	-13.48
196.651	-19.63
196.87	-11.43
197.089	39.76
197.308	47.96
197.528	-3.24
197.747	-13.48
197.966	-3.24
198.185	-27.82
198.404	54.1
198.623	-52.39
198.842	-11.43
199.062	82.77
199.281	13.14
199.5	4.95
199.719	74.58
199.938	-5.29
200.157	37.72
200.376	-42.15
200.595	-27.82
200.814	-21.67
201.033	-87.21
201.252	27.48
201.471	-3.24
201.69	13.14
201.909	23.38
202.128	-15.53
202.347	41.81
202.566	4.95
202.785	-19.63
203.004	-64.68
203.223	9.05
203.442	-7.34
203.661	-72.87
203.879	-36.01
204.098	-25.77
204.317	23.38
204.536	13.14
204.755	31.57
204.974	-44.2
205.193	-27.82
205.411	-7.34
205.63	90.96
205.849	45.91
206.068	21.33
206.287	-76.97
206.505	-56.49
206.724	0.85
206.943	-56.49
207.162	-11.43
207.381	35.67
207.599	-13.48
207.818	27.48
208.037	-46.25
208.255	-23.72
208.474	-17.58
208.693	0.85
208.911	15.19
209.13	37.72
209.349	31.57
209.567	47.96
209.786	70.48
210.005	21.33
210.223	-19.63
210.442	21.33
210.661	-1.19
210.879	-36.01
211.098	4.95
211.316	17.24
211.535	-33.96
211.753	-25.77
211.972	-19.63
212.191	4.95
212.409	-23.72
212.628	19.29
212.846	4.95
213.065	-3.24
213.283	4.95
213.502	-9.39
213.72	43.86
213.938	41.81
214.157	45.91
214.375	86.87
214.594	-13.48
214.812	-52.39
215.031	-36.01
215.249	-5.29
215.467	-46.25
215.686	-17.58
215.904	19.29
216.122	33.62
216.341	76.63
216.559	9.05
216.778	-15.53
216.996	-36.01
217.214	-19.63
217.432	-40.11
217.651	-25.77
217.869	50
218.087	-122.02
218.306	39.76
218.524	-11.43
218.742	-48.3
218.96	78.68
219.179	39.76
219.397	4.95
219.615	-15.53
219.833	-52.39
220.051	-23.72
220.27	37.72
220.488	39.76
220.706	-36.01
220.924	-42.15
221.142	-5.29
221.36	-13.48
221.578	-36.01
221.796	-5.29
222.015	-11.43
222.233	-3.24
222.451	17.24
222.669	-40.11
222.887	-13.48
223.105	23.38
223.323	-3.24
223.541	9.05
223.759	-1.19
223.977	-38.06
224.195	37.72
224.413	-27.82
224.631	-7.34
224.849	-44.2
225.067	-1.19
225.285	-76.97
225.503	45.91
225.721	-36.01
225.939	-11.43
226.157	-36.01
226.375	78.68
226.592	17.24
226.81	-11.43
227.028	29.52
227.246	70.48
227.464	4.95
227.682	23.38
227.9	29.52
228.117	39.76
228.335	-11.43
228.553	58.2
228.771	-9.39
228.989	64.34
229.206	21.33
229.424	21.33
229.642	-83.11
229.86	-19.63
230.077	78.68
230.295	70.48
230.513	13.14
230.731	-1.19
230.948	29.52
231.166	17.24
231.384	9.05
231.601	41.81
231.819	33.62
232.037	88.92
232.254	-19.63
232.472	0.85
232.689	-101.55
232.907	-13.48
233.125	-27.82
233.342	-25.77
233.56	-17.58
233.777	-27.82
233.995	27.48
234.213	-3.24
234.43	-3.24
234.648	17.24
234.865	15.19
235.083	95.06
235.3	88.92
235.518	15.19
235.735	29.52
235.953	4.95
236.17	-50.35
236.388	-3.24
236.605	13.14
236.822	29.52
237.04	25.43
237.257	-7.34
237.475	58.2
237.692	25.43
237.909	-3.24
238.127	7
238.344	-99.5
238.562	-25.77
238.779	-40.11
238.996	17.24
239.214	-17.58
239.431	45.91
239.648	-13.48
239.865	-3.24
240.083	45.91
240.3	2.9
240.517	-54.44
240.735	-44.2
240.952	41.81
241.169	54.1
241.386	25.43
241.603	-19.63
241.821	-13.48
242.038	50
242.255	45.91
242.472	-1.19
242.689	74.58
242.907	-3.24
243.124	17.24
243.341	-83.11
243.558	-1.19
243.775	21.33
243.992	-76.97
244.209	-52.39
244.426	111.44
244.643	37.72
244.86	29.52
245.078	21.33
245.295	45.91
245.512	54.1
245.729	-52.39
245.946	-1.19
246.163	-44.2
246.38	-76.97
246.597	13.14
246.814	-74.92
247.031	4.95
247.248	-7.34
247.464	50
247.681	-101.55
247.898	27.48
248.115	80.72
248.332	-68.78
248.549	76.63
248.766	41.81
248.983	33.62
249.2	-19.63
249.417	56.15
249.633	-15.53
249.85	13.14
250.067	-11.43
250.284	-19.63
250.501	-29.87
250.717	29.52
250.934	4.95
251.151	-5.29
251.368	-101.55
251.585	23.38
251.801	25.43
252.018	74.58
252.235	56.15
252.451	-40.11
252.668	-48.3
252.885	23.38
253.102	33.62
253.318	-27.82
253.535	-3.24
253.752	-3.24
253.968	-122.02
254.185	27.48
254.401	-19.63
254.618	-7.34
254.835	13.14
255.051	9.05
255.268	-9.39
255.484	27.48
255.701	54.1
255.917	47.96
256.134	9.05
256.351	54.1
256.567	45.91
256.784	80.72
257	-81.07
257.217	21.33
257.433	9.05
257.65	54.1
257.866	66.39
258.082	-5.29
258.299	-5.29
258.515	80.72
258.732	-81.07
258.948	58.2
259.165	-23.72
259.381	-50.35
259.597	0.85
259.814	21.33
260.03	4.95
260.246	21.33
260.463	-3.24
260.679	78.68
260.895	25.43
261.112	-23.72
261.328	-60.59
261.544	-54.44
261.761	72.53
261.977	-58.54
262.193	-5.29
262.409	0.85
262.626	21.33
262.842	-25.77
263.058	23.38
263.274	-19.63
263.49	-36.01
263.707	19.29
263.923	45.91
264.139	-60.59
264.355	-21.67
264.571	23.38
264.787	27.48
265.004	45.91
265.22	21.33
265.436	-23.72
265.652	9.05
265.868	-19.63
266.084	-27.82
266.3	-44.2
266.516	-25.77
266.732	31.57
266.948	-5.29
267.164	-60.59
267.38	21.33
267.596	-17.58
267.812	37.72
268.028	47.96
268.244	0.85
268.46	37.72
268.676	2.9
268.892	4.95
269.108	-36.01
269.324	37.72
269.54	-68.78
269.756	64.34
269.972	15.19
270.188	29.52
270.403	9.05
270.619	-117.93
270.835	45.91
271.051	54.1
271.267	7
271.483	7
271.698	13.14
271.914	29.52
272.13	-27.82
272.346	-68.78
272.562	58.2
272.777	-5.29
272.993	-7.34
273.209	-19.63
273.425	45.91
273.64	-27.82
273.856	15.19
274.072	70.48
274.287	-31.91
274.503	19.29
274.719	-54.44
274.934	-27.82
275.15	-3.24
275.366	-60.59
275.581	-31.91
275.797	-21.67
276.012	15.19
276.228	-42.15
276.444	0.85
276.659	47.96
276.875	-38.06
277.09	50
277.306	-58.54
277.521	21.33
277.737	15.19
277.952	37.72
278.168	-9.39
278.383	-17.58
278.599	43.86
278.814	-27.82
279.03	-50.35
279.245	50
279.461	21.33
279.676	15.19
279.892	-60.59
280.107	-23.72
280.322	-11.43
280.538	33.62
280.753	25.43
280.969	13.14
281.184	45.91
281.399	-19.63
281.615	-40.11
281.83	7
282.045	0.85
282.26	-93.35
282.476	-48.3
282.691	21.33
282.906	-46.25
283.122	25.43
283.337	-17.58
283.552	2.9
283.767	-56.49
283.983	95.06
284.198	19.29
284.413	62.29
284.628	-1.19
284.843	-15.53
285.058	62.29
285.274	4.95
285.489	-56.49
285.704	-58.54
285.919	27.48
286.134	35.67
286.349	13.14
286.564	-64.68
286.779	66.39
286.995	-38.06
287.21	-17.58
287.425	-52.39
287.64	-1.19
287.855	-60.59
288.07	-60.59
288.285	54.1
288.5	9.05
288.715	-60.59
288.93	-29.87
289.145	-11.43
289.36	103.25
289.575	-3.24
289.79	41.81
290.004	33.62
290.219	31.57
290.434	-9.39
290.649	-42.15
290.864	72.53
291.079	-48.3
291.294	47.96
291.509	-19.63
291.724	-66.73
291.938	21.33
292.153	-11.43
292.368	39.76
292.583	29.52
292.798	13.14
293.012	13.14
293.227	54.1
293.442	4.95
293.657	74.58
293.871	78.68
294.086	-9.39
294.301	37.72
294.516	29.52
294.73	-31.91
294.945	-19.63
295.16	25.43
295.374	-3.24
295.589	-15.53
295.804	-40.11
296.018	-9.39
296.233	41.81
296.447	29.52
296.662	-3.24
296.877	121.68
297.091	-9.39
297.306	21.33
297.52	33.62
297.735	-42.15
297.949	15.19
298.164	56.15
298.378	27.48
298.593	-36.01
298.807	-23.72
299.022	80.72
299.236	35.67
299.451	-42.15
299.665	-107.69
299.88	70.48
300.094	9.05
300.309	72.53
300.523	4.95
300.737	54.1
300.952	4.95
301.166	-44.2
301.381	9.05
301.595	-60.59
301.809	-21.67
302.024	-40.11
302.238	-25.77
302.452	-27.82
302.667	-50.35
302.881	54.1
303.095	13.14
303.309	33.62
303.524	41.81
303.738	-36.01
303.952	-1.19
304.166	23.38
304.381	-33.96
304.595	62.29
304.809	21.33
305.023	15.19
305.237	78.68
305.452	-44.2
305.666	17.24
305.88	72.53
306.094	29.52
306.308	-11.43
306.522	-3.24
306.736	-1.19
306.95	-25.77
307.164	-7.34
307.379	41.81
307.593	45.91
307.807	37.72
308.021	-27.82
308.235	-27.82
308.449	-27.82
308.663	-17.58
308.877	4.95
309.091	27.48
309.305	-15.53
309.519	-42.15
309.733	54.1
309.947	-27.82
310.161	-33.96
310.374	-50.35
310.588	45.91
310.802	23.38
311.016	-17.58
311.23	7
311.444	-62.63
311.658	-3.24
311.872	-36.01
312.085	107.35
312.299	0.85
312.513	47.96
312.727	47.96
312.941	-1.19
313.154	43.86
313.368	-56.49
313.582	-11.43
313.796	-19.63
314.009	-7.34
314.223	56.15
314.437	66.39
314.651	-5.29
314.864	13.14
315.078	-17.58
315.292	-29.87
315.505	-27.82
315.719	-58.54
315.933	4.95
316.146	-83.11
316.36	-23.72
316.573	-25.77
316.787	37.72
317.001	-15.53
317.214	-27.82
317.428	-1.19
317.641	29.52
317.855	-7.34
318.068	-64.68
318.282	13.14
318.495	88.92
318.709	-7.34
318.922	-29.87
319.136	127.83
319.349	-3.24
319.563	-1.19
319.776	29.52
319.99	13.14
320.203	-19.63
320.417	-83.11
320.63	4.95
320.843	29.52
321.057	21.33
321.27	17.24
321.483	21.33
321.697	68.44
321.91	31.57
322.124	-36.01
322.337	4.95
322.55	-33.96
322.763	-48.3
322.977	25.43
323.19	-27.82
323.403	-23.72
323.617	64.34
323.83	37.72
324.043	-1.19
324.256	78.68
324.469	-21.67
324.683	62.29
324.896	-3.24
325.109	11.09
325.322	-105.64
325.535	-3.24
325.748	23.38
325.962	70.48
326.175	21.33
326.388	-25.77
326.601	11.09
326.814	-58.54
327.027	7
327.24	-52.39
327.453	-17.58
327.666	-15.53
327.879	45.91
328.092	47.96
328.305	54.1
328.518	-19.63
328.731	-23.72
328.944	7
329.157	-3.24
329.37	23.38
329.583	9.05
329.796	41.81
330.009	-81.07
330.222	13.14
330.435	35.67
330.648	43.86
330.861	0.85
331.073	41.81
331.286	47.96
331.499	-79.02
331.712	33.62
331.925	78.68
332.138	70.48
332.35	70.48
332.563	-9.39
332.776	-56.49
332.989	37.72
333.202	4.95
333.414	58.2
333.627	21.33
333.84	13.14
334.053	47.96
334.265	54.1
334.478	-56.49
334.691	-60.59
334.903	54.1
335.116	64.34
335.329	-33.96
335.541	68.44
335.754	90.96
335.966	86.87
336.179	-25.77
336.392	39.76
336.604	-3.24
336.817	29.52
337.029	62.29
337.242	-50.35
337.454	-11.43
337.667	52.05
337.88	47.96
338.092	54.1
338.305	66.39
338.517	29.52
338.729	43.86
338.942	31.57
339.154	-9.39
339.367	-36.01
339.579	72.53
339.792	4.95
340.004	45.91
340.217	-23.72
340.429	13.14
340.641	-66.73
340.854	-56.49
341.066	-19.63
341.278	31.57
341.491	88.92
341.703	-27.82
341.915	21.33
342.128	72.53
342.34	54.1
342.552	9.05
342.764	9.05
342.977	39.76
343.189	25.43
343.401	74.58
343.613	-27.82
343.826	21.33
344.038	-7.34
344.25	17.24
344.462	29.52
344.674	11.09
344.886	4.95
345.099	37.72
345.311	13.14
345.523	4.95
345.735	-72.87
345.947	47.96
346.159	-23.72
346.371	21.33
346.583	52.05
346.795	84.82
347.007	17.24
347.219	29.52
347.431	-38.06
347.643	27.48
347.855	7
348.067	45.91
348.279	-3.24
348.491	-36.01
348.703	-25.77
348.915	-11.43
349.127	-3.24
349.339	-36.01
349.551	11.09
349.763	4.95
349.975	-17.58
350.187	52.05
350.399	-11.43
350.61	-23.72
350.822	-21.67
351.034	21.33
351.246	-3.24
351.458	41.81
351.669	4.95
351.881	13.14
352.093	2.9
352.305	54.1
352.517	-29.87
352.728	13.14
352.94	-7.34
353.152	29.52
353.363	-74.92
353.575	-7.34
353.787	-11.43
353.999	2.9
354.21	19.29
354.422	7
354.633	-19.63
354.845	31.57
355.057	50
355.268	54.1
355.48	-11.43
355.692	-25.77
355.903	4.95
356.115	-58.54
356.326	-36.01
356.538	4.95
356.749	2.9
356.961	-58.54
357.172	17.24
357.384	-11.43
357.595	62.29
357.807	-1.19
358.018	-17.58
358.23	37.72
358.441	50
358.653	45.91
358.864	7
359.075	-7.34
359.287	35.67
359.498	99.16
359.709	-40.11
359.921	25.43
360.132	13.14
360.344	2.9
360.555	13.14
360.766	45.91
360.977	-7.34
361.189	45.91
361.4	-15.53
361.611	-19.63
361.823	31.57
362.034	29.52
362.245	9.05
362.456	-11.43
362.667	-40.11
362.879	19.29
363.09	-3.24
363.301	-60.59
363.512	7
363.723	21.33
363.935	23.38
364.146	50
364.357	37.72
364.568	29.52
364.779	-42.15
364.99	21.33
365.201	29.52
365.412	103.25
365.623	25.43
365.834	68.44
366.045	-7.34
366.256	68.44
366.467	70.48
366.678	4.95
366.889	-17.58
367.1	-52.39
367.311	27.48
367.522	-50.35
367.733	-1.19
367.944	-42.15
368.155	-44.2
368.366	60.24
368.577	72.53
368.788	45.91
368.999	17.24
369.209	7
369.42	111.44
369.631	136.02
369.842	-72.87
370.053	-44.2
370.264	-3.24
370.474	62.29
370.685	29.52
370.896	-3.24
371.107	68.44
371.317	21.33
371.528	-64.68
371.739	9.05
371.95	-50.35
372.16	62.29
372.371	-1.19
372.582	17.24
372.792	-5.29
373.003	-3.24
373.214	13.14
373.424	-3.24
373.635	-1.19
373.846	0.85
374.056	-15.53
374.267	62.29
374.477	-3.24
374.688	-1.19
374.898	-7.34
375.109	11.09
375.319	15.19
375.53	33.62
375.74	11.09
375.951	45.91
376.161	13.14
376.372	47.96
376.582	31.57
376.793	-25.77
377.003	13.14
377.214	21.33
377.424	9.05
377.635	-74.92
377.845	-38.06
378.055	29.52
378.266	-68.78
378.476	-11.43
378.686	31.57
378.897	-27.82
379.107	37.72
379.317	-9.39
379.528	136.02
379.738	90.96
379.948	-33.96
380.158	-3.24
380.369	19.29
380.579	86.87
380.789	-25.77
380.999	60.24
381.21	9.05
381.42	78.68
381.63	50
381.84	107.35
382.05	37.72
382.261	27.48
382.471	7
382.681	-40.11
382.891	56.15
383.101	-27.82
383.311	70.48
383.521	37.72
383.731	-50.35
383.941	72.53
384.151	-29.87
384.361	82.77
384.571	-3.24
384.781	62.29
384.991	74.58
385.201	88.92
385.411	70.48
385.621	62.29
385.831	13.14
386.041	4.95
386.251	-15.53
386.461	119.64
386.671	62.29
386.881	37.72
387.091	45.91
387.301	43.86
387.511	23.38
387.72	0.85
387.93	27.48
388.14	-42.15
388.35	45.91
388.56	-66.73
388.769	23.38
388.979	45.91
389.189	-9.39
389.399	50
389.609	152.4
389.818	54.1
390.028	64.34
390.238	-5.29
390.447	41.81
390.657	-3.24
390.867	31.57
391.076	23.38
391.286	-52.39
391.496	17.24
391.705	72.53
391.915	86.87
392.125	21.33
392.334	136.02
392.544	45.91
392.753	9.05
392.963	-25.77
393.172	78.68
393.382	4.95
393.591	95.06
393.801	-19.63
394.01	105.3
394.22	-29.87
394.429	97.11
394.639	82.77
394.848	21.33
395.058	68.44
395.267	15.19
395.477	-7.34
395.686	-25.77
395.895	31.57
396.105	45.91
396.314	23.38
396.524	7
396.733	-11.43
396.942	90.96
397.152	56.15
397.361	17.24
397.57	-15.53
397.78	97.11
397.989	86.87
398.198	23.38
398.407	68.44
398.617	54.1
398.826	109.4
399.035	90.96
399.244	39.76
399.453	101.2
399.663	4.95
399.872	52.05
400.081	25.43
400.29	21.33
400.499	78.68
400.708	90.96
400.917	56.15
401.127	-3.24
401.336	62.29
401.545	144.21
401.754	50
401.963	99.16
402.172	39.76
402.381	11.09
402.59	90.96
402.799	82.77
403.008	123.73
403.217	64.34
403.426	64.34
403.635	45.91
403.844	160.59
404.053	84.82
404.262	64.34
404.471	103.25
404.68	80.72
404.888	54.1
405.097	93.01
405.306	70.48
405.515	170.83
405.724	76.63
405.933	142.16
406.142	88.92
406.35	176.98
406.559	140.12
406.768	154.45
406.977	260.95
407.185	138.07
407.394	209.75
407.603	160.59
407.812	156.5
408.02	154.45
408.229	121.68
408.438	164.69
408.646	119.64
408.855	187.22
409.064	156.5
409.272	156.5
409.481	219.99
409.69	195.41
409.898	217.94
410.107	213.84
410.315	193.36
410.524	234.32
410.733	234.32
410.941	279.38
411.15	234.32
411.358	277.33
411.567	316.24
411.775	258.9
411.984	363.34
412.192	357.2
412.401	254.8
412.609	377.68
412.818	400.21
413.026	385.87
413.234	328.53
413.443	480.08
413.651	387.92
413.86	367.44
414.068	432.97
414.276	471.89
414.485	506.7
414.693	580.43
414.901	504.65
415.11	580.43
415.318	523.09
415.526	598.86
415.734	613.2
415.943	586.57
416.151	645.96
416.359	580.43
416.567	627.53
416.776	652.11
416.984	670.54
417.192	787.27
417.4	721.74
417.608	766.79
417.817	811.85
418.025	832.33
418.233	914.25
418.441	861
418.649	1039.17
418.857	965.45
419.065	1045.32
419.273	1117
419.481	1059.65
419.689	1098.56
419.897	1129.28
420.105	1123.14
420.313	1180.48
420.521	1297.22
420.729	1350.46
420.937	1227.59
421.145	1379.14
421.353	1477.44
421.561	1479.49
421.769	1610.56
421.977	1461.06
422.185	1524.54
422.393	1825.59
422.601	1858.36
422.809	1899.32
423.017	1733.43
423.224	1835.83
423.432	1946.42
423.64	1946.42
423.848	2196.28
424.056	2026.29
424.263	2286.39
424.471	2145.08
424.679	2224.95
424.887	2376.5
425.094	2519.85
425.302	2310.96
425.51	2425.65
425.718	2675.5
425.925	2708.27
426.133	2806.57
426.341	2974.5
426.548	3070.76
426.756	3056.42
426.964	3046.18
427.171	3226.4
427.379	3214.12
427.586	3603.23
427.794	3453.73
428.001	3701.53
428.209	3781.4
428.417	3810.08
428.624	3998.49
428.832	4096.79
429.039	3822.36
429.247	4000.54
429.454	4383.51
429.662	4743.95
429.869	4403.99
430.076	4887.31
430.284	4469.52
430.491	4741.9
430.699	5122.82
430.906	5073.67
431.114	5110.54
431.321	5243.65
431.528	5415.68
431.736	5841.66
431.943	6093.56
432.15	5683.97
432.358	6019.83
432.565	6218.49
432.772	6241.01
432.979	6566.64
433.187	6574.83
433.394	6693.62
433.601	7234.28
433.808	7156.46
434.016	7242.47
434.223	7514.85
434.43	7983.84
434.637	7699.17
434.844	8110.81
435.052	8428.24
435.259	8192.73
435.466	8311.51
435.673	8331.99
435.88	8872.65
436.087	9331.4
436.294	9292.49
436.501	9210.57
436.708	9384.65
436.915	9513.67
437.122	9974.46
437.329	10009.28
437.537	10343.1
437.743	10367.67
437.95	10326.71
438.157	10787.5
438.364	11248.3
438.571	11264.68
438.778	11184.81
438.985	12354.2
439.192	11963.04
439.399	12212.89
439.606	11973.28
439.813	12622.48
440.02	13400.71
440.227	13322.89
440.433	13091.47
440.64	13347.47
440.847	13355.66
441.054	13742.72
441.261	14617.21
441.467	14250.62
441.674	14805.62
441.881	15168.11
442.088	15266.41
442.294	15143.53
442.501	15301.23
442.708	15766.12
442.914	16370.27
443.121	17039.95
443.328	16699.99
443.534	17824.33
443.741	17257.04
443.948	16962.13
444.154	18207.3
444.361	18217.54
444.568	18383.42
444.774	18422.33
444.981	18397.76
445.187	18897.46
445.394	19567.15
445.6	19718.7
445.807	21291.54
446.013	20619.8
446.22	20689.43
446.426	21611.02
446.633	21733.9
446.839	22596.09
447.046	21651.98
447.252	22831.61
447.459	22751.74
447.665	22708.73
447.871	23724.52
448.078	24654.3
448.284	23734.76
448.491	24654.3
448.697	25143.77
448.903	25719.24
449.11	26026.44
449.316	25344.47
449.522	25971.15
449.728	26872.25
449.935	27183.54
450.141	26804.67
450.347	27271.61
450.553	26882.49
450.76	26915.26
450.966	28000.68
451.172	27271.61
451.378	28432.8
451.584	27863.47
451.791	28408.23
451.997	28551.59
452.203	28555.68
452.409	28909.98
452.615	28422.56
452.821	27376.05
453.027	27201.97
453.233	29108.63
453.44	28012.97
453.646	27894.19
453.852	27924.91
454.058	28764.57
454.264	27558.32
454.47	28711.33
454.676	27771.31
454.882	28643.74
455.088	26221
455.294	26583.49
455.5	27107.77
455.705	27253.17
455.911	26141.13
456.117	25305.56
456.323	25596.37
456.529	24232.42
456.735	25356.75
456.941	24340.96
457.147	24332.77
457.352	23509.49
457.558	23103.99
457.764	23372.27
457.97	22528.51
458.176	22407.68
458.381	22075.91
458.587	21223.95
458.793	21160.47
458.999	20101.67
459.204	21527.05
459.41	20918.81
459.616	19599.91
459.821	19821.09
460.027	19380.78
460.233	19092.02
460.438	18256.45
460.644	18467.39
460.85	17498.7
461.055	17250.89
461.261	17203.79
461.466	16101.98
461.672	15415.91
461.878	16710.23
462.083	15620.71
462.289	15000.18
462.494	15188.59
462.7	14434.94
462.905	13996.67
463.111	14486.14
463.316	14217.85
463.522	14389.88
463.727	14267
463.932	14488.18
464.138	14185.08
464.343	14267
464.549	13746.82
464.754	14209.66
464.959	13894.27
465.165	13814.4
465.37	13380.23
465.575	12999.31
465.781	13613.7
465.986	13507.21
466.191	13306.51
466.397	13001.36
466.602	12259.99
466.807	12814.99
