Data from USB4F104151__168__14-44-55-476.txt Node

Date: Thu Mar 13 14:44:55 EDT 2025
User: louis
Spectrometer: USB4F10415
Trigger mode: 4
Integration Time (sec): 2.000000E-2
Scans to average: 1
Electric dark correction enabled: true
Nonlinearity correction enabled: false
Boxcar width: 0
XAxis mode: Wavelengths
Number of Pixels in Spectrum: 3648
>>>>>Begin Spectral Data<<<<<
178.204	-152.4
178.424	-152.4
178.644	-152.4
178.864	-117.59
179.084	-90.96
179.304	-19.29
179.524	21.67
179.744	-74.58
179.964	62.63
180.184	17.58
180.404	70.83
180.624	5.29
180.844	-33.62
181.064	-39.76
181.283	5.29
181.503	-9.05
181.723	-7
181.943	-93.01
182.163	54.44
182.383	21.67
182.602	9.39
182.822	48.3
183.042	74.92
183.262	7.34
183.482	95.4
183.701	-31.57
183.921	56.49
184.141	15.53
184.361	66.73
184.58	81.07
184.8	103.59
185.02	5.29
185.239	95.4
185.459	1.19
185.679	113.83
185.898	15.53
186.118	31.91
186.338	31.91
186.557	40.11
186.777	29.87
186.997	-2.9
187.216	-41.81
187.436	109.74
187.655	60.59
187.875	52.39
188.095	23.72
188.314	38.06
188.534	103.59
188.753	-9.05
188.973	40.11
189.192	50.35
189.412	62.63
189.631	-11.09
189.851	50.35
190.07	5.29
190.29	-19.29
190.509	31.91
190.729	31.91
190.948	40.11
191.168	54.44
191.387	115.88
191.607	-17.24
191.826	38.06
192.045	-41.81
192.265	-11.09
192.484	38.06
192.704	27.82
192.923	-15.19
193.142	103.59
193.362	15.53
193.581	60.59
193.8	48.3
194.02	19.63
194.239	27.82
194.458	72.87
194.678	25.77
194.897	64.68
195.116	81.07
195.335	52.39
195.555	54.44
195.774	-2.9
195.993	38.06
196.212	81.07
196.432	87.21
196.651	17.58
196.87	1.19
197.089	23.72
197.308	-27.48
197.528	124.07
197.747	21.67
197.966	7.34
198.185	29.87
198.404	-9.05
198.623	25.77
198.842	23.72
199.062	29.87
199.281	42.15
199.5	-27.48
199.719	50.35
199.938	-76.63
200.157	87.21
200.376	31.91
200.595	81.07
200.814	-60.24
201.033	107.69
201.252	21.67
201.471	40.11
201.69	70.83
201.909	62.63
202.128	70.83
202.347	13.48
202.566	31.91
202.785	23.72
203.004	50.35
203.223	105.64
203.442	29.87
203.661	23.72
203.879	-43.86
204.098	156.84
204.317	-33.62
204.536	85.16
204.755	95.4
204.974	46.25
205.193	25.77
205.411	128.17
205.63	83.11
205.849	95.4
206.068	50.35
206.287	36.01
206.505	-19.29
206.724	-39.76
206.943	40.11
207.162	46.25
207.381	-0.85
207.599	-9.05
207.818	74.92
208.037	-4.95
208.255	50.35
208.474	87.21
208.693	-11.09
208.911	33.96
209.13	9.39
209.349	31.91
209.567	25.77
209.786	87.21
210.005	-9.05
210.223	23.72
210.442	1.19
210.661	-9.05
210.879	23.72
211.098	40.11
211.316	31.91
211.535	46.25
211.753	-9.05
211.972	13.48
212.191	-27.48
212.409	-0.85
212.628	-0.85
212.846	56.49
213.065	122.02
213.283	74.92
213.502	91.31
213.72	46.25
213.938	-21.33
214.157	23.72
214.375	62.63
214.594	38.06
214.812	54.44
215.031	-9.05
215.249	31.91
215.467	-11.09
215.686	13.48
215.904	13.48
216.122	29.87
216.341	70.83
216.559	-2.9
216.778	70.83
216.996	58.54
217.214	-2.9
217.432	138.41
217.651	38.06
217.869	29.87
218.087	17.58
218.306	-23.38
218.524	38.06
218.742	89.26
218.96	54.44
219.179	56.49
219.397	23.72
219.615	56.49
219.833	13.48
220.051	56.49
220.27	33.96
220.488	13.48
220.706	76.97
220.924	70.83
221.142	5.29
221.36	36.01
221.578	-0.85
221.796	21.67
222.015	52.39
222.233	93.35
222.451	15.53
222.669	-11.09
222.887	21.67
223.105	21.67
223.323	-11.09
223.541	-35.67
223.759	-17.24
223.977	23.72
224.195	46.25
224.413	46.25
224.631	56.49
224.849	50.35
225.067	70.83
225.285	-9.05
225.503	97.45
225.721	-47.96
225.939	87.21
226.157	85.16
226.375	130.22
226.592	66.73
226.81	-23.38
227.028	74.92
227.246	27.82
227.464	-45.91
227.682	50.35
227.9	64.68
228.117	54.44
228.335	87.21
228.553	64.68
228.771	29.87
228.989	79.02
229.206	42.15
229.424	54.44
229.642	27.82
229.86	48.3
230.077	70.83
230.295	17.58
230.513	54.44
230.731	38.06
230.948	97.45
231.166	29.87
231.384	23.72
231.601	38.06
231.819	29.87
232.037	-15.19
232.254	15.53
232.472	5.29
232.689	33.96
232.907	50.35
233.125	46.25
233.342	70.83
233.56	-11.09
233.777	15.53
233.995	25.77
234.213	89.26
234.43	5.29
234.648	29.87
234.865	83.11
235.083	-11.09
235.3	74.92
235.518	115.88
235.735	-15.19
235.953	91.31
236.17	144.55
236.388	23.72
236.605	38.06
236.822	13.48
237.04	122.02
237.257	-19.29
237.475	66.73
237.692	54.44
237.909	36.01
238.127	54.44
238.344	31.91
238.562	-2.9
238.779	15.53
238.996	-19.29
239.214	79.02
239.431	42.15
239.648	56.49
239.865	79.02
240.083	40.11
240.3	5.29
240.517	-33.62
240.735	38.06
240.952	31.91
241.169	21.67
241.386	-29.52
241.603	13.48
241.821	-19.29
242.038	87.21
242.255	25.77
242.472	54.44
242.689	33.96
242.907	38.06
243.124	13.48
243.341	83.11
243.558	5.29
243.775	13.48
243.992	-41.81
244.209	1.19
244.426	44.2
244.643	74.92
244.86	70.83
245.078	91.31
245.295	-11.09
245.512	48.3
245.729	5.29
245.946	42.15
246.163	128.17
246.38	58.54
246.597	-23.38
246.814	79.02
247.031	11.43
247.248	48.3
247.464	64.68
247.681	21.67
247.898	54.44
248.115	50.35
248.332	-11.09
248.549	81.07
248.766	54.44
248.983	70.83
249.2	68.78
249.417	54.44
249.633	9.39
249.85	48.3
250.067	95.4
250.284	-9.05
250.501	25.77
250.717	23.72
250.934	42.15
251.151	42.15
251.368	54.44
251.585	17.58
251.801	5.29
252.018	62.63
252.235	74.92
252.451	54.44
252.668	-21.33
252.885	91.31
253.102	-11.09
253.318	54.44
253.535	33.96
253.752	58.54
253.968	38.06
254.185	-19.29
254.401	5.29
254.618	87.21
254.835	13.48
255.051	95.4
255.268	-19.29
255.484	64.68
255.701	-25.43
255.917	1.19
256.134	25.77
256.351	29.87
256.567	64.68
256.784	85.16
257	-39.76
257.217	93.35
257.433	36.01
257.65	91.31
257.866	81.07
258.082	-27.48
258.299	-11.09
258.515	66.73
258.732	21.67
258.948	72.87
259.165	56.49
259.381	-13.14
259.597	40.11
259.814	54.44
260.03	13.48
260.246	38.06
260.463	5.29
260.679	136.36
260.895	48.3
261.112	23.72
261.328	29.87
261.544	29.87
261.761	81.07
261.977	74.92
262.193	40.11
262.409	27.82
262.626	74.92
262.842	83.11
263.058	-25.43
263.274	33.96
263.49	38.06
263.707	87.21
263.923	-2.9
264.139	7.34
264.355	-66.39
264.571	148.65
264.787	-25.43
265.004	113.83
265.22	-43.86
265.436	64.68
265.652	64.68
265.868	40.11
266.084	31.91
266.3	64.68
266.516	40.11
266.732	29.87
266.948	11.43
267.164	58.54
267.38	48.3
267.596	-15.19
267.812	58.54
268.028	46.25
268.244	1.19
268.46	89.26
268.676	-15.19
268.892	-35.67
269.108	-58.2
269.324	19.63
269.54	5.29
269.756	50.35
269.972	21.67
270.188	66.73
270.403	31.91
270.619	13.48
270.835	-90.96
271.051	9.39
271.267	29.87
271.483	50.35
271.698	72.87
271.914	48.3
272.13	-31.57
272.346	58.54
272.562	81.07
272.777	31.91
272.993	31.91
273.209	36.01
273.425	64.68
273.64	-15.19
273.856	19.63
274.072	-27.48
274.287	-25.43
274.503	79.02
274.719	33.96
274.934	-0.85
275.15	-4.95
275.366	46.25
275.581	58.54
275.797	70.83
276.012	40.11
276.228	87.21
276.444	-0.85
276.659	54.44
276.875	21.67
277.09	21.67
277.306	79.02
277.521	89.26
277.737	105.64
277.952	31.91
278.168	60.59
278.383	29.87
278.599	29.87
278.814	56.49
279.03	38.06
279.245	79.02
279.461	17.58
279.676	5.29
279.892	1.19
280.107	-54.1
280.322	54.44
280.538	40.11
280.753	-9.05
280.969	29.87
281.184	5.29
281.399	70.83
281.615	15.53
281.83	81.07
282.045	7.34
282.26	-11.09
282.476	50.35
282.691	40.11
282.906	91.31
283.122	29.87
283.337	60.59
283.552	111.78
283.767	3.24
283.983	15.53
284.198	21.67
284.413	103.59
284.628	15.53
284.843	66.73
285.058	58.54
285.274	17.58
285.489	79.02
285.704	40.11
285.919	-27.48
286.134	-13.14
286.349	91.31
286.564	27.82
286.779	87.21
286.995	7.34
287.21	81.07
287.425	5.29
287.64	13.48
287.855	-11.09
288.07	54.44
288.285	66.73
288.5	72.87
288.715	72.87
288.93	23.72
289.145	70.83
289.36	79.02
289.575	-0.85
289.79	111.78
290.004	50.35
290.219	46.25
290.434	-70.48
290.649	13.48
290.864	-19.29
291.079	15.53
291.294	7.34
291.509	81.07
291.724	-2.9
291.938	19.63
292.153	23.72
292.368	76.97
292.583	46.25
292.798	40.11
293.012	38.06
293.227	46.25
293.442	-35.67
293.657	101.55
293.871	54.44
294.086	66.73
294.301	119.98
294.516	76.97
294.73	25.77
294.945	42.15
295.16	119.98
295.374	58.54
295.589	58.54
295.804	48.3
296.018	-27.48
296.233	97.45
296.447	97.45
296.662	-15.19
296.877	95.4
297.091	-9.05
297.306	46.25
297.52	-31.57
297.735	33.96
297.949	-4.95
298.164	42.15
298.378	1.19
298.593	-15.19
298.807	17.58
299.022	89.26
299.236	79.02
299.451	74.92
299.665	70.83
299.88	-4.95
300.094	21.67
300.309	66.73
300.523	42.15
300.737	31.91
300.952	33.96
301.166	68.78
301.381	-4.95
301.595	38.06
301.809	97.45
302.024	21.67
302.238	25.77
302.452	62.63
302.667	117.93
302.881	76.97
303.095	87.21
303.309	38.06
303.524	-19.29
303.738	33.96
303.952	19.63
304.166	-50
304.381	7.34
304.595	113.83
304.809	5.29
305.023	81.07
305.237	31.91
305.452	5.29
305.666	29.87
305.88	68.78
306.094	19.63
306.308	-25.43
306.522	126.12
306.736	3.24
306.95	105.64
307.164	17.58
307.379	-17.24
307.593	111.78
307.807	40.11
308.021	62.63
308.235	29.87
308.449	29.87
308.663	62.63
308.877	160.94
309.091	74.92
309.305	66.73
309.519	21.67
309.733	54.44
309.947	64.68
310.161	70.83
310.374	-19.29
310.588	97.45
310.802	7.34
311.016	89.26
311.23	38.06
311.444	23.72
311.658	54.44
311.872	76.97
312.085	74.92
312.299	58.54
312.513	29.87
312.727	113.83
312.941	-4.95
313.154	31.91
313.368	-7
313.582	40.11
313.796	17.58
314.009	-33.62
314.223	-19.29
314.437	25.77
314.651	111.78
314.864	52.39
315.078	21.67
315.292	21.67
315.505	89.26
315.719	29.87
315.933	128.17
316.146	-19.29
316.36	7.34
316.573	64.68
316.787	52.39
317.001	21.67
317.214	54.44
317.428	74.92
317.641	40.11
317.855	40.11
318.068	1.19
318.282	81.07
318.495	7.34
318.709	54.44
318.922	1.19
319.136	105.64
319.349	91.31
319.563	54.44
319.776	36.01
319.99	48.3
320.203	60.59
320.417	97.45
320.63	70.83
320.843	66.73
321.057	70.83
321.27	-19.29
321.483	-41.81
321.697	38.06
321.91	56.49
322.124	-4.95
322.337	54.44
322.55	48.3
322.763	89.26
322.977	-25.43
323.19	33.96
323.403	144.55
323.617	48.3
323.83	107.69
324.043	-27.48
324.256	64.68
324.469	3.24
324.683	72.87
324.896	154.79
325.109	46.25
325.322	46.25
325.535	13.48
325.748	40.11
325.962	79.02
326.175	23.72
326.388	72.87
326.601	17.58
326.814	62.63
327.027	33.96
327.24	136.36
327.453	25.77
327.666	48.3
327.879	42.15
328.092	99.5
328.305	52.39
328.518	-0.85
328.731	13.48
328.944	103.59
329.157	66.73
329.37	11.43
329.583	99.5
329.796	119.98
330.009	9.39
330.222	103.59
330.435	25.77
330.648	103.59
330.861	11.43
331.073	-7
331.286	58.54
331.499	17.58
331.712	83.11
331.925	23.72
332.138	-4.95
332.35	113.83
332.563	-41.81
332.776	7.34
332.989	-19.29
333.202	7.34
333.414	33.96
333.627	-9.05
333.84	50.35
334.053	44.2
334.265	50.35
334.478	-2.9
334.691	38.06
334.903	46.25
335.116	15.53
335.329	-35.67
335.541	87.21
335.754	58.54
335.966	-0.85
336.179	38.06
336.392	50.35
336.604	-9.05
336.817	-27.48
337.029	115.88
337.242	111.78
337.454	21.67
337.667	66.73
337.88	85.16
338.092	21.67
338.305	56.49
338.517	50.35
338.729	33.96
338.942	87.21
339.154	5.29
339.367	21.67
339.579	70.83
339.792	11.43
340.004	93.35
340.217	66.73
340.429	66.73
340.641	1.19
340.854	58.54
341.066	19.63
341.278	95.4
341.491	128.17
341.703	103.59
341.915	-0.85
342.128	36.01
342.34	42.15
342.552	-27.48
342.764	50.35
342.977	62.63
343.189	29.87
343.401	31.91
343.613	83.11
343.826	103.59
344.038	38.06
344.25	38.06
344.462	-2.9
344.674	87.21
344.886	-39.76
345.099	60.59
345.311	42.15
345.523	79.02
345.735	46.25
345.947	-7
346.159	21.67
346.371	50.35
346.583	21.67
346.795	105.64
347.007	52.39
347.219	113.83
347.431	-84.82
347.643	70.83
347.855	56.49
348.067	136.36
348.279	74.92
348.491	38.06
348.703	54.44
348.915	15.53
349.127	44.2
349.339	9.39
349.551	115.88
349.763	68.78
349.975	87.21
350.187	36.01
350.399	-11.09
350.61	62.63
350.822	29.87
351.034	64.68
351.246	70.83
351.458	79.02
351.669	54.44
351.881	56.49
352.093	29.87
352.305	40.11
352.517	-21.33
352.728	54.44
352.94	-43.86
353.152	146.6
353.363	33.96
353.575	76.97
353.787	44.2
353.999	72.87
354.21	83.11
354.422	79.02
354.633	44.2
354.845	40.11
355.057	1.19
355.268	7.34
355.48	113.83
355.692	1.19
355.903	89.26
356.115	11.43
356.326	-11.09
356.538	179.37
356.749	11.43
356.961	-2.9
357.172	21.67
357.384	1.19
357.595	29.87
357.807	50.35
358.018	38.06
358.23	15.53
358.441	68.78
358.653	38.06
358.864	13.48
359.075	-19.29
359.287	21.67
359.498	56.49
359.709	119.98
359.921	11.43
360.132	132.26
360.344	27.82
360.555	-15.19
360.766	87.21
360.977	21.67
361.189	3.24
361.4	-2.9
361.611	76.97
361.823	119.98
362.034	56.49
362.245	21.67
362.456	23.72
362.667	-4.95
362.879	38.06
363.09	76.97
363.301	89.26
363.512	91.31
363.723	56.49
363.935	58.54
364.146	50.35
364.357	-29.52
364.568	91.31
364.779	68.78
364.99	68.78
365.201	13.48
365.412	95.4
365.623	5.29
365.834	54.44
366.045	-33.62
366.256	-7
366.467	42.15
366.678	7.34
366.889	54.44
367.1	36.01
367.311	15.53
367.522	31.91
367.733	99.5
367.944	76.97
368.155	56.49
368.366	56.49
368.577	33.96
368.788	62.63
368.999	76.97
369.209	52.39
369.42	128.17
369.631	115.88
369.842	79.02
370.053	-4.95
370.264	42.15
370.474	85.16
370.685	42.15
370.896	-0.85
371.107	36.01
371.317	91.31
371.528	89.26
371.739	38.06
371.95	74.92
372.16	-25.43
372.371	-41.81
372.582	72.87
372.792	99.5
373.003	85.16
373.214	70.83
373.424	13.48
373.635	25.77
373.846	95.4
374.056	87.21
374.267	25.77
374.477	38.06
374.688	5.29
374.898	23.72
375.109	46.25
375.319	97.45
375.53	144.55
375.74	21.67
375.951	58.54
376.161	25.77
376.372	46.25
376.582	60.59
376.793	111.78
377.003	31.91
377.214	46.25
377.424	83.11
377.635	54.44
377.845	-11.09
378.055	52.39
378.266	-23.38
378.476	5.29
378.686	79.02
378.897	46.25
379.107	17.58
379.317	70.83
379.528	40.11
379.738	29.87
379.948	58.54
380.158	52.39
380.369	83.11
380.579	31.91
380.789	25.77
380.999	13.48
381.21	68.78
381.42	97.45
381.63	111.78
381.84	122.02
382.05	40.11
382.261	103.59
382.471	15.53
382.681	27.82
382.891	64.68
383.101	58.54
383.311	-0.85
383.521	38.06
383.731	70.83
383.941	62.63
384.151	5.29
384.361	48.3
384.571	54.44
384.781	64.68
384.991	21.67
385.201	83.11
385.411	50.35
385.621	42.15
385.831	58.54
386.041	119.98
386.251	25.77
386.461	95.4
386.671	101.55
386.881	64.68
387.091	122.02
387.301	103.59
387.511	62.63
387.72	70.83
387.93	136.36
388.14	42.15
388.35	3.24
388.56	148.65
388.769	31.91
388.979	29.87
389.189	38.06
389.399	105.64
389.609	46.25
389.818	72.87
390.028	66.73
390.238	56.49
390.447	-9.05
390.657	36.01
390.867	19.63
391.076	52.39
391.286	138.41
391.496	-39.76
391.705	68.78
391.915	105.64
392.125	83.11
392.334	111.78
392.544	136.36
392.753	87.21
392.963	17.58
393.172	173.22
393.382	-2.9
393.591	95.4
393.801	54.44
394.01	142.5
394.22	68.78
394.429	48.3
394.639	9.39
394.848	64.68
395.058	56.49
395.267	66.73
395.477	105.64
395.686	119.98
395.895	162.98
396.105	144.55
396.314	40.11
396.524	70.83
396.733	91.31
396.942	58.54
397.152	150.7
397.361	146.6
397.57	105.64
397.78	138.41
397.989	136.36
398.198	148.65
398.407	29.87
398.617	97.45
398.826	109.74
399.035	74.92
399.244	95.4
399.453	111.78
399.663	79.02
399.872	132.26
400.081	25.77
400.29	152.74
400.499	76.97
400.708	158.89
400.917	48.3
401.127	177.32
401.336	122.02
401.545	103.59
401.754	105.64
401.963	171.18
402.172	83.11
402.381	103.59
402.59	64.68
402.799	87.21
403.008	119.98
403.217	111.78
403.426	136.36
403.635	70.83
403.844	89.26
404.053	124.07
404.262	54.44
404.471	165.03
404.68	132.26
404.888	130.22
405.097	119.98
405.306	54.44
405.515	144.55
405.724	136.36
405.933	113.83
406.142	165.03
406.35	242.85
406.559	203.94
406.768	138.41
406.977	244.9
407.185	279.72
407.394	177.32
407.603	152.74
407.812	214.18
408.02	218.28
408.229	210.09
408.438	285.86
408.646	181.42
408.855	242.85
409.064	218.28
409.272	242.85
409.481	283.81
409.69	269.48
409.898	275.62
410.107	275.62
410.315	275.62
410.524	287.91
410.733	324.77
410.941	347.3
411.15	382.12
411.358	361.64
411.567	380.07
411.775	332.97
411.984	343.21
412.192	433.32
412.401	396.45
412.609	535.71
412.818	439.46
413.026	513.19
413.234	416.93
413.443	488.61
413.651	480.42
413.86	533.67
414.068	492.71
414.276	597.15
414.485	623.78
414.693	619.68
414.901	644.26
415.11	648.35
415.318	605.35
415.526	687.26
415.734	697.5
415.943	726.18
416.151	746.66
416.359	799.9
416.567	828.57
416.776	777.37
416.984	922.78
417.192	834.72
417.4	801.95
417.608	867.49
417.817	904.35
418.025	1016.99
418.233	1121.43
418.441	957.6
418.649	1049.75
418.857	1105.05
419.065	1193.11
419.273	1176.73
419.481	1178.78
419.689	1201.3
419.897	1438.87
420.105	1432.72
420.313	1301.65
420.521	1418.39
420.729	1365.14
420.937	1467.54
421.145	1512.6
421.353	1645.71
421.561	1696.91
421.769	1854.61
421.977	1789.07
422.185	1758.35
422.393	2053.26
422.601	2118.79
422.809	2079.88
423.017	2030.73
423.224	2147.47
423.432	2129.03
423.64	2235.53
423.848	2282.63
424.056	2380.93
424.263	2561.16
424.471	2636.93
424.679	2518.15
424.887	2675.84
425.094	2831.49
425.302	2942.08
425.51	2970.75
425.718	3028.09
425.925	3085.44
426.133	3292.28
426.341	3337.34
426.548	3417.21
426.756	3552.37
426.964	3513.46
427.171	3660.91
427.379	3685.49
427.586	3929.2
427.794	3875.95
428.001	4269.16
428.209	4332.65
428.417	4279.4
428.624	4559.97
428.832	4652.13
429.039	4451.43
429.247	4564.07
429.454	4965.47
429.662	5358.68
429.869	4967.52
430.076	5327.96
430.284	5145.69
430.491	5231.71
430.699	5575.77
430.906	5753.94
431.114	5690.45
431.321	5995.6
431.528	5960.78
431.736	6485.06
431.943	6724.68
432.15	6446.15
432.358	6642.76
432.565	6988.86
432.772	6927.42
432.979	7232.57
433.187	7429.18
433.394	7511.1
433.601	7973.94
433.808	8148.01
434.016	7918.64
434.223	8279.08
434.43	8762.4
434.637	8457.26
434.844	9288.73
435.052	9468.95
435.259	9264.16
435.466	9196.57
435.673	9311.26
435.88	9708.57
436.087	10449.93
436.294	10322.96
436.501	10208.27
436.708	10415.12
436.915	10793.99
437.122	11346.94
437.329	11125.76
437.537	11465.72
437.743	11619.32
437.95	11529.21
438.157	12186.61
438.364	12737.51
438.571	12284.91
438.778	12680.17
438.985	13767.64
439.192	13038.56
439.399	13759.45
439.606	13343.71
439.813	14140.37
440.02	14891.98
440.227	14599.12
440.433	14545.87
440.64	15082.44
440.847	15072.2
441.054	15408.06
441.261	16229.3
441.467	16337.84
441.674	16362.42
441.881	17085.35
442.088	16880.55
442.294	16802.73
442.501	17212.32
442.708	17697.69
442.914	18320.28
443.121	19063.69
443.328	18621.33
443.534	19809.15
443.741	19225.48
443.948	18895.75
444.154	20247.41
444.361	20515.7
444.568	20513.65
444.774	20484.98
444.981	20478.83
445.187	21238.63
445.394	22274.9
445.6	21705.57
445.807	23778.11
446.013	22729.55
446.22	23188.3
446.426	23835.45
446.633	24101.69
446.839	25176.87
447.046	24269.62
447.252	25369.38
447.459	25535.27
447.665	25279.27
447.871	26442.52
448.078	27575.05
448.284	26575.64
448.491	27054.86
448.697	28187.39
448.903	28527.35
449.11	28793.59
449.316	28394.23
449.522	28410.62
449.728	29620.97
449.935	29790.95
450.141	29780.71
450.347	30030.56
450.553	29721.32
450.76	29889.25
450.966	30976.72
451.172	30794.45
451.378	31550.15
451.584	30763.73
451.791	31435.47
451.997	31349.45
452.203	31980.23
452.409	32021.19
452.615	31800.01
452.821	30536.41
453.027	30388.95
453.233	31986.37
453.44	30702.29
453.646	31220.43
453.852	31648.46
454.058	31630.02
454.264	30765.78
454.47	31888.07
454.676	30487.26
454.882	31490.76
455.088	29242.09
455.294	29393.64
455.5	30251.74
455.705	30384.86
455.911	28875.51
456.117	28396.28
456.323	28451.58
456.529	26694.42
456.735	28134.14
456.941	27044.62
457.147	26960.66
457.352	25826.08
457.558	25850.66
457.764	25561.89
457.97	25443.11
458.176	24886.06
458.381	24798
458.587	23526.21
458.793	23931.71
458.999	22352.73
459.204	24187.71
459.41	23362.37
459.616	21599.07
459.821	21947.23
460.027	21922.65
460.233	21459.81
460.438	20450.16
460.644	20390.77
460.85	19592.06
461.055	19313.54
461.261	19397.51
461.466	17677.21
461.672	17222.56
461.878	18637.71
462.083	17324.96
462.289	16939.94
462.494	16858.03
462.7	15846.33
462.905	15639.48
463.111	16155.57
463.316	16329.65
463.522	15864.76
463.727	16106.42
463.932	16083.89
464.138	15555.52
464.343	15776.7
464.549	15336.38
464.754	15768.51
464.959	15733.69
465.165	15471.55
465.37	14926.79
465.575	14521.29
465.781	15074.24
465.986	14853.06
466.191	14529.48
466.397	14132.18
466.602	13444.06
466.807	13994.97
467.012	14054.36
467.218	14029.78
