Data from USB4F104151__133__14-44-05-167.txt Node

Date: Thu Mar 13 14:44:05 EDT 2025
User: louis
Spectrometer: USB4F10415
Trigger mode: 4
Integration Time (sec): 2.000000E-2
Scans to average: 1
Electric dark correction enabled: true
Nonlinearity correction enabled: false
Boxcar width: 0
XAxis mode: Wavelengths
Number of Pixels in Spectrum: 3648
>>>>>Begin Spectral Data<<<<<
178.204	-132.78
178.424	-132.78
178.644	-132.78
178.864	-106.15
179.084	-204.46
179.304	6.49
179.524	-32.43
179.744	-30.38
179.964	74.07
180.184	8.53
180.404	39.25
180.624	18.77
180.844	49.49
181.064	-65.19
181.283	-32.43
181.503	-71.34
181.723	35.16
181.943	-75.43
182.163	-26.28
182.383	31.06
182.602	-16.04
182.822	72.02
183.042	35.16
183.262	20.82
183.482	-24.23
183.701	2.39
183.921	47.44
184.141	18.77
184.361	16.73
184.58	-28.33
184.8	-24.23
185.02	63.83
185.239	96.6
185.459	-36.52
185.679	0.34
185.898	-7.85
186.118	41.3
186.338	-38.57
186.557	51.54
186.777	6.49
186.997	0.34
187.216	-50.86
187.436	155.99
187.655	-28.33
187.875	-5.8
188.095	14.68
188.314	24.92
188.534	26.96
188.753	39.25
188.973	2.39
189.192	92.5
189.412	-5.8
189.631	57.68
189.851	57.68
190.07	12.63
190.29	-22.19
190.509	82.26
190.729	-50.86
190.948	8.53
191.168	145.75
191.387	-38.57
191.607	-30.38
191.826	-20.14
192.045	20.82
192.265	-18.09
192.484	18.77
192.704	31.06
192.923	-1.71
193.142	92.5
193.362	-57
193.581	35.16
193.8	10.58
194.02	33.11
194.239	6.49
194.458	55.64
194.678	-18.09
194.897	-1.71
195.116	-1.71
195.335	-42.67
195.555	14.68
195.774	35.16
195.993	2.39
196.212	-63.15
196.432	41.3
196.651	14.68
196.87	-26.28
197.089	76.12
197.308	127.32
197.528	-50.86
197.747	39.25
197.966	-1.71
198.185	18.77
198.404	-36.52
198.623	-18.09
198.842	-30.38
199.062	55.64
199.281	51.54
199.5	-40.62
199.719	33.11
199.938	47.44
200.157	-1.71
200.376	8.53
200.595	61.78
200.814	55.64
201.033	22.87
201.252	39.25
201.471	104.79
201.69	8.53
201.909	14.68
202.128	6.49
202.347	14.68
202.566	51.54
202.785	-3.75
203.004	26.96
203.223	112.98
203.442	39.25
203.661	-40.62
203.879	18.77
204.098	18.77
204.317	-18.09
204.536	39.25
204.755	49.49
204.974	39.25
205.193	-1.71
205.411	55.64
205.63	24.92
205.849	63.83
206.068	-9.9
206.287	100.69
206.505	43.35
206.724	22.87
206.943	22.87
207.162	14.68
207.381	-5.8
207.599	-34.47
207.818	47.44
208.037	-75.43
208.255	-38.57
208.474	8.53
208.693	63.83
208.911	-9.9
209.13	49.49
209.349	31.06
209.567	-20.14
209.786	51.54
210.005	16.73
210.223	14.68
210.442	-24.23
210.661	-54.95
210.879	47.44
211.098	-3.75
211.316	63.83
211.535	-7.85
211.753	-40.62
211.972	22.87
212.191	29.01
212.409	-24.23
212.628	22.87
212.846	-67.24
213.065	55.64
213.283	4.44
213.502	41.3
213.72	41.3
213.938	-32.43
214.157	-18.09
214.375	35.16
214.594	-24.23
214.812	6.49
215.031	80.21
215.249	57.68
215.467	2.39
215.686	16.73
215.904	16.73
216.122	33.11
216.341	-16.04
216.559	-1.71
216.778	121.17
216.996	22.87
217.214	20.82
217.432	6.49
217.651	-1.71
217.869	29.01
218.087	22.87
218.306	-42.67
218.524	35.16
218.742	92.5
218.96	47.44
219.179	-59.05
219.397	-7.85
219.615	-18.09
219.833	106.84
220.051	26.96
220.27	-34.47
220.488	33.11
220.706	55.64
220.924	-24.23
221.142	59.73
221.36	29.01
221.578	-48.81
221.796	-16.04
222.015	26.96
222.233	-54.95
222.451	-1.71
222.669	-24.23
222.887	24.92
223.105	26.96
223.323	6.49
223.541	-67.24
223.759	-18.09
223.977	-65.19
224.195	125.27
224.413	0.34
224.631	59.73
224.849	-7.85
225.067	133.46
225.285	26.96
225.503	-3.75
225.721	-63.15
225.939	10.58
226.157	20.82
226.375	112.98
226.592	-44.71
226.81	-22.19
227.028	67.92
227.246	41.3
227.464	-1.71
227.682	6.49
227.9	-67.24
228.117	6.49
228.335	6.49
228.553	-34.47
228.771	39.25
228.989	-38.57
229.206	6.49
229.424	0.34
229.642	22.87
229.86	-26.28
230.077	29.01
230.295	-18.09
230.513	20.82
230.731	-1.71
230.948	51.54
231.166	59.73
231.384	26.96
231.601	8.53
231.819	39.25
232.037	-28.33
232.254	-50.86
232.472	-7.85
232.689	18.77
232.907	6.49
233.125	8.53
233.342	-5.8
233.56	49.49
233.777	-24.23
233.995	16.73
234.213	78.16
234.43	-20.14
234.648	14.68
234.865	-46.76
235.083	18.77
235.3	53.59
235.518	33.11
235.735	31.06
235.953	88.4
236.17	-9.9
236.388	-65.19
236.605	6.49
236.822	-7.85
237.04	57.68
237.257	92.5
237.475	-9.9
237.692	-1.71
237.909	100.69
238.127	-13.99
238.344	-38.57
238.562	63.83
238.779	-48.81
238.996	-57
239.214	22.87
239.431	-13.99
239.648	12.63
239.865	53.59
240.083	2.39
240.3	22.87
240.517	-18.09
240.735	39.25
240.952	69.97
241.169	121.17
241.386	47.44
241.603	6.49
241.821	-34.47
242.038	35.16
242.255	16.73
242.472	-34.47
242.689	24.92
242.907	33.11
243.124	57.68
243.341	-13.99
243.558	-30.38
243.775	-7.85
243.992	-75.43
244.209	20.82
244.426	35.16
244.643	18.77
244.86	10.58
245.078	4.44
245.295	-26.28
245.512	-46.76
245.729	-63.15
245.946	-30.38
246.163	57.68
246.38	67.92
246.597	22.87
246.814	24.92
247.031	-18.09
247.248	-1.71
247.464	-22.19
247.681	-40.62
247.898	12.63
248.115	69.97
248.332	-40.62
248.549	82.26
248.766	47.44
248.983	55.64
249.2	61.78
249.417	31.06
249.633	-42.67
249.85	4.44
250.067	-22.19
250.284	10.58
250.501	41.3
250.717	41.3
250.934	-22.19
251.151	-40.62
251.368	-18.09
251.585	-9.9
251.801	-52.91
252.018	-22.19
252.235	47.44
252.451	-1.71
252.668	-22.19
252.885	72.02
253.102	57.68
253.318	-22.19
253.535	-65.19
253.752	-5.8
253.968	16.73
254.185	16.73
254.401	-42.67
254.618	-22.19
254.835	10.58
255.051	41.3
255.268	-22.19
255.484	63.83
255.701	-38.57
255.917	-34.47
256.134	8.53
256.351	22.87
256.567	-22.19
256.784	80.21
257	-57
257.217	69.97
257.433	6.49
257.65	72.02
257.866	-22.19
258.082	-93.87
258.299	2.39
258.515	-30.38
258.732	24.92
258.948	-38.57
259.165	35.16
259.381	47.44
259.597	2.39
259.814	-65.19
260.03	-24.23
260.246	10.58
260.463	-16.04
260.679	0.34
260.895	-63.15
261.112	-7.85
261.328	31.06
261.544	-16.04
261.761	18.77
261.977	-48.81
262.193	-1.71
262.409	-7.85
262.626	100.69
262.842	57.68
263.058	22.87
263.274	-26.28
263.49	22.87
263.707	53.59
263.923	-5.8
264.139	-34.47
264.355	-24.23
264.571	33.11
264.787	-59.05
265.004	80.21
265.22	-9.9
265.436	0.34
265.652	-1.71
265.868	49.49
266.084	26.96
266.3	-34.47
266.516	-34.47
266.732	6.49
266.948	-18.09
267.164	104.79
267.38	35.16
267.596	43.35
267.812	16.73
268.028	22.87
268.244	-1.71
268.46	129.36
268.676	35.16
268.892	63.83
269.108	31.06
269.324	-22.19
269.54	-5.8
269.756	24.92
269.972	20.82
270.188	2.39
270.403	-54.95
270.619	74.07
270.835	22.87
271.051	-16.04
271.267	47.44
271.483	-75.43
271.698	37.2
271.914	43.35
272.13	20.82
272.346	-40.62
272.562	39.25
272.777	29.01
272.993	-9.9
273.209	2.39
273.425	55.64
273.64	-65.19
273.856	31.06
274.072	-5.8
274.287	2.39
274.503	8.53
274.719	88.4
274.934	80.21
275.15	-46.76
275.366	33.11
275.581	0.34
275.797	35.16
276.012	-50.86
276.228	-34.47
276.444	6.49
276.659	-22.19
276.875	-46.76
277.09	14.68
277.306	-30.38
277.521	0.34
277.737	-9.9
277.952	80.21
278.168	-1.71
278.383	65.88
278.599	96.6
278.814	8.53
279.03	-38.57
279.245	14.68
279.461	63.83
279.676	-73.39
279.892	14.68
280.107	-24.23
280.322	-5.8
280.538	78.16
280.753	-38.57
280.969	20.82
281.184	2.39
281.399	39.25
281.615	-87.72
281.83	-16.04
282.045	-26.28
282.26	-24.23
282.476	-32.43
282.691	84.31
282.906	39.25
283.122	-50.86
283.337	47.44
283.552	39.25
283.767	-9.9
283.983	43.35
284.198	47.44
284.413	-3.75
284.628	-18.09
284.843	14.68
285.058	76.12
285.274	6.49
285.489	-52.91
285.704	2.39
285.919	-9.9
286.134	-26.28
286.349	-32.43
286.564	8.53
286.779	80.21
286.995	26.96
287.21	31.06
287.425	-9.9
287.64	22.87
287.855	57.68
288.07	-63.15
288.285	31.06
288.5	96.6
288.715	14.68
288.93	-63.15
289.145	35.16
289.36	6.49
289.575	24.92
289.79	-7.85
290.004	14.68
290.219	47.44
290.434	59.73
290.649	-13.99
290.864	-7.85
291.079	-75.43
291.294	59.73
291.509	47.44
291.724	-7.85
291.938	33.11
292.153	-18.09
292.368	43.35
292.583	14.68
292.798	-42.67
293.012	-40.62
293.227	67.92
293.442	-40.62
293.657	47.44
293.871	24.92
294.086	0.34
294.301	22.87
294.516	26.96
294.73	35.16
294.945	29.01
295.16	14.68
295.374	22.87
295.589	6.49
295.804	-7.85
296.018	-1.71
296.233	80.21
296.447	6.49
296.662	20.82
296.877	-44.71
297.091	80.21
297.306	-16.04
297.52	16.73
297.735	-20.14
297.949	-34.47
298.164	53.59
298.378	18.77
298.593	-26.28
298.807	10.58
299.022	90.45
299.236	59.73
299.451	-28.33
299.665	-30.38
299.88	-22.19
300.094	10.58
300.309	-7.85
300.523	0.34
300.737	0.34
300.952	18.77
301.166	72.02
301.381	22.87
301.595	-38.57
301.809	31.06
302.024	69.97
302.238	24.92
302.452	0.34
302.667	18.77
302.881	24.92
303.095	-73.39
303.309	96.6
303.524	2.39
303.738	-7.85
303.952	39.25
304.166	31.06
304.381	18.77
304.595	33.11
304.809	-46.76
305.023	-5.8
305.237	-26.28
305.452	-50.86
305.666	31.06
305.88	14.68
306.094	16.73
306.308	26.96
306.522	14.68
306.736	-18.09
306.95	18.77
307.164	-24.23
307.379	-36.52
307.593	74.07
307.807	55.64
308.021	-42.67
308.235	22.87
308.449	45.4
308.663	-34.47
308.877	4.44
309.091	-1.71
309.305	47.44
309.519	14.68
309.733	117.08
309.947	-48.81
310.161	-16.04
310.374	41.3
310.588	16.73
310.802	-36.52
311.016	-26.28
311.23	-57
311.444	-18.09
311.658	31.06
311.872	84.31
312.085	4.44
312.299	-1.71
312.513	76.12
312.727	57.68
312.941	6.49
313.154	35.16
313.368	43.35
313.582	10.58
313.796	26.96
314.009	63.83
314.223	33.11
314.437	14.68
314.651	24.92
314.864	-1.71
315.078	-13.99
315.292	43.35
315.505	22.87
315.719	10.58
315.933	14.68
316.146	-22.19
316.36	33.11
316.573	31.06
316.787	8.53
317.001	16.73
317.214	-81.58
317.428	16.73
317.641	-7.85
317.855	47.44
318.068	31.06
318.282	0.34
318.495	96.6
318.709	22.87
318.922	-59.05
319.136	-24.23
319.349	43.35
319.563	-67.24
319.776	74.07
319.99	-46.76
320.203	-42.67
320.417	-50.86
320.63	-18.09
320.843	26.96
321.057	8.53
321.27	55.64
321.483	16.73
321.697	74.07
321.91	-20.14
322.124	-16.04
322.337	47.44
322.55	8.53
322.763	0.34
322.977	43.35
323.19	16.73
323.403	57.68
323.617	0.34
323.83	22.87
324.043	-18.09
324.256	-26.28
324.469	-18.09
324.683	55.64
324.896	31.06
325.109	26.96
325.322	12.63
325.535	65.88
325.748	8.53
325.962	16.73
326.175	31.06
326.388	6.49
326.601	-57
326.814	139.6
327.027	51.54
327.24	47.44
327.453	-24.23
327.666	14.68
327.879	31.06
328.092	-16.04
328.305	59.73
328.518	-52.91
328.731	0.34
328.944	41.3
329.157	-26.28
329.37	76.12
329.583	-1.71
329.796	92.5
330.009	-50.86
330.222	-71.34
330.435	-28.33
330.648	96.6
330.861	-16.04
331.073	14.68
331.286	69.97
331.499	22.87
331.712	4.44
331.925	-5.8
332.138	-36.52
332.35	106.84
332.563	-69.29
332.776	63.83
332.989	-7.85
333.202	22.87
333.414	35.16
333.627	-30.38
333.84	-34.47
334.053	39.25
334.265	-13.99
334.478	0.34
334.691	-5.8
334.903	72.02
335.116	6.49
335.329	14.68
335.541	-48.81
335.754	115.03
335.966	-71.34
336.179	14.68
336.392	69.97
336.604	-26.28
336.817	-24.23
337.029	-20.14
337.242	-67.24
337.454	51.54
337.667	43.35
337.88	104.79
338.092	-34.47
338.305	-1.71
338.517	39.25
338.729	10.58
338.942	14.68
339.154	8.53
339.367	-26.28
339.579	41.3
339.792	-36.52
340.004	92.5
340.217	-30.38
340.429	-13.99
340.641	49.49
340.854	41.3
341.066	-32.43
341.278	8.53
341.491	18.77
341.703	-3.75
341.915	41.3
342.128	-26.28
342.34	-18.09
342.552	-16.04
342.764	-5.8
342.977	74.07
343.189	72.02
343.401	-34.47
343.613	29.01
343.826	10.58
344.038	31.06
344.25	-30.38
344.462	51.54
344.674	63.83
344.886	6.49
345.099	24.92
345.311	76.12
345.523	16.73
345.735	51.54
345.947	31.06
346.159	69.97
346.371	31.06
346.583	61.78
346.795	72.02
347.007	82.26
347.219	0.34
347.431	88.4
347.643	49.49
347.855	18.77
348.067	72.02
348.279	-34.47
348.491	-54.95
348.703	106.84
348.915	57.68
349.127	-83.63
349.339	104.79
349.551	59.73
349.763	78.16
349.975	14.68
350.187	69.97
350.399	51.54
350.61	65.88
350.822	22.87
351.034	35.16
351.246	24.92
351.458	65.88
351.669	67.92
351.881	69.97
352.093	26.96
352.305	-50.86
352.517	24.92
352.728	65.88
352.94	90.45
353.152	57.68
353.363	0.34
353.575	35.16
353.787	24.92
353.999	53.59
354.21	72.02
354.422	-26.28
354.633	-40.62
354.845	-59.05
355.057	4.44
355.268	61.78
355.48	26.96
355.692	-24.23
355.903	-34.47
356.115	6.49
356.326	-81.58
356.538	74.07
356.749	76.12
356.961	47.44
357.172	-93.87
357.384	43.35
357.595	65.88
357.807	-38.57
358.018	26.96
358.23	117.08
358.441	33.11
358.653	18.77
358.864	31.06
359.075	57.68
359.287	82.26
359.498	14.68
359.709	18.77
359.921	47.44
360.132	41.3
360.344	6.49
360.555	-18.09
360.766	100.69
360.977	39.25
361.189	6.49
361.4	41.3
361.611	39.25
361.823	47.44
362.034	51.54
362.245	-73.39
362.456	-1.71
362.667	47.44
362.879	37.2
363.09	-65.19
363.301	39.25
363.512	82.26
363.723	26.96
363.935	6.49
364.146	35.16
364.357	4.44
364.568	78.16
364.779	-18.09
364.99	18.77
365.201	72.02
365.412	-7.85
365.623	-46.76
365.834	-1.71
366.045	-18.09
366.256	72.02
366.467	-3.75
366.678	47.44
366.889	57.68
367.1	26.96
367.311	31.06
367.522	-1.71
367.733	41.3
367.944	33.11
368.155	22.87
368.366	41.3
368.577	45.4
368.788	74.07
368.999	-9.9
369.209	-18.09
369.42	112.98
369.631	49.49
369.842	63.83
370.053	39.25
370.264	-9.9
370.474	6.49
370.685	24.92
370.896	88.4
371.107	102.74
371.317	31.06
371.528	16.73
371.739	74.07
371.95	108.88
372.16	57.68
372.371	35.16
372.582	47.44
372.792	82.26
373.003	41.3
373.214	41.3
373.424	29.01
373.635	-54.95
373.846	65.88
374.056	65.88
374.267	90.45
374.477	-3.75
374.688	51.54
374.898	47.44
375.109	90.45
375.319	-18.09
375.53	-30.38
375.74	59.73
375.951	41.3
376.161	29.01
376.372	14.68
376.582	-34.47
376.793	31.06
377.003	-26.28
377.214	16.73
377.424	-32.43
377.635	80.21
377.845	-18.09
378.055	65.88
378.266	-36.52
378.476	29.01
378.686	-36.52
378.897	-11.95
379.107	-5.8
379.317	37.2
379.528	20.82
379.738	33.11
379.948	-50.86
380.158	55.64
380.369	10.58
380.579	24.92
380.789	-13.99
380.999	22.87
381.21	67.92
381.42	14.68
381.63	24.92
381.84	-7.85
382.05	6.49
382.261	41.3
382.471	18.77
382.681	31.06
382.891	67.92
383.101	14.68
383.311	6.49
383.521	20.82
383.731	20.82
383.941	53.59
384.151	22.87
384.361	18.77
384.571	14.68
384.781	-44.71
384.991	117.08
385.201	-3.75
385.411	6.49
385.621	57.68
385.831	-26.28
386.041	-24.23
386.251	14.68
386.461	39.25
386.671	-18.09
386.881	-54.95
387.091	61.78
387.301	102.74
387.511	117.08
387.72	49.49
387.93	6.49
388.14	-18.09
388.35	31.06
388.56	106.84
388.769	63.83
388.979	88.4
389.189	-5.8
389.399	24.92
389.609	76.12
389.818	112.98
390.028	35.16
390.238	16.73
390.447	51.54
390.657	43.35
390.867	55.64
391.076	41.3
391.286	96.6
391.496	43.35
391.705	39.25
391.915	43.35
392.125	88.4
392.334	-7.85
392.544	88.4
392.753	65.88
392.963	-46.76
393.172	20.82
393.382	41.3
393.591	63.83
393.801	24.92
394.01	67.92
394.22	-3.75
394.429	47.44
394.639	26.96
394.848	26.96
395.058	106.84
395.267	69.97
395.477	55.64
395.686	-9.9
395.895	57.68
396.105	100.69
396.314	24.92
396.524	22.87
396.733	49.49
396.942	72.02
397.152	35.16
397.361	41.3
397.57	59.73
397.78	104.79
397.989	80.21
398.198	74.07
398.407	63.83
398.617	84.31
398.826	53.59
399.035	88.4
399.244	-7.85
399.453	67.92
399.663	104.79
399.872	72.02
400.081	72.02
400.29	180.56
400.499	43.35
400.708	-24.23
400.917	31.06
401.127	96.6
401.336	76.12
401.545	166.23
401.754	96.6
401.963	119.12
402.172	-22.19
402.381	80.21
402.59	88.4
402.799	63.83
403.008	172.37
403.217	72.02
403.426	39.25
403.635	102.74
403.844	82.26
404.053	149.84
404.262	47.44
404.471	153.94
404.68	96.6
404.888	63.83
405.097	55.64
405.306	149.84
405.515	133.46
405.724	59.73
405.933	108.88
406.142	108.88
406.35	110.93
406.559	94.55
406.768	90.45
406.977	139.6
407.185	141.65
407.394	112.98
407.603	131.41
407.812	170.32
408.02	211.28
408.229	178.51
408.438	131.41
408.646	172.37
408.855	205.14
409.064	184.66
409.272	203.09
409.481	211.28
409.69	248.15
409.898	194.9
410.107	178.51
410.315	309.58
410.524	219.47
410.733	268.63
410.941	211.28
411.15	256.34
411.358	293.2
411.567	328.02
411.775	340.3
411.984	317.78
412.192	289.1
412.401	272.72
412.609	385.36
412.818	436.56
413.026	368.98
413.234	346.45
413.443	416.08
413.651	358.74
413.86	409.94
414.068	530.77
414.276	416.08
414.485	530.77
414.693	463.18
414.901	483.66
415.11	403.79
415.318	481.61
415.526	551.24
415.734	506.19
415.943	485.71
416.151	581.96
416.359	514.38
416.567	612.68
416.776	645.45
416.984	758.09
417.192	670.03
417.4	692.55
417.608	690.51
417.817	661.84
418.025	739.66
418.233	858.44
418.441	829.77
418.649	756.04
418.857	794.95
419.065	960.84
419.273	852.3
419.481	907.59
419.689	1079.62
419.897	1055.05
420.105	1016.13
420.313	1147.2
420.521	1091.91
420.729	1161.54
420.937	1169.73
421.145	1268.03
421.353	1337.66
421.561	1374.53
421.769	1382.72
421.977	1515.84
422.185	1476.93
422.393	1556.8
422.601	1581.37
422.809	1560.89
423.017	1595.71
423.224	1702.2
423.432	1780.03
423.64	1794.36
423.848	1997.11
424.056	1843.51
424.263	2165.04
424.471	2031.93
424.679	2111.8
424.887	2081.08
425.094	2312.5
425.302	2273.59
425.51	2332.98
425.718	2398.51
425.925	2406.7
426.133	2382.13
426.341	2705.71
426.548	2777.39
426.756	2662.7
426.964	2871.59
427.171	2928.94
427.379	3078.44
427.586	3037.48
427.794	3137.83
428.001	3402.02
428.209	3445.02
428.417	3408.16
428.624	3660.06
428.832	3510.56
429.039	3590.43
429.247	3625.25
429.454	4067.61
429.662	4184.34
429.869	4086.04
430.076	4188.44
430.284	4131.09
430.491	4499.73
430.699	4602.13
430.906	4686.09
431.114	4591.89
431.321	4741.39
431.528	4940.04
431.736	5183.75
431.943	5404.93
432.15	5232.9
432.358	5306.63
432.565	5675.26
432.772	5556.48
432.979	5839.1
433.187	5953.79
433.394	5904.64
433.601	6469.87
433.808	6416.63
434.016	6373.62
434.223	6633.71
434.43	6895.85
434.637	7121.13
434.844	7393.51
435.052	7500
435.259	7448.8
435.466	7358.69
435.673	7403.75
435.88	7891.16
436.087	8349.91
436.294	8444.12
436.501	7995.61
436.708	8311
436.915	8495.32
437.122	8782.03
437.329	8935.63
437.537	9232.58
437.743	9228.49
437.95	9351.37
438.157	9779.39
438.364	10283.19
438.571	10270.9
438.778	10145.98
438.985	10983.6
439.192	10594.48
439.399	11092.14
439.606	10764.47
439.813	11194.54
440.02	11980.96
440.227	11796.64
440.433	11452.58
440.64	11853.98
440.847	11940
441.054	12310.68
441.261	13150.35
441.467	13000.85
441.674	13072.53
441.881	13514.89
442.088	13527.17
442.294	13609.09
442.501	13934.72
442.708	14182.52
442.914	14608.5
443.121	15190.13
443.328	14921.84
443.534	15855.72
443.741	15456.36
443.948	15087.73
444.154	16312.41
444.361	16140.38
444.568	16427.1
444.774	16312.41
444.981	16476.25
445.187	17150.03
445.394	17668.17
445.6	17477.71
445.807	19200.05
446.013	18300.99
446.22	18618.43
446.426	19363.89
446.633	19771.43
446.839	20383.77
447.046	19619.88
447.252	20647.96
447.459	20690.97
447.665	20461.6
447.871	21221.39
448.078	22484.99
448.284	21260.3
448.491	21665.8
448.697	22366.21
448.903	23011.32
449.11	23037.94
449.316	22685.69
449.522	22970.36
449.728	23934.95
449.935	24223.72
450.141	23916.52
450.347	24555.49
450.553	23580.65
450.76	24164.32
450.966	24889.31
451.172	24504.29
451.378	25368.53
451.584	25018.33
451.791	25278.42
451.997	25067.48
452.203	25329.62
452.409	25845.71
452.615	25575.38
452.821	24610.78
453.027	24223.72
453.233	25769.93
453.44	24565.73
453.646	24942.55
453.852	24772.57
454.058	25262.04
454.264	24752.09
454.47	25259.99
454.676	24549.34
454.882	25303
455.088	23214.07
455.294	23412.72
455.5	23965.67
455.705	24473.57
455.911	23269.36
456.117	22882.3
456.323	22437.89
456.529	21180.43
456.735	22214.66
456.941	22126.6
457.147	21526.54
457.352	20912.15
457.558	20731.93
457.764	20572.19
457.97	20375.58
458.176	19800.1
458.381	19900.45
458.587	18888.76
458.793	18946.1
458.999	17905.73
459.204	18880.57
459.41	18769.97
459.616	17352.78
459.821	17442.89
460.027	17442.89
460.233	16920.66
460.438	16529.5
460.644	16351.32
460.85	15556.71
461.055	15308.91
461.261	15288.43
461.466	14160
461.672	14071.93
461.878	14852.21
462.083	13772.93
462.289	13637.77
462.494	13424.78
462.7	13050
462.905	12306.59
463.111	12929.17
463.316	13109.39
463.522	12826.77
463.727	12644.5
463.932	12652.69
464.138	12507.29
464.343	12664.98
464.549	12339.35
464.754	12425.37
464.959	12376.22
465.165	12417.18
465.37	12013.73
465.575	11569.32
465.781	12054.69
465.986	12394.65
466.191	11729.06
466.397	11479.21
466.602	10881.2
466.807	11411.62
467.012	11278.51
467.218	11274.41
