Data from USB4F104151__201__14-45-19-929.txt Node

Date: Thu Mar 13 14:45:19 EDT 2025
User: louis
Spectrometer: USB4F10415
Trigger mode: 4
Integration Time (sec): 2.000000E-2
Scans to average: 1
Electric dark correction enabled: true
Nonlinearity correction enabled: false
Boxcar width: 0
XAxis mode: Wavelengths
Number of Pixels in Spectrum: 3648
>>>>>Begin Spectral Data<<<<<
178.204	-185.51
178.424	-185.51
178.644	-185.51
178.864	-128.17
179.084	-95.4
179.304	-68.78
179.524	23.38
179.744	11.09
179.964	43.86
180.184	9.05
180.404	-13.48
180.624	21.33
180.844	-42.15
181.064	-52.39
181.283	21.33
181.503	-13.48
181.723	60.24
181.943	-46.25
182.163	29.52
182.383	11.09
182.602	23.38
182.822	31.57
183.042	56.15
183.262	60.24
183.482	27.48
183.701	-17.58
183.921	-1.19
184.141	-50.35
184.361	35.67
184.58	2.9
184.8	43.86
185.02	-7.34
185.239	23.38
185.459	54.1
185.679	4.95
185.898	23.38
186.118	21.33
186.338	-40.11
186.557	97.11
186.777	-13.48
186.997	23.38
187.216	-38.06
187.436	-3.24
187.655	13.14
187.875	54.1
188.095	-9.39
188.314	19.29
188.534	56.15
188.753	11.09
188.973	17.24
189.192	119.64
189.412	68.44
189.631	45.91
189.851	-25.77
190.07	-5.29
190.29	-38.06
190.509	17.24
190.729	23.38
190.948	45.91
191.168	176.98
191.387	62.29
191.607	23.38
191.826	76.63
192.045	47.96
192.265	13.14
192.484	21.33
192.704	76.63
192.923	-15.53
193.142	136.02
193.362	72.53
193.581	-5.29
193.8	-13.48
194.02	39.76
194.239	-17.58
194.458	33.62
194.678	70.48
194.897	45.91
195.116	-42.15
195.335	86.87
195.555	37.72
195.774	7
195.993	4.95
196.212	-11.43
196.432	11.09
196.651	23.38
196.87	-38.06
197.089	60.24
197.308	56.15
197.528	99.16
197.747	-3.24
197.966	15.19
198.185	-5.29
198.404	-3.24
198.623	45.91
198.842	27.48
199.062	70.48
199.281	93.01
199.5	-9.39
199.719	-44.2
199.938	35.67
200.157	47.96
200.376	-60.59
200.595	111.44
200.814	84.82
201.033	62.29
201.252	29.52
201.471	43.86
201.69	88.92
201.909	2.9
202.128	2.9
202.347	47.96
202.566	-19.63
202.785	21.33
203.004	52.05
203.223	52.05
203.442	-29.87
203.661	-1.19
203.879	15.19
204.098	52.05
204.317	-27.82
204.536	35.67
204.755	4.95
204.974	45.91
205.193	13.14
205.411	88.92
205.63	93.01
205.849	-38.06
206.068	27.48
206.287	27.48
206.505	54.1
206.724	68.44
206.943	-87.21
207.162	19.29
207.381	29.52
207.599	29.52
207.818	43.86
208.037	31.57
208.255	-95.4
208.474	43.86
208.693	27.48
208.911	7
209.13	2.9
209.349	2.9
209.567	-11.43
209.786	52.05
210.005	35.67
210.223	29.52
210.442	-38.06
210.661	29.52
210.879	29.52
211.098	23.38
211.316	15.19
211.535	21.33
211.753	-9.39
211.972	45.91
212.191	58.2
212.409	58.2
212.628	60.24
212.846	-38.06
213.065	7
213.283	60.24
213.502	27.48
213.72	-27.82
213.938	47.96
214.157	13.14
214.375	33.62
214.594	-38.06
214.812	76.63
215.031	25.43
215.249	47.96
215.467	25.43
215.686	-38.06
215.904	-25.77
216.122	64.34
216.341	52.05
216.559	74.58
216.778	39.76
216.996	58.2
217.214	33.62
217.432	70.48
217.651	0.85
217.869	88.92
218.087	-7.34
218.306	-46.25
218.524	56.15
218.742	-29.87
218.96	29.52
219.179	-9.39
219.397	-19.63
219.615	35.67
219.833	35.67
220.051	11.09
220.27	68.44
220.488	31.57
220.706	93.01
220.924	19.29
221.142	-36.01
221.36	35.67
221.578	50
221.796	43.86
222.015	-9.39
222.233	31.57
222.451	-27.82
222.669	52.05
222.887	23.38
223.105	4.95
223.323	43.86
223.541	35.67
223.759	56.15
223.977	13.14
224.195	60.24
224.413	-44.2
224.631	84.82
224.849	15.19
225.067	-5.29
225.285	19.29
225.503	54.1
225.721	-19.63
225.939	-9.39
226.157	-44.2
226.375	117.59
226.592	-5.29
226.81	-27.82
227.028	21.33
227.246	37.72
227.464	-70.83
227.682	21.33
227.9	97.11
228.117	-5.29
228.335	19.29
228.553	27.48
228.771	2.9
228.989	15.19
229.206	13.14
229.424	-27.82
229.642	-52.39
229.86	2.9
230.077	-11.43
230.295	43.86
230.513	17.24
230.731	66.39
230.948	35.67
231.166	45.91
231.384	-13.48
231.601	15.19
231.819	21.33
232.037	88.92
232.254	23.38
232.472	23.38
232.689	23.38
232.907	117.59
233.125	-17.58
233.342	23.38
233.56	-50.35
233.777	2.9
233.995	21.33
234.213	56.15
234.43	-38.06
234.648	23.38
234.865	-1.19
235.083	-3.24
235.3	17.24
235.518	-19.63
235.735	111.44
235.953	9.05
236.17	2.9
236.388	4.95
236.605	64.34
236.822	-52.39
237.04	7
237.257	-17.58
237.475	43.86
237.692	41.81
237.909	-27.82
238.127	27.48
238.344	60.24
238.562	68.44
238.779	33.62
238.996	52.05
239.214	-17.58
239.431	43.86
239.648	-3.24
239.865	11.09
240.083	27.48
240.3	-13.48
240.517	2.9
240.735	54.1
240.952	19.29
241.169	-21.67
241.386	-13.48
241.603	7
241.821	60.24
242.038	41.81
242.255	76.63
242.472	19.29
242.689	52.05
242.907	52.05
243.124	27.48
243.341	76.63
243.558	7
243.775	23.38
243.992	-54.44
244.209	13.14
244.426	60.24
244.643	43.86
244.86	-21.67
245.078	47.96
245.295	80.72
245.512	68.44
245.729	47.96
245.946	88.92
246.163	33.62
246.38	-1.19
246.597	-23.72
246.814	29.52
247.031	-3.24
247.248	27.48
247.464	66.39
247.681	35.67
247.898	62.29
248.115	9.05
248.332	21.33
248.549	25.43
248.766	47.96
248.983	27.48
249.2	-9.39
249.417	54.1
249.633	-48.3
249.85	82.77
250.067	-33.96
250.284	39.76
250.501	2.9
250.717	19.29
250.934	50
251.151	31.57
251.368	-23.72
251.585	37.72
251.801	31.57
252.018	33.62
252.235	95.06
252.451	41.81
252.668	11.09
252.885	-58.54
253.102	-5.29
253.318	-5.29
253.535	2.9
253.752	-17.58
253.968	-17.58
254.185	17.24
254.401	2.9
254.618	23.38
254.835	-36.01
255.051	111.44
255.268	39.76
255.484	-60.59
255.701	35.67
255.917	-9.39
256.134	35.67
256.351	52.05
256.567	2.9
256.784	13.14
257	-76.97
257.217	11.09
257.433	56.15
257.65	127.83
257.866	58.2
258.082	-19.63
258.299	-23.72
258.515	56.15
258.732	47.96
258.948	19.29
259.165	47.96
259.381	13.14
259.597	-13.48
259.814	2.9
260.03	4.95
260.246	19.29
260.463	21.33
260.679	64.34
260.895	76.63
261.112	27.48
261.328	80.72
261.544	-21.67
261.761	93.01
261.977	23.38
262.193	-23.72
262.409	27.48
262.626	90.96
262.842	21.33
263.058	11.09
263.274	4.95
263.49	41.81
263.707	11.09
263.923	56.15
264.139	11.09
264.355	54.1
264.571	52.05
264.787	27.48
265.004	41.81
265.22	-3.24
265.436	103.25
265.652	29.52
265.868	-25.77
266.084	-21.67
266.3	-21.67
266.516	-9.39
266.732	11.09
266.948	-3.24
267.164	21.33
267.38	21.33
267.596	29.52
267.812	52.05
268.028	101.2
268.244	-29.87
268.46	11.09
268.676	-1.19
268.892	31.57
269.108	-33.96
269.324	35.67
269.54	-36.01
269.756	21.33
269.972	-5.29
270.188	7
270.403	-3.24
270.619	86.87
270.835	2.9
271.051	2.9
271.267	-3.24
271.483	17.24
271.698	76.63
271.914	0.85
272.13	68.44
272.346	-19.63
272.562	23.38
272.777	35.67
272.993	-76.97
273.209	7
273.425	19.29
273.64	-9.39
273.856	2.9
274.072	-17.58
274.287	9.05
274.503	60.24
274.719	-29.87
274.934	29.52
275.15	27.48
275.366	31.57
275.581	-1.19
275.797	19.29
276.012	-11.43
276.228	43.86
276.444	76.63
276.659	58.2
276.875	-1.19
277.09	-3.24
277.306	37.72
277.521	47.96
277.737	27.48
277.952	45.91
278.168	39.76
278.383	47.96
278.599	19.29
278.814	158.55
279.03	19.29
279.245	33.62
279.461	4.95
279.676	62.29
279.892	29.52
280.107	11.09
280.322	-13.48
280.538	41.81
280.753	-9.39
280.969	97.11
281.184	29.52
281.399	0.85
281.615	50
281.83	25.43
282.045	-66.73
282.26	-38.06
282.476	72.53
282.691	29.52
282.906	-9.39
283.122	2.9
283.337	74.58
283.552	68.44
283.767	-38.06
283.983	11.09
284.198	-33.96
284.413	78.68
284.628	-25.77
284.843	60.24
285.058	50
285.274	-29.87
285.489	35.67
285.704	23.38
285.919	19.29
286.134	-44.2
286.349	11.09
286.564	37.72
286.779	125.78
286.995	-3.24
287.21	4.95
287.425	90.96
287.64	-15.53
287.855	35.67
288.07	11.09
288.285	95.06
288.5	13.14
288.715	39.76
288.93	-19.63
289.145	4.95
289.36	9.05
289.575	93.01
289.79	72.53
290.004	35.67
290.219	68.44
290.434	-19.63
290.649	27.48
290.864	-31.91
291.079	-21.67
291.294	88.92
291.509	11.09
291.724	-44.2
291.938	0.85
292.153	-38.06
292.368	13.14
292.583	-62.63
292.798	101.2
293.012	70.48
293.227	15.19
293.442	-58.54
293.657	-27.82
293.871	-3.24
294.086	-36.01
294.301	95.06
294.516	-13.48
294.73	-36.01
294.945	15.19
295.16	-13.48
295.374	37.72
295.589	41.81
295.804	47.96
296.018	29.52
296.233	117.59
296.447	78.68
296.662	-50.35
296.877	33.62
297.091	62.29
297.306	41.81
297.52	41.81
297.735	29.52
297.949	2.9
298.164	0.85
298.378	13.14
298.593	2.9
298.807	-5.29
299.022	86.87
299.236	50
299.451	-50.35
299.665	-21.67
299.88	43.86
300.094	35.67
300.309	27.48
300.523	11.09
300.737	35.67
300.952	4.95
301.166	19.29
301.381	-3.24
301.595	68.44
301.809	80.72
302.024	-1.19
302.238	-23.72
302.452	52.05
302.667	-50.35
302.881	19.29
303.095	-5.29
303.309	7
303.524	-3.24
303.738	4.95
303.952	35.67
304.166	31.57
304.381	-5.29
304.595	68.44
304.809	90.96
305.023	7
305.237	4.95
305.452	31.57
305.666	11.09
305.88	70.48
306.094	9.05
306.308	-11.43
306.522	19.29
306.736	64.34
306.95	9.05
307.164	72.53
307.379	-54.44
307.593	82.77
307.807	37.72
308.021	60.24
308.235	-1.19
308.449	-48.3
308.663	27.48
308.877	-25.77
309.091	43.86
309.305	56.15
309.519	35.67
309.733	88.92
309.947	37.72
310.161	-1.19
310.374	80.72
310.588	39.76
310.802	-21.67
311.016	17.24
311.23	47.96
311.444	-68.78
311.658	68.44
311.872	60.24
312.085	70.48
312.299	105.3
312.513	13.14
312.727	-15.53
312.941	43.86
313.154	60.24
313.368	-58.54
313.582	72.53
313.796	-25.77
314.009	58.2
314.223	93.01
314.437	-5.29
314.651	31.57
314.864	23.38
315.078	13.14
315.292	-21.67
315.505	-13.48
315.719	64.34
315.933	21.33
316.146	4.95
316.36	84.82
316.573	70.48
316.787	2.9
317.001	-19.63
317.214	13.14
317.428	35.67
317.641	43.86
317.855	43.86
318.068	64.34
318.282	62.29
318.495	11.09
318.709	62.29
318.922	52.05
319.136	113.49
319.349	35.67
319.563	29.52
319.776	33.62
319.99	-13.48
320.203	62.29
320.417	31.57
320.63	-38.06
320.843	93.01
321.057	-9.39
321.27	-54.44
321.483	37.72
321.697	31.57
321.91	19.29
322.124	86.87
322.337	37.72
322.55	13.14
322.763	-52.39
322.977	13.14
323.19	19.29
323.403	54.1
323.617	23.38
323.83	13.14
324.043	35.67
324.256	29.52
324.469	52.05
324.683	47.96
324.896	45.91
325.109	45.91
325.322	2.9
325.535	101.2
325.748	-21.67
325.962	-25.77
326.175	27.48
326.388	13.14
326.601	31.57
326.814	-46.25
327.027	4.95
327.24	45.91
327.453	64.34
327.666	29.52
327.879	19.29
328.092	52.05
328.305	23.38
328.518	72.53
328.731	35.67
328.944	7
329.157	70.48
329.37	70.48
329.583	39.76
329.796	86.87
330.009	-19.63
330.222	125.78
330.435	27.48
330.648	50
330.861	35.67
331.073	78.68
331.286	76.63
331.499	-33.96
331.712	13.14
331.925	41.81
332.138	-33.96
332.35	70.48
332.563	-36.01
332.776	95.06
332.989	11.09
333.202	35.67
333.414	-7.34
333.627	2.9
333.84	-19.63
334.053	23.38
334.265	-23.72
334.478	23.38
334.691	43.86
334.903	105.3
335.116	29.52
335.329	60.24
335.541	19.29
335.754	60.24
335.966	62.29
336.179	2.9
336.392	50
336.604	-42.15
336.817	54.1
337.029	101.2
337.242	-56.49
337.454	123.73
337.667	62.29
337.88	37.72
338.092	-1.19
338.305	11.09
338.517	-33.96
338.729	31.57
338.942	39.76
339.154	-5.29
339.367	15.19
339.579	101.2
339.792	60.24
340.004	39.76
340.217	-5.29
340.429	21.33
340.641	-64.68
340.854	70.48
341.066	-46.25
341.278	27.48
341.491	121.68
341.703	23.38
341.915	-23.72
342.128	88.92
342.34	-9.39
342.552	29.52
342.764	50
342.977	-1.19
343.189	35.67
343.401	45.91
343.613	-5.29
343.826	52.05
344.038	-21.67
344.25	2.9
344.462	52.05
344.674	95.06
344.886	52.05
345.099	47.96
345.311	35.67
345.523	41.81
345.735	-46.25
345.947	-5.29
346.159	136.02
346.371	35.67
346.583	43.86
346.795	47.96
347.007	35.67
347.219	35.67
347.431	45.91
347.643	-70.83
347.855	54.1
348.067	23.38
348.279	2.9
348.491	-25.77
348.703	35.67
348.915	31.57
349.127	27.48
349.339	31.57
349.551	45.91
349.763	78.68
349.975	66.39
350.187	35.67
350.399	56.15
350.61	54.1
350.822	-1.19
351.034	52.05
351.246	138.07
351.458	117.59
351.669	50
351.881	-9.39
352.093	41.81
352.305	72.53
352.517	109.4
352.728	123.73
352.94	-13.48
353.152	43.86
353.363	29.52
353.575	95.06
353.787	93.01
353.999	2.9
354.21	27.48
354.422	13.14
354.633	-21.67
354.845	78.68
355.057	27.48
355.268	-29.87
355.48	45.91
355.692	21.33
355.903	109.4
356.115	4.95
356.326	7
356.538	37.72
356.749	95.06
356.961	70.48
357.172	29.52
357.384	37.72
357.595	74.58
357.807	2.9
358.018	-11.43
358.23	27.48
358.441	47.96
358.653	88.92
358.864	31.57
359.075	19.29
359.287	88.92
359.498	-25.77
359.709	37.72
359.921	31.57
360.132	39.76
360.344	111.44
360.555	0.85
360.766	109.4
360.977	15.19
361.189	125.78
361.4	-38.06
361.611	-19.63
361.823	84.82
362.034	88.92
362.245	11.09
362.456	9.05
362.667	60.24
362.879	56.15
363.09	4.95
363.301	13.14
363.512	64.34
363.723	27.48
363.935	52.05
364.146	62.29
364.357	-15.53
364.568	93.01
364.779	-38.06
364.99	101.2
365.201	-48.3
365.412	2.9
365.623	21.33
365.834	47.96
366.045	35.67
366.256	86.87
366.467	64.34
366.678	84.82
366.889	2.9
367.1	35.67
367.311	45.91
367.522	4.95
367.733	125.78
367.944	60.24
368.155	-19.63
368.366	62.29
368.577	52.05
368.788	52.05
368.999	-3.24
369.209	27.48
369.42	84.82
369.631	95.06
369.842	60.24
370.053	80.72
370.264	43.86
370.474	39.76
370.685	86.87
370.896	-29.87
371.107	95.06
371.317	27.48
371.528	7
371.739	60.24
371.95	148.31
372.16	21.33
372.371	-21.67
372.582	31.57
372.792	37.72
373.003	52.05
373.214	64.34
373.424	70.48
373.635	7
373.846	109.4
374.056	37.72
374.267	19.29
374.477	68.44
374.688	4.95
374.898	95.06
375.109	52.05
375.319	68.44
375.53	19.29
375.74	109.4
375.951	43.86
376.161	66.39
376.372	31.57
376.582	-5.29
376.793	72.53
377.003	-38.06
377.214	29.52
377.424	68.44
377.635	50
377.845	31.57
378.055	-13.48
378.266	35.67
378.476	31.57
378.686	80.72
378.897	39.76
379.107	19.29
379.317	13.14
379.528	78.68
379.738	62.29
379.948	21.33
380.158	113.49
380.369	60.24
380.579	52.05
380.789	58.2
380.999	99.16
381.21	62.29
381.42	78.68
381.63	25.43
381.84	76.63
382.05	123.73
382.261	164.69
382.471	13.14
382.681	27.48
382.891	56.15
383.101	29.52
383.311	56.15
383.521	13.14
383.731	35.67
383.941	99.16
384.151	86.87
384.361	35.67
384.571	111.44
384.781	84.82
384.991	78.68
385.201	119.64
385.411	19.29
385.621	72.53
385.831	43.86
386.041	45.91
386.251	27.48
386.461	129.88
386.671	88.92
386.881	60.24
387.091	97.11
387.301	103.25
387.511	23.38
387.72	13.14
387.93	72.53
388.14	-74.92
388.35	105.3
388.56	64.34
388.769	66.39
388.979	47.96
389.189	68.44
389.399	13.14
389.609	86.87
389.818	74.58
390.028	62.29
390.238	35.67
390.447	45.91
390.657	2.9
390.867	60.24
391.076	-13.48
391.286	78.68
391.496	78.68
391.705	13.14
391.915	62.29
392.125	88.92
392.334	35.67
392.544	35.67
392.753	74.58
392.963	-3.24
393.172	56.15
393.382	62.29
393.591	95.06
393.801	45.91
394.01	129.88
394.22	62.29
394.429	150.36
394.639	11.09
394.848	21.33
395.058	93.01
395.267	17.24
395.477	76.63
395.686	101.2
395.895	166.74
396.105	162.64
396.314	39.76
396.524	90.96
396.733	17.24
396.942	125.78
397.152	133.97
397.361	101.2
397.57	150.36
397.78	117.59
397.989	68.44
398.198	152.4
398.407	54.1
398.617	158.55
398.826	129.88
399.035	60.24
399.244	80.72
399.453	82.77
399.663	111.44
399.872	142.16
400.081	103.25
400.29	125.78
400.499	84.82
400.708	62.29
400.917	74.58
401.127	101.2
401.336	43.86
401.545	197.46
401.754	166.74
401.963	203.6
402.172	95.06
402.381	117.59
402.59	117.59
402.799	72.53
403.008	199.51
403.217	109.4
403.426	119.64
403.635	35.67
403.844	133.97
404.053	117.59
404.262	105.3
404.471	156.5
404.68	78.68
404.888	129.88
405.097	146.26
405.306	125.78
405.515	224.08
405.724	93.01
405.933	113.49
406.142	142.16
406.35	205.65
406.559	172.88
406.768	187.22
406.977	219.99
407.185	168.79
407.394	174.93
407.603	179.03
407.812	314.19
408.02	222.03
408.229	211.79
408.438	189.27
408.646	242.51
408.855	248.66
409.064	275.28
409.272	269.14
409.481	254.8
409.69	224.08
409.898	226.13
410.107	371.54
410.315	306
410.524	238.42
410.733	394.06
410.941	215.89
411.15	439.12
411.358	375.63
411.567	416.59
411.775	322.38
411.984	314.19
412.192	428.88
412.401	486.22
412.609	516.94
412.818	453.45
413.026	478.03
413.234	516.94
413.443	494.41
413.651	564.04
413.86	576.33
414.068	598.86
414.276	662.35
414.485	637.77
414.693	568.14
414.901	740.17
415.11	715.59
415.318	731.98
415.526	811.85
415.734	801.61
415.943	826.18
416.151	844.62
416.359	895.82
416.567	979.78
416.776	904.01
416.984	1004.36
417.192	959.3
417.4	1018.69
417.608	1049.41
417.817	1028.93
418.025	1041.22
418.233	1168.2
418.441	1071.94
418.649	1233.73
418.857	1258.31
419.065	1313.6
419.273	1364.8
419.481	1325.89
419.689	1364.8
419.897	1512.25
420.105	1592.13
420.313	1682.24
420.521	1682.24
420.729	1735.48
420.937	1706.81
421.145	1796.92
421.353	1874.74
421.561	2050.87
421.769	2020.15
421.977	2100.02
422.185	2048.82
422.393	2202.42
422.601	2353.97
422.809	2450.22
423.017	2394.93
423.224	2444.08
423.432	2566.96
423.64	2644.78
423.848	2730.8
424.056	2710.32
424.263	2878.25
424.471	2831.15
424.679	3033.9
424.887	2943.78
425.094	3222.31
425.302	3238.69
425.51	3398.43
425.718	3427.11
425.925	3574.56
426.133	3619.61
426.341	3812.12
426.548	3926.81
426.756	4203.29
426.964	4090.65
427.171	4156.18
427.379	4313.88
427.586	4395.79
427.794	4553.49
428.001	4934.41
428.209	5063.43
428.417	4893.45
428.624	5231.37
428.832	5231.37
429.039	5294.85
429.247	5282.56
429.454	5765.89
429.662	6159.1
429.869	5618.43
430.076	6271.73
430.284	6050.55
430.491	6339.32
430.699	6499.06
430.906	6525.68
431.114	6718.19
431.321	6828.78
431.528	7129.83
431.736	7584.48
431.943	7920.35
432.15	7645.92
432.358	7774.94
432.565	8377.05
432.772	8059.61
432.979	8585.94
433.187	8798.93
433.394	8829.65
433.601	9341.64
433.808	9493.19
434.016	9272.01
434.223	9761.47
434.43	10252.98
434.637	10201.79
434.844	10775.22
435.052	10988.21
435.259	10760.88
435.466	10932.91
435.673	10687.15
435.88	11242.15
436.087	12047.01
436.294	12309.15
436.501	11852.45
436.708	11936.42
436.915	12446.36
437.122	13038.22
437.329	12997.26
437.537	13382.28
437.743	13795.97
437.95	13752.96
438.157	14432.89
438.364	14846.58
438.571	14602.87
438.778	14682.74
438.985	15970.91
439.192	15641.19
439.399	15985.25
439.606	15696.49
439.813	16652.89
440.02	17437.26
440.227	17148.5
440.433	17013.33
440.64	17519.18
440.847	17578.57
441.054	17977.92
441.261	18932.28
441.467	18631.23
441.674	19421.74
441.881	20159.01
442.088	19892.77
442.294	19747.37
442.501	20353.57
442.708	20539.93
442.914	21369.36
443.121	22475.26
443.328	21838.34
443.534	23484.91
443.741	22608.38
443.948	22215.17
444.154	24087.01
444.361	23859.69
444.568	23806.44
444.774	24080.87
444.981	24386.02
445.187	24857.05
445.394	26130.89
445.6	25842.12
445.807	28289.45
446.013	27191.73
446.22	27476.4
446.426	28551.59
446.633	29047.19
446.839	29913.48
447.046	28717.47
447.252	30503.3
447.459	30355.85
447.665	30200.2
447.871	31631.73
448.078	33038.69
448.284	31334.78
448.491	32471.4
448.697	33442.14
448.903	33986.89
449.11	34218.32
449.316	33575.25
449.522	34038.09
449.728	35258.68
449.935	35612.98
450.141	35555.64
450.347	36604.2
450.553	34971.97
450.76	35555.64
450.966	37017.89
451.172	36518.18
451.378	37472.54
451.584	36940.07
451.791	37779.73
451.997	37302.56
452.203	38248.72
452.409	38426.89
452.615	38289.68
452.821	36890.91
453.027	36358.44
453.233	38508.81
453.44	36688.17
453.646	37411.1
453.852	37421.34
454.058	38025.49
454.264	36776.23
454.47	37794.07
454.676	36964.64
454.882	38002.96
455.088	34996.54
455.294	35305.79
455.5	36227.37
455.705	36190.51
455.911	34758.98
456.117	34298.19
456.323	33806.67
456.529	32127.34
456.735	33528.15
456.941	32584.04
457.147	32057.71
457.352	31641.97
457.558	30951.81
457.764	30876.03
457.97	30833.02
458.176	29903.25
458.381	29686.16
458.587	28279.21
458.793	28334.5
458.999	26837.44
459.204	29225.37
459.41	28295.59
459.616	26503.62
459.821	26591.68
460.027	26487.23
460.233	25893.32
460.438	24627.68
460.644	24918.49
460.85	23833.07
461.055	23220.72
461.261	23179.76
461.466	21600.78
461.672	20965.91
461.878	22436.35
462.083	21170.71
462.289	20558.36
462.494	20404.77
462.7	19262
462.905	18913.84
463.111	20007.46
463.316	19851.81
463.522	19335.73
463.727	19257.9
463.932	19503.66
464.138	18967.09
464.343	19296.81
464.549	18655.8
464.754	19257.9
464.959	19182.13
465.165	18928.18
465.37	18164.29
465.575	17771.08
465.781	18520.63
465.986	18487.87
466.191	17742.41
466.397	17504.84
466.602	16601.69
466.807	17363.53
467.012	17472.07
467.218	17226.32
467.423	16818.77
467.628	17185.36
467.833	17764.93
