Data from USB4F104151__112__14-43-50-091.txt Node

Date: Thu Mar 13 14:43:50 EDT 2025
User: louis
Spectrometer: USB4F10415
Trigger mode: 4
Integration Time (sec): 2.000000E-2
Scans to average: 1
Electric dark correction enabled: true
Nonlinearity correction enabled: false
Boxcar width: 0
XAxis mode: Wavelengths
Number of Pixels in Spectrum: 3648
>>>>>Begin Spectral Data<<<<<
178.204	-110.59
178.424	-110.59
178.644	-110.59
178.864	-108.54
179.084	-108.54
179.304	-53.25
179.524	-6.14
179.744	-20.48
179.964	-32.77
180.184	22.53
180.404	34.82
180.624	-16.38
180.844	4.1
181.064	36.86
181.283	20.48
181.503	-53.25
181.723	63.49
181.943	-28.67
182.163	59.39
182.383	36.86
182.602	-20.48
182.822	49.15
183.042	16.38
183.262	-4.1
183.482	-22.53
183.701	-26.62
183.921	45.06
184.141	-14.34
184.361	0
184.58	24.58
184.8	51.2
185.02	-22.53
185.239	104.45
185.459	30.72
185.679	36.86
185.898	-38.91
186.118	24.58
186.338	2.05
186.557	59.39
186.777	-20.48
186.997	-4.1
187.216	-18.43
187.436	12.29
187.655	18.43
187.875	-4.1
188.095	26.62
188.314	92.16
188.534	75.77
188.753	-14.34
188.973	-8.19
189.192	63.49
189.412	0
189.631	43.01
189.851	45.06
190.07	94.21
190.29	6.14
190.509	-10.24
190.729	26.62
190.948	28.67
191.168	139.26
191.387	10.24
191.607	-14.34
191.826	30.72
192.045	-22.53
192.265	36.86
192.484	38.91
192.704	75.77
192.923	-6.14
193.142	86.01
193.362	59.39
193.581	51.2
193.8	14.34
194.02	30.72
194.239	-57.34
194.458	59.39
194.678	14.34
194.897	-28.67
195.116	14.34
195.335	59.39
195.555	-2.05
195.774	-18.43
195.993	69.63
196.212	-36.86
196.432	55.3
196.651	-6.14
196.87	36.86
197.089	43.01
197.308	26.62
197.528	8.19
197.747	51.2
197.966	2.05
198.185	59.39
198.404	-53.25
198.623	69.63
198.842	51.2
199.062	2.05
199.281	79.87
199.5	10.24
199.719	22.53
199.938	-6.14
200.157	55.3
200.376	10.24
200.595	30.72
200.814	8.19
201.033	-2.05
201.252	14.34
201.471	32.77
201.69	45.06
201.909	26.62
202.128	75.77
202.347	69.63
202.566	-112.64
202.785	-10.24
203.004	-61.44
203.223	6.14
203.442	-10.24
203.661	26.62
203.879	45.06
204.098	88.06
204.317	24.58
204.536	18.43
204.755	28.67
204.974	-18.43
205.193	47.1
205.411	18.43
205.63	8.19
205.849	116.73
206.068	-57.34
206.287	-57.34
206.505	-14.34
206.724	-14.34
206.943	-30.72
207.162	79.87
207.381	-2.05
207.599	47.1
207.818	36.86
208.037	0
208.255	-4.1
208.474	-22.53
208.693	90.11
208.911	-55.3
209.13	14.34
209.349	75.77
209.567	36.86
209.786	34.82
210.005	36.86
210.223	26.62
210.442	-55.3
210.661	51.2
210.879	-43.01
211.098	-38.91
211.316	57.34
211.535	43.01
211.753	51.2
211.972	38.91
212.191	-55.3
212.409	86.01
212.628	18.43
212.846	28.67
213.065	28.67
213.283	63.49
213.502	-8.19
213.72	10.24
213.938	12.29
214.157	-4.1
214.375	38.91
214.594	-38.91
214.812	-24.58
215.031	28.67
215.249	-22.53
215.467	40.96
215.686	18.43
215.904	14.34
216.122	-38.91
216.341	16.38
216.559	8.19
216.778	26.62
216.996	28.67
217.214	32.77
217.432	26.62
217.651	18.43
217.869	71.68
218.087	-71.68
218.306	-14.34
218.524	-12.29
218.742	26.62
218.96	12.29
219.179	20.48
219.397	47.1
219.615	112.64
219.833	18.43
220.051	83.97
220.27	88.06
220.488	28.67
220.706	40.96
220.924	59.39
221.142	2.05
221.36	26.62
221.578	-22.53
221.796	59.39
222.015	38.91
222.233	38.91
222.451	49.15
222.669	18.43
222.887	67.58
223.105	24.58
223.323	2.05
223.541	-53.25
223.759	-22.53
223.977	-14.34
224.195	61.44
224.413	-2.05
224.631	92.16
224.849	10.24
225.067	12.29
225.285	36.86
225.503	-43.01
225.721	-22.53
225.939	34.82
226.157	-55.3
226.375	67.58
226.592	10.24
226.81	47.1
227.028	-30.72
227.246	86.01
227.464	-14.34
227.682	45.06
227.9	-47.1
228.117	100.35
228.335	79.87
228.553	45.06
228.771	-36.86
228.989	77.82
229.206	51.2
229.424	51.2
229.642	4.1
229.86	59.39
230.077	63.49
230.295	18.43
230.513	-6.14
230.731	30.72
230.948	51.2
231.166	20.48
231.384	-28.67
231.601	-6.14
231.819	83.97
232.037	2.05
232.254	-18.43
232.472	10.24
232.689	20.48
232.907	61.44
233.125	45.06
233.342	20.48
233.56	-8.19
233.777	-36.86
233.995	14.34
234.213	34.82
234.43	26.62
234.648	36.86
234.865	20.48
235.083	2.05
235.3	-22.53
235.518	2.05
235.735	18.43
235.953	51.2
236.17	-34.82
236.388	75.77
236.605	26.62
236.822	-6.14
237.04	51.2
237.257	0
237.475	10.24
237.692	26.62
237.909	59.39
238.127	-20.48
238.344	-49.15
238.562	36.86
238.779	-2.05
238.996	2.05
239.214	-22.53
239.431	67.58
239.648	53.25
239.865	20.48
240.083	2.05
240.3	38.91
240.517	-10.24
240.735	-10.24
240.952	59.39
241.169	59.39
241.386	10.24
241.603	-10.24
241.821	2.05
242.038	71.68
242.255	-40.96
242.472	-14.34
242.689	16.38
242.907	10.24
243.124	6.14
243.341	-47.1
243.558	28.67
243.775	-2.05
243.992	-71.68
244.209	45.06
244.426	-12.29
244.643	43.01
244.86	69.63
245.078	63.49
245.295	4.1
245.512	26.62
245.729	-6.14
245.946	22.53
246.163	75.77
246.38	34.82
246.597	-24.58
246.814	-47.1
247.031	-120.83
247.248	49.15
247.464	36.86
247.681	-30.72
247.898	30.72
248.115	20.48
248.332	10.24
248.549	10.24
248.766	79.87
248.983	108.54
249.2	77.82
249.417	51.2
249.633	-51.2
249.85	53.25
250.067	-2.05
250.284	16.38
250.501	51.2
250.717	43.01
250.934	2.05
251.151	47.1
251.368	-63.49
251.585	83.97
251.801	59.39
252.018	28.67
252.235	45.06
252.451	47.1
252.668	30.72
252.885	4.1
253.102	14.34
253.318	-26.62
253.535	0
253.752	-14.34
253.968	36.86
254.185	12.29
254.401	-12.29
254.618	77.82
254.835	47.1
255.051	43.01
255.268	-47.1
255.484	38.91
255.701	4.1
255.917	38.91
256.134	12.29
256.351	45.06
256.567	34.82
256.784	-65.54
257	-14.34
257.217	4.1
257.433	51.2
257.65	-36.86
257.866	61.44
258.082	-47.1
258.299	10.24
258.515	14.34
258.732	51.2
258.948	36.86
259.165	14.34
259.381	45.06
259.597	28.67
259.814	-14.34
260.03	18.43
260.246	26.62
260.463	-26.62
260.679	-47.1
260.895	83.97
261.112	51.2
261.328	2.05
261.544	6.14
261.761	30.72
261.977	-2.05
262.193	-32.77
262.409	53.25
262.626	65.54
262.842	36.86
263.058	40.96
263.274	10.24
263.49	-6.14
263.707	14.34
263.923	-34.82
264.139	77.82
264.355	34.82
264.571	108.54
264.787	55.3
265.004	18.43
265.22	4.1
265.436	28.67
265.652	-53.25
265.868	4.1
266.084	10.24
266.3	61.44
266.516	-16.38
266.732	-10.24
266.948	38.91
267.164	47.1
267.38	61.44
267.596	14.34
267.812	-71.68
268.028	28.67
268.244	-30.72
268.46	-12.29
268.676	-18.43
268.892	49.15
269.108	20.48
269.324	2.05
269.54	-51.2
269.756	63.49
269.972	12.29
270.188	45.06
270.403	4.1
270.619	-10.24
270.835	22.53
271.051	43.01
271.267	14.34
271.483	36.86
271.698	53.25
271.914	20.48
272.13	-96.25
272.346	-6.14
272.562	-14.34
272.777	77.82
272.993	0
273.209	-36.86
273.425	59.39
273.64	-20.48
273.856	75.77
274.072	67.58
274.287	-24.58
274.503	53.25
274.719	47.1
274.934	45.06
275.15	-10.24
275.366	-10.24
275.581	-30.72
275.797	2.05
276.012	22.53
276.228	6.14
276.444	-22.53
276.659	71.68
276.875	-30.72
277.09	-40.96
277.306	34.82
277.521	-4.1
277.737	-6.14
277.952	77.82
278.168	-18.43
278.383	14.34
278.599	67.58
278.814	10.24
279.03	-10.24
279.245	26.62
279.461	-22.53
279.676	18.43
279.892	34.82
280.107	-36.86
280.322	-24.58
280.538	88.06
280.753	43.01
280.969	-30.72
281.184	63.49
281.399	10.24
281.615	67.58
281.83	73.73
282.045	-45.06
282.26	-28.67
282.476	22.53
282.691	-6.14
282.906	-61.44
283.122	59.39
283.337	4.1
283.552	-14.34
283.767	-8.19
283.983	77.82
284.198	26.62
284.413	-12.29
284.628	-14.34
284.843	67.58
285.058	57.34
285.274	-4.1
285.489	59.39
285.704	30.72
285.919	-63.49
286.134	36.86
286.349	0
286.564	-6.14
286.779	55.3
286.995	-30.72
287.21	36.86
287.425	-20.48
287.64	57.34
287.855	-26.62
288.07	10.24
288.285	2.05
288.5	34.82
288.715	59.39
288.93	-26.62
289.145	36.86
289.36	57.34
289.575	-10.24
289.79	-10.24
290.004	-47.1
290.219	92.16
290.434	43.01
290.649	20.48
290.864	2.05
291.079	0
291.294	75.77
291.509	12.29
291.724	86.01
291.938	18.43
292.153	38.91
292.368	36.86
292.583	67.58
292.798	6.14
293.012	88.06
293.227	18.43
293.442	2.05
293.657	49.15
293.871	4.1
294.086	-14.34
294.301	124.93
294.516	79.87
294.73	14.34
294.945	-30.72
295.16	-6.14
295.374	-2.05
295.589	79.87
295.804	6.14
296.018	45.06
296.233	26.62
296.447	38.91
296.662	6.14
296.877	43.01
297.091	-30.72
297.306	45.06
297.52	22.53
297.735	2.05
297.949	22.53
298.164	30.72
298.378	4.1
298.593	59.39
298.807	-96.25
299.022	34.82
299.236	86.01
299.451	51.2
299.665	-59.39
299.88	-2.05
300.094	22.53
300.309	26.62
300.523	69.63
300.737	-12.29
300.952	120.83
301.166	133.12
301.381	-2.05
301.595	-6.14
301.809	-12.29
302.024	14.34
302.238	-2.05
302.452	26.62
302.667	-67.58
302.881	51.2
303.095	112.64
303.309	-12.29
303.524	6.14
303.738	-6.14
303.952	-38.91
304.166	8.19
304.381	-10.24
304.595	77.82
304.809	-6.14
305.023	53.25
305.237	26.62
305.452	20.48
305.666	-24.58
305.88	16.38
306.094	10.24
306.308	47.1
306.522	102.4
306.736	22.53
306.95	12.29
307.164	63.49
307.379	47.1
307.593	79.87
307.807	92.16
308.021	2.05
308.235	104.45
308.449	-49.15
308.663	2.05
308.877	83.97
309.091	88.06
309.305	43.01
309.519	-12.29
309.733	0
309.947	24.58
310.161	-14.34
310.374	6.14
310.588	2.05
310.802	10.24
311.016	28.67
311.23	43.01
311.444	10.24
311.658	75.77
311.872	51.2
312.085	92.16
312.299	2.05
312.513	34.82
312.727	-2.05
312.941	6.14
313.154	-22.53
313.368	-18.43
313.582	34.82
313.796	-43.01
314.009	14.34
314.223	69.63
314.437	61.44
314.651	57.34
314.864	26.62
315.078	-8.19
315.292	0
315.505	-20.48
315.719	51.2
315.933	12.29
316.146	59.39
316.36	36.86
316.573	28.67
316.787	22.53
317.001	18.43
317.214	-6.14
317.428	61.44
317.641	55.3
317.855	-47.1
318.068	28.67
318.282	22.53
318.495	34.82
318.709	63.49
318.922	-43.01
319.136	36.86
319.349	51.2
319.563	22.53
319.776	4.1
319.99	34.82
320.203	-12.29
320.417	-71.68
320.63	34.82
320.843	69.63
321.057	-30.72
321.27	-4.1
321.483	43.01
321.697	43.01
321.91	-8.19
322.124	-28.67
322.337	10.24
322.55	12.29
322.763	12.29
322.977	34.82
323.19	18.43
323.403	28.67
323.617	2.05
323.83	45.06
324.043	-22.53
324.256	-6.14
324.469	-10.24
324.683	36.86
324.896	-30.72
325.109	6.14
325.322	-8.19
325.535	61.44
325.748	-18.43
325.962	26.62
326.175	28.67
326.388	-22.53
326.601	24.58
326.814	79.87
327.027	18.43
327.24	6.14
327.453	-63.49
327.666	2.05
327.879	47.1
328.092	34.82
328.305	-24.58
328.518	45.06
328.731	-6.14
328.944	12.29
329.157	2.05
329.37	102.4
329.583	67.58
329.796	51.2
330.009	-55.3
330.222	47.1
330.435	45.06
330.648	16.38
330.861	-28.67
331.073	2.05
331.286	32.77
331.499	77.82
331.712	-88.06
331.925	36.86
332.138	16.38
332.35	51.2
332.563	45.06
332.776	57.34
332.989	-24.58
333.202	22.53
333.414	-14.34
333.627	-26.62
333.84	59.39
334.053	18.43
334.265	20.48
334.478	-4.1
334.691	-4.1
334.903	51.2
335.116	-16.38
335.329	10.24
335.541	51.2
335.754	110.59
335.966	-14.34
336.179	73.73
336.392	-63.49
336.604	26.62
336.817	47.1
337.029	77.82
337.242	86.01
337.454	88.06
337.667	-20.48
337.88	67.58
338.092	18.43
338.305	16.38
338.517	-10.24
338.729	92.16
338.942	43.01
339.154	-14.34
339.367	-22.53
339.579	57.34
339.792	30.72
340.004	16.38
340.217	-38.91
340.429	28.67
340.641	-8.19
340.854	-4.1
341.066	51.2
341.278	75.77
341.491	155.65
341.703	12.29
341.915	-38.91
342.128	45.06
342.34	110.59
342.552	12.29
342.764	92.16
342.977	43.01
343.189	6.14
343.401	-14.34
343.613	-34.82
343.826	2.05
344.038	26.62
344.25	69.63
344.462	-14.34
344.674	4.1
344.886	55.3
345.099	12.29
345.311	28.67
345.523	-34.82
345.735	-2.05
345.947	20.48
346.159	-6.14
346.371	10.24
346.583	49.15
346.795	69.63
347.007	0
347.219	53.25
347.431	36.86
347.643	-22.53
347.855	61.44
348.067	43.01
348.279	-92.16
348.491	45.06
348.703	53.25
348.915	18.43
349.127	-34.82
349.339	94.21
349.551	-26.62
349.763	34.82
349.975	43.01
350.187	34.82
350.399	43.01
350.61	12.29
350.822	-6.14
351.034	4.1
351.246	22.53
351.458	18.43
351.669	83.97
351.881	40.96
352.093	30.72
352.305	36.86
352.517	18.43
352.728	141.31
352.94	8.19
353.152	6.14
353.363	-49.15
353.575	-12.29
353.787	53.25
353.999	26.62
354.21	114.69
354.422	59.39
354.633	40.96
354.845	28.67
355.057	-38.91
355.268	61.44
355.48	45.06
355.692	24.58
355.903	-32.77
356.115	28.67
356.326	43.01
356.538	38.91
356.749	53.25
356.961	26.62
357.172	-24.58
357.384	-28.67
357.595	-22.53
357.807	53.25
358.018	10.24
358.23	18.43
358.441	57.34
358.653	2.05
358.864	75.77
359.075	-47.1
359.287	36.86
359.498	86.01
359.709	-2.05
359.921	28.67
360.132	38.91
360.344	10.24
360.555	10.24
360.766	-18.43
360.977	-20.48
361.189	114.69
361.4	-32.77
361.611	151.55
361.823	-2.05
362.034	43.01
362.245	-38.91
362.456	26.62
362.667	24.58
362.879	47.1
363.09	0
363.301	18.43
363.512	51.2
363.723	-18.43
363.935	53.25
364.146	47.1
364.357	26.62
364.568	51.2
364.779	38.91
364.99	53.25
365.201	6.14
365.412	92.16
365.623	-30.72
365.834	18.43
366.045	47.1
366.256	149.5
366.467	30.72
366.678	0
366.889	-75.77
367.1	100.35
367.311	55.3
367.522	18.43
367.733	-22.53
367.944	71.68
368.155	14.34
368.366	90.11
368.577	96.25
368.788	47.1
368.999	67.58
369.209	45.06
369.42	36.86
369.631	116.73
369.842	28.67
370.053	-6.14
370.264	61.44
370.474	2.05
370.685	20.48
370.896	26.62
371.107	67.58
371.317	51.2
371.528	75.77
371.739	88.06
371.95	36.86
372.16	51.2
372.371	-14.34
372.582	51.2
372.792	20.48
373.003	47.1
373.214	14.34
373.424	20.48
373.635	-38.91
373.846	43.01
374.056	45.06
374.267	28.67
374.477	71.68
374.688	38.91
374.898	6.14
375.109	51.2
375.319	22.53
375.53	10.24
375.74	10.24
375.951	67.58
376.161	34.82
376.372	94.21
376.582	-30.72
376.793	2.05
377.003	26.62
377.214	-14.34
377.424	6.14
377.635	67.58
377.845	-4.1
378.055	-14.34
378.266	-14.34
378.476	63.49
378.686	53.25
378.897	59.39
379.107	14.34
379.317	32.77
379.528	38.91
379.738	71.68
379.948	-6.14
380.158	55.3
380.369	30.72
380.579	-4.1
380.789	36.86
380.999	59.39
381.21	38.91
381.42	71.68
381.63	6.14
381.84	65.54
382.05	40.96
382.261	63.49
382.471	-2.05
382.681	16.38
382.891	86.01
383.101	2.05
383.311	2.05
383.521	75.77
383.731	45.06
383.941	79.87
384.151	77.82
384.361	-36.86
384.571	10.24
384.781	32.77
384.991	6.14
385.201	40.96
385.411	-10.24
385.621	83.97
385.831	12.29
386.041	26.62
386.251	63.49
386.461	83.97
386.671	-22.53
386.881	55.3
387.091	-26.62
387.301	92.16
387.511	53.25
387.72	116.73
387.93	40.96
388.14	-4.1
388.35	100.35
388.56	75.77
388.769	6.14
388.979	75.77
389.189	-14.34
389.399	67.58
389.609	67.58
389.818	51.2
390.028	20.48
390.238	77.82
390.447	63.49
390.657	88.06
390.867	61.44
391.076	26.62
391.286	-36.86
391.496	28.67
391.705	34.82
391.915	8.19
392.125	51.2
392.334	51.2
392.544	53.25
392.753	28.67
392.963	18.43
393.172	65.54
393.382	-28.67
393.591	14.34
393.801	34.82
394.01	151.55
394.22	43.01
394.429	77.82
394.639	18.43
394.848	10.24
395.058	83.97
395.267	79.87
395.477	53.25
395.686	112.64
395.895	120.83
396.105	176.13
396.314	59.39
396.524	47.1
396.733	47.1
396.942	69.63
397.152	-51.2
397.361	49.15
397.57	77.82
397.78	51.2
397.989	102.4
398.198	108.54
398.407	90.11
398.617	-38.91
398.826	81.92
399.035	108.54
399.244	75.77
399.453	-61.44
399.663	40.96
399.872	86.01
400.081	43.01
400.29	36.86
400.499	10.24
400.708	135.17
400.917	67.58
401.127	67.58
401.336	28.67
401.545	169.98
401.754	94.21
401.963	126.97
402.172	43.01
402.381	69.63
402.59	120.83
402.799	139.26
403.008	79.87
403.217	75.77
403.426	114.69
403.635	108.54
403.844	67.58
404.053	110.59
404.262	43.01
404.471	133.12
404.68	124.93
404.888	86.01
405.097	100.35
405.306	69.63
405.515	90.11
405.724	-45.06
405.933	159.74
406.142	141.31
406.35	200.7
406.559	118.78
406.768	98.3
406.977	124.93
407.185	124.93
407.394	120.83
407.603	174.08
407.812	108.54
408.02	196.61
408.229	126.97
408.438	137.21
408.646	182.27
408.855	116.73
409.064	176.13
409.272	247.8
409.481	235.52
409.69	247.8
409.898	159.74
410.107	253.95
410.315	225.28
410.524	206.84
410.733	247.8
410.941	268.28
411.15	288.76
411.358	288.76
411.567	315.39
411.775	217.08
411.984	327.68
412.192	354.3
412.401	319.48
412.609	354.3
412.818	348.15
413.026	385.02
413.234	350.2
413.443	321.53
413.651	399.35
413.86	452.6
414.068	382.97
414.276	509.94
414.485	389.11
414.693	497.66
414.901	579.58
415.11	466.94
415.318	511.99
415.526	473.08
415.734	600.05
415.943	528.38
416.151	561.14
416.359	612.34
416.567	677.88
416.776	651.25
416.984	724.98
417.192	718.84
417.4	694.26
417.608	720.88
417.817	714.74
418.025	681.97
418.233	878.58
418.441	751.6
418.649	780.28
418.857	903.15
419.065	1028.08
419.273	899.06
419.481	962.55
419.689	985.07
419.897	1060.85
420.105	1079.28
420.313	1169.39
420.521	1128.43
420.729	1144.81
420.937	1234.93
421.145	1271.79
421.353	1331.18
421.561	1394.67
421.769	1378.28
421.977	1452.01
422.185	1400.81
422.393	1468.39
422.601	1542.12
422.809	1587.18
423.017	1550.31
423.224	1609.7
423.432	1658.85
423.64	1757.16
423.848	1896.42
424.056	1832.93
424.263	2062.3
424.471	1988.58
424.679	2052.06
424.887	2146.27
425.094	2246.62
425.302	2256.86
425.51	2379.74
425.718	2396.12
425.925	2412.51
426.133	2504.67
426.341	2666.46
426.548	2789.33
426.756	2709.46
426.964	2754.52
427.171	3049.43
427.379	3035.09
427.586	3135.44
427.794	3272.65
428.001	3280.85
428.209	3397.58
428.417	3413.96
428.624	3536.84
428.832	3608.52
429.039	3598.28
429.247	3583.95
429.454	3962.82
429.662	4097.99
429.869	3917.76
430.076	4188.1
430.284	4104.13
430.491	4376.51
430.699	4433.85
430.906	4714.42
431.114	4511.68
431.321	4632.51
431.528	4605.88
431.736	5025.72
431.943	5353.39
432.15	5195.7
432.358	5224.37
432.565	5539.76
432.772	5543.85
432.979	5818.28
433.187	5918.63
433.394	5988.26
433.601	6346.66
433.808	6444.96
434.016	6301.6
434.223	6580.12
434.43	7071.64
434.637	6762.39
434.844	7219.09
435.052	7327.63
435.259	7366.54
435.466	7401.36
435.673	7292.82
435.88	7927.69
436.087	8312.71
436.294	8126.34
436.501	8062.85
436.708	8058.76
436.915	8597.37
437.122	8802.17
437.329	8771.45
437.537	9222
437.743	9187.19
437.95	9238.39
438.157	9643.88
438.364	10096.49
438.571	9979.75
438.778	9975.66
438.985	10803.04
439.192	10557.28
439.399	11071.32
439.606	10610.53
439.813	11335.51
440.02	11988.81
440.227	11734.86
440.433	11544.4
440.64	11831.12
440.847	11792.2
441.054	12117.83
441.261	13027.13
441.467	12846.91
441.674	12965.69
441.881	13387.57
442.088	13348.66
442.294	13240.12
442.501	13713.2
442.708	14124.84
442.914	14645.02
443.121	14808.86
443.328	14665.5
443.534	15607.57
443.741	15447.83
443.948	14751.52
444.154	16420.61
444.361	15986.44
444.568	15968.01
444.774	16166.67
444.981	16330.5
445.187	16525.06
445.394	17518.32
445.6	17397.49
445.807	18929.38
446.013	18106.09
446.22	18603.75
446.426	19060.45
446.633	19259.1
446.839	19793.62
447.046	19046.11
447.252	20260.55
447.459	20217.55
447.665	20066
447.871	21018.3
448.078	21909.17
448.284	20838.08
448.491	21550.78
448.697	22183.6
448.903	22613.67
449.11	22787.75
449.316	22664.87
449.522	22703.78
449.728	23262.88
449.935	23432.86
450.141	23604.89
450.347	23930.51
450.553	23213.73
450.76	23627.42
450.966	24704.65
451.172	24313.49
451.378	24970.88
451.584	24348.3
451.791	25048.71
451.997	24923.78
452.203	25419.39
452.409	25263.74
452.615	25110.14
452.821	24221.33
453.027	24037.01
453.233	25181.82
453.44	24383.12
453.646	24479.37
453.852	24725.13
454.058	25136.77
454.264	24245.9
454.47	25144.96
454.676	24604.3
454.882	25509.5
455.088	23037.6
455.294	23490.2
455.5	23711.38
455.705	23942.8
455.911	22802.08
456.117	22638.25
456.323	22458.03
456.529	21253.82
456.735	22124.21
456.941	21327.55
457.147	21370.55
457.352	20598.47
457.558	20358.86
457.764	20344.52
457.97	19930.83
458.176	19801.81
458.381	19607.25
458.587	18466.53
458.793	18540.26
458.999	17622.77
459.204	19050.21
459.41	18591.46
459.616	17016.57
459.821	17311.48
460.027	16908.03
460.233	17075.96
460.438	16082.7
460.644	16101.13
460.85	15503.12
461.055	15058.71
461.261	15292.18
461.466	13936.43
461.672	13600.56
461.878	14575.39
462.083	13594.42
462.289	13541.17
462.494	13248.31
462.7	12848.96
462.905	12445.51
463.111	12699.45
463.316	12814.14
463.522	12453.7
463.727	12554.05
463.932	12320.58
464.138	12488.51
464.343	12373.83
464.549	12351.3
464.754	12379.97
464.959	12357.44
465.165	12232.52
465.37	11691.85
465.575	11204.44
465.781	11841.36
465.986	12177.22
466.191	11495.25
466.397	11257.68
466.602	10954.58
466.807	11186.01
467.012	11261.78
467.218	11114.33
467.423	11009.88
467.628	11110.23
467.833	11454.29
468.038	10993.5
468.244	10643.29
468.449	11302.74
