Data from USB4F104151__75__14-43-24-377.txt Node

Date: Thu Mar 13 14:43:24 EDT 2025
User: louis
Spectrometer: USB4F10415
Trigger mode: 4
Integration Time (sec): 2.000000E-2
Scans to average: 1
Electric dark correction enabled: true
Nonlinearity correction enabled: false
Boxcar width: 0
XAxis mode: Wavelengths
Number of Pixels in Spectrum: 3648
>>>>>Begin Spectral Data<<<<<
178.204	-66.22
178.424	-66.22
178.644	-66.22
178.864	-105.13
179.084	-139.94
179.304	9.56
179.524	-25.26
179.744	21.85
179.964	-27.31
180.184	-33.45
180.404	-19.11
180.624	91.48
180.844	30.04
181.064	-31.4
181.283	-43.69
181.503	19.8
181.723	7.51
181.943	-76.46
182.163	9.56
182.383	36.18
182.602	21.85
182.822	79.19
183.042	40.28
183.262	3.41
183.482	-37.55
183.701	32.08
183.921	15.7
184.141	-17.07
184.361	-10.92
184.58	46.42
184.8	-33.45
185.02	46.42
185.239	7.51
185.459	21.85
185.679	81.24
185.898	-33.45
186.118	64.85
186.338	23.89
186.557	81.24
186.777	-55.98
186.997	-27.31
187.216	-27.31
187.436	56.66
187.655	1.37
187.875	46.42
188.095	9.56
188.314	79.19
188.534	97.62
188.753	48.47
188.973	103.76
189.192	87.38
189.412	-21.16
189.631	32.08
189.851	-17.07
190.07	66.9
190.29	-10.92
190.509	36.18
190.729	27.99
190.948	-0.68
191.168	111.96
191.387	120.15
191.607	48.47
191.826	5.46
192.045	-47.79
192.265	-17.07
192.484	-2.73
192.704	-2.73
192.923	-21.16
193.142	81.24
193.362	13.65
193.581	54.61
193.8	56.66
194.02	40.28
194.239	58.71
194.458	25.94
194.678	-68.27
194.897	-8.87
195.116	-2.73
195.335	68.95
195.555	56.66
195.774	-19.11
195.993	81.24
196.212	95.57
196.432	-21.16
196.651	73.04
196.87	-27.31
197.089	87.38
197.308	19.8
197.528	58.71
197.747	15.7
197.966	9.56
198.185	83.28
198.404	44.37
198.623	13.65
198.842	25.94
199.062	111.96
199.281	97.62
199.5	46.42
199.719	46.42
199.938	38.23
200.157	7.51
200.376	-27.31
200.595	32.08
200.814	-43.69
201.033	40.28
201.252	25.94
201.471	-27.31
201.69	44.37
201.909	-10.92
202.128	36.18
202.347	38.23
202.566	15.7
202.785	-41.64
203.004	21.85
203.223	54.61
203.442	60.76
203.661	15.7
203.879	64.85
204.098	103.76
204.317	9.56
204.536	75.09
204.755	13.65
204.974	11.61
205.193	23.89
205.411	107.86
205.63	-2.73
205.849	107.86
206.068	-6.83
206.287	38.23
206.505	42.32
206.724	7.51
206.943	-2.73
207.162	-23.21
207.381	-27.31
207.599	-0.68
207.818	7.51
208.037	7.51
208.255	-2.73
208.474	21.85
208.693	21.85
208.911	23.89
209.13	54.61
209.349	1.37
209.567	50.52
209.786	64.85
210.005	30.04
210.223	34.13
210.442	-66.22
210.661	-25.26
210.879	-15.02
211.098	13.65
211.316	64.85
211.535	23.89
211.753	-0.68
211.972	48.47
212.191	-8.87
212.409	25.94
212.628	23.89
212.846	13.65
213.065	-70.31
213.283	73.04
213.502	-10.92
213.72	-17.07
213.938	1.37
214.157	75.09
214.375	21.85
214.594	7.51
214.812	79.19
215.031	54.61
215.249	-17.07
215.467	5.46
215.686	7.51
215.904	-2.73
216.122	60.76
216.341	73.04
216.559	30.04
216.778	-2.73
216.996	38.23
217.214	-10.92
217.432	30.04
217.651	5.46
217.869	-15.02
218.087	54.61
218.306	1.37
218.524	71
218.742	25.94
218.96	77.14
219.179	-19.11
219.397	79.19
219.615	81.24
219.833	62.8
220.051	-15.02
220.27	54.61
220.488	-0.68
220.706	44.37
220.924	19.8
221.142	-2.73
221.36	-12.97
221.578	15.7
221.796	40.28
222.015	46.42
222.233	-27.31
222.451	107.86
222.669	-8.87
222.887	54.61
223.105	13.65
223.323	21.85
223.541	-49.83
223.759	34.13
223.977	23.89
224.195	30.04
224.413	71
224.631	68.95
224.849	40.28
225.067	111.96
225.285	120.15
225.503	-8.87
225.721	-15.02
225.939	34.13
226.157	-6.83
226.375	126.29
226.592	-15.02
226.81	-21.16
227.028	56.66
227.246	64.85
227.464	-31.4
227.682	3.41
227.9	21.85
228.117	38.23
228.335	-17.07
228.553	58.71
228.771	-43.69
228.989	64.85
229.206	-25.26
229.424	-43.69
229.642	25.94
229.86	-49.83
230.077	64.85
230.295	32.08
230.513	91.48
230.731	73.04
230.948	15.7
231.166	48.47
231.384	-31.4
231.601	-23.21
231.819	40.28
232.037	-80.55
232.254	-2.73
232.472	-2.73
232.689	-23.21
232.907	7.51
233.125	-8.87
233.342	32.08
233.56	-33.45
233.777	50.52
233.995	66.9
234.213	38.23
234.43	62.8
234.648	-25.26
234.865	-2.73
235.083	54.61
235.3	38.23
235.518	17.75
235.735	11.61
235.953	50.52
236.17	-0.68
236.388	38.23
236.605	44.37
236.822	13.65
237.04	44.37
237.257	15.7
237.475	13.65
237.692	13.65
237.909	21.85
238.127	-0.68
238.344	116.05
238.562	71
238.779	-2.73
238.996	-72.36
239.214	-66.22
239.431	30.04
239.648	52.56
239.865	-12.97
240.083	85.33
240.3	19.8
240.517	52.56
240.735	21.85
240.952	124.24
241.169	60.76
241.386	13.65
241.603	-2.73
241.821	17.75
242.038	62.8
242.255	25.94
242.472	38.23
242.689	56.66
242.907	19.8
243.124	54.61
243.341	42.32
243.558	27.99
243.775	5.46
243.992	13.65
244.209	42.32
244.426	50.52
244.643	56.66
244.86	46.42
245.078	34.13
245.295	46.42
245.512	95.57
245.729	-41.64
245.946	25.94
246.163	48.47
246.38	27.99
246.597	38.23
246.814	44.37
247.031	73.04
247.248	21.85
247.464	83.28
247.681	15.7
247.898	46.42
248.115	64.85
248.332	32.08
248.549	19.8
248.766	97.62
248.983	23.89
249.2	17.75
249.417	99.67
249.633	1.37
249.85	87.38
250.067	-27.31
250.284	21.85
250.501	75.09
250.717	56.66
250.934	-58.03
251.151	40.28
251.368	58.71
251.585	-0.68
251.801	11.61
252.018	48.47
252.235	23.89
252.451	-101.03
252.668	-27.31
252.885	42.32
253.102	44.37
253.318	-15.02
253.535	-27.31
253.752	-27.31
253.968	-29.35
254.185	-55.98
254.401	-33.45
254.618	21.85
254.835	13.65
255.051	79.19
255.268	7.51
255.484	30.04
255.701	81.24
255.917	7.51
256.134	-43.69
256.351	46.42
256.567	-10.92
256.784	48.47
257	-33.45
257.217	-4.78
257.433	58.71
257.65	30.04
257.866	25.94
258.082	81.24
258.299	-25.26
258.515	25.94
258.732	15.7
258.948	-10.92
259.165	38.23
259.381	5.46
259.597	13.65
259.814	15.7
260.03	-6.83
260.246	21.85
260.463	7.51
260.679	71
260.895	34.13
261.112	5.46
261.328	34.13
261.544	54.61
261.761	-12.97
261.977	7.51
262.193	30.04
262.409	-17.07
262.626	46.42
262.842	-10.92
263.058	25.94
263.274	15.7
263.49	7.51
263.707	52.56
263.923	56.66
264.139	-43.69
264.355	21.85
264.571	128.34
264.787	58.71
265.004	9.56
265.22	52.56
265.436	30.04
265.652	81.24
265.868	66.9
266.084	-6.83
266.3	23.89
266.516	-21.16
266.732	25.94
266.948	62.8
267.164	32.08
267.38	71
267.596	15.7
267.812	130.39
268.028	68.95
268.244	25.94
268.46	64.85
268.676	25.94
268.892	50.52
269.108	-39.59
269.324	71
269.54	38.23
269.756	71
269.972	-117.42
270.188	-55.98
270.403	-8.87
270.619	87.38
270.835	-39.59
271.051	-2.73
271.267	-0.68
271.483	-17.07
271.698	79.19
271.914	5.46
272.13	42.32
272.346	46.42
272.562	71
272.777	-10.92
272.993	42.32
273.209	-8.87
273.425	79.19
273.64	32.08
273.856	25.94
274.072	54.61
274.287	1.37
274.503	87.38
274.719	144.72
274.934	-23.21
275.15	1.37
275.366	97.62
275.581	-41.64
275.797	58.71
276.012	21.85
276.228	-17.07
276.444	52.56
276.659	77.14
276.875	-60.07
277.09	-19.11
277.306	34.13
277.521	30.04
277.737	71
277.952	7.51
278.168	-6.83
278.383	-0.68
278.599	34.13
278.814	-8.87
279.03	32.08
279.245	54.61
279.461	-10.92
279.676	54.61
279.892	7.51
280.107	38.23
280.322	-8.87
280.538	54.61
280.753	81.24
280.969	17.75
281.184	15.7
281.399	56.66
281.615	103.76
281.83	62.8
282.045	66.9
282.26	38.23
282.476	46.42
282.691	34.13
282.906	66.9
283.122	34.13
283.337	-101.03
283.552	87.38
283.767	30.04
283.983	34.13
284.198	38.23
284.413	5.46
284.628	60.76
284.843	21.85
285.058	75.09
285.274	79.19
285.489	-2.73
285.704	5.46
285.919	-55.98
286.134	75.09
286.349	-0.68
286.564	44.37
286.779	79.19
286.995	54.61
287.21	-19.11
287.425	5.46
287.64	60.76
287.855	21.85
288.07	5.46
288.285	9.56
288.5	144.72
288.715	95.57
288.93	77.14
289.145	71
289.36	56.66
289.575	1.37
289.79	103.76
290.004	-0.68
290.219	32.08
290.434	27.99
290.649	-8.87
290.864	-10.92
291.079	-19.11
291.294	27.99
291.509	79.19
291.724	48.47
291.938	79.19
292.153	-2.73
292.368	-0.68
292.583	-19.11
292.798	71
293.012	-17.07
293.227	38.23
293.442	38.23
293.657	56.66
293.871	62.8
294.086	66.9
294.301	79.19
294.516	79.19
294.73	73.04
294.945	-43.69
295.16	46.42
295.374	13.65
295.589	-49.83
295.804	23.89
296.018	25.94
296.233	103.76
296.447	46.42
296.662	21.85
296.877	81.24
297.091	64.85
297.306	21.85
297.52	-2.73
297.735	30.04
297.949	13.65
298.164	23.89
298.378	34.13
298.593	62.8
298.807	81.24
299.022	5.46
299.236	109.91
299.451	-6.83
299.665	54.61
299.88	1.37
300.094	-101.03
300.309	-35.5
300.523	66.9
300.737	25.94
300.952	71
301.166	42.32
301.381	-33.45
301.595	21.85
301.809	-2.73
302.024	54.61
302.238	9.56
302.452	21.85
302.667	38.23
302.881	73.04
303.095	52.56
303.309	21.85
303.524	40.28
303.738	5.46
303.952	19.8
304.166	56.66
304.381	-109.23
304.595	48.47
304.809	-19.11
305.023	79.19
305.237	-17.07
305.452	38.23
305.666	62.8
305.88	40.28
306.094	38.23
306.308	87.38
306.522	54.61
306.736	38.23
306.95	-17.07
307.164	21.85
307.379	21.85
307.593	38.23
307.807	40.28
308.021	7.51
308.235	19.8
308.449	44.37
308.663	54.61
308.877	83.28
309.091	-2.73
309.305	-15.02
309.519	17.75
309.733	83.28
309.947	13.65
310.161	-8.87
310.374	-0.68
310.588	111.96
310.802	-39.59
311.016	-70.31
311.23	50.52
311.444	-10.92
311.658	38.23
311.872	73.04
312.085	40.28
312.299	81.24
312.513	75.09
312.727	13.65
312.941	36.18
313.154	13.65
313.368	23.89
313.582	95.57
313.796	30.04
314.009	25.94
314.223	19.8
314.437	21.85
314.651	-4.78
314.864	5.46
315.078	83.28
315.292	15.7
315.505	7.51
315.719	-12.97
315.933	79.19
316.146	38.23
316.36	-25.26
316.573	15.7
316.787	-10.92
317.001	11.61
317.214	-12.97
317.428	21.85
317.641	-58.03
317.855	-21.16
318.068	138.58
318.282	25.94
318.495	103.76
318.709	93.52
318.922	23.89
319.136	46.42
319.349	66.9
319.563	-19.11
319.776	32.08
319.99	-6.83
320.203	128.34
320.417	-25.26
320.63	62.8
320.843	25.94
321.057	40.28
321.27	30.04
321.483	81.24
321.697	99.67
321.91	9.56
322.124	42.32
322.337	-17.07
322.55	114
322.763	-31.4
322.977	111.96
323.19	15.7
323.403	54.61
323.617	81.24
323.83	23.89
324.043	91.48
324.256	9.56
324.469	7.51
324.683	103.76
324.896	-10.92
325.109	64.85
325.322	30.04
325.535	66.9
325.748	23.89
325.962	25.94
326.175	38.23
326.388	30.04
326.601	50.52
326.814	58.71
327.027	-41.64
327.24	38.23
327.453	-35.5
327.666	27.99
327.879	38.23
328.092	107.86
328.305	44.37
328.518	87.38
328.731	19.8
328.944	48.47
329.157	15.7
329.37	38.23
329.583	36.18
329.796	71
330.009	21.85
330.222	48.47
330.435	46.42
330.648	50.52
330.861	15.7
331.073	46.42
331.286	13.65
331.499	64.85
331.712	-49.83
331.925	5.46
332.138	97.62
332.35	75.09
332.563	21.85
332.776	21.85
332.989	17.75
333.202	-0.68
333.414	38.23
333.627	30.04
333.84	13.65
334.053	7.51
334.265	7.51
334.478	5.46
334.691	46.42
334.903	5.46
335.116	42.32
335.329	21.85
335.541	52.56
335.754	114
335.966	-10.92
336.179	17.75
336.392	68.95
336.604	32.08
336.817	62.8
337.029	13.65
337.242	-27.31
337.454	56.66
337.667	3.41
337.88	95.57
338.092	13.65
338.305	21.85
338.517	25.94
338.729	62.8
338.942	81.24
339.154	40.28
339.367	-2.73
339.579	23.89
339.792	83.28
340.004	75.09
340.217	15.7
340.429	120.15
340.641	75.09
340.854	-27.31
341.066	-6.83
341.278	38.23
341.491	89.43
341.703	99.67
341.915	73.04
342.128	-39.59
342.34	13.65
342.552	-21.16
342.764	40.28
342.977	136.53
343.189	32.08
343.401	13.65
343.613	-51.88
343.826	-41.64
344.038	-45.74
344.25	99.67
344.462	-17.07
344.674	40.28
344.886	79.19
345.099	46.42
345.311	-29.35
345.523	-19.11
345.735	-76.46
345.947	83.28
346.159	15.7
346.371	11.61
346.583	97.62
346.795	122.2
347.007	34.13
347.219	50.52
347.431	7.51
347.643	89.43
347.855	-2.73
348.067	87.38
348.279	21.85
348.491	-8.87
348.703	15.7
348.915	-51.88
349.127	7.51
349.339	46.42
349.551	-47.79
349.763	40.28
349.975	30.04
350.187	107.86
350.399	30.04
350.61	15.7
350.822	54.61
351.034	25.94
351.246	21.85
351.458	15.7
351.669	13.65
351.881	97.62
352.093	71
352.305	66.9
352.517	40.28
352.728	95.57
352.94	3.41
353.152	5.46
353.363	-21.16
353.575	103.76
353.787	73.04
353.999	71
354.21	103.76
354.422	32.08
354.633	9.56
354.845	42.32
355.057	19.8
355.268	-35.5
355.48	71
355.692	21.85
355.903	19.8
356.115	9.56
356.326	54.61
356.538	99.67
356.749	9.56
356.961	62.8
357.172	73.04
357.384	36.18
357.595	79.19
357.807	3.41
358.018	5.46
358.23	50.52
358.441	97.62
358.653	68.95
358.864	-19.11
359.075	46.42
359.287	42.32
359.498	54.61
359.709	32.08
359.921	38.23
360.132	-68.27
360.344	81.24
360.555	56.66
360.766	-10.92
360.977	30.04
361.189	71
361.4	77.14
361.611	122.2
361.823	99.67
362.034	77.14
362.245	-0.68
362.456	-27.31
362.667	103.76
362.879	36.18
363.09	54.61
363.301	73.04
363.512	42.32
363.723	-53.93
363.935	13.65
364.146	46.42
364.357	30.04
364.568	101.72
364.779	-43.69
364.99	50.52
365.201	1.37
365.412	71
365.623	-21.16
365.834	62.8
366.045	-17.07
366.256	48.47
366.467	58.71
366.678	46.42
366.889	101.72
367.1	46.42
367.311	-21.16
367.522	34.13
367.733	91.48
367.944	54.61
368.155	87.38
368.366	171.35
368.577	34.13
368.788	13.65
368.999	48.47
369.209	30.04
369.42	77.14
369.631	159.06
369.842	71
370.053	30.04
370.264	46.42
370.474	25.94
370.685	32.08
370.896	9.56
371.107	46.42
371.317	46.42
371.528	48.47
371.739	66.9
371.95	71
372.16	42.32
372.371	-17.07
372.582	48.47
372.792	58.71
373.003	103.76
373.214	-17.07
373.424	38.23
373.635	79.19
373.846	54.61
374.056	46.42
374.267	1.37
374.477	136.53
374.688	95.57
374.898	66.9
375.109	9.56
375.319	13.65
375.53	58.71
375.74	62.8
375.951	71
376.161	36.18
376.372	13.65
376.582	-49.83
376.793	62.8
377.003	34.13
377.214	-49.83
377.424	-8.87
377.635	54.61
377.845	34.13
378.055	38.23
378.266	17.75
378.476	87.38
378.686	48.47
378.897	68.95
379.107	54.61
379.317	23.89
379.528	30.04
379.738	87.38
379.948	40.28
380.158	83.28
380.369	-10.92
380.579	56.66
380.789	-51.88
380.999	95.57
381.21	103.76
381.42	89.43
381.63	71
381.84	-31.4
382.05	44.37
382.261	-8.87
382.471	75.09
382.681	30.04
382.891	189.78
383.101	44.37
383.311	21.85
383.521	99.67
383.731	58.71
383.941	89.43
384.151	50.52
384.361	79.19
384.571	34.13
384.781	83.28
384.991	83.28
385.201	54.61
385.411	13.65
385.621	-0.68
385.831	54.61
386.041	83.28
386.251	-25.26
386.461	91.48
386.671	-0.68
386.881	73.04
387.091	93.52
387.301	68.95
387.511	-0.68
387.72	62.8
387.93	36.18
388.14	54.61
388.35	134.48
388.56	124.24
388.769	64.85
388.979	38.23
389.189	62.8
389.399	56.66
389.609	36.18
389.818	58.71
390.028	81.24
390.238	126.29
390.447	111.96
390.657	64.85
390.867	-10.92
391.076	34.13
391.286	66.9
391.496	44.37
391.705	50.52
391.915	136.53
392.125	58.71
392.334	54.61
392.544	189.78
392.753	105.81
392.963	-2.73
393.172	114
393.382	95.57
393.591	89.43
393.801	15.7
394.01	146.77
394.22	62.8
394.429	81.24
394.639	93.52
394.848	79.19
395.058	21.85
395.267	71
395.477	66.9
395.686	109.91
395.895	87.38
396.105	128.34
396.314	118.1
396.524	60.76
396.733	120.15
396.942	136.53
397.152	101.72
397.361	128.34
397.57	64.85
397.78	91.48
397.989	95.57
398.198	116.05
398.407	120.15
398.617	120.15
398.826	118.1
399.035	124.24
399.244	161.11
399.453	77.14
399.663	79.19
399.872	103.76
400.081	93.52
400.29	152.91
400.499	89.43
400.708	124.24
400.917	114
401.127	83.28
401.336	54.61
401.545	97.62
401.754	50.52
401.963	75.09
402.172	71
402.381	111.96
402.59	138.58
402.799	136.53
403.008	91.48
403.217	183.63
403.426	54.61
403.635	132.44
403.844	177.49
404.053	165.2
404.262	171.35
404.471	173.39
404.68	159.06
404.888	87.38
405.097	122.2
405.306	97.62
405.515	71
405.724	232.79
405.933	163.15
406.142	171.35
406.35	181.59
406.559	124.24
406.768	247.12
406.977	169.3
407.185	130.39
407.394	189.78
407.603	111.96
407.812	173.39
408.02	183.63
408.229	245.07
408.438	179.54
408.646	173.39
408.855	179.54
409.064	236.88
409.272	324.94
409.481	283.98
409.69	236.88
409.898	281.94
410.107	269.65
410.315	398.67
410.524	294.22
410.733	269.65
410.941	333.14
411.15	308.56
411.358	406.86
411.567	417.1
411.775	345.42
411.984	316.75
412.192	433.49
412.401	367.95
412.609	464.21
412.818	408.91
413.026	484.69
413.234	496.97
413.443	488.78
413.651	480.59
413.86	480.59
414.068	572.75
414.276	603.47
414.485	542.03
414.693	605.52
414.901	630.09
415.11	578.89
415.318	671.05
415.526	695.63
415.734	763.21
415.943	752.97
416.151	750.92
416.359	767.31
416.567	709.96
416.776	834.89
416.984	845.13
417.192	951.62
417.4	871.75
417.608	802.12
417.817	988.49
418.025	970.05
418.233	1140.04
418.441	988.49
418.649	939.33
418.857	1103.17
419.065	1140.04
419.273	1146.18
419.481	1193.28
419.689	1369.41
419.897	1496.38
420.105	1301.83
420.313	1430.85
420.521	1441.09
420.729	1508.67
420.937	1477.95
421.145	1537.34
421.353	1621.31
421.561	1733.95
421.769	1742.14
421.977	1875.26
422.185	1785.15
422.393	1991.99
422.601	2078.01
422.809	2000.18
423.017	2075.96
423.224	2235.7
423.432	2245.94
423.64	2239.8
423.848	2448.69
424.056	2389.3
424.263	2618.67
424.471	2669.87
424.679	2757.93
424.887	2733.36
425.094	2880.81
425.302	2776.36
425.51	3095.85
425.718	3095.85
425.925	3161.38
426.133	3222.82
426.341	3396.9
426.548	3480.86
426.756	3573.02
426.964	3603.74
427.171	3892.51
427.379	4027.67
427.586	3953.94
427.794	4060.44
428.001	4384.02
428.209	4478.23
428.417	4293.91
428.624	4715.79
428.832	4730.13
429.039	4687.12
429.247	4658.45
429.454	5100.81
429.662	5530.88
429.869	5211.4
430.076	5559.55
430.284	5244.17
430.491	5559.55
430.699	5782.78
430.906	5958.91
431.114	5733.63
431.321	6204.66
431.528	6192.37
431.736	6651.12
431.943	6913.26
432.15	6663.41
432.358	6829.29
432.565	7116.01
432.772	7159.02
432.979	7703.78
433.187	7800.03
433.394	7658.72
433.601	8250.58
433.808	8256.73
434.016	8269.02
434.223	8512.72
434.43	9069.77
434.637	9000.14
434.844	9436.36
435.052	9475.27
435.259	9485.51
435.466	9565.38
435.673	9475.27
435.88	10048.7
436.087	10802.35
436.294	10654.9
436.501	10396.85
436.708	10722.48
436.915	10847.41
437.122	11273.39
437.329	11433.13
437.537	11766.95
437.743	12170.4
437.95	11943.07
438.157	12453.02
438.364	12788.88
438.571	12987.54
438.778	13122.7
438.985	13945.98
439.192	13573.25
439.399	13782.15
439.606	13685.89
439.813	14496.89
440.02	15553.64
440.227	15098.99
440.433	14832.75
440.64	15397.99
440.847	15344.75
441.054	15744.1
441.261	16850
441.467	16614.49
441.674	16872.53
441.881	17454.15
442.088	17577.03
442.294	17341.52
442.501	17493.07
442.708	18138.18
442.914	18807.86
443.121	19704.87
443.328	19012.66
443.534	20489.24
443.741	19715.11
443.948	19342.38
444.154	21122.07
444.361	20935.7
444.568	21124.12
444.774	20884.5
444.981	21298.19
445.187	21777.42
445.394	22844.41
445.6	22469.63
445.807	24423.39
446.013	23634.92
446.22	23888.87
446.426	25039.83
446.633	24867.8
446.839	26026.95
447.046	24822.75
447.252	26215.37
447.459	26338.24
447.665	26129.35
447.871	27095.99
448.078	28408.74
448.284	27374.52
448.491	27700.14
448.697	29303.7
448.903	29803.41
449.11	29500.31
449.316	29275.03
449.522	29840.27
449.728	30649.22
449.935	30720.9
450.141	30612.35
450.347	31441.78
450.553	30405.51
450.76	31064.96
450.966	31988.59
451.172	31290.23
451.378	32242.54
451.584	31781.74
451.791	32838.5
451.997	32351.08
452.203	33002.33
452.409	32789.35
452.615	32875.36
452.821	31460.21
453.027	31503.22
453.233	32758.63
453.44	31556.47
453.646	32039.79
453.852	32654.18
454.058	32850.78
454.264	31992.69
454.47	32512.87
454.676	31622
454.882	33174.36
455.088	29584.27
455.294	30368.65
455.5	30565.25
455.705	31380.34
455.911	29965.2
456.117	29469.59
456.323	28930.97
456.529	27720.62
456.735	28744.61
456.941	28453.8
457.147	27579.31
457.352	26891.19
457.558	26465.22
457.764	26635.2
457.97	26323.91
458.176	25639.89
458.381	25773
458.587	24486.88
458.793	24493.02
458.999	23202.8
459.204	24529.89
459.41	24105.96
459.616	22490.11
459.821	22672.38
460.027	22522.88
460.233	21951.49
460.438	20689.95
460.644	21107.73
460.85	20231.2
461.055	19665.96
461.261	20038.69
461.466	18388.03
461.672	17644.62
461.878	18705.46
462.083	17822.79
462.289	17495.11
462.494	17183.82
462.7	16538.71
462.905	16002.15
463.111	16761.94
463.316	16329.82
463.522	16231.52
463.727	16389.21
463.932	16258.14
464.138	16200.8
464.343	16008.29
464.549	15588.46
464.754	16393.31
464.959	15940.71
465.165	15948.9
465.37	15389.8
465.575	14943.35
465.781	15162.48
465.986	15627.37
466.191	14765.17
466.397	14828.66
466.602	13839.49
466.807	14681.21
467.012	14324.86
467.218	14449.78
467.423	14306.43
467.628	14324.86
467.833	15010.93
468.038	14365.82
468.244	14054.53
