Data from USB4F104151__194__14-45-13-931.txt Node

Date: Thu Mar 13 14:45:13 EDT 2025
User: louis
Spectrometer: USB4F10415
Trigger mode: 4
Integration Time (sec): 2.000000E-2
Scans to average: 1
Electric dark correction enabled: true
Nonlinearity correction enabled: false
Boxcar width: 0
XAxis mode: Wavelengths
Number of Pixels in Spectrum: 3648
>>>>>Begin Spectral Data<<<<<
178.204	-82.26
178.424	-82.26
178.644	-82.26
178.864	-221.52
179.084	-84.31
179.304	-10.58
179.524	13.99
179.744	7.85
179.964	13.99
180.184	-63.83
180.404	13.99
180.624	-24.92
180.844	-43.35
181.064	34.47
181.283	11.95
181.503	-8.53
181.723	54.95
181.943	-35.16
182.163	-16.73
182.383	-51.54
182.602	1.71
182.822	38.57
183.042	50.86
183.262	1.71
183.482	22.19
183.701	54.95
183.921	-18.77
184.141	18.09
184.361	22.19
184.58	-16.73
184.8	38.57
185.02	-16.73
185.239	24.23
185.459	9.9
185.679	38.57
185.898	38.57
186.118	54.95
186.338	5.8
186.557	57
186.777	-22.87
186.997	40.62
187.216	71.34
187.436	87.72
187.655	-8.53
187.875	24.23
188.095	46.76
188.314	54.95
188.534	95.91
188.753	9.9
188.973	54.95
189.192	65.19
189.412	-49.49
189.631	-47.44
189.851	7.85
190.07	71.34
190.29	-47.44
190.509	40.62
190.729	54.95
190.948	5.8
191.168	149.16
191.387	71.34
191.607	22.19
191.826	22.19
192.045	-63.83
192.265	50.86
192.484	3.75
192.704	77.48
192.923	-67.92
193.142	11.95
193.362	20.14
193.581	69.29
193.8	-6.49
194.02	16.04
194.239	40.62
194.458	1.71
194.678	-31.06
194.897	63.15
195.116	59.05
195.335	32.43
195.555	34.47
195.774	-10.58
195.993	20.14
196.212	-76.12
196.432	-18.77
196.651	46.76
196.87	11.95
197.089	110.25
197.308	-18.77
197.528	104.11
197.747	-2.39
197.966	-92.5
198.185	124.58
198.404	13.99
198.623	42.67
198.842	42.67
199.062	81.58
199.281	87.72
199.5	-12.63
199.719	32.43
199.938	28.33
200.157	81.58
200.376	24.23
200.595	13.99
200.814	-10.58
201.033	5.8
201.252	97.96
201.471	-8.53
201.69	-26.96
201.909	40.62
202.128	-12.63
202.347	63.15
202.566	13.99
202.785	46.76
203.004	-2.39
203.223	-18.77
203.442	-0.34
203.661	24.23
203.879	-51.54
204.098	38.57
204.317	-2.39
204.536	36.52
204.755	54.95
204.974	59.05
205.193	57
205.411	83.63
205.63	18.09
205.849	1.71
206.068	30.38
206.287	40.62
206.505	-59.73
206.724	-2.39
206.943	16.04
207.162	9.9
207.381	-82.26
207.599	11.95
207.818	-24.92
208.037	-37.2
208.255	63.15
208.474	-59.73
208.693	63.15
208.911	95.91
209.13	63.15
209.349	22.19
209.567	13.99
209.786	46.76
210.005	26.28
210.223	30.38
210.442	-24.92
210.661	30.38
210.879	-31.06
211.098	38.57
211.316	50.86
211.535	1.71
211.753	63.15
211.972	61.1
212.191	38.57
212.409	16.04
212.628	38.57
212.846	22.19
213.065	-22.87
213.283	24.23
213.502	-22.87
213.72	22.19
213.938	54.95
214.157	30.38
214.375	40.62
214.594	46.76
214.812	79.53
215.031	63.15
215.249	-59.73
215.467	-14.68
215.686	-20.82
215.904	79.53
216.122	16.04
216.341	22.19
216.559	-18.77
216.778	34.47
216.996	-0.34
217.214	-18.77
217.432	42.67
217.651	16.04
217.869	16.04
218.087	-6.49
218.306	-2.39
218.524	63.15
218.742	22.19
218.96	-16.73
219.179	46.76
219.397	-10.58
219.615	63.15
219.833	26.28
220.051	-55.64
220.27	40.62
220.488	75.43
220.706	30.38
220.924	-0.34
221.142	-10.58
221.36	26.28
221.578	-10.58
221.796	44.71
222.015	30.38
222.233	-31.06
222.451	65.19
222.669	-14.68
222.887	57
223.105	-117.08
223.323	-2.39
223.541	9.9
223.759	-16.73
223.977	5.8
224.195	87.72
224.413	83.63
224.631	7.85
224.849	-98.64
225.067	22.19
225.285	-61.78
225.503	-18.77
225.721	1.71
225.939	-10.58
226.157	7.85
226.375	132.78
226.592	-26.96
226.81	-51.54
227.028	40.62
227.246	38.57
227.464	46.76
227.682	71.34
227.9	-24.92
228.117	-63.83
228.335	-76.12
228.553	-4.44
228.771	-2.39
228.989	24.23
229.206	46.76
229.424	24.23
229.642	7.85
229.86	57
230.077	13.99
230.295	-20.82
230.513	-33.11
230.731	22.19
230.948	95.91
231.166	18.09
231.384	-2.39
231.601	-22.87
231.819	40.62
232.037	34.47
232.254	-22.87
232.472	63.15
232.689	-22.87
232.907	24.23
233.125	-65.88
233.342	-10.58
233.56	-31.06
233.777	-10.58
233.995	-18.77
234.213	97.96
234.43	11.95
234.648	-8.53
234.865	16.04
235.083	26.28
235.3	44.71
235.518	-10.58
235.735	108.2
235.953	38.57
236.17	87.72
236.388	-10.58
236.605	-76.12
236.822	149.16
237.04	30.38
237.257	-2.39
237.475	9.9
237.692	18.09
237.909	71.34
238.127	20.14
238.344	-33.11
238.562	38.57
238.779	32.43
238.996	-33.11
239.214	-10.58
239.431	50.86
239.648	-26.96
239.865	16.04
240.083	5.8
240.3	26.28
240.517	46.76
240.735	-22.87
240.952	-8.53
241.169	81.58
241.386	-4.44
241.603	-8.53
241.821	7.85
242.038	104.11
242.255	5.8
242.472	22.19
242.689	89.77
242.907	48.81
243.124	36.52
243.341	-112.98
243.558	9.9
243.775	18.09
243.992	13.99
244.209	40.62
244.426	34.47
244.643	-4.44
244.86	42.67
245.078	34.47
245.295	-41.3
245.512	73.39
245.729	5.8
245.946	40.62
246.163	-0.34
246.38	-10.58
246.597	-10.58
246.814	7.85
247.031	32.43
247.248	-12.63
247.464	3.75
247.681	16.04
247.898	26.28
248.115	11.95
248.332	42.67
248.549	114.34
248.766	34.47
248.983	42.67
249.2	-35.16
249.417	26.28
249.633	-10.58
249.85	22.19
250.067	-67.92
250.284	16.04
250.501	59.05
250.717	1.71
250.934	-8.53
251.151	13.99
251.368	-16.73
251.585	32.43
251.801	-2.39
252.018	-2.39
252.235	16.04
252.451	63.15
252.668	18.09
252.885	87.72
253.102	18.09
253.318	16.04
253.535	-92.5
253.752	-22.87
253.968	1.71
254.185	-35.16
254.401	-51.54
254.618	-2.39
254.835	26.28
255.051	61.1
255.268	5.8
255.484	40.62
255.701	44.71
255.917	-6.49
256.134	-6.49
256.351	71.34
256.567	-26.96
256.784	63.15
257	32.43
257.217	46.76
257.433	77.48
257.65	42.67
257.866	112.3
258.082	-61.78
258.299	-2.39
258.515	16.04
258.732	24.23
258.948	40.62
259.165	-10.58
259.381	-14.68
259.597	-0.34
259.814	97.96
260.03	-29.01
260.246	1.71
260.463	-49.49
260.679	-67.92
260.895	9.9
261.112	38.57
261.328	11.95
261.544	-16.73
261.761	112.3
261.977	18.09
262.193	-2.39
262.409	18.09
262.626	97.96
262.842	-26.96
263.058	-39.25
263.274	18.09
263.49	38.57
263.707	32.43
263.923	44.71
264.139	-14.68
264.355	26.28
264.571	46.76
264.787	9.9
265.004	-22.87
265.22	-8.53
265.436	-12.63
265.652	54.95
265.868	-0.34
266.084	-76.12
266.3	-39.25
266.516	-67.92
266.732	91.82
266.948	-10.58
267.164	13.99
267.38	30.38
267.596	63.15
267.812	30.38
268.028	73.39
268.244	-22.87
268.46	54.95
268.676	-35.16
268.892	-59.73
269.108	-45.4
269.324	-29.01
269.54	-45.4
269.756	13.99
269.972	30.38
270.188	75.43
270.403	-84.31
270.619	38.57
270.835	-2.39
271.051	-80.21
271.267	1.71
271.483	-22.87
271.698	54.95
271.914	54.95
272.13	-2.39
272.346	20.14
272.562	-6.49
272.777	89.77
272.993	71.34
273.209	-10.58
273.425	16.04
273.64	-0.34
273.856	24.23
274.072	50.86
274.287	5.8
274.503	-2.39
274.719	-10.58
274.934	46.76
275.15	-26.96
275.366	-57.68
275.581	-8.53
275.797	-26.96
276.012	59.05
276.228	13.99
276.444	-12.63
276.659	104.11
276.875	-76.12
277.09	-24.92
277.306	-35.16
277.521	32.43
277.737	57
277.952	22.19
278.168	97.96
278.383	50.86
278.599	18.09
278.814	73.39
279.03	26.28
279.245	57
279.461	32.43
279.676	85.67
279.892	40.62
280.107	-20.82
280.322	-49.49
280.538	63.15
280.753	-59.73
280.969	46.76
281.184	-26.96
281.399	-24.92
281.615	-67.92
281.83	46.76
282.045	-39.25
282.26	16.04
282.476	-45.4
282.691	38.57
282.906	59.05
283.122	75.43
283.337	34.47
283.552	40.62
283.767	-14.68
283.983	46.76
284.198	-33.11
284.413	11.95
284.628	-26.96
284.843	46.76
285.058	38.57
285.274	67.24
285.489	3.75
285.704	22.19
285.919	-59.73
286.134	1.71
286.349	24.23
286.564	18.09
286.779	63.15
286.995	38.57
287.21	-2.39
287.425	65.19
287.64	7.85
287.855	61.1
288.07	-88.4
288.285	93.87
288.5	11.95
288.715	67.24
288.93	44.71
289.145	-10.58
289.36	40.62
289.575	122.54
289.79	130.73
290.004	-26.96
290.219	108.2
290.434	22.19
290.649	-24.92
290.864	-0.34
291.079	-10.58
291.294	42.67
291.509	71.34
291.724	-26.96
291.938	-67.92
292.153	26.28
292.368	44.71
292.583	18.09
292.798	54.95
293.012	30.38
293.227	57
293.442	-14.68
293.657	57
293.871	9.9
294.086	18.09
294.301	42.67
294.516	38.57
294.73	40.62
294.945	-67.92
295.16	-16.73
295.374	22.19
295.589	-18.77
295.804	-41.3
296.018	69.29
296.233	81.58
296.447	-24.92
296.662	7.85
296.877	-2.39
297.091	44.71
297.306	22.19
297.52	38.57
297.735	13.99
297.949	5.8
298.164	46.76
298.378	-45.4
298.593	59.05
298.807	9.9
299.022	-4.44
299.236	38.57
299.451	71.34
299.665	81.58
299.88	81.58
300.094	69.29
300.309	40.62
300.523	34.47
300.737	22.19
300.952	-18.77
301.166	-10.58
301.381	-14.68
301.595	-45.4
301.809	57
302.024	81.58
302.238	-100.69
302.452	48.81
302.667	48.81
302.881	38.57
303.095	-18.77
303.309	75.43
303.524	-20.82
303.738	-22.87
303.952	-43.35
304.166	-18.77
304.381	-51.54
304.595	30.38
304.809	-8.53
305.023	5.8
305.237	48.81
305.452	-2.39
305.666	122.54
305.88	38.57
306.094	100.01
306.308	22.19
306.522	-16.73
306.736	38.57
306.95	-0.34
307.164	26.28
307.379	-26.96
307.593	63.15
307.807	83.63
308.021	59.05
308.235	40.62
308.449	13.99
308.663	22.19
308.877	40.62
309.091	-24.92
309.305	89.77
309.519	-51.54
309.733	79.53
309.947	-49.49
310.161	46.76
310.374	52.91
310.588	73.39
310.802	26.28
311.016	48.81
311.23	-63.83
311.444	-18.77
311.658	-20.82
311.872	-4.44
312.085	73.39
312.299	22.19
312.513	32.43
312.727	26.28
312.941	-4.44
313.154	57
313.368	-2.39
313.582	36.52
313.796	73.39
314.009	-6.49
314.223	16.04
314.437	26.28
314.651	-72.02
314.864	32.43
315.078	-10.58
315.292	89.77
315.505	-6.49
315.719	13.99
315.933	69.29
316.146	26.28
316.36	-35.16
316.573	118.44
316.787	5.8
317.001	-35.16
317.214	5.8
317.428	-51.54
317.641	71.34
317.855	50.86
318.068	63.15
318.282	71.34
318.495	46.76
318.709	-14.68
318.922	-45.4
319.136	46.76
319.349	63.15
319.563	-26.96
319.776	13.99
319.99	-8.53
320.203	26.28
320.417	7.85
320.63	67.24
320.843	75.43
321.057	13.99
321.27	11.95
321.483	-82.26
321.697	79.53
321.91	63.15
322.124	59.05
322.337	-35.16
322.55	-0.34
322.763	13.99
322.977	30.38
323.19	28.33
323.403	5.8
323.617	104.11
323.83	136.87
324.043	-10.58
324.256	-0.34
324.469	22.19
324.683	79.53
324.896	87.72
325.109	48.81
325.322	34.47
325.535	65.19
325.748	59.05
325.962	-26.96
326.175	-26.96
326.388	-10.58
326.601	116.39
326.814	-4.44
327.027	18.09
327.24	46.76
327.453	-63.83
327.666	16.04
327.879	63.15
328.092	24.23
328.305	-4.44
328.518	16.04
328.731	-65.88
328.944	71.34
329.157	59.05
329.37	-10.58
329.583	97.96
329.796	97.96
330.009	-47.44
330.222	87.72
330.435	59.05
330.648	54.95
330.861	-18.77
331.073	-2.39
331.286	44.71
331.499	42.67
331.712	28.33
331.925	-10.58
332.138	30.38
332.35	87.72
332.563	57
332.776	50.86
332.989	30.38
333.202	50.86
333.414	40.62
333.627	-8.53
333.84	63.15
334.053	9.9
334.265	-0.34
334.478	-8.53
334.691	16.04
334.903	57
335.116	-8.53
335.329	24.23
335.541	-14.68
335.754	95.91
335.966	46.76
336.179	54.95
336.392	-0.34
336.604	36.52
336.817	42.67
337.029	89.77
337.242	46.76
337.454	46.76
337.667	67.24
337.88	50.86
338.092	-10.58
338.305	46.76
338.517	-74.07
338.729	-18.77
338.942	42.67
339.154	-16.73
339.367	-14.68
339.579	16.04
339.792	54.95
340.004	67.24
340.217	97.96
340.429	22.19
340.641	-14.68
340.854	30.38
341.066	-18.77
341.278	-43.35
341.491	100.01
341.703	79.53
341.915	-76.12
342.128	106.15
342.34	57
342.552	-72.02
342.764	-8.53
342.977	20.14
343.189	30.38
343.401	52.91
343.613	-0.34
343.826	30.38
344.038	-33.11
344.25	9.9
344.462	30.38
344.674	-26.96
344.886	63.15
345.099	77.48
345.311	9.9
345.523	-39.25
345.735	-22.87
345.947	42.67
346.159	-43.35
346.371	81.58
346.583	42.67
346.795	34.47
347.007	61.1
347.219	71.34
347.431	54.95
347.643	114.34
347.855	30.38
348.067	63.15
348.279	9.9
348.491	34.47
348.703	89.77
348.915	32.43
349.127	22.19
349.339	22.19
349.551	50.86
349.763	22.19
349.975	87.72
350.187	48.81
350.399	63.15
350.61	7.85
350.822	7.85
351.034	16.04
351.246	16.04
351.458	38.57
351.669	-6.49
351.881	32.43
352.093	-16.73
352.305	63.15
352.517	26.28
352.728	71.34
352.94	-10.58
353.152	-16.73
353.363	40.62
353.575	83.63
353.787	30.38
353.999	-33.11
354.21	5.8
354.422	-67.92
354.633	81.58
354.845	-18.77
355.057	65.19
355.268	54.95
355.48	50.86
355.692	-43.35
355.903	-35.16
356.115	22.19
356.326	-72.02
356.538	112.3
356.749	42.67
356.961	95.91
357.172	-8.53
357.384	-2.39
357.595	124.58
357.807	32.43
358.018	73.39
358.23	1.71
358.441	-18.77
358.653	20.14
358.864	5.8
359.075	-35.16
359.287	18.09
359.498	46.76
359.709	65.19
359.921	-65.88
360.132	-29.01
360.344	48.81
360.555	46.76
360.766	40.62
360.977	-6.49
361.189	95.91
361.4	54.95
361.611	1.71
361.823	87.72
362.034	54.95
362.245	-39.25
362.456	5.8
362.667	63.15
362.879	5.8
363.09	-22.87
363.301	69.29
363.512	59.05
363.723	1.71
363.935	22.19
364.146	-10.58
364.357	-8.53
364.568	16.04
364.779	48.81
364.99	54.95
365.201	-37.2
365.412	46.76
365.623	-0.34
365.834	124.58
366.045	91.82
366.256	54.95
366.467	71.34
366.678	65.19
366.889	-29.01
367.1	30.38
367.311	71.34
367.522	-8.53
367.733	13.99
367.944	46.76
368.155	71.34
368.366	-8.53
368.577	36.52
368.788	50.86
368.999	63.15
369.209	40.62
369.42	81.58
369.631	128.68
369.842	38.57
370.053	13.99
370.264	-0.34
370.474	-0.34
370.685	79.53
370.896	13.99
371.107	54.95
371.317	34.47
371.528	5.8
371.739	120.49
371.95	26.28
372.16	75.43
372.371	-0.34
372.582	16.04
372.792	44.71
373.003	48.81
373.214	-16.73
373.424	32.43
373.635	-2.39
373.846	-16.73
374.056	40.62
374.267	7.85
374.477	-6.49
374.688	38.57
374.898	-31.06
375.109	114.34
375.319	-2.39
375.53	50.86
375.74	-26.96
375.951	46.76
376.161	-24.92
376.372	104.11
376.582	26.28
376.793	69.29
377.003	32.43
377.214	65.19
377.424	81.58
377.635	75.43
377.845	-31.06
378.055	7.85
378.266	38.57
378.476	5.8
378.686	-16.73
378.897	61.1
379.107	71.34
379.317	71.34
379.528	-2.39
379.738	71.34
379.948	65.19
380.158	57
380.369	-12.63
380.579	83.63
380.789	-4.44
380.999	48.81
381.21	57
381.42	48.81
381.63	-6.49
381.84	-2.39
382.05	11.95
382.261	38.57
382.471	106.15
382.681	7.85
382.891	30.38
383.101	67.24
383.311	30.38
383.521	-10.58
383.731	13.99
383.941	71.34
384.151	13.99
384.361	20.14
384.571	54.95
384.781	114.34
384.991	169.64
385.201	95.91
385.411	75.43
385.621	46.76
385.831	42.67
386.041	48.81
386.251	-10.58
386.461	104.11
386.671	30.38
386.881	54.95
387.091	52.91
387.301	112.3
387.511	-35.16
387.72	71.34
387.93	106.15
388.14	3.75
388.35	3.75
388.56	-43.35
388.769	71.34
388.979	91.82
389.189	-2.39
389.399	63.15
389.609	71.34
389.818	89.77
390.028	34.47
390.238	128.68
390.447	22.19
390.657	87.72
390.867	71.34
391.076	-33.11
391.286	-10.58
391.496	85.67
391.705	54.95
391.915	100.01
392.125	38.57
392.334	71.34
392.544	81.58
392.753	44.71
392.963	22.19
393.172	26.28
393.382	1.71
393.591	65.19
393.801	-16.73
394.01	114.34
394.22	104.11
394.429	20.14
394.639	59.05
394.848	95.91
395.058	16.04
395.267	83.63
395.477	120.49
395.686	65.19
395.895	136.87
396.105	169.64
396.314	79.53
396.524	75.43
396.733	5.8
396.942	5.8
397.152	108.2
397.361	63.15
397.57	97.96
397.78	46.76
397.989	75.43
398.198	91.82
398.407	22.19
398.617	87.72
398.826	69.29
399.035	16.04
399.244	54.95
399.453	71.34
399.663	75.43
399.872	104.11
400.081	50.86
400.29	149.16
400.499	-16.73
400.708	116.39
400.917	79.53
401.127	67.24
401.336	54.95
401.545	116.39
401.754	32.43
401.963	59.05
402.172	71.34
402.381	67.24
402.59	110.25
402.799	30.38
403.008	102.06
403.217	87.72
403.426	114.34
403.635	34.47
403.844	46.76
404.053	136.87
404.262	120.49
404.471	169.64
404.68	95.91
404.888	116.39
405.097	59.05
405.306	120.49
405.515	91.82
405.724	145.06
405.933	169.64
406.142	155.3
406.35	128.68
406.559	71.34
406.768	173.74
406.977	169.64
407.185	216.74
407.394	136.87
407.603	69.29
407.812	149.16
408.02	95.91
408.229	153.26
408.438	155.3
408.646	132.78
408.855	149.16
409.064	157.35
409.272	224.94
409.481	280.23
409.69	136.87
409.898	194.22
410.107	226.98
410.315	214.7
410.524	169.64
410.733	186.02
410.941	267.94
411.15	269.99
411.358	183.98
411.567	345.77
411.775	263.85
411.984	335.53
412.192	325.29
412.401	263.85
412.609	304.81
412.818	390.82
413.026	319.14
413.234	327.33
413.443	286.37
413.651	345.77
413.86	362.15
414.068	356.01
414.276	466.6
414.485	399.01
414.693	407.2
414.901	480.93
415.11	460.45
415.318	515.75
415.526	558.75
415.734	607.91
415.943	593.57
416.151	603.81
416.359	612
416.567	552.61
416.776	712.35
416.984	695.97
417.192	718.5
417.4	640.67
417.608	730.78
417.817	728.74
418.025	689.82
418.233	892.57
418.441	796.32
418.649	810.65
418.857	884.38
419.065	966.3
419.273	898.72
419.481	923.29
419.689	984.73
419.897	1070.75
420.105	1072.79
420.313	1078.94
420.521	1218.2
420.729	1144.47
420.937	1160.86
421.145	1189.53
421.353	1263.26
421.561	1334.93
421.769	1412.76
421.977	1466
422.185	1371.8
422.393	1488.53
422.601	1717.9
422.809	1574.55
423.017	1652.37
423.224	1685.14
423.432	1867.41
423.64	1791.63
423.848	2018.96
424.056	1889.93
424.263	1984.14
424.471	2127.5
424.679	2096.78
424.887	2100.87
425.094	2279.05
425.302	2225.8
425.51	2356.87
425.718	2627.2
425.925	2406.02
426.133	2555.52
426.341	2745.98
426.548	2899.58
426.756	2760.32
426.964	2768.51
427.171	2877.05
427.379	3184.25
427.586	3063.42
427.794	3151.48
428.001	3323.51
428.209	3389.05
428.417	3438.2
428.624	3614.32
428.832	3630.71
429.039	3702.39
429.247	3563.12
429.454	3999.34
429.662	4359.78
429.869	3954.29
430.076	4220.52
430.284	4208.23
430.491	4349.54
430.699	4408.94
430.906	4621.92
431.114	4640.36
431.321	4734.56
431.528	4845.15
431.736	5062.24
431.943	5293.66
432.15	5219.93
432.358	5264.99
432.565	5594.71
432.772	5598.81
432.979	5813.84
433.187	5793.36
433.394	6018.64
433.601	6428.23
433.808	6370.89
434.016	6329.93
434.223	6575.69
434.43	7132.73
434.637	6749.76
434.844	7292.48
435.052	7347.77
435.259	7517.75
435.466	7554.62
435.673	7505.46
435.88	7896.63
436.087	8379.95
436.294	8197.68
436.501	8019.5
436.708	8357.42
436.915	8627.75
437.122	8855.08
437.329	8685.09
437.537	9127.46
437.743	9242.14
437.95	9469.47
438.157	9850.39
438.364	9983.51
438.571	9979.41
438.778	10114.58
438.985	10937.86
439.192	10593.8
439.399	10814.98
439.606	10690.06
439.813	11382.27
440.02	12002.8
440.227	11732.47
440.433	11529.72
440.64	12168.69
440.847	11978.23
441.054	12090.87
441.261	12883.43
441.467	12785.13
441.674	13190.63
441.881	13772.25
442.088	13446.62
442.294	13401.57
442.501	13802.97
442.708	14104.02
442.914	14675.4
443.121	15203.78
443.328	14761.42
443.534	15779.26
443.741	15373.76
443.948	15062.47
444.154	16496.05
444.361	16141.75
444.568	16285.11
444.774	16358.83
444.981	16274.87
445.187	16895.4
445.394	17665.44
445.6	17675.68
445.807	19101.06
446.013	18165.14
446.22	18787.72
446.426	19051.91
446.633	19463.55
446.839	19932.54
447.046	19297.67
447.252	20311.41
447.459	20462.96
447.665	20350.32
447.871	21173.61
448.078	22449.49
448.284	21030.25
448.491	21994.84
448.697	22566.23
448.903	22863.18
449.11	22932.81
449.316	22707.54
449.522	23170.38
449.728	23690.56
449.935	23975.23
450.141	23747.9
450.347	24438.07
450.553	23592.26
450.76	24065.34
450.966	24978.73
451.172	24560.95
451.378	24986.93
451.584	24573.24
451.791	25296.17
451.997	25453.86
452.203	25482.53
452.409	25828.64
452.615	25488.68
452.821	24503.6
453.027	24511.8
453.233	25548.07
453.44	24802.61
453.646	24929.58
453.852	24986.93
454.058	25378.09
454.264	25005.36
454.47	25400.62
454.676	24513.84
454.882	25476.39
455.088	23240.01
455.294	23668.03
455.5	24255.8
455.705	24028.48
455.911	23514.44
456.117	22893.9
456.323	22601.04
456.529	21304.68
456.735	22656.34
456.941	21937.5
457.147	21620.06
457.352	20878.7
457.558	20465.01
457.764	20829.55
457.97	20274.55
458.176	19774.84
458.381	19733.89
458.587	18828.68
458.793	18709.9
458.999	17708.44
459.204	19185.03
459.41	18773.39
459.616	17468.83
459.821	17429.92
460.027	17085.86
460.233	16944.55
460.438	16293.3
460.644	16541.1
460.85	15832.51
461.055	15332.8
461.261	15752.63
461.466	14124.5
461.672	13850.07
461.878	14773.71
462.083	13675.99
462.289	13716.95
462.494	13563.36
462.7	13030.88
462.905	12396.01
463.111	13120.99
463.316	13186.53
463.522	12678.63
463.727	12508.65
463.932	12750.31
464.138	12508.65
464.343	12410.35
464.549	12219.89
464.754	12658.15
464.959	12705.26
465.165	12383.73
465.37	11802.1
465.575	11589.11
465.781	12006.9
465.986	12129.78
466.191	11568.63
466.397	11468.28
466.602	10905.09
466.807	11066.88
467.012	11357.69
467.218	11369.98
