Data from USB4F104151__244__14-45-48-323.txt Node

Date: Thu Mar 13 14:45:48 EDT 2025
User: louis
Spectrometer: USB4F10415
Trigger mode: 4
Integration Time (sec): 2.000000E-2
Scans to average: 1
Electric dark correction enabled: true
Nonlinearity correction enabled: false
Boxcar width: 0
XAxis mode: Wavelengths
Number of Pixels in Spectrum: 3648
>>>>>Begin Spectral Data<<<<<
178.204	-98.64
178.424	-98.64
178.644	-98.64
178.864	-131.41
179.084	-96.6
179.304	-47.44
179.524	46.76
179.744	24.23
179.964	1.71
180.184	24.23
180.404	40.62
180.624	7.85
180.844	-16.73
181.064	-47.44
181.283	-26.96
181.503	-8.53
181.723	1.71
181.943	-12.63
182.163	89.77
182.383	-29.01
182.602	59.05
182.822	87.72
183.042	-22.87
183.262	-22.87
183.482	16.04
183.701	-16.73
183.921	50.86
184.141	7.85
184.361	34.47
184.58	18.09
184.8	24.23
185.02	-20.82
185.239	65.19
185.459	85.67
185.679	69.29
185.898	-96.6
186.118	69.29
186.338	-0.34
186.557	1.71
186.777	36.52
186.997	-12.63
187.216	34.47
187.436	91.82
187.655	36.52
187.875	85.67
188.095	50.86
188.314	81.58
188.534	46.76
188.753	-2.39
188.973	-12.63
189.192	9.9
189.412	50.86
189.631	16.04
189.851	48.81
190.07	42.67
190.29	-16.73
190.509	18.09
190.729	-29.01
190.948	52.91
191.168	71.34
191.387	65.19
191.607	7.85
191.826	50.86
192.045	116.39
192.265	57
192.484	3.75
192.704	75.43
192.923	-39.25
193.142	100.01
193.362	32.43
193.581	52.91
193.8	48.81
194.02	18.09
194.239	65.19
194.458	52.91
194.678	-49.49
194.897	50.86
195.116	44.71
195.335	7.85
195.555	-20.82
195.774	24.23
195.993	40.62
196.212	22.19
196.432	26.28
196.651	57
196.87	42.67
197.089	73.39
197.308	93.87
197.528	-14.68
197.747	-0.34
197.966	16.04
198.185	40.62
198.404	-6.49
198.623	-24.92
198.842	77.48
199.062	-0.34
199.281	16.04
199.5	-14.68
199.719	67.24
199.938	73.39
200.157	71.34
200.376	20.14
200.595	11.95
200.814	57
201.033	83.63
201.252	7.85
201.471	13.99
201.69	16.04
201.909	50.86
202.128	57
202.347	57
202.566	-26.96
202.785	20.14
203.004	40.62
203.223	85.67
203.442	7.85
203.661	-29.01
203.879	-29.01
204.098	65.19
204.317	-31.06
204.536	7.85
204.755	-59.73
204.974	114.34
205.193	-8.53
205.411	97.96
205.63	67.24
205.849	-16.73
206.068	-0.34
206.287	-22.87
206.505	-31.06
206.724	48.81
206.943	65.19
207.162	-6.49
207.381	-37.2
207.599	57
207.818	75.43
208.037	-4.44
208.255	42.67
208.474	-16.73
208.693	32.43
208.911	13.99
209.13	-14.68
209.349	65.19
209.567	40.62
209.786	-8.53
210.005	34.47
210.223	-22.87
210.442	7.85
210.661	57
210.879	48.81
211.098	18.09
211.316	65.19
211.535	52.91
211.753	69.29
211.972	59.05
212.191	-39.25
212.409	9.9
212.628	16.04
212.846	-12.63
213.065	28.33
213.283	134.82
213.502	44.71
213.72	100.01
213.938	-4.44
214.157	79.53
214.375	-29.01
214.594	-8.53
214.812	40.62
215.031	-12.63
215.249	-22.87
215.467	-0.34
215.686	-0.34
215.904	26.28
216.122	26.28
216.341	73.39
216.559	40.62
216.778	57
216.996	67.24
217.214	-4.44
217.432	-37.2
217.651	-8.53
217.869	40.62
218.087	40.62
218.306	-8.53
218.524	65.19
218.742	-4.44
218.96	50.86
219.179	22.19
219.397	50.86
219.615	50.86
219.833	89.77
220.051	44.71
220.27	-33.11
220.488	65.19
220.706	44.71
220.924	9.9
221.142	30.38
221.36	-33.11
221.578	-6.49
221.796	65.19
222.015	52.91
222.233	-14.68
222.451	52.91
222.669	-53.59
222.887	149.16
223.105	-76.12
223.323	24.23
223.541	42.67
223.759	1.71
223.977	3.75
224.195	65.19
224.413	57
224.631	16.04
224.849	32.43
225.067	143.02
225.285	20.14
225.503	-2.39
225.721	24.23
225.939	-20.82
226.157	38.57
226.375	54.95
226.592	16.04
226.81	16.04
227.028	108.2
227.246	81.58
227.464	52.91
227.682	61.1
227.9	11.95
228.117	34.47
228.335	-0.34
228.553	-35.16
228.771	-10.58
228.989	106.15
229.206	-33.11
229.424	22.19
229.642	54.95
229.86	11.95
230.077	73.39
230.295	18.09
230.513	77.48
230.731	67.24
230.948	61.1
231.166	36.52
231.384	1.71
231.601	-26.96
231.819	122.54
232.037	-0.34
232.254	-20.82
232.472	-37.2
232.689	11.95
232.907	9.9
233.125	24.23
233.342	26.28
233.56	79.53
233.777	65.19
233.995	16.04
234.213	48.81
234.43	34.47
234.648	16.04
234.865	34.47
235.083	95.91
235.3	114.34
235.518	-74.07
235.735	5.8
235.953	102.06
236.17	44.71
236.388	32.43
236.605	-6.49
236.822	65.19
237.04	1.71
237.257	-0.34
237.475	-41.3
237.692	34.47
237.909	18.09
238.127	-82.26
238.344	26.28
238.562	59.05
238.779	16.04
238.996	-16.73
239.214	-4.44
239.431	57
239.648	11.95
239.865	50.86
240.083	67.24
240.3	46.76
240.517	24.23
240.735	7.85
240.952	20.14
241.169	40.62
241.386	38.57
241.603	-0.34
241.821	-8.53
242.038	7.85
242.255	13.99
242.472	20.14
242.689	50.86
242.907	11.95
243.124	-2.39
243.341	73.39
243.558	-41.3
243.775	40.62
243.992	3.75
244.209	52.91
244.426	69.29
244.643	75.43
244.86	-14.68
245.078	11.95
245.295	16.04
245.512	50.86
245.729	67.24
245.946	5.8
246.163	-24.92
246.38	3.75
246.597	91.82
246.814	91.82
247.031	20.14
247.248	81.58
247.464	13.99
247.681	50.86
247.898	57
248.115	61.1
248.332	-4.44
248.549	110.25
248.766	81.58
248.983	59.05
249.2	-18.77
249.417	9.9
249.633	16.04
249.85	16.04
250.067	59.05
250.284	44.71
250.501	46.76
250.717	-12.63
250.934	11.95
251.151	-59.73
251.368	18.09
251.585	7.85
251.801	75.43
252.018	48.81
252.235	-37.2
252.451	40.62
252.668	57
252.885	81.58
253.102	75.43
253.318	-31.06
253.535	-20.82
253.752	28.33
253.968	1.71
254.185	85.67
254.401	57
254.618	59.05
254.835	-33.11
255.051	65.19
255.268	-37.2
255.484	-6.49
255.701	48.81
255.917	42.67
256.134	-39.25
256.351	48.81
256.567	18.09
256.784	-41.3
257	7.85
257.217	-4.44
257.433	3.75
257.65	75.43
257.866	-0.34
258.082	-47.44
258.299	13.99
258.515	26.28
258.732	-43.35
258.948	16.04
259.165	22.19
259.381	-24.92
259.597	-24.92
259.814	36.52
260.03	69.29
260.246	-33.11
260.463	124.58
260.679	28.33
260.895	57
261.112	89.77
261.328	81.58
261.544	-35.16
261.761	118.44
261.977	61.1
262.193	40.62
262.409	83.63
262.626	-8.53
262.842	26.28
263.058	-14.68
263.274	28.33
263.49	65.19
263.707	100.01
263.923	61.1
264.139	-29.01
264.355	42.67
264.571	149.16
264.787	48.81
265.004	18.09
265.22	67.24
265.436	-31.06
265.652	-49.49
265.868	110.25
266.084	-59.73
266.3	42.67
266.516	7.85
266.732	-0.34
266.948	-49.49
267.164	50.86
267.38	16.04
267.596	-14.68
267.812	69.29
268.028	61.1
268.244	-29.01
268.46	1.71
268.676	77.48
268.892	81.58
269.108	-8.53
269.324	-37.2
269.54	-8.53
269.756	97.96
269.972	-39.25
270.188	7.85
270.403	-33.11
270.619	-24.92
270.835	-12.63
271.051	57
271.267	7.85
271.483	26.28
271.698	-29.01
271.914	-61.78
272.13	-0.34
272.346	13.99
272.562	24.23
272.777	65.19
272.993	79.53
273.209	16.04
273.425	61.1
273.64	24.23
273.856	24.23
274.072	-8.53
274.287	-20.82
274.503	-49.49
274.719	-10.58
274.934	-22.87
275.15	32.43
275.366	-45.4
275.581	-33.11
275.797	57
276.012	1.71
276.228	24.23
276.444	-6.49
276.659	18.09
276.875	-24.92
277.09	24.23
277.306	20.14
277.521	-0.34
277.737	-4.44
277.952	59.05
278.168	28.33
278.383	57
278.599	-12.63
278.814	59.05
279.03	34.47
279.245	57
279.461	28.33
279.676	44.71
279.892	-45.4
280.107	-2.39
280.322	130.73
280.538	-8.53
280.753	-16.73
280.969	28.33
281.184	11.95
281.399	106.15
281.615	30.38
281.83	61.1
282.045	-2.39
282.26	-41.3
282.476	-14.68
282.691	65.19
282.906	-20.82
283.122	59.05
283.337	36.52
283.552	24.23
283.767	16.04
283.983	20.14
284.198	7.85
284.413	46.76
284.628	-24.92
284.843	-47.44
285.058	85.67
285.274	46.76
285.489	26.28
285.704	22.19
285.919	-16.73
286.134	13.99
286.349	85.67
286.564	42.67
286.779	85.67
286.995	32.43
287.21	-10.58
287.425	81.58
287.64	-0.34
287.855	73.39
288.07	9.9
288.285	81.58
288.5	75.43
288.715	16.04
288.93	-24.92
289.145	-41.3
289.36	11.95
289.575	-4.44
289.79	26.28
290.004	48.81
290.219	38.57
290.434	48.81
290.649	-2.39
290.864	1.71
291.079	24.23
291.294	-2.39
291.509	34.47
291.724	65.19
291.938	22.19
292.153	85.67
292.368	24.23
292.583	-41.3
292.798	-8.53
293.012	52.91
293.227	-26.96
293.442	40.62
293.657	44.71
293.871	151.21
294.086	18.09
294.301	97.96
294.516	71.34
294.73	40.62
294.945	-6.49
295.16	20.14
295.374	83.63
295.589	-8.53
295.804	-0.34
296.018	34.47
296.233	-8.53
296.447	-4.44
296.662	11.95
296.877	65.19
297.091	91.82
297.306	24.23
297.52	28.33
297.735	18.09
297.949	3.75
298.164	81.58
298.378	-53.59
298.593	36.52
298.807	-16.73
299.022	57
299.236	-33.11
299.451	40.62
299.665	42.67
299.88	-16.73
300.094	-57.68
300.309	75.43
300.523	44.71
300.737	40.62
300.952	11.95
301.166	3.75
301.381	-22.87
301.595	-31.06
301.809	79.53
302.024	24.23
302.238	1.71
302.452	28.33
302.667	28.33
302.881	18.09
303.095	26.28
303.309	48.81
303.524	32.43
303.738	36.52
303.952	-6.49
304.166	44.71
304.381	-63.83
304.595	89.77
304.809	-12.63
305.023	118.44
305.237	106.15
305.452	22.19
305.666	-6.49
305.88	-47.44
306.094	24.23
306.308	32.43
306.522	79.53
306.736	9.9
306.95	87.72
307.164	77.48
307.379	-8.53
307.593	59.05
307.807	77.48
308.021	32.43
308.235	32.43
308.449	16.04
308.663	34.47
308.877	83.63
309.091	57
309.305	34.47
309.519	-37.2
309.733	44.71
309.947	5.8
310.161	20.14
310.374	13.99
310.588	89.77
310.802	9.9
311.016	1.71
311.23	-33.11
311.444	11.95
311.658	7.85
311.872	38.57
312.085	36.52
312.299	9.9
312.513	100.01
312.727	24.23
312.941	-47.44
313.154	50.86
313.368	-18.77
313.582	24.23
313.796	50.86
314.009	7.85
314.223	93.87
314.437	36.52
314.651	7.85
314.864	-41.3
315.078	61.1
315.292	-8.53
315.505	42.67
315.719	3.75
315.933	-33.11
316.146	48.81
316.36	3.75
316.573	24.23
316.787	93.87
317.001	20.14
317.214	-49.49
317.428	20.14
317.641	18.09
317.855	-12.63
318.068	16.04
318.282	59.05
318.495	77.48
318.709	61.1
318.922	61.1
319.136	54.95
319.349	73.39
319.563	42.67
319.776	-10.58
319.99	1.71
320.203	67.24
320.417	18.09
320.63	-29.01
320.843	-20.82
321.057	85.67
321.27	57
321.483	1.71
321.697	11.95
321.91	7.85
322.124	1.71
322.337	-49.49
322.55	9.9
322.763	7.85
322.977	7.85
323.19	73.39
323.403	-37.2
323.617	-10.58
323.83	65.19
324.043	34.47
324.256	67.24
324.469	69.29
324.683	63.15
324.896	-41.3
325.109	20.14
325.322	16.04
325.535	69.29
325.748	1.71
325.962	24.23
326.175	28.33
326.388	-8.53
326.601	40.62
326.814	28.33
327.027	24.23
327.24	65.19
327.453	-37.2
327.666	48.81
327.879	59.05
328.092	57
328.305	97.96
328.518	20.14
328.731	48.81
328.944	-0.34
329.157	-82.26
329.37	-6.49
329.583	63.15
329.796	-39.25
330.009	-16.73
330.222	122.54
330.435	26.28
330.648	26.28
330.861	-33.11
331.073	24.23
331.286	-14.68
331.499	11.95
331.712	26.28
331.925	9.9
332.138	57
332.35	79.53
332.563	-4.44
332.776	118.44
332.989	-14.68
333.202	24.23
333.414	34.47
333.627	85.67
333.84	40.62
334.053	122.54
334.265	24.23
334.478	-0.34
334.691	24.23
334.903	-26.96
335.116	7.85
335.329	16.04
335.541	122.54
335.754	65.19
335.966	-57.68
336.179	59.05
336.392	-8.53
336.604	18.09
336.817	-12.63
337.029	79.53
337.242	-31.06
337.454	-20.82
337.667	-29.01
337.88	16.04
338.092	52.91
338.305	83.63
338.517	38.57
338.729	75.43
338.942	57
339.154	-33.11
339.367	-24.92
339.579	34.47
339.792	26.28
340.004	61.1
340.217	-29.01
340.429	-14.68
340.641	59.05
340.854	11.95
341.066	-6.49
341.278	42.67
341.491	91.82
341.703	-22.87
341.915	61.1
342.128	38.57
342.34	-41.3
342.552	-18.77
342.764	85.67
342.977	-20.82
343.189	20.14
343.401	-22.87
343.613	-108.88
343.826	59.05
344.038	-45.4
344.25	75.43
344.462	16.04
344.674	147.11
344.886	-4.44
345.099	65.19
345.311	44.71
345.523	75.43
345.735	-8.53
345.947	93.87
346.159	42.67
346.371	-59.73
346.583	50.86
346.795	97.96
347.007	-24.92
347.219	122.54
347.431	-31.06
347.643	130.73
347.855	-2.39
348.067	159.4
348.279	20.14
348.491	24.23
348.703	3.75
348.915	9.9
349.127	48.81
349.339	75.43
349.551	-0.34
349.763	85.67
349.975	-14.68
350.187	118.44
350.399	61.1
350.61	52.91
350.822	3.75
351.034	59.05
351.246	11.95
351.458	73.39
351.669	-31.06
351.881	59.05
352.093	67.24
352.305	-6.49
352.517	57
352.728	28.33
352.94	-10.58
353.152	44.71
353.363	-0.34
353.575	59.05
353.787	57
353.999	57
354.21	124.58
354.422	7.85
354.633	9.9
354.845	18.09
355.057	22.19
355.268	87.72
355.48	65.19
355.692	-24.92
355.903	-16.73
356.115	9.9
356.326	-8.53
356.538	52.91
356.749	13.99
356.961	16.04
357.172	-20.82
357.384	-29.01
357.595	97.96
357.807	-0.34
358.018	7.85
358.23	50.86
358.441	28.33
358.653	42.67
358.864	40.62
359.075	40.62
359.287	24.23
359.498	9.9
359.709	-0.34
359.921	77.48
360.132	48.81
360.344	79.53
360.555	38.57
360.766	36.52
360.977	16.04
361.189	106.15
361.4	-16.73
361.611	52.91
361.823	11.95
362.034	59.05
362.245	-8.53
362.456	-43.35
362.667	26.28
362.879	32.43
363.09	32.43
363.301	26.28
363.512	104.11
363.723	-49.49
363.935	30.38
364.146	-14.68
364.357	75.43
364.568	100.01
364.779	50.86
364.99	114.34
365.201	34.47
365.412	26.28
365.623	-49.49
365.834	7.85
366.045	54.95
366.256	-16.73
366.467	134.82
366.678	59.05
366.889	13.99
367.1	83.63
367.311	116.39
367.522	9.9
367.733	48.81
367.944	-39.25
368.155	-4.44
368.366	65.19
368.577	3.75
368.788	81.58
368.999	-10.58
369.209	28.33
369.42	-8.53
369.631	83.63
369.842	48.81
370.053	-8.53
370.264	-74.07
370.474	81.58
370.685	7.85
370.896	-6.49
371.107	122.54
371.317	81.58
371.528	81.58
371.739	48.81
371.95	81.58
372.16	9.9
372.371	24.23
372.582	3.75
372.792	67.24
373.003	-31.06
373.214	32.43
373.424	-24.92
373.635	28.33
373.846	42.67
374.056	-29.01
374.267	3.75
374.477	73.39
374.688	91.82
374.898	20.14
375.109	32.43
375.319	116.39
375.53	16.04
375.74	20.14
375.951	24.23
376.161	71.34
376.372	79.53
376.582	50.86
376.793	34.47
377.003	48.81
377.214	57
377.424	81.58
377.635	75.43
377.845	-22.87
378.055	52.91
378.266	3.75
378.476	-22.87
378.686	24.23
378.897	-0.34
379.107	48.81
379.317	100.01
379.528	3.75
379.738	52.91
379.948	18.09
380.158	16.04
380.369	52.91
380.579	-0.34
380.789	134.82
380.999	30.38
381.21	-18.77
381.42	138.92
381.63	16.04
381.84	16.04
382.05	-0.34
382.261	65.19
382.471	71.34
382.681	1.71
382.891	73.39
383.101	89.77
383.311	-51.54
383.521	48.81
383.731	7.85
383.941	83.63
384.151	-16.73
384.361	20.14
384.571	114.34
384.781	65.19
384.991	50.86
385.201	89.77
385.411	73.39
385.621	16.04
385.831	73.39
386.041	20.14
386.251	40.62
386.461	100.01
386.671	67.24
386.881	32.43
387.091	85.67
387.301	77.48
387.511	-6.49
387.72	124.58
387.93	89.77
388.14	-10.58
388.35	-24.92
388.56	71.34
388.769	126.63
388.979	44.71
389.189	-0.34
389.399	65.19
389.609	97.96
389.818	124.58
390.028	34.47
390.238	36.52
390.447	-22.87
390.657	63.15
390.867	34.47
391.076	52.91
391.286	-14.68
391.496	67.24
391.705	-0.34
391.915	44.71
392.125	73.39
392.334	28.33
392.544	102.06
392.753	48.81
392.963	-16.73
393.172	73.39
393.382	36.52
393.591	81.58
393.801	61.1
394.01	57
394.22	16.04
394.429	-16.73
394.639	-29.01
394.848	147.11
395.058	81.58
395.267	-39.25
395.477	48.81
395.686	1.71
395.895	61.1
396.105	32.43
396.314	93.87
396.524	116.39
396.733	-16.73
396.942	108.2
397.152	83.63
397.361	134.82
397.57	40.62
397.78	138.92
397.989	134.82
398.198	130.73
398.407	32.43
398.617	40.62
398.826	89.77
399.035	52.91
399.244	97.96
399.453	81.58
399.663	73.39
399.872	106.15
400.081	91.82
400.29	118.44
400.499	67.24
400.708	112.3
400.917	106.15
401.127	67.24
401.336	16.04
401.545	104.11
401.754	97.96
401.963	100.01
402.172	36.52
402.381	57
402.59	73.39
402.799	114.34
403.008	34.47
403.217	126.63
403.426	171.69
403.635	1.71
403.844	128.68
404.053	130.73
404.262	16.04
404.471	126.63
404.68	157.35
404.888	36.52
405.097	5.8
405.306	61.1
405.515	91.82
405.724	120.49
405.933	138.92
406.142	163.5
406.35	173.74
406.559	138.92
406.768	126.63
406.977	91.82
407.185	167.59
407.394	204.46
407.603	179.88
407.812	143.02
408.02	175.78
408.229	167.59
408.438	198.31
408.646	196.26
408.855	155.3
409.064	155.3
409.272	241.32
409.481	179.88
409.69	163.5
409.898	163.5
410.107	220.84
410.315	298.66
410.524	167.59
410.733	292.52
410.941	198.31
411.15	290.47
411.358	229.03
411.567	306.85
411.775	237.22
411.984	339.62
412.192	351.91
412.401	269.99
412.609	347.81
412.818	300.71
413.026	351.91
413.234	384.68
413.443	409.25
413.651	356.01
413.86	405.16
414.068	525.99
414.276	472.74
414.485	474.79
414.693	411.3
414.901	591.52
415.11	507.55
415.318	435.88
415.526	573.09
415.734	536.23
415.943	630.43
416.151	511.65
416.359	622.24
416.567	628.39
416.776	573.09
416.984	693.92
417.192	681.63
417.4	671.39
417.608	679.58
417.817	616.1
418.025	802.46
418.233	857.76
418.441	851.61
418.649	892.57
418.857	943.77
419.065	951.96
419.273	894.62
419.481	974.49
419.689	1054.36
419.897	1060.51
420.105	1097.37
420.313	1072.79
420.521	1152.67
420.729	1244.82
420.937	1230.49
421.145	1261.21
421.353	1277.59
421.561	1285.78
421.769	1343.13
421.977	1552.02
422.185	1396.37
422.393	1509.01
422.601	1560.21
422.809	1597.07
423.017	1582.74
423.224	1734.29
423.432	1765.01
423.64	1670.8
423.848	1836.69
424.056	1883.79
424.263	1943.18
424.471	2014.86
424.679	2031.24
424.887	2215.56
425.094	2168.46
425.302	2215.56
425.51	2377.35
425.718	2383.49
425.925	2410.12
426.133	2432.65
426.341	2612.87
426.548	2762.37
426.756	2678.4
426.964	2795.14
427.171	2809.47
427.379	3014.27
427.586	3024.51
427.794	3108.48
428.001	3202.68
428.209	3503.73
428.417	3513.97
428.624	3581.56
428.832	3630.71
429.039	3634.8
429.247	3587.7
429.454	3909.23
429.662	4333.16
429.869	3964.53
430.076	4218.47
430.284	4132.46
430.491	4292.2
430.699	4390.5
430.906	4533.86
431.114	4562.53
431.321	4757.09
431.528	4879.97
431.736	5119.58
431.943	5471.83
432.15	5148.25
432.358	5271.13
432.565	5693.01
432.772	5549.65
432.979	5783.12
433.187	5844.56
433.394	5981.78
433.601	6374.99
433.808	6319.69
434.016	6331.98
434.223	6577.73
434.43	6975.04
434.637	6798.91
434.844	7308.86
435.052	7339.58
435.259	7460.41
435.466	7519.8
435.673	7398.97
435.88	7994.93
436.087	8175.15
436.294	8263.21
436.501	8005.17
436.708	8300.08
436.915	8459.82
437.122	8951.33
437.329	8949.28
437.537	9301.53
437.743	9324.06
437.95	9192.99
438.157	9704.98
438.364	10038.8
438.571	9879.06
438.778	10042.9
438.985	11118.08
439.192	10669.58
439.399	11124.22
439.606	10702.34
439.813	11341.31
440.02	11802.1
440.227	11660.79
440.433	11607.55
440.64	12078.58
440.847	12013.04
441.054	12172.78
441.261	12983.78
441.467	12789.22
441.674	13075.94
441.881	13581.79
442.088	13370.85
442.294	13434.33
442.501	14034.39
442.708	14187.99
442.914	14579.15
443.121	15185.35
443.328	14685.64
443.534	15760.83
443.741	15168.96
443.948	15005.13
444.154	16285.11
444.361	16248.24
444.568	16184.76
444.774	16260.53
444.981	16809.39
445.187	17075.62
445.394	17784.22
445.6	17294.75
445.807	19252.61
446.013	18609.55
446.22	18468.24
446.426	19527.04
446.633	19393.92
446.839	20477.3
447.046	19422.59
447.252	20276.6
447.459	20518.26
447.665	20190.58
447.871	21392.74
448.078	22232.41
448.284	21296.49
448.491	21718.37
448.697	22777.17
448.903	23207.24
449.11	22836.56
449.316	22801.74
449.522	23274.82
449.728	23520.58
449.935	24198.46
450.141	24141.11
450.347	24515.89
450.553	23881.02
450.76	24030.52
450.966	24825.14
451.172	24689.97
451.378	25611.56
451.584	24653.11
451.791	25521.45
451.997	25287.98
452.203	25722.15
452.409	25578.79
452.615	25642.28
452.821	24515.89
453.027	24743.22
453.233	26047.77
453.44	24655.15
453.646	24968.49
453.852	25175.34
454.058	25720.1
454.264	24849.71
454.47	25310.5
454.676	24913.2
454.882	26049.82
455.088	23678.27
455.294	23854.4
455.5	24304.95
455.705	24491.32
455.911	23285.06
456.117	22943.05
456.323	22904.14
456.529	21597.54
456.735	22515.03
456.941	21939.55
457.147	21687.65
457.352	20964.71
457.558	20714.86
457.764	20804.97
457.97	20477.3
458.176	19774.84
458.381	19963.26
458.587	19168.65
458.793	19060.1
458.999	18079.13
459.204	19434.88
459.41	18890.12
459.616	17896.86
459.821	17659.29
460.027	17683.87
460.233	17253.8
460.438	16559.53
460.644	16911.78
460.85	15607.23
461.055	15533.5
461.261	15603.13
461.466	14515.66
461.672	14069.2
461.878	15035.85
462.083	13913.56
462.289	13757.91
462.494	13514.2
462.7	12746.22
462.905	12725.74
463.111	13088.23
463.316	13221.34
463.522	13075.94
463.727	12633.58
463.932	13032.93
464.138	12525.04
464.343	12865
464.549	12293.62
464.754	12762.6
464.959	12557.8
465.165	12586.47
465.37	11841.01
465.575	11722.23
465.781	12172.78
465.986	12402.16
466.191	12000.76
466.397	11664.89
466.602	11126.27
466.807	11525.63
467.012	11542.01
467.218	11421.18
467.423	11111.94
467.628	11484.67
467.833	11603.45
468.038	11431.42
468.244	10913.28
