Data from USB4F104151__185__14-45-08-413.txt Node

Date: Thu Mar 13 14:45:08 EDT 2025
User: louis
Spectrometer: USB4F10415
Trigger mode: 4
Integration Time (sec): 2.000000E-2
Scans to average: 1
Electric dark correction enabled: true
Nonlinearity correction enabled: false
Boxcar width: 0
XAxis mode: Wavelengths
Number of Pixels in Spectrum: 3648
>>>>>Begin Spectral Data<<<<<
178.204	-121.17
178.424	-121.17
178.644	-121.17
178.864	-82.26
179.084	-139.6
179.304	13.99
179.524	-2.39
179.744	-26.96
179.964	24.23
180.184	54.95
180.404	1.71
180.624	-55.64
180.844	32.43
181.064	1.71
181.283	9.9
181.503	-26.96
181.723	-26.96
181.943	46.76
182.163	50.86
182.383	-8.53
182.602	63.15
182.822	54.95
183.042	77.48
183.262	-20.82
183.482	-8.53
183.701	87.72
183.921	46.76
184.141	-39.25
184.361	65.19
184.58	22.19
184.8	7.85
185.02	30.38
185.239	46.76
185.459	9.9
185.679	50.86
185.898	-12.63
186.118	-18.77
186.338	-10.58
186.557	7.85
186.777	-22.87
186.997	46.76
187.216	34.47
187.436	71.34
187.655	63.15
187.875	91.82
188.095	30.38
188.314	63.15
188.534	71.34
188.753	22.19
188.973	95.91
189.192	52.91
189.412	16.04
189.631	54.95
189.851	3.75
190.07	97.96
190.29	13.99
190.509	30.38
190.729	28.33
190.948	67.24
191.168	95.91
191.387	46.76
191.607	16.04
191.826	-16.73
192.045	46.76
192.265	69.29
192.484	48.81
192.704	38.57
192.923	-98.64
193.142	71.34
193.362	24.23
193.581	63.15
193.8	7.85
194.02	22.19
194.239	1.71
194.458	65.19
194.678	13.99
194.897	54.95
195.116	34.47
195.335	71.34
195.555	36.52
195.774	22.19
195.993	50.86
196.212	-24.92
196.432	42.67
196.651	-72.02
196.87	-57.68
197.089	93.87
197.308	83.63
197.528	54.95
197.747	26.28
197.966	48.81
198.185	22.19
198.404	36.52
198.623	20.14
198.842	42.67
199.062	71.34
199.281	126.63
199.5	-24.92
199.719	30.38
199.938	9.9
200.157	38.57
200.376	48.81
200.595	16.04
200.814	-10.58
201.033	13.99
201.252	120.49
201.471	22.19
201.69	136.87
201.909	42.67
202.128	100.01
202.347	-49.49
202.566	128.68
202.785	71.34
203.004	-2.39
203.223	73.39
203.442	42.67
203.661	-2.39
203.879	-10.58
204.098	54.95
204.317	-22.87
204.536	63.15
204.755	59.05
204.974	71.34
205.193	1.71
205.411	24.23
205.63	28.33
205.849	91.82
206.068	5.8
206.287	26.28
206.505	-10.58
206.724	18.09
206.943	67.24
207.162	65.19
207.381	18.09
207.599	22.19
207.818	22.19
208.037	75.43
208.255	36.52
208.474	54.95
208.693	93.87
208.911	104.11
209.13	97.96
209.349	63.15
209.567	79.53
209.786	9.9
210.005	79.53
210.223	71.34
210.442	-18.77
210.661	5.8
210.879	81.58
211.098	87.72
211.316	26.28
211.535	50.86
211.753	73.39
211.972	32.43
212.191	16.04
212.409	20.14
212.628	54.95
212.846	38.57
213.065	20.14
213.283	71.34
213.502	-16.73
213.72	48.81
213.938	-33.11
214.157	73.39
214.375	40.62
214.594	-16.73
214.812	91.82
215.031	34.47
215.249	-12.63
215.467	106.15
215.686	26.28
215.904	30.38
216.122	-26.96
216.341	24.23
216.559	-0.34
216.778	54.95
216.996	91.82
217.214	18.09
217.432	54.95
217.651	-6.49
217.869	93.87
218.087	79.53
218.306	38.57
218.524	13.99
218.742	97.96
218.96	75.43
219.179	-20.82
219.397	65.19
219.615	102.06
219.833	73.39
220.051	-14.68
220.27	106.15
220.488	79.53
220.706	46.76
220.924	30.38
221.142	104.11
221.36	67.24
221.578	79.53
221.796	22.19
222.015	18.09
222.233	65.19
222.451	48.81
222.669	-14.68
222.887	91.82
223.105	-31.06
223.323	67.24
223.541	-18.77
223.759	91.82
223.977	-16.73
224.195	104.11
224.413	-16.73
224.631	71.34
224.849	36.52
225.067	75.43
225.285	54.95
225.503	63.15
225.721	-6.49
225.939	13.99
226.157	73.39
226.375	145.06
226.592	26.28
226.81	24.23
227.028	71.34
227.246	65.19
227.464	38.57
227.682	97.96
227.9	95.91
228.117	50.86
228.335	18.09
228.553	30.38
228.771	50.86
228.989	30.38
229.206	-2.39
229.424	71.34
229.642	79.53
229.86	-16.73
230.077	65.19
230.295	26.28
230.513	1.71
230.731	57
230.948	89.77
231.166	48.81
231.384	81.58
231.601	-39.25
231.819	42.67
232.037	67.24
232.254	5.8
232.472	-6.49
232.689	42.67
232.907	24.23
233.125	40.62
233.342	22.19
233.56	50.86
233.777	114.34
233.995	104.11
234.213	50.86
234.43	18.09
234.648	-2.39
234.865	81.58
235.083	-55.64
235.3	5.8
235.518	42.67
235.735	73.39
235.953	110.25
236.17	122.54
236.388	-2.39
236.605	71.34
236.822	36.52
237.04	91.82
237.257	57
237.475	13.99
237.692	65.19
237.909	59.05
238.127	57
238.344	40.62
238.562	-43.35
238.779	1.71
238.996	-57.68
239.214	140.97
239.431	54.95
239.648	28.33
239.865	71.34
240.083	54.95
240.3	61.1
240.517	79.53
240.735	24.23
240.952	54.95
241.169	24.23
241.386	36.52
241.603	30.38
241.821	-41.3
242.038	65.19
242.255	57
242.472	11.95
242.689	16.04
242.907	93.87
243.124	61.1
243.341	136.87
243.558	-18.77
243.775	26.28
243.992	24.23
244.209	54.95
244.426	71.34
244.643	61.1
244.86	63.15
245.078	57
245.295	30.38
245.512	118.44
245.729	34.47
245.946	26.28
246.163	42.67
246.38	65.19
246.597	61.1
246.814	32.43
247.031	-2.39
247.248	-2.39
247.464	104.11
247.681	-16.73
247.898	-10.58
248.115	71.34
248.332	5.8
248.549	95.91
248.766	89.77
248.983	59.05
249.2	79.53
249.417	13.99
249.633	-2.39
249.85	30.38
250.067	34.47
250.284	124.58
250.501	147.11
250.717	69.29
250.934	16.04
251.151	42.67
251.368	42.67
251.585	-2.39
251.801	-2.39
252.018	3.75
252.235	38.57
252.451	34.47
252.668	34.47
252.885	136.87
253.102	100.01
253.318	-26.96
253.535	59.05
253.752	30.38
253.968	63.15
254.185	9.9
254.401	22.19
254.618	20.14
254.835	91.82
255.051	147.11
255.268	65.19
255.484	40.62
255.701	100.01
255.917	77.48
256.134	3.75
256.351	79.53
256.567	-24.92
256.784	79.53
257	40.62
257.217	38.57
257.433	48.81
257.65	81.58
257.866	40.62
258.082	48.81
258.299	-29.01
258.515	16.04
258.732	48.81
258.948	22.19
259.165	13.99
259.381	87.72
259.597	-0.34
259.814	22.19
260.03	38.57
260.246	30.38
260.463	83.63
260.679	54.95
260.895	89.77
261.112	79.53
261.328	-10.58
261.544	63.15
261.761	169.64
261.977	9.9
262.193	-63.83
262.409	65.19
262.626	1.71
262.842	34.47
263.058	-10.58
263.274	87.72
263.49	-37.2
263.707	104.11
263.923	30.38
264.139	63.15
264.355	22.19
264.571	46.76
264.787	69.29
265.004	48.81
265.22	-18.77
265.436	18.09
265.652	46.76
265.868	120.49
266.084	20.14
266.3	79.53
266.516	61.1
266.732	40.62
266.948	5.8
267.164	38.57
267.38	122.54
267.596	65.19
267.812	81.58
268.028	128.68
268.244	-6.49
268.46	48.81
268.676	-10.58
268.892	42.67
269.108	26.28
269.324	81.58
269.54	30.38
269.756	24.23
269.972	52.91
270.188	81.58
270.403	5.8
270.619	52.91
270.835	-2.39
271.051	34.47
271.267	36.52
271.483	57
271.698	-8.53
271.914	24.23
272.13	-6.49
272.346	46.76
272.562	-24.92
272.777	87.72
272.993	13.99
273.209	65.19
273.425	79.53
273.64	-22.87
273.856	118.44
274.072	-35.16
274.287	-0.34
274.503	97.96
274.719	38.57
274.934	38.57
275.15	-2.39
275.366	-49.49
275.581	67.24
275.797	112.3
276.012	104.11
276.228	54.95
276.444	30.38
276.659	114.34
276.875	-24.92
277.09	22.19
277.306	-43.35
277.521	-31.06
277.737	42.67
277.952	24.23
278.168	20.14
278.383	-59.73
278.599	89.77
278.814	75.43
279.03	13.99
279.245	54.95
279.461	5.8
279.676	118.44
279.892	-8.53
280.107	46.76
280.322	32.43
280.538	42.67
280.753	30.38
280.969	87.72
281.184	63.15
281.399	38.57
281.615	-0.34
281.83	48.81
282.045	18.09
282.26	124.58
282.476	42.67
282.691	57
282.906	-35.16
283.122	50.86
283.337	40.62
283.552	46.76
283.767	26.28
283.983	100.01
284.198	40.62
284.413	63.15
284.628	-45.4
284.843	-26.96
285.058	46.76
285.274	1.71
285.489	48.81
285.704	87.72
285.919	9.9
286.134	-2.39
286.349	-39.25
286.564	69.29
286.779	79.53
286.995	-6.49
287.21	-6.49
287.425	-53.59
287.64	28.33
287.855	42.67
288.07	13.99
288.285	54.95
288.5	87.72
288.715	87.72
288.93	-24.92
289.145	18.09
289.36	-84.31
289.575	13.99
289.79	93.87
290.004	81.58
290.219	75.43
290.434	18.09
290.649	44.71
290.864	63.15
291.079	22.19
291.294	71.34
291.509	67.24
291.724	46.76
291.938	-29.01
292.153	89.77
292.368	63.15
292.583	13.99
292.798	54.95
293.012	32.43
293.227	42.67
293.442	38.57
293.657	108.2
293.871	89.77
294.086	13.99
294.301	89.77
294.516	34.47
294.73	-2.39
294.945	54.95
295.16	9.9
295.374	122.54
295.589	79.53
295.804	69.29
296.018	67.24
296.233	83.63
296.447	63.15
296.662	5.8
296.877	65.19
297.091	32.43
297.306	5.8
297.52	-6.49
297.735	30.38
297.949	77.48
298.164	75.43
298.378	-22.87
298.593	18.09
298.807	140.97
299.022	1.71
299.236	140.97
299.451	73.39
299.665	38.57
299.88	-2.39
300.094	-43.35
300.309	65.19
300.523	57
300.737	13.99
300.952	40.62
301.166	67.24
301.381	54.95
301.595	38.57
301.809	59.05
302.024	61.1
302.238	-61.78
302.452	155.3
302.667	97.96
302.881	73.39
303.095	54.95
303.309	63.15
303.524	73.39
303.738	59.05
303.952	30.38
304.166	97.96
304.381	16.04
304.595	104.11
304.809	44.71
305.023	26.28
305.237	-8.53
305.452	147.11
305.666	57
305.88	112.3
306.094	91.82
306.308	97.96
306.522	69.29
306.736	16.04
306.95	22.19
307.164	7.85
307.379	-43.35
307.593	128.68
307.807	87.72
308.021	85.67
308.235	61.1
308.449	30.38
308.663	75.43
308.877	71.34
309.091	73.39
309.305	59.05
309.519	13.99
309.733	95.91
309.947	26.28
310.161	106.15
310.374	75.43
310.588	48.81
310.802	-29.01
311.016	30.38
311.23	24.23
311.444	40.62
311.658	-55.64
311.872	75.43
312.085	71.34
312.299	48.81
312.513	-2.39
312.727	145.06
312.941	-14.68
313.154	16.04
313.368	22.19
313.582	38.57
313.796	71.34
314.009	-18.77
314.223	48.81
314.437	130.73
314.651	34.47
314.864	30.38
315.078	48.81
315.292	48.81
315.505	30.38
315.719	81.58
315.933	22.19
316.146	46.76
316.36	1.71
316.573	91.82
316.787	63.15
317.001	59.05
317.214	-33.11
317.428	63.15
317.641	-10.58
317.855	-10.58
318.068	65.19
318.282	46.76
318.495	126.63
318.709	30.38
318.922	147.11
319.136	128.68
319.349	89.77
319.563	-24.92
319.776	79.53
319.99	-31.06
320.203	50.86
320.417	145.06
320.63	71.34
320.843	143.02
321.057	52.91
321.27	50.86
321.483	54.95
321.697	75.43
321.91	40.62
322.124	30.38
322.337	-18.77
322.55	-14.68
322.763	-35.16
322.977	57
323.19	95.91
323.403	7.85
323.617	26.28
323.83	13.99
324.043	63.15
324.256	120.49
324.469	5.8
324.683	100.01
324.896	83.63
325.109	87.72
325.322	-29.01
325.535	79.53
325.748	40.62
325.962	18.09
326.175	81.58
326.388	42.67
326.601	89.77
326.814	81.58
327.027	30.38
327.24	11.95
327.453	-51.54
327.666	67.24
327.879	179.88
328.092	85.67
328.305	81.58
328.518	75.43
328.731	24.23
328.944	44.71
329.157	-67.92
329.37	38.57
329.583	112.3
329.796	71.34
330.009	-2.39
330.222	13.99
330.435	22.19
330.648	5.8
330.861	73.39
331.073	44.71
331.286	106.15
331.499	71.34
331.712	5.8
331.925	75.43
332.138	114.34
332.35	87.72
332.563	-18.77
332.776	79.53
332.989	79.53
333.202	40.62
333.414	24.23
333.627	13.99
333.84	54.95
334.053	32.43
334.265	40.62
334.478	46.76
334.691	67.24
334.903	38.57
335.116	50.86
335.329	20.14
335.541	-18.77
335.754	50.86
335.966	65.19
336.179	153.26
336.392	97.96
336.604	30.38
336.817	54.95
337.029	24.23
337.242	67.24
337.454	54.95
337.667	38.57
337.88	83.63
338.092	54.95
338.305	48.81
338.517	38.57
338.729	83.63
338.942	57
339.154	85.67
339.367	20.14
339.579	120.49
339.792	5.8
340.004	89.77
340.217	34.47
340.429	87.72
340.641	3.75
340.854	65.19
341.066	50.86
341.278	50.86
341.491	13.99
341.703	91.82
341.915	106.15
342.128	57
342.34	79.53
342.552	1.71
342.764	-6.49
342.977	95.91
343.189	54.95
343.401	46.76
343.613	-16.73
343.826	63.15
344.038	75.43
344.25	-10.58
344.462	-31.06
344.674	63.15
344.886	95.91
345.099	42.67
345.311	71.34
345.523	79.53
345.735	16.04
345.947	16.04
346.159	5.8
346.371	63.15
346.583	77.48
346.795	132.78
347.007	95.91
347.219	93.87
347.431	-8.53
347.643	114.34
347.855	13.99
348.067	112.3
348.279	46.76
348.491	87.72
348.703	67.24
348.915	59.05
349.127	67.24
349.339	7.85
349.551	7.85
349.763	32.43
349.975	22.19
350.187	32.43
350.399	50.86
350.61	52.91
350.822	87.72
351.034	67.24
351.246	50.86
351.458	120.49
351.669	112.3
351.881	30.38
352.093	54.95
352.305	44.71
352.517	11.95
352.728	124.58
352.94	149.16
353.152	85.67
353.363	40.62
353.575	69.29
353.787	87.72
353.999	73.39
354.21	65.19
354.422	65.19
354.633	104.11
354.845	57
355.057	87.72
355.268	46.76
355.48	67.24
355.692	-26.96
355.903	81.58
356.115	-16.73
356.326	-35.16
356.538	38.57
356.749	30.38
356.961	153.26
357.172	9.9
357.384	13.99
357.595	122.54
357.807	46.76
358.018	5.8
358.23	30.38
358.441	128.68
358.653	54.95
358.864	9.9
359.075	44.71
359.287	65.19
359.498	5.8
359.709	67.24
359.921	75.43
360.132	42.67
360.344	59.05
360.555	63.15
360.766	65.19
360.977	30.38
361.189	97.96
361.4	83.63
361.611	130.73
361.823	42.67
362.034	102.06
362.245	-6.49
362.456	87.72
362.667	65.19
362.879	-2.39
363.09	95.91
363.301	-18.77
363.512	120.49
363.723	63.15
363.935	54.95
364.146	122.54
364.357	95.91
364.568	73.39
364.779	-0.34
364.99	112.3
365.201	50.86
365.412	63.15
365.623	52.91
365.834	97.96
366.045	13.99
366.256	48.81
366.467	97.96
366.678	42.67
366.889	48.81
367.1	-26.96
367.311	97.96
367.522	22.19
367.733	75.43
367.944	130.73
368.155	59.05
368.366	140.97
368.577	104.11
368.788	79.53
368.999	30.38
369.209	61.1
369.42	79.53
369.631	106.15
369.842	30.38
370.053	48.81
370.264	79.53
370.474	32.43
370.685	108.2
370.896	38.57
371.107	44.71
371.317	97.96
371.528	18.09
371.739	102.06
371.95	120.49
372.16	112.3
372.371	87.72
372.582	42.67
372.792	71.34
373.003	18.09
373.214	18.09
373.424	114.34
373.635	63.15
373.846	112.3
374.056	46.76
374.267	95.91
374.477	71.34
374.688	26.28
374.898	67.24
375.109	71.34
375.319	63.15
375.53	143.02
375.74	67.24
375.951	71.34
376.161	63.15
376.372	136.87
376.582	1.71
376.793	95.91
377.003	61.1
377.214	85.67
377.424	95.91
377.635	71.34
377.845	54.95
378.055	91.82
378.266	13.99
378.476	57
378.686	52.91
378.897	40.62
379.107	161.45
379.317	65.19
379.528	95.91
379.738	87.72
379.948	71.34
380.158	75.43
380.369	95.91
380.579	-8.53
380.789	28.33
380.999	44.71
381.21	136.87
381.42	186.02
381.63	-26.96
381.84	81.58
382.05	69.29
382.261	114.34
382.471	22.19
382.681	87.72
382.891	122.54
383.101	100.01
383.311	48.81
383.521	36.52
383.731	100.01
383.941	95.91
384.151	65.19
384.361	50.86
384.571	104.11
384.781	73.39
384.991	116.39
385.201	114.34
385.411	83.63
385.621	108.2
385.831	46.76
386.041	97.96
386.251	110.25
386.461	81.58
386.671	65.19
386.881	52.91
387.091	38.57
387.301	138.92
387.511	50.86
387.72	89.77
387.93	118.44
388.14	128.68
388.35	71.34
388.56	59.05
388.769	161.45
388.979	5.8
389.189	57
389.399	116.39
389.609	153.26
389.818	30.38
390.028	89.77
390.238	100.01
390.447	65.19
390.657	126.63
390.867	73.39
391.076	110.25
391.286	110.25
391.496	71.34
391.705	30.38
391.915	61.1
392.125	63.15
392.334	59.05
392.544	95.91
392.753	95.91
392.963	130.73
393.172	120.49
393.382	48.81
393.591	116.39
393.801	5.8
394.01	67.24
394.22	186.02
394.429	75.43
394.639	57
394.848	46.76
395.058	91.82
395.267	102.06
395.477	89.77
395.686	143.02
395.895	106.15
396.105	97.96
396.314	161.45
396.524	177.83
396.733	85.67
396.942	112.3
397.152	198.31
397.361	153.26
397.57	46.76
397.78	104.11
397.989	177.83
398.198	169.64
398.407	104.11
398.617	97.96
398.826	161.45
399.035	95.91
399.244	91.82
399.453	134.82
399.663	161.45
399.872	124.58
400.081	163.5
400.29	63.15
400.499	87.72
400.708	128.68
400.917	145.06
401.127	40.62
401.336	106.15
401.545	202.41
401.754	118.44
401.963	136.87
402.172	87.72
402.381	95.91
402.59	169.64
402.799	100.01
403.008	116.39
403.217	67.24
403.426	151.21
403.635	100.01
403.844	149.16
404.053	81.58
404.262	143.02
404.471	194.22
404.68	267.94
404.888	128.68
405.097	130.73
405.306	157.35
405.515	245.41
405.724	136.87
405.933	202.41
406.142	220.84
406.35	214.7
406.559	153.26
406.768	214.7
406.977	292.52
407.185	243.37
407.394	235.18
407.603	186.02
407.812	261.8
408.02	294.57
408.229	308.9
408.438	214.7
408.646	259.75
408.855	222.89
409.064	202.41
409.272	239.27
409.481	288.42
409.69	319.14
409.898	294.57
410.107	333.48
410.315	399.01
410.524	396.96
410.733	313
410.941	360.1
411.15	401.06
411.358	394.92
411.567	356.01
411.775	392.87
411.984	439.97
412.192	437.92
412.401	419.49
412.609	585.38
412.818	554.66
413.026	515.75
413.234	450.21
413.443	546.47
413.651	579.23
413.86	620.19
414.068	616.1
414.276	587.43
414.485	669.34
414.693	700.06
414.901	718.5
415.11	804.51
415.318	702.11
415.526	718.5
415.734	851.61
415.943	849.57
416.151	868
416.359	845.47
416.567	906.91
416.776	964.25
416.984	1007.26
417.192	1058.46
417.4	1074.84
417.608	1027.74
417.817	1179.29
418.025	1199.77
418.233	1250.97
418.441	1216.15
418.649	1324.69
418.857	1279.64
419.065	1439.38
419.273	1466
419.481	1502.87
419.689	1441.43
419.897	1621.65
420.105	1586.83
420.313	1586.83
420.521	1783.44
420.729	1726.1
420.937	1793.68
421.145	1740.43
421.353	1912.46
421.561	2021
421.769	2135.69
421.977	2121.35
422.185	2152.07
422.393	2174.6
422.601	2387.59
422.809	2350.73
423.017	2512.52
423.224	2533
423.432	2653.83
423.64	2670.21
423.848	2920.06
424.056	2692.74
424.263	2928.25
424.471	3059.32
424.679	3012.22
424.887	3184.25
425.094	3217.02
425.302	3339.9
425.51	3405.43
425.718	3458.68
425.925	3513.97
426.133	3823.22
426.341	3806.83
426.548	4161.13
426.756	4220.52
426.964	4134.51
427.171	4486.76
427.379	4578.92
427.586	4486.76
427.794	4505.19
428.001	4912.74
428.209	5119.58
428.417	4875.87
428.624	5207.64
428.832	5289.56
429.039	5318.23
429.247	5371.48
429.454	5897.81
429.662	6295.11
429.869	6018.64
430.076	6057.55
430.284	5944.91
430.491	6526.54
430.699	6690.37
430.906	6673.99
431.114	6721.09
431.321	6901.31
431.528	7132.73
431.736	7763.51
431.943	7949.87
432.15	7820.85
432.358	7953.97
432.565	8332.84
432.772	8338.99
432.979	8558.12
433.187	8582.7
433.394	8828.45
433.601	9491.99
433.808	9516.57
434.016	9303.58
434.223	9612.82
434.43	10249.74
434.637	10208.78
434.844	10829.32
435.052	10911.24
435.259	10903.04
435.466	10958.34
435.673	10974.72
435.88	11628.03
436.087	12080.63
436.294	12011
436.501	12039.67
436.708	12295.66
436.915	12576.23
437.122	13178.34
437.329	13157.86
437.537	13336.03
437.743	13891.03
437.95	13624.79
438.157	14304.72
438.364	14859.72
438.571	14886.34
438.778	14843.34
438.985	16528.81
439.192	15560.13
439.399	15885.75
439.606	15760.83
439.813	16450.99
440.02	17665.44
440.227	17401.25
440.433	17073.57
440.64	17667.49
440.847	17493.41
441.054	17958.3
441.261	19355.01
441.467	18972.04
441.674	19367.3
441.881	19996.03
442.088	19824
442.294	20047.22
442.501	20415.86
442.708	20772.21
442.914	21280.1
443.121	22404.44
443.328	21904.73
443.534	23473.48
443.741	22484.31
443.948	22441.3
444.154	24014.14
444.361	23854.4
444.568	23921.98
444.774	24231.22
444.981	24350.01
445.187	24812.85
445.394	26203.42
445.6	26168.6
445.807	28124.41
446.013	26766.61
446.22	27364.62
446.426	28642.55
446.633	29037.81
446.839	29678.82
447.046	28581.11
447.252	30340.32
447.459	30248.16
447.665	29918.43
447.871	31526.09
448.078	32611.51
448.284	31222.99
448.491	32298.17
448.697	33481.9
448.903	33922.21
449.11	34069.67
449.316	33227.95
449.522	34270.37
449.728	35150.99
449.935	35669.13
450.141	35548.3
450.347	36580.48
450.553	35024.02
450.76	35400.85
450.966	36627.58
451.172	36504.7
451.378	37399.66
451.584	36498.56
451.791	37577.84
451.997	37127.28
452.203	38487.14
452.409	38171.75
452.615	38093.93
452.821	36643.96
453.027	36312.19
453.233	37993.57
453.44	36629.63
453.646	37317.75
453.852	37217.39
454.058	37688.43
454.264	36922.49
454.47	37409.9
454.676	36641.92
454.882	37743.72
455.088	34704.54
455.294	35288.21
455.5	35908.74
455.705	36371.58
455.911	34520.22
456.117	34092.19
456.323	33748.14
456.529	32259.26
456.735	33463.47
456.941	32703.67
457.147	32326.85
457.352	31521.99
457.558	30821.59
457.764	30950.61
457.97	30301.4
458.176	29680.87
458.381	29668.58
458.587	28404.99
458.793	28097.79
458.999	27231.5
459.204	28902.64
459.41	28146.94
459.616	26416.41
459.821	26473.75
460.027	26305.82
460.233	25564.45
460.438	24718.64
460.644	24569.14
460.85	23450.95
461.055	23471.43
461.261	23106.89
461.466	21564.77
461.672	20882.8
461.878	22132.06
462.083	20913.52
462.289	20387.19
462.494	20348.28
462.7	19486.08
462.905	18857.35
463.111	19420.55
463.316	19418.5
463.522	18898.31
463.727	18929.03
463.932	19090.82
464.138	18640.27
464.343	18836.88
464.549	18443.67
464.754	18867.59
464.959	18937.23
465.165	18587.02
465.37	18007.45
465.575	17458.59
465.781	18359.7
465.986	18474.38
466.191	17733.02
466.397	17118.63
466.602	16389.55
466.807	17196.45
467.012	17012.14
467.218	16893.35
