Data from USB4F104151__167__14-44-55-035.txt Node

Date: Thu Mar 13 14:44:55 EDT 2025
User: louis
Spectrometer: USB4F10415
Trigger mode: 4
Integration Time (sec): 2.000000E-2
Scans to average: 1
Electric dark correction enabled: true
Nonlinearity correction enabled: false
Boxcar width: 0
XAxis mode: Wavelengths
Number of Pixels in Spectrum: 3648
>>>>>Begin Spectral Data<<<<<
178.204	-139.43
178.424	-139.43
178.644	-139.43
178.864	-123.05
179.084	-90.28
179.304	-28.84
179.524	57.17
179.744	36.69
179.964	3.93
180.184	-71.85
180.404	36.69
180.624	-88.23
180.844	32.6
181.064	-57.51
181.283	20.31
181.503	32.6
181.723	26.45
181.943	-24.75
182.163	65.36
182.383	24.4
182.602	59.22
182.822	8.02
183.042	110.42
183.262	-57.51
183.482	44.88
183.701	65.36
183.921	63.32
184.141	16.21
184.361	1.88
184.58	12.12
184.8	28.5
185.02	75.6
185.239	135
185.459	36.69
185.679	114.52
185.898	65.36
186.118	122.71
186.338	34.64
186.557	108.37
186.777	36.69
186.997	34.64
187.216	10.07
187.436	98.13
187.655	85.84
187.875	-20.65
188.095	130.9
188.314	53.08
188.534	108.37
188.753	18.26
188.973	26.45
189.192	81.75
189.412	36.69
189.631	91.99
189.851	-0.17
190.07	59.22
190.29	24.4
190.509	20.31
190.729	10.07
190.948	98.13
191.168	94.04
191.387	91.99
191.607	34.64
191.826	12.12
192.045	16.21
192.265	8.02
192.484	30.55
192.704	67.41
192.923	-16.55
193.142	71.51
193.362	18.26
193.581	75.6
193.8	24.4
194.02	141.14
194.239	18.26
194.458	18.26
194.678	34.64
194.897	48.98
195.116	-0.17
195.335	81.75
195.555	89.94
195.774	30.55
195.993	98.13
196.212	24.4
196.432	-0.17
196.651	40.79
196.87	57.17
197.089	135
197.308	26.45
197.528	106.32
197.747	48.98
197.966	55.12
198.185	57.17
198.404	32.6
198.623	55.12
198.842	81.75
199.062	53.08
199.281	61.27
199.5	75.6
199.719	51.03
199.938	36.69
200.157	89.94
200.376	69.46
200.595	100.18
200.814	-8.36
201.033	61.27
201.252	91.99
201.471	40.79
201.69	30.55
201.909	75.6
202.128	65.36
202.347	40.79
202.566	85.84
202.785	-30.89
203.004	-8.36
203.223	83.8
203.442	26.45
203.661	32.6
203.879	44.88
204.098	141.14
204.317	-49.32
204.536	96.08
204.755	53.08
204.974	14.17
205.193	34.64
205.411	89.94
205.63	8.02
205.849	87.89
206.068	59.22
206.287	57.17
206.505	85.84
206.724	-28.84
206.943	32.6
207.162	89.94
207.381	53.08
207.599	42.84
207.818	102.23
208.037	38.74
208.255	8.02
208.474	34.64
208.693	81.75
208.911	51.03
209.13	100.18
209.349	48.98
209.567	24.4
209.786	59.22
210.005	34.64
210.223	96.08
210.442	22.36
210.661	81.75
210.879	3.93
211.098	-10.41
211.316	14.17
211.535	53.08
211.753	48.98
211.972	28.5
212.191	8.02
212.409	110.42
212.628	77.65
212.846	5.97
213.065	10.07
213.283	120.66
213.502	34.64
213.72	100.18
213.938	32.6
214.157	30.55
214.375	16.21
214.594	-14.51
214.812	53.08
215.031	-6.31
215.249	26.45
215.467	75.6
215.686	139.09
215.904	65.36
216.122	89.94
216.341	53.08
216.559	34.64
216.778	40.79
216.996	26.45
217.214	34.64
217.432	12.12
217.651	-24.75
217.869	-8.36
218.087	24.4
218.306	16.21
218.524	46.93
218.742	-32.94
218.96	16.21
219.179	-45.23
219.397	55.12
219.615	94.04
219.833	57.17
220.051	-30.89
220.27	18.26
220.488	110.42
220.706	32.6
220.924	32.6
221.142	38.74
221.36	114.52
221.578	40.79
221.796	53.08
222.015	30.55
222.233	24.4
222.451	73.56
222.669	36.69
222.887	42.84
223.105	-12.46
223.323	81.75
223.541	3.93
223.759	69.46
223.977	55.12
224.195	124.76
224.413	8.02
224.631	53.08
224.849	18.26
225.067	126.8
225.285	-37.03
225.503	38.74
225.721	-28.84
225.939	42.84
226.157	22.36
226.375	46.93
226.592	18.26
226.81	67.41
227.028	87.89
227.246	141.14
227.464	81.75
227.682	83.8
227.9	100.18
228.117	75.6
228.335	-24.75
228.553	44.88
228.771	61.27
228.989	65.36
229.206	-0.17
229.424	100.18
229.642	48.98
229.86	81.75
230.077	143.19
230.295	135
230.513	157.52
230.731	106.32
230.948	-22.7
231.166	141.14
231.384	3.93
231.601	73.56
231.819	14.17
232.037	20.31
232.254	22.36
232.472	40.79
232.689	67.41
232.907	124.76
233.125	3.93
233.342	20.31
233.56	42.84
233.777	32.6
233.995	55.12
234.213	32.6
234.43	30.55
234.648	1.88
234.865	-12.46
235.083	48.98
235.3	61.27
235.518	24.4
235.735	40.79
235.953	44.88
236.17	24.4
236.388	98.13
236.605	32.6
236.822	57.17
237.04	48.98
237.257	48.98
237.475	-39.08
237.692	28.5
237.909	65.36
238.127	38.74
238.344	114.52
238.562	73.56
238.779	3.93
238.996	-28.84
239.214	3.93
239.431	32.6
239.648	51.03
239.865	104.28
240.083	20.31
240.3	114.52
240.517	3.93
240.735	-30.89
240.952	67.41
241.169	96.08
241.386	65.36
241.603	26.45
241.821	28.5
242.038	108.37
242.255	40.79
242.472	-37.03
242.689	44.88
242.907	59.22
243.124	79.7
243.341	3.93
243.558	-8.36
243.775	-28.84
243.992	38.74
244.209	65.36
244.426	98.13
244.643	-0.17
244.86	151.38
245.078	36.69
245.295	34.64
245.512	83.8
245.729	20.31
245.946	42.84
246.163	42.84
246.38	42.84
246.597	-14.51
246.814	36.69
247.031	-10.41
247.248	106.32
247.464	63.32
247.681	34.64
247.898	75.6
248.115	-4.27
248.332	5.97
248.549	108.37
248.766	10.07
248.983	151.38
249.2	20.31
249.417	73.56
249.633	32.6
249.85	147.28
250.067	65.36
250.284	73.56
250.501	32.6
250.717	159.57
250.934	46.93
251.151	124.76
251.368	28.5
251.585	75.6
251.801	10.07
252.018	57.17
252.235	59.22
252.451	-8.36
252.668	-14.51
252.885	81.75
253.102	14.17
253.318	57.17
253.535	30.55
253.752	32.6
253.968	89.94
254.185	10.07
254.401	36.69
254.618	20.31
254.835	14.17
255.051	94.04
255.268	110.42
255.484	65.36
255.701	46.93
255.917	102.23
256.134	-22.7
256.351	34.64
256.567	79.7
256.784	36.69
257	8.02
257.217	73.56
257.433	40.79
257.65	32.6
257.866	124.76
258.082	40.79
258.299	-34.99
258.515	59.22
258.732	8.02
258.948	-8.36
259.165	20.31
259.381	8.02
259.597	59.22
259.814	28.5
260.03	36.69
260.246	57.17
260.463	89.94
260.679	114.52
260.895	26.45
261.112	53.08
261.328	1.88
261.544	36.69
261.761	48.98
261.977	48.98
262.193	-61.61
262.409	65.36
262.626	57.17
262.842	59.22
263.058	-0.17
263.274	75.6
263.49	48.98
263.707	73.56
263.923	-20.65
264.139	-47.27
264.355	10.07
264.571	102.23
264.787	112.47
265.004	53.08
265.22	16.21
265.436	81.75
265.652	20.31
265.868	114.52
266.084	-24.75
266.3	51.03
266.516	98.13
266.732	98.13
266.948	53.08
267.164	-47.27
267.38	57.17
267.596	32.6
267.812	96.08
268.028	20.31
268.244	5.97
268.46	48.98
268.676	69.46
268.892	98.13
269.108	69.46
269.324	20.31
269.54	130.9
269.756	53.08
269.972	65.36
270.188	24.4
270.403	8.02
270.619	63.32
270.835	16.21
271.051	98.13
271.267	8.02
271.483	143.19
271.698	-16.55
271.914	98.13
272.13	55.12
272.346	71.51
272.562	61.27
272.777	106.32
272.993	-16.55
273.209	67.41
273.425	65.36
273.64	8.02
273.856	114.52
274.072	32.6
274.287	42.84
274.503	57.17
274.719	112.47
274.934	40.79
275.15	83.8
275.366	32.6
275.581	-22.7
275.797	24.4
276.012	-20.65
276.228	42.84
276.444	81.75
276.659	114.52
276.875	-24.75
277.09	40.79
277.306	-24.75
277.521	73.56
277.737	40.79
277.952	67.41
278.168	108.37
278.383	57.17
278.599	20.31
278.814	5.97
279.03	-10.41
279.245	61.27
279.461	-6.31
279.676	40.79
279.892	34.64
280.107	28.5
280.322	-10.41
280.538	73.56
280.753	34.64
280.969	155.47
281.184	1.88
281.399	147.28
281.615	28.5
281.83	122.71
282.045	-6.31
282.26	48.98
282.476	34.64
282.691	75.6
282.906	122.71
283.122	42.84
283.337	69.46
283.552	26.45
283.767	10.07
283.983	94.04
284.198	16.21
284.413	73.56
284.628	-8.36
284.843	44.88
285.058	28.5
285.274	51.03
285.489	67.41
285.704	40.79
285.919	-73.9
286.134	106.32
286.349	10.07
286.564	87.89
286.779	116.56
286.995	81.75
287.21	8.02
287.425	-4.27
287.64	48.98
287.855	-39.08
288.07	-26.79
288.285	114.52
288.5	32.6
288.715	53.08
288.93	14.17
289.145	-6.31
289.36	165.71
289.575	-16.55
289.79	36.69
290.004	26.45
290.219	18.26
290.434	59.22
290.649	32.6
290.864	16.21
291.079	34.64
291.294	48.98
291.509	69.46
291.724	40.79
291.938	73.56
292.153	32.6
292.368	73.56
292.583	57.17
292.798	73.56
293.012	77.65
293.227	-22.7
293.442	42.84
293.657	22.36
293.871	89.94
294.086	28.5
294.301	98.13
294.516	73.56
294.73	83.8
294.945	48.98
295.16	20.31
295.374	8.02
295.589	65.36
295.804	-30.89
296.018	26.45
296.233	48.98
296.447	-0.17
296.662	22.36
296.877	104.28
297.091	71.51
297.306	40.79
297.52	96.08
297.735	34.64
297.949	38.74
298.164	-0.17
298.378	46.93
298.593	42.84
298.807	12.12
299.022	147.28
299.236	85.84
299.451	114.52
299.665	24.4
299.88	36.69
300.094	48.98
300.309	53.08
300.523	85.84
300.737	65.36
300.952	28.5
301.166	100.18
301.381	81.75
301.595	20.31
301.809	28.5
302.024	24.4
302.238	-4.27
302.452	8.02
302.667	69.46
302.881	94.04
303.095	102.23
303.309	24.4
303.524	-24.75
303.738	-0.17
303.952	44.88
304.166	24.4
304.381	-41.13
304.595	67.41
304.809	108.37
305.023	32.6
305.237	40.79
305.452	61.27
305.666	8.02
305.88	126.8
306.094	65.36
306.308	69.46
306.522	85.84
306.736	28.5
306.95	69.46
307.164	5.97
307.379	48.98
307.593	42.84
307.807	57.17
308.021	51.03
308.235	57.17
308.449	40.79
308.663	85.84
308.877	67.41
309.091	65.36
309.305	40.79
309.519	3.93
309.733	42.84
309.947	24.4
310.161	8.02
310.374	-6.31
310.588	139.09
310.802	89.94
311.016	-34.99
311.23	34.64
311.444	81.75
311.658	114.52
311.872	67.41
312.085	104.28
312.299	122.71
312.513	77.65
312.727	91.99
312.941	51.03
313.154	110.42
313.368	-0.17
313.582	18.26
313.796	81.75
314.009	36.69
314.223	81.75
314.437	55.12
314.651	110.42
314.864	32.6
315.078	48.98
315.292	20.31
315.505	5.97
315.719	34.64
315.933	102.23
316.146	-8.36
316.36	30.55
316.573	83.8
316.787	61.27
317.001	114.52
317.214	-26.79
317.428	32.6
317.641	32.6
317.855	34.64
318.068	51.03
318.282	69.46
318.495	73.56
318.709	143.19
318.922	14.17
319.136	63.32
319.349	83.8
319.563	-26.79
319.776	-24.75
319.99	24.4
320.203	8.02
320.417	-0.17
320.63	77.65
320.843	141.14
321.057	98.13
321.27	42.84
321.483	20.31
321.697	91.99
321.91	22.36
322.124	71.51
322.337	28.5
322.55	108.37
322.763	51.03
322.977	65.36
323.19	-6.31
323.403	40.79
323.617	20.31
323.83	116.56
324.043	20.31
324.256	61.27
324.469	3.93
324.683	75.6
324.896	73.56
325.109	36.69
325.322	46.93
325.535	132.95
325.748	71.51
325.962	102.23
326.175	57.17
326.388	59.22
326.601	71.51
326.814	32.6
327.027	34.64
327.24	149.33
327.453	-45.23
327.666	73.56
327.879	40.79
328.092	114.52
328.305	69.46
328.518	116.56
328.731	106.32
328.944	26.45
329.157	24.4
329.37	51.03
329.583	16.21
329.796	130.9
330.009	32.6
330.222	69.46
330.435	8.02
330.648	-6.31
330.861	48.98
331.073	65.36
331.286	63.32
331.499	83.8
331.712	20.31
331.925	3.93
332.138	20.31
332.35	100.18
332.563	-6.31
332.776	85.84
332.989	100.18
333.202	81.75
333.414	18.26
333.627	44.88
333.84	53.08
334.053	61.27
334.265	24.4
334.478	26.45
334.691	26.45
334.903	57.17
335.116	69.46
335.329	53.08
335.541	81.75
335.754	26.45
335.966	51.03
336.179	8.02
336.392	42.84
336.604	30.55
336.817	-0.17
337.029	94.04
337.242	26.45
337.454	44.88
337.667	73.56
337.88	48.98
338.092	57.17
338.305	89.94
338.517	3.93
338.729	-10.41
338.942	44.88
339.154	75.6
339.367	65.36
339.579	48.98
339.792	30.55
340.004	87.89
340.217	61.27
340.429	98.13
340.641	42.84
340.854	48.98
341.066	57.17
341.278	124.76
341.491	63.32
341.703	53.08
341.915	-32.94
342.128	51.03
342.34	42.84
342.552	38.74
342.764	28.5
342.977	-16.55
343.189	28.5
343.401	26.45
343.613	-41.13
343.826	46.93
344.038	-16.55
344.25	65.36
344.462	14.17
344.674	-0.17
344.886	48.98
345.099	110.42
345.311	-8.36
345.523	122.71
345.735	-2.22
345.947	89.94
346.159	89.94
346.371	48.98
346.583	38.74
346.795	118.61
347.007	24.4
347.219	53.08
347.431	61.27
347.643	51.03
347.855	59.22
348.067	24.4
348.279	40.79
348.491	48.98
348.703	57.17
348.915	87.89
349.127	65.36
349.339	44.88
349.551	28.5
349.763	40.79
349.975	75.6
350.187	16.21
350.399	67.41
350.61	120.66
350.822	48.98
351.034	161.62
351.246	98.13
351.458	188.24
351.669	53.08
351.881	57.17
352.093	139.09
352.305	57.17
352.517	83.8
352.728	53.08
352.94	20.31
353.152	67.41
353.363	42.84
353.575	20.31
353.787	53.08
353.999	40.79
354.21	44.88
354.422	67.41
354.633	44.88
354.845	12.12
355.057	48.98
355.268	16.21
355.48	102.23
355.692	36.69
355.903	67.41
356.115	10.07
356.326	-41.13
356.538	20.31
356.749	44.88
356.961	116.56
357.172	32.6
357.384	114.52
357.595	159.57
357.807	114.52
358.018	-51.37
358.23	48.98
358.441	132.95
358.653	61.27
358.864	163.67
359.075	55.12
359.287	65.36
359.498	51.03
359.709	100.18
359.921	40.79
360.132	73.56
360.344	42.84
360.555	34.64
360.766	81.75
360.977	3.93
361.189	81.75
361.4	24.4
361.611	44.88
361.823	20.31
362.034	16.21
362.245	69.46
362.456	63.32
362.667	100.18
362.879	83.8
363.09	87.89
363.301	42.84
363.512	67.41
363.723	28.5
363.935	65.36
364.146	112.47
364.357	79.7
364.568	83.8
364.779	91.99
364.99	89.94
365.201	65.36
365.412	124.76
365.623	139.09
365.834	8.02
366.045	116.56
366.256	57.17
366.467	83.8
366.678	48.98
366.889	77.65
367.1	12.12
367.311	98.13
367.522	65.36
367.733	87.89
367.944	122.71
368.155	44.88
368.366	77.65
368.577	-26.79
368.788	83.8
368.999	20.31
369.209	32.6
369.42	75.6
369.631	165.71
369.842	57.17
370.053	42.84
370.264	8.02
370.474	34.64
370.685	24.4
370.896	110.42
371.107	143.19
371.317	81.75
371.528	108.37
371.739	32.6
371.95	44.88
372.16	94.04
372.371	65.36
372.582	94.04
372.792	-0.17
373.003	149.33
373.214	130.9
373.424	89.94
373.635	8.02
373.846	67.41
374.056	32.6
374.267	106.32
374.477	44.88
374.688	61.27
374.898	48.98
375.109	122.71
375.319	81.75
375.53	98.13
375.74	102.23
375.951	71.51
376.161	73.56
376.372	149.33
376.582	57.17
376.793	130.9
377.003	24.4
377.214	67.41
377.424	57.17
377.635	36.69
377.845	59.22
378.055	59.22
378.266	-8.36
378.476	118.61
378.686	30.55
378.897	106.32
379.107	32.6
379.317	59.22
379.528	69.46
379.738	89.94
379.948	-32.94
380.158	96.08
380.369	83.8
380.579	163.67
380.789	30.55
380.999	65.36
381.21	98.13
381.42	196.43
381.63	16.21
381.84	116.56
382.05	87.89
382.261	42.84
382.471	51.03
382.681	85.84
382.891	85.84
383.101	108.37
383.311	69.46
383.521	137.04
383.731	81.75
383.941	106.32
384.151	26.45
384.361	40.79
384.571	26.45
384.781	104.28
384.991	118.61
385.201	151.38
385.411	102.23
385.621	16.21
385.831	55.12
386.041	73.56
386.251	40.79
386.461	98.13
386.671	73.56
386.881	73.56
387.091	67.41
387.301	46.93
387.511	75.6
387.72	-30.89
387.93	-12.46
388.14	32.6
388.35	48.98
388.56	130.9
388.769	98.13
388.979	157.52
389.189	114.52
389.399	89.94
389.609	106.32
389.818	32.6
390.028	40.79
390.238	75.6
390.447	83.8
390.657	65.36
390.867	20.31
391.076	26.45
391.286	1.88
391.496	51.03
391.705	118.61
391.915	100.18
392.125	59.22
392.334	83.8
392.544	98.13
392.753	63.32
392.963	51.03
393.172	132.95
393.382	12.12
393.591	77.65
393.801	94.04
394.01	91.99
394.22	24.4
394.429	81.75
394.639	143.19
394.848	139.09
395.058	132.95
395.267	81.75
395.477	124.76
395.686	106.32
395.895	108.37
396.105	143.19
396.314	48.98
396.524	100.18
396.733	24.4
396.942	98.13
397.152	98.13
397.361	130.9
397.57	122.71
397.78	81.75
397.989	114.52
398.198	135
398.407	100.18
398.617	135
398.826	85.84
399.035	114.52
399.244	130.9
399.453	69.46
399.663	65.36
399.872	67.41
400.081	83.8
400.29	135
400.499	98.13
400.708	161.62
400.917	83.8
401.127	143.19
401.336	139.09
401.545	204.63
401.754	149.33
401.963	163.67
402.172	145.24
402.381	81.75
402.59	53.08
402.799	137.04
403.008	153.43
403.217	163.67
403.426	139.09
403.635	81.75
403.844	118.61
404.053	147.28
404.262	75.6
404.471	180.05
404.68	114.52
404.888	182.1
405.097	116.56
405.306	173.91
405.515	173.91
405.724	165.71
405.933	167.76
406.142	141.14
406.35	188.24
406.559	198.48
406.768	239.44
406.977	278.35
407.185	202.58
407.394	173.91
407.603	186.19
407.812	221.01
408.02	141.14
408.229	26.45
408.438	147.28
408.646	167.76
408.855	229.2
409.064	212.82
409.272	307.02
409.481	261.97
409.69	231.25
409.898	313.17
410.107	278.35
410.315	311.12
410.524	343.89
410.733	268.11
410.941	329.55
411.15	302.93
411.358	356.18
411.567	434
411.775	370.51
411.984	454.48
412.192	356.18
412.401	501.58
412.609	450.38
412.818	540.49
413.026	526.16
413.234	427.85
413.443	380.75
413.651	501.58
413.86	571.21
414.068	577.36
414.276	614.22
414.485	573.26
414.693	712.52
414.901	655.18
415.11	649.04
415.318	694.09
415.526	700.23
415.734	694.09
415.943	632.65
416.151	794.44
416.359	782.15
416.567	798.54
416.776	921.42
416.984	896.84
417.192	956.23
417.4	857.93
417.608	884.55
417.817	874.31
418.025	966.47
418.233	1072.96
418.441	1081.16
418.649	1118.02
418.857	1244.99
419.065	1177.41
419.273	1113.92
419.481	1167.17
419.689	1281.86
419.897	1367.87
420.105	1345.34
420.313	1425.22
420.521	1449.79
420.729	1462.08
420.937	1564.48
421.145	1597.24
421.353	1746.75
421.561	1625.92
421.769	1730.36
421.977	1910.58
422.185	1875.77
422.393	1894.2
422.601	2015.03
422.809	1941.3
423.017	2002.74
423.224	2064.18
423.432	2187.06
423.64	2148.15
423.848	2543.41
424.056	2326.32
424.263	2623.28
424.471	2608.94
424.679	2471.73
424.887	2654
425.094	2772.78
425.302	2887.47
425.51	2967.34
425.718	3092.26
425.925	3135.27
426.133	3147.56
426.341	3235.62
426.548	3575.58
426.756	3450.66
426.964	3503.9
427.171	3671.84
427.379	3809.05
427.586	3899.16
427.794	3929.88
428.001	4169.49
428.209	4351.76
428.417	4187.93
428.624	4638.48
428.832	4624.14
429.039	4597.52
429.247	4624.14
429.454	4914.95
429.662	5428.99
429.869	5056.26
430.076	5521.15
430.284	5033.74
430.491	5256.97
430.699	5758.72
430.906	5828.35
431.114	5809.92
431.321	5910.27
431.528	6102.78
431.736	6237.94
431.943	6715.12
432.15	6674.16
432.358	6807.28
432.565	7003.88
432.772	7096.04
432.979	7429.86
433.187	7339.75
433.394	7667.42
433.601	8052.44
433.808	7966.43
434.016	7878.37
434.223	8277.72
434.43	8888.01
434.637	8543.95
434.844	9010.89
435.052	9473.73
435.259	9168.59
435.466	9404.1
435.673	9232.07
435.88	9762.5
436.087	10428.09
436.294	10464.95
436.501	10010.3
436.708	10223.29
436.915	10700.47
437.122	11194.03
437.329	11368.1
437.537	11419.3
437.743	11517.61
437.95	11591.33
438.157	12254.87
438.364	12715.67
438.571	12412.57
438.778	12592.79
438.985	13889.15
439.192	13098.64
439.399	13536.9
439.606	13276.81
439.813	13934.21
440.02	15033.97
440.227	14466.68
440.433	14454.39
440.64	14876.27
440.847	15167.09
441.054	15599.21
441.261	16246.37
441.467	16131.68
441.674	16488.03
441.881	16987.73
442.088	16883.28
442.294	16752.21
442.501	17309.26
442.708	17512.01
442.914	18011.71
443.121	18810.42
443.328	18404.92
443.534	19936.81
443.741	19336.75
443.948	19134
444.154	20516.38
444.361	20311.58
444.568	20452.89
444.774	20420.13
444.981	20461.09
445.187	21118.48
445.394	22183.43
445.6	21659.15
445.807	23758.31
446.013	22435.33
446.22	23107.06
446.426	24442.34
446.633	24288.74
446.839	25505.23
447.046	23940.58
447.252	25644.49
447.459	25581.01
447.665	25243.09
447.871	26549.7
448.078	27375.03
448.284	26291.65
448.491	27311.54
448.697	28317.09
448.903	28493.22
449.11	28519.84
449.316	28321.19
449.522	28769.69
449.728	29681.04
449.935	29670.8
450.141	29781.39
450.347	30391.69
450.553	29562.26
450.76	29984.14
450.966	30987.64
451.172	30442.88
451.378	31292.79
451.584	30926.21
451.791	31632.75
451.997	31546.74
452.203	31743.34
452.409	31960.43
452.615	31901.04
452.821	30563.71
453.027	30125.45
453.233	31874.41
453.44	30766.46
453.646	31155.58
453.852	31212.92
454.058	31499.64
454.264	30592.39
454.47	31444.34
454.676	30346.63
454.882	31862.13
455.088	28884.38
455.294	29457.81
455.5	30125.45
455.705	30137.74
455.911	28976.54
456.117	28704.16
456.323	28439.97
456.529	26721.73
456.735	27907.5
456.941	27018.68
457.147	26688.96
457.352	26017.22
457.558	25681.36
457.764	25794
457.97	25316.82
458.176	24892.89
458.381	24872.41
458.587	23574
458.793	23772.65
458.999	22320.64
459.204	24018.41
459.41	23199.22
459.616	21626.38
459.821	22062.6
460.027	21607.95
460.233	21374.48
460.438	20364.83
460.644	20700.7
460.85	19605.03
461.055	18800.18
461.261	19412.53
461.466	17686.09
461.672	17151.57
461.878	18601.53
462.083	17393.23
462.289	16961.11
462.494	16635.48
462.7	15943.27
462.905	15515.24
463.111	16199.26
463.316	16078.43
463.522	15912.55
463.727	15844.96
463.932	15871.59
464.138	15640.17
464.343	15941.22
464.549	15269.48
464.754	15814.24
464.959	15584.87
465.165	15236.72
465.37	15095.41
465.575	14292.6
465.781	15154.8
465.986	15119.98
466.191	14575.22
466.397	14364.28
466.602	13395.59
466.807	14059.13
467.012	14059.13
467.218	13784.71
467.423	13733.51
467.628	13813.38
