Data from USB4F104151__4__14-42-29-670.txt Node

Date: Thu Mar 13 14:42:29 EDT 2025
User: louis
Spectrometer: USB4F10415
Trigger mode: 4
Integration Time (sec): 2.000000E-2
Scans to average: 1
Electric dark correction enabled: true
Nonlinearity correction enabled: false
Boxcar width: 0
XAxis mode: Wavelengths
Number of Pixels in Spectrum: 3648
>>>>>Begin Spectral Data<<<<<
178.204	-50.35
178.424	-50.35
178.644	-50.35
178.864	-72.87
179.084	-68.78
179.304	66.39
179.524	15.19
179.744	-1.19
179.964	-3.24
180.184	-33.96
180.404	4.95
180.624	-31.91
180.844	31.57
181.064	-44.2
181.283	-25.77
181.503	-27.82
181.723	50
181.943	-101.55
182.163	115.54
182.383	29.52
182.602	47.96
182.822	39.76
183.042	43.86
183.262	-17.58
183.482	15.19
183.701	62.29
183.921	-27.82
184.141	-42.15
184.361	86.87
184.58	21.33
184.8	39.76
185.02	78.68
185.239	-15.53
185.459	111.44
185.679	-9.39
185.898	-42.15
186.118	62.29
186.338	33.62
186.557	119.64
186.777	35.67
186.997	45.91
187.216	13.14
187.436	15.19
187.655	78.68
187.875	-3.24
188.095	-9.39
188.314	39.76
188.534	70.48
188.753	74.58
188.973	23.38
189.192	45.91
189.412	21.33
189.631	82.77
189.851	95.06
190.07	107.35
190.29	-17.58
190.509	-21.67
190.729	68.44
190.948	64.34
191.168	136.02
191.387	-11.43
191.607	-38.06
191.826	90.96
192.045	23.38
192.265	-3.24
192.484	21.33
192.704	13.14
192.923	50
193.142	105.3
193.362	21.33
193.581	99.16
193.8	56.15
194.02	95.06
194.239	25.43
194.458	13.14
194.678	-17.58
194.897	25.43
195.116	35.67
195.335	54.1
195.555	64.34
195.774	54.1
195.993	9.05
196.212	45.91
196.432	-15.53
196.651	7
196.87	7
197.089	47.96
197.308	-66.73
197.528	41.81
197.747	-21.67
197.966	72.53
198.185	131.92
198.404	-11.43
198.623	45.91
198.842	103.25
199.062	11.09
199.281	37.72
199.5	-40.11
199.719	21.33
199.938	103.25
200.157	76.63
200.376	99.16
200.595	72.53
200.814	21.33
201.033	-36.01
201.252	82.77
201.471	17.24
201.69	45.91
201.909	105.3
202.128	23.38
202.347	21.33
202.566	72.53
202.785	45.91
203.004	31.57
203.223	105.3
203.442	0.85
203.661	-74.92
203.879	23.38
204.098	103.25
204.317	74.58
204.536	119.64
204.755	0.85
204.974	109.4
205.193	107.35
205.411	37.72
205.63	115.54
205.849	88.92
206.068	66.39
206.287	33.62
206.505	60.24
206.724	74.58
206.943	-23.72
207.162	-17.58
207.381	103.25
207.599	115.54
207.818	58.2
208.037	-19.63
208.255	9.05
208.474	62.29
208.693	-9.39
208.911	123.73
209.13	-3.24
209.349	41.81
209.567	152.4
209.786	95.06
210.005	45.91
210.223	62.29
210.442	-7.34
210.661	31.57
210.879	17.24
211.098	64.34
211.316	66.39
211.535	99.16
211.753	58.2
211.972	7
212.191	0.85
212.409	78.68
212.628	64.34
212.846	45.91
213.065	11.09
213.283	13.14
213.502	37.72
213.72	-7.34
213.938	74.58
214.157	-27.82
214.375	70.48
214.594	7
214.812	103.25
215.031	-15.53
215.249	47.96
215.467	74.58
215.686	23.38
215.904	140.12
216.122	29.52
216.341	37.72
216.559	37.72
216.778	84.82
216.996	31.57
217.214	29.52
217.432	-3.24
217.651	50
217.869	47.96
218.087	-89.26
218.306	23.38
218.524	15.19
218.742	4.95
218.96	-3.24
219.179	54.1
219.397	-1.19
219.615	113.49
219.833	37.72
220.051	37.72
220.27	25.43
220.488	60.24
220.706	129.88
220.924	4.95
221.142	82.77
221.36	39.76
221.578	127.83
221.796	-23.72
222.015	74.58
222.233	-36.01
222.451	82.77
222.669	78.68
222.887	54.1
223.105	-17.58
223.323	62.29
223.541	2.9
223.759	29.52
223.977	17.24
224.195	25.43
224.413	70.48
224.631	-17.58
224.849	86.87
225.067	113.49
225.285	-66.73
225.503	21.33
225.721	78.68
225.939	37.72
226.157	72.53
226.375	45.91
226.592	41.81
226.81	47.96
227.028	105.3
227.246	54.1
227.464	103.25
227.682	9.05
227.9	45.91
228.117	47.96
228.335	54.1
228.553	121.68
228.771	-3.24
228.989	80.72
229.206	47.96
229.424	41.81
229.642	-66.73
229.86	4.95
230.077	29.52
230.295	0.85
230.513	68.44
230.731	82.77
230.948	121.68
231.166	111.44
231.384	0.85
231.601	25.43
231.819	78.68
232.037	-19.63
232.254	4.95
232.472	-36.01
232.689	29.52
232.907	54.1
233.125	29.52
233.342	-3.24
233.56	99.16
233.777	78.68
233.995	-40.11
234.213	97.11
234.43	-11.43
234.648	13.14
234.865	45.91
235.083	0.85
235.3	21.33
235.518	29.52
235.735	23.38
235.953	80.72
236.17	23.38
236.388	80.72
236.605	95.06
236.822	56.15
237.04	107.35
237.257	54.1
237.475	29.52
237.692	103.25
237.909	-44.2
238.127	47.96
238.344	0.85
238.562	101.2
238.779	33.62
238.996	9.05
239.214	54.1
239.431	29.52
239.648	-13.48
239.865	119.64
240.083	45.91
240.3	23.38
240.517	45.91
240.735	23.38
240.952	21.33
241.169	62.29
241.386	64.34
241.603	47.96
241.821	11.09
242.038	86.87
242.255	37.72
242.472	15.19
242.689	-21.67
242.907	-29.87
243.124	-9.39
243.341	-3.24
243.558	-19.63
243.775	2.9
243.992	4.95
244.209	45.91
244.426	107.35
244.643	82.77
244.86	-33.96
245.078	109.4
245.295	88.92
245.512	62.29
245.729	45.91
245.946	-17.58
246.163	62.29
246.38	72.53
246.597	-1.19
246.814	33.62
247.031	90.96
247.248	39.76
247.464	62.29
247.681	54.1
247.898	56.15
248.115	76.63
248.332	62.29
248.549	-15.53
248.766	54.1
248.983	78.68
249.2	86.87
249.417	86.87
249.633	21.33
249.85	62.29
250.067	17.24
250.284	111.44
250.501	23.38
250.717	25.43
250.934	29.52
251.151	54.1
251.368	-40.11
251.585	88.92
251.801	80.72
252.018	62.29
252.235	125.78
252.451	29.52
252.668	54.1
252.885	45.91
253.102	15.19
253.318	17.24
253.535	62.29
253.752	37.72
253.968	95.06
254.185	-1.19
254.401	66.39
254.618	21.33
254.835	7
255.051	62.29
255.268	41.81
255.484	160.59
255.701	76.63
255.917	80.72
256.134	50
256.351	4.95
256.567	33.62
256.784	21.33
257	9.05
257.217	58.2
257.433	39.76
257.65	74.58
257.866	95.06
258.082	35.67
258.299	-40.11
258.515	19.29
258.732	7
258.948	13.14
259.165	64.34
259.381	-40.11
259.597	4.95
259.814	25.43
260.03	-1.19
260.246	-15.53
260.463	103.25
260.679	82.77
260.895	111.44
261.112	29.52
261.328	-7.34
261.544	-68.78
261.761	74.58
261.977	21.33
262.193	29.52
262.409	70.48
262.626	47.96
262.842	33.62
263.058	-31.91
263.274	97.11
263.49	76.63
263.707	7
263.923	29.52
264.139	21.33
264.355	74.58
264.571	99.16
264.787	27.48
265.004	70.48
265.22	50
265.436	7
265.652	80.72
265.868	43.86
266.084	13.14
266.3	45.91
266.516	25.43
266.732	50
266.948	-7.34
267.164	52.05
267.38	-3.24
267.596	37.72
267.812	117.59
268.028	-15.53
268.244	0.85
268.46	31.57
268.676	29.52
268.892	35.67
269.108	-27.82
269.324	35.67
269.54	78.68
269.756	76.63
269.972	111.44
270.188	45.91
270.403	-3.24
270.619	41.81
270.835	31.57
271.051	41.81
271.267	70.48
271.483	-7.34
271.698	0.85
271.914	78.68
272.13	-25.77
272.346	21.33
272.562	47.96
272.777	60.24
272.993	33.62
273.209	111.44
273.425	41.81
273.64	-40.11
273.856	45.91
274.072	37.72
274.287	-25.77
274.503	72.53
274.719	-3.24
274.934	13.14
275.15	-11.43
275.366	60.24
275.581	37.72
275.797	-15.53
276.012	90.96
276.228	39.76
276.444	136.02
276.659	78.68
276.875	-3.24
277.09	23.38
277.306	-23.72
277.521	45.91
277.737	23.38
277.952	2.9
278.168	52.05
278.383	33.62
278.599	58.2
278.814	56.15
279.03	62.29
279.245	-1.19
279.461	35.67
279.676	45.91
279.892	0.85
280.107	-21.67
280.322	23.38
280.538	62.29
280.753	86.87
280.969	-19.63
281.184	45.91
281.399	29.52
281.615	4.95
281.83	56.15
282.045	25.43
282.26	13.14
282.476	-33.96
282.691	82.77
282.906	0.85
283.122	86.87
283.337	17.24
283.552	47.96
283.767	56.15
283.983	99.16
284.198	-3.24
284.413	31.57
284.628	39.76
284.843	80.72
285.058	111.44
285.274	39.76
285.489	-48.3
285.704	31.57
285.919	7
286.134	23.38
286.349	76.63
286.564	72.53
286.779	131.92
286.995	70.48
287.21	45.91
287.425	64.34
287.64	33.62
287.855	72.53
288.07	-25.77
288.285	95.06
288.5	54.1
288.715	50
288.93	60.24
289.145	54.1
289.36	105.3
289.575	29.52
289.79	17.24
290.004	23.38
290.219	0.85
290.434	70.48
290.649	13.14
290.864	-27.82
291.079	13.14
291.294	58.2
291.509	21.33
291.724	-36.01
291.938	93.01
292.153	66.39
292.368	50
292.583	17.24
292.798	70.48
293.012	37.72
293.227	35.67
293.442	41.81
293.657	-44.2
293.871	97.11
294.086	29.52
294.301	70.48
294.516	117.59
294.73	54.1
294.945	35.67
295.16	13.14
295.374	84.82
295.589	37.72
295.804	4.95
296.018	111.44
296.233	62.29
296.447	66.39
296.662	25.43
296.877	54.1
297.091	4.95
297.306	70.48
297.52	27.48
297.735	41.81
297.949	70.48
298.164	117.59
298.378	17.24
298.593	23.38
298.807	7
299.022	64.34
299.236	113.49
299.451	33.62
299.665	70.48
299.88	47.96
300.094	88.92
300.309	7
300.523	-9.39
300.737	70.48
300.952	54.1
301.166	7
301.381	56.15
301.595	23.38
301.809	99.16
302.024	58.2
302.238	19.29
302.452	113.49
302.667	13.14
302.881	13.14
303.095	78.68
303.309	45.91
303.524	-1.19
303.738	31.57
303.952	37.72
304.166	88.92
304.381	4.95
304.595	80.72
304.809	-11.43
305.023	74.58
305.237	23.38
305.452	13.14
305.666	9.05
305.88	66.39
306.094	127.83
306.308	35.67
306.522	25.43
306.736	37.72
306.95	66.39
307.164	29.52
307.379	97.11
307.593	62.29
307.807	41.81
308.021	9.05
308.235	9.05
308.449	17.24
308.663	9.05
308.877	72.53
309.091	58.2
309.305	47.96
309.519	-31.91
309.733	111.44
309.947	-11.43
310.161	70.48
310.374	93.01
310.588	23.38
310.802	-1.19
311.016	37.72
311.23	45.91
311.444	37.72
311.658	-23.72
311.872	74.58
312.085	56.15
312.299	129.88
312.513	25.43
312.727	45.91
312.941	-3.24
313.154	-33.96
313.368	103.25
313.582	105.3
313.796	37.72
314.009	93.01
314.223	68.44
314.437	127.83
314.651	78.68
314.864	74.58
315.078	-21.67
315.292	-52.39
315.505	68.44
315.719	72.53
315.933	31.57
316.146	50
316.36	4.95
316.573	107.35
316.787	62.29
317.001	-44.2
317.214	-9.39
317.428	56.15
317.641	-13.48
317.855	52.05
318.068	54.1
318.282	97.11
318.495	56.15
318.709	35.67
318.922	50
319.136	127.83
319.349	152.4
319.563	-1.19
319.776	121.68
319.99	-3.24
320.203	76.63
320.417	62.29
320.63	72.53
320.843	86.87
321.057	-11.43
321.27	88.92
321.483	-11.43
321.697	103.25
321.91	97.11
322.124	4.95
322.337	56.15
322.55	-11.43
322.763	11.09
322.977	70.48
323.19	-15.53
323.403	13.14
323.617	23.38
323.83	95.06
324.043	-3.24
324.256	62.29
324.469	45.91
324.683	54.1
324.896	-7.34
325.109	4.95
325.322	17.24
325.535	62.29
325.748	95.06
325.962	-50.35
326.175	37.72
326.388	93.01
326.601	127.83
326.814	15.19
327.027	62.29
327.24	136.02
327.453	21.33
327.666	-3.24
327.879	80.72
328.092	23.38
328.305	86.87
328.518	9.05
328.731	23.38
328.944	7
329.157	13.14
329.37	-13.48
329.583	103.25
329.796	111.44
330.009	31.57
330.222	119.64
330.435	148.31
330.648	129.88
330.861	-1.19
331.073	54.1
331.286	37.72
331.499	-9.39
331.712	-23.72
331.925	185.17
332.138	54.1
332.35	80.72
332.563	13.14
332.776	168.79
332.989	29.52
333.202	29.52
333.414	-3.24
333.627	86.87
333.84	56.15
334.053	62.29
334.265	41.81
334.478	37.72
334.691	37.72
334.903	50
335.116	54.1
335.329	111.44
335.541	111.44
335.754	107.35
335.966	99.16
336.179	37.72
336.392	50
336.604	115.54
336.817	70.48
337.029	62.29
337.242	86.87
337.454	56.15
337.667	25.43
337.88	54.1
338.092	-31.91
338.305	78.68
338.517	123.73
338.729	138.07
338.942	62.29
339.154	86.87
339.367	4.95
339.579	113.49
339.792	2.9
340.004	101.2
340.217	31.57
340.429	47.96
340.641	7
340.854	70.48
341.066	62.29
341.278	31.57
341.491	95.06
341.703	17.24
341.915	45.91
342.128	47.96
342.34	66.39
342.552	70.48
342.764	56.15
342.977	111.44
343.189	54.1
343.401	101.2
343.613	45.91
343.826	-36.01
344.038	37.72
344.25	7
344.462	4.95
344.674	31.57
344.886	54.1
345.099	-9.39
345.311	37.72
345.523	62.29
345.735	62.29
345.947	62.29
346.159	56.15
346.371	-7.34
346.583	29.52
346.795	78.68
347.007	-33.96
347.219	45.91
347.431	15.19
347.643	21.33
347.855	-36.01
348.067	9.05
348.279	13.14
348.491	103.25
348.703	9.05
348.915	39.76
349.127	-3.24
349.339	9.05
349.551	41.81
349.763	82.77
349.975	0.85
350.187	95.06
350.399	78.68
350.61	15.19
350.822	-11.43
351.034	33.62
351.246	47.96
351.458	58.2
351.669	-11.43
351.881	64.34
352.093	-1.19
352.305	58.2
352.517	109.4
352.728	60.24
352.94	29.52
353.152	82.77
353.363	11.09
353.575	62.29
353.787	156.5
353.999	37.72
354.21	99.16
354.422	-25.77
354.633	23.38
354.845	4.95
355.057	13.14
355.268	144.21
355.48	43.86
355.692	0.85
355.903	27.48
356.115	66.39
356.326	9.05
356.538	88.92
356.749	99.16
356.961	138.07
357.172	21.33
357.384	-23.72
357.595	86.87
357.807	13.14
358.018	41.81
358.23	33.62
358.441	62.29
358.653	70.48
358.864	29.52
359.075	35.67
359.287	54.1
359.498	136.02
359.709	25.43
359.921	13.14
360.132	88.92
360.344	68.44
360.555	33.62
360.766	74.58
360.977	13.14
361.189	64.34
361.4	72.53
361.611	115.54
361.823	33.62
362.034	21.33
362.245	21.33
362.456	45.91
362.667	95.06
362.879	0.85
363.09	64.34
363.301	82.77
363.512	50
363.723	9.05
363.935	39.76
364.146	62.29
364.357	25.43
364.568	78.68
364.779	41.81
364.99	86.87
365.201	70.48
365.412	101.2
365.623	45.91
365.834	54.1
366.045	62.29
366.256	72.53
366.467	37.72
366.678	142.16
366.889	21.33
367.1	121.68
367.311	113.49
367.522	54.1
367.733	9.05
367.944	13.14
368.155	29.52
368.366	37.72
368.577	43.86
368.788	99.16
368.999	64.34
369.209	47.96
369.42	64.34
369.631	129.88
369.842	54.1
370.053	78.68
370.264	41.81
370.474	45.91
370.685	41.81
370.896	21.33
371.107	119.64
371.317	62.29
371.528	-7.34
371.739	52.05
371.95	-29.87
372.16	64.34
372.371	74.58
372.582	78.68
372.792	43.86
373.003	95.06
373.214	78.68
373.424	72.53
373.635	-27.82
373.846	95.06
374.056	29.52
374.267	29.52
374.477	33.62
374.688	29.52
374.898	47.96
375.109	56.15
375.319	-21.67
375.53	25.43
375.74	111.44
375.951	70.48
376.161	39.76
376.372	117.59
376.582	-27.82
376.793	50
377.003	11.09
377.214	68.44
377.424	99.16
377.635	80.72
377.845	31.57
378.055	119.64
378.266	33.62
378.476	54.1
378.686	72.53
378.897	62.29
379.107	43.86
379.317	23.38
379.528	19.29
379.738	90.96
379.948	2.9
380.158	111.44
380.369	107.35
380.579	115.54
380.789	-11.43
380.999	56.15
381.21	115.54
381.42	25.43
381.63	21.33
381.84	72.53
382.05	109.4
382.261	56.15
382.471	13.14
382.681	74.58
382.891	140.12
383.101	41.81
383.311	17.24
383.521	54.1
383.731	60.24
383.941	80.72
384.151	111.44
384.361	54.1
384.571	78.68
384.781	80.72
384.991	70.48
385.201	76.63
385.411	21.33
385.621	54.1
385.831	-3.24
386.041	76.63
386.251	70.48
386.461	33.62
386.671	54.1
386.881	7
387.091	82.77
387.301	119.64
387.511	117.59
387.72	47.96
387.93	95.06
388.14	37.72
388.35	-3.24
388.56	72.53
388.769	47.96
388.979	54.1
389.189	62.29
389.399	107.35
389.609	111.44
389.818	95.06
390.028	78.68
390.238	150.36
390.447	13.14
390.657	50
390.867	86.87
391.076	-11.43
391.286	107.35
391.496	86.87
391.705	27.48
391.915	47.96
392.125	113.49
392.334	41.81
392.544	74.58
392.753	105.3
392.963	74.58
393.172	62.29
393.382	37.72
393.591	154.45
393.801	37.72
394.01	103.25
394.22	21.33
394.429	23.38
394.639	86.87
394.848	125.78
395.058	115.54
395.267	103.25
395.477	31.57
395.686	58.2
395.895	160.59
396.105	127.83
396.314	72.53
396.524	23.38
396.733	41.81
396.942	136.02
397.152	90.96
397.361	113.49
397.57	129.88
397.78	78.68
397.989	113.49
398.198	133.97
398.407	64.34
398.617	95.06
398.826	88.92
399.035	62.29
399.244	78.68
399.453	56.15
399.663	47.96
399.872	62.29
400.081	68.44
400.29	117.59
400.499	111.44
400.708	90.96
400.917	90.96
401.127	168.79
401.336	64.34
401.545	179.03
401.754	154.45
401.963	41.81
402.172	37.72
402.381	64.34
402.59	111.44
402.799	131.92
403.008	181.07
403.217	187.22
403.426	136.02
403.635	72.53
403.844	103.25
404.053	187.22
404.262	90.96
404.471	66.39
404.68	41.81
404.888	90.96
405.097	140.12
405.306	45.91
405.515	162.64
405.724	152.4
405.933	170.83
406.142	127.83
406.35	136.02
406.559	78.68
406.768	117.59
406.977	181.07
407.185	152.4
407.394	86.87
407.603	119.64
407.812	209.75
408.02	197.46
408.229	144.21
408.438	205.65
408.646	152.4
408.855	176.98
409.064	127.83
409.272	189.27
409.481	236.37
409.69	168.79
409.898	205.65
410.107	222.03
410.315	146.26
410.524	152.4
410.733	217.94
410.941	203.6
411.15	275.28
411.358	265.04
411.567	383.82
411.775	226.13
411.984	291.66
412.192	408.4
412.401	267.09
412.609	340.82
412.818	291.66
413.026	342.86
413.234	414.54
413.443	371.54
413.651	377.68
413.86	342.86
414.068	361.3
414.276	471.89
414.485	361.3
414.693	398.16
414.901	457.55
415.11	459.6
415.318	475.98
415.526	525.13
415.734	594.76
415.943	516.94
416.151	574.28
416.359	500.56
416.567	516.94
416.776	621.39
416.984	627.53
417.192	564.04
417.4	639.82
417.608	652.11
417.817	643.92
418.025	701.26
418.233	891.72
418.441	721.74
418.649	774.99
418.857	783.18
419.065	910.15
419.273	836.42
419.481	873.29
419.689	938.82
419.897	889.67
420.105	947.01
420.313	977.73
420.521	1063.75
420.729	1151.81
420.937	1078.08
421.145	1112.9
421.353	1168.2
421.561	1252.16
421.769	1250.11
421.977	1248.07
422.185	1282.88
422.393	1454.91
422.601	1454.91
422.809	1389.38
423.017	1499.97
423.224	1579.84
423.432	1598.27
423.64	1622.84
423.848	1682.24
424.056	1659.71
424.263	1868.6
424.471	1833.79
424.679	1973.05
424.887	1864.5
425.094	2036.53
425.302	2077.49
425.51	2100.02
425.718	2159.41
425.925	2151.22
426.133	2229.04
426.341	2308.91
426.548	2609.97
426.756	2511.66
426.964	2478.9
427.171	2675.5
427.379	2693.93
427.586	2743.08
427.794	2906.92
428.001	2974.5
428.209	3158.82
428.417	3056.42
428.624	3347.23
428.832	3306.27
429.039	3253.03
429.247	3228.45
429.454	3783.45
429.662	3879.71
429.869	3568.41
430.076	3865.37
430.284	3765.02
430.491	3861.27
430.699	4027.16
430.906	4086.55
431.114	4055.83
431.321	4391.7
431.528	4490
431.736	4707.09
431.943	4879.11
432.15	4621.07
432.358	4936.46
432.565	5231.37
432.772	5069.58
432.979	5225.22
433.187	5305.09
433.394	5364.48
433.601	5806.84
433.808	5778.17
434.016	5739.26
434.223	6068.98
434.43	6511.35
434.637	6169.34
434.844	6738.67
435.052	6578.93
435.259	6646.51
435.466	6746.86
435.673	6568.69
435.88	7148.26
436.087	7293.67
436.294	7455.46
436.501	7267.05
436.708	7404.26
436.915	7725.79
437.122	8196.82
437.329	8037.08
437.537	8409.81
437.743	8561.36
437.95	8456.92
438.157	8805.07
438.364	9310.92
438.571	9016.01
438.778	9302.73
438.985	9933.5
439.192	9663.17
439.399	9810.62
439.606	9626.31
439.813	10257.08
440.02	10775.22
440.227	10631.86
440.433	10687.15
440.64	10945.2
440.847	10828.46
441.054	11262.63
441.261	11666.08
441.467	11793.06
441.674	11885.22
441.881	12337.82
442.088	12251.8
442.294	12368.54
442.501	12683.92
442.708	12616.34
442.914	13251.21
443.121	13881.99
443.328	13447.82
443.534	14320.25
443.741	14152.32
443.948	13765.25
444.154	14848.63
444.361	14779
444.568	14953.07
444.774	14750.32
444.981	15026.8
445.187	15448.68
445.394	16052.83
445.6	15958.63
445.807	17431.12
446.013	16783.96
446.22	17050.19
446.426	17543.75
446.633	17918.53
446.839	18434.62
447.046	17615.43
447.252	18723.38
447.459	18610.75
447.665	18586.17
447.871	19606.06
448.078	20202.02
448.284	19331.63
448.491	19812.9
448.697	20681.24
448.903	21115.41
449.11	20877.85
449.316	20765.21
449.522	20859.42
449.728	21934.6
449.935	22051.33
450.141	21764.62
450.347	22454.78
450.553	21862.92
450.76	21918.21
450.966	22782.46
451.172	22587.9
451.378	23214.58
451.584	22495.74
451.791	23296.5
451.997	23192.05
452.203	23646.7
452.409	23589.36
452.615	23812.59
452.821	22542.85
453.027	22317.57
453.233	23810.54
453.44	22622.72
453.646	23091.7
453.852	22927.86
454.058	23515.63
454.264	22745.59
454.47	23280.11
454.676	22520.32
454.882	23687.66
455.088	21436.94
455.294	21643.79
455.5	22012.42
455.705	22497.79
455.911	21598.73
456.117	21137.94
456.323	20982.29
456.529	19817
456.735	20560.41
456.941	20050.47
457.147	19671.59
457.352	19423.79
457.558	18651.7
457.764	19235.38
457.97	18653.75
458.176	18272.83
458.381	18285.12
458.587	17422.92
458.793	17355.34
458.999	16327.26
459.204	17826.37
459.41	17183.31
459.616	15968.87
459.821	16050.78
460.027	16198.24
460.233	15692.39
460.438	14987.89
460.644	15157.87
460.85	14301.82
461.055	14221.95
461.261	14250.62
461.466	13136.52
461.672	12612.24
461.878	13701.76
462.083	12790.42
462.289	12509.85
462.494	12329.63
462.7	11680.42
462.905	11489.96
463.111	12057.25
463.316	11934.37
463.522	11784.87
463.727	11723.43
463.932	11520.68
464.138	11473.57
464.343	11754.15
464.549	11354.79
464.754	11498.15
464.959	11592.36
465.165	11518.63
465.37	11018.93
465.575	10556.08
465.781	11217.58
465.986	11287.21
466.191	10728.11
466.397	10476.21
466.602	9996.99
466.807	10502.84
467.012	10504.89
467.218	10347.19
467.423	10156.73
467.628	10371.77
467.833	10826.42
468.038	10508.98
468.244	10146.49
468.449	10697.39
468.654	10226.36
