Data from USB4F104151__61__14-43-14-219.txt Node

Date: Thu Mar 13 14:43:14 EDT 2025
User: louis
Spectrometer: USB4F10415
Trigger mode: 4
Integration Time (sec): 2.000000E-2
Scans to average: 1
Electric dark correction enabled: true
Nonlinearity correction enabled: false
Boxcar width: 0
XAxis mode: Wavelengths
Number of Pixels in Spectrum: 3648
>>>>>Begin Spectral Data<<<<<
178.204	-92.33
178.424	-92.33
178.644	-92.33
178.864	-59.56
179.084	-108.71
179.304	24.4
179.524	-32.94
179.744	-4.27
179.964	40.79
180.184	-16.55
180.404	55.12
180.624	34.64
180.844	-73.9
181.064	12.12
181.283	22.36
181.503	-34.99
181.723	-26.79
181.943	-43.18
182.163	73.56
182.383	-18.6
182.602	-10.41
182.822	100.18
183.042	34.64
183.262	46.93
183.482	-16.55
183.701	51.03
183.921	-2.22
184.141	-41.13
184.361	155.47
184.58	63.32
184.8	-0.17
185.02	14.17
185.239	46.93
185.459	-10.41
185.679	57.17
185.898	-45.23
186.118	32.6
186.338	55.12
186.557	16.21
186.777	-16.55
186.997	73.56
187.216	-41.13
187.436	112.47
187.655	22.36
187.875	57.17
188.095	-18.6
188.314	53.08
188.534	42.84
188.753	-24.75
188.973	67.41
189.192	22.36
189.412	-10.41
189.631	96.08
189.851	53.08
190.07	30.55
190.29	-2.22
190.509	30.55
190.729	-6.31
190.948	79.7
191.168	98.13
191.387	85.84
191.607	10.07
191.826	-2.22
192.045	12.12
192.265	96.08
192.484	71.51
192.704	26.45
192.923	-75.95
193.142	104.28
193.362	-10.41
193.581	-14.51
193.8	63.32
194.02	91.99
194.239	-8.36
194.458	-24.75
194.678	-2.22
194.897	-10.41
195.116	5.97
195.335	16.21
195.555	104.28
195.774	65.36
195.993	5.97
196.212	-32.94
196.432	67.41
196.651	18.26
196.87	24.4
197.089	38.74
197.308	5.97
197.528	-26.79
197.747	-63.66
197.966	18.26
198.185	114.52
198.404	104.28
198.623	-8.36
198.842	-10.41
199.062	40.79
199.281	67.41
199.5	3.93
199.719	57.17
199.938	5.97
200.157	141.14
200.376	38.74
200.595	55.12
200.814	57.17
201.033	14.17
201.252	73.56
201.471	69.46
201.69	14.17
201.909	79.7
202.128	63.32
202.347	139.09
202.566	16.21
202.785	-41.13
203.004	51.03
203.223	34.64
203.442	-22.7
203.661	-8.36
203.879	55.12
204.098	71.51
204.317	14.17
204.536	71.51
204.755	5.97
204.974	71.51
205.193	67.41
205.411	124.76
205.63	63.32
205.849	38.74
206.068	34.64
206.287	30.55
206.505	132.95
206.724	38.74
206.943	-8.36
207.162	26.45
207.381	59.22
207.599	83.8
207.818	32.6
208.037	75.6
208.255	24.4
208.474	14.17
208.693	40.79
208.911	87.89
209.13	51.03
209.349	14.17
209.567	22.36
209.786	104.28
210.005	5.97
210.223	77.65
210.442	42.84
210.661	-26.79
210.879	40.79
211.098	57.17
211.316	1.88
211.535	34.64
211.753	75.6
211.972	83.8
212.191	38.74
212.409	137.04
212.628	89.94
212.846	-32.94
213.065	104.28
213.283	51.03
213.502	71.51
213.72	8.02
213.938	18.26
214.157	65.36
214.375	112.47
214.594	-2.22
214.812	3.93
215.031	65.36
215.249	-14.51
215.467	65.36
215.686	30.55
215.904	96.08
216.122	5.97
216.341	-24.75
216.559	42.84
216.778	8.02
216.996	14.17
217.214	44.88
217.432	-26.79
217.651	63.32
217.869	46.93
218.087	14.17
218.306	-6.31
218.524	26.45
218.742	12.12
218.96	55.12
219.179	-34.99
219.397	18.26
219.615	98.13
219.833	32.6
220.051	22.36
220.27	-32.94
220.488	59.22
220.706	46.93
220.924	53.08
221.142	8.02
221.36	40.79
221.578	-30.89
221.796	77.65
222.015	48.98
222.233	38.74
222.451	30.55
222.669	-2.22
222.887	55.12
223.105	16.21
223.323	14.17
223.541	24.4
223.759	22.36
223.977	79.7
224.195	65.36
224.413	48.98
224.631	38.74
224.849	-26.79
225.067	112.47
225.285	40.79
225.503	34.64
225.721	-6.31
225.939	65.36
226.157	81.75
226.375	104.28
226.592	-43.18
226.81	16.21
227.028	106.32
227.246	79.7
227.464	38.74
227.682	87.89
227.9	63.32
228.117	63.32
228.335	63.32
228.553	-8.36
228.771	85.84
228.989	-45.23
229.206	40.79
229.424	34.64
229.642	63.32
229.86	14.17
230.077	65.36
230.295	16.21
230.513	85.84
230.731	5.97
230.948	71.51
231.166	89.94
231.384	-49.32
231.601	55.12
231.819	104.28
232.037	24.4
232.254	-34.99
232.472	-67.75
232.689	-10.41
232.907	5.97
233.125	32.6
233.342	1.88
233.56	-47.27
233.777	48.98
233.995	-20.65
234.213	32.6
234.43	34.64
234.648	22.36
234.865	96.08
235.083	20.31
235.3	22.36
235.518	16.21
235.735	46.93
235.953	104.28
236.17	46.93
236.388	75.6
236.605	44.88
236.822	71.51
237.04	14.17
237.257	10.07
237.475	51.03
237.692	-0.17
237.909	42.84
238.127	42.84
238.344	34.64
238.562	71.51
238.779	-57.51
238.996	-24.75
239.214	53.08
239.431	71.51
239.648	-16.55
239.865	42.84
240.083	-8.36
240.3	38.74
240.517	-10.41
240.735	22.36
240.952	-16.55
241.169	77.65
241.386	26.45
241.603	-4.27
241.821	46.93
242.038	102.23
242.255	18.26
242.472	65.36
242.689	32.6
242.907	14.17
243.124	51.03
243.341	65.36
243.558	-24.75
243.775	-39.08
243.992	8.02
244.209	63.32
244.426	145.24
244.643	75.6
244.86	36.69
245.078	79.7
245.295	-4.27
245.512	73.56
245.729	26.45
245.946	-22.7
246.163	81.75
246.38	1.88
246.597	42.84
246.814	55.12
247.031	71.51
247.248	112.47
247.464	8.02
247.681	14.17
247.898	89.94
248.115	10.07
248.332	1.88
248.549	98.13
248.766	34.64
248.983	-8.36
249.2	63.32
249.417	46.93
249.633	132.95
249.85	59.22
250.067	40.79
250.284	22.36
250.501	-53.42
250.717	46.93
250.934	12.12
251.151	5.97
251.368	-22.7
251.585	83.8
251.801	32.6
252.018	8.02
252.235	53.08
252.451	-39.08
252.668	32.6
252.885	44.88
253.102	96.08
253.318	48.98
253.535	5.97
253.752	-37.03
253.968	69.46
254.185	-2.22
254.401	-6.31
254.618	55.12
254.835	-59.56
255.051	104.28
255.268	38.74
255.484	55.12
255.701	96.08
255.917	69.46
256.134	96.08
256.351	57.17
256.567	22.36
256.784	-30.89
257	18.26
257.217	87.89
257.433	14.17
257.65	32.6
257.866	38.74
258.082	-26.79
258.299	3.93
258.515	42.84
258.732	40.79
258.948	40.79
259.165	14.17
259.381	-4.27
259.597	-30.89
259.814	-8.36
260.03	-28.84
260.246	14.17
260.463	51.03
260.679	104.28
260.895	-55.47
261.112	26.45
261.328	24.4
261.544	5.97
261.761	73.56
261.977	-8.36
262.193	59.22
262.409	128.85
262.626	100.18
262.842	42.84
263.058	3.93
263.274	10.07
263.49	36.69
263.707	-10.41
263.923	87.89
264.139	46.93
264.355	38.74
264.571	79.7
264.787	30.55
265.004	61.27
265.22	5.97
265.436	-0.17
265.652	61.27
265.868	42.84
266.084	-67.75
266.3	104.28
266.516	10.07
266.732	-16.55
266.948	-6.31
267.164	120.66
267.38	-12.46
267.596	-8.36
267.812	87.89
268.028	73.56
268.244	79.7
268.46	-0.17
268.676	-0.17
268.892	40.79
269.108	-26.79
269.324	30.55
269.54	48.98
269.756	87.89
269.972	-22.7
270.188	-2.22
270.403	12.12
270.619	16.21
270.835	-34.99
271.051	1.88
271.267	-10.41
271.483	5.97
271.698	59.22
271.914	128.85
272.13	-43.18
272.346	1.88
272.562	-34.99
272.777	126.8
272.993	26.45
273.209	-12.46
273.425	1.88
273.64	14.17
273.856	51.03
274.072	14.17
274.287	30.55
274.503	38.74
274.719	40.79
274.934	-18.6
275.15	16.21
275.366	30.55
275.581	-10.41
275.797	-10.41
276.012	65.36
276.228	14.17
276.444	30.55
276.659	63.32
276.875	57.17
277.09	38.74
277.306	28.5
277.521	34.64
277.737	20.31
277.952	48.98
278.168	132.95
278.383	67.41
278.599	102.23
278.814	-8.36
279.03	-18.6
279.245	128.85
279.461	-26.79
279.676	46.93
279.892	-51.37
280.107	46.93
280.322	-6.31
280.538	-24.75
280.753	34.64
280.969	79.7
281.184	10.07
281.399	112.47
281.615	30.55
281.83	46.93
282.045	65.36
282.26	-49.32
282.476	10.07
282.691	96.08
282.906	57.17
283.122	44.88
283.337	38.74
283.552	38.74
283.767	-10.41
283.983	34.64
284.198	-16.55
284.413	46.93
284.628	8.02
284.843	-34.99
285.058	57.17
285.274	63.32
285.489	57.17
285.704	48.98
285.919	30.55
286.134	55.12
286.349	114.52
286.564	-2.22
286.779	73.56
286.995	40.79
287.21	-34.99
287.425	46.93
287.64	20.31
287.855	30.55
288.07	40.79
288.285	38.74
288.5	22.36
288.715	48.98
288.93	-10.41
289.145	16.21
289.36	63.32
289.575	-10.41
289.79	40.79
290.004	26.45
290.219	120.66
290.434	10.07
290.649	-18.6
290.864	108.37
291.079	79.7
291.294	108.37
291.509	32.6
291.724	63.32
291.938	-41.13
292.153	38.74
292.368	61.27
292.583	51.03
292.798	38.74
293.012	48.98
293.227	16.21
293.442	71.51
293.657	81.75
293.871	89.94
294.086	-6.31
294.301	87.89
294.516	22.36
294.73	59.22
294.945	46.93
295.16	26.45
295.374	63.32
295.589	-10.41
295.804	14.17
296.018	28.5
296.233	55.12
296.447	24.4
296.662	63.32
296.877	124.76
297.091	-18.6
297.306	10.07
297.52	-12.46
297.735	-8.36
297.949	71.51
298.164	106.32
298.378	16.21
298.593	18.26
298.807	67.41
299.022	32.6
299.236	75.6
299.451	-18.6
299.665	10.07
299.88	55.12
300.094	18.26
300.309	-0.17
300.523	8.02
300.737	20.31
300.952	71.51
301.166	57.17
301.381	20.31
301.595	38.74
301.809	-18.6
302.024	-24.75
302.238	-20.65
302.452	38.74
302.667	-16.55
302.881	87.89
303.095	8.02
303.309	5.97
303.524	-2.22
303.738	55.12
303.952	14.17
304.166	79.7
304.381	-26.79
304.595	120.66
304.809	24.4
305.023	38.74
305.237	38.74
305.452	81.75
305.666	28.5
305.88	30.55
306.094	63.32
306.308	69.46
306.522	96.08
306.736	40.79
306.95	-30.89
307.164	38.74
307.379	22.36
307.593	114.52
307.807	98.13
308.021	40.79
308.235	65.36
308.449	-6.31
308.663	36.69
308.877	100.18
309.091	-18.6
309.305	42.84
309.519	-71.85
309.733	48.98
309.947	-0.17
310.161	79.7
310.374	65.36
310.588	87.89
310.802	-22.7
311.016	22.36
311.23	-22.7
311.444	24.4
311.658	-20.65
311.872	57.17
312.085	26.45
312.299	-39.08
312.513	12.12
312.727	14.17
312.941	10.07
313.154	38.74
313.368	-39.08
313.582	51.03
313.796	34.64
314.009	89.94
314.223	110.42
314.437	46.93
314.651	24.4
314.864	38.74
315.078	14.17
315.292	34.64
315.505	20.31
315.719	42.84
315.933	-26.79
316.146	77.65
316.36	61.27
316.573	-8.36
316.787	96.08
317.001	24.4
317.214	-45.23
317.428	40.79
317.641	-6.31
317.855	81.75
318.068	46.93
318.282	-10.41
318.495	40.79
318.709	110.42
318.922	42.84
319.136	89.94
319.349	91.99
319.563	51.03
319.776	65.36
319.99	14.17
320.203	30.55
320.417	8.02
320.63	55.12
320.843	94.04
321.057	67.41
321.27	24.4
321.483	55.12
321.697	63.32
321.91	16.21
322.124	79.7
322.337	46.93
322.55	-2.22
322.763	22.36
322.977	55.12
323.19	69.46
323.403	-2.22
323.617	-49.32
323.83	8.02
324.043	57.17
324.256	-34.99
324.469	-47.27
324.683	57.17
324.896	63.32
325.109	51.03
325.322	67.41
325.535	71.51
325.748	38.74
325.962	98.13
326.175	89.94
326.388	22.36
326.601	46.93
326.814	-32.94
327.027	-0.17
327.24	130.9
327.453	1.88
327.666	-14.51
327.879	40.79
328.092	108.37
328.305	48.98
328.518	-12.46
328.731	40.79
328.944	55.12
329.157	24.4
329.37	18.26
329.583	44.88
329.796	120.66
330.009	16.21
330.222	89.94
330.435	91.99
330.648	63.32
330.861	24.4
331.073	8.02
331.286	22.36
331.499	51.03
331.712	34.64
331.925	-14.51
332.138	42.84
332.35	46.93
332.563	77.65
332.776	46.93
332.989	3.93
333.202	118.61
333.414	98.13
333.627	22.36
333.84	104.28
334.053	30.55
334.265	22.36
334.478	34.64
334.691	32.6
334.903	137.04
335.116	5.97
335.329	-41.13
335.541	106.32
335.754	98.13
335.966	-6.31
336.179	-0.17
336.392	38.74
336.604	87.89
336.817	59.22
337.029	128.85
337.242	63.32
337.454	28.5
337.667	-2.22
337.88	73.56
338.092	48.98
338.305	130.9
338.517	-8.36
338.729	46.93
338.942	48.98
339.154	16.21
339.367	-18.6
339.579	79.7
339.792	30.55
340.004	108.37
340.217	48.98
340.429	61.27
340.641	73.56
340.854	24.4
341.066	38.74
341.278	18.26
341.491	40.79
341.703	14.17
341.915	16.21
342.128	40.79
342.34	-6.31
342.552	8.02
342.764	36.69
342.977	24.4
343.189	96.08
343.401	14.17
343.613	38.74
343.826	38.74
344.038	30.55
344.25	63.32
344.462	67.41
344.674	51.03
344.886	16.21
345.099	108.37
345.311	-2.22
345.523	5.97
345.735	10.07
345.947	57.17
346.159	63.32
346.371	22.36
346.583	42.84
346.795	104.28
347.007	100.18
347.219	55.12
347.431	14.17
347.643	96.08
347.855	30.55
348.067	55.12
348.279	-26.79
348.491	-2.22
348.703	65.36
348.915	71.51
349.127	65.36
349.339	42.84
349.551	16.21
349.763	18.26
349.975	149.33
350.187	89.94
350.399	-6.31
350.61	147.28
350.822	30.55
351.034	5.97
351.246	-10.41
351.458	98.13
351.669	79.7
351.881	157.52
352.093	48.98
352.305	53.08
352.517	16.21
352.728	38.74
352.94	38.74
353.152	73.56
353.363	122.71
353.575	71.51
353.787	44.88
353.999	57.17
354.21	20.31
354.422	38.74
354.633	55.12
354.845	-24.75
355.057	40.79
355.268	-2.22
355.48	71.51
355.692	-2.22
355.903	63.32
356.115	-2.22
356.326	10.07
356.538	28.5
356.749	79.7
356.961	108.37
357.172	8.02
357.384	-16.55
357.595	67.41
357.807	51.03
358.018	65.36
358.23	5.97
358.441	114.52
358.653	89.94
358.864	10.07
359.075	-22.7
359.287	-0.17
359.498	94.04
359.709	48.98
359.921	10.07
360.132	20.31
360.344	71.51
360.555	55.12
360.766	89.94
360.977	-10.41
361.189	18.26
361.4	42.84
361.611	71.51
361.823	38.74
362.034	14.17
362.245	-0.17
362.456	65.36
362.667	85.84
362.879	55.12
363.09	65.36
363.301	46.93
363.512	10.07
363.723	128.85
363.935	79.7
364.146	55.12
364.357	8.02
364.568	-10.41
364.779	16.21
364.99	81.75
365.201	5.97
365.412	155.47
365.623	-37.03
365.834	81.75
366.045	38.74
366.256	44.88
366.467	63.32
366.678	18.26
366.889	3.93
367.1	63.32
367.311	34.64
367.522	22.36
367.733	59.22
367.944	110.42
368.155	26.45
368.366	55.12
368.577	20.31
368.788	108.37
368.999	65.36
369.209	108.37
369.42	40.79
369.631	116.56
369.842	71.51
370.053	10.07
370.264	55.12
370.474	-8.36
370.685	16.21
370.896	51.03
371.107	63.32
371.317	59.22
371.528	57.17
371.739	55.12
371.95	96.08
372.16	96.08
372.371	-10.41
372.582	71.51
372.792	14.17
373.003	106.32
373.214	-24.75
373.424	89.94
373.635	-10.41
373.846	100.18
374.056	79.7
374.267	63.32
374.477	79.7
374.688	38.74
374.898	-24.75
375.109	106.32
375.319	73.56
375.53	26.45
375.74	38.74
375.951	73.56
376.161	63.32
376.372	14.17
376.582	44.88
376.793	63.32
377.003	36.69
377.214	46.93
377.424	32.6
377.635	16.21
377.845	69.46
378.055	151.38
378.266	-16.55
378.476	100.18
378.686	1.88
378.897	8.02
379.107	36.69
379.317	81.75
379.528	51.03
379.738	38.74
379.948	-2.22
380.158	14.17
380.369	14.17
380.579	91.99
380.789	75.6
380.999	18.26
381.21	55.12
381.42	132.95
381.63	40.79
381.84	79.7
382.05	139.09
382.261	46.93
382.471	87.89
382.681	55.12
382.891	38.74
383.101	63.32
383.311	63.32
383.521	48.98
383.731	67.41
383.941	51.03
384.151	81.75
384.361	63.32
384.571	-6.31
384.781	104.28
384.991	32.6
385.201	14.17
385.411	55.12
385.621	81.75
385.831	67.41
386.041	8.02
386.251	44.88
386.461	18.26
386.671	38.74
386.881	79.7
387.091	42.84
387.301	-10.41
387.511	-2.22
387.72	116.56
387.93	96.08
388.14	22.36
388.35	63.32
388.56	42.84
388.769	42.84
388.979	28.5
389.189	24.4
389.399	108.37
389.609	79.7
389.818	40.79
390.028	110.42
390.238	20.31
390.447	51.03
390.657	120.66
390.867	108.37
391.076	8.02
391.286	85.84
391.496	51.03
391.705	100.18
391.915	46.93
392.125	5.97
392.334	57.17
392.544	79.7
392.753	28.5
392.963	48.98
393.172	26.45
393.382	-8.36
393.591	153.43
393.801	48.98
394.01	169.81
394.22	94.04
394.429	96.08
394.639	81.75
394.848	73.56
395.058	55.12
395.267	-30.89
395.477	46.93
395.686	28.5
395.895	130.9
396.105	106.32
396.314	32.6
396.524	155.47
396.733	161.62
396.942	83.8
397.152	112.47
397.361	87.89
397.57	132.95
397.78	91.99
397.989	30.55
398.198	116.56
398.407	48.98
398.617	55.12
398.826	141.14
399.035	137.04
399.244	132.95
399.453	14.17
399.663	55.12
399.872	67.41
400.081	63.32
400.29	151.38
400.499	46.93
400.708	89.94
400.917	87.89
401.127	91.99
401.336	40.79
401.545	110.42
401.754	63.32
401.963	130.9
402.172	126.8
402.381	126.8
402.59	126.8
402.799	91.99
403.008	128.85
403.217	161.62
403.426	108.37
403.635	96.08
403.844	71.51
404.053	104.28
404.262	106.32
404.471	202.58
404.68	10.07
404.888	87.89
405.097	112.47
405.306	122.71
405.515	118.61
405.724	100.18
405.933	178
406.142	141.14
406.35	180.05
406.559	112.47
406.768	145.24
406.977	165.71
407.185	71.51
407.394	153.43
407.603	182.1
407.812	180.05
408.02	163.67
408.229	225.11
408.438	223.06
408.646	302.93
408.855	253.78
409.064	304.98
409.272	184.15
409.481	288.59
409.69	296.78
409.898	235.35
410.107	278.35
410.315	300.88
410.524	278.35
410.733	304.98
410.941	311.12
411.15	352.08
411.358	343.89
411.567	319.31
411.775	384.85
411.984	368.46
412.192	390.99
412.401	397.14
412.609	386.9
412.818	403.28
413.026	505.68
413.234	423.76
413.443	440.14
413.651	538.45
413.86	446.29
414.068	554.83
414.276	513.87
414.485	468.81
414.693	548.68
414.901	601.93
415.11	532.3
415.318	632.65
415.526	653.13
415.734	646.99
415.943	741.19
416.151	689.99
416.359	657.23
416.567	669.52
416.776	714.57
416.984	759.63
417.192	851.78
417.4	743.24
417.608	810.82
417.817	804.68
418.025	919.37
418.233	1029.96
418.441	935.75
418.649	935.75
418.857	1079.11
419.065	1099.59
419.273	962.37
419.481	1040.2
419.689	1103.68
419.897	1320.77
420.105	1218.37
420.313	1341.25
420.521	1302.34
420.729	1316.67
420.937	1439.55
421.145	1455.94
421.353	1523.52
421.561	1558.33
421.769	1609.53
421.977	1632.06
422.185	1654.59
422.393	1759.03
422.601	1861.43
422.809	1873.72
423.017	1924.92
423.224	1996.6
423.432	2004.79
423.64	1957.69
423.848	2185.01
424.056	2096.95
424.263	2348.85
424.471	2283.31
424.679	2416.43
424.887	2361.14
425.094	2545.45
425.302	2594.61
425.51	2701.1
425.718	2746.16
425.925	2844.46
426.133	2828.07
426.341	2993.96
426.548	3159.85
426.756	3151.65
426.964	3135.27
427.171	3393.31
427.379	3415.84
427.586	3585.82
427.794	3628.83
428.001	3802.91
428.209	3972.89
428.417	3907.35
428.624	4216.6
428.832	4171.54
429.039	4114.2
429.247	4347.67
429.454	4562.7
429.662	4857.61
429.869	4509.46
430.076	4933.39
430.284	4708.11
430.491	4929.29
430.699	5170.95
430.906	5195.53
431.114	5160.71
431.321	5560.06
431.528	5594.88
431.736	5963.51
431.943	6164.22
432.15	6029.05
432.358	6053.62
432.565	6502.13
432.772	6342.39
432.979	6786.8
433.187	6870.76
433.394	6887.15
433.601	7317.22
433.808	7284.45
434.016	7458.53
434.223	7759.58
434.43	8044.25
434.637	8027.87
434.844	8308.44
435.052	8406.74
435.259	8529.62
435.466	8576.72
435.673	8158.94
435.88	8963.79
436.087	9631.43
436.294	9721.54
436.501	9316.04
436.708	9586.37
436.915	9696.96
437.122	10258.1
437.329	10483.38
437.537	10606.26
437.743	10587.83
437.95	10714.8
438.157	11191.98
438.364	11710.11
438.571	11478.69
438.778	11476.65
438.985	12650.13
439.192	12215.96
439.399	12566.17
439.606	12136.09
439.813	12926.61
440.02	13543.05
440.227	13317.77
440.433	13389.45
440.64	13618.82
440.847	13581.96
441.054	13932.16
441.261	14890.61
441.467	14808.69
441.674	14902.9
441.881	15603.3
442.088	15728.23
442.294	15292.01
442.501	15783.52
442.708	16141.92
442.914	16615
443.121	17387.08
443.328	17047.12
443.534	18208.32
443.741	17667.66
443.948	17311.31
444.154	18562.62
444.361	18232.9
444.568	18597.43
444.774	18622.01
444.981	18767.41
445.187	19379.76
445.394	20352.54
445.6	19871.27
445.807	21872.14
446.013	20991.51
446.22	20977.17
446.426	22199.81
446.633	22312.45
446.839	23252.47
447.046	22322.69
447.252	23410.16
447.459	23467.5
447.665	23324.15
447.871	24139.24
448.078	25296.34
448.284	24305.12
448.491	24905.18
448.697	26047.94
448.903	26369.47
449.11	26148.29
449.316	25867.72
449.522	26494.4
449.728	27135.42
449.935	27481.52
450.141	27411.89
450.347	27575.73
450.553	27145.66
450.76	27590.06
450.966	28558.75
451.172	28186.02
451.378	28949.92
451.584	28323.24
451.791	29011.35
451.997	28933.53
452.203	29367.7
452.409	29402.52
452.615	29322.65
452.821	27805.1
453.027	27801.01
453.233	29582.74
453.44	28245.41
453.646	28644.77
453.852	28585.38
454.058	29234.58
454.264	28482.98
454.47	29308.31
454.676	28319.14
454.882	29255.06
455.088	26639.81
455.294	27215.29
455.5	27434.42
455.705	28130.73
455.911	26822.08
456.117	26277.32
456.323	26303.94
456.529	24688.09
456.735	25841.1
456.941	25202.13
457.147	24905.18
457.352	23883.24
457.558	24014.31
457.764	23862.76
457.97	23215.6
458.176	22869.5
458.381	23004.66
458.587	21865.99
458.793	21812.74
458.999	20608.54
459.204	22261.25
459.41	21620.24
459.616	20203.04
459.821	20018.72
460.027	19969.57
460.233	19641.9
460.438	18462.27
460.644	19125.81
460.85	17989.19
461.055	17935.94
461.261	17970.76
461.466	16526.94
461.672	15738.47
461.878	17161.81
462.083	15754.85
462.289	15527.53
462.494	15625.83
462.7	14898.8
462.905	14534.26
463.111	14915.19
463.316	14876.27
463.522	14458.49
463.727	14481.02
463.932	14696.05
464.138	14360.19
464.343	14491.26
464.549	14169.73
464.754	14554.74
464.959	14257.79
465.165	14233.21
465.37	13659.78
465.575	13366.92
465.781	13938.3
465.986	13821.57
466.191	13567.62
466.397	13112.97
466.602	12596.89
466.807	13080.21
467.012	13117.07
467.218	12934.8
