Data from USB4F104151__207__14-45-23-849.txt Node

Date: Thu Mar 13 14:45:23 EDT 2025
User: louis
Spectrometer: USB4F10415
Trigger mode: 4
Integration Time (sec): 2.000000E-2
Scans to average: 1
Electric dark correction enabled: true
Nonlinearity correction enabled: false
Boxcar width: 0
XAxis mode: Wavelengths
Number of Pixels in Spectrum: 3648
>>>>>Begin Spectral Data<<<<<
178.204	-142.33
178.424	-142.33
178.644	-142.33
178.864	-101.37
179.084	-134.14
179.304	-11.26
179.524	-15.36
179.744	9.22
179.964	-11.26
180.184	-19.46
180.404	39.94
180.624	-29.7
180.844	-1.02
181.064	-11.26
181.283	62.46
181.503	-23.55
181.723	11.26
181.943	25.6
182.163	82.94
182.383	-27.65
182.602	5.12
182.822	52.22
183.042	-1.02
183.262	-15.36
183.482	64.51
183.701	78.85
183.921	7.17
184.141	-33.79
184.361	13.31
184.58	-19.46
184.8	25.6
185.02	41.98
185.239	91.13
185.459	66.56
185.679	9.22
185.898	-41.98
186.118	-3.07
186.338	29.7
186.557	70.65
186.777	56.32
186.997	17.41
187.216	-15.36
187.436	91.13
187.655	41.98
187.875	78.85
188.095	-21.5
188.314	72.7
188.534	52.22
188.753	62.46
188.973	13.31
189.192	134.14
189.412	-23.55
189.631	93.18
189.851	25.6
190.07	164.86
190.29	33.79
190.509	50.18
190.729	58.37
190.948	52.22
191.168	158.72
191.387	82.94
191.607	66.56
191.826	11.26
192.045	-54.27
192.265	33.79
192.484	54.27
192.704	19.46
192.923	-27.65
193.142	74.75
193.362	41.98
193.581	99.33
193.8	58.37
194.02	50.18
194.239	31.74
194.458	-7.17
194.678	-44.03
194.897	19.46
195.116	11.26
195.335	56.32
195.555	39.94
195.774	17.41
195.993	58.37
196.212	-25.6
196.432	-35.84
196.651	27.65
196.87	-21.5
197.089	91.13
197.308	29.7
197.528	46.08
197.747	-7.17
197.966	-44.03
198.185	27.65
198.404	52.22
198.623	-7.17
198.842	35.84
199.062	66.56
199.281	136.19
199.5	-44.03
199.719	27.65
199.938	-44.03
200.157	11.26
200.376	41.98
200.595	54.27
200.814	76.8
201.033	-23.55
201.252	60.42
201.471	-31.74
201.69	23.55
201.909	-3.07
202.128	3.07
202.347	11.26
202.566	11.26
202.785	11.26
203.004	-72.7
203.223	93.18
203.442	-7.17
203.661	58.37
203.879	-23.55
204.098	80.89
204.317	-62.46
204.536	101.37
204.755	46.08
204.974	48.13
205.193	11.26
205.411	62.46
205.63	33.79
205.849	3.07
206.068	31.74
206.287	9.22
206.505	25.6
206.724	46.08
206.943	-15.36
207.162	5.12
207.381	41.98
207.599	58.37
207.818	58.37
208.037	89.09
208.255	128
208.474	33.79
208.693	-7.17
208.911	21.5
209.13	33.79
209.349	46.08
209.567	27.65
209.786	9.22
210.005	9.22
210.223	78.85
210.442	13.31
210.661	101.37
210.879	23.55
211.098	11.26
211.316	60.42
211.535	76.8
211.753	25.6
211.972	25.6
212.191	9.22
212.409	41.98
212.628	50.18
212.846	44.03
213.065	25.6
213.283	95.23
213.502	99.33
213.72	76.8
213.938	17.41
214.157	39.94
214.375	37.89
214.594	5.12
214.812	74.75
215.031	9.22
215.249	56.32
215.467	-13.31
215.686	58.37
215.904	17.41
216.122	-39.94
216.341	-5.12
216.559	70.65
216.778	74.75
216.996	74.75
217.214	3.07
217.432	29.7
217.651	13.31
217.869	-44.03
218.087	-35.84
218.306	17.41
218.524	123.9
218.742	5.12
218.96	41.98
219.179	46.08
219.397	17.41
219.615	82.94
219.833	-1.02
220.051	-21.5
220.27	31.74
220.488	87.04
220.706	41.98
220.924	-13.31
221.142	5.12
221.36	9.22
221.578	31.74
221.796	54.27
222.015	27.65
222.233	-46.08
222.451	41.98
222.669	11.26
222.887	-3.07
223.105	9.22
223.323	11.26
223.541	-62.46
223.759	-3.07
223.977	-21.5
224.195	76.8
224.413	13.31
224.631	-15.36
224.849	74.75
225.067	125.95
225.285	25.6
225.503	-7.17
225.721	-48.13
225.939	74.75
226.157	41.98
226.375	115.71
226.592	27.65
226.81	27.65
227.028	27.65
227.246	27.65
227.464	29.7
227.682	3.07
227.9	33.79
228.117	68.61
228.335	35.84
228.553	-31.74
228.771	107.52
228.989	95.23
229.206	9.22
229.424	82.94
229.642	66.56
229.86	-11.26
230.077	103.42
230.295	41.98
230.513	64.51
230.731	80.89
230.948	91.13
231.166	-41.98
231.384	19.46
231.601	-3.07
231.819	60.42
232.037	41.98
232.254	5.12
232.472	23.55
232.689	9.22
232.907	46.08
233.125	-54.27
233.342	66.56
233.56	25.6
233.777	25.6
233.995	-48.13
234.213	1.02
234.43	-5.12
234.648	-31.74
234.865	29.7
235.083	19.46
235.3	1.02
235.518	25.6
235.735	27.65
235.953	134.14
236.17	-5.12
236.388	-3.07
236.605	37.89
236.822	-5.12
237.04	99.33
237.257	9.22
237.475	33.79
237.692	99.33
237.909	9.22
238.127	27.65
238.344	-39.94
238.562	74.75
238.779	-87.04
238.996	-15.36
239.214	15.36
239.431	84.99
239.648	29.7
239.865	-3.07
240.083	41.98
240.3	3.07
240.517	33.79
240.735	-3.07
240.952	101.37
241.169	5.12
241.386	21.5
241.603	44.03
241.821	37.89
242.038	82.94
242.255	82.94
242.472	1.02
242.689	1.02
242.907	82.94
243.124	37.89
243.341	44.03
243.558	-50.18
243.775	-48.13
243.992	33.79
244.209	58.37
244.426	80.89
244.643	-3.07
244.86	19.46
245.078	35.84
245.295	82.94
245.512	76.8
245.729	-80.89
245.946	11.26
246.163	66.56
246.38	21.5
246.597	9.22
246.814	54.27
247.031	-56.32
247.248	48.13
247.464	111.61
247.681	5.12
247.898	17.41
248.115	44.03
248.332	27.65
248.549	121.85
248.766	95.23
248.983	13.31
249.2	99.33
249.417	91.13
249.633	58.37
249.85	66.56
250.067	-19.46
250.284	13.31
250.501	74.75
250.717	50.18
250.934	-3.07
251.151	17.41
251.368	9.22
251.585	58.37
251.801	9.22
252.018	-15.36
252.235	23.55
252.451	-5.12
252.668	33.79
252.885	70.65
253.102	1.02
253.318	-52.22
253.535	3.07
253.752	44.03
253.968	-15.36
254.185	21.5
254.401	-31.74
254.618	11.26
254.835	52.22
255.051	29.7
255.268	17.41
255.484	-9.22
255.701	29.7
255.917	68.61
256.134	-44.03
256.351	54.27
256.567	-13.31
256.784	35.84
257	1.02
257.217	27.65
257.433	93.18
257.65	19.46
257.866	82.94
258.082	19.46
258.299	25.6
258.515	41.98
258.732	19.46
258.948	54.27
259.165	48.13
259.381	-5.12
259.597	-48.13
259.814	66.56
260.03	60.42
260.246	-37.89
260.463	82.94
260.679	60.42
260.895	-39.94
261.112	58.37
261.328	11.26
261.544	23.55
261.761	50.18
261.977	11.26
262.193	-39.94
262.409	66.56
262.626	7.17
262.842	11.26
263.058	25.6
263.274	21.5
263.49	91.13
263.707	33.79
263.923	17.41
264.139	9.22
264.355	17.41
264.571	29.7
264.787	91.13
265.004	19.46
265.22	5.12
265.436	19.46
265.652	-13.31
265.868	-5.12
266.084	-48.13
266.3	5.12
266.516	-33.79
266.732	56.32
266.948	39.94
267.164	9.22
267.38	78.85
267.596	62.46
267.812	48.13
268.028	7.17
268.244	-21.5
268.46	9.22
268.676	-13.31
268.892	15.36
269.108	37.89
269.324	17.41
269.54	50.18
269.756	82.94
269.972	-5.12
270.188	74.75
270.403	35.84
270.619	99.33
270.835	-35.84
271.051	17.41
271.267	3.07
271.483	74.75
271.698	35.84
271.914	3.07
272.13	19.46
272.346	50.18
272.562	-7.17
272.777	80.89
272.993	1.02
273.209	48.13
273.425	39.94
273.64	-15.36
273.856	25.6
274.072	-11.26
274.287	1.02
274.503	82.94
274.719	5.12
274.934	58.37
275.15	-7.17
275.366	-3.07
275.581	11.26
275.797	19.46
276.012	25.6
276.228	78.85
276.444	19.46
276.659	35.84
276.875	-29.7
277.09	-15.36
277.306	25.6
277.521	29.7
277.737	-17.41
277.952	-52.22
278.168	21.5
278.383	3.07
278.599	-11.26
278.814	82.94
279.03	15.36
279.245	31.74
279.461	17.41
279.676	44.03
279.892	-97.28
280.107	7.17
280.322	17.41
280.538	-15.36
280.753	-23.55
280.969	111.61
281.184	160.77
281.399	-19.46
281.615	25.6
281.83	91.13
282.045	-25.6
282.26	41.98
282.476	33.79
282.691	58.37
282.906	60.42
283.122	-56.32
283.337	-39.94
283.552	27.65
283.767	48.13
283.983	21.5
284.198	68.61
284.413	58.37
284.628	21.5
284.843	60.42
285.058	78.85
285.274	109.57
285.489	33.79
285.704	66.56
285.919	1.02
286.134	41.98
286.349	37.89
286.564	44.03
286.779	91.13
286.995	60.42
287.21	5.12
287.425	91.13
287.64	17.41
287.855	3.07
288.07	76.8
288.285	-62.46
288.5	33.79
288.715	5.12
288.93	11.26
289.145	52.22
289.36	25.6
289.575	-5.12
289.79	13.31
290.004	70.65
290.219	66.56
290.434	-15.36
290.649	25.6
290.864	23.55
291.079	41.98
291.294	52.22
291.509	46.08
291.724	9.22
291.938	-35.84
292.153	50.18
292.368	-29.7
292.583	84.99
292.798	177.15
293.012	33.79
293.227	-41.98
293.442	9.22
293.657	5.12
293.871	39.94
294.086	9.22
294.301	78.85
294.516	50.18
294.73	17.41
294.945	1.02
295.16	44.03
295.374	70.65
295.589	50.18
295.804	66.56
296.018	58.37
296.233	17.41
296.447	44.03
296.662	3.07
296.877	41.98
297.091	56.32
297.306	9.22
297.52	-3.07
297.735	50.18
297.949	52.22
298.164	111.61
298.378	19.46
298.593	9.22
298.807	21.5
299.022	87.04
299.236	17.41
299.451	46.08
299.665	3.07
299.88	11.26
300.094	-29.7
300.309	93.18
300.523	119.81
300.737	33.79
300.952	56.32
301.166	41.98
301.381	41.98
301.595	56.32
301.809	19.46
302.024	41.98
302.238	-17.41
302.452	52.22
302.667	25.6
302.881	103.42
303.095	82.94
303.309	52.22
303.524	-56.32
303.738	121.85
303.952	1.02
304.166	27.65
304.381	-62.46
304.595	68.61
304.809	15.36
305.023	89.09
305.237	9.22
305.452	52.22
305.666	66.56
305.88	58.37
306.094	52.22
306.308	3.07
306.522	62.46
306.736	29.7
306.95	1.02
307.164	64.51
307.379	52.22
307.593	91.13
307.807	25.6
308.021	103.42
308.235	35.84
308.449	23.55
308.663	113.66
308.877	50.18
309.091	62.46
309.305	-13.31
309.519	56.32
309.733	17.41
309.947	-39.94
310.161	74.75
310.374	99.33
310.588	-7.17
310.802	-78.85
311.016	19.46
311.23	35.84
311.444	-31.74
311.658	7.17
311.872	50.18
312.085	95.23
312.299	13.31
312.513	-23.55
312.727	17.41
312.941	46.08
313.154	41.98
313.368	35.84
313.582	25.6
313.796	-48.13
314.009	54.27
314.223	1.02
314.437	70.65
314.651	70.65
314.864	1.02
315.078	66.56
315.292	35.84
315.505	-1.02
315.719	29.7
315.933	25.6
316.146	37.89
316.36	-64.51
316.573	58.37
316.787	-9.22
317.001	72.7
317.214	5.12
317.428	82.94
317.641	1.02
317.855	1.02
318.068	1.02
318.282	95.23
318.495	70.65
318.709	5.12
318.922	-13.31
319.136	-1.02
319.349	60.42
319.563	-25.6
319.776	11.26
319.99	11.26
320.203	25.6
320.417	1.02
320.63	27.65
320.843	76.8
321.057	-41.98
321.27	-7.17
321.483	87.04
321.697	33.79
321.91	17.41
322.124	11.26
322.337	21.5
322.55	-60.42
322.763	64.51
322.977	21.5
323.19	27.65
323.403	31.74
323.617	25.6
323.83	3.07
324.043	68.61
324.256	35.84
324.469	-58.37
324.683	54.27
324.896	27.65
325.109	13.31
325.322	29.7
325.535	35.84
325.748	44.03
325.962	-23.55
326.175	-7.17
326.388	115.71
326.601	91.13
326.814	54.27
327.027	58.37
327.24	95.23
327.453	-62.46
327.666	66.56
327.879	66.56
328.092	25.6
328.305	-11.26
328.518	17.41
328.731	-17.41
328.944	-13.31
329.157	60.42
329.37	-31.74
329.583	13.31
329.796	54.27
330.009	-21.5
330.222	128
330.435	50.18
330.648	11.26
330.861	19.46
331.073	25.6
331.286	48.13
331.499	60.42
331.712	13.31
331.925	35.84
332.138	37.89
332.35	74.75
332.563	39.94
332.776	50.18
332.989	33.79
333.202	46.08
333.414	29.7
333.627	41.98
333.84	62.46
334.053	29.7
334.265	-3.07
334.478	29.7
334.691	-15.36
334.903	11.26
335.116	-29.7
335.329	58.37
335.541	37.89
335.754	74.75
335.966	33.79
336.179	17.41
336.392	33.79
336.604	-7.17
336.817	62.46
337.029	37.89
337.242	109.57
337.454	52.22
337.667	17.41
337.88	62.46
338.092	17.41
338.305	84.99
338.517	19.46
338.729	68.61
338.942	62.46
339.154	-7.17
339.367	-5.12
339.579	46.08
339.792	15.36
340.004	19.46
340.217	21.5
340.429	52.22
340.641	-11.26
340.854	74.75
341.066	35.84
341.278	142.33
341.491	84.99
341.703	58.37
341.915	-11.26
342.128	21.5
342.34	54.27
342.552	76.8
342.764	46.08
342.977	68.61
343.189	-48.13
343.401	52.22
343.613	13.31
343.826	25.6
344.038	78.85
344.25	74.75
344.462	29.7
344.674	25.6
344.886	48.13
345.099	-27.65
345.311	76.8
345.523	66.56
345.735	29.7
345.947	74.75
346.159	48.13
346.371	25.6
346.583	-29.7
346.795	109.57
347.007	37.89
347.219	72.7
347.431	-19.46
347.643	52.22
347.855	-33.79
348.067	93.18
348.279	21.5
348.491	19.46
348.703	91.13
348.915	62.46
349.127	17.41
349.339	-39.94
349.551	58.37
349.763	91.13
349.975	-7.17
350.187	50.18
350.399	123.9
350.61	74.75
350.822	7.17
351.034	-27.65
351.246	109.57
351.458	29.7
351.669	15.36
351.881	68.61
352.093	54.27
352.305	33.79
352.517	91.13
352.728	58.37
352.94	35.84
353.152	82.94
353.363	74.75
353.575	37.89
353.787	109.57
353.999	105.47
354.21	68.61
354.422	52.22
354.633	50.18
354.845	21.5
355.057	60.42
355.268	78.85
355.48	17.41
355.692	1.02
355.903	5.12
356.115	-9.22
356.326	9.22
356.538	140.29
356.749	33.79
356.961	117.76
357.172	19.46
357.384	-11.26
357.595	66.56
357.807	70.65
358.018	11.26
358.23	76.8
358.441	58.37
358.653	115.71
358.864	48.13
359.075	121.85
359.287	41.98
359.498	58.37
359.709	17.41
359.921	11.26
360.132	82.94
360.344	107.52
360.555	29.7
360.766	-27.65
360.977	-44.03
361.189	113.66
361.4	19.46
361.611	117.76
361.823	29.7
362.034	103.42
362.245	50.18
362.456	58.37
362.667	1.02
362.879	17.41
363.09	37.89
363.301	56.32
363.512	25.6
363.723	-72.7
363.935	64.51
364.146	115.71
364.357	99.33
364.568	-11.26
364.779	33.79
364.99	74.75
365.201	-60.42
365.412	-5.12
365.623	-46.08
365.834	58.37
366.045	60.42
366.256	-23.55
366.467	25.6
366.678	-7.17
366.889	107.52
367.1	60.42
367.311	37.89
367.522	103.42
367.733	66.56
367.944	46.08
368.155	25.6
368.366	60.42
368.577	35.84
368.788	11.26
368.999	-5.12
369.209	33.79
369.42	99.33
369.631	74.75
369.842	37.89
370.053	-27.65
370.264	78.85
370.474	-3.07
370.685	50.18
370.896	-29.7
371.107	109.57
371.317	52.22
371.528	46.08
371.739	62.46
371.95	50.18
372.16	87.04
372.371	11.26
372.582	37.89
372.792	41.98
373.003	93.18
373.214	74.75
373.424	66.56
373.635	-56.32
373.846	52.22
374.056	33.79
374.267	33.79
374.477	111.61
374.688	17.41
374.898	68.61
375.109	41.98
375.319	19.46
375.53	76.8
375.74	25.6
375.951	-35.84
376.161	1.02
376.372	115.71
376.582	1.02
376.793	19.46
377.003	123.9
377.214	21.5
377.424	60.42
377.635	-15.36
377.845	50.18
378.055	101.37
378.266	1.02
378.476	41.98
378.686	68.61
378.897	46.08
379.107	64.51
379.317	41.98
379.528	66.56
379.738	84.99
379.948	35.84
380.158	76.8
380.369	82.94
380.579	95.23
380.789	-7.17
380.999	37.89
381.21	13.31
381.42	132.09
381.63	52.22
381.84	17.41
382.05	74.75
382.261	111.61
382.471	29.7
382.681	29.7
382.891	-35.84
383.101	171.01
383.311	58.37
383.521	1.02
383.731	-15.36
383.941	119.81
384.151	78.85
384.361	19.46
384.571	33.79
384.781	1.02
384.991	95.23
385.201	50.18
385.411	19.46
385.621	29.7
385.831	-19.46
386.041	44.03
386.251	3.07
386.461	62.46
386.671	72.7
386.881	15.36
387.091	66.56
387.301	76.8
387.511	44.03
387.72	41.98
387.93	11.26
388.14	41.98
388.35	33.79
388.56	142.33
388.769	101.37
388.979	3.07
389.189	37.89
389.399	9.22
389.609	93.18
389.818	54.27
390.028	62.46
390.238	27.65
390.447	31.74
390.657	91.13
390.867	70.65
391.076	-35.84
391.286	-23.55
391.496	74.75
391.705	56.32
391.915	132.09
392.125	117.76
392.334	46.08
392.544	44.03
392.753	21.5
392.963	115.71
393.172	50.18
393.382	7.17
393.591	181.25
393.801	99.33
394.01	89.09
394.22	119.81
394.429	1.02
394.639	60.42
394.848	39.94
395.058	107.52
395.267	76.8
395.477	25.6
395.686	101.37
395.895	128
396.105	142.33
396.314	33.79
396.524	9.22
396.733	3.07
396.942	101.37
397.152	54.27
397.361	107.52
397.57	128
397.78	146.43
397.989	103.42
398.198	33.79
398.407	66.56
398.617	33.79
398.826	60.42
399.035	91.13
399.244	142.33
399.453	107.52
399.663	9.22
399.872	115.71
400.081	74.75
400.29	111.61
400.499	115.71
400.708	107.52
400.917	78.85
401.127	70.65
401.336	91.13
401.545	132.09
401.754	58.37
401.963	132.09
402.172	132.09
402.381	132.09
402.59	123.9
402.799	103.42
403.008	76.8
403.217	109.57
403.426	66.56
403.635	58.37
403.844	68.61
404.053	150.53
404.262	41.98
404.471	191.49
404.68	78.85
404.888	123.9
405.097	46.08
405.306	82.94
405.515	203.77
405.724	148.48
405.933	164.86
406.142	97.28
406.35	125.95
406.559	99.33
406.768	164.86
406.977	150.53
407.185	246.78
407.394	142.33
407.603	185.34
407.812	228.35
408.02	105.47
408.229	183.29
408.438	185.34
408.646	191.49
408.855	187.39
409.064	183.29
409.272	224.25
409.481	271.36
409.69	244.73
409.898	242.68
410.107	220.16
410.315	248.83
410.524	320.51
410.733	285.69
410.941	359.42
411.15	320.51
411.358	394.23
411.567	345.08
411.775	351.23
411.984	287.74
412.192	437.24
412.401	328.7
412.609	453.63
412.818	361.47
413.026	373.75
413.234	427
413.443	418.81
413.651	476.15
413.86	386.04
414.068	519.16
414.276	537.59
414.485	517.11
414.693	570.36
414.901	599.03
415.11	500.73
415.318	447.48
415.526	562.17
415.734	637.94
415.943	666.61
416.151	633.85
416.359	678.9
416.567	683
416.776	740.34
416.984	795.64
417.192	781.3
417.4	803.83
417.608	809.97
417.817	844.79
418.025	926.71
418.233	932.85
418.441	906.23
418.649	979.95
418.857	959.47
419.065	1049.58
419.273	984.05
419.481	1031.15
419.689	1127.41
419.897	1082.35
420.105	1215.47
420.313	1219.57
420.521	1287.15
420.729	1319.92
420.937	1301.48
421.145	1393.64
421.353	1446.89
421.561	1516.52
421.769	1500.14
421.977	1709.03
422.185	1623.02
422.393	1745.89
422.601	1793
422.809	1688.55
423.017	1868.77
423.224	2059.23
423.432	1946.59
423.64	2003.94
423.848	2229.21
424.056	2190.3
424.263	2384.86
424.471	2255.84
424.679	2309.08
424.887	2448.35
425.094	2495.45
425.302	2589.66
425.51	2601.94
425.718	2788.31
425.925	2778.07
426.133	2859.99
426.341	2954.19
426.548	3001.3
426.756	3068.88
426.964	3220.43
427.171	3320.78
427.379	3437.52
427.586	3369.93
427.794	3576.78
428.001	3668.94
428.209	3828.68
428.417	3861.45
428.624	4092.87
428.832	4129.73
429.039	4105.15
429.247	4072.39
429.454	4404.16
429.662	4715.45
429.869	4436.92
430.076	4801.46
430.284	4598.71
430.491	4772.79
430.699	5137.33
430.906	5022.64
431.114	5241.78
431.321	5411.76
431.528	5510.06
431.736	5798.82
431.943	5987.24
432.15	5950.37
432.358	6128.55
432.565	6366.11
432.772	6259.62
432.979	6710.17
433.187	6824.86
433.394	6687.64
433.601	7136.15
433.808	7236.5
434.016	7222.16
434.223	7502.73
434.43	7877.51
434.637	7619.47
434.844	8035.21
435.052	8561.53
435.259	8207.23
435.466	8577.92
435.673	8219.52
435.88	8823.67
436.087	9284.47
436.294	9169.78
436.501	9208.69
436.708	9464.69
436.915	9540.46
437.122	9982.82
437.329	9917.29
437.537	10345.31
437.743	10457.95
437.95	10341.22
438.157	10974.04
438.364	11242.32
438.571	11129.69
438.778	11182.93
438.985	12270.4
439.192	12055.37
439.399	12165.96
439.606	11737.93
439.813	12919.61
440.02	13470.51
440.227	13202.23
440.433	13298.49
440.64	13511.47
440.847	13353.78
441.054	13880.11
441.261	14529.31
441.467	14209.83
441.674	14797.6
441.881	15196.95
442.088	15287.06
442.294	15033.11
442.501	15317.78
442.708	15682.32
442.914	16229.13
443.121	17062.65
443.328	16685.83
443.534	17894.13
443.741	17226.49
443.948	17081.08
444.154	18234.09
444.361	18115.31
444.568	18258.67
444.774	18260.71
444.981	18543.33
445.187	18942.69
445.394	19972.82
445.6	19595.99
445.807	21570.23
446.013	20540.1
446.22	20826.82
446.426	21416.63
446.633	21957.3
446.839	22721.19
447.046	21607.09
447.252	23114.4
447.459	22985.38
447.665	22815.4
447.871	23927.44
448.078	24812.17
448.284	23560.86
448.491	24228.49
448.697	25105.02
448.903	26024.56
449.11	26045.04
449.316	25549.43
449.522	25879.16
449.728	26591.85
449.935	26884.71
450.141	26815.08
450.347	27325.02
450.553	26864.23
450.76	27073.12
450.966	27720.28
451.172	27574.88
451.378	28346.96
451.584	27765.34
451.791	28351.06
451.997	28174.93
452.203	28928.58
452.409	29033.03
452.615	28605
452.821	27632.22
453.027	27349.6
453.233	28832.33
453.44	27585.12
453.646	28183.12
453.852	27906.65
454.058	28482.13
454.264	27585.12
454.47	28297.81
454.676	27720.28
454.882	28588.62
455.088	26090.1
455.294	26536.56
455.5	27226.72
455.705	27296.35
455.911	26169.97
456.117	25713.27
456.323	25363.07
456.529	24113.81
456.735	25115.26
456.941	24431.24
457.147	24013.46
457.352	23411.35
457.558	22850.21
457.764	23175.84
457.97	22895.27
458.176	22647.46
458.381	22020.78
458.587	21015.23
458.793	21236.41
458.999	20126.41
459.204	21727.92
459.41	21125.82
459.616	19552.98
459.821	19860.18
460.027	19509.97
460.233	19268.31
460.438	18313.96
460.644	18496.23
460.85	17464.05
461.055	17423.09
461.261	17079.04
461.466	16249.61
461.672	15485.72
461.878	16759.55
462.083	15459.09
462.289	15356.69
462.494	15102.75
462.7	14590.75
462.905	14236.45
463.111	14621.47
463.316	14605.09
463.522	14205.74
463.727	14357.28
463.932	14146.34
464.138	14435.11
464.343	14215.98
464.549	13929.26
464.754	14222.12
464.959	14005.03
465.165	14095.14
465.37	13452.08
465.575	13042.49
465.781	13507.38
465.986	13601.58
466.191	13159.22
466.397	12735.29
466.602	12454.72
466.807	12663.61
467.012	12665.66
467.218	12649.28
467.423	12524.35
467.628	12542.78
467.833	13079.35
468.038	12682.05
468.244	12348.23
