Data from USB4F104151__83__14-43-28-456.txt Node

Date: Thu Mar 13 14:43:28 EDT 2025
User: louis
Spectrometer: USB4F10415
Trigger mode: 4
Integration Time (sec): 2.000000E-2
Scans to average: 1
Electric dark correction enabled: true
Nonlinearity correction enabled: false
Boxcar width: 0
XAxis mode: Wavelengths
Number of Pixels in Spectrum: 3648
>>>>>Begin Spectral Data<<<<<
178.204	-152.57
178.424	-152.57
178.644	-152.57
178.864	-111.61
179.084	-119.81
179.304	-23.55
179.524	9.22
179.744	-19.46
179.964	50.18
180.184	-7.17
180.404	-27.65
180.624	-31.74
180.844	11.26
181.064	-39.94
181.283	19.46
181.503	9.22
181.723	50.18
181.943	-119.81
182.163	70.65
182.383	-11.26
182.602	13.31
182.822	97.28
183.042	11.26
183.262	-89.09
183.482	-5.12
183.701	25.6
183.921	35.84
184.141	27.65
184.361	56.32
184.58	-7.17
184.8	54.27
185.02	3.07
185.239	35.84
185.459	25.6
185.679	21.5
185.898	-27.65
186.118	33.79
186.338	91.13
186.557	-23.55
186.777	35.84
186.997	33.79
187.216	-39.94
187.436	119.81
187.655	9.22
187.875	87.04
188.095	-5.12
188.314	58.37
188.534	99.33
188.753	-11.26
188.973	62.46
189.192	50.18
189.412	33.79
189.631	19.46
189.851	11.26
190.07	87.04
190.29	5.12
190.509	25.6
190.729	-7.17
190.948	-27.65
191.168	113.66
191.387	29.7
191.607	109.57
191.826	-19.46
192.045	25.6
192.265	37.89
192.484	-54.27
192.704	-48.13
192.923	3.07
193.142	50.18
193.362	50.18
193.581	78.85
193.8	-50.18
194.02	62.46
194.239	-46.08
194.458	19.46
194.678	-13.31
194.897	-21.5
195.116	29.7
195.335	52.22
195.555	-39.94
195.774	35.84
195.993	23.55
196.212	70.65
196.432	-5.12
196.651	35.84
196.87	-15.36
197.089	103.42
197.308	-27.65
197.528	33.79
197.747	33.79
197.966	-39.94
198.185	84.99
198.404	-27.65
198.623	97.28
198.842	66.56
199.062	-31.74
199.281	62.46
199.5	11.26
199.719	62.46
199.938	-19.46
200.157	41.98
200.376	87.04
200.595	27.65
200.814	-17.41
201.033	-31.74
201.252	1.02
201.471	82.94
201.69	7.17
201.909	58.37
202.128	-17.41
202.347	37.89
202.566	17.41
202.785	-21.5
203.004	-15.36
203.223	35.84
203.442	62.46
203.661	3.07
203.879	87.04
204.098	-35.84
204.317	25.6
204.536	113.66
204.755	-39.94
204.974	-9.22
205.193	19.46
205.411	132.09
205.63	37.89
205.849	35.84
206.068	-7.17
206.287	35.84
206.505	60.42
206.724	-19.46
206.943	15.36
207.162	-15.36
207.381	-7.17
207.599	68.61
207.818	13.31
208.037	50.18
208.255	-11.26
208.474	-11.26
208.693	25.6
208.911	17.41
209.13	7.17
209.349	58.37
209.567	29.7
209.786	130.05
210.005	-7.17
210.223	-39.94
210.442	-15.36
210.661	17.41
210.879	-15.36
211.098	25.6
211.316	50.18
211.535	115.71
211.753	-7.17
211.972	-15.36
212.191	23.55
212.409	1.02
212.628	1.02
212.846	-37.89
213.065	-7.17
213.283	9.22
213.502	41.98
213.72	17.41
213.938	-23.55
214.157	41.98
214.375	35.84
214.594	-39.94
214.812	37.89
215.031	3.07
215.249	33.79
215.467	37.89
215.686	109.57
215.904	5.12
216.122	-33.79
216.341	-31.74
216.559	37.89
216.778	-1.02
216.996	99.33
217.214	-44.03
217.432	29.7
217.651	-3.07
217.869	-48.13
218.087	-11.26
218.306	1.02
218.524	17.41
218.742	46.08
218.96	82.94
219.179	-3.07
219.397	35.84
219.615	33.79
219.833	54.27
220.051	9.22
220.27	-21.5
220.488	115.71
220.706	66.56
220.924	-70.65
221.142	44.03
221.36	27.65
221.578	29.7
221.796	-7.17
222.015	-39.94
222.233	3.07
222.451	115.71
222.669	11.26
222.887	50.18
223.105	17.41
223.323	37.89
223.541	19.46
223.759	41.98
223.977	-9.22
224.195	60.42
224.413	44.03
224.631	9.22
224.849	-52.22
225.067	66.56
225.285	-35.84
225.503	-15.36
225.721	-39.94
225.939	95.23
226.157	19.46
226.375	123.9
226.592	-9.22
226.81	37.89
227.028	66.56
227.246	87.04
227.464	9.22
227.682	19.46
227.9	60.42
228.117	46.08
228.335	97.28
228.553	-27.65
228.771	-13.31
228.989	58.37
229.206	-7.17
229.424	9.22
229.642	41.98
229.86	41.98
230.077	27.65
230.295	109.57
230.513	33.79
230.731	41.98
230.948	56.32
231.166	68.61
231.384	39.94
231.601	17.41
231.819	21.5
232.037	62.46
232.254	-54.27
232.472	35.84
232.689	37.89
232.907	107.52
233.125	15.36
233.342	3.07
233.56	-23.55
233.777	50.18
233.995	17.41
234.213	-13.31
234.43	41.98
234.648	9.22
234.865	-29.7
235.083	29.7
235.3	66.56
235.518	50.18
235.735	-19.46
235.953	44.03
236.17	-13.31
236.388	72.7
236.605	58.37
236.822	101.37
237.04	-13.31
237.257	66.56
237.475	101.37
237.692	-23.55
237.909	25.6
238.127	-23.55
238.344	-23.55
238.562	44.03
238.779	-93.18
238.996	17.41
239.214	64.51
239.431	70.65
239.648	11.26
239.865	115.71
240.083	-5.12
240.3	-13.31
240.517	35.84
240.735	-39.94
240.952	-3.07
241.169	35.84
241.386	-23.55
241.603	105.47
241.821	3.07
242.038	27.65
242.255	-23.55
242.472	-7.17
242.689	44.03
242.907	103.42
243.124	44.03
243.341	44.03
243.558	29.7
243.775	-5.12
243.992	54.27
244.209	60.42
244.426	-35.84
244.643	37.89
244.86	-41.98
245.078	31.74
245.295	39.94
245.512	-3.07
245.729	-62.46
245.946	70.65
246.163	-7.17
246.38	66.56
246.597	62.46
246.814	-29.7
247.031	19.46
247.248	60.42
247.464	33.79
247.681	13.31
247.898	21.5
248.115	46.08
248.332	3.07
248.549	9.22
248.766	25.6
248.983	21.5
249.2	17.41
249.417	37.89
249.633	-29.7
249.85	27.65
250.067	1.02
250.284	-11.26
250.501	-11.26
250.717	-5.12
250.934	21.5
251.151	54.27
251.368	21.5
251.585	3.07
251.801	-1.02
252.018	-60.42
252.235	33.79
252.451	-5.12
252.668	-39.94
252.885	109.57
253.102	50.18
253.318	68.61
253.535	66.56
253.752	-15.36
253.968	21.5
254.185	9.22
254.401	80.89
254.618	52.22
254.835	-39.94
255.051	74.75
255.268	-29.7
255.484	44.03
255.701	33.79
255.917	52.22
256.134	-3.07
256.351	27.65
256.567	-33.79
256.784	25.6
257	-15.36
257.217	-46.08
257.433	76.8
257.65	37.89
257.866	33.79
258.082	19.46
258.299	60.42
258.515	33.79
258.732	5.12
258.948	5.12
259.165	1.02
259.381	35.84
259.597	80.89
259.814	-7.17
260.03	-13.31
260.246	35.84
260.463	91.13
260.679	9.22
260.895	58.37
261.112	33.79
261.328	-23.55
261.544	-13.31
261.761	62.46
261.977	-7.17
262.193	17.41
262.409	39.94
262.626	84.99
262.842	82.94
263.058	68.61
263.274	58.37
263.49	74.75
263.707	25.6
263.923	-15.36
264.139	-11.26
264.355	56.32
264.571	111.61
264.787	58.37
265.004	-44.03
265.22	-39.94
265.436	25.6
265.652	-21.5
265.868	-13.31
266.084	1.02
266.3	-74.75
266.516	-5.12
266.732	1.02
266.948	54.27
267.164	39.94
267.38	5.12
267.596	41.98
267.812	123.9
268.028	50.18
268.244	-76.8
268.46	68.61
268.676	33.79
268.892	-29.7
269.108	-29.7
269.324	-35.84
269.54	-48.13
269.756	68.61
269.972	-39.94
270.188	33.79
270.403	31.74
270.619	-37.89
270.835	39.94
271.051	25.6
271.267	1.02
271.483	13.31
271.698	29.7
271.914	25.6
272.13	19.46
272.346	1.02
272.562	29.7
272.777	25.6
272.993	5.12
273.209	58.37
273.425	-39.94
273.64	-3.07
273.856	48.13
274.072	17.41
274.287	60.42
274.503	-31.74
274.719	21.5
274.934	35.84
275.15	-33.79
275.366	19.46
275.581	-87.04
275.797	-5.12
276.012	-5.12
276.228	66.56
276.444	44.03
276.659	84.99
276.875	11.26
277.09	37.89
277.306	-7.17
277.521	50.18
277.737	7.17
277.952	52.22
278.168	-23.55
278.383	3.07
278.599	41.98
278.814	25.6
279.03	-1.02
279.245	99.33
279.461	39.94
279.676	99.33
279.892	-19.46
280.107	99.33
280.322	3.07
280.538	-3.07
280.753	17.41
280.969	-37.89
281.184	62.46
281.399	72.7
281.615	-21.5
281.83	25.6
282.045	-21.5
282.26	-70.65
282.476	41.98
282.691	140.29
282.906	-15.36
283.122	66.56
283.337	44.03
283.552	68.61
283.767	-5.12
283.983	70.65
284.198	46.08
284.413	70.65
284.628	-27.65
284.843	35.84
285.058	-7.17
285.274	-35.84
285.489	-21.5
285.704	27.65
285.919	44.03
286.134	52.22
286.349	-17.41
286.564	-31.74
286.779	25.6
286.995	128
287.21	-19.46
287.425	46.08
287.64	3.07
287.855	50.18
288.07	-7.17
288.285	58.37
288.5	78.85
288.715	50.18
288.93	1.02
289.145	-5.12
289.36	101.37
289.575	89.09
289.79	9.22
290.004	7.17
290.219	19.46
290.434	31.74
290.649	-35.84
290.864	-52.22
291.079	66.56
291.294	41.98
291.509	29.7
291.724	-15.36
291.938	66.56
292.153	37.89
292.368	-13.31
292.583	-54.27
292.798	25.6
293.012	87.04
293.227	-23.55
293.442	62.46
293.657	33.79
293.871	56.32
294.086	76.8
294.301	93.18
294.516	33.79
294.73	17.41
294.945	-23.55
295.16	74.75
295.374	87.04
295.589	37.89
295.804	13.31
296.018	-7.17
296.233	60.42
296.447	13.31
296.662	-31.74
296.877	58.37
297.091	19.46
297.306	1.02
297.52	-64.51
297.735	76.8
297.949	25.6
298.164	13.31
298.378	-19.46
298.593	-21.5
298.807	-58.37
299.022	68.61
299.236	37.89
299.451	74.75
299.665	-60.42
299.88	58.37
300.094	-39.94
300.309	78.85
300.523	-15.36
300.737	66.56
300.952	62.46
301.166	87.04
301.381	-9.22
301.595	58.37
301.809	66.56
302.024	25.6
302.238	9.22
302.452	44.03
302.667	-35.84
302.881	99.33
303.095	17.41
303.309	52.22
303.524	35.84
303.738	87.04
303.952	1.02
304.166	72.7
304.381	-56.32
304.595	52.22
304.809	52.22
305.023	33.79
305.237	-9.22
305.452	41.98
305.666	60.42
305.88	70.65
306.094	37.89
306.308	-39.94
306.522	50.18
306.736	-23.55
306.95	84.99
307.164	-7.17
307.379	-35.84
307.593	62.46
307.807	99.33
308.021	29.7
308.235	-9.22
308.449	33.79
308.663	70.65
308.877	25.6
309.091	3.07
309.305	62.46
309.519	-39.94
309.733	50.18
309.947	-29.7
310.161	103.42
310.374	93.18
310.588	82.94
310.802	-80.89
311.016	31.74
311.23	58.37
311.444	-19.46
311.658	-29.7
311.872	52.22
312.085	9.22
312.299	35.84
312.513	78.85
312.727	41.98
312.941	39.94
313.154	62.46
313.368	-15.36
313.582	58.37
313.796	54.27
314.009	3.07
314.223	99.33
314.437	19.46
314.651	33.79
314.864	25.6
315.078	7.17
315.292	25.6
315.505	-9.22
315.719	33.79
315.933	-19.46
316.146	93.18
316.36	-44.03
316.573	70.65
316.787	50.18
317.001	107.52
317.214	21.5
317.428	41.98
317.641	-46.08
317.855	33.79
318.068	72.7
318.282	41.98
318.495	-7.17
318.709	39.94
318.922	82.94
319.136	44.03
319.349	17.41
319.563	27.65
319.776	33.79
319.99	97.28
320.203	68.61
320.417	99.33
320.63	107.52
320.843	41.98
321.057	84.99
321.27	44.03
321.483	44.03
321.697	25.6
321.91	33.79
322.124	-27.65
322.337	68.61
322.55	17.41
322.763	-31.74
322.977	52.22
323.19	68.61
323.403	58.37
323.617	37.89
323.83	35.84
324.043	74.75
324.256	25.6
324.469	1.02
324.683	72.7
324.896	39.94
325.109	-7.17
325.322	-64.51
325.535	91.13
325.748	41.98
325.962	9.22
326.175	35.84
326.388	1.02
326.601	109.57
326.814	-23.55
327.027	25.6
327.24	109.57
327.453	33.79
327.666	21.5
327.879	87.04
328.092	87.04
328.305	17.41
328.518	3.07
328.731	-19.46
328.944	44.03
329.157	66.56
329.37	-9.22
329.583	37.89
329.796	41.98
330.009	-23.55
330.222	109.57
330.435	76.8
330.648	-11.26
330.861	80.89
331.073	50.18
331.286	35.84
331.499	-11.26
331.712	-39.94
331.925	99.33
332.138	62.46
332.35	54.27
332.563	-13.31
332.776	74.75
332.989	-56.32
333.202	19.46
333.414	91.13
333.627	11.26
333.84	27.65
334.053	78.85
334.265	-23.55
334.478	37.89
334.691	17.41
334.903	41.98
335.116	11.26
335.329	-15.36
335.541	21.5
335.754	19.46
335.966	89.09
336.179	17.41
336.392	-1.02
336.604	21.5
336.817	-13.31
337.029	25.6
337.242	44.03
337.454	9.22
337.667	-13.31
337.88	164.86
338.092	95.23
338.305	44.03
338.517	-7.17
338.729	33.79
338.942	-5.12
339.154	82.94
339.367	7.17
339.579	50.18
339.792	54.27
340.004	58.37
340.217	21.5
340.429	58.37
340.641	-11.26
340.854	44.03
341.066	-1.02
341.278	1.02
341.491	123.9
341.703	-7.17
341.915	-21.5
342.128	52.22
342.34	72.7
342.552	1.02
342.764	31.74
342.977	25.6
343.189	48.13
343.401	54.27
343.613	50.18
343.826	-21.5
344.038	50.18
344.25	35.84
344.462	-23.55
344.674	21.5
344.886	-23.55
345.099	66.56
345.311	-7.17
345.523	58.37
345.735	-60.42
345.947	37.89
346.159	58.37
346.371	27.65
346.583	15.36
346.795	50.18
347.007	39.94
347.219	44.03
347.431	41.98
347.643	-11.26
347.855	-11.26
348.067	76.8
348.279	-9.22
348.491	-1.02
348.703	23.55
348.915	9.22
349.127	-13.31
349.339	-31.74
349.551	-44.03
349.763	-5.12
349.975	13.31
350.187	82.94
350.399	82.94
350.61	44.03
350.822	-15.36
351.034	50.18
351.246	41.98
351.458	37.89
351.669	70.65
351.881	50.18
352.093	93.18
352.305	17.41
352.517	13.31
352.728	91.13
352.94	-39.94
353.152	66.56
353.363	-37.89
353.575	74.75
353.787	78.85
353.999	50.18
354.21	35.84
354.422	164.86
354.633	-5.12
354.845	-23.55
355.057	58.37
355.268	-21.5
355.48	70.65
355.692	5.12
355.903	37.89
356.115	31.74
356.326	-19.46
356.538	128
356.749	68.61
356.961	74.75
357.172	5.12
357.384	-35.84
357.595	62.46
357.807	66.56
358.018	29.7
358.23	91.13
358.441	97.28
358.653	76.8
358.864	52.22
359.075	41.98
359.287	46.08
359.498	13.31
359.709	62.46
359.921	44.03
360.132	39.94
360.344	11.26
360.555	-31.74
360.766	46.08
360.977	13.31
361.189	113.66
361.4	33.79
361.611	27.65
361.823	-3.07
362.034	21.5
362.245	-56.32
362.456	-19.46
362.667	1.02
362.879	25.6
363.09	60.42
363.301	58.37
363.512	21.5
363.723	21.5
363.935	-37.89
364.146	11.26
364.357	17.41
364.568	41.98
364.779	-11.26
364.99	58.37
365.201	-7.17
365.412	99.33
365.623	-15.36
365.834	27.65
366.045	93.18
366.256	23.55
366.467	76.8
366.678	27.65
366.889	46.08
367.1	29.7
367.311	1.02
367.522	46.08
367.733	35.84
367.944	-11.26
368.155	-25.6
368.366	107.52
368.577	74.75
368.788	82.94
368.999	41.98
369.209	35.84
369.42	91.13
369.631	125.95
369.842	41.98
370.053	70.65
370.264	1.02
370.474	27.65
370.685	54.27
370.896	33.79
371.107	82.94
371.317	33.79
371.528	25.6
371.739	41.98
371.95	9.22
372.16	52.22
372.371	-23.55
372.582	-31.74
372.792	19.46
373.003	35.84
373.214	115.71
373.424	44.03
373.635	-35.84
373.846	138.24
374.056	-39.94
374.267	23.55
374.477	56.32
374.688	60.42
374.898	19.46
375.109	115.71
375.319	50.18
375.53	107.52
375.74	33.79
375.951	-48.13
376.161	1.02
376.372	35.84
376.582	15.36
376.793	41.98
377.003	5.12
377.214	37.89
377.424	1.02
377.635	103.42
377.845	-3.07
378.055	25.6
378.266	-41.98
378.476	84.99
378.686	9.22
378.897	15.36
379.107	-25.6
379.317	-19.46
379.528	46.08
379.738	66.56
379.948	44.03
380.158	78.85
380.369	50.18
380.579	-1.02
380.789	-21.5
380.999	74.75
381.21	74.75
381.42	37.89
381.63	33.79
381.84	78.85
382.05	46.08
382.261	134.14
382.471	13.31
382.681	23.55
382.891	78.85
383.101	17.41
383.311	9.22
383.521	7.17
383.731	171.01
383.941	56.32
384.151	11.26
384.361	134.14
384.571	23.55
384.781	99.33
384.991	99.33
385.201	74.75
385.411	95.23
385.621	31.74
385.831	23.55
386.041	70.65
386.251	66.56
386.461	84.99
386.671	62.46
386.881	52.22
387.091	31.74
387.301	56.32
387.511	115.71
387.72	50.18
387.93	27.65
388.14	5.12
388.35	23.55
388.56	78.85
388.769	39.94
388.979	76.8
389.189	37.89
389.399	9.22
389.609	50.18
389.818	60.42
390.028	60.42
390.238	35.84
390.447	-15.36
390.657	60.42
390.867	41.98
391.076	44.03
391.286	115.71
391.496	76.8
391.705	-5.12
391.915	78.85
392.125	84.99
392.334	76.8
392.544	52.22
392.753	107.52
392.963	60.42
393.172	66.56
393.382	11.26
393.591	107.52
393.801	25.6
394.01	109.57
394.22	58.37
394.429	66.56
394.639	33.79
394.848	91.13
395.058	74.75
395.267	136.19
395.477	107.52
395.686	156.67
395.895	152.57
396.105	164.86
396.314	84.99
396.524	82.94
396.733	21.5
396.942	152.57
397.152	72.7
397.361	117.76
397.57	173.05
397.78	84.99
397.989	99.33
398.198	64.51
398.407	99.33
398.617	11.26
398.826	68.61
399.035	205.82
399.244	171.01
399.453	62.46
399.663	152.57
399.872	82.94
400.081	72.7
400.29	82.94
400.499	99.33
400.708	150.53
400.917	35.84
401.127	125.95
401.336	93.18
401.545	197.63
401.754	125.95
401.963	82.94
402.172	27.65
402.381	175.1
402.59	50.18
402.799	82.94
403.008	41.98
403.217	76.8
403.426	68.61
403.635	74.75
403.844	66.56
404.053	99.33
404.262	95.23
404.471	119.81
404.68	152.57
404.888	132.09
405.097	87.04
405.306	179.2
405.515	107.52
405.724	144.38
405.933	117.76
406.142	150.53
406.35	130.05
406.559	224.25
406.768	152.57
406.977	205.82
407.185	156.67
407.394	257.02
407.603	164.86
407.812	257.02
408.02	224.25
408.229	128
408.438	263.16
408.646	201.72
408.855	207.87
409.064	158.72
409.272	220.16
409.481	320.51
409.69	254.97
409.898	254.97
410.107	230.4
410.315	250.88
410.524	222.2
410.733	324.6
410.941	306.17
411.15	347.13
411.358	322.56
411.567	328.7
411.775	422.91
411.984	451.58
412.192	398.33
412.401	500.73
412.609	371.71
412.818	470.01
413.026	498.68
413.234	439.29
413.443	429.05
413.651	470.01
413.86	484.34
414.068	646.13
414.276	480.25
414.485	541.69
414.693	619.51
414.901	623.61
415.11	697.33
415.318	586.74
415.526	578.55
415.734	734.2
415.943	750.58
416.151	801.78
416.359	793.59
416.567	754.68
416.776	809.97
416.984	836.6
417.192	873.46
417.4	789.49
417.608	861.17
417.817	959.47
418.025	912.37
418.233	1022.96
418.441	977.91
418.649	1172.46
418.857	1174.51
419.065	1248.24
419.273	1223.66
419.481	1225.71
419.689	1240.05
419.897	1397.74
420.105	1373.16
420.313	1364.97
420.521	1463.27
420.729	1518.57
420.937	1508.33
421.145	1512.42
421.353	1600.49
421.561	1801.19
421.769	1670.12
421.977	1790.95
422.185	1874.92
422.393	1911.78
422.601	2089.95
422.809	2073.57
423.017	2085.86
423.224	2192.35
423.432	2313.18
423.64	2180.06
423.848	2558.94
424.056	2348
424.263	2671.58
424.471	2499.55
424.679	2696.15
424.887	2878.42
425.094	2843.6
425.302	2880.47
425.51	2925.52
425.718	3072.98
425.925	3007.44
426.133	3199.95
426.341	3486.67
426.548	3441.61
426.756	3455.95
426.964	3599.31
427.171	3863.49
427.379	3994.56
427.586	3933.12
427.794	4103.11
428.001	4404.16
428.209	4432.83
428.417	4449.21
428.624	4660.15
428.832	4828.09
429.039	4688.82
429.247	4699.06
429.454	5102.51
429.662	5542.83
429.869	5211.06
430.076	5499.82
430.284	5196.72
430.491	5606.31
430.699	6038.44
430.906	5845.93
431.114	6071.2
431.321	6271.9
431.528	6308.77
431.736	6669.21
431.943	6908.82
432.15	6587.29
432.358	6851.48
432.565	7170.96
432.772	7148.43
432.979	7490.45
433.187	7615.37
433.394	7670.67
433.601	8125.32
433.808	8160.13
434.016	8174.47
434.223	8547.2
434.43	8979.32
434.637	8758.14
434.844	9382.77
435.052	9739.12
435.259	9499.5
435.466	9517.93
435.673	9460.59
435.88	10158.95
436.087	10642.27
436.294	10523.49
436.501	10447.71
436.708	10797.92
436.915	10988.38
437.122	11404.11
437.329	11578.19
437.537	11805.52
437.743	11905.87
437.95	11793.23
438.157	12526.4
438.364	12868.41
438.571	12749.63
438.778	12954.43
438.985	14007.08
439.192	13527.86
439.399	14017.32
439.606	13644.59
439.813	14560.03
440.02	15217.43
440.227	15012.63
440.433	14957.34
440.64	15391.51
440.847	15209.24
441.054	15903.5
441.261	16857.85
441.467	16440.07
441.674	16997.12
441.881	17578.74
442.088	17246.97
442.294	16995.07
442.501	17617.65
442.708	17986.29
442.914	18596.58
443.121	19479.25
443.328	18959.07
443.534	20234.96
443.741	19821.27
443.948	19380.95
444.154	20933.31
444.361	20640.45
444.568	21076.67
444.774	20955.84
444.981	20947.65
445.187	21697.2
445.394	22680.23
445.6	22360.75
445.807	24396.43
446.013	23319.2
446.22	23861.91
446.426	24781.45
446.633	25045.63
446.839	25633.4
447.046	24824.45
447.252	26311.28
447.459	26524.27
447.665	26094.19
447.871	27048.55
448.078	28287.57
448.284	27150.95
448.491	27652.7
448.697	28815.94
448.903	29428.29
449.11	29768.25
449.316	29092.42
449.522	29465.15
449.728	30769.71
449.935	30360.11
450.141	30644.78
450.347	31595.04
450.553	30560.81
450.76	30536.24
450.966	31924.76
451.172	31255.08
451.378	32412.18
451.584	31572.51
451.791	32332.31
451.997	32299.54
452.203	32832.01
452.409	32811.53
452.615	32786.96
452.821	31441.44
453.027	31214.12
453.233	32958.99
453.44	31693.34
453.646	32070.17
453.852	32160.28
454.058	32549.39
454.264	31631.9
454.47	32528.91
454.676	31646.24
454.882	32725.52
455.088	29815.35
455.294	30382.64
455.5	31029.8
455.705	31447.58
455.911	29997.62
456.117	29284.93
456.323	29088.32
456.529	27396.7
456.735	28992.07
456.941	28215.89
457.147	27529.82
457.352	26788.46
457.558	26741.35
457.764	26589.8
457.97	26333.81
458.176	25571.96
458.381	25692.79
458.587	24287.89
458.793	24378
458.999	23284.38
459.204	24590.98
459.41	24267.41
459.616	22305.45
459.821	22287.02
460.027	22291.12
460.233	22190.77
460.438	21189.31
460.644	21228.22
460.85	20398.79
461.055	19866.32
461.261	19919.57
461.466	18432.74
461.672	17806.06
461.878	18901.73
462.083	18017.01
462.289	17560.31
462.494	17183.48
462.7	16489.22
462.905	16057.1
463.111	16790.27
463.316	16524.04
463.522	16319.24
463.727	16454.4
463.932	16155.4
464.138	16319.24
464.343	16382.73
464.549	15756.05
464.754	16542.47
464.959	16128.78
465.165	15805.2
465.37	15407.89
465.575	15020.83
465.781	15754
465.986	15612.69
466.191	15203.1
466.397	14822.17
466.602	13908.78
466.807	14748.45
467.012	14631.71
467.218	14474.02
467.423	14168.87
