Data from USB4F104151__73__14-43-22-457.txt Node

Date: Thu Mar 13 14:43:22 EDT 2025
User: louis
Spectrometer: USB4F10415
Trigger mode: 4
Integration Time (sec): 2.000000E-2
Scans to average: 1
Electric dark correction enabled: true
Nonlinearity correction enabled: false
Boxcar width: 0
XAxis mode: Wavelengths
Number of Pixels in Spectrum: 3648
>>>>>Begin Spectral Data<<<<<
178.204	-174.42
178.424	-174.42
178.644	-174.42
178.864	-108.88
179.084	-158.03
179.304	5.8
179.524	13.99
179.744	-41.3
179.964	91.82
180.184	26.28
180.404	-29.01
180.624	-74.07
180.844	-31.06
181.064	30.38
181.283	18.09
181.503	-16.73
181.723	5.8
181.943	-10.58
182.163	13.99
182.383	9.9
182.602	-2.39
182.822	54.95
183.042	18.09
183.262	-35.16
183.482	5.8
183.701	-16.73
183.921	-26.96
184.141	5.8
184.361	77.48
184.58	22.19
184.8	-39.25
185.02	-55.64
185.239	34.47
185.459	24.23
185.679	32.43
185.898	-35.16
186.118	1.71
186.338	-84.31
186.557	67.24
186.777	30.38
186.997	-33.11
187.216	-72.02
187.436	91.82
187.655	7.85
187.875	-24.92
188.095	-22.87
188.314	-10.58
188.534	1.71
188.753	-10.58
188.973	22.19
189.192	57
189.412	61.1
189.631	-4.44
189.851	42.67
190.07	52.91
190.29	-51.54
190.509	-82.26
190.729	-108.88
190.948	-35.16
191.168	108.2
191.387	26.28
191.607	-67.92
191.826	79.53
192.045	-33.11
192.265	38.57
192.484	-76.12
192.704	13.99
192.923	-6.49
193.142	32.43
193.362	-26.96
193.581	30.38
193.8	-22.87
194.02	44.71
194.239	-18.77
194.458	36.52
194.678	1.71
194.897	-10.58
195.116	-20.82
195.335	1.71
195.555	-43.35
195.774	36.52
195.993	46.76
196.212	-8.53
196.432	-26.96
196.651	1.71
196.87	28.33
197.089	-6.49
197.308	16.04
197.528	18.09
197.747	-72.02
197.966	-45.4
198.185	59.05
198.404	-26.96
198.623	-0.34
198.842	-10.58
199.062	-2.39
199.281	59.05
199.5	-2.39
199.719	-39.25
199.938	-31.06
200.157	7.85
200.376	79.53
200.595	42.67
200.814	32.43
201.033	13.99
201.252	38.57
201.471	5.8
201.69	11.95
201.909	54.95
202.128	13.99
202.347	-67.92
202.566	16.04
202.785	-88.4
203.004	-24.92
203.223	75.43
203.442	22.19
203.661	-43.35
203.879	-63.83
204.098	38.57
204.317	-2.39
204.536	-16.73
204.755	-10.58
204.974	18.09
205.193	-43.35
205.411	145.06
205.63	-0.34
205.849	-12.63
206.068	-33.11
206.287	-61.78
206.505	-12.63
206.724	-55.64
206.943	13.99
207.162	75.43
207.381	38.57
207.599	16.04
207.818	52.91
208.037	-0.34
208.255	57
208.474	5.8
208.693	32.43
208.911	-82.26
209.13	-0.34
209.349	-55.64
209.567	20.14
209.786	13.99
210.005	-16.73
210.223	-10.58
210.442	3.75
210.661	42.67
210.879	-2.39
211.098	-14.68
211.316	93.87
211.535	83.63
211.753	-6.49
211.972	-59.73
212.191	28.33
212.409	-10.58
212.628	1.71
212.846	38.57
213.065	38.57
213.283	48.81
213.502	46.76
213.72	1.71
213.938	13.99
214.157	-2.39
214.375	42.67
214.594	-14.68
214.812	7.85
215.031	1.71
215.249	-0.34
215.467	16.04
215.686	9.9
215.904	38.57
216.122	-26.96
216.341	-6.49
216.559	-18.77
216.778	22.19
216.996	30.38
217.214	24.23
217.432	38.57
217.651	-20.82
217.869	1.71
218.087	-8.53
218.306	-18.77
218.524	26.28
218.742	-16.73
218.96	50.86
219.179	-80.21
219.397	-43.35
219.615	48.81
219.833	30.38
220.051	-29.01
220.27	-100.69
220.488	26.28
220.706	11.95
220.924	34.47
221.142	-41.3
221.36	-2.39
221.578	16.04
221.796	-6.49
222.015	50.86
222.233	11.95
222.451	50.86
222.669	-31.06
222.887	18.09
223.105	-31.06
223.323	-14.68
223.541	-61.78
223.759	71.34
223.977	-57.68
224.195	95.91
224.413	9.9
224.631	-2.39
224.849	59.05
225.067	-2.39
225.285	-33.11
225.503	30.38
225.721	-26.96
225.939	36.52
226.157	-14.68
226.375	46.76
226.592	-10.58
226.81	3.75
227.028	38.57
227.246	22.19
227.464	-67.92
227.682	71.34
227.9	-16.73
228.117	48.81
228.335	28.33
228.553	-47.44
228.771	-8.53
228.989	22.19
229.206	-35.16
229.424	-22.87
229.642	7.85
229.86	-8.53
230.077	46.76
230.295	26.28
230.513	-10.58
230.731	44.71
230.948	-39.25
231.166	130.73
231.384	-59.73
231.601	-26.96
231.819	7.85
232.037	-8.53
232.254	-6.49
232.472	71.34
232.689	13.99
232.907	11.95
233.125	24.23
233.342	3.75
233.56	-69.97
233.777	-24.92
233.995	16.04
234.213	-41.3
234.43	-63.83
234.648	-33.11
234.865	-33.11
235.083	46.76
235.3	42.67
235.518	7.85
235.735	73.39
235.953	22.19
236.17	-43.35
236.388	65.19
236.605	28.33
236.822	75.43
237.04	-12.63
237.257	36.52
237.475	20.14
237.692	-41.3
237.909	79.53
238.127	-129.36
238.344	-14.68
238.562	71.34
238.779	-8.53
238.996	-49.49
239.214	32.43
239.431	-14.68
239.648	-4.44
239.865	-39.25
240.083	-6.49
240.3	97.96
240.517	16.04
240.735	38.57
240.952	22.19
241.169	-6.49
241.386	-10.58
241.603	-14.68
241.821	32.43
242.038	-14.68
242.255	57
242.472	-49.49
242.689	38.57
242.907	22.19
243.124	63.15
243.341	-35.16
243.558	-24.92
243.775	5.8
243.992	-26.96
244.209	30.38
244.426	-10.58
244.643	106.15
244.86	38.57
245.078	46.76
245.295	-35.16
245.512	48.81
245.729	-80.21
245.946	1.71
246.163	13.99
246.38	-16.73
246.597	-35.16
246.814	54.95
247.031	32.43
247.248	5.8
247.464	16.04
247.681	22.19
247.898	-10.58
248.115	13.99
248.332	-39.25
248.549	83.63
248.766	3.75
248.983	100.01
249.2	-65.88
249.417	38.57
249.633	16.04
249.85	50.86
250.067	26.28
250.284	5.8
250.501	-10.58
250.717	44.71
250.934	-35.16
251.151	7.85
251.368	5.8
251.585	65.19
251.801	-8.53
252.018	-20.82
252.235	-2.39
252.451	-14.68
252.668	-74.07
252.885	63.15
253.102	-26.96
253.318	42.67
253.535	38.57
253.752	30.38
253.968	34.47
254.185	-22.87
254.401	1.71
254.618	-0.34
254.835	71.34
255.051	13.99
255.268	30.38
255.484	-43.35
255.701	-26.96
255.917	-41.3
256.134	-22.87
256.351	22.19
256.567	-59.73
256.784	30.38
257	-72.02
257.217	-47.44
257.433	40.62
257.65	73.39
257.866	9.9
258.082	-61.78
258.299	24.23
258.515	-6.49
258.732	-106.84
258.948	-14.68
259.165	16.04
259.381	-4.44
259.597	38.57
259.814	-8.53
260.03	-12.63
260.246	-18.77
260.463	-76.12
260.679	63.15
260.895	-29.01
261.112	-47.44
261.328	-41.3
261.544	-59.73
261.761	36.52
261.977	30.38
262.193	-18.77
262.409	-35.16
262.626	-12.63
262.842	-49.49
263.058	-41.3
263.274	-51.54
263.49	42.67
263.707	57
263.923	40.62
264.139	63.15
264.355	-4.44
264.571	22.19
264.787	28.33
265.004	1.71
265.22	-45.4
265.436	-18.77
265.652	-12.63
265.868	-10.58
266.084	-67.92
266.3	-26.96
266.516	-41.3
266.732	-39.25
266.948	-26.96
267.164	-24.92
267.38	16.04
267.596	38.57
267.812	22.19
268.028	7.85
268.244	-10.58
268.46	38.57
268.676	-14.68
268.892	-10.58
269.108	32.43
269.324	9.9
269.54	-16.73
269.756	22.19
269.972	-33.11
270.188	-35.16
270.403	-12.63
270.619	-20.82
270.835	42.67
271.051	1.71
271.267	-37.2
271.483	16.04
271.698	26.28
271.914	30.38
272.13	9.9
272.346	11.95
272.562	81.58
272.777	38.57
272.993	-35.16
273.209	11.95
273.425	46.76
273.64	-90.45
273.856	-10.58
274.072	11.95
274.287	-74.07
274.503	100.01
274.719	54.95
274.934	30.38
275.15	-94.55
275.366	-47.44
275.581	-4.44
275.797	13.99
276.012	-10.58
276.228	-10.58
276.444	-16.73
276.659	-29.01
276.875	-18.77
277.09	40.62
277.306	-0.34
277.521	-31.06
277.737	-18.77
277.952	-10.58
278.168	38.57
278.383	89.77
278.599	38.57
278.814	-18.77
279.03	-14.68
279.245	106.15
279.461	-6.49
279.676	5.8
279.892	-0.34
280.107	-65.88
280.322	3.75
280.538	75.43
280.753	71.34
280.969	24.23
281.184	-18.77
281.399	69.29
281.615	34.47
281.83	30.38
282.045	-39.25
282.26	28.33
282.476	-10.58
282.691	63.15
282.906	44.71
283.122	38.57
283.337	-26.96
283.552	-35.16
283.767	-37.2
283.983	57
284.198	-12.63
284.413	22.19
284.628	-51.54
284.843	-2.39
285.058	13.99
285.274	-67.92
285.489	-26.96
285.704	-16.73
285.919	9.9
286.134	-53.59
286.349	-51.54
286.564	13.99
286.779	79.53
286.995	48.81
287.21	-31.06
287.425	7.85
287.64	-2.39
287.855	16.04
288.07	-2.39
288.285	79.53
288.5	22.19
288.715	22.19
288.93	87.72
289.145	13.99
289.36	-35.16
289.575	-47.44
289.79	5.8
290.004	13.99
290.219	-24.92
290.434	13.99
290.649	-86.36
290.864	-26.96
291.079	20.14
291.294	79.53
291.509	-4.44
291.724	-121.17
291.938	-2.39
292.153	57
292.368	42.67
292.583	32.43
292.798	112.3
293.012	-2.39
293.227	-6.49
293.442	38.57
293.657	1.71
293.871	65.19
294.086	-84.31
294.301	77.48
294.516	57
294.73	-24.92
294.945	5.8
295.16	5.8
295.374	30.38
295.589	-8.53
295.804	28.33
296.018	-2.39
296.233	59.05
296.447	13.99
296.662	-37.2
296.877	89.77
297.091	3.75
297.306	73.39
297.52	20.14
297.735	-47.44
297.949	13.99
298.164	30.38
298.378	-22.87
298.593	-22.87
298.807	32.43
299.022	-18.77
299.236	-10.58
299.451	22.19
299.665	93.87
299.88	-24.92
300.094	9.9
300.309	-6.49
300.523	-59.73
300.737	-6.49
300.952	34.47
301.166	32.43
301.381	13.99
301.595	24.23
301.809	38.57
302.024	-0.34
302.238	-47.44
302.452	67.24
302.667	-59.73
302.881	20.14
303.095	-35.16
303.309	16.04
303.524	46.76
303.738	1.71
303.952	-39.25
304.166	-82.26
304.381	-35.16
304.595	71.34
304.809	16.04
305.023	-18.77
305.237	26.28
305.452	-33.11
305.666	-12.63
305.88	11.95
306.094	22.19
306.308	11.95
306.522	-4.44
306.736	-18.77
306.95	83.63
307.164	-26.96
307.379	-8.53
307.593	85.67
307.807	38.57
308.021	97.96
308.235	-18.77
308.449	-65.88
308.663	22.19
308.877	48.81
309.091	9.9
309.305	38.57
309.519	18.09
309.733	63.15
309.947	-35.16
310.161	40.62
310.374	32.43
310.588	89.77
310.802	-76.12
311.016	-65.88
311.23	7.85
311.444	-45.4
311.658	7.85
311.872	57
312.085	-24.92
312.299	30.38
312.513	-31.06
312.727	3.75
312.941	-0.34
313.154	13.99
313.368	32.43
313.582	26.28
313.796	97.96
314.009	44.71
314.223	-6.49
314.437	-31.06
314.651	3.75
314.864	22.19
315.078	9.9
315.292	-8.53
315.505	-39.25
315.719	65.19
315.933	40.62
316.146	-31.06
316.36	-55.64
316.573	9.9
316.787	42.67
317.001	46.76
317.214	-76.12
317.428	46.76
317.641	-39.25
317.855	-2.39
318.068	50.86
318.282	-2.39
318.495	-8.53
318.709	95.91
318.922	5.8
319.136	91.82
319.349	67.24
319.563	34.47
319.776	-14.68
319.99	-65.88
320.203	-20.82
320.417	-43.35
320.63	-31.06
320.843	18.09
321.057	-16.73
321.27	-12.63
321.483	5.8
321.697	40.62
321.91	-0.34
322.124	7.85
322.337	-8.53
322.55	-14.68
322.763	-41.3
322.977	13.99
323.19	-26.96
323.403	-6.49
323.617	63.15
323.83	57
324.043	-20.82
324.256	83.63
324.469	-8.53
324.683	-10.58
324.896	-6.49
325.109	-12.63
325.322	-26.96
325.535	20.14
325.748	-6.49
325.962	-37.2
326.175	7.85
326.388	-2.39
326.601	65.19
326.814	42.67
327.027	-29.01
327.24	73.39
327.453	-76.12
327.666	26.28
327.879	5.8
328.092	34.47
328.305	-43.35
328.518	-16.73
328.731	7.85
328.944	63.15
329.157	22.19
329.37	18.09
329.583	-0.34
329.796	87.72
330.009	-43.35
330.222	93.87
330.435	13.99
330.648	59.05
330.861	26.28
331.073	-49.49
331.286	59.05
331.499	48.81
331.712	-41.3
331.925	-26.96
332.138	-24.92
332.35	93.87
332.563	5.8
332.776	22.19
332.989	-18.77
333.202	-2.39
333.414	9.9
333.627	-0.34
333.84	71.34
334.053	24.23
334.265	-2.39
334.478	-49.49
334.691	-43.35
334.903	-6.49
335.116	-10.58
335.329	-35.16
335.541	110.25
335.754	48.81
335.966	-31.06
336.179	-35.16
336.392	-104.79
336.604	5.8
336.817	95.91
337.029	-22.87
337.242	18.09
337.454	-39.25
337.667	-12.63
337.88	24.23
338.092	1.71
338.305	48.81
338.517	-55.64
338.729	18.09
338.942	-14.68
339.154	-31.06
339.367	1.71
339.579	-31.06
339.792	-67.92
340.004	38.57
340.217	40.62
340.429	38.57
340.641	-2.39
340.854	-55.64
341.066	-41.3
341.278	46.76
341.491	71.34
341.703	-51.54
341.915	-26.96
342.128	38.57
342.34	1.71
342.552	9.9
342.764	-22.87
342.977	-10.58
343.189	-12.63
343.401	18.09
343.613	-2.39
343.826	73.39
344.038	-33.11
344.25	11.95
344.462	-14.68
344.674	54.95
344.886	-26.96
345.099	-12.63
345.311	5.8
345.523	22.19
345.735	-26.96
345.947	67.24
346.159	7.85
346.371	22.19
346.583	38.57
346.795	106.15
347.007	-10.58
347.219	52.91
347.431	-37.2
347.643	36.52
347.855	-74.07
348.067	16.04
348.279	-88.4
348.491	3.75
348.703	30.38
348.915	-43.35
349.127	-65.88
349.339	-10.58
349.551	-8.53
349.763	-31.06
349.975	13.99
350.187	26.28
350.399	-35.16
350.61	-2.39
350.822	7.85
351.034	26.28
351.246	-8.53
351.458	54.95
351.669	63.15
351.881	-10.58
352.093	26.28
352.305	32.43
352.517	22.19
352.728	89.77
352.94	-0.34
353.152	13.99
353.363	-41.3
353.575	-16.73
353.787	46.76
353.999	22.19
354.21	-6.49
354.422	-10.58
354.633	-59.73
354.845	63.15
355.057	-104.79
355.268	48.81
355.48	-0.34
355.692	-72.02
355.903	9.9
356.115	-74.07
356.326	-67.92
356.538	30.38
356.749	22.19
356.961	91.82
357.172	1.71
357.384	-129.36
357.595	46.76
357.807	-67.92
358.018	22.19
358.23	-2.39
358.441	9.9
358.653	89.77
358.864	-10.58
359.075	-49.49
359.287	9.9
359.498	-0.34
359.709	30.38
359.921	38.57
360.132	9.9
360.344	24.23
360.555	22.19
360.766	57
360.977	32.43
361.189	22.19
361.4	-16.73
361.611	48.81
361.823	89.77
362.034	97.96
362.245	85.67
362.456	54.95
362.667	13.99
362.879	1.71
363.09	-20.82
363.301	-10.58
363.512	30.38
363.723	-14.68
363.935	9.9
364.146	-24.92
364.357	-20.82
364.568	7.85
364.779	-41.3
364.99	63.15
365.201	-35.16
365.412	71.34
365.623	-10.58
365.834	-2.39
366.045	46.76
366.256	-16.73
366.467	40.62
366.678	7.85
366.889	-43.35
367.1	46.76
367.311	5.8
367.522	38.57
367.733	-18.77
367.944	-0.34
368.155	-33.11
368.366	26.28
368.577	3.75
368.788	81.58
368.999	-26.96
369.209	28.33
369.42	116.39
369.631	87.72
369.842	-18.77
370.053	36.52
370.264	18.09
370.474	-53.59
370.685	18.09
370.896	13.99
371.107	69.29
371.317	85.67
371.528	-20.82
371.739	65.19
371.95	-43.35
372.16	30.38
372.371	-0.34
372.582	22.19
372.792	40.62
373.003	46.76
373.214	-43.35
373.424	-16.73
373.635	-24.92
373.846	-24.92
374.056	118.44
374.267	22.19
374.477	18.09
374.688	-4.44
374.898	-35.16
375.109	40.62
375.319	30.38
375.53	16.04
375.74	24.23
375.951	-2.39
376.161	7.85
376.372	-26.96
376.582	83.63
376.793	95.91
377.003	-24.92
377.214	-6.49
377.424	-10.58
377.635	7.85
377.845	13.99
378.055	81.58
378.266	-10.58
378.476	13.99
378.686	-55.64
378.897	46.76
379.107	-65.88
379.317	-10.58
379.528	30.38
379.738	48.81
379.948	7.85
380.158	71.34
380.369	42.67
380.579	-37.2
380.789	-0.34
380.999	63.15
381.21	-53.59
381.42	63.15
381.63	-10.58
381.84	59.05
382.05	1.71
382.261	79.53
382.471	50.86
382.681	-6.49
382.891	24.23
383.101	50.86
383.311	-29.01
383.521	-43.35
383.731	63.15
383.941	-47.44
384.151	7.85
384.361	22.19
384.571	54.95
384.781	63.15
384.991	63.15
385.201	83.63
385.411	-18.77
385.621	61.1
385.831	83.63
386.041	-6.49
386.251	38.57
386.461	40.62
386.671	-26.96
386.881	-0.34
387.091	40.62
387.301	46.76
387.511	11.95
387.72	-2.39
387.93	69.29
388.14	5.8
388.35	16.04
388.56	54.95
388.769	38.57
388.979	-35.16
389.189	32.43
389.399	26.28
389.609	89.77
389.818	48.81
390.028	-18.77
390.238	5.8
390.447	38.57
390.657	71.34
390.867	-47.44
391.076	95.91
391.286	-22.87
391.496	22.19
391.705	54.95
391.915	36.52
392.125	5.8
392.334	-51.54
392.544	-31.06
392.753	13.99
392.963	-43.35
393.172	40.62
393.382	-26.96
393.591	18.09
393.801	65.19
394.01	28.33
394.22	32.43
394.429	28.33
394.639	-26.96
394.848	32.43
395.058	9.9
395.267	38.57
395.477	16.04
395.686	-8.53
395.895	63.15
396.105	106.15
396.314	91.82
396.524	32.43
396.733	-31.06
396.942	61.1
397.152	13.99
397.361	81.58
397.57	22.19
397.78	24.23
397.989	100.01
398.198	85.67
398.407	7.85
398.617	22.19
398.826	38.57
399.035	91.82
399.244	-6.49
399.453	-43.35
399.663	32.43
399.872	54.95
400.081	-22.87
400.29	30.38
400.499	-10.58
400.708	48.81
400.917	3.75
401.127	71.34
401.336	-22.87
401.545	79.53
401.754	16.04
401.963	54.95
402.172	22.19
402.381	-18.77
402.59	-43.35
402.799	-10.58
403.008	30.38
403.217	57
403.426	18.09
403.635	54.95
403.844	38.57
404.053	11.95
404.262	13.99
404.471	22.19
404.68	112.3
404.888	34.47
405.097	91.82
405.306	91.82
405.515	46.76
405.724	71.34
405.933	67.24
406.142	104.11
406.35	-26.96
406.559	48.81
406.768	65.19
406.977	104.11
407.185	95.91
407.394	24.23
407.603	77.48
407.812	114.34
408.02	153.26
408.229	128.68
408.438	91.82
408.646	97.96
408.855	26.28
409.064	71.34
409.272	67.24
409.481	169.64
409.69	83.63
409.898	75.43
410.107	120.49
410.315	104.11
410.524	95.91
410.733	149.16
410.941	71.34
411.15	157.35
411.358	138.92
411.567	163.5
411.775	71.34
411.984	95.91
412.192	171.69
412.401	151.21
412.609	216.74
412.818	265.89
413.026	229.03
413.234	222.89
413.443	183.98
413.651	143.02
413.86	218.79
414.068	259.75
414.276	302.76
414.485	222.89
414.693	300.71
414.901	308.9
415.11	269.99
415.318	304.81
415.526	278.18
415.734	358.05
415.943	222.89
416.151	431.78
416.359	310.95
416.567	456.36
416.776	421.54
416.984	339.62
417.192	466.6
417.4	335.53
417.608	442.02
417.817	337.57
418.025	493.22
418.233	415.4
418.441	429.73
418.649	472.74
418.857	505.51
419.065	599.71
419.273	427.68
419.481	499.36
419.689	546.47
419.897	599.71
420.105	575.14
420.313	521.89
420.521	769.69
420.729	689.82
420.937	665.25
421.145	681.63
421.353	800.41
421.561	868
421.769	784.03
421.977	784.03
422.185	841.37
422.393	906.91
422.601	974.49
422.809	947.87
423.017	915.1
423.224	1013.4
423.432	1080.99
423.64	1042.07
423.848	1224.34
424.056	1095.32
424.263	1302.17
424.471	1152.67
424.679	1263.26
424.887	1158.81
425.094	1474.2
425.302	1416.85
425.51	1396.37
425.718	1472.15
425.925	1539.73
426.133	1443.48
426.341	1652.37
426.548	1592.98
426.756	1629.84
426.964	1791.63
427.171	1832.59
427.379	1832.59
427.586	1857.17
427.794	1980.04
428.001	2037.39
428.209	2143.88
428.417	2193.03
428.624	2320.01
428.832	2264.71
429.039	2195.08
429.247	2246.28
429.454	2381.45
429.662	2627.2
429.869	2408.07
430.076	2670.21
430.284	2670.21
430.491	2737.79
430.699	2975.36
430.906	2885.25
431.114	3044.99
431.321	2954.88
431.528	3063.42
431.736	3192.44
431.943	3348.09
432.15	3276.41
432.358	3266.17
432.565	3438.2
432.772	3411.57
432.979	3554.93
433.187	3694.19
433.394	3733.11
433.601	3888.75
433.808	3921.52
434.016	3927.66
434.223	4142.7
434.43	4431.46
434.637	4212.33
434.844	4521.57
435.052	4652.64
435.259	4658.79
435.466	4734.56
435.673	4634.21
435.88	4836.96
436.087	5387.86
436.294	5160.54
436.501	4965.98
436.708	5041.76
436.915	5267.03
437.122	5582.42
437.329	5502.55
437.537	5744.21
437.743	5858.9
437.95	5695.06
438.157	6137.42
438.364	6276.68
438.571	6166.09
438.778	6430.28
438.985	6921.79
439.192	6547.01
439.399	6831.68
439.606	6909.51
439.813	7040.58
440.02	7349.82
440.227	7341.63
440.433	7165.5
440.64	7605.81
440.847	7370.3
441.054	7476.79
441.261	7939.63
441.467	7896.63
441.674	8193.58
441.881	8445.48
442.088	8435.24
442.294	8435.24
442.501	8709.67
442.708	8746.53
442.914	9106.98
443.121	9410.08
443.328	9127.46
443.534	9989.65
443.741	9567.77
443.948	9535
444.154	10327.57
444.361	10016.27
444.568	9979.41
444.774	10044.95
444.981	10001.94
445.187	10589.71
445.394	10794.5
445.6	10843.65
445.807	11748.86
446.013	11265.53
446.22	11738.62
446.426	11916.79
446.633	12152.31
446.839	12623.34
447.046	12027.38
447.252	12703.21
447.459	12703.21
447.665	12664.3
447.871	13348.32
448.078	13696.47
448.284	13268.45
448.491	13501.92
448.697	14198.23
448.903	14257.62
449.11	14290.38
449.316	14179.79
449.522	14390.74
449.728	14880.2
449.935	14886.34
450.141	15115.72
450.347	15074.76
450.553	14573
450.76	15003.08
450.966	15527.36
451.172	15183.3
451.378	15713.72
451.584	15457.73
451.791	15703.48
451.997	15381.95
452.203	15838.65
452.409	15814.07
452.615	15998.39
452.821	15187.39
453.027	15007.17
453.233	15898.04
453.44	15265.22
453.646	15547.84
453.852	15519.17
454.058	15633.85
454.264	15160.77
454.47	15717.82
454.676	15013.32
454.882	15709.63
455.088	14456.27
455.294	14718.41
455.5	14761.42
455.705	14884.3
455.911	14325.2
456.117	14122.45
456.323	14063.06
456.529	13114.85
456.735	13839.83
456.941	13219.3
457.147	13166.05
457.352	13063.65
457.558	12805.61
457.764	12594.67
457.97	12594.67
458.176	12217.84
458.381	12375.53
458.587	11693.56
458.793	11537.91
458.999	10929.67
459.204	11763.19
459.41	11187.71
459.616	10704.39
459.821	10540.55
460.027	10714.63
460.233	10632.71
460.438	10077.71
460.644	10010.13
460.85	9719.32
461.055	9438.75
461.261	9432.6
461.466	8734.25
461.672	8494.63
461.878	9090.59
462.083	8551.98
462.289	8298.03
462.494	8175.15
462.7	7802.42
462.905	7683.64
463.111	7925.3
463.316	7988.78
463.522	7777.84
463.727	7892.53
463.932	7906.87
464.138	7575.1
464.343	8109.61
464.549	7697.97
464.754	7906.87
464.959	7788.08
465.165	7601.72
465.37	7267.9
465.575	7142.97
465.781	7554.62
465.986	7358.01
466.191	7222.84
466.397	7175.74
466.602	6805.06
466.807	6878.79
467.012	7151.17
467.218	6921.79
467.423	6919.75
