Data from USB4F104151__129__14-44-01-908.txt Node

Date: Thu Mar 13 14:44:01 EDT 2025
User: louis
Spectrometer: USB4F10415
Trigger mode: 4
Integration Time (sec): 2.000000E-2
Scans to average: 1
Electric dark correction enabled: true
Nonlinearity correction enabled: false
Boxcar width: 0
XAxis mode: Wavelengths
Number of Pixels in Spectrum: 3648
>>>>>Begin Spectral Data<<<<<
178.204	-119.12
178.424	-119.12
178.644	-119.12
178.864	-143.7
179.084	-139.6
179.304	34.47
179.524	-29.01
179.744	-20.82
179.964	30.38
180.184	-22.87
180.404	28.33
180.624	11.95
180.844	7.85
181.064	-31.06
181.283	-24.92
181.503	-4.44
181.723	20.14
181.943	-82.26
182.163	71.34
182.383	-6.49
182.602	36.52
182.822	65.19
183.042	26.28
183.262	5.8
183.482	1.71
183.701	18.09
183.921	13.99
184.141	34.47
184.361	52.91
184.58	11.95
184.8	9.9
185.02	32.43
185.239	34.47
185.459	54.95
185.679	69.29
185.898	93.87
186.118	102.06
186.338	77.48
186.557	18.09
186.777	22.19
186.997	34.47
187.216	-6.49
187.436	36.52
187.655	104.11
187.875	67.24
188.095	50.86
188.314	36.52
188.534	34.47
188.753	11.95
188.973	32.43
189.192	83.63
189.412	36.52
189.631	18.09
189.851	44.71
190.07	63.15
190.29	20.14
190.509	20.14
190.729	-26.96
190.948	20.14
191.168	134.82
191.387	22.19
191.607	26.28
191.826	11.95
192.045	-4.44
192.265	38.57
192.484	52.91
192.704	-47.44
192.923	28.33
193.142	83.63
193.362	59.05
193.581	63.15
193.8	-6.49
194.02	50.86
194.239	32.43
194.458	20.14
194.678	11.95
194.897	83.63
195.116	18.09
195.335	34.47
195.555	24.23
195.774	46.76
195.993	13.99
196.212	32.43
196.432	-39.25
196.651	28.33
196.87	63.15
197.089	114.34
197.308	26.28
197.528	5.8
197.747	5.8
197.966	59.05
198.185	169.64
198.404	11.95
198.623	-12.63
198.842	102.06
199.062	3.75
199.281	44.71
199.5	65.19
199.719	54.95
199.938	30.38
200.157	16.04
200.376	24.23
200.595	59.05
200.814	124.58
201.033	7.85
201.252	59.05
201.471	75.43
201.69	79.53
201.909	9.9
202.128	-16.73
202.347	81.58
202.566	34.47
202.785	-22.87
203.004	-39.25
203.223	104.11
203.442	44.71
203.661	24.23
203.879	89.77
204.098	59.05
204.317	50.86
204.536	44.71
204.755	-61.78
204.974	91.82
205.193	20.14
205.411	140.97
205.63	59.05
205.849	67.24
206.068	95.91
206.287	34.47
206.505	5.8
206.724	-31.06
206.943	91.82
207.162	38.57
207.381	-6.49
207.599	54.95
207.818	50.86
208.037	28.33
208.255	-14.68
208.474	1.71
208.693	89.77
208.911	59.05
209.13	44.71
209.349	59.05
209.567	50.86
209.786	18.09
210.005	-29.01
210.223	40.62
210.442	7.85
210.661	18.09
210.879	91.82
211.098	9.9
211.316	44.71
211.535	57
211.753	59.05
211.972	57
212.191	26.28
212.409	114.34
212.628	34.47
212.846	-6.49
213.065	13.99
213.283	93.87
213.502	26.28
213.72	77.48
213.938	11.95
214.157	52.91
214.375	26.28
214.594	-22.87
214.812	71.34
215.031	36.52
215.249	-22.87
215.467	40.62
215.686	32.43
215.904	52.91
216.122	52.91
216.341	89.77
216.559	40.62
216.778	100.01
216.996	42.67
217.214	5.8
217.432	63.15
217.651	-61.78
217.869	44.71
218.087	13.99
218.306	50.86
218.524	54.95
218.742	38.57
218.96	93.87
219.179	9.9
219.397	-22.87
219.615	114.34
219.833	42.67
220.051	-61.78
220.27	13.99
220.488	18.09
220.706	38.57
220.924	50.86
221.142	61.1
221.36	22.19
221.578	67.24
221.796	77.48
222.015	75.43
222.233	61.1
222.451	-14.68
222.669	9.9
222.887	102.06
223.105	18.09
223.323	134.82
223.541	7.85
223.759	1.71
223.977	-6.49
224.195	73.39
224.413	112.3
224.631	59.05
224.849	73.39
225.067	116.39
225.285	-49.49
225.503	54.95
225.721	-12.63
225.939	9.9
226.157	-26.96
226.375	95.91
226.592	-51.54
226.81	54.95
227.028	59.05
227.246	65.19
227.464	42.67
227.682	81.58
227.9	91.82
228.117	59.05
228.335	32.43
228.553	26.28
228.771	-2.39
228.989	71.34
229.206	136.87
229.424	32.43
229.642	22.19
229.86	-2.39
230.077	22.19
230.295	128.68
230.513	22.19
230.731	22.19
230.948	52.91
231.166	140.97
231.384	16.04
231.601	9.9
231.819	3.75
232.037	-0.34
232.254	26.28
232.472	3.75
232.689	3.75
232.907	38.57
233.125	75.43
233.342	85.67
233.56	9.9
233.777	50.86
233.995	65.19
234.213	75.43
234.43	50.86
234.648	22.19
234.865	20.14
235.083	-10.58
235.3	1.71
235.518	57
235.735	32.43
235.953	75.43
236.17	-33.11
236.388	32.43
236.605	108.2
236.822	132.78
237.04	75.43
237.257	95.91
237.475	-14.68
237.692	77.48
237.909	59.05
238.127	46.76
238.344	102.06
238.562	67.24
238.779	11.95
238.996	-26.96
239.214	108.2
239.431	50.86
239.648	50.86
239.865	46.76
240.083	85.67
240.3	5.8
240.517	20.14
240.735	42.67
240.952	50.86
241.169	75.43
241.386	34.47
241.603	40.62
241.821	-45.4
242.038	69.29
242.255	38.57
242.472	-20.82
242.689	20.14
242.907	46.76
243.124	-6.49
243.341	-31.06
243.558	42.67
243.775	18.09
243.992	-14.68
244.209	42.67
244.426	75.43
244.643	65.19
244.86	9.9
245.078	3.75
245.295	100.01
245.512	-2.39
245.729	-2.39
245.946	63.15
246.163	73.39
246.38	11.95
246.597	36.52
246.814	67.24
247.031	18.09
247.248	50.86
247.464	59.05
247.681	30.38
247.898	52.91
248.115	67.24
248.332	85.67
248.549	126.63
248.766	75.43
248.983	95.91
249.2	18.09
249.417	140.97
249.633	-14.68
249.85	22.19
250.067	30.38
250.284	63.15
250.501	57
250.717	50.86
250.934	9.9
251.151	32.43
251.368	79.53
251.585	26.28
251.801	38.57
252.018	85.67
252.235	52.91
252.451	75.43
252.668	42.67
252.885	100.01
253.102	3.75
253.318	100.01
253.535	59.05
253.752	-26.96
253.968	22.19
254.185	-12.63
254.401	11.95
254.618	44.71
254.835	-22.87
255.051	85.67
255.268	28.33
255.484	-18.77
255.701	22.19
255.917	42.67
256.134	63.15
256.351	28.33
256.567	102.06
256.784	65.19
257	61.1
257.217	110.25
257.433	83.63
257.65	7.85
257.866	67.24
258.082	5.8
258.299	1.71
258.515	83.63
258.732	34.47
258.948	-26.96
259.165	11.95
259.381	-12.63
259.597	-12.63
259.814	-22.87
260.03	42.67
260.246	44.71
260.463	67.24
260.679	83.63
260.895	63.15
261.112	28.33
261.328	59.05
261.544	44.71
261.761	44.71
261.977	32.43
262.193	42.67
262.409	26.28
262.626	77.48
262.842	59.05
263.058	-78.16
263.274	100.01
263.49	1.71
263.707	34.47
263.923	36.52
264.139	1.71
264.355	26.28
264.571	44.71
264.787	1.71
265.004	28.33
265.22	65.19
265.436	11.95
265.652	13.99
265.868	46.76
266.084	-45.4
266.3	190.12
266.516	-14.68
266.732	1.71
266.948	-0.34
267.164	100.01
267.38	81.58
267.596	93.87
267.812	108.2
268.028	75.43
268.244	7.85
268.46	97.96
268.676	67.24
268.892	50.86
269.108	87.72
269.324	26.28
269.54	-37.2
269.756	42.67
269.972	9.9
270.188	95.91
270.403	28.33
270.619	36.52
270.835	46.76
271.051	3.75
271.267	1.71
271.483	42.67
271.698	71.34
271.914	136.87
272.13	-16.73
272.346	91.82
272.562	-12.63
272.777	59.05
272.993	34.47
273.209	44.71
273.425	48.81
273.64	-4.44
273.856	38.57
274.072	3.75
274.287	75.43
274.503	-22.87
274.719	7.85
274.934	-51.54
275.15	-41.3
275.366	26.28
275.581	-14.68
275.797	85.67
276.012	50.86
276.228	16.04
276.444	46.76
276.659	20.14
276.875	1.71
277.09	1.71
277.306	-12.63
277.521	16.04
277.737	-14.68
277.952	63.15
278.168	59.05
278.383	50.86
278.599	11.95
278.814	24.23
279.03	44.71
279.245	91.82
279.461	71.34
279.676	61.1
279.892	-47.44
280.107	85.67
280.322	-4.44
280.538	132.78
280.753	-4.44
280.969	54.95
281.184	-26.96
281.399	67.24
281.615	28.33
281.83	77.48
282.045	-4.44
282.26	-10.58
282.476	34.47
282.691	93.87
282.906	34.47
283.122	59.05
283.337	18.09
283.552	42.67
283.767	61.1
283.983	42.67
284.198	67.24
284.413	71.34
284.628	44.71
284.843	95.91
285.058	71.34
285.274	118.44
285.489	34.47
285.704	36.52
285.919	52.91
286.134	93.87
286.349	36.52
286.564	5.8
286.779	83.63
286.995	36.52
287.21	3.75
287.425	71.34
287.64	83.63
287.855	91.82
288.07	22.19
288.285	124.58
288.5	18.09
288.715	34.47
288.93	18.09
289.145	46.76
289.36	-0.34
289.575	100.01
289.79	89.77
290.004	93.87
290.219	108.2
290.434	-4.44
290.649	50.86
290.864	20.14
291.079	-2.39
291.294	13.99
291.509	104.11
291.724	9.9
291.938	34.47
292.153	61.1
292.368	46.76
292.583	-26.96
292.798	83.63
293.012	59.05
293.227	-10.58
293.442	-14.68
293.657	69.29
293.871	91.82
294.086	-12.63
294.301	114.34
294.516	71.34
294.73	26.28
294.945	30.38
295.16	36.52
295.374	20.14
295.589	34.47
295.804	-6.49
296.018	18.09
296.233	57
296.447	48.81
296.662	-18.77
296.877	61.1
297.091	67.24
297.306	50.86
297.52	59.05
297.735	75.43
297.949	9.9
298.164	11.95
298.378	26.28
298.593	-20.82
298.807	-24.92
299.022	77.48
299.236	20.14
299.451	36.52
299.665	50.86
299.88	-12.63
300.094	65.19
300.309	-6.49
300.523	5.8
300.737	75.43
300.952	22.19
301.166	34.47
301.381	1.71
301.595	-6.49
301.809	-22.87
302.024	38.57
302.238	-22.87
302.452	102.06
302.667	122.54
302.881	100.01
303.095	61.1
303.309	50.86
303.524	5.8
303.738	36.52
303.952	18.09
304.166	69.29
304.381	16.04
304.595	42.67
304.809	65.19
305.023	46.76
305.237	91.82
305.452	9.9
305.666	50.86
305.88	95.91
306.094	75.43
306.308	30.38
306.522	65.19
306.736	100.01
306.95	67.24
307.164	-22.87
307.379	5.8
307.593	28.33
307.807	52.91
308.021	69.29
308.235	26.28
308.449	18.09
308.663	83.63
308.877	87.72
309.091	50.86
309.305	67.24
309.519	20.14
309.733	102.06
309.947	30.38
310.161	20.14
310.374	63.15
310.588	54.95
310.802	-18.77
311.016	9.9
311.23	42.67
311.444	-39.25
311.658	30.38
311.872	44.71
312.085	65.19
312.299	63.15
312.513	59.05
312.727	30.38
312.941	-4.44
313.154	38.57
313.368	83.63
313.582	91.82
313.796	38.57
314.009	-6.49
314.223	42.67
314.437	71.34
314.651	67.24
314.864	-20.82
315.078	52.91
315.292	40.62
315.505	-35.16
315.719	79.53
315.933	-26.96
316.146	44.71
316.36	38.57
316.573	26.28
316.787	20.14
317.001	91.82
317.214	1.71
317.428	61.1
317.641	-72.02
317.855	67.24
318.068	42.67
318.282	26.28
318.495	42.67
318.709	50.86
318.922	22.19
319.136	136.87
319.349	50.86
319.563	36.52
319.776	30.38
319.99	42.67
320.203	24.23
320.417	38.57
320.63	57
320.843	143.02
321.057	28.33
321.27	18.09
321.483	100.01
321.697	48.81
321.91	26.28
322.124	-4.44
322.337	-8.53
322.55	67.24
322.763	83.63
322.977	110.25
323.19	77.48
323.403	87.72
323.617	91.82
323.83	-4.44
324.043	38.57
324.256	75.43
324.469	5.8
324.683	61.1
324.896	69.29
325.109	-14.68
325.322	54.95
325.535	97.96
325.748	20.14
325.962	34.47
326.175	83.63
326.388	83.63
326.601	42.67
326.814	-2.39
327.027	65.19
327.24	140.97
327.453	-2.39
327.666	73.39
327.879	61.1
328.092	108.2
328.305	87.72
328.518	52.91
328.731	83.63
328.944	69.29
329.157	120.49
329.37	26.28
329.583	91.82
329.796	100.01
330.009	-35.16
330.222	67.24
330.435	9.9
330.648	50.86
330.861	71.34
331.073	36.52
331.286	93.87
331.499	48.81
331.712	13.99
331.925	46.76
332.138	73.39
332.35	85.67
332.563	-12.63
332.776	100.01
332.989	-26.96
333.202	77.48
333.414	26.28
333.627	-31.06
333.84	116.39
334.053	95.91
334.265	83.63
334.478	1.71
334.691	-14.68
334.903	77.48
335.116	18.09
335.329	50.86
335.541	34.47
335.754	100.01
335.966	-12.63
336.179	75.43
336.392	128.68
336.604	52.91
336.817	20.14
337.029	116.39
337.242	87.72
337.454	44.71
337.667	20.14
337.88	36.52
338.092	18.09
338.305	83.63
338.517	-6.49
338.729	3.75
338.942	138.92
339.154	36.52
339.367	40.62
339.579	79.53
339.792	38.57
340.004	87.72
340.217	22.19
340.429	18.09
340.641	24.23
340.854	34.47
341.066	75.43
341.278	50.86
341.491	118.44
341.703	93.87
341.915	73.39
342.128	20.14
342.34	34.47
342.552	34.47
342.764	61.1
342.977	50.86
343.189	34.47
343.401	57
343.613	5.8
343.826	116.39
344.038	34.47
344.25	34.47
344.462	38.57
344.674	1.71
344.886	34.47
345.099	20.14
345.311	26.28
345.523	3.75
345.735	-37.2
345.947	91.82
346.159	46.76
346.371	116.39
346.583	63.15
346.795	30.38
347.007	13.99
347.219	34.47
347.431	75.43
347.643	42.67
347.855	52.91
348.067	77.48
348.279	87.72
348.491	34.47
348.703	87.72
348.915	122.54
349.127	-51.54
349.339	50.86
349.551	46.76
349.763	44.71
349.975	69.29
350.187	9.9
350.399	18.09
350.61	44.71
350.822	9.9
351.034	87.72
351.246	104.11
351.458	89.77
351.669	30.38
351.881	13.99
352.093	18.09
352.305	110.25
352.517	46.76
352.728	59.05
352.94	-4.44
353.152	87.72
353.363	9.9
353.575	-31.06
353.787	69.29
353.999	87.72
354.21	83.63
354.422	26.28
354.633	-22.87
354.845	52.91
355.057	-2.39
355.268	100.01
355.48	91.82
355.692	11.95
355.903	26.28
356.115	85.67
356.326	42.67
356.538	40.62
356.749	124.58
356.961	83.63
357.172	34.47
357.384	59.05
357.595	83.63
357.807	79.53
358.018	42.67
358.23	71.34
358.441	95.91
358.653	93.87
358.864	48.81
359.075	26.28
359.287	26.28
359.498	95.91
359.709	3.75
359.921	91.82
360.132	22.19
360.344	3.75
360.555	46.76
360.766	91.82
360.977	57
361.189	34.47
361.4	3.75
361.611	75.43
361.823	100.01
362.034	87.72
362.245	28.33
362.456	36.52
362.667	54.95
362.879	38.57
363.09	46.76
363.301	38.57
363.512	57
363.723	1.71
363.935	1.71
364.146	161.45
364.357	-4.44
364.568	108.2
364.779	9.9
364.99	1.71
365.201	-12.63
365.412	69.29
365.623	36.52
365.834	59.05
366.045	59.05
366.256	69.29
366.467	26.28
366.678	42.67
366.889	63.15
367.1	18.09
367.311	46.76
367.522	63.15
367.733	42.67
367.944	108.2
368.155	77.48
368.366	69.29
368.577	57
368.788	102.06
368.999	108.2
369.209	69.29
369.42	71.34
369.631	149.16
369.842	44.71
370.053	93.87
370.264	77.48
370.474	100.01
370.685	73.39
370.896	-10.58
371.107	69.29
371.317	87.72
371.528	32.43
371.739	44.71
371.95	110.25
372.16	71.34
372.371	42.67
372.582	50.86
372.792	61.1
373.003	44.71
373.214	52.91
373.424	44.71
373.635	95.91
373.846	100.01
374.056	81.58
374.267	-29.01
374.477	77.48
374.688	42.67
374.898	-2.39
375.109	67.24
375.319	48.81
375.53	116.39
375.74	77.48
375.951	22.19
376.161	9.9
376.372	106.15
376.582	75.43
376.793	63.15
377.003	83.63
377.214	87.72
377.424	102.06
377.635	100.01
377.845	36.52
378.055	71.34
378.266	5.8
378.476	95.91
378.686	79.53
378.897	65.19
379.107	40.62
379.317	59.05
379.528	110.25
379.738	59.05
379.948	61.1
380.158	108.2
380.369	59.05
380.579	110.25
380.789	69.29
380.999	75.43
381.21	118.44
381.42	116.39
381.63	75.43
381.84	61.1
382.05	50.86
382.261	95.91
382.471	108.2
382.681	87.72
382.891	44.71
383.101	91.82
383.311	22.19
383.521	44.71
383.731	54.95
383.941	128.68
384.151	67.24
384.361	65.19
384.571	85.67
384.781	110.25
384.991	104.11
385.201	89.77
385.411	77.48
385.621	83.63
385.831	42.67
386.041	-4.44
386.251	95.91
386.461	91.82
386.671	116.39
386.881	61.1
387.091	122.54
387.301	-12.63
387.511	116.39
387.72	110.25
387.93	132.78
388.14	32.43
388.35	67.24
388.56	108.2
388.769	85.67
388.979	11.95
389.189	73.39
389.399	77.48
389.609	181.93
389.818	93.87
390.028	28.33
390.238	67.24
390.447	114.34
390.657	91.82
390.867	3.75
391.076	46.76
391.286	44.71
391.496	48.81
391.705	69.29
391.915	81.58
392.125	159.4
392.334	91.82
392.544	190.12
392.753	54.95
392.963	75.43
393.172	67.24
393.382	40.62
393.591	155.3
393.801	13.99
394.01	102.06
394.22	52.91
394.429	22.19
394.639	89.77
394.848	106.15
395.058	106.15
395.267	108.2
395.477	102.06
395.686	100.01
395.895	181.93
396.105	108.2
396.314	79.53
396.524	122.54
396.733	83.63
396.942	100.01
397.152	91.82
397.361	167.59
397.57	124.58
397.78	81.58
397.989	34.47
398.198	149.16
398.407	34.47
398.617	126.63
398.826	91.82
399.035	208.55
399.244	50.86
399.453	116.39
399.663	143.02
399.872	63.15
400.081	112.3
400.29	118.44
400.499	73.39
400.708	149.16
400.917	91.82
401.127	79.53
401.336	36.52
401.545	167.59
401.754	116.39
401.963	132.78
402.172	175.78
402.381	126.63
402.59	124.58
402.799	108.2
403.008	159.4
403.217	116.39
403.426	159.4
403.635	87.72
403.844	132.78
404.053	136.87
404.262	167.59
404.471	210.6
404.68	192.17
404.888	186.02
405.097	165.54
405.306	192.17
405.515	210.6
405.724	149.16
405.933	116.39
406.142	149.16
406.35	194.22
406.559	140.97
406.768	186.02
406.977	190.12
407.185	231.08
407.394	214.7
407.603	157.35
407.812	222.89
408.02	202.41
408.229	272.04
408.438	249.51
408.646	124.58
408.855	290.47
409.064	255.65
409.272	249.51
409.481	341.67
409.69	257.7
409.898	284.33
410.107	313
410.315	374.44
410.524	343.72
410.733	323.24
410.941	405.16
411.15	390.82
411.358	427.68
411.567	427.68
411.775	405.16
411.984	462.5
412.192	437.92
412.401	415.4
412.609	497.32
412.818	448.16
413.026	468.64
413.234	542.37
413.443	562.85
413.651	497.32
413.86	583.33
414.068	546.47
414.276	673.44
414.485	689.82
414.693	661.15
414.901	753.31
415.11	665.25
415.318	798.37
415.526	673.44
415.734	722.59
415.943	804.51
416.151	835.23
416.359	779.93
416.567	902.81
416.776	902.81
416.984	935.58
417.192	1001.12
417.4	1060.51
417.608	1003.16
417.817	1021.6
418.025	1199.77
418.233	1158.81
418.441	1197.72
418.649	1148.57
418.857	1306.26
419.065	1279.64
419.273	1281.69
419.481	1279.64
419.689	1468.05
419.897	1533.59
420.105	1468.05
420.313	1533.59
420.521	1693.33
420.729	1674.9
420.937	1646.23
421.145	1666.71
421.353	1779.34
421.561	1926.8
421.769	1879.69
421.977	2041.48
422.185	2008.72
422.393	2229.9
422.601	2147.98
422.809	2229.9
423.017	2330.25
423.224	2391.69
423.432	2528.9
423.64	2506.37
423.848	2717.31
424.056	2627.2
424.263	2836.1
424.471	2829.95
424.679	2969.21
424.887	3067.52
425.094	3131
425.302	3214.97
425.51	3327.61
425.718	3280.5
425.925	3352.18
426.133	3565.17
426.341	3731.06
426.548	3950.19
426.756	3858.03
426.964	4054.64
427.171	4204.14
427.379	4226.67
427.586	4320.87
427.794	4462.18
428.001	4740.71
428.209	4777.57
428.417	4777.57
428.624	5248.6
428.832	5105.24
429.039	4990.56
429.247	4888.16
429.454	5490.26
429.662	5932.62
429.869	5621.33
430.076	5862.99
430.284	5785.17
430.491	6092.37
430.699	6239.82
430.906	6211.15
431.114	6461
431.321	6561.35
431.528	6731.33
431.736	7110.21
431.943	7530.04
432.15	7366.2
432.358	7464.5
432.565	7843.38
432.772	7802.42
432.979	8066.61
433.187	8359.47
433.394	8449.58
433.601	9037.34
433.808	8969.76
434.016	8916.51
434.223	9102.88
434.43	9963.03
434.637	9680.41
434.844	10176.02
435.052	10505.74
435.259	10382.86
435.466	10419.72
435.673	10472.97
435.88	11322.88
436.087	11656.7
436.294	11875.83
436.501	11456
436.708	11478.52
436.915	12002.8
437.122	12373.49
437.329	12443.12
437.537	13055.46
437.743	12920.29
437.95	13008.36
438.157	13565.4
438.364	14110.16
438.571	14175.7
438.778	14140.88
438.985	15580.6
439.192	14853.58
439.399	15173.06
439.606	14912.97
439.813	15822.27
440.02	16897.45
440.227	16407.98
440.433	16502.19
440.64	16819.63
440.847	16569.77
441.054	17243.56
441.261	18085.27
441.467	17794.46
441.674	18394.51
441.881	19164.55
442.088	19127.69
442.294	18830.73
442.501	19447.17
442.708	19885.44
442.914	20448.63
443.121	21157.22
443.328	20714.86
443.534	22144.34
443.741	21419.36
443.948	21144.94
444.154	22891.85
444.361	22775.12
444.568	22873.42
444.774	22768.98
444.981	22992.2
445.187	23620.93
445.394	24614.2
445.6	24442.17
445.807	26551.57
446.013	25576.74
446.22	26076.44
446.426	27139.34
446.633	27106.57
446.839	28441.85
447.046	26934.54
447.252	28404.99
447.459	28239.1
447.665	28476.66
447.871	29355.24
448.078	31087.82
448.284	29578.47
448.491	30448.86
448.697	31309
448.903	32134.34
449.11	32359.61
449.316	31411.4
449.522	32292.03
449.728	33035.44
449.935	33379.5
450.141	33438.89
450.347	34045.09
450.553	33119.41
450.76	33557.67
450.966	34552.99
451.172	33922.21
451.378	35042.45
451.584	34481.31
451.791	35363.98
451.997	34673.82
452.203	35615.88
452.409	35701.9
452.615	35562.64
452.821	34159.78
453.027	34028.71
453.233	35708.04
453.44	34335.9
453.646	34909.33
453.852	34903.19
454.058	35488.91
454.264	34340
454.47	35095.7
454.676	34344.09
454.882	35308.69
455.088	32847.03
455.294	33223.86
455.5	33467.56
455.705	33668.26
455.911	32318.65
456.117	31831.24
456.323	31458.51
456.529	29711.59
456.735	31147.22
456.941	30162.14
457.147	29932.77
457.352	29138.16
457.558	28857.59
457.764	29009.14
457.97	28513.53
458.176	28038.4
458.381	27917.57
458.587	26516.76
458.793	26406.17
458.999	25218.35
459.204	26842.39
459.41	25849.12
459.616	24368.44
459.821	24255.8
460.027	24571.19
460.233	23964.99
460.438	22656.34
460.644	22988.11
460.85	21669.22
461.055	21562.72
461.261	21407.08
461.466	19787.13
461.672	19197.32
461.878	20755.82
462.083	19297.67
462.289	19129.73
462.494	18761.1
462.7	18148.76
462.905	17595.81
463.111	18230.68
463.316	18204.05
463.522	17757.6
463.727	17829.27
463.932	17759.64
464.138	17534.37
464.343	17593.76
464.549	17046.95
464.754	17759.64
464.959	17626.53
465.165	17194.4
465.37	16657.84
465.575	16227.76
465.781	16811.43
465.986	16922.02
466.191	16184.76
466.397	15891.9
466.602	14994.89
466.807	15920.57
467.012	15744.44
467.218	15705.53
467.423	15289.79
467.628	15502.78
467.833	16192.95
