Data from USB4F104151__68__14-43-18-658.txt Node

Date: Thu Mar 13 14:43:18 EDT 2025
User: louis
Spectrometer: USB4F10415
Trigger mode: 4
Integration Time (sec): 2.000000E-2
Scans to average: 1
Electric dark correction enabled: true
Nonlinearity correction enabled: false
Boxcar width: 0
XAxis mode: Wavelengths
Number of Pixels in Spectrum: 3648
>>>>>Begin Spectral Data<<<<<
178.204	-78.51
178.424	-78.51
178.644	-78.51
178.864	-45.74
179.084	-60.07
179.304	5.46
179.524	-17.07
179.744	-49.83
179.964	40.28
180.184	32.08
180.404	15.7
180.624	-6.83
180.844	-0.68
181.064	23.89
181.283	46.42
181.503	-66.22
181.723	-23.21
181.943	-25.26
182.163	85.33
182.383	19.8
182.602	122.2
182.822	75.09
183.042	42.32
183.262	66.9
183.482	-21.16
183.701	64.85
183.921	58.71
184.141	-53.93
184.361	105.81
184.58	48.47
184.8	-33.45
185.02	25.94
185.239	3.41
185.459	9.56
185.679	89.43
185.898	-51.88
186.118	114
186.338	73.04
186.557	68.95
186.777	-31.4
186.997	54.61
187.216	32.08
187.436	91.48
187.655	9.56
187.875	97.62
188.095	56.66
188.314	64.85
188.534	30.04
188.753	75.09
188.973	-17.07
189.192	81.24
189.412	40.28
189.631	34.13
189.851	50.52
190.07	83.28
190.29	3.41
190.509	56.66
190.729	56.66
190.948	109.91
191.168	97.62
191.387	36.18
191.607	-27.31
191.826	120.15
192.045	9.56
192.265	83.28
192.484	23.89
192.704	32.08
192.923	9.56
193.142	105.81
193.362	101.72
193.581	87.38
193.8	64.85
194.02	101.72
194.239	50.52
194.458	54.61
194.678	-66.22
194.897	56.66
195.116	77.14
195.335	42.32
195.555	66.9
195.774	85.33
195.993	-23.21
196.212	7.51
196.432	11.61
196.651	50.52
196.87	40.28
197.089	132.44
197.308	32.08
197.528	73.04
197.747	11.61
197.966	44.37
198.185	58.71
198.404	-88.75
198.623	89.43
198.842	122.2
199.062	103.76
199.281	15.7
199.5	5.46
199.719	50.52
199.938	109.91
200.157	19.8
200.376	83.28
200.595	83.28
200.814	79.19
201.033	-0.68
201.252	62.8
201.471	32.08
201.69	-8.87
201.909	71
202.128	116.05
202.347	83.28
202.566	93.52
202.785	25.94
203.004	36.18
203.223	122.2
203.442	56.66
203.661	3.41
203.879	36.18
204.098	15.7
204.317	23.89
204.536	19.8
204.755	97.62
204.974	15.7
205.193	73.04
205.411	73.04
205.63	114
205.849	48.47
206.068	38.23
206.287	52.56
206.505	89.43
206.724	-2.73
206.943	7.51
207.162	50.52
207.381	48.47
207.599	25.94
207.818	81.24
208.037	48.47
208.255	56.66
208.474	73.04
208.693	34.13
208.911	11.61
209.13	81.24
209.349	122.2
209.567	15.7
209.786	32.08
210.005	97.62
210.223	81.24
210.442	25.94
210.661	126.29
210.879	68.95
211.098	62.8
211.316	87.38
211.535	52.56
211.753	93.52
211.972	60.76
212.191	-31.4
212.409	34.13
212.628	81.24
212.846	23.89
213.065	128.34
213.283	89.43
213.502	64.85
213.72	-12.97
213.938	122.2
214.157	11.61
214.375	15.7
214.594	19.8
214.812	93.52
215.031	-6.83
215.249	50.52
215.467	1.37
215.686	73.04
215.904	38.23
216.122	15.7
216.341	62.8
216.559	36.18
216.778	34.13
216.996	1.37
217.214	83.28
217.432	15.7
217.651	32.08
217.869	48.47
218.087	52.56
218.306	83.28
218.524	97.62
218.742	7.51
218.96	11.61
219.179	23.89
219.397	73.04
219.615	77.14
219.833	114
220.051	15.7
220.27	83.28
220.488	93.52
220.706	56.66
220.924	-25.26
221.142	-29.35
221.36	56.66
221.578	-2.73
221.796	44.37
222.015	40.28
222.233	17.75
222.451	105.81
222.669	128.34
222.887	107.86
223.105	17.75
223.323	58.71
223.541	52.56
223.759	66.9
223.977	93.52
224.195	118.1
224.413	-23.21
224.631	101.72
224.849	11.61
225.067	64.85
225.285	46.42
225.503	144.72
225.721	13.65
225.939	23.89
226.157	89.43
226.375	77.14
226.592	19.8
226.81	138.58
227.028	25.94
227.246	146.77
227.464	124.24
227.682	56.66
227.9	177.49
228.117	42.32
228.335	56.66
228.553	34.13
228.771	11.61
228.989	64.85
229.206	114
229.424	-31.4
229.642	32.08
229.86	75.09
230.077	32.08
230.295	40.28
230.513	50.52
230.731	99.67
230.948	128.34
231.166	77.14
231.384	19.8
231.601	1.37
231.819	73.04
232.037	-23.21
232.254	48.47
232.472	32.08
232.689	60.76
232.907	107.86
233.125	89.43
233.342	81.24
233.56	89.43
233.777	34.13
233.995	54.61
234.213	52.56
234.43	81.24
234.648	7.51
234.865	73.04
235.083	148.82
235.3	138.58
235.518	48.47
235.735	89.43
235.953	111.96
236.17	15.7
236.388	44.37
236.605	89.43
236.822	103.76
237.04	48.47
237.257	48.47
237.475	-25.26
237.692	-8.87
237.909	105.81
238.127	46.42
238.344	130.39
238.562	48.47
238.779	54.61
238.996	66.9
239.214	48.47
239.431	99.67
239.648	-25.26
239.865	38.23
240.083	40.28
240.3	48.47
240.517	34.13
240.735	36.18
240.952	64.85
241.169	89.43
241.386	25.94
241.603	34.13
241.821	27.99
242.038	77.14
242.255	73.04
242.472	56.66
242.689	60.76
242.907	83.28
243.124	81.24
243.341	27.99
243.558	27.99
243.775	15.7
243.992	52.56
244.209	44.37
244.426	159.06
244.643	101.72
244.86	50.52
245.078	101.72
245.295	56.66
245.512	73.04
245.729	56.66
245.946	165.2
246.163	171.35
246.38	75.09
246.597	64.85
246.814	50.52
247.031	58.71
247.248	73.04
247.464	89.43
247.681	85.33
247.898	148.82
248.115	48.47
248.332	-4.78
248.549	50.52
248.766	81.24
248.983	83.28
249.2	114
249.417	71
249.633	23.89
249.85	13.65
250.067	27.99
250.284	114
250.501	97.62
250.717	101.72
250.934	48.47
251.151	-2.73
251.368	118.1
251.585	27.99
251.801	-21.16
252.018	-0.68
252.235	77.14
252.451	50.52
252.668	32.08
252.885	52.56
253.102	81.24
253.318	87.38
253.535	58.71
253.752	40.28
253.968	114
254.185	40.28
254.401	32.08
254.618	122.2
254.835	11.61
255.051	136.53
255.268	81.24
255.484	111.96
255.701	89.43
255.917	97.62
256.134	50.52
256.351	64.85
256.567	7.51
256.784	36.18
257	-39.59
257.217	56.66
257.433	89.43
257.65	40.28
257.866	52.56
258.082	44.37
258.299	60.76
258.515	3.41
258.732	40.28
258.948	9.56
259.165	64.85
259.381	83.28
259.597	40.28
259.814	66.9
260.03	48.47
260.246	-8.87
260.463	32.08
260.679	13.65
260.895	-6.83
261.112	103.76
261.328	64.85
261.544	50.52
261.761	66.9
261.977	25.94
262.193	-17.07
262.409	93.52
262.626	89.43
262.842	60.76
263.058	40.28
263.274	48.47
263.49	87.38
263.707	56.66
263.923	89.43
264.139	-4.78
264.355	81.24
264.571	118.1
264.787	52.56
265.004	68.95
265.22	109.91
265.436	17.75
265.652	40.28
265.868	36.18
266.084	23.89
266.3	75.09
266.516	-21.16
266.732	85.33
266.948	27.99
267.164	56.66
267.38	50.52
267.596	118.1
267.812	25.94
268.028	66.9
268.244	27.99
268.46	79.19
268.676	44.37
268.892	58.71
269.108	66.9
269.324	-25.26
269.54	122.2
269.756	105.81
269.972	7.51
270.188	66.9
270.403	-41.64
270.619	130.39
270.835	23.89
271.051	36.18
271.267	17.75
271.483	48.47
271.698	52.56
271.914	19.8
272.13	-2.73
272.346	50.52
272.562	48.47
272.777	109.91
272.993	77.14
273.209	25.94
273.425	91.48
273.64	3.41
273.856	9.56
274.072	130.39
274.287	95.57
274.503	25.94
274.719	68.95
274.934	77.14
275.15	-74.41
275.366	11.61
275.581	25.94
275.797	34.13
276.012	93.52
276.228	-10.92
276.444	66.9
276.659	25.94
276.875	-8.87
277.09	73.04
277.306	17.75
277.521	34.13
277.737	75.09
277.952	81.24
278.168	68.95
278.383	66.9
278.599	99.67
278.814	58.71
279.03	-4.78
279.245	109.91
279.461	99.67
279.676	40.28
279.892	42.32
280.107	32.08
280.322	44.37
280.538	52.56
280.753	-10.92
280.969	17.75
281.184	-17.07
281.399	136.53
281.615	32.08
281.83	75.09
282.045	73.04
282.26	48.47
282.476	32.08
282.691	56.66
282.906	83.28
283.122	36.18
283.337	27.99
283.552	11.61
283.767	7.51
283.983	107.86
284.198	66.9
284.413	-6.83
284.628	-72.36
284.843	19.8
285.058	-55.98
285.274	99.67
285.489	42.32
285.704	25.94
285.919	27.99
286.134	154.96
286.349	126.29
286.564	87.38
286.779	64.85
286.995	27.99
287.21	66.9
287.425	34.13
287.64	32.08
287.855	-12.97
288.07	34.13
288.285	66.9
288.5	81.24
288.715	15.7
288.93	32.08
289.145	-8.87
289.36	134.48
289.575	56.66
289.79	105.81
290.004	62.8
290.219	15.7
290.434	32.08
290.649	19.8
290.864	36.18
291.079	91.48
291.294	40.28
291.509	46.42
291.724	73.04
291.938	32.08
292.153	83.28
292.368	38.23
292.583	48.47
292.798	23.89
293.012	48.47
293.227	89.43
293.442	40.28
293.657	34.13
293.871	120.15
294.086	11.61
294.301	101.72
294.516	40.28
294.73	58.71
294.945	44.37
295.16	42.32
295.374	9.56
295.589	103.76
295.804	56.66
296.018	-39.59
296.233	-4.78
296.447	58.71
296.662	23.89
296.877	81.24
297.091	99.67
297.306	40.28
297.52	56.66
297.735	11.61
297.949	68.95
298.164	81.24
298.378	56.66
298.593	-19.11
298.807	1.37
299.022	46.42
299.236	93.52
299.451	32.08
299.665	19.8
299.88	48.47
300.094	30.04
300.309	130.39
300.523	25.94
300.737	40.28
300.952	81.24
301.166	122.2
301.381	-4.78
301.595	42.32
301.809	17.75
302.024	85.33
302.238	-41.64
302.452	107.86
302.667	50.52
302.881	99.67
303.095	95.57
303.309	87.38
303.524	25.94
303.738	32.08
303.952	1.37
304.166	130.39
304.381	34.13
304.595	136.53
304.809	25.94
305.023	60.76
305.237	11.61
305.452	32.08
305.666	42.32
305.88	48.47
306.094	7.51
306.308	19.8
306.522	122.2
306.736	38.23
306.95	101.72
307.164	32.08
307.379	40.28
307.593	81.24
307.807	73.04
308.021	179.54
308.235	48.47
308.449	-51.88
308.663	-6.83
308.877	122.2
309.091	83.28
309.305	73.04
309.519	-12.97
309.733	32.08
309.947	5.46
310.161	34.13
310.374	48.47
310.588	109.91
310.802	99.67
311.016	27.99
311.23	91.48
311.444	-2.73
311.658	64.85
311.872	89.43
312.085	44.37
312.299	44.37
312.513	75.09
312.727	75.09
312.941	19.8
313.154	146.77
313.368	83.28
313.582	148.82
313.796	-29.35
314.009	60.76
314.223	-15.02
314.437	66.9
314.651	27.99
314.864	42.32
315.078	-8.87
315.292	-25.26
315.505	77.14
315.719	56.66
315.933	120.15
316.146	48.47
316.36	60.76
316.573	32.08
316.787	32.08
317.001	36.18
317.214	-15.02
317.428	97.62
317.641	27.99
317.855	77.14
318.068	7.51
318.282	34.13
318.495	73.04
318.709	89.43
318.922	23.89
319.136	79.19
319.349	93.52
319.563	1.37
319.776	114
319.99	23.89
320.203	68.95
320.417	-0.68
320.63	107.86
320.843	-0.68
321.057	95.57
321.27	71
321.483	27.99
321.697	130.39
321.91	122.2
322.124	32.08
322.337	21.84
322.55	58.71
322.763	52.56
322.977	34.13
323.19	48.47
323.403	73.04
323.617	23.89
323.83	97.62
324.043	25.94
324.256	-0.68
324.469	-55.98
324.683	148.82
324.896	-39.59
325.109	85.33
325.322	50.52
325.535	105.81
325.748	9.56
325.962	44.37
326.175	7.51
326.388	105.81
326.601	91.48
326.814	3.41
327.027	81.24
327.24	73.04
327.453	52.56
327.666	93.52
327.879	19.8
328.092	71
328.305	15.7
328.518	-25.26
328.731	56.66
328.944	3.41
329.157	17.75
329.37	52.56
329.583	148.82
329.796	120.15
330.009	-15.02
330.222	136.53
330.435	34.13
330.648	81.24
330.861	-17.07
331.073	50.52
331.286	81.24
331.499	34.13
331.712	48.47
331.925	9.56
332.138	68.95
332.35	134.48
332.563	56.66
332.776	124.24
332.989	-2.73
333.202	48.47
333.414	89.43
333.627	89.43
333.84	44.37
334.053	64.85
334.265	7.51
334.478	75.09
334.691	56.66
334.903	136.53
335.116	-41.64
335.329	19.8
335.541	46.42
335.754	66.9
335.966	77.14
336.179	68.95
336.392	19.8
336.604	32.08
336.817	83.28
337.029	48.47
337.242	1.37
337.454	75.09
337.667	32.08
337.88	32.08
338.092	107.86
338.305	40.28
338.517	27.99
338.729	93.52
338.942	60.76
339.154	73.04
339.367	32.08
339.579	64.85
339.792	101.72
340.004	36.18
340.217	23.89
340.429	64.85
340.641	7.51
340.854	15.7
341.066	48.47
341.278	116.05
341.491	36.18
341.703	134.48
341.915	7.51
342.128	130.39
342.34	19.8
342.552	15.7
342.764	77.14
342.977	64.85
343.189	32.08
343.401	32.08
343.613	62.8
343.826	56.66
344.038	7.51
344.25	3.41
344.462	99.67
344.674	25.94
344.886	97.62
345.099	73.04
345.311	81.24
345.523	23.89
345.735	-25.26
345.947	44.37
346.159	85.33
346.371	-8.87
346.583	75.09
346.795	30.04
347.007	15.7
347.219	21.84
347.431	89.43
347.643	97.62
347.855	81.24
348.067	105.81
348.279	23.89
348.491	64.85
348.703	42.32
348.915	58.71
349.127	3.41
349.339	101.72
349.551	97.62
349.763	48.47
349.975	97.62
350.187	56.66
350.399	77.14
350.61	179.54
350.822	44.37
351.034	-8.87
351.246	-2.73
351.458	99.67
351.669	85.33
351.881	89.43
352.093	25.94
352.305	52.56
352.517	81.24
352.728	97.62
352.94	58.71
353.152	122.2
353.363	46.42
353.575	81.24
353.787	32.08
353.999	25.94
354.21	107.86
354.422	40.28
354.633	56.66
354.845	64.85
355.057	95.57
355.268	-19.11
355.48	130.39
355.692	56.66
355.903	23.89
356.115	56.66
356.326	-74.41
356.538	169.3
356.749	44.37
356.961	105.81
357.172	101.72
357.384	75.09
357.595	128.34
357.807	-6.83
358.018	73.04
358.23	103.76
358.441	124.24
358.653	118.1
358.864	-0.68
359.075	48.47
359.287	140.63
359.498	42.32
359.709	91.48
359.921	68.95
360.132	44.37
360.344	36.18
360.555	81.24
360.766	56.66
360.977	23.89
361.189	77.14
361.4	19.8
361.611	73.04
361.823	36.18
362.034	71
362.245	-0.68
362.456	132.44
362.667	62.8
362.879	126.29
363.09	34.13
363.301	-15.02
363.512	34.13
363.723	56.66
363.935	-0.68
364.146	105.81
364.357	56.66
364.568	107.86
364.779	-6.83
364.99	120.15
365.201	1.37
365.412	87.38
365.623	5.46
365.834	58.71
366.045	-66.22
366.256	42.32
366.467	56.66
366.678	21.84
366.889	81.24
367.1	107.86
367.311	23.89
367.522	-29.35
367.733	107.86
367.944	40.28
368.155	56.66
368.366	68.95
368.577	44.37
368.788	130.39
368.999	42.32
369.209	34.13
369.42	146.77
369.631	126.29
369.842	146.77
370.053	42.32
370.264	36.18
370.474	73.04
370.685	62.8
370.896	64.85
371.107	66.9
371.317	40.28
371.528	91.48
371.739	52.56
371.95	68.95
372.16	27.99
372.371	93.52
372.582	89.43
372.792	40.28
373.003	114
373.214	58.71
373.424	97.62
373.635	19.8
373.846	146.77
374.056	44.37
374.267	109.91
374.477	32.08
374.688	48.47
374.898	-64.17
375.109	116.05
375.319	77.14
375.53	177.49
375.74	97.62
375.951	122.2
376.161	56.66
376.372	101.72
376.582	3.41
376.793	58.71
377.003	81.24
377.214	93.52
377.424	73.04
377.635	7.51
377.845	52.56
378.055	50.52
378.266	-62.12
378.476	150.87
378.686	81.24
378.897	25.94
379.107	23.89
379.317	66.9
379.528	11.61
379.738	42.32
379.948	32.08
380.158	50.52
380.369	89.43
380.579	58.71
380.789	-15.02
380.999	40.28
381.21	60.76
381.42	93.52
381.63	64.85
381.84	114
382.05	27.99
382.261	60.76
382.471	103.76
382.681	64.85
382.891	105.81
383.101	91.48
383.311	32.08
383.521	52.56
383.731	58.71
383.941	89.43
384.151	30.04
384.361	19.8
384.571	48.47
384.781	132.44
384.991	99.67
385.201	111.96
385.411	64.85
385.621	50.52
385.831	19.8
386.041	87.38
386.251	48.47
386.461	91.48
386.671	105.81
386.881	105.81
387.091	77.14
387.301	34.13
387.511	89.43
387.72	38.23
387.93	48.47
388.14	161.11
388.35	89.43
388.56	114
388.769	114
388.979	140.63
389.189	73.04
389.399	91.48
389.609	75.09
389.818	58.71
390.028	83.28
390.238	126.29
390.447	54.61
390.657	132.44
390.867	66.9
391.076	40.28
391.286	83.28
391.496	34.13
391.705	93.52
391.915	62.8
392.125	130.39
392.334	34.13
392.544	132.44
392.753	58.71
392.963	101.72
393.172	62.8
393.382	97.62
393.591	161.11
393.801	138.58
394.01	130.39
394.22	150.87
394.429	134.48
394.639	58.71
394.848	159.06
395.058	120.15
395.267	-0.68
395.477	114
395.686	81.24
395.895	32.08
396.105	181.59
396.314	58.71
396.524	23.89
396.733	130.39
396.942	99.67
397.152	167.25
397.361	118.1
397.57	101.72
397.78	50.52
397.989	120.15
398.198	114
398.407	64.85
398.617	107.86
398.826	118.1
399.035	105.81
399.244	146.77
399.453	48.47
399.663	101.72
399.872	130.39
400.081	52.56
400.29	163.15
400.499	95.57
400.708	154.96
400.917	142.68
401.127	66.9
401.336	21.84
401.545	122.2
401.754	81.24
401.963	142.68
402.172	83.28
402.381	165.2
402.59	154.96
402.799	130.39
403.008	179.54
403.217	208.21
403.426	93.52
403.635	124.24
403.844	142.68
404.053	154.96
404.262	118.1
404.471	204.11
404.68	163.15
404.888	83.28
405.097	191.83
405.306	154.96
405.515	81.24
405.724	150.87
405.933	171.35
406.142	181.59
406.35	216.4
406.559	220.5
406.768	195.92
406.977	206.16
407.185	152.91
407.394	163.15
407.603	175.44
407.812	163.15
408.02	222.55
408.229	179.54
408.438	146.77
408.646	189.78
408.855	175.44
409.064	200.02
409.272	197.97
409.481	286.03
409.69	267.6
409.898	300.37
410.107	277.84
410.315	286.03
410.524	286.03
410.733	259.41
410.941	292.18
411.15	245.07
411.358	339.28
411.567	410.96
411.775	372.05
411.984	296.27
412.192	398.67
412.401	367.95
412.609	408.91
412.818	429.39
413.026	302.42
413.234	460.11
413.443	421.2
413.651	474.45
413.86	499.02
414.068	517.45
414.276	437.58
414.485	433.49
414.693	441.68
414.901	519.5
415.11	529.74
415.318	593.23
415.526	640.33
415.734	621.9
415.943	669
416.151	705.87
416.359	650.57
416.567	720.2
416.776	699.72
416.984	755.02
417.192	804.17
417.4	752.97
417.608	744.78
417.817	814.41
418.025	818.5
418.233	1017.16
418.441	838.98
418.649	929.1
418.857	951.62
419.065	968.01
419.273	959.81
419.481	1033.54
419.689	1146.18
419.897	1146.18
420.105	1203.52
420.313	1310.02
420.521	1183.04
420.729	1201.47
420.937	1342.78
421.145	1367.36
421.353	1359.17
421.561	1490.24
421.769	1500.48
421.977	1533.25
422.185	1563.97
422.393	1623.36
422.601	1844.54
422.809	1785.15
423.017	1672.51
423.224	1852.73
423.432	1916.22
423.64	1912.12
423.848	1957.18
424.056	2008.37
424.263	2239.8
424.471	2252.08
424.679	2227.51
424.887	2284.85
425.094	2436.4
425.302	2327.86
425.51	2522.41
425.718	2620.72
425.925	2616.62
426.133	2702.64
426.341	2891.05
426.548	2964.78
426.756	2886.95
426.964	3069.22
427.171	3169.57
427.379	3163.43
427.586	3267.88
427.794	3357.99
428.001	3507.49
428.209	3663.13
428.417	3685.66
428.624	3925.27
428.832	3876.12
429.039	3843.35
429.247	3892.51
429.454	4218.13
429.662	4465.94
429.869	4232.47
430.076	4605.2
430.284	4392.21
430.491	4660.49
430.699	4726.03
430.906	4922.63
431.114	4885.77
431.321	5111.05
431.528	5217.54
431.736	5496.07
431.943	5704.96
432.15	5694.72
432.358	5637.38
432.565	6010.11
432.772	5891.32
432.979	6194.42
433.187	6292.73
433.394	6370.55
433.601	6864.11
433.808	6913.26
434.016	6769.9
434.223	7116.01
434.43	7701.73
434.637	7296.23
434.844	7888.09
435.052	7865.57
435.259	8113.37
435.466	8047.83
435.673	7945.44
435.88	8387.8
436.087	8799.44
436.294	8881.36
436.501	8574.16
436.708	8862.93
436.915	9098.44
437.122	9534.66
437.329	9567.43
437.537	9911.49
437.743	9974.97
437.95	10202.3
438.157	10398.9
438.364	10771.63
438.571	10572.98
438.778	10976.43
438.985	11781.28
439.192	11289.77
439.399	11713.7
439.606	11381.93
439.813	11943.07
440.02	12913.81
440.227	12719.25
440.433	12668.05
440.64	12819.6
440.847	12770.45
441.054	13253.77
441.261	14183.55
441.467	13884.55
441.674	14148.73
441.881	14564.47
442.088	14503.03
442.294	14584.95
442.501	14609.53
442.708	15238.25
442.914	15686.76
443.121	16194.65
443.328	15772.77
443.534	16925.78
443.741	16350.3
443.948	16204.89
444.154	17417.29
444.361	17499.21
444.568	17239.12
444.774	17458.25
444.981	17607.75
445.187	18181.18
445.394	19026.99
445.6	18482.24
445.807	20696.09
446.013	19385.39
446.22	20053.03
446.426	20851.74
446.633	20812.82
446.839	21554.19
447.046	20642.84
447.252	22019.08
447.459	22230.02
447.665	21945.35
447.871	22899.7
448.078	23813.1
448.284	22680.57
448.491	23239.67
448.697	24226.79
448.903	24669.15
449.11	24853.47
449.316	24620
449.522	24572.89
449.728	25463.76
449.935	25797.58
450.141	25340.88
450.347	26553.28
450.553	25738.19
450.76	26010.57
450.966	26829.76
451.172	26266.56
451.378	27190.2
451.584	26713.02
451.791	27296.69
451.997	27327.41
452.203	27564.98
452.409	27888.56
452.615	27949.99
452.821	26479.55
453.027	26311.62
453.233	27603.89
453.44	26608.58
453.646	27016.12
453.852	27225.01
454.058	27808.68
454.264	26698.69
454.47	27397.04
454.676	26594.24
454.882	27876.27
455.088	25105.37
455.294	25983.94
455.5	25963.47
455.705	26389.44
455.911	25416.66
456.117	24755.16
456.323	24779.74
456.529	23348.21
456.735	24529.89
456.941	23589.87
457.147	23321.59
457.352	22774.78
457.558	22567.93
457.764	22520.83
457.97	22244.35
458.176	21873.67
458.381	22033.41
458.587	21007.38
458.793	20409.37
458.999	19801.13
459.204	21048.34
459.41	20358.17
459.616	19053.62
459.821	19199.02
460.027	19176.5
460.233	18803.77
460.438	17820.74
460.644	18132.03
460.85	17239.12
461.055	17116.24
461.261	16628.82
461.466	15676.52
461.672	15154.29
461.878	16567.38
462.083	15369.32
462.289	14957.68
462.494	14488.7
462.7	14007.42
462.905	13706.37
463.111	14064.77
463.316	14007.42
463.522	13876.35
463.727	13823.11
463.932	13995.14
464.138	13565.06
464.343	13728.9
464.549	13413.51
464.754	13683.84
464.959	13665.41
465.165	13372.55
465.37	13053.07
465.575	12565.65
465.781	13354.12
465.986	13419.66
466.191	12799.12
466.397	12176.54
466.602	11918.5
466.807	12446.87
467.012	12518.55
467.218	12303.51
467.423	12049.57
467.628	12254.36
467.833	12780.69
