Data from USB4F104151__19__14-42-41-748.txt Node

Date: Thu Mar 13 14:42:41 EDT 2025
User: louis
Spectrometer: USB4F10415
Trigger mode: 4
Integration Time (sec): 2.000000E-2
Scans to average: 1
Electric dark correction enabled: true
Nonlinearity correction enabled: false
Boxcar width: 0
XAxis mode: Wavelengths
Number of Pixels in Spectrum: 3648
>>>>>Begin Spectral Data<<<<<
178.204	-136.87
178.424	-136.87
178.644	-136.87
178.864	-110.25
179.084	-97.96
179.304	-22.19
179.524	8.53
179.744	37.2
179.964	61.78
180.184	0.34
180.404	0.34
180.624	-61.1
180.844	-7.85
181.064	-9.9
181.283	45.4
181.503	-61.1
181.723	8.53
181.943	-46.76
182.163	-36.52
182.383	0.34
182.602	12.63
182.822	43.35
183.042	49.49
183.262	29.01
183.482	20.82
183.701	-28.33
183.921	65.88
184.141	8.53
184.361	35.16
184.58	69.97
184.8	-5.8
185.02	29.01
185.239	69.97
185.459	6.49
185.679	74.07
185.898	24.92
186.118	141.65
186.338	82.26
186.557	98.64
186.777	-5.8
186.997	-30.38
187.216	67.92
187.436	139.6
187.655	53.59
187.875	78.16
188.095	4.44
188.314	57.68
188.534	10.58
188.753	16.73
188.973	-16.04
189.192	49.49
189.412	2.39
189.631	108.88
189.851	41.3
190.07	16.73
190.29	-7.85
190.509	2.39
190.729	-22.19
190.948	18.77
191.168	90.45
191.387	41.3
191.607	0.34
191.826	65.88
192.045	65.88
192.265	67.92
192.484	20.82
192.704	-20.14
192.923	-9.9
193.142	59.73
193.362	63.83
193.581	22.87
193.8	43.35
194.02	12.63
194.239	4.44
194.458	20.82
194.678	-28.33
194.897	94.55
195.116	16.73
195.335	-7.85
195.555	57.68
195.774	-40.62
195.993	33.11
196.212	24.92
196.432	24.92
196.651	24.92
196.87	-71.34
197.089	108.88
197.308	69.97
197.528	43.35
197.747	35.16
197.966	10.58
198.185	65.88
198.404	-36.52
198.623	57.68
198.842	67.92
199.062	86.36
199.281	78.16
199.5	-7.85
199.719	41.3
199.938	51.54
200.157	76.12
200.376	24.92
200.595	88.4
200.814	74.07
201.033	12.63
201.252	90.45
201.471	49.49
201.69	72.02
201.909	49.49
202.128	8.53
202.347	43.35
202.566	-5.8
202.785	123.22
203.004	12.63
203.223	90.45
203.442	26.96
203.661	-3.75
203.879	41.3
204.098	98.64
204.317	-24.23
204.536	106.84
204.755	69.97
204.974	51.54
205.193	-24.23
205.411	141.65
205.63	37.2
205.849	14.68
206.068	-16.04
206.287	20.82
206.505	-11.95
206.724	-5.8
206.943	37.2
207.162	41.3
207.381	63.83
207.599	53.59
207.818	37.2
208.037	-3.75
208.255	53.59
208.474	4.44
208.693	55.64
208.911	35.16
209.13	49.49
209.349	-18.09
209.567	20.82
209.786	65.88
210.005	20.82
210.223	74.07
210.442	2.39
210.661	49.49
210.879	123.22
211.098	88.4
211.316	0.34
211.535	31.06
211.753	41.3
211.972	35.16
212.191	-71.34
212.409	24.92
212.628	86.36
212.846	33.11
213.065	26.96
213.283	61.78
213.502	18.77
213.72	-24.23
213.938	59.73
214.157	72.02
214.375	18.77
214.594	35.16
214.812	53.59
215.031	41.3
215.249	8.53
215.467	41.3
215.686	2.39
215.904	49.49
216.122	33.11
216.341	57.68
216.559	53.59
216.778	22.87
216.996	72.02
217.214	18.77
217.432	69.97
217.651	26.96
217.869	-13.99
218.087	57.68
218.306	35.16
218.524	84.31
218.742	20.82
218.96	20.82
219.179	0.34
219.397	37.2
219.615	100.69
219.833	-5.8
220.051	-48.81
220.27	82.26
220.488	90.45
220.706	43.35
220.924	-36.52
221.142	8.53
221.36	-26.28
221.578	49.49
221.796	16.73
222.015	41.3
222.233	49.49
222.451	98.64
222.669	33.11
222.887	51.54
223.105	8.53
223.323	24.92
223.541	-5.8
223.759	61.78
223.977	-32.43
224.195	-3.75
224.413	86.36
224.631	41.3
224.849	55.64
225.067	108.88
225.285	53.59
225.503	16.73
225.721	-48.81
225.939	2.39
226.157	33.11
226.375	92.5
226.592	-52.91
226.81	82.26
227.028	33.11
227.246	51.54
227.464	31.06
227.682	29.01
227.9	8.53
228.117	37.2
228.335	67.92
228.553	0.34
228.771	33.11
228.989	37.2
229.206	57.68
229.424	16.73
229.642	67.92
229.86	57.68
230.077	59.73
230.295	90.45
230.513	39.25
230.731	108.88
230.948	0.34
231.166	43.35
231.384	29.01
231.601	20.82
231.819	16.73
232.037	53.59
232.254	65.88
232.472	14.68
232.689	12.63
232.907	57.68
233.125	20.82
233.342	-7.85
233.56	16.73
233.777	8.53
233.995	-7.85
234.213	106.84
234.43	74.07
234.648	98.64
234.865	-26.28
235.083	-13.99
235.3	10.58
235.518	61.78
235.735	127.32
235.953	49.49
236.17	90.45
236.388	16.73
236.605	18.77
236.822	59.73
237.04	106.84
237.257	41.3
237.475	2.39
237.692	20.82
237.909	-20.14
238.127	10.58
238.344	8.53
238.562	49.49
238.779	-7.85
238.996	-40.62
239.214	-48.81
239.431	35.16
239.648	10.58
239.865	59.73
240.083	90.45
240.3	-7.85
240.517	90.45
240.735	65.88
240.952	59.73
241.169	69.97
241.386	26.96
241.603	41.3
241.821	14.68
242.038	67.92
242.255	29.01
242.472	-57
242.689	65.88
242.907	57.68
243.124	33.11
243.341	18.77
243.558	10.58
243.775	24.92
243.992	-28.33
244.209	10.58
244.426	117.08
244.643	16.73
244.86	33.11
245.078	41.3
245.295	22.87
245.512	26.96
245.729	16.73
245.946	41.3
246.163	37.2
246.38	20.82
246.597	24.92
246.814	96.6
247.031	4.44
247.248	86.36
247.464	14.68
247.681	41.3
247.898	35.16
248.115	-61.1
248.332	53.59
248.549	115.03
248.766	8.53
248.983	49.49
249.2	65.88
249.417	-24.23
249.633	57.68
249.85	-11.95
250.067	-28.33
250.284	74.07
250.501	41.3
250.717	-7.85
250.934	8.53
251.151	67.92
251.368	20.82
251.585	82.26
251.801	26.96
252.018	-52.91
252.235	102.74
252.451	-73.39
252.668	37.2
252.885	74.07
253.102	-38.57
253.318	102.74
253.535	-5.8
253.752	0.34
253.968	65.88
254.185	4.44
254.401	43.35
254.618	33.11
254.835	143.7
255.051	26.96
255.268	4.44
255.484	49.49
255.701	65.88
255.917	78.16
256.134	78.16
256.351	53.59
256.567	-26.28
256.784	43.35
257	-18.09
257.217	41.3
257.433	86.36
257.65	-7.85
257.866	59.73
258.082	-5.8
258.299	-32.43
258.515	16.73
258.732	84.31
258.948	-57
259.165	69.97
259.381	16.73
259.597	94.55
259.814	51.54
260.03	106.84
260.246	57.68
260.463	80.21
260.679	104.79
260.895	24.92
261.112	51.54
261.328	41.3
261.544	41.3
261.761	115.03
261.977	-18.09
262.193	-11.95
262.409	20.82
262.626	82.26
262.842	-24.23
263.058	49.49
263.274	90.45
263.49	4.44
263.707	90.45
263.923	86.36
264.139	-77.48
264.355	41.3
264.571	-20.14
264.787	43.35
265.004	61.78
265.22	37.2
265.436	45.4
265.652	10.58
265.868	65.88
266.084	35.16
266.3	82.26
266.516	-59.05
266.732	67.92
266.948	24.92
267.164	37.2
267.38	82.26
267.596	92.5
267.812	90.45
268.028	90.45
268.244	-3.75
268.46	0.34
268.676	49.49
268.892	33.11
269.108	-40.62
269.324	-7.85
269.54	6.49
269.756	106.84
269.972	10.58
270.188	24.92
270.403	8.53
270.619	24.92
270.835	108.88
271.051	22.87
271.267	26.96
271.483	2.39
271.698	65.88
271.914	41.3
272.13	90.45
272.346	20.82
272.562	57.68
272.777	123.22
272.993	20.82
273.209	0.34
273.425	16.73
273.64	20.82
273.856	41.3
274.072	39.25
274.287	8.53
274.503	4.44
274.719	41.3
274.934	-61.1
275.15	-7.85
275.366	-11.95
275.581	16.73
275.797	80.21
276.012	100.69
276.228	82.26
276.444	-11.95
276.659	57.68
276.875	8.53
277.09	69.97
277.306	24.92
277.521	16.73
277.737	47.44
277.952	69.97
278.168	-54.95
278.383	57.68
278.599	45.4
278.814	106.84
279.03	-20.14
279.245	119.12
279.461	8.53
279.676	33.11
279.892	-11.95
280.107	-38.57
280.322	35.16
280.538	49.49
280.753	86.36
280.969	2.39
281.184	51.54
281.399	24.92
281.615	-46.76
281.83	65.88
282.045	-5.8
282.26	47.44
282.476	-57
282.691	74.07
282.906	65.88
283.122	2.39
283.337	12.63
283.552	106.84
283.767	18.77
283.983	102.74
284.198	49.49
284.413	41.3
284.628	22.87
284.843	16.73
285.058	41.3
285.274	12.63
285.489	-5.8
285.704	35.16
285.919	-69.29
286.134	-9.9
286.349	35.16
286.564	-7.85
286.779	80.21
286.995	41.3
287.21	4.44
287.425	141.65
287.64	-5.8
287.855	59.73
288.07	31.06
288.285	74.07
288.5	33.11
288.715	-3.75
288.93	33.11
289.145	-40.62
289.36	-5.8
289.575	-3.75
289.79	69.97
290.004	16.73
290.219	29.01
290.434	29.01
290.649	76.12
290.864	90.45
291.079	16.73
291.294	72.02
291.509	76.12
291.724	59.73
291.938	-13.99
292.153	6.49
292.368	33.11
292.583	-3.75
292.798	94.55
293.012	74.07
293.227	82.26
293.442	115.03
293.657	117.08
293.871	74.07
294.086	-32.43
294.301	43.35
294.516	29.01
294.73	-5.8
294.945	-50.86
295.16	33.11
295.374	18.77
295.589	35.16
295.804	-30.38
296.018	100.69
296.233	98.64
296.447	106.84
296.662	110.93
296.877	57.68
297.091	-38.57
297.306	24.92
297.52	-11.95
297.735	141.65
297.949	49.49
298.164	31.06
298.378	33.11
298.593	26.96
298.807	22.87
299.022	57.68
299.236	119.12
299.451	78.16
299.665	37.2
299.88	-24.23
300.094	26.96
300.309	41.3
300.523	16.73
300.737	86.36
300.952	-11.95
301.166	10.58
301.381	20.82
301.595	16.73
301.809	37.2
302.024	33.11
302.238	16.73
302.452	72.02
302.667	29.01
302.881	74.07
303.095	61.78
303.309	143.7
303.524	10.58
303.738	110.93
303.952	10.58
304.166	24.92
304.381	82.26
304.595	117.08
304.809	33.11
305.023	82.26
305.237	-28.33
305.452	-5.8
305.666	39.25
305.88	22.87
306.094	65.88
306.308	24.92
306.522	94.55
306.736	22.87
306.95	65.88
307.164	-16.04
307.379	-24.23
307.593	82.26
307.807	10.58
308.021	100.69
308.235	24.92
308.449	41.3
308.663	33.11
308.877	74.07
309.091	20.82
309.305	45.4
309.519	-22.19
309.733	35.16
309.947	12.63
310.161	47.44
310.374	-7.85
310.588	61.78
310.802	49.49
311.016	18.77
311.23	22.87
311.444	8.53
311.658	78.16
311.872	33.11
312.085	51.54
312.299	59.73
312.513	119.12
312.727	131.41
312.941	6.49
313.154	92.5
313.368	35.16
313.582	29.01
313.796	106.84
314.009	-13.99
314.223	20.82
314.437	106.84
314.651	76.12
314.864	55.64
315.078	57.68
315.292	49.49
315.505	2.39
315.719	119.12
315.933	4.44
316.146	-11.95
316.36	57.68
316.573	53.59
316.787	57.68
317.001	90.45
317.214	24.92
317.428	26.96
317.641	-11.95
317.855	16.73
318.068	74.07
318.282	-11.95
318.495	74.07
318.709	45.4
318.922	33.11
319.136	41.3
319.349	74.07
319.563	4.44
319.776	67.92
319.99	-16.04
320.203	-11.95
320.417	57.68
320.63	117.08
320.843	115.03
321.057	33.11
321.27	10.58
321.483	45.4
321.697	57.68
321.91	53.59
322.124	-5.8
322.337	18.77
322.55	-46.76
322.763	18.77
322.977	16.73
323.19	-24.23
323.403	41.3
323.617	2.39
323.83	49.49
324.043	61.78
324.256	29.01
324.469	-22.19
324.683	149.84
324.896	22.87
325.109	14.68
325.322	69.97
325.535	74.07
325.748	8.53
325.962	57.68
326.175	102.74
326.388	24.92
326.601	74.07
326.814	-1.71
327.027	-13.99
327.24	76.12
327.453	43.35
327.666	106.84
327.879	-5.8
328.092	76.12
328.305	57.68
328.518	59.73
328.731	-7.85
328.944	92.5
329.157	4.44
329.37	-22.19
329.583	90.45
329.796	176.47
330.009	57.68
330.222	102.74
330.435	33.11
330.648	26.96
330.861	18.77
331.073	65.88
331.286	69.97
331.499	57.68
331.712	-24.23
331.925	41.3
332.138	82.26
332.35	61.78
332.563	-57
332.776	98.64
332.989	6.49
333.202	20.82
333.414	18.77
333.627	65.88
333.84	24.92
334.053	49.49
334.265	0.34
334.478	35.16
334.691	100.69
334.903	0.34
335.116	8.53
335.329	35.16
335.541	37.2
335.754	92.5
335.966	43.35
336.179	69.97
336.392	108.88
336.604	43.35
336.817	10.58
337.029	82.26
337.242	0.34
337.454	59.73
337.667	12.63
337.88	88.4
338.092	65.88
338.305	86.36
338.517	10.58
338.729	16.73
338.942	39.25
339.154	-40.62
339.367	-26.28
339.579	33.11
339.792	8.53
340.004	98.64
340.217	37.2
340.429	69.97
340.641	41.3
340.854	90.45
341.066	16.73
341.278	45.4
341.491	106.84
341.703	4.44
341.915	8.53
342.128	-13.99
342.34	112.98
342.552	78.16
342.764	24.92
342.977	84.31
343.189	16.73
343.401	8.53
343.613	-26.28
343.826	69.97
344.038	31.06
344.25	33.11
344.462	16.73
344.674	33.11
344.886	74.07
345.099	37.2
345.311	22.87
345.523	80.21
345.735	8.53
345.947	31.06
346.159	51.54
346.371	74.07
346.583	43.35
346.795	18.77
347.007	29.01
347.219	35.16
347.431	115.03
347.643	8.53
347.855	-5.8
348.067	90.45
348.279	20.82
348.491	72.02
348.703	94.55
348.915	-16.04
349.127	43.35
349.339	8.53
349.551	6.49
349.763	29.01
349.975	14.68
350.187	147.8
350.399	33.11
350.61	26.96
350.822	-36.52
351.034	2.39
351.246	76.12
351.458	12.63
351.669	49.49
351.881	10.58
352.093	106.84
352.305	-32.43
352.517	18.77
352.728	106.84
352.94	-7.85
353.152	57.68
353.363	26.96
353.575	53.59
353.787	37.2
353.999	90.45
354.21	63.83
354.422	37.2
354.633	-22.19
354.845	86.36
355.057	6.49
355.268	2.39
355.48	8.53
355.692	-16.04
355.903	49.49
356.115	35.16
356.326	-28.33
356.538	12.63
356.749	141.65
356.961	106.84
357.172	57.68
357.384	37.2
357.595	74.07
357.807	-26.28
358.018	-3.75
358.23	33.11
358.441	94.55
358.653	90.45
358.864	35.16
359.075	35.16
359.287	41.3
359.498	-7.85
359.709	106.84
359.921	65.88
360.132	47.44
360.344	4.44
360.555	59.73
360.766	49.49
360.977	39.25
361.189	24.92
361.4	43.35
361.611	65.88
361.823	18.77
362.034	74.07
362.245	4.44
362.456	41.3
362.667	59.73
362.879	43.35
363.09	139.6
363.301	49.49
363.512	2.39
363.723	-1.71
363.935	33.11
364.146	26.96
364.357	-28.33
364.568	0.34
364.779	8.53
364.99	10.58
365.201	-5.8
365.412	119.12
365.623	-11.95
365.834	8.53
366.045	14.68
366.256	76.12
366.467	-5.8
366.678	57.68
366.889	43.35
367.1	45.4
367.311	26.96
367.522	61.78
367.733	18.77
367.944	72.02
368.155	90.45
368.366	59.73
368.577	20.82
368.788	33.11
368.999	-36.52
369.209	-7.85
369.42	100.69
369.631	86.36
369.842	74.07
370.053	90.45
370.264	33.11
370.474	2.39
370.685	133.46
370.896	33.11
371.107	49.49
371.317	106.84
371.528	-16.04
371.739	37.2
371.95	37.2
372.16	57.68
372.371	20.82
372.582	61.78
372.792	18.77
373.003	33.11
373.214	51.54
373.424	24.92
373.635	37.2
373.846	106.84
374.056	43.35
374.267	49.49
374.477	53.59
374.688	-5.8
374.898	67.92
375.109	139.6
375.319	-24.23
375.53	10.58
375.74	16.73
375.951	20.82
376.161	24.92
376.372	92.5
376.582	2.39
376.793	92.5
377.003	37.2
377.214	51.54
377.424	80.21
377.635	84.31
377.845	-48.81
378.055	20.82
378.266	51.54
378.476	65.88
378.686	-16.04
378.897	78.16
379.107	49.49
379.317	65.88
379.528	63.83
379.738	43.35
379.948	-28.33
380.158	141.65
380.369	53.59
380.579	37.2
380.789	53.59
380.999	131.41
381.21	20.82
381.42	39.25
381.63	-7.85
381.84	53.59
382.05	33.11
382.261	22.87
382.471	35.16
382.681	45.4
382.891	98.64
383.101	82.26
383.311	94.55
383.521	57.68
383.731	-3.75
383.941	63.83
384.151	14.68
384.361	72.02
384.571	16.73
384.781	106.84
384.991	63.83
385.201	82.26
385.411	74.07
385.621	65.88
385.831	63.83
386.041	4.44
386.251	82.26
386.461	123.22
386.671	90.45
386.881	0.34
387.091	61.78
387.301	61.78
387.511	33.11
387.72	155.99
387.93	45.4
388.14	74.07
388.35	78.16
388.56	53.59
388.769	43.35
388.979	129.36
389.189	-13.99
389.399	18.77
389.609	106.84
389.818	102.74
390.028	24.92
390.238	90.45
390.447	51.54
390.657	51.54
390.867	-87.72
391.076	18.77
391.286	57.68
391.496	57.68
391.705	31.06
391.915	55.64
392.125	119.12
392.334	92.5
392.544	49.49
392.753	-11.95
392.963	2.39
393.172	33.11
393.382	-26.28
393.591	98.64
393.801	119.12
394.01	41.3
394.22	49.49
394.429	67.92
394.639	29.01
394.848	57.68
395.058	37.2
395.267	63.83
395.477	84.31
395.686	24.92
395.895	137.56
396.105	115.03
396.314	65.88
396.524	14.68
396.733	51.54
396.942	123.22
397.152	106.84
397.361	127.32
397.57	22.87
397.78	43.35
397.989	51.54
398.198	108.88
398.407	29.01
398.617	72.02
398.826	108.88
399.035	49.49
399.244	94.55
399.453	90.45
399.663	16.73
399.872	61.78
400.081	78.16
400.29	100.69
400.499	6.49
400.708	59.73
400.917	74.07
401.127	-42.67
401.336	86.36
401.545	110.93
401.754	127.32
401.963	69.97
402.172	74.07
402.381	57.68
402.59	57.68
402.799	98.64
403.008	115.03
403.217	59.73
403.426	98.64
403.635	86.36
403.844	125.27
404.053	57.68
404.262	76.12
404.471	123.22
404.68	90.45
404.888	82.26
405.097	98.64
405.306	131.41
405.515	164.18
405.724	147.8
405.933	98.64
406.142	158.03
406.35	164.18
406.559	127.32
406.768	112.98
406.977	143.7
407.185	86.36
407.394	231.76
407.603	61.78
407.812	198.99
408.02	164.18
408.229	143.7
408.438	186.71
408.646	108.88
408.855	180.56
409.064	196.95
409.272	90.45
409.481	239.95
409.69	139.6
409.898	115.03
410.107	196.95
410.315	108.88
410.524	112.98
410.733	198.99
410.941	229.71
411.15	229.71
411.358	282.96
411.567	264.53
411.775	151.89
411.984	258.39
412.192	256.34
412.401	256.34
412.609	328.02
412.818	305.49
413.026	354.64
413.234	303.44
413.443	272.72
413.651	371.02
413.86	418.13
414.068	360.78
414.276	422.22
414.485	426.32
414.693	448.85
414.901	508.24
415.11	444.75
415.318	471.37
415.526	461.13
415.734	463.18
415.943	504.14
416.151	475.47
416.359	483.66
416.567	551.24
416.776	549.2
416.984	592.2
417.192	581.96
417.4	524.62
417.608	549.2
417.817	622.92
418.025	659.79
418.233	723.27
418.441	637.26
418.649	731.47
418.857	813.38
419.065	829.77
419.273	743.75
419.481	809.29
419.689	790.86
419.897	831.82
420.105	899.4
420.313	870.73
420.521	1016.13
420.729	1077.57
420.937	919.88
421.145	1036.61
421.353	1157.44
421.561	1081.67
421.769	1159.49
421.977	1210.69
422.185	1280.32
422.393	1343.81
422.601	1425.73
422.809	1270.08
423.017	1343.81
423.224	1491.26
423.432	1450.3
423.64	1438.02
423.848	1593.66
424.056	1556.8
424.263	1673.53
424.471	1737.02
424.679	1683.77
424.887	1788.22
425.094	1919.29
425.302	1839.42
425.51	1950.01
425.718	2117.94
425.925	1988.92
426.133	2124.08
426.341	2212.15
426.548	2400.56
426.756	2302.26
426.964	2433.33
427.171	2507.06
427.379	2535.73
427.586	2476.34
427.794	2705.71
428.001	2828.59
428.209	2922.79
428.417	2834.73
428.624	3162.41
428.832	3041.57
429.039	2871.59
429.247	3025.19
429.454	3344.67
429.662	3490.08
429.869	3344.67
430.076	3539.23
430.284	3467.55
430.491	3647.77
430.699	3834.14
430.906	3768.6
431.114	3825.95
431.321	4008.22
431.528	4180.25
431.736	4333.84
431.943	4557.07
432.15	4366.61
432.358	4458.77
432.565	4608.27
432.772	4649.23
432.979	4800.78
433.187	4882.7
433.394	5132.55
433.601	5245.19
433.808	5470.47
434.016	5368.07
434.223	5566.72
434.43	5857.53
434.637	5656.83
434.844	6035.71
435.052	6154.49
435.259	6164.73
435.466	6355.19
435.673	6236.41
435.88	6707.44
436.087	7043.31
436.294	7059.69
436.501	6928.62
436.708	6922.48
436.915	7164.14
437.122	7348.45
437.329	7356.65
437.537	7667.94
437.743	7694.56
437.95	7653.6
438.157	8274.14
438.364	8487.12
438.571	8564.95
438.778	8356.05
438.985	9095.37
439.192	8822.99
439.399	9181.39
439.606	8939.72
439.813	9586.88
440.02	9976
440.227	9961.66
440.433	9701.57
440.64	10086.59
440.847	9937.09
441.054	10410.17
441.261	10993.84
441.467	10969.26
441.674	10911.92
441.881	11514.02
442.088	11219.11
442.294	11258.03
442.501	11632.8
442.708	11761.83
442.914	12257.43
443.121	12963.98
443.328	12617.88
443.534	13330.57
443.741	13039.76
443.948	12800.15
444.154	13762.69
444.361	13697.16
444.568	13854.85
444.774	13867.14
444.981	13860.99
445.187	14428.28
445.394	14776.44
445.6	14817.4
445.807	16468.06
446.013	15470.7
446.22	15863.91
446.426	16371.8
446.633	16734.29
446.839	17188.94
447.046	16451.67
447.252	17623.11
447.459	17526.86
447.665	17471.56
447.871	18266.17
448.078	19363.89
448.284	18106.43
448.491	18784.31
448.697	19345.45
448.903	19882.02
449.11	19697.7
449.316	19507.24
449.522	19740.71
449.728	20561.95
449.935	20523.04
450.141	20549.66
450.347	21280.78
450.553	20408.35
450.76	20875.29
450.966	21522.44
451.172	21131.28
451.378	21884.94
451.584	21407.76
451.791	21960.71
451.997	21946.37
452.203	22274.05
452.409	22444.03
452.615	22202.37
452.821	21295.12
453.027	21129.23
453.233	22554.62
453.44	21432.33
453.646	21686.28
453.852	22063.11
454.058	22038.53
454.264	21614.6
454.47	22239.23
454.676	21413.9
454.882	22001.67
455.088	20099.11
455.294	20652.06
455.5	20946.97
455.705	21166.1
455.911	20443.17
456.117	19916.84
456.323	19634.22
456.529	18778.17
456.735	19509.29
456.941	18845.75
457.147	18726.97
457.352	18135.1
457.558	17999.94
457.764	18196.54
457.97	17756.23
458.176	17371.21
458.381	17332.3
458.587	16511.07
458.793	16797.78
458.999	15558.76
459.204	16767.06
459.41	16310.36
459.616	15360.11
459.821	15323.24
460.027	15263.85
460.233	14979.18
460.438	14545.02
460.644	14327.93
460.85	13783.17
461.055	13525.13
461.261	13525.13
461.466	12556.44
461.672	12220.57
461.878	13183.12
462.083	12286.11
462.289	11813.03
462.494	12001.44
462.7	11276.46
462.905	11077.8
463.111	11491.49
463.316	11493.54
463.522	10936.49
463.727	11430.05
463.932	11227.31
464.138	11206.83
464.343	11405.48
464.549	10811.57
464.754	11264.17
464.959	11110.57
465.165	11139.24
465.37	10584.24
465.575	10174.65
465.781	10842.29
465.986	10762.42
466.191	10442.93
466.397	10285.24
466.602	9726.14
466.807	10031.29
467.012	10209.47
467.218	10010.81
467.423	9851.07
467.628	10102.97
467.833	10424.5
468.038	9957.57
468.244	9793.73
468.449	10102.97
468.654	9722.05
468.859	9867.45
