Data from USB4F104151__74__14-43-24-057.txt Node

Date: Thu Mar 13 14:43:24 EDT 2025
User: louis
Spectrometer: USB4F10415
Trigger mode: 4
Integration Time (sec): 2.000000E-2
Scans to average: 1
Electric dark correction enabled: true
Nonlinearity correction enabled: false
Boxcar width: 0
XAxis mode: Wavelengths
Number of Pixels in Spectrum: 3648
>>>>>Begin Spectral Data<<<<<
178.204	-46.25
178.424	-46.25
178.644	-46.25
178.864	-124.07
179.084	-60.59
179.304	29.52
179.524	11.09
179.744	31.57
179.964	-36.01
180.184	2.9
180.404	19.29
180.624	-42.15
180.844	27.48
181.064	-48.3
181.283	-11.43
181.503	-21.67
181.723	37.72
181.943	-17.58
182.163	99.16
182.383	29.52
182.602	45.91
182.822	105.3
183.042	43.86
183.262	13.14
183.482	19.29
183.701	27.48
183.921	19.29
184.141	21.33
184.361	33.62
184.58	-1.19
184.8	54.1
185.02	78.68
185.239	45.91
185.459	50
185.679	88.92
185.898	86.87
186.118	76.63
186.338	76.63
186.557	72.53
186.777	-15.53
186.997	-40.11
187.216	121.68
187.436	174.93
187.655	-15.53
187.875	68.44
188.095	-27.82
188.314	82.77
188.534	68.44
188.753	95.06
188.973	119.64
189.192	76.63
189.412	23.38
189.631	60.24
189.851	-13.48
190.07	68.44
190.29	50
190.509	-27.82
190.729	93.01
190.948	21.33
191.168	133.97
191.387	179.03
191.607	-17.58
191.826	84.82
192.045	54.1
192.265	2.9
192.484	15.19
192.704	54.1
192.923	64.34
193.142	86.87
193.362	43.86
193.581	136.02
193.8	0.85
194.02	117.59
194.239	4.95
194.458	43.86
194.678	27.48
194.897	84.82
195.116	27.48
195.335	103.25
195.555	93.01
195.774	-3.24
195.993	60.24
196.212	70.48
196.432	109.4
196.651	103.25
196.87	29.52
197.089	136.02
197.308	82.77
197.528	103.25
197.747	-36.01
197.966	33.62
198.185	101.2
198.404	39.76
198.623	80.72
198.842	113.49
199.062	103.25
199.281	62.29
199.5	54.1
199.719	29.52
199.938	76.63
200.157	29.52
200.376	123.73
200.595	60.24
200.814	35.67
201.033	2.9
201.252	70.48
201.471	62.29
201.69	105.3
201.909	121.68
202.128	47.96
202.347	29.52
202.566	54.1
202.785	37.72
203.004	76.63
203.223	162.64
203.442	35.67
203.661	111.44
203.879	45.91
204.098	117.59
204.317	93.01
204.536	62.29
204.755	35.67
204.974	56.15
205.193	27.48
205.411	101.2
205.63	84.82
205.849	43.86
206.068	52.05
206.287	-5.29
206.505	95.06
206.724	19.29
206.943	7
207.162	31.57
207.381	52.05
207.599	35.67
207.818	62.29
208.037	84.82
208.255	68.44
208.474	70.48
208.693	27.48
208.911	68.44
209.13	72.53
209.349	11.09
209.567	136.02
209.786	31.57
210.005	62.29
210.223	97.11
210.442	-9.39
210.661	93.01
210.879	35.67
211.098	82.77
211.316	2.9
211.535	52.05
211.753	2.9
211.972	82.77
212.191	39.76
212.409	4.95
212.628	11.09
212.846	35.67
213.065	25.43
213.283	45.91
213.502	103.25
213.72	21.33
213.938	41.81
214.157	37.72
214.375	86.87
214.594	37.72
214.812	86.87
215.031	60.24
215.249	0.85
215.467	15.19
215.686	60.24
215.904	43.86
216.122	19.29
216.341	127.83
216.559	39.76
216.778	150.36
216.996	45.91
217.214	-1.19
217.432	35.67
217.651	27.48
217.869	58.2
218.087	72.53
218.306	-3.24
218.524	47.96
218.742	27.48
218.96	23.38
219.179	21.33
219.397	84.82
219.615	13.14
219.833	109.4
220.051	43.86
220.27	68.44
220.488	41.81
220.706	68.44
220.924	31.57
221.142	78.68
221.36	72.53
221.578	43.86
221.796	17.24
222.015	-50.35
222.233	142.16
222.451	60.24
222.669	-40.11
222.887	78.68
223.105	27.48
223.323	19.29
223.541	-1.19
223.759	39.76
223.977	123.73
224.195	47.96
224.413	93.01
224.631	156.5
224.849	-25.77
225.067	103.25
225.285	-27.82
225.503	35.67
225.721	80.72
225.939	19.29
226.157	-27.82
226.375	76.63
226.592	35.67
226.81	45.91
227.028	131.92
227.246	103.25
227.464	68.44
227.682	21.33
227.9	21.33
228.117	93.01
228.335	72.53
228.553	72.53
228.771	37.72
228.989	68.44
229.206	15.19
229.424	-38.06
229.642	-29.87
229.86	-13.48
230.077	123.73
230.295	90.96
230.513	80.72
230.731	84.82
230.948	-1.19
231.166	109.4
231.384	74.58
231.601	84.82
231.819	93.01
232.037	70.48
232.254	-46.25
232.472	41.81
232.689	11.09
232.907	125.78
233.125	47.96
233.342	-21.67
233.56	35.67
233.777	64.34
233.995	35.67
234.213	56.15
234.43	21.33
234.648	37.72
234.865	-1.19
235.083	15.19
235.3	-46.25
235.518	68.44
235.735	80.72
235.953	72.53
236.17	-19.63
236.388	45.91
236.605	23.38
236.822	154.45
237.04	60.24
237.257	68.44
237.475	52.05
237.692	52.05
237.909	60.24
238.127	31.57
238.344	60.24
238.562	68.44
238.779	13.14
238.996	93.01
239.214	70.48
239.431	88.92
239.648	29.52
239.865	23.38
240.083	13.14
240.3	-33.96
240.517	56.15
240.735	82.77
240.952	76.63
241.169	111.44
241.386	4.95
241.603	76.63
241.821	56.15
242.038	95.06
242.255	52.05
242.472	-44.2
242.689	93.01
242.907	60.24
243.124	21.33
243.341	107.35
243.558	19.29
243.775	21.33
243.992	15.19
244.209	70.48
244.426	88.92
244.643	13.14
244.86	-9.39
245.078	27.48
245.295	56.15
245.512	117.59
245.729	4.95
245.946	7
246.163	74.58
246.38	-68.78
246.597	64.34
246.814	88.92
247.031	76.63
247.248	60.24
247.464	68.44
247.681	84.82
247.898	117.59
248.115	11.09
248.332	-17.58
248.549	119.64
248.766	54.1
248.983	80.72
249.2	27.48
249.417	133.97
249.633	-13.48
249.85	129.88
250.067	45.91
250.284	39.76
250.501	-3.24
250.717	166.74
250.934	4.95
251.151	54.1
251.368	27.48
251.585	117.59
251.801	58.2
252.018	27.48
252.235	52.05
252.451	62.29
252.668	7
252.885	105.3
253.102	84.82
253.318	70.48
253.535	-5.29
253.752	-5.29
253.968	62.29
254.185	84.82
254.401	105.3
254.618	29.52
254.835	121.68
255.051	99.16
255.268	31.57
255.484	125.78
255.701	62.29
255.917	84.82
256.134	60.24
256.351	31.57
256.567	-25.77
256.784	150.36
257	19.29
257.217	101.2
257.433	125.78
257.65	72.53
257.866	84.82
258.082	7
258.299	27.48
258.515	101.2
258.732	37.72
258.948	84.82
259.165	62.29
259.381	39.76
259.597	45.91
259.814	-9.39
260.03	19.29
260.246	2.9
260.463	97.11
260.679	68.44
260.895	95.06
261.112	0.85
261.328	47.96
261.544	76.63
261.761	41.81
261.977	43.86
262.193	54.1
262.409	76.63
262.626	60.24
262.842	56.15
263.058	60.24
263.274	21.33
263.49	111.44
263.707	111.44
263.923	101.2
264.139	-27.82
264.355	35.67
264.571	109.4
264.787	31.57
265.004	47.96
265.22	56.15
265.436	88.92
265.652	56.15
265.868	78.68
266.084	33.62
266.3	13.14
266.516	88.92
266.732	39.76
266.948	72.53
267.164	109.4
267.38	47.96
267.596	101.2
267.812	113.49
268.028	52.05
268.244	72.53
268.46	7
268.676	113.49
268.892	101.2
269.108	37.72
269.324	93.01
269.54	-5.29
269.756	29.52
269.972	-5.29
270.188	80.72
270.403	9.05
270.619	-9.39
270.835	-21.67
271.051	9.05
271.267	15.19
271.483	21.33
271.698	-17.58
271.914	62.29
272.13	27.48
272.346	-1.19
272.562	2.9
272.777	47.96
272.993	150.36
273.209	27.48
273.425	72.53
273.64	52.05
273.856	109.4
274.072	43.86
274.287	25.43
274.503	31.57
274.719	45.91
274.934	58.2
275.15	27.48
275.366	21.33
275.581	60.24
275.797	33.62
276.012	23.38
276.228	72.53
276.444	80.72
276.659	37.72
276.875	15.19
277.09	103.25
277.306	54.1
277.521	39.76
277.737	7
277.952	84.82
278.168	99.16
278.383	7
278.599	64.34
278.814	113.49
279.03	-3.24
279.245	119.64
279.461	88.92
279.676	50
279.892	11.09
280.107	56.15
280.322	37.72
280.538	82.77
280.753	15.19
280.969	43.86
281.184	23.38
281.399	78.68
281.615	82.77
281.83	70.48
282.045	7
282.26	41.81
282.476	-5.29
282.691	11.09
282.906	-27.82
283.122	64.34
283.337	76.63
283.552	33.62
283.767	-38.06
283.983	93.01
284.198	33.62
284.413	125.78
284.628	-36.01
284.843	27.48
285.058	33.62
285.274	43.86
285.489	15.19
285.704	52.05
285.919	-46.25
286.134	27.48
286.349	27.48
286.564	97.11
286.779	37.72
286.995	62.29
287.21	-66.73
287.425	19.29
287.64	21.33
287.855	76.63
288.07	-11.43
288.285	78.68
288.5	37.72
288.715	80.72
288.93	-17.58
289.145	-27.82
289.36	19.29
289.575	72.53
289.79	52.05
290.004	15.19
290.219	72.53
290.434	-1.19
290.649	-50.35
290.864	66.39
291.079	29.52
291.294	93.01
291.509	-5.29
291.724	45.91
291.938	47.96
292.153	43.86
292.368	-11.43
292.583	37.72
292.798	19.29
293.012	115.54
293.227	64.34
293.442	62.29
293.657	4.95
293.871	27.48
294.086	95.06
294.301	101.2
294.516	74.58
294.73	80.72
294.945	-13.48
295.16	54.1
295.374	45.91
295.589	68.44
295.804	19.29
296.018	19.29
296.233	47.96
296.447	84.82
296.662	68.44
296.877	68.44
297.091	68.44
297.306	82.77
297.52	23.38
297.735	82.77
297.949	68.44
298.164	68.44
298.378	52.05
298.593	2.9
298.807	-21.67
299.022	60.24
299.236	113.49
299.451	54.1
299.665	52.05
299.88	-13.48
300.094	-3.24
300.309	-3.24
300.523	74.58
300.737	29.52
300.952	-27.82
301.166	78.68
301.381	35.67
301.595	43.86
301.809	52.05
302.024	43.86
302.238	-21.67
302.452	29.52
302.667	23.38
302.881	39.76
303.095	43.86
303.309	13.14
303.524	29.52
303.738	60.24
303.952	-11.43
304.166	88.92
304.381	21.33
304.595	64.34
304.809	31.57
305.023	52.05
305.237	-13.48
305.452	47.96
305.666	101.2
305.88	105.3
306.094	97.11
306.308	56.15
306.522	121.68
306.736	78.68
306.95	76.63
307.164	78.68
307.379	80.72
307.593	121.68
307.807	43.86
308.021	72.53
308.235	-3.24
308.449	35.67
308.663	45.91
308.877	117.59
309.091	2.9
309.305	52.05
309.519	27.48
309.733	142.16
309.947	-19.63
310.161	117.59
310.374	84.82
310.588	176.98
310.802	-38.06
311.016	39.76
311.23	84.82
311.444	76.63
311.658	162.64
311.872	76.63
312.085	66.39
312.299	-5.29
312.513	35.67
312.727	45.91
312.941	-46.25
313.154	84.82
313.368	76.63
313.582	99.16
313.796	117.59
314.009	78.68
314.223	21.33
314.437	43.86
314.651	37.72
314.864	-36.01
315.078	39.76
315.292	60.24
315.505	142.16
315.719	60.24
315.933	99.16
316.146	47.96
316.36	27.48
316.573	133.97
316.787	50
317.001	4.95
317.214	-7.34
317.428	113.49
317.641	37.72
317.855	68.44
318.068	119.64
318.282	56.15
318.495	47.96
318.709	76.63
318.922	50
319.136	54.1
319.349	99.16
319.563	97.11
319.776	27.48
319.99	19.29
320.203	86.87
320.417	150.36
320.63	43.86
320.843	78.68
321.057	13.14
321.27	27.48
321.483	43.86
321.697	82.77
321.91	43.86
322.124	58.2
322.337	47.96
322.55	23.38
322.763	35.67
322.977	43.86
323.19	43.86
323.403	123.73
323.617	56.15
323.83	43.86
324.043	9.05
324.256	39.76
324.469	70.48
324.683	35.67
324.896	39.76
325.109	113.49
325.322	-44.2
325.535	109.4
325.748	80.72
325.962	70.48
326.175	27.48
326.388	80.72
326.601	21.33
326.814	88.92
327.027	-42.15
327.24	105.3
327.453	60.24
327.666	136.02
327.879	76.63
328.092	39.76
328.305	99.16
328.518	-29.87
328.731	47.96
328.944	97.11
329.157	95.06
329.37	119.64
329.583	23.38
329.796	136.02
330.009	52.05
330.222	2.9
330.435	54.1
330.648	43.86
330.861	33.62
331.073	39.76
331.286	95.06
331.499	62.29
331.712	-13.48
331.925	66.39
332.138	76.63
332.35	54.1
332.563	21.33
332.776	64.34
332.989	15.19
333.202	35.67
333.414	21.33
333.627	68.44
333.84	41.81
334.053	76.63
334.265	64.34
334.478	54.1
334.691	93.01
334.903	78.68
335.116	-11.43
335.329	-29.87
335.541	68.44
335.754	101.2
335.966	27.48
336.179	39.76
336.392	72.53
336.604	2.9
336.817	80.72
337.029	19.29
337.242	103.25
337.454	56.15
337.667	35.67
337.88	56.15
338.092	11.09
338.305	29.52
338.517	35.67
338.729	95.06
338.942	76.63
339.154	-11.43
339.367	70.48
339.579	27.48
339.792	27.48
340.004	109.4
340.217	97.11
340.429	60.24
340.641	7
340.854	78.68
341.066	31.57
341.278	138.07
341.491	80.72
341.703	43.86
341.915	15.19
342.128	88.92
342.34	9.05
342.552	68.44
342.764	86.87
342.977	-7.34
343.189	54.1
343.401	86.87
343.613	-17.58
343.826	33.62
344.038	19.29
344.25	15.19
344.462	-31.91
344.674	-13.48
344.886	-1.19
345.099	78.68
345.311	76.63
345.523	43.86
345.735	2.9
345.947	23.38
346.159	7
346.371	117.59
346.583	50
346.795	7
347.007	-33.96
347.219	21.33
347.431	47.96
347.643	76.63
347.855	23.38
348.067	60.24
348.279	68.44
348.491	2.9
348.703	64.34
348.915	125.78
349.127	101.2
349.339	101.2
349.551	-83.11
349.763	37.72
349.975	29.52
350.187	119.64
350.399	86.87
350.61	60.24
350.822	64.34
351.034	78.68
351.246	70.48
351.458	70.48
351.669	146.26
351.881	101.2
352.093	86.87
352.305	121.68
352.517	111.44
352.728	97.11
352.94	88.92
353.152	84.82
353.363	27.48
353.575	97.11
353.787	82.77
353.999	76.63
354.21	117.59
354.422	45.91
354.633	31.57
354.845	33.62
355.057	78.68
355.268	27.48
355.48	13.14
355.692	31.57
355.903	68.44
356.115	7
356.326	33.62
356.538	72.53
356.749	27.48
356.961	142.16
357.172	-13.48
357.384	111.44
357.595	101.2
357.807	68.44
358.018	-19.63
358.23	35.67
358.441	101.2
358.653	109.4
358.864	88.92
359.075	60.24
359.287	76.63
359.498	125.78
359.709	103.25
359.921	2.9
360.132	103.25
360.344	37.72
360.555	19.29
360.766	43.86
360.977	52.05
361.189	97.11
361.4	9.05
361.611	103.25
361.823	101.2
362.034	68.44
362.245	-46.25
362.456	58.2
362.667	93.01
362.879	109.4
363.09	82.77
363.301	27.48
363.512	68.44
363.723	56.15
363.935	95.06
364.146	105.3
364.357	93.01
364.568	9.05
364.779	60.24
364.99	138.07
365.201	97.11
365.412	101.2
365.623	39.76
365.834	80.72
366.045	70.48
366.256	15.19
366.467	66.39
366.678	52.05
366.889	-11.43
367.1	97.11
367.311	101.2
367.522	76.63
367.733	136.02
367.944	45.91
368.155	27.48
368.366	64.34
368.577	90.96
368.788	68.44
368.999	93.01
369.209	105.3
369.42	68.44
369.631	119.64
369.842	88.92
370.053	93.01
370.264	109.4
370.474	52.05
370.685	78.68
370.896	45.91
371.107	84.82
371.317	84.82
371.528	27.48
371.739	19.29
371.95	95.06
372.16	68.44
372.371	68.44
372.582	93.01
372.792	86.87
373.003	41.81
373.214	101.2
373.424	127.83
373.635	60.24
373.846	111.44
374.056	105.3
374.267	43.86
374.477	97.11
374.688	74.58
374.898	13.14
375.109	56.15
375.319	62.29
375.53	52.05
375.74	35.67
375.951	109.4
376.161	15.19
376.372	78.68
376.582	-1.19
376.793	56.15
377.003	47.96
377.214	80.72
377.424	62.29
377.635	70.48
377.845	58.2
378.055	136.02
378.266	-1.19
378.476	60.24
378.686	86.87
378.897	78.68
379.107	50
379.317	166.74
379.528	111.44
379.738	68.44
379.948	-48.3
380.158	54.1
380.369	31.57
380.579	56.15
380.789	70.48
380.999	52.05
381.21	133.97
381.42	181.07
381.63	136.02
381.84	11.09
382.05	27.48
382.261	93.01
382.471	35.67
382.681	95.06
382.891	97.11
383.101	60.24
383.311	76.63
383.521	93.01
383.731	119.64
383.941	117.59
384.151	70.48
384.361	93.01
384.571	119.64
384.781	105.3
384.991	152.4
385.201	117.59
385.411	60.24
385.621	37.72
385.831	23.38
386.041	111.44
386.251	76.63
386.461	93.01
386.671	56.15
386.881	84.82
387.091	86.87
387.301	76.63
387.511	121.68
387.72	103.25
387.93	56.15
388.14	4.95
388.35	37.72
388.56	101.2
388.769	93.01
388.979	72.53
389.189	52.05
389.399	68.44
389.609	93.01
389.818	50
390.028	95.06
390.238	72.53
390.447	-25.77
390.657	105.3
390.867	33.62
391.076	72.53
391.286	117.59
391.496	31.57
391.705	2.9
391.915	150.36
392.125	207.7
392.334	-1.19
392.544	125.78
392.753	160.59
392.963	23.38
393.172	35.67
393.382	45.91
393.591	168.79
393.801	60.24
394.01	41.81
394.22	43.86
394.429	95.06
394.639	78.68
394.848	166.74
395.058	78.68
395.267	158.55
395.477	62.29
395.686	136.02
395.895	101.2
396.105	105.3
396.314	97.11
396.524	117.59
396.733	103.25
396.942	101.2
397.152	101.2
397.361	43.86
397.57	88.92
397.78	90.96
397.989	74.58
398.198	191.31
398.407	86.87
398.617	76.63
398.826	119.64
399.035	121.68
399.244	154.45
399.453	101.2
399.663	82.77
399.872	142.16
400.081	117.59
400.29	181.07
400.499	136.02
400.708	117.59
400.917	103.25
401.127	154.45
401.336	93.01
401.545	203.6
401.754	101.2
401.963	125.78
402.172	170.83
402.381	84.82
402.59	176.98
402.799	97.11
403.008	97.11
403.217	142.16
403.426	95.06
403.635	101.2
403.844	160.59
404.053	146.26
404.262	142.16
404.471	203.6
404.68	144.21
404.888	168.79
405.097	179.03
405.306	72.53
405.515	162.64
405.724	140.12
405.933	162.64
406.142	166.74
406.35	166.74
406.559	166.74
406.768	176.98
406.977	260.95
407.185	252.75
407.394	174.93
407.603	181.07
407.812	240.47
408.02	295.76
408.229	224.08
408.438	275.28
408.646	244.56
408.855	213.84
409.064	297.81
409.272	213.84
409.481	322.38
409.69	271.19
409.898	273.23
410.107	260.95
410.315	351.06
410.524	289.62
410.733	365.39
410.941	398.16
411.15	426.83
411.358	314.19
411.567	371.54
411.775	408.4
411.984	420.69
412.192	418.64
412.401	406.35
412.609	449.36
412.818	543.57
413.026	496.46
413.234	559.95
413.443	463.69
413.651	592.72
413.86	500.56
414.068	662.35
414.276	623.44
414.485	662.35
414.693	596.81
414.901	666.44
415.11	699.21
415.318	688.97
415.526	660.3
415.734	746.31
415.943	727.88
416.151	750.41
416.359	723.79
416.567	828.23
416.776	777.03
416.984	944.97
417.192	912.2
417.4	842.57
417.608	936.78
417.817	1018.69
418.025	1033.03
418.233	1076.04
418.441	1084.23
418.649	1190.72
418.857	1190.72
419.065	1213.25
419.273	1121.09
419.481	1223.49
419.689	1325.89
419.897	1372.99
420.105	1473.34
420.313	1477.44
420.521	1518.4
420.729	1516.35
420.937	1622.84
421.145	1620.8
421.353	1727.29
421.561	1751.87
421.769	1891.13
421.977	1960.76
422.185	1807.16
422.393	2022.2
422.601	2085.69
422.809	1985.34
423.017	2196.28
423.224	2231.09
423.432	2341.68
423.64	2374.45
423.848	2558.77
424.056	2439.98
424.263	2560.81
424.471	2554.67
424.679	2673.45
424.887	2810.67
425.094	2853.67
425.302	2906.92
425.51	3025.7
425.718	3205.92
425.925	3126.05
426.133	3291.94
426.341	3427.11
426.548	3488.54
426.756	3617.57
426.964	3650.33
427.171	3713.82
427.379	3861.27
427.586	4000.54
427.794	4176.66
428.001	4330.26
428.209	4348.69
428.417	4379.41
428.624	4723.47
428.832	4719.37
429.039	4756.24
429.247	4754.19
429.454	5122.82
429.662	5376.77
429.869	5214.98
430.076	5530.37
430.284	5262.09
430.491	5530.37
430.699	5870.33
430.906	6046.46
431.114	6015.74
431.321	6302.45
431.528	6238.97
431.736	6648.56
431.943	6886.12
432.15	6724.33
432.358	6830.83
432.565	7262.95
432.772	7183.08
432.979	7486.18
433.187	7756.51
433.394	7719.65
433.601	8334.04
433.808	8239.83
434.016	8102.62
434.223	8499.92
434.43	9210.57
434.637	8702.67
434.844	9609.92
435.052	9587.4
435.259	9546.44
435.466	9779.9
435.673	9493.19
435.88	10185.4
436.087	10775.22
436.294	10734.26
436.501	10418.87
436.708	10824.37
436.915	10922.67
437.122	11602.6
437.329	11422.38
437.537	11891.36
437.743	12096.16
437.95	12044.96
438.157	12446.36
438.364	12886.67
438.571	12921.49
438.778	13122.19
438.985	14084.73
439.192	13552.26
439.399	14084.73
439.606	13642.37
439.813	14563.96
440.02	15360.62
440.227	15118.96
440.433	14977.65
440.64	15575.66
440.847	15596.14
441.054	16046.69
441.261	16689.75
441.467	16749.14
441.674	16900.69
441.881	17502.79
442.088	17330.76
442.294	17058.39
442.501	17844.81
442.708	18041.41
442.914	18786.87
443.121	19730.98
443.328	19130.93
443.534	20562.46
443.741	19812.9
443.948	19538.48
444.154	20922.9
444.361	20744.73
444.568	21236.24
444.774	21013.01
444.981	21283.34
445.187	21717.51
445.394	22817.27
445.6	22311.42
445.807	24818.14
446.013	23589.36
446.22	23828.97
446.426	24740.32
446.633	25055.7
446.839	26067.4
447.046	25045.46
447.252	26094.02
447.459	26352.07
447.665	26333.64
447.871	27306.42
448.078	28551.59
448.284	26661.31
448.491	27732.4
448.697	29194.65
448.903	29491.6
449.11	29557.14
449.316	29407.64
449.522	29858.19
449.728	30636.42
449.935	30636.42
450.141	30589.31
450.347	31158.65
450.553	30411.14
450.76	30812.54
450.966	31857.01
451.172	31553.91
451.378	32805.22
451.584	31676.79
451.791	32504.17
451.997	32395.62
452.203	32743.78
452.409	32948.57
452.615	32948.57
452.821	31824.24
453.027	31195.51
453.233	32975.2
453.44	31672.69
453.646	32110.96
453.852	32098.67
454.058	32903.52
454.264	31736.18
454.47	32532.84
454.676	31574.39
454.882	32958.81
455.088	29979.02
455.294	30407.05
455.5	31041.92
455.705	31437.17
455.911	29776.27
456.117	29507.99
456.323	28905.88
456.529	27298.23
456.735	28631.46
456.941	28146.09
457.147	27466.16
457.352	27222.45
457.558	26669.5
457.764	26573.25
457.97	26208.71
458.176	25522.64
458.381	25674.19
458.587	24273.38
458.793	24297.95
458.999	22948.34
459.204	24932.82
459.41	24173.03
459.616	22491.65
459.821	22579.71
460.027	22434.3
460.233	21989.89
460.438	20832.79
460.644	21236.24
460.85	20140.58
461.055	19851.81
461.261	19960.36
461.466	18334.27
461.672	17476.17
461.878	19036.72
462.083	17697.35
462.289	17678.92
462.494	17275.47
462.7	16587.35
462.905	16046.69
463.111	16472.67
463.316	16853.59
463.522	16206.43
463.727	16261.73
463.932	16390.75
464.138	16128.61
464.343	16241.25
464.549	15911.52
464.754	16235.1
464.959	16116.32
465.165	15960.67
465.37	15272.56
465.575	14887.54
465.781	15587.94
465.986	15426.15
466.191	15174.25
466.397	14922.35
466.602	13902.47
466.807	14576.25
467.012	14551.67
467.218	14496.38
467.423	14357.11
