Data from USB4F104151__252__14-45-55-001.txt Node

Date: Thu Mar 13 14:45:55 EDT 2025
User: louis
Spectrometer: USB4F10415
Trigger mode: 4
Integration Time (sec): 2.000000E-2
Scans to average: 1
Electric dark correction enabled: true
Nonlinearity correction enabled: false
Boxcar width: 0
XAxis mode: Wavelengths
Number of Pixels in Spectrum: 3648
>>>>>Begin Spectral Data<<<<<
178.204	-86.7
178.424	-86.7
178.644	-86.7
178.864	-103.08
179.084	-90.79
179.304	-49.83
179.524	5.46
179.744	-8.87
179.964	-6.83
180.184	7.51
180.404	32.08
180.624	15.7
180.844	15.7
181.064	-66.22
181.283	-29.35
181.503	19.8
181.723	64.85
181.943	11.61
182.163	-27.31
182.383	19.8
182.602	36.18
182.822	64.85
183.042	-15.02
183.262	-74.41
183.482	1.37
183.701	-39.59
183.921	11.61
184.141	-8.87
184.361	7.51
184.58	48.47
184.8	73.04
185.02	32.08
185.239	42.32
185.459	1.37
185.679	-49.83
185.898	-19.11
186.118	19.8
186.338	-6.83
186.557	81.24
186.777	-31.4
186.997	-17.07
187.216	-0.68
187.436	-31.4
187.655	-2.73
187.875	-10.92
188.095	11.61
188.314	-6.83
188.534	73.04
188.753	1.37
188.973	44.37
189.192	89.43
189.412	42.32
189.631	68.95
189.851	-8.87
190.07	75.09
190.29	81.24
190.509	-0.68
190.729	-4.78
190.948	54.61
191.168	150.87
191.387	56.66
191.607	56.66
191.826	23.89
192.045	89.43
192.265	19.8
192.484	-0.68
192.704	3.41
192.923	25.94
193.142	48.47
193.362	32.08
193.581	56.66
193.8	52.56
194.02	42.32
194.239	17.75
194.458	32.08
194.678	-0.68
194.897	7.51
195.116	17.75
195.335	27.99
195.555	93.52
195.774	30.04
195.993	48.47
196.212	40.28
196.432	-21.16
196.651	44.37
196.87	-8.87
197.089	71
197.308	48.47
197.528	-19.11
197.747	-74.41
197.966	48.47
198.185	93.52
198.404	-49.83
198.623	-2.73
198.842	-8.87
199.062	32.08
199.281	23.89
199.5	-4.78
199.719	50.52
199.938	30.04
200.157	32.08
200.376	75.09
200.595	73.04
200.814	-12.97
201.033	-23.21
201.252	-17.07
201.471	-17.07
201.69	23.89
201.909	46.42
202.128	73.04
202.347	11.61
202.566	52.56
202.785	-107.18
203.004	-62.12
203.223	23.89
203.442	19.8
203.661	40.28
203.879	-4.78
204.098	27.99
204.317	-0.68
204.536	93.52
204.755	64.85
204.974	-19.11
205.193	32.08
205.411	75.09
205.63	73.04
205.849	3.41
206.068	5.46
206.287	7.51
206.505	1.37
206.724	-0.68
206.943	-82.6
207.162	46.42
207.381	-15.02
207.599	7.51
207.818	-33.45
208.037	-31.4
208.255	-17.07
208.474	52.56
208.693	27.99
208.911	7.51
209.13	-12.97
209.349	85.33
209.567	23.89
209.786	64.85
210.005	40.28
210.223	7.51
210.442	-66.22
210.661	25.94
210.879	32.08
211.098	11.61
211.316	-41.64
211.535	-0.68
211.753	40.28
211.972	11.61
212.191	50.52
212.409	-33.45
212.628	23.89
212.846	21.85
213.065	-21.16
213.283	109.91
213.502	48.47
213.72	1.37
213.938	23.89
214.157	-31.4
214.375	17.75
214.594	42.32
214.812	32.08
215.031	44.37
215.249	-8.87
215.467	-25.26
215.686	17.75
215.904	-0.68
216.122	-49.83
216.341	-21.16
216.559	-64.17
216.778	9.56
216.996	17.75
217.214	-31.4
217.432	-45.74
217.651	21.85
217.869	7.51
218.087	7.51
218.306	-6.83
218.524	46.42
218.742	-4.78
218.96	38.23
219.179	25.94
219.397	32.08
219.615	56.66
219.833	27.99
220.051	-39.59
220.27	40.28
220.488	23.89
220.706	38.23
220.924	-8.87
221.142	89.43
221.36	-41.64
221.578	11.61
221.796	36.18
222.015	27.99
222.233	-31.4
222.451	44.37
222.669	13.65
222.887	-8.87
223.105	-82.6
223.323	-4.78
223.541	-33.45
223.759	-29.35
223.977	1.37
224.195	89.43
224.413	40.28
224.631	7.51
224.849	23.89
225.067	81.24
225.285	83.28
225.503	17.75
225.721	-68.27
225.939	5.46
226.157	30.04
226.375	50.52
226.592	11.61
226.81	-17.07
227.028	-0.68
227.246	81.24
227.464	-27.31
227.682	56.66
227.9	142.68
228.117	15.7
228.335	50.52
228.553	-33.45
228.771	3.41
228.989	-21.16
229.206	66.9
229.424	48.47
229.642	-21.16
229.86	-23.21
230.077	23.89
230.295	48.47
230.513	50.52
230.731	-8.87
230.948	1.37
231.166	-15.02
231.384	52.56
231.601	42.32
231.819	34.13
232.037	3.41
232.254	-8.87
232.472	17.75
232.689	-49.83
232.907	1.37
233.125	38.23
233.342	-0.68
233.56	-33.45
233.777	-21.16
233.995	9.56
234.213	-23.21
234.43	81.24
234.648	17.75
234.865	-31.4
235.083	89.43
235.3	23.89
235.518	-21.16
235.735	23.89
235.953	75.09
236.17	27.99
236.388	17.75
236.605	30.04
236.822	120.15
237.04	7.51
237.257	7.51
237.475	-29.35
237.692	21.85
237.909	44.37
238.127	85.33
238.344	-66.22
238.562	-15.02
238.779	-8.87
238.996	56.66
239.214	50.52
239.431	85.33
239.648	-45.74
239.865	23.89
240.083	34.13
240.3	-23.21
240.517	-33.45
240.735	-74.41
240.952	48.47
241.169	46.42
241.386	40.28
241.603	25.94
241.821	34.13
242.038	44.37
242.255	73.04
242.472	25.94
242.689	40.28
242.907	3.41
243.124	19.8
243.341	-4.78
243.558	64.85
243.775	9.56
243.992	42.32
244.209	15.7
244.426	36.18
244.643	50.52
244.86	1.37
245.078	89.43
245.295	-6.83
245.512	38.23
245.729	1.37
245.946	56.66
246.163	48.47
246.38	-55.98
246.597	50.52
246.814	-17.07
247.031	93.52
247.248	23.89
247.464	7.51
247.681	34.13
247.898	9.56
248.115	114
248.332	9.56
248.549	64.85
248.766	48.47
248.983	9.56
249.2	27.99
249.417	66.9
249.633	-41.64
249.85	-8.87
250.067	11.61
250.284	68.95
250.501	23.89
250.717	40.28
250.934	-70.31
251.151	-49.83
251.368	-45.74
251.585	83.28
251.801	-2.73
252.018	25.94
252.235	58.71
252.451	-31.4
252.668	-0.68
252.885	32.08
253.102	-8.87
253.318	-25.26
253.535	-55.98
253.752	-35.5
253.968	-43.69
254.185	9.56
254.401	-2.73
254.618	23.89
254.835	-49.83
255.051	64.85
255.268	19.8
255.484	-49.83
255.701	-58.03
255.917	60.76
256.134	32.08
256.351	54.61
256.567	-37.55
256.784	-8.87
257	17.75
257.217	40.28
257.433	19.8
257.65	109.91
257.866	64.85
258.082	-19.11
258.299	-8.87
258.515	7.51
258.732	25.94
258.948	-17.07
259.165	60.76
259.381	32.08
259.597	7.51
259.814	36.18
260.03	-4.78
260.246	50.52
260.463	1.37
260.679	111.96
260.895	11.61
261.112	83.28
261.328	40.28
261.544	-62.12
261.761	-0.68
261.977	-70.31
262.193	-15.02
262.409	19.8
262.626	15.7
262.842	56.66
263.058	56.66
263.274	13.65
263.49	32.08
263.707	-33.45
263.923	32.08
264.139	32.08
264.355	15.7
264.571	46.42
264.787	17.75
265.004	7.51
265.22	54.61
265.436	15.7
265.652	-6.83
265.868	27.99
266.084	73.04
266.3	32.08
266.516	-58.03
266.732	30.04
266.948	56.66
267.164	36.18
267.38	36.18
267.596	-45.74
267.812	19.8
268.028	64.85
268.244	-21.16
268.46	7.51
268.676	1.37
268.892	32.08
269.108	27.99
269.324	1.37
269.54	-41.64
269.756	105.81
269.972	-31.4
270.188	-8.87
270.403	11.61
270.619	13.65
270.835	-45.74
271.051	9.56
271.267	60.76
271.483	-4.78
271.698	1.37
271.914	66.9
272.13	23.89
272.346	85.33
272.562	-43.69
272.777	93.52
272.993	-49.83
273.209	66.9
273.425	36.18
273.64	19.8
273.856	58.71
274.072	68.95
274.287	-27.31
274.503	27.99
274.719	97.62
274.934	-0.68
275.15	-35.5
275.366	-25.26
275.581	-62.12
275.797	30.04
276.012	-12.97
276.228	7.51
276.444	23.89
276.659	52.56
276.875	-4.78
277.09	34.13
277.306	50.52
277.521	105.81
277.737	-64.17
277.952	138.58
278.168	68.95
278.383	25.94
278.599	-8.87
278.814	9.56
279.03	7.51
279.245	36.18
279.461	7.51
279.676	-41.64
279.892	1.37
280.107	66.9
280.322	17.75
280.538	56.66
280.753	-17.07
280.969	-6.83
281.184	50.52
281.399	107.86
281.615	25.94
281.83	23.89
282.045	9.56
282.26	23.89
282.476	-8.87
282.691	-25.26
282.906	9.56
283.122	-25.26
283.337	-29.35
283.552	52.56
283.767	30.04
283.983	56.66
284.198	19.8
284.413	-12.97
284.628	34.13
284.843	73.04
285.058	1.37
285.274	42.32
285.489	-25.26
285.704	-8.87
285.919	7.51
286.134	17.75
286.349	32.08
286.564	36.18
286.779	68.95
286.995	27.99
287.21	15.7
287.425	75.09
287.64	89.43
287.855	50.52
288.07	-49.83
288.285	68.95
288.5	73.04
288.715	-4.78
288.93	-15.02
289.145	27.99
289.36	-31.4
289.575	7.51
289.79	89.43
290.004	56.66
290.219	23.89
290.434	-66.22
290.649	7.51
290.864	93.52
291.079	48.47
291.294	32.08
291.509	81.24
291.724	11.61
291.938	-25.26
292.153	97.62
292.368	-0.68
292.583	60.76
292.798	40.28
293.012	-27.31
293.227	-25.26
293.442	-43.69
293.657	19.8
293.871	48.47
294.086	9.56
294.301	52.56
294.516	30.04
294.73	3.41
294.945	99.67
295.16	27.99
295.374	60.76
295.589	105.81
295.804	23.89
296.018	83.28
296.233	30.04
296.447	52.56
296.662	-66.22
296.877	52.56
297.091	-25.26
297.306	64.85
297.52	52.56
297.735	-8.87
297.949	34.13
298.164	44.37
298.378	38.23
298.593	64.85
298.807	-23.21
299.022	66.9
299.236	83.28
299.451	46.42
299.665	27.99
299.88	21.85
300.094	-17.07
300.309	15.7
300.523	-6.83
300.737	-15.02
300.952	-19.11
301.166	-15.02
301.381	-8.87
301.595	-23.21
301.809	1.37
302.024	56.66
302.238	73.04
302.452	93.52
302.667	-2.73
302.881	62.8
303.095	-4.78
303.309	77.14
303.524	-17.07
303.738	-12.97
303.952	-12.97
304.166	36.18
304.381	-90.79
304.595	25.94
304.809	15.7
305.023	7.51
305.237	-49.83
305.452	15.7
305.666	-35.5
305.88	-6.83
306.094	64.85
306.308	44.37
306.522	9.56
306.736	54.61
306.95	15.7
307.164	-4.78
307.379	1.37
307.593	-23.21
307.807	36.18
308.021	-58.03
308.235	25.94
308.449	-8.87
308.663	40.28
308.877	56.66
309.091	-6.83
309.305	66.9
309.519	-19.11
309.733	114
309.947	-4.78
310.161	-4.78
310.374	36.18
310.588	34.13
310.802	-8.87
311.016	-4.78
311.23	-37.55
311.444	-41.64
311.658	3.41
311.872	107.86
312.085	40.28
312.299	64.85
312.513	68.95
312.727	40.28
312.941	62.8
313.154	48.47
313.368	42.32
313.582	34.13
313.796	-8.87
314.009	44.37
314.223	73.04
314.437	15.7
314.651	64.85
314.864	7.51
315.078	-17.07
315.292	-8.87
315.505	15.7
315.719	50.52
315.933	48.47
316.146	105.81
316.36	-92.84
316.573	83.28
316.787	71
317.001	-23.21
317.214	-8.87
317.428	1.37
317.641	79.19
317.855	-4.78
318.068	60.76
318.282	56.66
318.495	48.47
318.709	19.8
318.922	-45.74
319.136	40.28
319.349	-0.68
319.563	15.7
319.776	-17.07
319.99	-6.83
320.203	13.65
320.417	7.51
320.63	-29.35
320.843	-4.78
321.057	99.67
321.27	-41.64
321.483	-29.35
321.697	52.56
321.91	27.99
322.124	36.18
322.337	36.18
322.55	-21.16
322.763	3.41
322.977	44.37
323.19	-19.11
323.403	83.28
323.617	-2.73
323.83	-8.87
324.043	-58.03
324.256	-25.26
324.469	11.61
324.683	34.13
324.896	3.41
325.109	1.37
325.322	-6.83
325.535	-0.68
325.748	71
325.962	1.37
326.175	27.99
326.388	73.04
326.601	-49.83
326.814	-8.87
327.027	15.7
327.24	40.28
327.453	-37.55
327.666	44.37
327.879	50.52
328.092	-0.68
328.305	-25.26
328.518	-17.07
328.731	7.51
328.944	58.71
329.157	-2.73
329.37	66.9
329.583	-4.78
329.796	15.7
330.009	-4.78
330.222	142.68
330.435	30.04
330.648	48.47
330.861	1.37
331.073	54.61
331.286	73.04
331.499	54.61
331.712	-88.75
331.925	-23.21
332.138	3.41
332.35	44.37
332.563	50.52
332.776	66.9
332.989	-29.35
333.202	3.41
333.414	-35.5
333.627	83.28
333.84	34.13
334.053	62.8
334.265	23.89
334.478	9.56
334.691	1.37
334.903	-33.45
335.116	30.04
335.329	32.08
335.541	58.71
335.754	36.18
335.966	50.52
336.179	32.08
336.392	3.41
336.604	21.85
336.817	97.62
337.029	50.52
337.242	-15.02
337.454	50.52
337.667	-6.83
337.88	109.91
338.092	27.99
338.305	64.85
338.517	48.47
338.729	64.85
338.942	140.63
339.154	7.51
339.367	19.8
339.579	15.7
339.792	-6.83
340.004	118.1
340.217	89.43
340.429	-8.87
340.641	56.66
340.854	56.66
341.066	9.56
341.278	30.04
341.491	73.04
341.703	-41.64
341.915	40.28
342.128	79.19
342.34	66.9
342.552	13.65
342.764	36.18
342.977	81.24
343.189	9.56
343.401	7.51
343.613	-4.78
343.826	-19.11
344.038	48.47
344.25	60.76
344.462	9.56
344.674	48.47
344.886	-33.45
345.099	17.75
345.311	19.8
345.523	89.43
345.735	-8.87
345.947	15.7
346.159	75.09
346.371	19.8
346.583	105.81
346.795	19.8
347.007	66.9
347.219	15.7
347.431	32.08
347.643	17.75
347.855	60.76
348.067	-8.87
348.279	1.37
348.491	-0.68
348.703	71
348.915	32.08
349.127	-58.03
349.339	77.14
349.551	-78.51
349.763	73.04
349.975	64.85
350.187	64.85
350.399	126.29
350.61	27.99
350.822	66.9
351.034	83.28
351.246	99.67
351.458	60.76
351.669	21.85
351.881	50.52
352.093	73.04
352.305	32.08
352.517	97.62
352.728	58.71
352.94	-41.64
353.152	109.91
353.363	-31.4
353.575	-17.07
353.787	-0.68
353.999	15.7
354.21	58.71
354.422	-4.78
354.633	56.66
354.845	81.24
355.057	1.37
355.268	23.89
355.48	3.41
355.692	7.51
355.903	-96.94
356.115	42.32
356.326	-27.31
356.538	56.66
356.749	73.04
356.961	81.24
357.172	13.65
357.384	-0.68
357.595	48.47
357.807	73.04
358.018	79.19
358.23	81.24
358.441	68.95
358.653	60.76
358.864	7.51
359.075	42.32
359.287	19.8
359.498	44.37
359.709	21.85
359.921	23.89
360.132	36.18
360.344	34.13
360.555	40.28
360.766	50.52
360.977	-12.97
361.189	56.66
361.4	7.51
361.611	52.56
361.823	97.62
362.034	46.42
362.245	9.56
362.456	32.08
362.667	15.7
362.879	15.7
363.09	36.18
363.301	73.04
363.512	38.23
363.723	11.61
363.935	-76.46
364.146	-27.31
364.357	32.08
364.568	-12.97
364.779	-43.69
364.99	27.99
365.201	-2.73
365.412	97.62
365.623	-58.03
365.834	50.52
366.045	27.99
366.256	73.04
366.467	60.76
366.678	91.48
366.889	-10.92
367.1	107.86
367.311	-17.07
367.522	11.61
367.733	68.95
367.944	73.04
368.155	97.62
368.366	87.38
368.577	40.28
368.788	23.89
368.999	-33.45
369.209	34.13
369.42	101.72
369.631	114
369.842	48.47
370.053	81.24
370.264	85.33
370.474	1.37
370.685	-33.45
370.896	89.43
371.107	75.09
371.317	27.99
371.528	48.47
371.739	66.9
371.95	64.85
372.16	25.94
372.371	-31.4
372.582	52.56
372.792	60.76
373.003	71
373.214	44.37
373.424	17.75
373.635	30.04
373.846	91.48
374.056	-17.07
374.267	-17.07
374.477	-15.02
374.688	21.85
374.898	48.47
375.109	23.89
375.319	23.89
375.53	40.28
375.74	27.99
375.951	15.7
376.161	17.75
376.372	132.44
376.582	36.18
376.793	89.43
377.003	25.94
377.214	13.65
377.424	77.14
377.635	23.89
377.845	48.47
378.055	132.44
378.266	-35.5
378.476	3.41
378.686	62.8
378.897	68.95
379.107	7.51
379.317	54.61
379.528	9.56
379.738	81.24
379.948	23.89
380.158	40.28
380.369	116.05
380.579	114
380.789	77.14
380.999	68.95
381.21	48.47
381.42	17.75
381.63	89.43
381.84	23.89
382.05	93.52
382.261	93.52
382.471	40.28
382.681	15.7
382.891	40.28
383.101	-47.79
383.311	-41.64
383.521	15.7
383.731	32.08
383.941	56.66
384.151	-8.87
384.361	-4.78
384.571	19.8
384.781	34.13
384.991	48.47
385.201	157.01
385.411	-33.45
385.621	17.75
385.831	11.61
386.041	52.56
386.251	32.08
386.461	66.9
386.671	17.75
386.881	27.99
387.091	77.14
387.301	52.56
387.511	23.89
387.72	32.08
387.93	-4.78
388.14	-17.07
388.35	-4.78
388.56	19.8
388.769	9.56
388.979	38.23
389.189	-17.07
389.399	1.37
389.609	93.52
389.818	40.28
390.028	101.72
390.238	48.47
390.447	56.66
390.657	42.32
390.867	-0.68
391.076	81.24
391.286	-4.78
391.496	79.19
391.705	40.28
391.915	148.82
392.125	50.52
392.334	25.94
392.544	89.43
392.753	40.28
392.963	85.33
393.172	95.57
393.382	7.51
393.591	85.33
393.801	-6.83
394.01	99.67
394.22	77.14
394.429	23.89
394.639	56.66
394.848	64.85
395.058	83.28
395.267	73.04
395.477	124.24
395.686	81.24
395.895	122.2
396.105	120.15
396.314	89.43
396.524	60.76
396.733	68.95
396.942	118.1
397.152	148.82
397.361	114
397.57	138.58
397.78	58.71
397.989	15.7
398.198	89.43
398.407	50.52
398.617	66.9
398.826	114
399.035	85.33
399.244	66.9
399.453	142.68
399.663	62.8
399.872	48.47
400.081	101.72
400.29	122.2
400.499	52.56
400.708	165.2
400.917	107.86
401.127	27.99
401.336	42.32
401.545	181.59
401.754	77.14
401.963	91.48
402.172	93.52
402.381	124.24
402.59	44.37
402.799	124.24
403.008	99.67
403.217	171.35
403.426	87.38
403.635	93.52
403.844	109.91
404.053	118.1
404.262	42.32
404.471	181.59
404.68	118.1
404.888	81.24
405.097	146.77
405.306	146.77
405.515	142.68
405.724	89.43
405.933	163.15
406.142	122.2
406.35	111.96
406.559	165.2
406.768	152.91
406.977	154.96
407.185	181.59
407.394	226.64
407.603	146.77
407.812	165.2
408.02	163.15
408.229	136.53
408.438	212.31
408.646	245.07
408.855	238.93
409.064	212.31
409.272	187.73
409.481	232.79
409.69	187.73
409.898	236.88
410.107	224.59
410.315	306.51
410.524	165.2
410.733	314.7
410.941	277.84
411.15	329.04
411.358	322.9
411.567	400.72
411.775	374.1
411.984	417.1
412.192	392.53
412.401	335.18
412.609	413.01
412.818	453.97
413.026	402.77
413.234	413.01
413.443	402.77
413.651	443.73
413.86	429.39
414.068	503.12
414.276	499.02
414.485	499.02
414.693	556.36
414.901	601.42
415.11	593.23
415.318	499.02
415.526	607.56
415.734	599.37
415.943	576.84
416.151	654.67
416.359	703.82
416.567	728.39
416.776	736.59
416.984	781.64
417.192	894.28
417.4	728.39
417.608	871.75
417.817	871.75
418.025	988.49
418.233	951.62
418.441	875.85
418.649	1002.82
418.857	1043.78
419.065	1033.54
419.273	1039.69
419.481	1097.03
419.689	1140.04
419.897	1269.06
420.105	1371.46
420.313	1289.54
420.521	1324.35
420.729	1375.55
420.937	1402.18
421.145	1551.68
421.353	1623.36
421.561	1590.59
421.769	1606.97
421.977	1639.74
422.185	1680.7
422.393	1785.15
422.601	2000.18
422.809	1795.39
423.017	1926.46
423.224	2032.95
423.432	2080.05
423.64	1918.26
423.848	2301.23
424.056	2235.7
424.263	2344.24
424.471	2309.43
424.679	2432.3
424.887	2549.04
425.094	2555.18
425.302	2655.53
425.51	2751.79
425.718	2659.63
425.925	2792.75
426.133	2903.34
426.341	3153.19
426.548	3364.13
426.756	3226.92
426.964	3392.8
427.171	3470.62
427.379	3638.56
427.586	3550.5
427.794	3693.85
428.001	3878.17
428.209	4037.91
428.417	3964.18
428.624	4236.56
428.832	4261.14
429.039	4267.28
429.247	4173.08
429.454	4605.2
429.662	4865.29
429.869	4562.19
430.076	5018.89
430.284	4816.14
430.491	5170.44
430.699	5309.7
430.906	5225.73
431.114	5352.71
431.321	5451.01
431.528	5856.51
431.736	5979.39
431.943	6376.69
432.15	6042.87
432.358	6202.61
432.565	6561.01
432.772	6415.6
432.979	7013.61
433.187	7068.91
433.394	7040.23
433.601	7357.67
433.808	7519.46
434.016	7415.01
434.223	7892.19
434.43	8318.17
434.637	8086.75
434.844	8633.55
435.052	8715.47
435.259	8715.47
435.466	8848.59
435.673	8498.39
435.88	9356.49
436.087	9587.91
436.294	9743.55
436.501	9579.72
436.708	9684.16
436.915	10169.53
437.122	10296.5
437.329	10443.96
437.537	10671.28
437.743	10773.68
437.95	10788.02
438.157	11523.24
438.364	11857.06
438.571	11723.94
438.778	12047.52
438.985	12922
439.192	12541.08
439.399	12844.18
439.606	12582.04
439.813	13321.35
440.02	14130.3
440.227	14011.52
440.433	13624.45
440.64	14310.52
440.847	13970.56
441.054	14658.68
441.261	15391.85
441.467	15211.63
441.674	15391.85
441.881	16145.5
442.088	15909.99
442.294	15871.08
442.501	16387.16
442.708	16802.9
442.914	17501.26
443.121	18029.63
443.328	17507.4
443.534	18766.9
443.741	18316.35
443.948	18279.49
444.154	19403.82
444.361	19268.66
444.568	19387.44
444.774	19420.2
444.981	19557.42
445.187	20251.68
445.394	21181.46
445.6	20608.03
445.807	22932.47
446.013	21638.16
446.22	22543.36
446.426	23167.99
446.633	23520.24
446.839	24306.66
447.046	23051.25
447.252	24607.71
447.459	24318.95
447.665	24298.47
447.871	25451.47
448.078	26489.79
448.284	25361.36
448.491	26409.92
448.697	27241.4
448.903	27581.36
449.11	27630.51
449.316	27233.21
449.522	27837.36
449.728	28775.33
449.935	28867.48
450.141	29010.84
450.347	29457.3
450.553	28769.18
450.76	28603.3
450.966	30192.52
451.172	29748.11
451.378	30552.96
451.584	29862.8
451.791	30679.94
451.997	30608.26
452.203	31200.12
452.409	30935.93
452.615	30782.34
452.821	29760.4
453.027	29449.11
453.233	31257.46
453.44	30133.13
453.646	30200.71
453.852	30440.32
454.058	30815.1
454.264	29883.28
454.47	30538.63
454.676	30176.14
454.882	31130.49
455.088	28488.61
455.294	29125.53
455.5	29582.23
455.705	29686.67
455.911	28529.57
456.117	28017.58
456.323	27610.03
456.529	26172.36
456.735	27245.49
456.941	26719.17
457.147	26250.18
457.352	25488.34
457.558	25369.55
457.764	25498.58
457.97	25033.69
458.176	24275.94
458.381	24261.6
458.587	23116.79
458.793	23155.7
458.999	21959.69
459.204	23852.01
459.41	22785.02
459.616	21402.64
459.821	21685.26
460.027	21146.64
460.233	21310.48
460.438	19899.43
460.644	20229.15
460.85	19469.36
461.055	19121.2
461.261	18930.74
461.466	17665.1
461.672	17077.33
461.878	18402.36
462.083	17218.64
462.289	16677.97
462.494	16958.55
462.7	15713.38
462.905	15443.05
463.111	16172.13
463.316	16059.49
463.522	15647.85
463.727	15907.94
463.932	15633.51
464.138	15639.65
464.343	15762.53
464.549	15408.23
464.754	15768.68
464.959	15172.72
465.165	15506.54
465.37	14795.89
465.575	14533.75
465.781	15070.32
465.986	14937.2
466.191	14607.48
466.397	14068.86
466.602	13599.88
466.807	14060.67
467.012	14023.81
467.218	14027.9
467.423	14040.19
467.628	13988.99
467.833	14611.57
468.038	13896.83
468.244	13665.41
