Data from USB4F104151__56__14-43-10-500.txt Node

Date: Thu Mar 13 14:43:10 EDT 2025
User: louis
Spectrometer: USB4F10415
Trigger mode: 4
Integration Time (sec): 2.000000E-2
Scans to average: 1
Electric dark correction enabled: true
Nonlinearity correction enabled: false
Boxcar width: 0
XAxis mode: Wavelengths
Number of Pixels in Spectrum: 3648
>>>>>Begin Spectral Data<<<<<
178.204	-145.41
178.424	-145.41
178.644	-145.41
178.864	-159.74
179.084	-65.54
179.304	-92.16
179.524	-55.3
179.744	-28.67
179.964	-2.05
180.184	63.49
180.404	63.49
180.624	-14.34
180.844	24.58
181.064	18.43
181.283	6.14
181.503	-18.43
181.723	34.82
181.943	24.58
182.163	88.06
182.383	-4.1
182.602	30.72
182.822	79.87
183.042	83.97
183.262	-59.39
183.482	8.19
183.701	20.48
183.921	26.62
184.141	-32.77
184.361	71.68
184.58	61.44
184.8	12.29
185.02	-22.53
185.239	98.3
185.459	40.96
185.679	6.14
185.898	14.34
186.118	40.96
186.338	112.64
186.557	49.15
186.777	4.1
186.997	32.77
187.216	6.14
187.436	55.3
187.655	112.64
187.875	14.34
188.095	-16.38
188.314	114.69
188.534	24.58
188.753	0
188.973	61.44
189.192	38.91
189.412	92.16
189.631	43.01
189.851	65.53
190.07	59.39
190.29	22.53
190.509	6.14
190.729	30.72
190.948	114.69
191.168	116.73
191.387	83.97
191.607	57.34
191.826	47.1
192.045	12.29
192.265	6.14
192.484	-8.19
192.704	57.34
192.923	16.38
193.142	106.49
193.362	65.53
193.581	63.49
193.8	22.53
194.02	71.68
194.239	6.14
194.458	38.91
194.678	47.1
194.897	6.14
195.116	45.06
195.335	14.34
195.555	55.3
195.774	90.11
195.993	71.68
196.212	-51.2
196.432	51.2
196.651	75.77
196.87	75.77
197.089	47.1
197.308	-40.96
197.528	57.34
197.747	-47.1
197.966	49.15
198.185	47.1
198.404	26.62
198.623	24.58
198.842	0
199.062	-57.34
199.281	45.06
199.5	43.01
199.719	55.3
199.938	90.11
200.157	137.21
200.376	-6.14
200.595	59.39
200.814	47.1
201.033	-32.77
201.252	30.72
201.471	53.25
201.69	-10.24
201.909	32.77
202.128	4.1
202.347	22.53
202.566	43.01
202.785	26.62
203.004	-38.91
203.223	40.96
203.442	57.34
203.661	-2.05
203.879	49.15
204.098	18.43
204.317	-43.01
204.536	133.12
204.755	75.77
204.974	63.49
205.193	32.77
205.411	124.93
205.63	65.53
205.849	20.48
206.068	-28.67
206.287	6.14
206.505	81.92
206.724	24.58
206.943	10.24
207.162	67.58
207.381	69.63
207.599	81.92
207.818	6.14
208.037	0
208.255	26.62
208.474	14.34
208.693	30.72
208.911	-8.19
209.13	65.53
209.349	118.78
209.567	53.25
209.786	81.92
210.005	79.87
210.223	40.96
210.442	-47.1
210.661	43.01
210.879	47.1
211.098	49.15
211.316	-6.14
211.535	65.53
211.753	10.24
211.972	131.07
212.191	26.62
212.409	16.38
212.628	83.97
212.846	-26.62
213.065	83.97
213.283	92.16
213.502	-8.19
213.72	47.1
213.938	100.35
214.157	55.3
214.375	32.77
214.594	-16.38
214.812	22.53
215.031	26.62
215.249	14.34
215.467	34.82
215.686	57.34
215.904	98.3
216.122	55.3
216.341	26.62
216.559	14.34
216.778	57.34
216.996	139.26
217.214	20.48
217.432	10.24
217.651	81.92
217.869	-16.38
218.087	69.63
218.306	63.49
218.524	-26.62
218.742	-38.91
218.96	79.87
219.179	47.1
219.397	14.34
219.615	133.12
219.833	65.53
220.051	51.2
220.27	145.41
220.488	79.87
220.706	-10.24
220.924	-6.14
221.142	6.14
221.36	59.39
221.578	79.87
221.796	6.14
222.015	98.3
222.233	124.93
222.451	59.39
222.669	-16.38
222.887	12.29
223.105	45.06
223.323	94.21
223.541	81.92
223.759	55.3
223.977	38.91
224.195	-12.29
224.413	67.58
224.631	-38.91
224.849	43.01
225.067	55.3
225.285	38.91
225.503	-2.05
225.721	6.14
225.939	104.45
226.157	38.91
226.375	98.3
226.592	-26.62
226.81	36.86
227.028	71.68
227.246	104.45
227.464	30.72
227.682	-51.2
227.9	57.34
228.117	-2.05
228.335	20.48
228.553	18.43
228.771	47.1
228.989	2.05
229.206	63.49
229.424	-26.62
229.642	14.34
229.86	47.1
230.077	14.34
230.295	92.16
230.513	32.77
230.731	38.91
230.948	18.43
231.166	120.83
231.384	-2.05
231.601	6.14
231.819	65.53
232.037	-34.82
232.254	24.58
232.472	34.82
232.689	63.49
232.907	112.64
233.125	75.77
233.342	10.24
233.56	30.72
233.777	-20.48
233.995	38.91
234.213	34.82
234.43	6.14
234.648	43.01
234.865	55.3
235.083	34.82
235.3	24.58
235.518	63.49
235.735	83.97
235.953	32.77
236.17	24.58
236.388	-16.38
236.605	26.62
236.822	83.97
237.04	67.58
237.257	55.3
237.475	69.63
237.692	49.15
237.909	-12.29
238.127	-14.34
238.344	53.25
238.562	40.96
238.779	-75.77
238.996	63.49
239.214	71.68
239.431	110.59
239.648	-16.38
239.865	79.87
240.083	90.11
240.3	94.21
240.517	38.91
240.735	77.82
240.952	149.5
241.169	18.43
241.386	71.68
241.603	-10.24
241.821	-6.14
242.038	79.87
242.255	114.69
242.472	92.16
242.689	110.59
242.907	116.73
243.124	28.67
243.341	10.24
243.558	83.97
243.775	-14.34
243.992	51.2
244.209	57.34
244.426	116.73
244.643	126.97
244.86	24.58
245.078	14.34
245.295	36.86
245.512	77.82
245.729	22.53
245.946	116.73
246.163	73.73
246.38	71.68
246.597	79.87
246.814	65.53
247.031	43.01
247.248	43.01
247.464	24.58
247.681	30.72
247.898	71.68
248.115	104.45
248.332	-16.38
248.549	90.11
248.766	88.06
248.983	57.34
249.2	14.34
249.417	65.53
249.633	16.38
249.85	24.58
250.067	30.72
250.284	32.77
250.501	16.38
250.717	96.25
250.934	51.2
251.151	14.34
251.368	79.87
251.585	18.43
251.801	92.16
252.018	-10.24
252.235	26.62
252.451	-55.3
252.668	57.34
252.885	34.82
253.102	-34.82
253.318	40.96
253.535	16.38
253.752	18.43
253.968	-10.24
254.185	51.2
254.401	59.39
254.618	51.2
254.835	30.72
255.051	153.6
255.268	47.1
255.484	-6.14
255.701	51.2
255.917	30.72
256.134	-32.77
256.351	65.53
256.567	-10.24
256.784	63.49
257	30.72
257.217	79.87
257.433	47.1
257.65	51.2
257.866	51.2
258.082	-38.91
258.299	2.05
258.515	51.2
258.732	-16.38
258.948	32.77
259.165	88.06
259.381	8.19
259.597	45.06
259.814	122.88
260.03	63.49
260.246	22.53
260.463	30.72
260.679	-10.24
260.895	26.62
261.112	83.97
261.328	-73.73
261.544	-10.24
261.761	88.06
261.977	63.49
262.193	30.72
262.409	51.2
262.626	98.3
262.842	55.3
263.058	65.53
263.274	63.49
263.49	90.11
263.707	4.1
263.923	83.97
264.139	49.15
264.355	32.77
264.571	88.06
264.787	71.68
265.004	81.92
265.22	57.34
265.436	10.24
265.652	-12.29
265.868	67.58
266.084	79.87
266.3	79.87
266.516	18.43
266.732	-51.2
266.948	92.16
267.164	57.34
267.38	57.34
267.596	38.91
267.812	63.49
268.028	47.1
268.244	-30.72
268.46	94.21
268.676	14.34
268.892	55.3
269.108	14.34
269.324	75.77
269.54	-16.38
269.756	112.64
269.972	4.1
270.188	73.73
270.403	-2.05
270.619	38.91
270.835	45.06
271.051	0
271.267	14.34
271.483	-8.19
271.698	2.05
271.914	137.21
272.13	49.15
272.346	26.62
272.562	-2.05
272.777	47.1
272.993	-10.24
273.209	79.87
273.425	67.58
273.64	-2.05
273.856	110.59
274.072	-18.43
274.287	-12.29
274.503	112.64
274.719	79.87
274.934	110.59
275.15	24.58
275.366	-47.1
275.581	16.38
275.797	67.58
276.012	55.3
276.228	22.53
276.444	124.93
276.659	38.91
276.875	10.24
277.09	8.19
277.306	81.92
277.521	92.16
277.737	43.01
277.952	94.21
278.168	145.41
278.383	49.15
278.599	96.25
278.814	71.68
279.03	22.53
279.245	59.39
279.461	-51.2
279.676	14.34
279.892	55.3
280.107	57.34
280.322	30.72
280.538	106.49
280.753	53.25
280.969	55.3
281.184	43.01
281.399	122.88
281.615	106.49
281.83	47.1
282.045	79.87
282.26	65.53
282.476	-34.82
282.691	65.53
282.906	38.91
283.122	112.64
283.337	51.2
283.552	63.49
283.767	59.39
283.983	-2.05
284.198	73.73
284.413	114.69
284.628	24.58
284.843	24.58
285.058	40.96
285.274	61.44
285.489	-22.53
285.704	47.1
285.919	-22.53
286.134	110.59
286.349	63.49
286.564	-34.82
286.779	26.62
286.995	63.49
287.21	-51.2
287.425	88.06
287.64	57.34
287.855	20.48
288.07	-36.86
288.285	79.87
288.5	149.5
288.715	112.64
288.93	55.3
289.145	47.1
289.36	108.54
289.575	71.68
289.79	-14.34
290.004	38.91
290.219	57.34
290.434	4.1
290.649	10.24
290.864	49.15
291.079	57.34
291.294	22.53
291.509	22.53
291.724	88.06
291.938	8.19
292.153	22.53
292.368	10.24
292.583	4.1
292.798	67.58
293.012	8.19
293.227	124.93
293.442	104.45
293.657	36.86
293.871	104.45
294.086	38.91
294.301	81.92
294.516	88.06
294.73	22.53
294.945	43.01
295.16	34.82
295.374	110.59
295.589	114.69
295.804	-10.24
296.018	100.35
296.233	81.92
296.447	204.8
296.662	59.39
296.877	129.02
297.091	-2.05
297.306	2.05
297.52	34.82
297.735	73.73
297.949	-28.67
298.164	94.21
298.378	79.87
298.593	8.19
298.807	47.1
299.022	69.63
299.236	120.83
299.451	22.53
299.665	20.48
299.88	43.01
300.094	81.92
300.309	47.1
300.523	40.96
300.737	26.62
300.952	32.77
301.166	-14.34
301.381	51.2
301.595	55.3
301.809	16.38
302.024	47.1
302.238	14.34
302.452	92.16
302.667	18.43
302.881	18.43
303.095	79.87
303.309	71.68
303.524	51.2
303.738	47.1
303.952	0
304.166	24.58
304.381	-20.48
304.595	96.25
304.809	10.24
305.023	81.92
305.237	51.2
305.452	96.25
305.666	18.43
305.88	75.77
306.094	47.1
306.308	-2.05
306.522	88.06
306.736	90.11
306.95	16.38
307.164	67.58
307.379	28.67
307.593	92.16
307.807	26.62
308.021	10.24
308.235	59.39
308.449	24.58
308.663	77.82
308.877	108.54
309.091	86.01
309.305	75.77
309.519	-2.05
309.733	59.39
309.947	-34.82
310.161	90.11
310.374	49.15
310.588	65.53
310.802	-40.96
311.016	79.87
311.23	104.45
311.444	-10.24
311.658	22.53
311.872	81.92
312.085	34.82
312.299	143.36
312.513	63.49
312.727	-18.43
312.941	-24.58
313.154	30.72
313.368	12.29
313.582	92.16
313.796	40.96
314.009	32.77
314.223	114.69
314.437	73.73
314.651	61.44
314.864	22.53
315.078	79.87
315.292	-10.24
315.505	10.24
315.719	-2.05
315.933	61.44
316.146	10.24
316.36	49.15
316.573	129.02
316.787	106.49
317.001	129.02
317.214	-14.34
317.428	34.82
317.641	24.58
317.855	88.06
318.068	32.77
318.282	26.62
318.495	77.82
318.709	73.73
318.922	71.68
319.136	51.2
319.349	108.54
319.563	30.72
319.776	108.54
319.99	18.43
320.203	71.68
320.417	47.1
320.63	63.49
320.843	112.64
321.057	55.3
321.27	40.96
321.483	8.19
321.697	112.64
321.91	55.3
322.124	49.15
322.337	61.44
322.55	32.77
322.763	22.53
322.977	43.01
323.19	24.58
323.403	47.1
323.617	55.3
323.83	88.06
324.043	104.45
324.256	90.11
324.469	47.1
324.683	47.1
324.896	69.63
325.109	63.49
325.322	-26.62
325.535	47.1
325.748	45.06
325.962	51.2
326.175	0
326.388	104.45
326.601	102.4
326.814	131.07
327.027	79.87
327.24	81.92
327.453	112.64
327.666	129.02
327.879	34.82
328.092	133.12
328.305	38.91
328.518	96.25
328.731	186.37
328.944	24.58
329.157	24.58
329.37	75.77
329.583	43.01
329.796	65.53
330.009	0
330.222	34.82
330.435	57.34
330.648	63.49
330.861	22.53
331.073	77.82
331.286	43.01
331.499	55.3
331.712	45.06
331.925	26.62
332.138	30.72
332.35	79.87
332.563	63.49
332.776	114.69
332.989	55.3
333.202	4.1
333.414	47.1
333.627	51.2
333.84	83.97
334.053	51.2
334.265	49.15
334.478	57.34
334.691	18.43
334.903	124.93
335.116	92.16
335.329	67.58
335.541	24.58
335.754	63.49
335.966	90.11
336.179	-2.05
336.392	92.16
336.604	61.44
336.817	22.53
337.029	63.49
337.242	47.1
337.454	65.53
337.667	43.01
337.88	40.96
338.092	47.1
338.305	143.36
338.517	0
338.729	55.3
338.942	40.96
339.154	-34.82
339.367	30.72
339.579	55.3
339.792	6.14
340.004	65.53
340.217	131.07
340.429	55.3
340.641	43.01
340.854	153.6
341.066	26.62
341.278	122.88
341.491	79.87
341.703	71.68
341.915	57.34
342.128	71.68
342.34	14.34
342.552	106.49
342.764	67.58
342.977	12.29
343.189	-8.19
343.401	6.14
343.613	-12.29
343.826	114.69
344.038	-24.58
344.25	116.73
344.462	55.3
344.674	110.59
344.886	40.96
345.099	30.72
345.311	2.05
345.523	90.11
345.735	81.92
345.947	45.06
346.159	69.63
346.371	40.96
346.583	32.77
346.795	169.98
347.007	65.53
347.219	34.82
347.431	6.14
347.643	145.41
347.855	59.39
348.067	104.45
348.279	88.06
348.491	38.91
348.703	32.77
348.915	32.77
349.127	-61.44
349.339	98.3
349.551	65.53
349.763	96.25
349.975	122.88
350.187	28.67
350.399	65.53
350.61	28.67
350.822	16.38
351.034	30.72
351.246	112.64
351.458	79.87
351.669	126.97
351.881	63.49
352.093	45.06
352.305	51.2
352.517	51.2
352.728	104.45
352.94	24.58
353.152	108.54
353.363	108.54
353.575	120.83
353.787	47.1
353.999	63.49
354.21	124.93
354.422	0
354.633	30.72
354.845	65.53
355.057	30.72
355.268	24.58
355.48	110.59
355.692	10.24
355.903	30.72
356.115	75.77
356.326	30.72
356.538	104.45
356.749	98.3
356.961	83.97
357.172	14.34
357.384	47.1
357.595	94.21
357.807	43.01
358.018	28.67
358.23	14.34
358.441	139.26
358.653	92.16
358.864	77.82
359.075	-26.62
359.287	88.06
359.498	131.07
359.709	63.49
359.921	71.68
360.132	159.74
360.344	22.53
360.555	10.24
360.766	53.25
360.977	-10.24
361.189	92.16
361.4	26.62
361.611	49.15
361.823	88.06
362.034	114.69
362.245	-65.54
362.456	73.73
362.667	114.69
362.879	73.73
363.09	38.91
363.301	22.53
363.512	71.68
363.723	75.77
363.935	6.14
364.146	47.1
364.357	51.2
364.568	55.3
364.779	71.68
364.99	63.49
365.201	79.87
365.412	86.01
365.623	28.67
365.834	96.25
366.045	79.87
366.256	18.43
366.467	38.91
366.678	55.3
366.889	88.06
367.1	81.92
367.311	38.91
367.522	88.06
367.733	45.06
367.944	75.77
368.155	32.77
368.366	6.14
368.577	67.58
368.788	137.21
368.999	-8.19
369.209	98.3
369.42	157.69
369.631	204.8
369.842	47.1
370.053	137.21
370.264	96.25
370.474	24.58
370.685	43.01
370.896	71.68
371.107	110.59
371.317	57.34
371.528	-10.24
371.739	38.91
371.95	67.58
372.16	108.54
372.371	79.87
372.582	98.3
372.792	129.02
373.003	69.63
373.214	38.91
373.424	75.77
373.635	16.38
373.846	135.17
374.056	30.72
374.267	18.43
374.477	71.68
374.688	8.19
374.898	22.53
375.109	94.21
375.319	26.62
375.53	79.87
375.74	-4.1
375.951	12.29
376.161	122.88
376.372	114.69
376.582	-8.19
376.793	161.79
377.003	26.62
377.214	22.53
377.424	10.24
377.635	22.53
377.845	43.01
378.055	96.25
378.266	10.24
378.476	30.72
378.686	26.62
378.897	147.45
379.107	114.69
379.317	73.73
379.528	57.34
379.738	90.11
379.948	-24.58
380.158	47.1
380.369	79.87
380.579	108.54
380.789	26.62
380.999	16.38
381.21	51.2
381.42	137.21
381.63	59.39
381.84	22.53
382.05	114.69
382.261	63.49
382.471	88.06
382.681	40.96
382.891	104.45
383.101	57.34
383.311	16.38
383.521	53.25
383.731	34.82
383.941	79.87
384.151	-26.62
384.361	75.77
384.571	73.73
384.781	8.19
384.991	167.93
385.201	155.65
385.411	112.64
385.621	81.92
385.831	61.44
386.041	59.39
386.251	26.62
386.461	57.34
386.671	73.73
386.881	2.05
387.091	81.92
387.301	118.78
387.511	-2.05
387.72	129.02
387.93	43.01
388.14	12.29
388.35	26.62
388.56	114.69
388.769	55.3
388.979	120.83
389.189	24.58
389.399	57.34
389.609	73.73
389.818	106.49
390.028	81.92
390.238	102.4
390.447	88.06
390.657	57.34
390.867	26.62
391.076	57.34
391.286	112.64
391.496	145.41
391.705	49.15
391.915	38.91
392.125	100.35
392.334	67.58
392.544	92.16
392.753	63.49
392.963	126.97
393.172	65.53
393.382	83.97
393.591	73.73
393.801	63.49
394.01	178.17
394.22	79.87
394.429	71.68
394.639	83.97
394.848	139.26
395.058	120.83
395.267	133.12
395.477	43.01
395.686	131.07
395.895	100.35
396.105	133.12
396.314	141.31
396.524	96.25
396.733	67.58
396.942	122.88
397.152	59.39
397.361	124.93
397.57	169.98
397.78	96.25
397.989	129.02
398.198	180.22
398.407	219.13
398.617	131.07
398.826	81.92
399.035	55.3
399.244	161.79
399.453	38.91
399.663	104.45
399.872	71.68
400.081	120.83
400.29	135.17
400.499	53.25
400.708	118.78
400.917	81.92
401.127	141.31
401.336	100.35
401.545	100.35
401.754	174.08
401.963	139.26
402.172	124.93
402.381	114.69
402.59	116.73
402.799	137.21
403.008	120.83
403.217	167.93
403.426	153.6
403.635	157.69
403.844	194.56
404.053	157.69
404.262	135.17
404.471	178.17
404.68	100.35
404.888	131.07
405.097	104.45
405.306	163.84
405.515	202.75
405.724	210.94
405.933	239.61
406.142	178.17
406.35	260.09
406.559	210.94
406.768	210.94
406.977	303.1
407.185	247.8
407.394	196.61
407.603	178.17
407.812	286.72
408.02	206.84
408.229	215.04
408.438	243.71
408.646	196.61
408.855	284.67
409.064	212.99
409.272	237.56
409.481	268.28
409.69	249.85
409.898	227.32
410.107	247.8
410.315	389.11
410.524	342.01
410.733	423.93
410.941	319.48
411.15	325.63
411.358	423.93
411.567	489.46
411.775	387.07
411.984	370.68
412.192	487.42
412.401	440.31
412.609	522.23
412.818	380.92
413.026	395.26
413.234	514.04
413.443	450.55
413.651	511.99
413.86	503.8
414.068	636.92
414.276	577.53
414.485	550.9
414.693	520.18
414.901	671.73
415.11	663.54
415.318	731.12
415.526	735.22
415.734	749.56
415.943	710.65
416.151	770.04
416.359	851.95
416.567	837.62
416.776	909.3
416.984	956.4
417.192	915.44
417.4	923.63
417.608	882.67
417.817	993.26
418.025	942.07
418.233	1169.39
418.441	1193.97
418.649	1075.18
418.857	1161.2
419.065	1210.35
419.273	1177.58
419.481	1316.84
419.689	1335.28
419.897	1394.67
420.105	1308.65
420.313	1386.47
420.521	1585.13
420.729	1488.87
420.937	1517.54
421.145	1671.14
421.353	1714.15
421.561	1894.37
421.769	1896.42
421.977	1933.28
422.185	1886.18
422.393	2062.3
422.601	2056.16
422.809	2080.74
423.017	2025.44
423.224	2213.85
423.432	2226.14
423.64	2283.49
423.848	2496.47
424.056	2373.6
424.263	2605.02
424.471	2662.36
424.679	2662.36
424.887	2828.24
425.094	2834.39
425.302	2807.77
425.51	3004.37
425.718	3112.91
425.925	3143.63
426.133	3256.27
426.341	3413.96
426.548	3512.27
426.756	3487.69
426.964	3659.72
427.171	3798.98
427.379	3887.04
427.586	3921.86
427.794	4149.18
428.001	4294.59
428.209	4454.33
428.417	4319.17
428.624	4691.9
428.832	4638.65
429.039	4564.92
429.247	4687.8
429.454	5164.98
429.662	5359.53
429.869	5056.43
430.076	5543.85
430.284	5257.14
430.491	5719.98
430.699	5867.43
430.906	5949.35
431.114	5883.81
431.321	6328.22
431.528	6371.23
431.736	6547.36
431.943	7153.55
432.15	6743.96
432.358	6829.98
432.565	7188.37
432.772	7290.77
432.979	7518.09
433.187	7597.96
433.394	7716.75
433.601	8107.91
433.808	8255.36
434.016	8013.7
434.223	8691.58
434.43	9154.42
434.637	8931.19
434.844	9375.6
435.052	9635.69
435.259	9633.64
435.466	9697.13
435.673	9537.39
435.88	10225.51
436.087	10575.71
436.294	10551.13
436.501	10358.63
436.708	10749.79
436.915	11056.98
437.122	11368.27
437.329	11499.34
437.537	11878.22
437.743	11962.19
437.95	11859.79
438.157	12588.86
438.364	12791.61
438.571	12922.68
438.778	13033.27
438.985	14180.14
439.192	13565.74
439.399	14104.36
439.606	13676.34
439.813	14661.41
440.02	15556.37
440.227	15306.52
440.433	15132.44
440.64	15648.53
440.847	15257.37
441.054	15726.35
441.261	16924.41
441.467	16631.55
441.674	16832.26
441.881	17268.47
442.088	17508.08
442.294	17149.69
442.501	17692.4
442.708	18181.87
442.914	18867.94
443.121	19586.77
443.328	19031.77
443.534	20471.5
443.741	19934.93
443.948	19193.56
444.154	20827.84
444.361	21012.16
444.568	20790.98
444.774	21274.3
444.981	21053.12
445.187	21782.2
445.394	23041.7
445.6	22691.49
445.807	24731.27
446.013	23498.39
446.22	23950.99
446.426	25181.82
446.633	25095.81
446.839	25859.7
447.046	25063.04
447.252	26420.84
447.459	26365.55
447.665	26048.11
447.871	27557.47
448.078	28569.16
448.284	27770.46
448.491	27612.76
448.697	29062.72
448.903	29627.96
449.11	29406.78
449.316	29220.42
449.522	29998.65
449.728	30580.27
449.935	30668.33
450.141	30502.45
450.347	31229.48
450.553	31059.49
450.76	30903.85
450.966	32235.03
451.172	31391.26
451.378	32531.98
451.584	31821.34
451.791	32753.16
451.997	32214.55
452.203	33082.89
452.409	33271.3
452.615	33050.12
452.821	31784.47
453.027	31610.4
453.233	33234.44
453.44	31657.5
453.646	32515.6
453.852	32343.57
454.058	32867.85
454.264	31981.08
454.47	32228.88
454.676	31456.8
454.882	33023.5
455.088	30363.18
455.294	30441.01
455.5	30805.55
455.705	31350.31
455.911	29933.11
456.117	29744.7
456.323	28927.56
456.529	27610.71
456.735	28677.71
456.941	27862.61
457.147	27774.55
457.352	27010.66
457.558	26613.35
457.764	26771.05
457.97	26001.01
458.176	25781.88
458.381	25730.68
458.587	24376.97
458.793	24346.25
458.999	22998.69
459.204	24712.84
459.41	23955.09
459.616	22591.14
459.821	22630.05
460.027	22140.59
460.233	22044.34
460.438	21014.21
460.644	21350.07
460.85	20412.1
461.055	19779.28
461.261	19650.26
461.466	18538.21
461.672	18003.69
461.878	19265.24
462.083	17956.59
462.289	17614.58
462.494	17340.15
462.7	16570.12
462.905	16219.91
463.111	16686.85
463.316	16768.77
463.522	16377.61
463.727	16373.51
463.932	16529.16
464.138	16107.27
464.343	16144.14
464.549	15726.35
464.754	16119.56
464.959	15996.68
465.165	16197.38
465.37	15283.99
465.575	14851.87
465.781	15587.09
465.986	15552.27
466.191	15015.71
466.397	14901.02
466.602	14180.14
466.807	14841.63
467.012	14792.48
467.218	14411.56
467.423	14257.96
