Data from USB4F104151__63__14-43-14-979.txt Node

Date: Thu Mar 13 14:43:14 EDT 2025
User: louis
Spectrometer: USB4F10415
Trigger mode: 4
Integration Time (sec): 2.000000E-2
Scans to average: 1
Electric dark correction enabled: true
Nonlinearity correction enabled: false
Boxcar width: 0
XAxis mode: Wavelengths
Number of Pixels in Spectrum: 3648
>>>>>Begin Spectral Data<<<<<
178.204	-133.29
178.424	-133.29
178.644	-133.29
178.864	-129.19
179.084	-90.28
179.304	-59.56
179.524	14.17
179.744	-6.31
179.964	30.55
180.184	-47.27
180.404	71.51
180.624	-16.55
180.844	5.97
181.064	-47.27
181.283	63.32
181.503	-18.6
181.723	10.07
181.943	48.98
182.163	63.32
182.383	30.55
182.602	5.97
182.822	38.74
183.042	57.17
183.262	-6.31
183.482	-26.79
183.701	-16.55
183.921	1.88
184.141	-59.56
184.361	96.08
184.58	-8.36
184.8	30.55
185.02	40.79
185.239	36.69
185.459	55.12
185.679	26.45
185.898	38.74
186.118	55.12
186.338	51.03
186.557	51.03
186.777	24.4
186.997	63.32
187.216	-6.31
187.436	24.4
187.655	-14.51
187.875	38.74
188.095	44.88
188.314	38.74
188.534	57.17
188.753	32.6
188.973	91.99
189.192	67.41
189.412	77.65
189.631	83.8
189.851	-6.31
190.07	63.32
190.29	-16.55
190.509	5.97
190.729	48.98
190.948	75.6
191.168	171.86
191.387	98.13
191.607	55.12
191.826	59.22
192.045	51.03
192.265	10.07
192.484	32.6
192.704	65.36
192.923	34.64
193.142	79.7
193.362	38.74
193.581	10.07
193.8	96.08
194.02	104.28
194.239	34.64
194.458	81.75
194.678	18.26
194.897	-16.55
195.116	22.36
195.335	24.4
195.555	57.17
195.774	57.17
195.993	91.99
196.212	71.51
196.432	8.02
196.651	8.02
196.87	57.17
197.089	87.89
197.308	96.08
197.528	65.36
197.747	-20.65
197.966	40.79
198.185	85.84
198.404	104.28
198.623	-18.6
198.842	46.93
199.062	34.64
199.281	28.5
199.5	40.79
199.719	30.55
199.938	-49.32
200.157	-8.36
200.376	75.6
200.595	42.84
200.814	100.18
201.033	79.7
201.252	5.97
201.471	38.74
201.69	59.22
201.909	8.02
202.128	83.8
202.347	32.6
202.566	14.17
202.785	81.75
203.004	46.93
203.223	112.47
203.442	-20.65
203.661	71.51
203.879	14.17
204.098	46.93
204.317	32.6
204.536	46.93
204.755	79.7
204.974	-0.17
205.193	1.88
205.411	32.6
205.63	8.02
205.849	46.93
206.068	-2.22
206.287	63.32
206.505	14.17
206.724	30.55
206.943	30.55
207.162	16.21
207.381	87.89
207.599	63.32
207.818	51.03
208.037	65.36
208.255	-2.22
208.474	14.17
208.693	16.21
208.911	22.36
209.13	55.12
209.349	59.22
209.567	-6.31
209.786	85.84
210.005	79.7
210.223	-14.51
210.442	12.12
210.661	30.55
210.879	83.8
211.098	59.22
211.316	71.51
211.535	120.66
211.753	3.93
211.972	38.74
212.191	79.7
212.409	-34.99
212.628	143.19
212.846	-2.22
213.065	18.26
213.283	65.36
213.502	20.31
213.72	10.07
213.938	30.55
214.157	91.99
214.375	137.04
214.594	-10.41
214.812	28.5
215.031	137.04
215.249	89.94
215.467	-14.51
215.686	24.4
215.904	71.51
216.122	28.5
216.341	71.51
216.559	30.55
216.778	71.51
216.996	18.26
217.214	87.89
217.432	-0.17
217.651	32.6
217.869	89.94
218.087	26.45
218.306	5.97
218.524	96.08
218.742	14.17
218.96	65.36
219.179	87.89
219.397	10.07
219.615	149.33
219.833	112.47
220.051	12.12
220.27	87.89
220.488	-0.17
220.706	57.17
220.924	87.89
221.142	130.9
221.36	22.36
221.578	79.7
221.796	57.17
222.015	-82.09
222.233	-20.65
222.451	145.24
222.669	-32.94
222.887	26.45
223.105	24.4
223.323	-10.41
223.541	96.08
223.759	-0.17
223.977	-18.6
224.195	38.74
224.413	91.99
224.631	83.8
224.849	38.74
225.067	163.67
225.285	-12.46
225.503	89.94
225.721	1.88
225.939	24.4
226.157	67.41
226.375	122.71
226.592	34.64
226.81	14.17
227.028	67.41
227.246	63.32
227.464	26.45
227.682	71.51
227.9	67.41
228.117	30.55
228.335	79.7
228.553	57.17
228.771	38.74
228.989	55.12
229.206	104.28
229.424	26.45
229.642	12.12
229.86	1.88
230.077	79.7
230.295	71.51
230.513	30.55
230.731	83.8
230.948	53.08
231.166	96.08
231.384	8.02
231.601	10.07
231.819	59.22
232.037	48.98
232.254	-8.36
232.472	10.07
232.689	22.36
232.907	48.98
233.125	32.6
233.342	22.36
233.56	-2.22
233.777	28.5
233.995	91.99
234.213	122.71
234.43	22.36
234.648	79.7
234.865	22.36
235.083	46.93
235.3	26.45
235.518	32.6
235.735	57.17
235.953	147.28
236.17	38.74
236.388	73.56
236.605	61.27
236.822	120.66
237.04	106.32
237.257	79.7
237.475	38.74
237.692	44.88
237.909	87.89
238.127	73.56
238.344	16.21
238.562	81.75
238.779	-32.94
238.996	124.76
239.214	-2.22
239.431	30.55
239.648	46.93
239.865	22.36
240.083	91.99
240.3	5.97
240.517	57.17
240.735	87.89
240.952	32.6
241.169	104.28
241.386	79.7
241.603	34.64
241.821	-2.22
242.038	73.56
242.255	-0.17
242.472	53.08
242.689	22.36
242.907	126.8
243.124	102.23
243.341	128.85
243.558	-63.66
243.775	-22.7
243.992	5.97
244.209	149.33
244.426	112.47
244.643	5.97
244.86	59.22
245.078	75.6
245.295	32.6
245.512	38.74
245.729	-4.27
245.946	83.8
246.163	-0.17
246.38	-8.36
246.597	-10.41
246.814	89.94
247.031	63.32
247.248	-14.51
247.464	14.17
247.681	38.74
247.898	36.69
248.115	1.88
248.332	79.7
248.549	112.47
248.766	83.8
248.983	96.08
249.2	83.8
249.417	128.85
249.633	38.74
249.85	55.12
250.067	38.74
250.284	5.97
250.501	57.17
250.717	55.12
250.934	10.07
251.151	26.45
251.368	-4.27
251.585	18.26
251.801	104.28
252.018	10.07
252.235	79.7
252.451	-24.75
252.668	96.08
252.885	85.84
253.102	-14.51
253.318	118.61
253.535	51.03
253.752	16.21
253.968	59.22
254.185	51.03
254.401	30.55
254.618	26.45
254.835	71.51
255.051	100.18
255.268	32.6
255.484	18.26
255.701	116.56
255.917	24.4
256.134	87.89
256.351	89.94
256.567	24.4
256.784	91.99
257	1.88
257.217	128.85
257.433	40.79
257.65	32.6
257.866	22.36
258.082	130.9
258.299	-43.18
258.515	79.7
258.732	34.64
258.948	16.21
259.165	71.51
259.381	1.88
259.597	42.84
259.814	38.74
260.03	-2.22
260.246	63.32
260.463	137.04
260.679	63.32
260.895	71.51
261.112	114.52
261.328	40.79
261.544	30.55
261.761	61.27
261.977	22.36
262.193	65.36
262.409	10.07
262.626	34.64
262.842	79.7
263.058	-34.99
263.274	169.81
263.49	30.55
263.707	71.51
263.923	46.93
264.139	48.98
264.355	55.12
264.571	59.22
264.787	-2.22
265.004	20.31
265.22	18.26
265.436	98.13
265.652	42.84
265.868	46.93
266.084	104.28
266.3	69.46
266.516	5.97
266.732	22.36
266.948	44.88
267.164	77.65
267.38	38.74
267.596	-18.6
267.812	94.04
268.028	12.12
268.244	65.36
268.46	44.88
268.676	14.17
268.892	61.27
269.108	-30.89
269.324	-43.18
269.54	55.12
269.756	73.56
269.972	51.03
270.188	22.36
270.403	30.55
270.619	55.12
270.835	79.7
271.051	79.7
271.267	63.32
271.483	79.7
271.698	-16.55
271.914	5.97
272.13	20.31
272.346	91.99
272.562	1.88
272.777	34.64
272.993	-55.47
273.209	46.93
273.425	-30.89
273.64	22.36
273.856	73.56
274.072	-16.55
274.287	42.84
274.503	55.12
274.719	38.74
274.934	42.84
275.15	18.26
275.366	-18.6
275.581	-6.31
275.797	36.69
276.012	10.07
276.228	-18.6
276.444	-16.55
276.659	46.93
276.875	42.84
277.09	46.93
277.306	-14.51
277.521	-2.22
277.737	63.32
277.952	30.55
278.168	34.64
278.383	34.64
278.599	96.08
278.814	-6.31
279.03	-0.17
279.245	48.98
279.461	10.07
279.676	42.84
279.892	8.02
280.107	-0.17
280.322	48.98
280.538	98.13
280.753	-6.31
280.969	26.45
281.184	16.21
281.399	100.18
281.615	30.55
281.83	73.56
282.045	-8.36
282.26	42.84
282.476	38.74
282.691	8.02
282.906	65.36
283.122	94.04
283.337	-39.08
283.552	94.04
283.767	30.55
283.983	-2.22
284.198	96.08
284.413	-4.27
284.628	5.97
284.843	46.93
285.058	94.04
285.274	73.56
285.489	69.46
285.704	87.89
285.919	-32.94
286.134	73.56
286.349	5.97
286.564	75.6
286.779	137.04
286.995	71.51
287.21	22.36
287.425	65.36
287.64	40.79
287.855	30.55
288.07	40.79
288.285	71.51
288.5	46.93
288.715	120.66
288.93	67.41
289.145	-16.55
289.36	48.98
289.575	5.97
289.79	71.51
290.004	63.32
290.219	91.99
290.434	69.46
290.649	12.12
290.864	24.4
291.079	34.64
291.294	73.56
291.509	46.93
291.724	14.17
291.938	46.93
292.153	55.12
292.368	71.51
292.583	89.94
292.798	59.22
293.012	89.94
293.227	-10.41
293.442	83.8
293.657	77.65
293.871	40.79
294.086	-6.31
294.301	79.7
294.516	69.46
294.73	-24.75
294.945	30.55
295.16	32.6
295.374	147.28
295.589	75.6
295.804	30.55
296.018	-51.37
296.233	55.12
296.447	-0.17
296.662	67.41
296.877	46.93
297.091	100.18
297.306	63.32
297.52	-37.03
297.735	5.97
297.949	18.26
298.164	120.66
298.378	104.28
298.593	32.6
298.807	38.74
299.022	79.7
299.236	91.99
299.451	46.93
299.665	75.6
299.88	67.41
300.094	40.79
300.309	16.21
300.523	67.41
300.737	26.45
300.952	77.65
301.166	55.12
301.381	-18.6
301.595	1.88
301.809	38.74
302.024	-8.36
302.238	5.97
302.452	112.47
302.667	63.32
302.881	53.08
303.095	108.37
303.309	-0.17
303.524	91.99
303.738	10.07
303.952	-16.55
304.166	55.12
304.381	-41.13
304.595	120.66
304.809	48.98
305.023	71.51
305.237	44.88
305.452	22.36
305.666	81.75
305.88	63.32
306.094	71.51
306.308	38.74
306.522	34.64
306.736	42.84
306.95	28.5
307.164	22.36
307.379	-26.79
307.593	55.12
307.807	8.02
308.021	108.37
308.235	91.99
308.449	48.98
308.663	59.22
308.877	96.08
309.091	22.36
309.305	63.32
309.519	-32.94
309.733	63.32
309.947	-2.22
310.161	104.28
310.374	14.17
310.588	96.08
310.802	-0.17
311.016	5.97
311.23	75.6
311.444	16.21
311.658	-26.79
311.872	75.6
312.085	-14.51
312.299	96.08
312.513	-16.55
312.727	108.37
312.941	30.55
313.154	63.32
313.368	118.61
313.582	30.55
313.796	10.07
314.009	30.55
314.223	40.79
314.437	59.22
314.651	83.8
314.864	12.12
315.078	14.17
315.292	91.99
315.505	55.12
315.719	-41.13
315.933	67.41
316.146	-32.94
316.36	16.21
316.573	104.28
316.787	57.17
317.001	5.97
317.214	16.21
317.428	83.8
317.641	79.7
317.855	79.7
318.068	71.51
318.282	46.93
318.495	169.81
318.709	30.55
318.922	14.17
319.136	30.55
319.349	91.99
319.563	36.69
319.776	81.75
319.99	63.32
320.203	100.18
320.417	63.32
320.63	106.32
320.843	22.36
321.057	51.03
321.27	63.32
321.483	75.6
321.697	71.51
321.91	18.26
322.124	104.28
322.337	46.93
322.55	20.31
322.763	16.21
322.977	89.94
323.19	34.64
323.403	-0.17
323.617	36.69
323.83	14.17
324.043	61.27
324.256	71.51
324.469	1.88
324.683	89.94
324.896	-6.31
325.109	79.7
325.322	30.55
325.535	71.51
325.748	104.28
325.962	32.6
326.175	30.55
326.388	75.6
326.601	18.26
326.814	-18.6
327.027	14.17
327.24	1.88
327.453	8.02
327.666	38.74
327.879	30.55
328.092	1.88
328.305	71.51
328.518	32.6
328.731	14.17
328.944	40.79
329.157	16.21
329.37	85.84
329.583	112.47
329.796	91.99
330.009	61.27
330.222	51.03
330.435	81.75
330.648	38.74
330.861	20.31
331.073	-37.03
331.286	69.46
331.499	3.93
331.712	55.12
331.925	53.08
332.138	128.85
332.35	137.04
332.563	65.36
332.776	120.66
332.989	-10.41
333.202	89.94
333.414	75.6
333.627	59.22
333.84	1.88
334.053	44.88
334.265	-47.27
334.478	67.41
334.691	5.97
334.903	30.55
335.116	67.41
335.329	22.36
335.541	55.12
335.754	141.14
335.966	46.93
336.179	-0.17
336.392	51.03
336.604	22.36
336.817	38.74
337.029	55.12
337.242	14.17
337.454	8.02
337.667	22.36
337.88	51.03
338.092	5.97
338.305	87.89
338.517	8.02
338.729	34.64
338.942	55.12
339.154	71.51
339.367	24.4
339.579	55.12
339.792	61.27
340.004	77.65
340.217	16.21
340.429	91.99
340.641	5.97
340.854	114.52
341.066	8.02
341.278	38.74
341.491	153.43
341.703	89.94
341.915	10.07
342.128	122.71
342.34	81.75
342.552	71.51
342.764	20.31
342.977	89.94
343.189	-43.18
343.401	-4.27
343.613	48.98
343.826	12.12
344.038	5.97
344.25	61.27
344.462	57.17
344.674	22.36
344.886	1.88
345.099	106.32
345.311	98.13
345.523	137.04
345.735	-12.46
345.947	48.98
346.159	22.36
346.371	14.17
346.583	-34.99
346.795	128.85
347.007	18.26
347.219	79.7
347.431	55.12
347.643	67.41
347.855	40.79
348.067	46.93
348.279	-98.47
348.491	44.88
348.703	145.24
348.915	141.14
349.127	-22.7
349.339	30.55
349.551	14.17
349.763	94.04
349.975	44.88
350.187	44.88
350.399	100.18
350.61	79.7
350.822	32.6
351.034	16.21
351.246	89.94
351.458	171.86
351.669	30.55
351.881	26.45
352.093	104.28
352.305	139.09
352.517	-0.17
352.728	53.08
352.94	44.88
353.152	108.37
353.363	-20.65
353.575	26.45
353.787	108.37
353.999	22.36
354.21	59.22
354.422	63.32
354.633	145.24
354.845	16.21
355.057	67.41
355.268	16.21
355.48	110.42
355.692	63.32
355.903	32.6
356.115	63.32
356.326	26.45
356.538	153.43
356.749	34.64
356.961	14.17
357.172	120.66
357.384	63.32
357.595	94.04
357.807	-32.94
358.018	79.7
358.23	96.08
358.441	96.08
358.653	75.6
358.864	38.74
359.075	32.6
359.287	24.4
359.498	153.43
359.709	20.31
359.921	48.98
360.132	135
360.344	75.6
360.555	-22.7
360.766	87.89
360.977	-12.46
361.189	-16.55
361.4	30.55
361.611	122.71
361.823	59.22
362.034	57.17
362.245	-59.56
362.456	55.12
362.667	51.03
362.879	65.36
363.09	5.97
363.301	75.6
363.512	55.12
363.723	32.6
363.935	63.32
364.146	120.66
364.357	-75.95
364.568	73.56
364.779	30.55
364.99	81.75
365.201	46.93
365.412	110.42
365.623	-26.79
365.834	30.55
366.045	46.93
366.256	85.84
366.467	132.95
366.678	71.51
366.889	79.7
367.1	48.98
367.311	59.22
367.522	-6.31
367.733	112.47
367.944	40.79
368.155	73.56
368.366	34.64
368.577	87.89
368.788	59.22
368.999	24.4
369.209	55.12
369.42	63.32
369.631	112.47
369.842	102.23
370.053	63.32
370.264	-4.27
370.474	98.13
370.685	106.32
370.896	22.36
371.107	89.94
371.317	96.08
371.528	51.03
371.739	118.61
371.95	104.28
372.16	96.08
372.371	-16.55
372.582	59.22
372.792	79.7
373.003	34.64
373.214	42.84
373.424	79.7
373.635	46.93
373.846	169.81
374.056	30.55
374.267	96.08
374.477	116.56
374.688	65.36
374.898	38.74
375.109	55.12
375.319	5.97
375.53	71.51
375.74	46.93
375.951	1.88
376.161	71.51
376.372	81.75
376.582	32.6
376.793	14.17
377.003	79.7
377.214	36.69
377.424	38.74
377.635	63.32
377.845	71.51
378.055	114.52
378.266	-14.51
378.476	96.08
378.686	46.93
378.897	32.6
379.107	63.32
379.317	98.13
379.528	14.17
379.738	34.64
379.948	73.56
380.158	65.36
380.369	69.46
380.579	55.12
380.789	46.93
380.999	67.41
381.21	81.75
381.42	71.51
381.63	59.22
381.84	79.7
382.05	79.7
382.261	32.6
382.471	63.32
382.681	16.21
382.891	137.04
383.101	116.56
383.311	57.17
383.521	42.84
383.731	65.36
383.941	83.8
384.151	59.22
384.361	26.45
384.571	141.14
384.781	8.02
384.991	130.9
385.201	53.08
385.411	55.12
385.621	61.27
385.831	5.97
386.041	89.94
386.251	71.51
386.461	71.51
386.671	106.32
386.881	57.17
387.091	69.46
387.301	120.66
387.511	87.89
387.72	53.08
387.93	96.08
388.14	3.93
388.35	63.32
388.56	112.47
388.769	104.28
388.979	34.64
389.189	57.17
389.399	147.28
389.609	20.31
389.818	87.89
390.028	46.93
390.238	38.74
390.447	108.37
390.657	139.09
390.867	55.12
391.076	14.17
391.286	96.08
391.496	42.84
391.705	38.74
391.915	114.52
392.125	44.88
392.334	71.51
392.544	141.14
392.753	44.88
392.963	-34.99
393.172	114.52
393.382	100.18
393.591	46.93
393.801	22.36
394.01	63.32
394.22	53.08
394.429	128.85
394.639	106.32
394.848	36.69
395.058	55.12
395.267	108.37
395.477	114.52
395.686	79.7
395.895	155.47
396.105	145.24
396.314	55.12
396.524	165.71
396.733	87.89
396.942	194.39
397.152	83.8
397.361	165.71
397.57	91.99
397.78	8.02
397.989	73.56
398.198	161.62
398.407	85.84
398.617	128.85
398.826	79.7
399.035	-16.55
399.244	79.7
399.453	79.7
399.663	46.93
399.872	151.38
400.081	85.84
400.29	114.52
400.499	91.99
400.708	106.32
400.917	120.66
401.127	135
401.336	139.09
401.545	169.81
401.754	151.38
401.963	155.47
402.172	96.08
402.381	104.28
402.59	139.09
402.799	182.1
403.008	65.36
403.217	73.56
403.426	151.38
403.635	79.7
403.844	61.27
404.053	108.37
404.262	149.33
404.471	204.63
404.68	116.56
404.888	124.76
405.097	167.76
405.306	149.33
405.515	190.29
405.724	112.47
405.933	145.24
406.142	149.33
406.35	153.43
406.559	194.39
406.768	130.9
406.977	169.81
407.185	173.91
407.394	202.58
407.603	180.05
407.812	192.34
408.02	235.35
408.229	178
408.438	245.59
408.646	182.1
408.855	276.31
409.064	221.01
409.272	221.01
409.481	235.35
409.69	227.15
409.898	182.1
410.107	257.87
410.315	321.36
410.524	245.59
410.733	243.54
410.941	358.22
411.15	292.69
411.358	360.27
411.567	393.04
411.775	341.84
411.984	296.78
412.192	374.61
412.401	345.94
412.609	431.95
412.818	358.22
413.026	554.83
413.234	450.38
413.443	431.95
413.651	427.85
413.86	526.16
414.068	573.26
414.276	585.55
414.485	483.15
414.693	567.12
414.901	550.73
415.11	538.45
415.318	560.97
415.526	606.03
415.734	743.24
415.943	702.28
416.151	767.82
416.359	730.95
416.567	767.82
416.776	792.39
416.984	767.82
417.192	857.93
417.4	780.11
417.608	833.35
417.817	800.59
418.025	868.17
418.233	964.42
418.441	960.33
418.649	958.28
418.857	1054.53
419.065	1152.84
419.273	1058.63
419.481	1058.63
419.689	1101.64
419.897	1156.93
420.105	1167.17
420.313	1333.06
420.521	1351.49
420.729	1308.48
420.937	1410.88
421.145	1490.75
421.353	1492.8
421.561	1726.27
421.769	1625.92
421.977	1763.13
422.185	1701.69
422.393	1818.43
422.601	1828.67
422.809	1867.58
423.017	1900.34
423.224	1976.12
423.432	2049.85
423.64	1996.6
423.848	2211.64
424.056	2311.99
424.263	2406.19
424.471	2299.7
424.679	2377.52
424.887	2488.11
425.094	2441.01
425.302	2522.93
425.51	2731.82
425.718	2754.35
425.925	2746.16
426.133	2840.36
426.341	2959.14
426.548	3274.53
426.756	3198.76
426.964	3374.88
427.171	3391.27
427.379	3561.25
427.586	3561.25
427.794	3594.01
428.001	3770.14
428.209	3976.98
428.417	4017.94
428.624	4194.07
428.832	4218.64
429.039	4103.96
429.247	4151.06
429.454	4564.75
429.662	4863.76
429.869	4538.13
430.076	4710.16
430.284	4726.54
430.491	4978.44
430.699	5152.52
430.906	5197.57
431.114	5336.84
431.321	5259.01
431.528	5680.89
431.736	5877.5
431.943	6283
432.15	6110.97
432.358	6149.88
432.565	6524.66
432.772	6434.55
432.979	6674.16
433.187	6663.92
433.394	6790.89
433.601	7245.54
433.808	7405.28
434.016	7313.13
434.223	7632.61
434.43	8083.16
434.637	7726.82
434.844	8419.03
435.052	8754.9
435.259	8468.18
435.466	8654.55
435.673	8414.93
435.88	9166.54
436.087	9475.78
436.294	9285.32
436.501	9266.89
436.708	9428.68
436.915	9832.13
437.122	10360.5
437.329	10108.6
437.537	10522.29
437.743	10583.73
437.95	10587.83
438.157	11237.03
438.364	11370.15
438.571	11536.04
438.778	11597.48
438.985	12744.34
439.192	12136.09
439.399	12412.57
439.606	12322.46
439.813	12967.57
440.02	13729.41
440.227	13522.57
440.433	13272.71
440.64	13647.49
440.847	13590.15
441.054	14034.56
441.261	14900.85
441.467	14937.71
441.674	15124.08
441.881	15636.07
442.088	15482.47
442.294	15492.71
442.501	15761
442.708	15924.83
442.914	16821.84
443.121	17260.11
443.328	17018.45
443.534	18142.78
443.741	17620.55
443.948	17294.93
444.154	18875.96
444.361	18570.81
444.568	18906.68
444.774	18693.69
444.981	19078.71
445.187	19379.76
445.394	20387.36
445.6	20143.65
445.807	21927.43
446.013	20893.21
446.22	21345.81
446.426	22410.75
446.633	22437.37
446.839	23381.49
447.046	22246.91
447.252	23490.03
447.459	23121.4
447.665	23397.87
447.871	24327.65
448.078	25427.41
448.284	24053.22
448.491	24874.46
448.697	25865.67
448.903	26664.38
449.11	26217.93
449.316	25798.09
449.522	26516.93
449.728	27321.78
449.935	27334.07
450.141	27213.24
450.347	28196.26
450.553	27379.12
450.76	27633.07
450.966	28474.79
451.172	28161.45
451.378	28976.54
451.584	28409.25
451.791	28954.01
451.997	28949.92
452.203	29132.18
452.409	29635.99
452.615	29312.41
452.821	28335.52
453.027	27987.37
453.233	29629.84
453.44	28179.88
453.646	28900.76
453.852	29177.24
454.058	29408.66
454.264	28394.92
454.47	29250.97
454.676	28329.38
454.882	29619.6
455.088	26465.73
455.294	26942.91
455.5	27856.3
455.705	27950.51
455.911	26846.65
456.117	26201.54
456.323	26252.74
456.529	24837.59
456.735	25611.73
456.941	25353.68
457.147	24960.47
457.352	24120.81
457.558	23877.1
457.764	24079.85
457.97	23428.59
458.176	22697.47
458.381	22828.54
458.587	22140.42
458.793	21599.76
458.999	20653.59
459.204	22224.39
459.41	21726.73
459.616	20284.96
459.821	20237.86
460.027	20174.37
460.233	19920.42
460.438	18832.95
460.644	18976.31
460.85	17997.38
461.055	17845.83
461.261	17659.46
461.466	16359
461.672	15881.83
461.878	17268.3
462.083	15988.32
462.289	15761
462.494	15701.61
462.7	15074.93
462.905	14300.8
463.111	15308.4
463.316	14673.53
463.522	14622.33
463.727	14612.09
463.932	14595.7
464.138	14517.88
464.343	14712.44
464.549	14202.49
464.754	14472.82
464.959	14468.73
465.165	14096
465.37	13524.61
465.575	13528.71
465.781	13956.74
465.986	13997.7
466.191	13336.2
466.397	13164.17
466.602	12660.37
466.807	13221.52
467.012	12981.9
467.218	13010.57
467.423	12793.49
467.628	13033.1
467.833	13463.18
468.038	13000.33
