Data from USB4F104151__77__14-43-25-036.txt Node

Date: Thu Mar 13 14:43:25 EDT 2025
User: louis
Spectrometer: USB4F10415
Trigger mode: 4
Integration Time (sec): 2.000000E-2
Scans to average: 1
Electric dark correction enabled: true
Nonlinearity correction enabled: false
Boxcar width: 0
XAxis mode: Wavelengths
Number of Pixels in Spectrum: 3648
>>>>>Begin Spectral Data<<<<<
178.204	-123.56
178.424	-123.56
178.644	-123.56
178.864	-148.14
179.084	-137.9
179.304	-17.07
179.524	-12.97
179.744	-119.46
179.964	15.7
180.184	-19.11
180.404	52.56
180.624	17.75
180.844	34.13
181.064	54.61
181.283	-33.45
181.503	-8.87
181.723	36.18
181.943	-25.26
182.163	150.87
182.383	23.89
182.602	79.19
182.822	75.09
183.042	64.85
183.262	25.94
183.482	73.04
183.701	23.89
183.921	56.66
184.141	48.47
184.361	11.61
184.58	56.66
184.8	-39.59
185.02	-8.87
185.239	40.28
185.459	66.9
185.679	17.75
185.898	56.66
186.118	38.23
186.338	9.56
186.557	56.66
186.777	-78.51
186.997	50.52
187.216	85.33
187.436	75.09
187.655	130.39
187.875	52.56
188.095	7.51
188.314	71
188.534	91.48
188.753	9.56
188.973	46.42
189.192	15.7
189.412	56.66
189.631	40.28
189.851	64.85
190.07	77.14
190.29	1.37
190.509	66.9
190.729	-70.31
190.948	52.56
191.168	138.58
191.387	85.33
191.607	5.46
191.826	15.7
192.045	-19.11
192.265	48.47
192.484	15.7
192.704	56.66
192.923	3.41
193.142	11.61
193.362	19.8
193.581	-0.68
193.8	44.37
194.02	89.43
194.239	89.43
194.458	91.48
194.678	81.24
194.897	11.61
195.116	-12.97
195.335	-0.68
195.555	19.8
195.774	23.89
195.993	44.37
196.212	56.66
196.432	44.37
196.651	89.43
196.87	-6.83
197.089	97.62
197.308	32.08
197.528	23.89
197.747	25.94
197.966	85.33
198.185	-6.83
198.404	56.66
198.623	-31.4
198.842	60.76
199.062	-0.68
199.281	122.2
199.5	30.04
199.719	34.13
199.938	36.18
200.157	107.86
200.376	7.51
200.595	56.66
200.814	-6.83
201.033	-6.83
201.252	42.32
201.471	-37.55
201.69	44.37
201.909	15.7
202.128	19.8
202.347	73.04
202.566	64.85
202.785	-0.68
203.004	-15.02
203.223	154.96
203.442	64.85
203.661	11.61
203.879	-37.55
204.098	-4.78
204.317	-27.31
204.536	93.52
204.755	17.75
204.974	44.37
205.193	32.08
205.411	50.52
205.63	48.47
205.849	83.28
206.068	23.89
206.287	19.8
206.505	-55.98
206.724	7.51
206.943	17.75
207.162	-2.73
207.381	89.43
207.599	17.75
207.818	44.37
208.037	-107.18
208.255	32.08
208.474	73.04
208.693	36.18
208.911	-27.31
209.13	15.7
209.349	46.42
209.567	7.51
209.786	101.72
210.005	93.52
210.223	-8.87
210.442	7.51
210.661	91.48
210.879	23.89
211.098	-23.21
211.316	-33.45
211.535	15.7
211.753	-8.87
211.972	99.67
212.191	-0.68
212.409	68.95
212.628	132.44
212.846	60.76
213.065	56.66
213.283	93.52
213.502	-10.92
213.72	-0.68
213.938	64.85
214.157	52.56
214.375	25.94
214.594	42.32
214.812	99.67
215.031	56.66
215.249	15.7
215.467	50.52
215.686	36.18
215.904	75.09
216.122	-25.26
216.341	7.51
216.559	-25.26
216.778	-6.83
216.996	15.7
217.214	-10.92
217.432	-17.07
217.651	19.8
217.869	9.56
218.087	58.71
218.306	15.7
218.524	64.85
218.742	44.37
218.96	30.04
219.179	19.8
219.397	-4.78
219.615	52.56
219.833	56.66
220.051	3.41
220.27	-17.07
220.488	-2.73
220.706	134.48
220.924	-12.97
221.142	91.48
221.36	36.18
221.578	68.95
221.796	40.28
222.015	-25.26
222.233	73.04
222.451	38.23
222.669	-4.78
222.887	66.9
223.105	-29.35
223.323	73.04
223.541	7.51
223.759	13.65
223.977	58.71
224.195	23.89
224.413	3.41
224.631	25.94
224.849	81.24
225.067	114
225.285	-29.35
225.503	1.37
225.721	-15.02
225.939	56.66
226.157	58.71
226.375	64.85
226.592	46.42
226.81	116.05
227.028	107.86
227.246	58.71
227.464	23.89
227.682	97.62
227.9	-0.68
228.117	-10.92
228.335	64.85
228.553	81.24
228.771	-15.02
228.989	-4.78
229.206	23.89
229.424	68.95
229.642	-0.68
229.86	-4.78
230.077	48.47
230.295	23.89
230.513	122.2
230.731	-12.97
230.948	114
231.166	44.37
231.384	15.7
231.601	58.71
231.819	56.66
232.037	50.52
232.254	-49.83
232.472	5.46
232.689	23.89
232.907	-0.68
233.125	40.28
233.342	7.51
233.56	21.85
233.777	-8.87
233.995	-12.97
234.213	114
234.43	15.7
234.648	-4.78
234.865	-33.45
235.083	56.66
235.3	11.61
235.518	13.65
235.735	42.32
235.953	122.2
236.17	95.57
236.388	32.08
236.605	52.56
236.822	34.13
237.04	36.18
237.257	73.04
237.475	27.99
237.692	-0.68
237.909	66.9
238.127	25.94
238.344	56.66
238.562	-4.78
238.779	34.13
238.996	9.56
239.214	15.7
239.431	91.48
239.648	5.46
239.865	7.51
240.083	42.32
240.3	56.66
240.517	17.75
240.735	36.18
240.952	27.99
241.169	32.08
241.386	71
241.603	75.09
241.821	23.89
242.038	1.37
242.255	19.8
242.472	-58.03
242.689	27.99
242.907	56.66
243.124	-39.59
243.341	56.66
243.558	56.66
243.775	36.18
243.992	17.75
244.209	13.65
244.426	105.81
244.643	73.04
244.86	21.85
245.078	40.28
245.295	73.04
245.512	-8.87
245.729	48.47
245.946	-15.02
246.163	15.7
246.38	32.08
246.597	-0.68
246.814	-21.16
247.031	19.8
247.248	116.05
247.464	56.66
247.681	23.89
247.898	23.89
248.115	30.04
248.332	-23.21
248.549	52.56
248.766	148.82
248.983	27.99
249.2	64.85
249.417	50.52
249.633	44.37
249.85	25.94
250.067	23.89
250.284	40.28
250.501	75.09
250.717	46.42
250.934	30.04
251.151	77.14
251.368	40.28
251.585	64.85
251.801	50.52
252.018	15.7
252.235	11.61
252.451	3.41
252.668	7.51
252.885	64.85
253.102	58.71
253.318	19.8
253.535	19.8
253.752	-29.35
253.968	-6.83
254.185	52.56
254.401	105.81
254.618	15.7
254.835	81.24
255.051	146.77
255.268	17.75
255.484	15.7
255.701	15.7
255.917	56.66
256.134	3.41
256.351	25.94
256.567	9.56
256.784	93.52
257	-15.02
257.217	62.8
257.433	23.89
257.65	32.08
257.866	36.18
258.082	15.7
258.299	54.61
258.515	19.8
258.732	36.18
258.948	-15.02
259.165	101.72
259.381	5.46
259.597	75.09
259.814	11.61
260.03	3.41
260.246	50.52
260.463	93.52
260.679	116.05
260.895	23.89
261.112	-33.45
261.328	83.28
261.544	73.04
261.761	58.71
261.977	23.89
262.193	101.72
262.409	58.71
262.626	3.41
262.842	-4.78
263.058	25.94
263.274	68.95
263.49	17.75
263.707	87.38
263.923	75.09
264.139	7.51
264.355	-19.11
264.571	138.58
264.787	56.66
265.004	91.48
265.22	27.99
265.436	116.05
265.652	56.66
265.868	91.48
266.084	-33.45
266.3	19.8
266.516	27.99
266.732	58.71
266.948	-0.68
267.164	-4.78
267.38	15.7
267.596	48.47
267.812	126.29
268.028	21.85
268.244	3.41
268.46	3.41
268.676	-0.68
268.892	32.08
269.108	40.28
269.324	1.37
269.54	-29.35
269.756	42.32
269.972	21.85
270.188	17.75
270.403	-25.26
270.619	77.14
270.835	-25.26
271.051	42.32
271.267	73.04
271.483	-2.73
271.698	85.33
271.914	7.51
272.13	36.18
272.346	48.47
272.562	42.32
272.777	122.2
272.993	48.47
273.209	5.46
273.425	13.65
273.64	17.75
273.856	36.18
274.072	64.85
274.287	-55.98
274.503	7.51
274.719	58.71
274.934	21.85
275.15	-2.73
275.366	32.08
275.581	-4.78
275.797	50.52
276.012	-15.02
276.228	34.13
276.444	19.8
276.659	32.08
276.875	-39.59
277.09	23.89
277.306	-31.4
277.521	105.81
277.737	50.52
277.952	116.05
278.168	42.32
278.383	1.37
278.599	64.85
278.814	52.56
279.03	-17.07
279.245	52.56
279.461	87.38
279.676	64.85
279.892	23.89
280.107	-12.97
280.322	1.37
280.538	56.66
280.753	56.66
280.969	89.43
281.184	52.56
281.399	93.52
281.615	15.7
281.83	79.19
282.045	-12.97
282.26	60.76
282.476	9.56
282.691	146.77
282.906	15.7
283.122	97.62
283.337	23.89
283.552	27.99
283.767	58.71
283.983	107.86
284.198	-0.68
284.413	56.66
284.628	-84.65
284.843	161.11
285.058	83.28
285.274	71
285.489	27.99
285.704	23.89
285.919	40.28
286.134	44.37
286.349	19.8
286.564	25.94
286.779	114
286.995	54.61
287.21	85.33
287.425	32.08
287.64	75.09
287.855	85.33
288.07	-25.26
288.285	34.13
288.5	48.47
288.715	75.09
288.93	89.43
289.145	17.75
289.36	48.47
289.575	25.94
289.79	85.33
290.004	-0.68
290.219	130.39
290.434	23.89
290.649	48.47
290.864	-66.22
291.079	134.48
291.294	19.8
291.509	25.94
291.724	91.48
291.938	-6.83
292.153	46.42
292.368	73.04
292.583	56.66
292.798	73.04
293.012	-6.83
293.227	-39.59
293.442	42.32
293.657	3.41
293.871	48.47
294.086	40.28
294.301	68.95
294.516	87.38
294.73	-0.68
294.945	56.66
295.16	68.95
295.374	19.8
295.589	42.32
295.804	3.41
296.018	-8.87
296.233	89.43
296.447	-8.87
296.662	64.85
296.877	105.81
297.091	58.71
297.306	66.9
297.52	73.04
297.735	101.72
297.949	23.89
298.164	42.32
298.378	97.62
298.593	66.9
298.807	73.04
299.022	15.7
299.236	75.09
299.451	-0.68
299.665	13.65
299.88	64.85
300.094	25.94
300.309	64.85
300.523	81.24
300.737	3.41
300.952	-19.11
301.166	81.24
301.381	-2.73
301.595	-39.59
301.809	40.28
302.024	-15.02
302.238	40.28
302.452	64.85
302.667	50.52
302.881	73.04
303.095	105.81
303.309	138.58
303.524	89.43
303.738	15.7
303.952	36.18
304.166	64.85
304.381	52.56
304.595	148.82
304.809	56.66
305.023	48.47
305.237	15.7
305.452	13.65
305.666	62.8
305.88	44.37
306.094	-8.87
306.308	93.52
306.522	97.62
306.736	64.85
306.95	77.14
307.164	25.94
307.379	27.99
307.593	97.62
307.807	81.24
308.021	34.13
308.235	36.18
308.449	-0.68
308.663	85.33
308.877	109.91
309.091	46.42
309.305	50.52
309.519	15.7
309.733	105.81
309.947	-15.02
310.161	7.51
310.374	-17.07
310.588	89.43
310.802	7.51
311.016	64.85
311.23	-17.07
311.444	21.85
311.658	36.18
311.872	73.04
312.085	89.43
312.299	52.56
312.513	44.37
312.727	42.32
312.941	58.71
313.154	48.47
313.368	73.04
313.582	52.56
313.796	15.7
314.009	60.76
314.223	34.13
314.437	64.85
314.651	64.85
314.864	-0.68
315.078	11.61
315.292	73.04
315.505	-0.68
315.719	23.89
315.933	23.89
316.146	17.75
316.36	66.9
316.573	73.04
316.787	32.08
317.001	36.18
317.214	15.7
317.428	56.66
317.641	-49.83
317.855	11.61
318.068	27.99
318.282	103.76
318.495	19.8
318.709	34.13
318.922	95.57
319.136	75.09
319.349	50.52
319.563	9.56
319.776	83.28
319.99	99.67
320.203	19.8
320.417	40.28
320.63	56.66
320.843	138.58
321.057	25.94
321.27	75.09
321.483	36.18
321.697	50.52
321.91	-0.68
322.124	105.81
322.337	-4.78
322.55	27.99
322.763	7.51
322.977	19.8
323.19	15.7
323.403	93.52
323.617	85.33
323.83	50.52
324.043	1.37
324.256	23.89
324.469	73.04
324.683	79.19
324.896	40.28
325.109	73.04
325.322	9.56
325.535	64.85
325.748	42.32
325.962	89.43
326.175	23.89
326.388	17.75
326.601	122.2
326.814	19.8
327.027	89.43
327.24	75.09
327.453	87.38
327.666	64.85
327.879	114
328.092	50.52
328.305	81.24
328.518	77.14
328.731	9.56
328.944	52.56
329.157	23.89
329.37	73.04
329.583	73.04
329.796	56.66
330.009	58.71
330.222	81.24
330.435	83.28
330.648	40.28
330.861	-0.68
331.073	7.51
331.286	73.04
331.499	62.8
331.712	32.08
331.925	97.62
332.138	-8.87
332.35	81.24
332.563	64.85
332.776	89.43
332.989	52.56
333.202	62.8
333.414	-19.11
333.627	58.71
333.84	23.89
334.053	95.57
334.265	42.32
334.478	40.28
334.691	64.85
334.903	36.18
335.116	1.37
335.329	97.62
335.541	19.8
335.754	40.28
335.966	48.47
336.179	64.85
336.392	56.66
336.604	19.8
336.817	73.04
337.029	126.29
337.242	-8.87
337.454	7.51
337.667	64.85
337.88	15.7
338.092	-41.64
338.305	40.28
338.517	56.66
338.729	114
338.942	58.71
339.154	64.85
339.367	32.08
339.579	48.47
339.792	-41.64
340.004	85.33
340.217	23.89
340.429	30.04
340.641	64.85
340.854	32.08
341.066	34.13
341.278	97.62
341.491	111.96
341.703	-17.07
341.915	34.13
342.128	87.38
342.34	-41.64
342.552	-6.83
342.764	3.41
342.977	-21.16
343.189	77.14
343.401	30.04
343.613	32.08
343.826	32.08
344.038	81.24
344.25	75.09
344.462	-15.02
344.674	124.24
344.886	3.41
345.099	21.85
345.311	97.62
345.523	62.8
345.735	-19.11
345.947	48.47
346.159	17.75
346.371	105.81
346.583	46.42
346.795	122.2
347.007	50.52
347.219	83.28
347.431	5.46
347.643	73.04
347.855	109.91
348.067	40.28
348.279	-25.26
348.491	36.18
348.703	32.08
348.915	-12.97
349.127	54.61
349.339	58.71
349.551	87.38
349.763	124.24
349.975	36.18
350.187	32.08
350.399	34.13
350.61	40.28
350.822	46.42
351.034	73.04
351.246	40.28
351.458	81.24
351.669	44.37
351.881	99.67
352.093	50.52
352.305	-4.78
352.517	97.62
352.728	122.2
352.94	17.75
353.152	97.62
353.363	58.71
353.575	97.62
353.787	56.66
353.999	19.8
354.21	116.05
354.422	56.66
354.633	34.13
354.845	-12.97
355.057	48.47
355.268	89.43
355.48	56.66
355.692	73.04
355.903	71
356.115	91.48
356.326	7.51
356.538	107.86
356.749	107.86
356.961	101.72
357.172	7.51
357.384	-25.26
357.595	116.05
357.807	-23.21
358.018	17.75
358.23	32.08
358.441	68.95
358.653	60.76
358.864	34.13
359.075	101.72
359.287	23.89
359.498	124.24
359.709	11.61
359.921	64.85
360.132	97.62
360.344	81.24
360.555	40.28
360.766	52.56
360.977	21.85
361.189	19.8
361.4	13.65
361.611	87.38
361.823	107.86
362.034	48.47
362.245	32.08
362.456	99.67
362.667	50.52
362.879	40.28
363.09	44.37
363.301	87.38
363.512	83.28
363.723	91.48
363.935	81.24
364.146	73.04
364.357	1.37
364.568	118.1
364.779	56.66
364.99	36.18
365.201	17.75
365.412	64.85
365.623	30.04
365.834	15.7
366.045	40.28
366.256	9.56
366.467	56.66
366.678	73.04
366.889	68.95
367.1	9.56
367.311	32.08
367.522	3.41
367.733	25.94
367.944	114
368.155	40.28
368.366	36.18
368.577	15.7
368.788	1.37
368.999	13.65
369.209	81.24
369.42	111.96
369.631	58.71
369.842	46.42
370.053	32.08
370.264	62.8
370.474	-53.93
370.685	73.04
370.896	103.76
371.107	68.95
371.317	109.91
371.528	68.95
371.739	52.56
371.95	85.33
372.16	142.68
372.371	32.08
372.582	-21.16
372.792	48.47
373.003	40.28
373.214	32.08
373.424	23.89
373.635	56.66
373.846	32.08
374.056	44.37
374.267	83.28
374.477	93.52
374.688	99.67
374.898	15.7
375.109	48.47
375.319	89.43
375.53	66.9
375.74	1.37
375.951	42.32
376.161	48.47
376.372	120.15
376.582	48.47
376.793	130.39
377.003	89.43
377.214	62.8
377.424	44.37
377.635	-21.16
377.845	87.38
378.055	48.47
378.266	-0.68
378.476	44.37
378.686	32.08
378.897	11.61
379.107	64.85
379.317	-6.83
379.528	42.32
379.738	40.28
379.948	-21.16
380.158	91.48
380.369	87.38
380.579	89.43
380.789	73.04
380.999	154.96
381.21	99.67
381.42	187.73
381.63	68.95
381.84	25.94
382.05	95.57
382.261	91.48
382.471	1.37
382.681	7.51
382.891	99.67
383.101	136.53
383.311	-19.11
383.521	23.89
383.731	15.7
383.941	105.81
384.151	3.41
384.361	40.28
384.571	66.9
384.781	56.66
384.991	109.91
385.201	77.14
385.411	60.76
385.621	23.89
385.831	40.28
386.041	25.94
386.251	64.85
386.461	114
386.671	91.48
386.881	64.85
387.091	27.99
387.301	146.77
387.511	81.24
387.72	73.04
387.93	122.2
388.14	68.95
388.35	1.37
388.56	130.39
388.769	38.23
388.979	44.37
389.189	-0.68
389.399	85.33
389.609	56.66
389.818	114
390.028	21.85
390.238	58.71
390.447	142.68
390.657	58.71
390.867	73.04
391.076	58.71
391.286	120.15
391.496	77.14
391.705	21.85
391.915	181.59
392.125	85.33
392.334	73.04
392.544	124.24
392.753	40.28
392.963	75.09
393.172	52.56
393.382	7.51
393.591	122.2
393.801	36.18
394.01	23.89
394.22	89.43
394.429	34.13
394.639	38.23
394.848	9.56
395.058	89.43
395.267	97.62
395.477	146.77
395.686	50.52
395.895	64.85
396.105	140.63
396.314	77.14
396.524	48.47
396.733	62.8
396.942	114
397.152	83.28
397.361	99.67
397.57	152.91
397.78	134.48
397.989	89.43
398.198	109.91
398.407	91.48
398.617	97.62
398.826	68.95
399.035	118.1
399.244	64.85
399.453	44.37
399.663	75.09
399.872	165.2
400.081	114
400.29	116.05
400.499	66.9
400.708	128.34
400.917	23.89
401.127	62.8
401.336	138.58
401.545	128.34
401.754	105.81
401.963	126.29
402.172	130.39
402.381	36.18
402.59	89.43
402.799	183.63
403.008	114
403.217	101.72
403.426	210.26
403.635	89.43
403.844	99.67
404.053	171.35
404.262	150.87
404.471	171.35
404.68	99.67
404.888	138.58
405.097	105.81
405.306	122.2
405.515	187.73
405.724	124.24
405.933	214.35
406.142	109.91
406.35	193.87
406.559	189.78
406.768	224.59
406.977	253.27
407.185	200.02
407.394	220.5
407.603	179.54
407.812	191.83
408.02	265.55
408.229	261.46
408.438	197.97
408.646	277.84
408.855	286.03
409.064	312.66
409.272	335.18
409.481	228.69
409.69	271.7
409.898	269.65
410.107	298.32
410.315	304.46
410.524	222.55
410.733	300.37
410.941	279.89
411.15	329.04
411.358	370
411.567	449.87
411.775	390.48
411.984	382.29
412.192	363.86
412.401	392.53
412.609	486.73
412.818	443.73
413.026	496.97
413.234	482.64
413.443	490.83
413.651	443.73
413.86	519.5
414.068	648.52
414.276	564.56
414.485	486.73
414.693	605.52
414.901	697.67
415.11	714.06
415.318	626
415.526	687.43
415.734	677.19
415.943	777.55
416.151	730.44
416.359	798.03
416.567	843.08
416.776	826.7
416.984	1006.92
417.192	927.05
417.4	1000.77
417.608	832.84
417.817	861.51
418.025	1043.78
418.233	1066.31
418.441	933.19
418.649	1088.84
418.857	1207.62
419.065	1187.14
419.273	1211.71
419.481	1344.83
419.689	1273.15
419.897	1320.26
420.105	1367.36
420.313	1461.57
420.521	1551.68
420.729	1490.24
420.937	1549.63
421.145	1559.87
421.353	1623.36
421.561	1746.23
421.769	1776.95
421.977	1901.88
422.185	1916.22
422.393	1965.37
422.601	2043.19
422.809	2096.44
423.017	2135.35
423.224	2243.89
423.432	2202.93
423.64	2391.34
423.848	2489.65
424.056	2374.96
424.263	2495.79
424.471	2655.53
424.679	2690.35
424.887	2780.46
425.094	2817.32
425.302	2932.01
425.51	2907.43
425.718	3175.72
425.925	3140.9
426.133	3202.34
426.341	3280.16
426.548	3511.58
426.756	3591.45
426.964	3575.07
427.171	3872.03
427.379	3894.55
427.586	3906.84
427.794	4023.58
428.001	4259.09
428.209	4496.66
428.417	4496.66
428.624	4717.84
428.832	4570.38
429.039	4597.01
429.247	4527.38
429.454	5135.62
429.662	5387.52
429.869	5315.84
430.076	5516.55
430.284	5203.21
430.491	5670.14
430.699	5862.65
430.906	5870.84
431.114	5840.12
431.321	6096.12
431.528	6194.42
431.736	6702.32
431.943	6931.69
432.15	6761.71
432.358	7027.95
432.565	7306.47
432.772	7029.99
432.979	7572.71
433.187	7689.44
433.394	7863.52
433.601	8479.96
433.808	8297.69
434.016	8248.54
434.223	8633.55
434.43	9188.55
434.637	8969.42
434.844	9518.28
435.052	9624.77
435.259	9587.91
435.466	9731.26
435.673	9436.36
435.88	10095.8
436.087	10710.19
436.294	10640.56
436.501	10290.36
436.708	10667.19
436.915	10988.72
437.122	11451.56
437.329	11551.91
437.537	11777.19
437.743	12049.57
437.95	11828.38
438.157	12790.93
438.364	12827.79
438.571	12827.79
438.778	12911.76
438.985	14457.98
439.192	13745.28
439.399	14197.88
439.606	13851.78
439.813	14466.17
440.02	15383.66
440.227	15051.89
440.433	15058.03
440.64	15729.77
440.847	15451.24
441.054	15762.53
441.261	16798.8
441.467	16796.76
441.674	16931.92
441.881	17769.54
442.088	17450.06
442.294	17349.71
442.501	17808.45
442.708	18242.62
442.914	18711.61
443.121	19536.94
443.328	18949.17
443.534	20511.77
443.741	19837.99
443.948	19315.76
444.154	20839.45
444.361	20950.04
444.568	21191.7
444.774	21210.13
444.981	21228.56
445.187	21855.24
445.394	23069.69
445.6	22387.71
445.807	24515.55
446.013	23487.47
446.22	23854.06
446.426	24714.2
446.633	25084.89
446.839	26164.17
447.046	24820.7
447.252	26153.93
447.459	26590.14
447.665	26229.7
447.871	27462.58
448.078	28476.32
448.284	26885.05
448.491	27728.81
448.697	28980.12
448.903	29236.12
449.11	29551.51
449.316	29309.85
449.522	29756.3
449.728	30495.62
449.935	30753.66
450.141	30686.08
450.347	31138.68
450.553	30421.89
450.76	30911.36
450.966	31685.49
451.172	31826.8
451.378	32564.07
451.584	31886.19
451.791	32635.75
451.997	32486.25
452.203	33133.4
452.409	32908.13
452.615	32693.09
452.821	31538.04
453.027	31378.29
453.233	33012.57
453.44	31789.94
453.646	31947.63
453.852	32365.42
454.058	32809.82
454.264	31998.83
454.47	32598.88
454.676	31521.65
454.882	32901.98
455.088	30002.06
455.294	30331.78
455.5	31015.8
455.705	31077.24
455.911	30114.7
456.117	29467.54
456.323	29436.82
456.529	27528.11
456.735	28775.33
456.941	27896.75
457.147	27433.91
457.352	26387.39
457.558	26434.5
457.764	26459.07
457.97	26221.51
458.176	25469.9
458.381	25560.02
458.587	24239.08
458.793	24579.04
458.999	23340.02
459.204	24773.6
459.41	23872.49
459.616	22795.26
459.821	22723.58
460.027	22621.18
460.233	22072.32
460.438	21079.06
460.644	21222.42
460.85	20192.29
461.055	19762.22
461.261	19950.63
461.466	18304.06
461.672	17820.74
461.878	19098.67
462.083	17841.22
462.289	17425.48
462.494	17460.3
462.7	16575.58
462.905	15965.28
463.111	16620.63
463.316	16786.52
463.522	16284.76
463.727	16383.07
463.932	16288.86
464.138	16301.15
464.343	16151.65
464.549	15866.98
464.754	16358.49
464.959	15899.75
465.165	15996
465.37	15400.04
465.575	15217.77
465.781	15391.85
465.986	15803.49
466.191	14840.95
466.397	14748.79
466.602	13954.18
466.807	14517.37
467.012	14787.7
467.218	14396.54
467.423	14199.93
467.628	14435.45
467.833	15129.71
468.038	14503.03
468.244	13757.57
