Data from USB4F104151__17__14-42-39-008.txt Node

Date: Thu Mar 13 14:42:39 EDT 2025
User: louis
Spectrometer: USB4F10415
Trigger mode: 4
Integration Time (sec): 2.000000E-2
Scans to average: 1
Electric dark correction enabled: true
Nonlinearity correction enabled: false
Boxcar width: 0
XAxis mode: Wavelengths
Number of Pixels in Spectrum: 3648
>>>>>Begin Spectral Data<<<<<
178.204	-140.29
178.424	-140.29
178.644	-140.29
178.864	-166.91
179.084	-101.37
179.304	-25.6
179.524	-44.03
179.744	54.27
179.964	27.65
180.184	-11.26
180.404	29.7
180.624	-19.46
180.844	19.46
181.064	-37.89
181.283	-19.46
181.503	27.65
181.723	-1.02
181.943	-25.6
182.163	13.31
182.383	-27.65
182.602	29.7
182.822	62.46
183.042	68.61
183.262	52.22
183.482	19.46
183.701	97.28
183.921	27.65
184.141	15.36
184.361	15.36
184.58	17.41
184.8	52.22
185.02	11.26
185.239	44.03
185.459	82.94
185.679	150.53
185.898	-29.7
186.118	60.42
186.338	27.65
186.557	-21.5
186.777	-50.18
186.997	-3.07
187.216	-11.26
187.436	80.89
187.655	74.75
187.875	23.55
188.095	27.65
188.314	93.18
188.534	-1.02
188.753	46.08
188.973	44.03
189.192	76.8
189.412	27.65
189.631	87.04
189.851	37.89
190.07	37.89
190.29	27.65
190.509	44.03
190.729	-3.07
190.948	33.79
191.168	109.57
191.387	95.23
191.607	54.27
191.826	46.08
192.045	-5.12
192.265	-62.46
192.484	15.36
192.704	62.46
192.923	56.32
193.142	113.66
193.362	35.84
193.581	95.23
193.8	56.32
194.02	60.42
194.239	105.47
194.458	39.94
194.678	19.46
194.897	48.13
195.116	-68.61
195.335	128
195.555	-1.02
195.774	84.99
195.993	21.5
196.212	-37.89
196.432	21.5
196.651	44.03
196.87	13.31
197.089	62.46
197.308	150.53
197.528	109.57
197.747	11.26
197.966	-3.07
198.185	48.13
198.404	-7.17
198.623	29.7
198.842	31.74
199.062	93.18
199.281	76.8
199.5	31.74
199.719	23.55
199.938	76.8
200.157	33.79
200.376	60.42
200.595	27.65
200.814	19.46
201.033	44.03
201.252	-1.02
201.471	44.03
201.69	80.89
201.909	-17.41
202.128	64.51
202.347	68.61
202.566	23.55
202.785	-3.07
203.004	3.07
203.223	80.89
203.442	64.51
203.661	35.84
203.879	-3.07
204.098	-5.12
204.317	-13.31
204.536	25.6
204.755	31.74
204.974	84.99
205.193	27.65
205.411	101.37
205.63	31.74
205.849	44.03
206.068	-70.65
206.287	35.84
206.505	44.03
206.724	-3.07
206.943	-46.08
207.162	-13.31
207.381	-19.46
207.599	21.5
207.818	-56.32
208.037	-44.03
208.255	3.07
208.474	54.27
208.693	78.85
208.911	3.07
209.13	68.61
209.349	78.85
209.567	-13.31
209.786	-9.22
210.005	58.37
210.223	-21.5
210.442	-91.13
210.661	-5.12
210.879	11.26
211.098	21.5
211.316	44.03
211.535	64.51
211.753	35.84
211.972	60.42
212.191	-29.7
212.409	-15.36
212.628	33.79
212.846	35.84
213.065	58.37
213.283	62.46
213.502	46.08
213.72	80.89
213.938	21.5
214.157	68.61
214.375	9.22
214.594	-37.89
214.812	3.07
215.031	48.13
215.249	48.13
215.467	-37.89
215.686	-25.6
215.904	48.13
216.122	101.37
216.341	84.99
216.559	115.71
216.778	60.42
216.996	101.37
217.214	-46.08
217.432	76.8
217.651	5.12
217.869	-1.02
218.087	66.56
218.306	7.17
218.524	31.74
218.742	-17.41
218.96	46.08
219.179	-29.7
219.397	21.5
219.615	46.08
219.833	-17.41
220.051	9.22
220.27	5.12
220.488	76.8
220.706	62.46
220.924	-41.98
221.142	3.07
221.36	68.61
221.578	5.12
221.796	78.85
222.015	-21.5
222.233	70.65
222.451	125.95
222.669	-17.41
222.887	19.46
223.105	5.12
223.323	3.07
223.541	19.46
223.759	31.74
223.977	-5.12
224.195	103.42
224.413	60.42
224.631	72.7
224.849	101.37
225.067	101.37
225.285	31.74
225.503	46.08
225.721	-29.7
225.939	-27.65
226.157	-31.74
226.375	97.28
226.592	-62.46
226.81	-15.36
227.028	35.84
227.246	93.18
227.464	70.65
227.682	44.03
227.9	58.37
228.117	56.32
228.335	19.46
228.553	60.42
228.771	13.31
228.989	60.42
229.206	115.71
229.424	52.22
229.642	19.46
229.86	-1.02
230.077	91.13
230.295	52.22
230.513	54.27
230.731	37.89
230.948	52.22
231.166	35.84
231.384	-33.79
231.601	-29.7
231.819	101.37
232.037	84.99
232.254	76.8
232.472	19.46
232.689	15.36
232.907	-3.07
233.125	21.5
233.342	-5.12
233.56	68.61
233.777	64.51
233.995	13.31
234.213	52.22
234.43	35.84
234.648	117.76
234.865	25.6
235.083	52.22
235.3	52.22
235.518	19.46
235.735	60.42
235.953	48.13
236.17	52.22
236.388	68.61
236.605	15.36
236.822	-25.6
237.04	-7.17
237.257	54.27
237.475	46.08
237.692	-13.31
237.909	15.36
238.127	-3.07
238.344	101.37
238.562	39.94
238.779	35.84
238.996	25.6
239.214	-13.31
239.431	48.13
239.648	17.41
239.865	60.42
240.083	52.22
240.3	46.08
240.517	-9.22
240.735	-5.12
240.952	56.32
241.169	72.7
241.386	13.31
241.603	19.46
241.821	44.03
242.038	76.8
242.255	29.7
242.472	-62.46
242.689	101.37
242.907	68.61
243.124	-13.31
243.341	87.04
243.558	-5.12
243.775	-23.55
243.992	5.12
244.209	66.56
244.426	56.32
244.643	35.84
244.86	19.46
245.078	35.84
245.295	54.27
245.512	99.33
245.729	-21.5
245.946	48.13
246.163	41.98
246.38	113.66
246.597	89.09
246.814	31.74
247.031	31.74
247.248	3.07
247.464	-41.98
247.681	21.5
247.898	17.41
248.115	60.42
248.332	-17.41
248.549	54.27
248.766	82.94
248.983	56.32
249.2	13.31
249.417	121.85
249.633	15.36
249.85	109.57
250.067	13.31
250.284	44.03
250.501	70.65
250.717	23.55
250.934	-13.31
251.151	-13.31
251.368	-29.7
251.585	60.42
251.801	84.99
252.018	125.95
252.235	60.42
252.451	11.26
252.668	19.46
252.885	125.95
253.102	27.65
253.318	-5.12
253.535	52.22
253.752	31.74
253.968	48.13
254.185	91.13
254.401	29.7
254.618	52.22
254.835	62.46
255.051	48.13
255.268	54.27
255.484	48.13
255.701	37.89
255.917	97.28
256.134	-1.02
256.351	31.74
256.567	31.74
256.784	15.36
257	9.22
257.217	52.22
257.433	82.94
257.65	48.13
257.866	44.03
258.082	-7.17
258.299	48.13
258.515	-21.5
258.732	7.17
258.948	19.46
259.165	70.65
259.381	29.7
259.597	15.36
259.814	27.65
260.03	62.46
260.246	103.42
260.463	15.36
260.679	101.37
260.895	3.07
261.112	-13.31
261.328	25.6
261.544	35.84
261.761	27.65
261.977	-54.27
262.193	-33.79
262.409	13.31
262.626	66.56
262.842	60.42
263.058	64.51
263.274	54.27
263.49	-29.7
263.707	101.37
263.923	13.31
264.139	-76.8
264.355	31.74
264.571	87.04
264.787	84.99
265.004	19.46
265.22	-50.18
265.436	-33.79
265.652	13.31
265.868	76.8
266.084	15.36
266.3	46.08
266.516	-29.7
266.732	-3.07
266.948	35.84
267.164	31.74
267.38	128
267.596	-33.79
267.812	68.61
268.028	60.42
268.244	72.7
268.46	3.07
268.676	31.74
268.892	44.03
269.108	37.89
269.324	5.12
269.54	-25.6
269.756	76.8
269.972	62.46
270.188	29.7
270.403	-15.36
270.619	-5.12
270.835	35.84
271.051	64.51
271.267	23.55
271.483	15.36
271.698	52.22
271.914	52.22
272.13	37.89
272.346	-19.46
272.562	17.41
272.777	93.18
272.993	33.79
273.209	35.84
273.425	44.03
273.64	-27.65
273.856	99.33
274.072	29.7
274.287	56.32
274.503	91.13
274.719	64.51
274.934	48.13
275.15	11.26
275.366	-19.46
275.581	58.37
275.797	19.46
276.012	21.5
276.228	-25.6
276.444	54.27
276.659	56.32
276.875	27.65
277.09	5.12
277.306	64.51
277.521	27.65
277.737	-33.79
277.952	21.5
278.168	48.13
278.383	44.03
278.599	56.32
278.814	-3.07
279.03	-9.22
279.245	27.65
279.461	37.89
279.676	84.99
279.892	3.07
280.107	35.84
280.322	-5.12
280.538	-3.07
280.753	15.36
280.969	21.5
281.184	52.22
281.399	113.66
281.615	111.61
281.83	13.31
282.045	3.07
282.26	-46.08
282.476	-50.18
282.691	76.8
282.906	44.03
283.122	84.99
283.337	1.02
283.552	23.55
283.767	-13.31
283.983	134.14
284.198	-25.6
284.413	21.5
284.628	23.55
284.843	62.46
285.058	60.42
285.274	-3.07
285.489	19.46
285.704	13.31
285.919	11.26
286.134	-35.84
286.349	-3.07
286.564	35.84
286.779	-23.55
286.995	5.12
287.21	-9.22
287.425	54.27
287.64	-33.79
287.855	7.17
288.07	-21.5
288.285	93.18
288.5	76.8
288.715	109.57
288.93	76.8
289.145	60.42
289.36	99.33
289.575	52.22
289.79	72.7
290.004	29.7
290.219	95.23
290.434	-11.26
290.649	-9.22
290.864	54.27
291.079	27.65
291.294	13.31
291.509	15.36
291.724	44.03
291.938	-19.46
292.153	27.65
292.368	64.51
292.583	46.08
292.798	11.26
293.012	52.22
293.227	31.74
293.442	-11.26
293.657	82.94
293.871	-3.07
294.086	-15.36
294.301	19.46
294.516	13.31
294.73	44.03
294.945	-3.07
295.16	-35.84
295.374	35.84
295.589	62.46
295.804	31.74
296.018	17.41
296.233	113.66
296.447	103.42
296.662	27.65
296.877	44.03
297.091	64.51
297.306	52.22
297.52	23.55
297.735	68.61
297.949	21.5
298.164	-13.31
298.378	-5.12
298.593	64.51
298.807	-3.07
299.022	56.32
299.236	-25.6
299.451	78.85
299.665	-1.02
299.88	19.46
300.094	48.13
300.309	19.46
300.523	76.8
300.737	27.65
300.952	-19.46
301.166	103.42
301.381	11.26
301.595	52.22
301.809	56.32
302.024	-31.74
302.238	21.5
302.452	39.94
302.667	23.55
302.881	21.5
303.095	74.75
303.309	97.28
303.524	25.6
303.738	21.5
303.952	-21.5
304.166	105.47
304.381	-3.07
304.595	84.99
304.809	-17.41
305.023	68.61
305.237	68.61
305.452	-5.12
305.666	-9.22
305.88	111.61
306.094	95.23
306.308	35.84
306.522	-37.89
306.736	17.41
306.95	52.22
307.164	-1.02
307.379	60.42
307.593	154.62
307.807	52.22
308.021	109.57
308.235	64.51
308.449	-25.6
308.663	39.94
308.877	158.72
309.091	-17.41
309.305	48.13
309.519	-54.27
309.733	76.8
309.947	-21.5
310.161	46.08
310.374	54.27
310.588	60.42
310.802	29.7
311.016	44.03
311.23	91.13
311.444	76.8
311.658	7.17
311.872	56.32
312.085	15.36
312.299	142.33
312.513	17.41
312.727	39.94
312.941	15.36
313.154	54.27
313.368	11.26
313.582	21.5
313.796	27.65
314.009	95.23
314.223	91.13
314.437	84.99
314.651	70.65
314.864	95.23
315.078	-11.26
315.292	37.89
315.505	74.75
315.719	62.46
315.933	39.94
316.146	13.31
316.36	60.42
316.573	78.85
316.787	70.65
317.001	56.32
317.214	-25.6
317.428	76.8
317.641	5.12
317.855	19.46
318.068	1.02
318.282	7.17
318.495	93.18
318.709	130.05
318.922	-54.27
319.136	115.71
319.349	60.42
319.563	80.89
319.776	-5.12
319.99	-27.65
320.203	46.08
320.417	37.89
320.63	35.84
320.843	56.32
321.057	3.07
321.27	130.05
321.483	37.89
321.697	17.41
321.91	74.75
322.124	60.42
322.337	80.89
322.55	-3.07
322.763	23.55
322.977	25.6
323.19	-7.17
323.403	-13.31
323.617	11.26
323.83	-29.7
324.043	-29.7
324.256	54.27
324.469	-3.07
324.683	84.99
324.896	84.99
325.109	70.65
325.322	19.46
325.535	70.65
325.748	80.89
325.962	19.46
326.175	27.65
326.388	117.76
326.601	66.56
326.814	27.65
327.027	25.6
327.24	91.13
327.453	-7.17
327.666	87.04
327.879	27.65
328.092	44.03
328.305	41.98
328.518	-46.08
328.731	29.7
328.944	68.61
329.157	9.22
329.37	80.89
329.583	48.13
329.796	74.75
330.009	-17.41
330.222	44.03
330.435	70.65
330.648	44.03
330.861	60.42
331.073	27.65
331.286	99.33
331.499	-13.31
331.712	-27.65
331.925	-39.94
332.138	60.42
332.35	60.42
332.563	15.36
332.776	109.57
332.989	134.14
333.202	60.42
333.414	13.31
333.627	70.65
333.84	84.99
334.053	60.42
334.265	44.03
334.478	76.8
334.691	11.26
334.903	93.18
335.116	9.22
335.329	46.08
335.541	72.7
335.754	97.28
335.966	84.99
336.179	142.33
336.392	48.13
336.604	3.07
336.817	27.65
337.029	80.89
337.242	35.84
337.454	99.33
337.667	35.84
337.88	35.84
338.092	19.46
338.305	80.89
338.517	39.94
338.729	64.51
338.942	48.13
339.154	19.46
339.367	27.65
339.579	109.57
339.792	44.03
340.004	35.84
340.217	136.19
340.429	-46.08
340.641	76.8
340.854	68.61
341.066	5.12
341.278	52.22
341.491	62.46
341.703	35.84
341.915	-54.27
342.128	72.7
342.34	89.09
342.552	37.89
342.764	46.08
342.977	27.65
343.189	46.08
343.401	89.09
343.613	-3.07
343.826	84.99
344.038	33.79
344.25	89.09
344.462	23.55
344.674	60.42
344.886	44.03
345.099	13.31
345.311	95.23
345.523	-3.07
345.735	35.84
345.947	103.42
346.159	66.56
346.371	52.22
346.583	35.84
346.795	80.89
347.007	80.89
347.219	82.94
347.431	46.08
347.643	37.89
347.855	48.13
348.067	64.51
348.279	70.65
348.491	60.42
348.703	-7.17
348.915	37.89
349.127	62.46
349.339	60.42
349.551	44.03
349.763	5.12
349.975	54.27
350.187	125.95
350.399	3.07
350.61	136.19
350.822	64.51
351.034	9.22
351.246	11.26
351.458	35.84
351.669	35.84
351.881	84.99
352.093	-21.5
352.305	138.24
352.517	35.84
352.728	76.8
352.94	27.65
353.152	101.37
353.363	-52.22
353.575	35.84
353.787	33.79
353.999	80.89
354.21	121.85
354.422	60.42
354.633	13.31
354.845	11.26
355.057	39.94
355.268	62.46
355.48	25.6
355.692	3.07
355.903	29.7
356.115	5.12
356.326	-1.02
356.538	134.14
356.749	48.13
356.961	44.03
357.172	15.36
357.384	82.94
357.595	111.61
357.807	76.8
358.018	31.74
358.23	-3.07
358.441	78.85
358.653	68.61
358.864	80.89
359.075	78.85
359.287	-5.12
359.498	27.65
359.709	66.56
359.921	93.18
360.132	35.84
360.344	62.46
360.555	50.18
360.766	-37.89
360.977	50.18
361.189	17.41
361.4	46.08
361.611	5.12
361.823	144.38
362.034	5.12
362.245	-25.6
362.456	89.09
362.667	54.27
362.879	82.94
363.09	44.03
363.301	-1.02
363.512	-46.08
363.723	37.89
363.935	-37.89
364.146	52.22
364.357	44.03
364.568	19.46
364.779	52.22
364.99	97.28
365.201	31.74
365.412	31.74
365.623	13.31
365.834	99.33
366.045	64.51
366.256	87.04
366.467	121.85
366.678	68.61
366.889	39.94
367.1	-21.5
367.311	31.74
367.522	9.22
367.733	121.85
367.944	5.12
368.155	121.85
368.366	62.46
368.577	44.03
368.788	84.99
368.999	27.65
369.209	56.32
369.42	70.65
369.631	15.36
369.842	72.7
370.053	54.27
370.264	35.84
370.474	3.07
370.685	144.38
370.896	39.94
371.107	-7.17
371.317	58.37
371.528	29.7
371.739	68.61
371.95	33.79
372.16	7.17
372.371	7.17
372.582	87.04
372.792	52.22
373.003	93.18
373.214	44.03
373.424	103.42
373.635	11.26
373.846	168.96
374.056	76.8
374.267	60.42
374.477	27.65
374.688	78.85
374.898	27.65
375.109	93.18
375.319	7.17
375.53	70.65
375.74	-5.12
375.951	23.55
376.161	80.89
376.372	60.42
376.582	-21.5
376.793	84.99
377.003	3.07
377.214	44.03
377.424	68.61
377.635	39.94
377.845	-21.5
378.055	121.85
378.266	-25.6
378.476	68.61
378.686	-29.7
378.897	93.18
379.107	72.7
379.317	52.22
379.528	70.65
379.738	35.84
379.948	60.42
380.158	99.33
380.369	35.84
380.579	97.28
380.789	7.17
380.999	99.33
381.21	60.42
381.42	68.61
381.63	50.18
381.84	109.57
382.05	74.75
382.261	93.18
382.471	80.89
382.681	15.36
382.891	54.27
383.101	3.07
383.311	-7.17
383.521	128
383.731	46.08
383.941	132.09
384.151	76.8
384.361	103.42
384.571	68.61
384.781	31.74
384.991	121.85
385.201	109.57
385.411	52.22
385.621	107.52
385.831	97.28
386.041	7.17
386.251	44.03
386.461	84.99
386.671	50.18
386.881	25.6
387.091	11.26
387.301	39.94
387.511	48.13
387.72	29.7
387.93	68.61
388.14	23.55
388.35	91.13
388.56	119.81
388.769	54.27
388.979	68.61
389.189	-56.32
389.399	56.32
389.609	35.84
389.818	93.18
390.028	-13.31
390.238	142.33
390.447	41.98
390.657	39.94
390.867	64.51
391.076	3.07
391.286	103.42
391.496	89.09
391.705	56.32
391.915	109.57
392.125	15.36
392.334	29.7
392.544	64.51
392.753	66.56
392.963	95.23
393.172	60.42
393.382	46.08
393.591	68.61
393.801	17.41
394.01	60.42
394.22	109.57
394.429	84.99
394.639	97.28
394.848	82.94
395.058	93.18
395.267	84.99
395.477	84.99
395.686	91.13
395.895	121.85
396.105	60.42
396.314	97.28
396.524	125.95
396.733	60.42
396.942	97.28
397.152	113.66
397.361	128
397.57	136.19
397.78	74.75
397.989	52.22
398.198	89.09
398.407	39.94
398.617	125.95
398.826	84.99
399.035	54.27
399.244	113.66
399.453	125.95
399.663	78.85
399.872	109.57
400.081	35.84
400.29	103.42
400.499	109.57
400.708	117.76
400.917	134.14
401.127	68.61
401.336	109.57
401.545	142.33
401.754	117.76
401.963	150.53
402.172	105.47
402.381	64.51
402.59	64.51
402.799	142.33
403.008	142.33
403.217	150.53
403.426	181.25
403.635	48.13
403.844	101.37
404.053	93.18
404.262	117.76
404.471	142.33
404.68	93.18
404.888	130.05
405.097	99.33
405.306	160.77
405.515	99.33
405.724	183.29
405.933	80.89
406.142	162.81
406.35	146.43
406.559	101.37
406.768	179.2
406.977	265.21
407.185	224.25
407.394	177.15
407.603	136.19
407.812	218.11
408.02	183.29
408.229	68.61
408.438	154.62
408.646	191.49
408.855	121.85
409.064	199.68
409.272	181.25
409.481	252.92
409.69	216.06
409.898	207.87
410.107	259.07
410.315	228.35
410.524	269.31
410.733	230.4
410.941	322.56
411.15	283.64
411.358	412.67
411.567	379.9
411.775	314.36
411.984	390.14
412.192	349.18
412.401	285.69
412.609	373.75
412.818	338.94
413.026	330.75
413.234	402.43
413.443	271.36
413.651	377.85
413.86	465.91
414.068	486.39
414.276	472.06
414.485	504.82
414.693	506.87
414.901	543.74
415.11	576.5
415.318	527.35
415.526	527.35
415.734	658.42
415.943	584.7
416.151	650.23
416.359	594.93
416.567	666.61
416.776	646.13
416.984	723.96
417.192	824.31
417.4	709.62
417.608	805.88
417.817	789.49
418.025	904.18
418.233	852.98
418.441	945.14
418.649	941.04
418.857	982
419.065	1018.86
419.273	1053.68
419.481	1010.67
419.689	1070.06
419.897	1121.26
420.105	1215.47
420.313	1240.05
420.521	1223.66
420.729	1264.62
420.937	1362.92
421.145	1289.2
421.353	1414.12
421.561	1487.85
421.769	1463.27
421.977	1577.96
422.185	1522.66
422.393	1709.03
422.601	1774.56
422.809	1856.48
423.017	1817.57
423.224	1817.57
423.432	1940.45
423.64	1934.31
423.848	2161.63
424.056	2061.28
424.263	2175.97
424.471	2227.17
424.679	2229.21
424.887	2444.25
425.094	2436.06
425.302	2419.68
425.51	2569.18
425.718	2692.05
425.925	2665.43
426.133	2788.31
426.341	3009.49
426.548	2958.29
426.756	2980.82
426.964	3177.42
427.171	3189.71
427.379	3242.96
427.586	3460.04
427.794	3599.31
428.001	3642.31
428.209	3838.92
428.417	3685.32
428.624	3994.56
428.832	3886.02
429.039	3963.84
429.247	3976.13
429.454	4377.53
429.662	4500.41
429.869	4262.85
430.076	4574.14
430.284	4402.11
430.491	4705.21
430.699	4950.96
430.906	4936.63
431.114	5002.16
431.321	5188.53
431.528	5360.56
431.736	5655.47
431.943	5860.26
432.15	5653.42
432.358	5690.28
432.565	6005.67
432.772	5927.85
432.979	6181.79
433.187	6534.04
433.394	6570.91
433.601	6982.55
433.808	7084.95
434.016	6826.9
434.223	7170.96
434.43	7809.93
434.637	7539.6
434.844	8090.5
435.052	8172.42
435.259	8092.55
435.466	8268.67
435.673	8055.69
435.88	8661.88
436.087	9194.36
436.294	8840.06
436.501	8823.67
436.708	9042.81
436.915	9366.39
437.122	9632.62
437.329	9671.53
437.537	10324.83
437.743	10296.16
437.95	10120.04
438.157	10873.69
438.364	10902.36
438.571	11203.41
438.778	11209.56
438.985	12135.24
439.192	11709.26
439.399	12274.5
439.606	11709.26
439.813	12290.88
440.02	13151.03
440.227	13011.77
440.433	12806.97
440.64	13259.57
440.847	13331.25
441.054	13376.31
441.261	14410.53
441.467	13951.79
441.674	14285.61
441.881	14986.01
442.088	15065.88
442.294	14977.82
442.501	15317.78
442.708	15639.31
442.914	16059.15
443.121	16829.18
443.328	16184.07
443.534	17539.83
443.741	17206.01
443.948	16812.8
444.154	18086.64
444.361	18111.21
444.568	18307.82
444.774	18186.99
444.981	18303.72
445.187	19098.33
445.394	19684.05
445.6	19507.93
445.807	21162.69
446.013	20499.14
446.22	21058.24
446.426	21623.48
446.633	21822.13
446.839	22780.58
447.046	21840.56
447.252	22911.65
447.459	23169.69
447.665	22872.74
447.871	23765.65
448.078	24677
448.284	24003.22
448.491	24380.04
448.697	25242.24
448.903	25766.52
449.11	25959.03
449.316	25567.87
449.522	25942.64
449.728	26634.86
449.935	27032.16
450.141	26802.79
450.347	27753.05
450.553	26597.99
450.76	27382.37
450.966	27953.75
451.172	28015.19
451.378	28480.08
451.584	27875.93
451.791	28779.08
451.997	28549.71
452.203	29135.43
452.409	29164.1
452.615	29061.7
452.821	27564.64
453.027	27730.52
453.233	29104.71
453.44	27804.25
453.646	28777.03
453.852	28344.91
454.058	28975.69
454.264	27787.86
454.47	28697.16
454.676	27765.34
454.882	28985.93
455.088	26432.11
455.294	26911.33
455.5	27343.45
455.705	27437.66
455.911	26206.83
456.117	25596.54
456.323	25467.52
456.529	24095.38
456.735	25549.43
456.941	24490.63
457.147	24388.24
457.352	23888.53
457.558	23368.35
457.764	23571.1
457.97	23263.9
458.176	22631.08
458.381	22645.41
458.587	21228.22
458.793	21535.42
458.999	20558.53
459.204	21803.7
459.41	21129.92
459.616	20028.11
459.821	19765.97
460.027	19600.08
460.233	19469.01
460.438	18545.38
460.644	18627.3
460.85	17640.18
461.055	17779.44
461.261	17726.19
461.466	16216.84
461.672	15823.63
461.878	17089.28
462.083	15889.17
462.289	15436.56
462.494	15495.96
462.7	14916.38
462.905	14424.87
463.111	14756.64
463.316	15069.98
463.522	14420.77
463.727	14783.26
463.932	14670.62
464.138	14377.76
464.343	14461.73
464.549	14060.33
464.754	14437.16
464.959	14199.59
465.165	14195.5
465.37	13708.08
465.575	13425.46
465.781	13902.64
465.986	14209.83
466.191	13306.68
466.397	13318.96
466.602	12675.9
466.807	13048.63
467.012	13208.37
467.218	12974.91
467.423	12757.82
467.628	13126.46
