Data from USB4F104151__25__14-42-45-327.txt Node

Date: Thu Mar 13 14:42:45 EDT 2025
User: louis
Spectrometer: USB4F10415
Trigger mode: 4
Integration Time (sec): 2.000000E-2
Scans to average: 1
Electric dark correction enabled: true
Nonlinearity correction enabled: false
Boxcar width: 0
XAxis mode: Wavelengths
Number of Pixels in Spectrum: 3648
>>>>>Begin Spectral Data<<<<<
178.204	-114.17
178.424	-114.17
178.644	-114.17
178.864	-83.45
179.084	-192
179.304	-38.4
179.524	12.8
179.744	59.9
179.964	-22.02
180.184	53.76
180.404	14.85
180.624	6.66
180.844	55.81
181.064	-17.92
181.283	-42.5
181.503	-83.45
181.723	0.51
181.943	-1.54
182.163	137.73
182.383	-24.06
182.602	-5.63
182.822	8.7
183.042	-22.02
183.262	66.05
183.482	-50.69
183.701	47.62
183.921	57.86
184.141	-71.17
184.361	27.14
184.58	14.85
184.8	-22.02
185.02	-15.87
185.239	49.66
185.459	-9.73
185.679	-1.54
185.898	37.38
186.118	47.62
186.338	49.66
186.557	47.62
186.777	23.04
186.997	-22.02
187.216	47.62
187.436	74.24
187.655	-15.87
187.875	14.85
188.095	-5.63
188.314	10.75
188.534	25.09
188.753	-1.54
188.973	39.42
189.192	47.62
189.412	49.66
189.631	31.23
189.851	-67.07
190.07	49.66
190.29	-17.92
190.509	6.66
190.729	18.94
190.948	51.71
191.168	145.92
191.387	23.04
191.607	31.23
191.826	61.95
192.045	-5.63
192.265	-24.06
192.484	8.7
192.704	8.7
192.923	6.66
193.142	166.4
193.362	78.33
193.581	102.91
193.8	92.67
194.02	31.23
194.239	14.85
194.458	-22.02
194.678	-69.12
194.897	18.94
195.116	76.29
195.335	14.85
195.555	80.38
195.774	57.86
195.993	35.33
196.212	-24.06
196.432	2.56
196.651	41.47
196.87	14.85
197.089	80.38
197.308	16.9
197.528	74.24
197.747	6.66
197.966	-54.78
198.185	113.15
198.404	-5.63
198.623	57.86
198.842	47.62
199.062	14.85
199.281	45.57
199.5	20.99
199.719	43.52
199.938	64
200.157	25.09
200.376	133.63
200.595	-19.97
200.814	12.8
201.033	-81.41
201.252	76.29
201.471	8.7
201.69	64
201.909	74.24
202.128	33.28
202.347	39.42
202.566	-26.11
202.785	121.34
203.004	-19.97
203.223	47.62
203.442	80.38
203.661	39.42
203.879	31.23
204.098	113.15
204.317	-9.73
204.536	39.42
204.755	2.56
204.974	-42.5
205.193	-22.02
205.411	64
205.63	53.76
205.849	18.94
206.068	-3.58
206.287	23.04
206.505	-24.06
206.724	35.33
206.943	-5.63
207.162	8.7
207.381	53.76
207.599	84.48
207.818	-11.78
208.037	55.81
208.255	20.99
208.474	-40.45
208.693	-9.73
208.911	6.66
209.13	10.75
209.349	35.33
209.567	49.66
209.786	-3.58
210.005	16.9
210.223	39.42
210.442	-75.26
210.661	8.7
210.879	31.23
211.098	-7.68
211.316	80.38
211.535	-9.73
211.753	23.04
211.972	53.76
212.191	14.85
212.409	-9.73
212.628	64
212.846	-9.73
213.065	16.9
213.283	113.15
213.502	47.62
213.72	45.57
213.938	6.66
214.157	72.19
214.375	47.62
214.594	-1.54
214.812	31.23
215.031	80.38
215.249	72.19
215.467	80.38
215.686	-34.3
215.904	33.28
216.122	-26.11
216.341	115.2
216.559	-15.87
216.778	23.04
216.996	39.42
217.214	27.14
217.432	0.51
217.651	-42.5
217.869	-34.3
218.087	0.51
218.306	-7.68
218.524	66.05
218.742	10.75
218.96	45.57
219.179	113.15
219.397	14.85
219.615	39.42
219.833	16.9
220.051	27.14
220.27	29.18
220.488	-7.68
220.706	49.66
220.924	-19.97
221.142	-5.63
221.36	49.66
221.578	-26.11
221.796	29.18
222.015	14.85
222.233	14.85
222.451	16.9
222.669	113.15
222.887	25.09
223.105	49.66
223.323	-7.68
223.541	23.04
223.759	39.42
223.977	-34.3
224.195	80.38
224.413	41.47
224.631	57.86
224.849	31.23
225.067	80.38
225.285	-50.69
225.503	31.23
225.721	-116.22
225.939	-36.35
226.157	43.52
226.375	6.66
226.592	55.81
226.81	55.81
227.028	57.86
227.246	53.76
227.464	49.66
227.682	107.01
227.9	64
228.117	57.86
228.335	31.23
228.553	18.94
228.771	-7.68
228.989	0.51
229.206	29.18
229.424	-40.45
229.642	47.62
229.86	6.66
230.077	88.57
230.295	88.57
230.513	104.96
230.731	6.66
230.948	16.9
231.166	66.05
231.384	49.66
231.601	-40.45
231.819	41.47
232.037	-15.87
232.254	-97.79
232.472	23.04
232.689	-11.78
232.907	-11.78
233.125	23.04
233.342	-13.82
233.56	-58.88
233.777	47.62
233.995	-7.68
234.213	23.04
234.43	96.77
234.648	4.61
234.865	70.14
235.083	-44.54
235.3	94.72
235.518	-1.54
235.735	35.33
235.953	125.44
236.17	27.14
236.388	37.38
236.605	39.42
236.822	-7.68
237.04	53.76
237.257	20.99
237.475	64
237.692	25.09
237.909	23.04
238.127	-17.92
238.344	-50.69
238.562	27.14
238.779	-52.74
238.996	31.23
239.214	-5.63
239.431	133.63
239.648	-38.4
239.865	59.9
240.083	78.33
240.3	90.62
240.517	39.42
240.735	72.19
240.952	39.42
241.169	6.66
241.386	55.81
241.603	39.42
241.821	-26.11
242.038	45.57
242.255	14.85
242.472	6.66
242.689	47.62
242.907	80.38
243.124	-7.68
243.341	66.05
243.558	0.51
243.775	47.62
243.992	27.14
244.209	45.57
244.426	102.91
244.643	18.94
244.86	39.42
245.078	37.38
245.295	41.47
245.512	23.04
245.729	39.42
245.946	10.75
246.163	25.09
246.38	10.75
246.597	43.52
246.814	139.77
247.031	33.28
247.248	96.77
247.464	-24.06
247.681	33.28
247.898	49.66
248.115	6.66
248.332	-24.06
248.549	0.51
248.766	70.14
248.983	37.38
249.2	57.86
249.417	51.71
249.633	-34.3
249.85	84.48
250.067	-69.12
250.284	14.85
250.501	35.33
250.717	41.47
250.934	-15.87
251.151	-15.87
251.368	-5.63
251.585	-7.68
251.801	33.28
252.018	0.51
252.235	96.77
252.451	-1.54
252.668	-42.5
252.885	55.81
253.102	-48.64
253.318	43.52
253.535	-7.68
253.752	107.01
253.968	61.95
254.185	-11.78
254.401	20.99
254.618	109.05
254.835	14.85
255.051	55.81
255.268	43.52
255.484	-1.54
255.701	-5.63
255.917	139.77
256.134	64
256.351	55.81
256.567	23.04
256.784	2.56
257	-58.88
257.217	51.71
257.433	27.14
257.65	-13.82
257.866	49.66
258.082	10.75
258.299	6.66
258.515	49.66
258.732	0.51
258.948	66.05
259.165	104.96
259.381	31.23
259.597	66.05
259.814	-15.87
260.03	23.04
260.246	31.23
260.463	80.38
260.679	-32.26
260.895	20.99
261.112	16.9
261.328	49.66
261.544	68.09
261.761	117.25
261.977	-26.11
262.193	-7.68
262.409	-13.82
262.626	82.43
262.842	31.23
263.058	-32.26
263.274	33.28
263.49	6.66
263.707	125.44
263.923	25.09
264.139	45.57
264.355	41.47
264.571	43.52
264.787	-7.68
265.004	178.69
265.22	10.75
265.436	-60.93
265.652	23.04
265.868	18.94
266.084	-30.21
266.3	76.29
266.516	-9.73
266.732	23.04
266.948	-17.92
267.164	43.52
267.38	27.14
267.596	72.19
267.812	125.44
268.028	23.04
268.244	-95.74
268.46	-5.63
268.676	-15.87
268.892	-13.82
269.108	31.23
269.324	37.38
269.54	-17.92
269.756	88.57
269.972	-9.73
270.188	0.51
270.403	18.94
270.619	-11.78
270.835	-9.73
271.051	76.29
271.267	8.7
271.483	113.15
271.698	-9.73
271.914	96.77
272.13	49.66
272.346	47.62
272.562	16.9
272.777	64
272.993	43.52
273.209	-40.45
273.425	64
273.64	8.7
273.856	39.42
274.072	33.28
274.287	-7.68
274.503	31.23
274.719	14.85
274.934	41.47
275.15	-108.03
275.366	90.62
275.581	51.71
275.797	82.43
276.012	27.14
276.228	18.94
276.444	-13.82
276.659	18.94
276.875	8.7
277.09	88.57
277.306	6.66
277.521	98.81
277.737	55.81
277.952	109.05
278.168	6.66
278.383	39.42
278.599	100.86
278.814	23.04
279.03	16.9
279.245	-22.02
279.461	20.99
279.676	2.56
279.892	10.75
280.107	80.38
280.322	-26.11
280.538	-5.63
280.753	23.04
280.969	55.81
281.184	8.7
281.399	-24.06
281.615	55.81
281.83	55.81
282.045	14.85
282.26	35.33
282.476	-17.92
282.691	104.96
282.906	55.81
283.122	14.85
283.337	80.38
283.552	-1.54
283.767	-13.82
283.983	109.05
284.198	64
284.413	96.77
284.628	31.23
284.843	-7.68
285.058	90.62
285.274	66.05
285.489	-40.45
285.704	31.23
285.919	-44.54
286.134	-73.21
286.349	55.81
286.564	80.38
286.779	47.62
286.995	16.9
287.21	-38.4
287.425	47.62
287.64	55.81
287.855	18.94
288.07	-54.78
288.285	10.75
288.5	25.09
288.715	14.85
288.93	29.18
289.145	23.04
289.36	0.51
289.575	-34.3
289.79	47.62
290.004	33.28
290.219	2.56
290.434	-22.02
290.649	27.14
290.864	98.81
291.079	12.8
291.294	53.76
291.509	35.33
291.724	82.43
291.938	70.14
292.153	39.42
292.368	-24.06
292.583	39.42
292.798	16.9
293.012	59.9
293.227	12.8
293.442	23.04
293.657	27.14
293.871	53.76
294.086	98.81
294.301	88.57
294.516	55.81
294.73	68.09
294.945	2.56
295.16	10.75
295.374	49.66
295.589	43.52
295.804	18.94
296.018	84.48
296.233	72.19
296.447	57.86
296.662	49.66
296.877	33.28
297.091	59.9
297.306	39.42
297.52	-15.87
297.735	39.42
297.949	115.2
298.164	39.42
298.378	64
298.593	29.18
298.807	90.62
299.022	16.9
299.236	-7.68
299.451	10.75
299.665	-62.98
299.88	27.14
300.094	10.75
300.309	66.05
300.523	29.18
300.737	119.29
300.952	64
301.166	39.42
301.381	-30.21
301.595	14.85
301.809	-17.92
302.024	47.62
302.238	33.28
302.452	23.04
302.667	4.61
302.881	27.14
303.095	61.95
303.309	-1.54
303.524	-38.4
303.738	57.86
303.952	-34.3
304.166	33.28
304.381	-54.78
304.595	72.19
304.809	-1.54
305.023	43.52
305.237	-11.78
305.452	-30.21
305.666	14.85
305.88	82.43
306.094	49.66
306.308	35.33
306.522	51.71
306.736	143.87
306.95	10.75
307.164	80.38
307.379	31.23
307.593	96.77
307.807	41.47
308.021	45.57
308.235	55.81
308.449	12.8
308.663	70.14
308.877	70.14
309.091	0.51
309.305	104.96
309.519	-34.3
309.733	113.15
309.947	23.04
310.161	-1.54
310.374	35.33
310.588	29.18
310.802	-7.68
311.016	25.09
311.23	-17.92
311.444	0.51
311.658	23.04
311.872	94.72
312.085	64
312.299	35.33
312.513	104.96
312.727	-69.12
312.941	2.56
313.154	14.85
313.368	41.47
313.582	123.39
313.796	-17.92
314.009	90.62
314.223	39.42
314.437	31.23
314.651	6.66
314.864	0.51
315.078	109.05
315.292	0.51
315.505	-1.54
315.719	-19.97
315.933	117.25
316.146	35.33
316.36	23.04
316.573	57.86
316.787	55.81
317.001	-15.87
317.214	6.66
317.428	-42.5
317.641	-22.02
317.855	55.81
318.068	-9.73
318.282	55.81
318.495	57.86
318.709	47.62
318.922	16.9
319.136	186.88
319.349	49.66
319.563	64
319.776	43.52
319.99	-34.3
320.203	64
320.417	14.85
320.63	31.23
320.843	76.29
321.057	64
321.27	49.66
321.483	-28.16
321.697	-17.92
321.91	125.44
322.124	23.04
322.337	0.51
322.55	-1.54
322.763	88.57
322.977	35.33
323.19	88.57
323.403	-7.68
323.617	55.81
323.83	84.48
324.043	31.23
324.256	64
324.469	-24.06
324.683	39.42
324.896	-26.11
325.109	14.85
325.322	-32.26
325.535	64
325.748	72.19
325.962	-50.69
326.175	35.33
326.388	53.76
326.601	20.99
326.814	-22.02
327.027	64
327.24	88.57
327.453	31.23
327.666	59.9
327.879	94.72
328.092	31.23
328.305	121.34
328.518	-75.26
328.731	18.94
328.944	-9.73
329.157	10.75
329.37	49.66
329.583	115.2
329.796	51.71
330.009	39.42
330.222	35.33
330.435	66.05
330.648	0.51
330.861	-9.73
331.073	0.51
331.286	102.91
331.499	-26.11
331.712	2.56
331.925	12.8
332.138	80.38
332.35	59.9
332.563	23.04
332.776	23.04
332.989	4.61
333.202	-15.87
333.414	-17.92
333.627	27.14
333.84	84.48
334.053	-9.73
334.265	-15.87
334.478	6.66
334.691	-1.54
334.903	8.7
335.116	-36.35
335.329	80.38
335.541	57.86
335.754	6.66
335.966	47.62
336.179	6.66
336.392	-22.02
336.604	27.14
336.817	94.72
337.029	-13.82
337.242	43.52
337.454	76.29
337.667	57.86
337.88	96.77
338.092	31.23
338.305	37.38
338.517	35.33
338.729	49.66
338.942	-15.87
339.154	33.28
339.367	76.29
339.579	68.09
339.792	16.9
340.004	55.81
340.217	66.05
340.429	55.81
340.641	47.62
340.854	43.52
341.066	31.23
341.278	80.38
341.491	55.81
341.703	14.85
341.915	-5.63
342.128	121.34
342.34	41.47
342.552	-11.78
342.764	33.28
342.977	-1.54
343.189	14.85
343.401	27.14
343.613	-58.88
343.826	23.04
344.038	6.66
344.25	92.67
344.462	-17.92
344.674	20.99
344.886	-42.5
345.099	25.09
345.311	88.57
345.523	-1.54
345.735	84.48
345.947	68.09
346.159	23.04
346.371	55.81
346.583	16.9
346.795	49.66
347.007	10.75
347.219	59.9
347.431	0.51
347.643	14.85
347.855	8.7
348.067	35.33
348.279	47.62
348.491	55.81
348.703	35.33
348.915	-13.82
349.127	-28.16
349.339	72.19
349.551	66.05
349.763	64
349.975	64
350.187	113.15
350.399	72.19
350.61	0.51
350.822	-9.73
351.034	80.38
351.246	6.66
351.458	41.47
351.669	-42.5
351.881	121.34
352.093	27.14
352.305	152.06
352.517	41.47
352.728	74.24
352.94	90.62
353.152	72.19
353.363	23.04
353.575	-26.11
353.787	43.52
353.999	29.18
354.21	113.15
354.422	14.85
354.633	55.81
354.845	104.96
355.057	16.9
355.268	2.56
355.48	-17.92
355.692	35.33
355.903	23.04
356.115	-19.97
356.326	49.66
356.538	39.42
356.749	72.19
356.961	39.42
357.172	-5.63
357.384	72.19
357.595	88.57
357.807	29.18
358.018	-42.5
358.23	82.43
358.441	86.53
358.653	-58.88
358.864	61.95
359.075	43.52
359.287	31.23
359.498	27.14
359.709	61.95
359.921	57.86
360.132	14.85
360.344	115.2
360.555	10.75
360.766	31.23
360.977	39.42
361.189	88.57
361.4	57.86
361.611	31.23
361.823	76.29
362.034	51.71
362.245	2.56
362.456	31.23
362.667	-1.54
362.879	8.7
363.09	-7.68
363.301	27.14
363.512	72.19
363.723	10.75
363.935	47.62
364.146	8.7
364.357	-15.87
364.568	49.66
364.779	59.9
364.99	68.09
365.201	-60.93
365.412	31.23
365.623	72.19
365.834	113.15
366.045	2.56
366.256	84.48
366.467	57.86
366.678	129.53
366.889	45.57
367.1	25.09
367.311	10.75
367.522	59.9
367.733	18.94
367.944	45.57
368.155	-30.21
368.366	18.94
368.577	141.82
368.788	74.24
368.999	29.18
369.209	-24.06
369.42	104.96
369.631	90.62
369.842	57.86
370.053	64
370.264	78.33
370.474	68.09
370.685	-5.63
370.896	82.43
371.107	80.38
371.317	98.81
371.528	8.7
371.739	14.85
371.95	96.77
372.16	90.62
372.371	-34.3
372.582	57.86
372.792	25.09
373.003	18.94
373.214	-9.73
373.424	74.24
373.635	74.24
373.846	115.2
374.056	-9.73
374.267	39.42
374.477	6.66
374.688	2.56
374.898	-17.92
375.109	-3.58
375.319	57.86
375.53	70.14
375.74	20.99
375.951	14.85
376.161	18.94
376.372	92.67
376.582	18.94
376.793	88.57
377.003	-9.73
377.214	76.29
377.424	39.42
377.635	18.94
377.845	-7.68
378.055	64
378.266	33.28
378.476	-15.87
378.686	25.09
378.897	74.24
379.107	27.14
379.317	25.09
379.528	49.66
379.738	55.81
379.948	43.52
380.158	64
380.369	-1.54
380.579	47.62
380.789	23.04
380.999	162.3
381.21	64
381.42	76.29
381.63	-38.4
381.84	100.86
382.05	27.14
382.261	51.71
382.471	14.85
382.681	64
382.891	74.24
383.101	33.28
383.311	27.14
383.521	39.42
383.731	80.38
383.941	100.86
384.151	27.14
384.361	41.47
384.571	133.63
384.781	-22.02
384.991	16.9
385.201	53.76
385.411	100.86
385.621	66.05
385.831	80.38
386.041	8.7
386.251	82.43
386.461	88.57
386.671	76.29
386.881	14.85
387.091	25.09
387.301	0.51
387.511	31.23
387.72	14.85
387.93	-7.68
388.14	68.09
388.35	39.42
388.56	88.57
388.769	100.86
388.979	47.62
389.189	-9.73
389.399	8.7
389.609	8.7
389.818	20.99
390.028	27.14
390.238	72.19
390.447	-9.73
390.657	-73.21
390.867	55.81
391.076	10.75
391.286	64
391.496	16.9
391.705	125.44
391.915	18.94
392.125	82.43
392.334	31.23
392.544	82.43
392.753	6.66
392.963	47.62
393.172	39.42
393.382	76.29
393.591	127.49
393.801	-26.11
394.01	61.95
394.22	96.77
394.429	125.44
394.639	55.81
394.848	119.29
395.058	18.94
395.267	72.19
395.477	12.8
395.686	64
395.895	113.15
396.105	129.53
396.314	53.76
396.524	49.66
396.733	8.7
396.942	57.86
397.152	98.81
397.361	100.86
397.57	94.72
397.78	117.25
397.989	113.15
398.198	59.9
398.407	145.92
398.617	49.66
398.826	31.23
399.035	23.04
399.244	145.92
399.453	64
399.663	72.19
399.872	139.77
400.081	-7.68
400.29	137.73
400.499	35.33
400.708	64
400.917	31.23
401.127	107.01
401.336	55.81
401.545	115.2
401.754	125.44
401.963	80.38
402.172	61.95
402.381	31.23
402.59	113.15
402.799	90.62
403.008	107.01
403.217	150.01
403.426	35.33
403.635	76.29
403.844	154.11
404.053	129.53
404.262	125.44
404.471	64
404.68	92.67
404.888	92.67
405.097	115.2
405.306	147.97
405.515	143.87
405.724	31.23
405.933	139.77
406.142	121.34
406.35	154.11
406.559	59.9
406.768	139.77
406.977	154.11
407.185	102.91
407.394	180.73
407.603	92.67
407.812	211.45
408.02	164.35
408.229	129.53
408.438	154.11
408.646	150.01
408.855	158.21
409.064	205.31
409.272	137.73
409.481	195.07
409.69	170.49
409.898	211.45
410.107	170.49
410.315	238.08
410.524	166.4
410.733	254.46
410.941	252.41
411.15	264.7
411.358	252.41
411.567	358.91
411.775	250.36
411.984	307.71
412.192	309.76
412.401	264.7
412.609	436.73
412.818	416.25
413.026	410.11
413.234	391.67
413.443	295.42
413.651	377.34
413.86	436.73
414.068	489.98
414.276	494.07
414.485	430.59
414.693	432.63
414.901	473.59
415.11	563.7
415.318	551.42
415.526	487.93
415.734	528.89
415.943	578.04
416.151	590.33
416.359	573.94
416.567	664.05
416.776	594.42
416.984	621.05
417.192	713.21
417.4	653.81
417.608	662.01
417.817	737.78
418.025	801.27
418.233	809.46
418.441	801.27
418.649	817.65
418.857	874.99
419.065	858.61
419.273	846.32
419.481	950.77
419.689	965.11
419.897	1014.26
420.105	956.91
420.313	1122.8
420.521	1235.44
420.729	1163.76
420.937	1186.29
421.145	1178.09
421.353	1272.3
421.561	1442.28
421.769	1368.56
421.977	1419.75
422.185	1389.03
422.393	1442.28
422.601	1620.46
422.809	1481.19
423.017	1616.36
423.224	1647.08
423.432	1769.96
423.64	1710.57
423.848	1841.64
424.056	1933.79
424.263	1968.61
424.471	1933.79
424.679	2030.05
424.887	1982.95
425.094	2218.46
425.302	2195.93
425.51	2228.7
425.718	2300.38
425.925	2390.49
426.133	2496.99
426.341	2554.33
426.548	2603.48
426.756	2812.37
426.964	2613.72
427.171	2816.47
427.379	2959.83
427.586	3025.36
427.794	3088.85
428.001	3260.88
428.209	3367.37
428.417	3324.37
428.624	3549.64
428.832	3662.28
429.039	3598.79
429.247	3535.31
429.454	3897.8
429.662	4215.23
429.869	3922.37
430.076	4135.36
430.284	4078.02
430.491	4166.08
430.699	4397.5
430.906	4643.26
431.114	4540.86
431.321	4626.87
431.528	4798.9
431.736	5042.61
431.943	5507.5
432.15	5142.96
432.358	5077.43
432.565	5450.16
432.772	5372.33
432.979	5671.34
433.187	5812.65
433.394	5831.08
433.601	6166.95
433.808	6351.26
434.016	6269.34
434.223	6478.24
434.43	7029.14
434.637	6762.9
434.844	7127.44
435.052	7465.36
435.259	7244.18
435.466	7479.69
435.673	7375.25
435.88	7729.55
436.087	8321.41
436.294	8026.5
436.501	7877
436.708	8083.84
436.915	8280.45
437.122	8845.69
437.329	8655.23
437.537	9109.88
437.743	9089.4
437.95	9050.49
438.157	9656.68
438.364	9726.32
438.571	9675.12
438.778	9777.51
438.985	10885.47
439.192	10234.21
439.399	10678.62
439.606	10471.78
439.813	11067.74
440.02	11790.67
440.227	11438.42
440.433	11419.99
440.64	11923.79
440.847	11737.42
441.054	12091.72
441.261	12876.09
441.467	12562.75
441.674	12886.33
441.881	13130.04
442.088	13482.29
442.294	13082.94
442.501	13474.1
442.708	13742.38
442.914	14571.81
443.121	14922.01
443.328	14536.99
443.534	15679.76
443.741	15294.74
443.948	14801.18
444.154	15995.15
444.361	15722.77
444.568	15902.99
444.774	15984.91
444.981	16292.1
445.187	16599.3
445.394	17449.21
445.6	17180.92
445.807	18862.3
446.013	18135.28
446.22	18041.07
446.426	18938.08
446.633	19198.17
446.839	19839.19
447.046	19087.58
447.252	20123.85
447.459	20146.38
447.665	20105.42
447.871	21022.91
448.078	21772.47
448.284	20914.37
448.491	21272.76
448.697	21946.55
448.903	22608.04
449.11	22900.9
449.316	22306.99
449.522	22771.88
449.728	23337.12
449.935	23455.9
450.141	23300.25
450.347	24281.23
450.553	23677.08
450.76	23507.1
450.966	24594.57
451.172	24291.47
451.378	24592.52
451.584	24309.9
451.791	24735.88
451.997	24791.17
452.203	25491.58
452.409	25127.04
452.615	25348.22
452.821	24111.25
453.027	23845.01
453.233	25477.24
453.44	24260.75
453.646	24424.59
453.852	24465.55
454.058	25149.57
454.264	24375.44
454.47	25114.75
454.676	24264.85
454.882	25065.6
455.088	22700.2
455.294	23244.96
455.5	23959.7
455.705	23859.35
455.911	22808.74
456.117	22638.76
456.323	22239.4
456.529	21004.48
456.735	22198.45
456.941	21487.8
457.147	21223.61
457.352	20668.61
457.558	20435.14
457.764	20654.28
457.97	19853.52
458.176	19441.88
458.381	19497.17
458.587	18761.95
458.793	18725.09
458.999	17826.03
459.204	18981.09
459.41	18278.63
459.616	17154.3
459.821	17201.4
460.027	17307.9
460.233	16826.62
460.438	16089.35
460.644	16314.63
460.85	15421.72
461.055	15178.01
461.261	15139.1
461.466	13877.55
461.672	13678.9
461.878	14635.3
462.083	13736.24
462.289	13408.56
462.494	13302.07
462.7	12802.36
462.905	12155.21
463.111	12849.47
463.316	12910.91
463.522	12726.59
463.727	12550.46
463.932	12626.24
464.138	12616
464.343	12466.5
464.549	12163.4
464.754	12640.58
464.959	12376.39
465.165	12267.84
465.37	11653.45
465.575	11538.77
465.781	11911.5
465.986	12116.3
466.191	11524.43
466.397	11372.88
466.602	10838.36
466.807	11309.4
467.012	11163.99
467.218	11129.17
467.423	11204.95
467.628	11080.02
467.833	11544.91
468.038	11135.32
468.244	10703.2
468.449	11307.35
468.654	10842.46
468.859	10963.29
469.064	10701.15
