Data from USB4F104151__166__14-44-54-635.txt Node

Date: Thu Mar 13 14:44:54 EDT 2025
User: louis
Spectrometer: USB4F10415
Trigger mode: 4
Integration Time (sec): 2.000000E-2
Scans to average: 1
Electric dark correction enabled: true
Nonlinearity correction enabled: false
Boxcar width: 0
XAxis mode: Wavelengths
Number of Pixels in Spectrum: 3648
>>>>>Begin Spectral Data<<<<<
178.204	-161.62
178.424	-161.62
178.644	-161.62
178.864	-249.68
179.084	-116.56
179.304	28.84
179.524	-34.64
179.744	-16.21
179.964	55.47
180.184	-71.51
180.404	28.84
180.624	-1.88
180.844	-14.17
181.064	6.31
181.283	18.6
181.503	10.41
181.723	-10.07
181.943	-44.88
182.163	32.94
182.383	-55.12
182.602	2.22
182.822	18.6
183.042	39.08
183.262	-5.97
183.482	51.37
183.701	2.22
183.921	18.6
184.141	-36.69
184.361	51.37
184.58	-16.21
184.8	71.85
185.02	2.22
185.239	82.09
185.459	30.89
185.679	18.6
185.898	-59.22
186.118	2.22
186.338	4.27
186.557	59.56
186.777	-14.17
186.997	20.65
187.216	18.6
187.436	86.19
187.655	-81.75
187.875	47.27
188.095	0.17
188.314	43.18
188.534	37.03
188.753	-38.74
188.973	51.37
189.192	75.95
189.412	-38.74
189.631	82.09
189.851	-26.45
190.07	63.66
190.29	-55.12
190.509	18.6
190.729	8.36
190.948	2.22
191.168	129.19
191.387	100.52
191.607	-5.97
191.826	-22.36
192.045	34.99
192.265	-14.17
192.484	61.61
192.704	6.31
192.923	18.6
193.142	67.75
193.362	-10.07
193.581	67.75
193.8	22.7
194.02	18.6
194.239	22.7
194.458	-51.03
194.678	20.65
194.897	-55.12
195.116	-38.74
195.335	14.51
195.555	4.27
195.774	-18.26
195.993	53.42
196.212	18.6
196.432	-16.21
196.651	55.47
196.87	-3.93
197.089	77.99
197.308	10.41
197.528	26.79
197.747	10.41
197.966	-10.07
198.185	8.36
198.404	-30.55
198.623	14.51
198.842	43.18
199.062	47.27
199.281	45.23
199.5	-20.31
199.719	-8.02
199.938	59.56
200.157	63.66
200.376	2.22
200.595	118.95
200.814	10.41
201.033	-1.88
201.252	77.99
201.471	12.46
201.69	2.22
201.909	47.27
202.128	28.84
202.347	-22.36
202.566	16.55
202.785	10.41
203.004	2.22
203.223	59.56
203.442	67.75
203.661	-20.31
203.879	-46.93
204.098	43.18
204.317	-38.74
204.536	41.13
204.755	4.27
204.974	67.75
205.193	-3.93
205.411	-20.31
205.63	22.7
205.849	37.03
206.068	-20.31
206.287	41.13
206.505	-32.6
206.724	16.55
206.943	14.51
207.162	34.99
207.381	10.41
207.599	16.55
207.818	39.08
208.037	18.6
208.255	-10.07
208.474	6.31
208.693	-36.69
208.911	-55.12
209.13	55.47
209.349	34.99
209.567	10.41
209.786	75.95
210.005	16.55
210.223	24.75
210.442	-18.26
210.661	-30.55
210.879	-46.93
211.098	28.84
211.316	39.08
211.535	51.37
211.753	10.41
211.972	-48.98
212.191	53.42
212.409	26.79
212.628	32.94
212.846	22.7
213.065	-18.26
213.283	10.41
213.502	-14.17
213.72	53.42
213.938	-1.88
214.157	14.51
214.375	-30.55
214.594	30.89
214.812	45.23
215.031	2.22
215.249	10.41
215.467	22.7
215.686	-30.55
215.904	-28.5
216.122	43.18
216.341	53.42
216.559	88.23
216.778	84.14
216.996	67.75
217.214	-46.93
217.432	61.61
217.651	4.27
217.869	34.99
218.087	18.6
218.306	28.84
218.524	47.27
218.742	-22.36
218.96	14.51
219.179	26.79
219.397	6.31
219.615	92.33
219.833	61.61
220.051	-3.93
220.27	59.56
220.488	-22.36
220.706	2.22
220.924	-112.47
221.142	-89.94
221.36	-71.51
221.578	-3.93
221.796	-36.69
222.015	32.94
222.233	2.22
222.451	45.23
222.669	-55.12
222.887	20.65
223.105	-30.55
223.323	26.79
223.541	2.22
223.759	26.79
223.977	-5.97
224.195	26.79
224.413	-22.36
224.631	-46.93
224.849	16.55
225.067	43.18
225.285	-14.17
225.503	-28.5
225.721	-14.17
225.939	41.13
226.157	-36.69
226.375	53.42
226.592	-40.79
226.81	75.95
227.028	53.42
227.246	6.31
227.464	2.22
227.682	-18.26
227.9	-1.88
228.117	28.84
228.335	14.51
228.553	-8.02
228.771	55.47
228.989	59.56
229.206	20.65
229.424	-46.93
229.642	86.19
229.86	12.46
230.077	67.75
230.295	14.51
230.513	92.33
230.731	121
230.948	34.99
231.166	-10.07
231.384	-22.36
231.601	6.31
231.819	51.37
232.037	-46.93
232.254	-20.31
232.472	6.31
232.689	-24.4
232.907	61.61
233.125	-22.36
233.342	55.47
233.56	32.94
233.777	51.37
233.995	49.32
234.213	61.61
234.43	-14.17
234.648	-18.26
234.865	-30.55
235.083	-26.45
235.3	26.79
235.518	4.27
235.735	37.03
235.953	4.27
236.17	30.89
236.388	10.41
236.605	49.32
236.822	28.84
237.04	18.6
237.257	-46.93
237.475	16.55
237.692	-3.93
237.909	2.22
238.127	69.8
238.344	20.65
238.562	28.84
238.779	32.94
238.996	-26.45
239.214	-26.45
239.431	51.37
239.648	-36.69
239.865	28.84
240.083	63.66
240.3	10.41
240.517	53.42
240.735	-36.69
240.952	10.41
241.169	26.79
241.386	18.6
241.603	-26.45
241.821	10.41
242.038	10.41
242.255	34.99
242.472	-12.12
242.689	2.22
242.907	47.27
243.124	-38.74
243.341	-22.36
243.558	43.18
243.775	51.37
243.992	61.61
244.209	34.99
244.426	14.51
244.643	6.31
244.86	-20.31
245.078	53.42
245.295	53.42
245.512	-69.46
245.729	61.61
245.946	-22.36
246.163	80.04
246.38	116.9
246.597	10.41
246.814	-14.17
247.031	20.65
247.248	14.51
247.464	39.08
247.681	-14.17
247.898	4.27
248.115	-22.36
248.332	2.22
248.549	34.99
248.766	98.47
248.983	12.46
249.2	47.27
249.417	-26.45
249.633	51.37
249.85	39.08
250.067	-22.36
250.284	6.31
250.501	51.37
250.717	69.8
250.934	26.79
251.151	53.42
251.368	55.47
251.585	26.79
251.801	24.75
252.018	53.42
252.235	-20.31
252.451	-120.66
252.668	10.41
252.885	39.08
253.102	59.56
253.318	10.41
253.535	8.36
253.752	18.6
253.968	-10.07
254.185	-48.98
254.401	-20.31
254.618	10.41
254.835	-22.36
255.051	118.95
255.268	49.32
255.484	86.19
255.701	41.13
255.917	10.41
256.134	-42.84
256.351	57.51
256.567	-5.97
256.784	2.22
257	16.55
257.217	67.75
257.433	-53.08
257.65	16.55
257.866	-44.88
258.082	0.17
258.299	18.6
258.515	28.84
258.732	-22.36
258.948	-30.55
259.165	57.51
259.381	20.65
259.597	39.08
259.814	4.27
260.03	-1.88
260.246	-44.88
260.463	61.61
260.679	-1.88
260.895	4.27
261.112	-36.69
261.328	20.65
261.544	34.99
261.761	110.76
261.977	-5.97
262.193	-77.65
262.409	24.75
262.626	41.13
262.842	10.41
263.058	-32.6
263.274	20.65
263.49	16.55
263.707	43.18
263.923	-30.55
264.139	-96.08
264.355	-32.6
264.571	10.41
264.787	-51.03
265.004	-5.97
265.22	22.7
265.436	86.19
265.652	-12.12
265.868	14.51
266.084	8.36
266.3	6.31
266.516	-30.55
266.732	34.99
266.948	61.61
267.164	-3.93
267.38	37.03
267.596	-22.36
267.812	51.37
268.028	43.18
268.244	-5.97
268.46	67.75
268.676	-12.12
268.892	39.08
269.108	-16.21
269.324	71.85
269.54	26.79
269.756	75.95
269.972	-44.88
270.188	-46.93
270.403	-14.17
270.619	59.56
270.835	22.7
271.051	26.79
271.267	20.65
271.483	-1.88
271.698	-22.36
271.914	51.37
272.13	-5.97
272.346	-46.93
272.562	26.79
272.777	55.47
272.993	4.27
273.209	10.41
273.425	59.56
273.64	-118.61
273.856	43.18
274.072	-63.32
274.287	45.23
274.503	59.56
274.719	-26.45
274.934	-42.84
275.15	-12.12
275.366	-10.07
275.581	-30.55
275.797	16.55
276.012	28.84
276.228	-14.17
276.444	92.33
276.659	26.79
276.875	20.65
277.09	-3.93
277.306	0.17
277.521	-5.97
277.737	4.27
277.952	26.79
278.168	-67.41
278.383	-5.97
278.599	28.84
278.814	75.95
279.03	-8.02
279.245	63.66
279.461	47.27
279.676	67.75
279.892	45.23
280.107	53.42
280.322	6.31
280.538	14.51
280.753	34.99
280.969	-38.74
281.184	34.99
281.399	118.95
281.615	22.7
281.83	55.47
282.045	12.46
282.26	-5.97
282.476	73.9
282.691	26.79
282.906	39.08
283.122	2.22
283.337	-44.88
283.552	26.79
283.767	-57.17
283.983	102.57
284.198	-20.31
284.413	106.67
284.628	-22.36
284.843	12.46
285.058	75.95
285.274	61.61
285.489	20.65
285.704	20.65
285.919	-32.6
286.134	34.99
286.349	4.27
286.564	-18.26
286.779	63.66
286.995	-10.07
287.21	75.95
287.425	77.99
287.64	55.47
287.855	-42.84
288.07	12.46
288.285	59.56
288.5	18.6
288.715	18.6
288.93	28.84
289.145	-14.17
289.36	10.41
289.575	59.56
289.79	14.51
290.004	-8.02
290.219	34.99
290.434	-30.55
290.649	16.55
290.864	75.95
291.079	4.27
291.294	26.79
291.509	12.46
291.724	63.66
291.938	26.79
292.153	18.6
292.368	-38.74
292.583	-3.93
292.798	37.03
293.012	2.22
293.227	22.7
293.442	-53.08
293.657	67.75
293.871	92.33
294.086	59.56
294.301	75.95
294.516	39.08
294.73	45.23
294.945	18.6
295.16	28.84
295.374	20.65
295.589	43.18
295.804	-8.02
296.018	59.56
296.233	43.18
296.447	22.7
296.662	-28.5
296.877	32.94
297.091	34.99
297.306	80.04
297.52	16.55
297.735	26.79
297.949	92.33
298.164	67.75
298.378	75.95
298.593	-5.97
298.807	6.31
299.022	-10.07
299.236	-5.97
299.451	43.18
299.665	18.6
299.88	53.42
300.094	-28.5
300.309	71.85
300.523	0.17
300.737	-55.12
300.952	-5.97
301.166	26.79
301.381	-18.26
301.595	10.41
301.809	26.79
302.024	14.51
302.238	61.61
302.452	61.61
302.667	6.31
302.881	2.22
303.095	53.42
303.309	28.84
303.524	-20.31
303.738	-1.88
303.952	59.56
304.166	37.03
304.381	-79.7
304.595	18.6
304.809	37.03
305.023	49.32
305.237	47.27
305.452	57.51
305.666	-12.12
305.88	37.03
306.094	-18.26
306.308	45.23
306.522	22.7
306.736	-22.36
306.95	4.27
307.164	-8.02
307.379	69.8
307.593	129.19
307.807	51.37
308.021	24.75
308.235	10.41
308.449	-65.36
308.663	55.47
308.877	149.67
309.091	-61.27
309.305	84.14
309.519	12.46
309.733	-10.07
309.947	-24.4
310.161	-36.69
310.374	6.31
310.588	100.52
310.802	28.84
311.016	28.84
311.23	24.75
311.444	-30.55
311.658	28.84
311.872	6.31
312.085	37.03
312.299	10.41
312.513	43.18
312.727	34.99
312.941	22.7
313.154	-1.88
313.368	28.84
313.582	6.31
313.796	10.41
314.009	61.61
314.223	55.47
314.437	67.75
314.651	24.75
314.864	-14.17
315.078	96.43
315.292	-22.36
315.505	28.84
315.719	67.75
315.933	18.6
316.146	10.41
316.36	-3.93
316.573	59.56
316.787	-5.97
317.001	-18.26
317.214	6.31
317.428	41.13
317.641	69.8
317.855	51.37
318.068	-28.5
318.282	39.08
318.495	73.9
318.709	34.99
318.922	94.38
319.136	73.9
319.349	82.09
319.563	-5.97
319.776	26.79
319.99	-57.17
320.203	26.79
320.417	24.75
320.63	10.41
320.843	71.85
321.057	53.42
321.27	41.13
321.483	84.14
321.697	135.34
321.91	-51.03
322.124	55.47
322.337	12.46
322.55	-28.5
322.763	2.22
322.977	18.6
323.19	-42.84
323.403	10.41
323.617	-12.12
323.83	-38.74
324.043	34.99
324.256	20.65
324.469	18.6
324.683	75.95
324.896	84.14
325.109	30.89
325.322	-3.93
325.535	75.95
325.748	28.84
325.962	18.6
326.175	34.99
326.388	69.8
326.601	71.85
326.814	43.18
327.027	18.6
327.24	14.51
327.453	10.41
327.666	43.18
327.879	71.85
328.092	-14.17
328.305	18.6
328.518	22.7
328.731	4.27
328.944	-26.45
329.157	2.22
329.37	6.31
329.583	20.65
329.796	10.41
330.009	-5.97
330.222	14.51
330.435	39.08
330.648	28.84
330.861	-12.12
331.073	37.03
331.286	96.43
331.499	-34.64
331.712	2.22
331.925	-42.84
332.138	59.56
332.35	26.79
332.563	-12.12
332.776	-40.79
332.989	-5.97
333.202	47.27
333.414	12.46
333.627	57.51
333.84	2.22
334.053	121
334.265	18.6
334.478	20.65
334.691	34.99
334.903	4.27
335.116	24.75
335.329	51.37
335.541	-1.88
335.754	86.19
335.966	10.41
336.179	-18.26
336.392	10.41
336.604	10.41
336.817	-42.84
337.029	43.18
337.242	2.22
337.454	20.65
337.667	-55.12
337.88	22.7
338.092	55.47
338.305	-5.97
338.517	14.51
338.729	28.84
338.942	39.08
339.154	-10.07
339.367	-42.84
339.579	43.18
339.792	-53.08
340.004	43.18
340.217	-30.55
340.429	22.7
340.641	-1.88
340.854	-48.98
341.066	12.46
341.278	92.33
341.491	80.04
341.703	-24.4
341.915	-28.5
342.128	67.75
342.34	14.51
342.552	-53.08
342.764	63.66
342.977	-61.27
343.189	51.37
343.401	108.71
343.613	45.23
343.826	-42.84
344.038	16.55
344.25	43.18
344.462	28.84
344.674	55.47
344.886	86.19
345.099	43.18
345.311	43.18
345.523	2.22
345.735	-3.93
345.947	30.89
346.159	80.04
346.371	-1.88
346.583	-32.6
346.795	102.57
347.007	28.84
347.219	26.79
347.431	26.79
347.643	55.47
347.855	2.22
348.067	22.7
348.279	65.71
348.491	14.51
348.703	14.51
348.915	-3.93
349.127	-14.17
349.339	18.6
349.551	-38.74
349.763	2.22
349.975	26.79
350.187	26.79
350.399	84.14
350.61	-59.22
350.822	34.99
351.034	43.18
351.246	49.32
351.458	28.84
351.669	18.6
351.881	61.61
352.093	92.33
352.305	75.95
352.517	53.42
352.728	37.03
352.94	45.23
353.152	43.18
353.363	51.37
353.575	67.75
353.787	-30.55
353.999	-16.21
354.21	18.6
354.422	37.03
354.633	45.23
354.845	37.03
355.057	77.99
355.268	20.65
355.48	55.47
355.692	10.41
355.903	-10.07
356.115	2.22
356.326	-40.79
356.538	100.52
356.749	28.84
356.961	80.04
357.172	59.56
357.384	51.37
357.595	151.72
357.807	-1.88
358.018	39.08
358.23	-3.93
358.441	116.9
358.653	2.22
358.864	16.55
359.075	88.23
359.287	28.84
359.498	149.67
359.709	-3.93
359.921	80.04
360.132	90.28
360.344	59.56
360.555	2.22
360.766	20.65
360.977	-38.74
361.189	10.41
361.4	-20.31
361.611	51.37
361.823	43.18
362.034	100.52
362.245	2.22
362.456	10.41
362.667	100.52
362.879	-38.74
363.09	53.42
363.301	18.6
363.512	-22.36
363.723	18.6
363.935	2.22
364.146	22.7
364.357	32.94
364.568	20.65
364.779	-53.08
364.99	67.75
365.201	20.65
365.412	2.22
365.623	-87.89
365.834	67.75
366.045	34.99
366.256	12.46
366.467	61.61
366.678	37.03
366.889	37.03
367.1	22.7
367.311	32.94
367.522	26.79
367.733	135.34
367.944	18.6
368.155	-38.74
368.366	49.32
368.577	51.37
368.788	75.95
368.999	-22.36
369.209	67.75
369.42	18.6
369.631	32.94
369.842	51.37
370.053	61.61
370.264	75.95
370.474	-36.69
370.685	28.84
370.896	-48.98
371.107	67.75
371.317	43.18
371.528	108.71
371.739	45.23
371.95	16.55
372.16	-3.93
372.371	4.27
372.582	-53.08
372.792	145.58
373.003	51.37
373.214	24.75
373.424	84.14
373.635	-5.97
373.846	67.75
374.056	6.31
374.267	4.27
374.477	30.89
374.688	-40.79
374.898	10.41
375.109	26.79
375.319	-12.12
375.53	53.42
375.74	67.75
375.951	65.71
376.161	4.27
376.372	67.75
376.582	-12.12
376.793	-5.97
377.003	45.23
377.214	18.6
377.424	20.65
377.635	47.27
377.845	75.95
378.055	67.75
378.266	20.65
378.476	-20.31
378.686	75.95
378.897	75.95
379.107	129.19
379.317	116.9
379.528	-10.07
379.738	-1.88
379.948	67.75
380.158	34.99
380.369	28.84
380.579	10.41
380.789	75.95
380.999	12.46
381.21	55.47
381.42	73.9
381.63	28.84
381.84	32.94
382.05	45.23
382.261	10.41
382.471	55.47
382.681	82.09
382.891	110.76
383.101	80.04
383.311	28.84
383.521	51.37
383.731	67.75
383.941	18.6
384.151	-5.97
384.361	67.75
384.571	-89.94
384.781	123.05
384.991	92.33
385.201	41.13
385.411	18.6
385.621	71.85
385.831	82.09
386.041	45.23
386.251	47.27
386.461	53.42
386.671	30.89
386.881	80.04
387.091	2.22
387.301	104.62
387.511	45.23
387.72	26.79
387.93	12.46
388.14	-26.45
388.35	-30.55
388.56	47.27
388.769	51.37
388.979	92.33
389.189	4.27
389.399	18.6
389.609	2.22
389.818	88.23
390.028	51.37
390.238	-46.93
390.447	28.84
390.657	26.79
390.867	84.14
391.076	108.71
391.286	106.67
391.496	77.99
391.705	22.7
391.915	63.66
392.125	80.04
392.334	28.84
392.544	45.23
392.753	20.65
392.963	65.71
393.172	10.41
393.382	75.95
393.591	133.29
393.801	22.7
394.01	16.55
394.22	43.18
394.429	51.37
394.639	77.99
394.848	47.27
395.058	145.58
395.267	37.03
395.477	59.56
395.686	141.48
395.895	71.85
396.105	112.81
396.314	106.67
396.524	51.37
396.733	118.95
396.942	125.1
397.152	94.38
397.361	133.29
397.57	77.99
397.78	57.51
397.989	94.38
398.198	149.67
398.407	37.03
398.617	84.14
398.826	129.19
399.035	131.24
399.244	75.95
399.453	34.99
399.663	161.96
399.872	116.9
400.081	-16.21
400.29	131.24
400.499	67.75
400.708	194.73
400.917	71.85
401.127	77.99
401.336	98.47
401.545	51.37
401.754	118.95
401.963	92.33
402.172	118.95
402.381	112.81
402.59	53.42
402.799	84.14
403.008	75.95
403.217	151.72
403.426	127.14
403.635	80.04
403.844	170.15
404.053	75.95
404.262	45.23
404.471	112.81
404.68	61.61
404.888	166.06
405.097	112.81
405.306	125.1
405.515	139.43
405.724	110.76
405.933	123.05
406.142	125.1
406.35	153.77
406.559	155.82
406.768	108.71
406.977	223.4
407.185	168.1
407.394	168.1
407.603	192.68
407.812	166.06
408.02	196.78
408.229	239.78
408.438	204.97
408.646	141.48
408.855	135.34
409.064	317.61
409.272	209.06
409.481	299.17
409.69	200.87
409.898	231.59
410.107	338.09
410.315	223.4
410.524	270.5
410.733	301.22
410.941	245.93
411.15	313.51
411.358	342.18
411.567	387.24
411.775	366.76
411.984	344.23
412.192	346.28
412.401	409.76
412.609	413.86
412.818	522.4
413.026	438.44
413.234	387.24
413.443	456.87
413.651	479.4
413.86	534.69
414.068	485.54
414.276	493.73
414.485	551.07
414.693	583.84
414.901	635.04
415.11	747.68
415.318	596.13
415.526	704.67
415.734	659.62
415.943	641.18
416.151	733.34
416.359	821.41
416.567	729.25
416.776	774.3
416.984	940.19
417.192	970.91
417.4	788.64
417.608	845.98
417.817	1030.3
418.025	997.53
418.233	1077.4
418.441	972.96
418.649	1005.72
418.857	1216.66
419.065	1149.08
419.273	1206.42
419.481	1237.14
419.689	1321.11
419.897	1288.34
420.105	1298.58
420.313	1394.84
420.521	1382.55
420.729	1400.98
420.937	1464.47
421.145	1484.95
421.353	1611.92
421.561	1745.04
421.769	1714.32
421.977	1691.79
422.185	1706.13
422.393	1845.39
422.601	1968.27
422.809	1921.17
423.017	2044.04
423.224	2035.85
423.432	2250.89
423.64	2156.68
423.848	2406.53
424.056	2336.9
424.263	2496.64
424.471	2459.78
424.679	2570.37
424.887	2699.39
425.094	2754.69
425.302	2779.26
425.51	2949.25
425.718	2814.08
425.925	2988.16
426.133	3133.56
426.341	3305.59
426.548	3459.19
426.756	3354.74
426.964	3573.88
427.171	3692.66
427.379	3704.95
427.586	3836.02
427.794	3993.71
428.001	4083.82
428.209	4331.62
428.417	4182.12
428.624	4544.61
428.832	4507.75
429.039	4493.41
429.247	4589.67
429.454	4780.13
429.662	5234.78
429.869	4900.96
430.076	5355.61
430.284	5140.57
430.491	5388.38
430.699	5673.04
430.906	5711.96
431.114	5689.43
431.321	5978.19
431.528	6174.8
431.736	6512.71
431.943	6834.24
432.15	6576.2
432.358	6533.19
432.565	7059.52
432.772	6924.35
432.979	7249.98
433.187	7206.97
433.394	7393.34
433.601	8054.83
433.808	7829.56
434.016	8099.89
434.223	8419.37
434.43	8632.36
434.637	8607.78
434.844	9205.79
435.052	9398.3
435.259	9275.42
435.466	9463.83
435.673	9418.78
435.88	9797.65
436.087	10266.64
436.294	10268.69
436.501	10096.66
436.708	10211.34
436.915	10725.38
437.122	11085.83
437.329	11067.39
437.537	11446.27
437.743	11677.69
437.95	11614.2
438.157	12242.93
438.364	12392.43
438.571	12374
438.778	12412.91
438.985	13572.06
439.192	13152.23
439.399	13486.04
439.606	13381.6
439.813	14211.03
440.02	14950.34
440.227	14731.21
440.433	14516.17
440.64	14884.81
440.847	14882.76
441.054	15323.07
441.261	16093.11
441.467	15814.59
441.674	16529.33
441.881	16945.06
442.088	16926.63
442.294	16813.99
442.501	17049.51
442.708	17553.31
442.914	18120.6
443.121	19015.56
443.328	18524.05
443.534	19523.46
443.741	19132.29
443.948	18485.14
444.154	20356.98
444.361	20010.87
444.568	20260.73
444.774	20031.35
444.981	20391.8
445.187	20868.97
445.394	21874.52
445.6	21458.79
445.807	23893.82
446.013	22998.86
446.22	23091.02
446.426	24018.75
446.633	24115
446.839	25042.73
447.046	24028.99
447.252	25554.72
447.459	25605.92
447.665	25075.5
447.871	26320.67
448.078	27520.77
448.284	26365.72
448.491	26810.13
448.697	28147.45
448.903	28069.63
449.11	28708.6
449.316	28043.01
449.522	28571.38
449.728	29716.2
449.935	29834.98
450.141	29441.77
450.347	30201.57
450.553	29853.41
450.76	29826.79
450.966	30990.03
451.172	30299.87
451.378	31370.96
451.584	30699.22
451.791	31426.25
451.997	31059.66
452.203	31784.65
452.409	31784.65
452.615	31762.12
452.821	30551.77
453.027	30056.16
453.233	31301.33
453.44	30521.05
453.646	31026.9
453.852	31137.49
454.058	31506.12
454.264	30594.78
454.47	31510.22
454.676	30600.92
454.882	31536.84
455.088	28655.35
455.294	29648.61
455.5	29994.72
455.705	30176.99
455.911	28825.33
456.117	28389.11
456.323	28385.02
456.529	26681.11
456.735	27756.29
456.941	27152.14
457.147	26545.94
457.352	25870.11
457.558	25642.79
457.764	25648.93
457.97	25239.34
458.176	24407.86
458.381	24676.15
458.587	23441.22
458.793	23578.43
458.999	22165.34
459.204	24110.91
459.41	23045.96
459.616	21729.12
459.821	21854.05
460.027	21706.59
460.233	21571.43
460.438	20352.88
460.644	20676.46
460.85	19337.09
461.055	19392.39
461.261	19085.19
461.466	17768.35
461.672	17098.66
461.878	18296.72
462.083	17215.4
462.289	16883.63
462.494	16797.61
462.7	15898.55
462.905	15493.05
463.111	15849.4
463.316	15939.51
463.522	15601.6
463.727	15691.71
463.932	15847.35
464.138	15570.88
464.343	15681.47
464.549	14936.01
464.754	15644.6
464.959	15484.86
465.165	15267.78
465.37	14720.97
465.575	14288.85
465.781	15194.05
465.986	14890.95
466.191	14477.26
466.397	14069.72
466.602	13635.55
466.807	14096.34
467.012	14116.82
