Data from USB4F104151__132__14-44-04-827.txt Node

Date: Thu Mar 13 14:44:04 EDT 2025
User: louis
Spectrometer: USB4F10415
Trigger mode: 4
Integration Time (sec): 2.000000E-2
Scans to average: 1
Electric dark correction enabled: true
Nonlinearity correction enabled: false
Boxcar width: 0
XAxis mode: Wavelengths
Number of Pixels in Spectrum: 3648
>>>>>Begin Spectral Data<<<<<
178.204	-122.54
178.424	-122.54
178.644	-122.54
178.864	-122.54
179.084	-132.78
179.304	-9.9
179.524	-3.75
179.744	-5.8
179.964	-44.71
180.184	4.44
180.404	24.92
180.624	-34.47
180.844	29.01
181.064	-9.9
181.283	16.73
181.503	4.44
181.723	29.01
181.943	-26.28
182.163	57.68
182.383	20.82
182.602	-28.33
182.822	76.12
183.042	-36.52
183.262	37.2
183.482	12.63
183.701	-7.85
183.921	-44.71
184.141	-30.38
184.361	53.59
184.58	-34.47
184.8	-61.1
185.02	-1.71
185.239	67.92
185.459	-20.14
185.679	69.97
185.898	33.11
186.118	29.01
186.338	-7.85
186.557	37.2
186.777	-69.29
186.997	-11.95
187.216	12.63
187.436	45.4
187.655	16.73
187.875	51.54
188.095	-11.95
188.314	33.11
188.534	115.03
188.753	-20.14
188.973	45.4
189.192	20.82
189.412	20.82
189.631	41.3
189.851	-16.04
190.07	-52.91
190.29	-52.91
190.509	20.82
190.729	57.68
190.948	53.59
191.168	170.32
191.387	39.25
191.607	-18.09
191.826	4.44
192.045	-9.9
192.265	-11.95
192.484	45.4
192.704	-16.04
192.923	14.68
193.142	82.26
193.362	65.88
193.581	-24.23
193.8	8.53
194.02	78.16
194.239	12.63
194.458	-3.75
194.678	-42.67
194.897	39.25
195.116	37.2
195.335	47.44
195.555	-11.95
195.774	-36.52
195.993	-32.43
196.212	78.16
196.432	80.21
196.651	-32.43
196.87	45.4
197.089	98.64
197.308	-26.28
197.528	31.06
197.747	2.39
197.966	14.68
198.185	94.55
198.404	-81.58
198.623	26.96
198.842	29.01
199.062	65.88
199.281	100.69
199.5	29.01
199.719	78.16
199.938	20.82
200.157	29.01
200.376	-18.09
200.595	84.31
200.814	49.49
201.033	-30.38
201.252	6.49
201.471	37.2
201.69	6.49
201.909	45.4
202.128	43.35
202.347	6.49
202.566	37.2
202.785	29.01
203.004	-16.04
203.223	151.89
203.442	49.49
203.661	-9.9
203.879	57.68
204.098	8.53
204.317	-9.9
204.536	12.63
204.755	18.77
204.974	-9.9
205.193	37.2
205.411	110.93
205.63	39.25
205.849	82.26
206.068	-9.9
206.287	-52.91
206.505	74.07
206.724	31.06
206.943	69.97
207.162	22.87
207.381	-67.24
207.599	72.02
207.818	45.4
208.037	-61.1
208.255	-32.43
208.474	102.74
208.693	33.11
208.911	22.87
209.13	14.68
209.349	26.96
209.567	49.49
209.786	-20.14
210.005	35.16
210.223	18.77
210.442	41.3
210.661	-28.33
210.879	24.92
211.098	47.44
211.316	16.73
211.535	0.34
211.753	14.68
211.972	33.11
212.191	8.53
212.409	33.11
212.628	-24.23
212.846	-81.58
213.065	82.26
213.283	78.16
213.502	67.92
213.72	-65.19
213.938	76.12
214.157	53.59
214.375	-16.04
214.594	98.64
214.812	72.02
215.031	53.59
215.249	-7.85
215.467	-16.04
215.686	90.45
215.904	61.78
216.122	-63.15
216.341	20.82
216.559	80.21
216.778	14.68
216.996	63.83
217.214	-61.1
217.432	74.07
217.651	-57
217.869	55.64
218.087	-7.85
218.306	45.4
218.524	20.82
218.742	78.16
218.96	-16.04
219.179	-48.81
219.397	12.63
219.615	69.97
219.833	55.64
220.051	47.44
220.27	16.73
220.488	49.49
220.706	-46.76
220.924	10.58
221.142	-18.09
221.36	29.01
221.578	-40.62
221.796	20.82
222.015	53.59
222.233	-16.04
222.451	10.58
222.669	2.39
222.887	-1.71
223.105	61.78
223.323	35.16
223.541	-36.52
223.759	-52.91
223.977	12.63
224.195	8.53
224.413	20.82
224.631	74.07
224.849	12.63
225.067	102.74
225.285	-20.14
225.503	-7.85
225.721	-77.48
225.939	49.49
226.157	-34.47
226.375	53.59
226.592	61.78
226.81	102.74
227.028	63.83
227.246	29.01
227.464	-1.71
227.682	41.3
227.9	-11.95
228.117	33.11
228.335	24.92
228.553	35.16
228.771	29.01
228.989	-3.75
229.206	14.68
229.424	63.83
229.642	-11.95
229.86	-9.9
230.077	31.06
230.295	31.06
230.513	45.4
230.731	69.97
230.948	65.88
231.166	41.3
231.384	29.01
231.601	-69.29
231.819	20.82
232.037	47.44
232.254	-52.91
232.472	12.63
232.689	-95.91
232.907	57.68
233.125	8.53
233.342	16.73
233.56	-7.85
233.777	-28.33
233.995	39.25
234.213	-11.95
234.43	12.63
234.648	49.49
234.865	-20.14
235.083	78.16
235.3	63.83
235.518	61.78
235.735	22.87
235.953	37.2
236.17	63.83
236.388	-1.71
236.605	35.16
236.822	90.45
237.04	35.16
237.257	-52.91
237.475	-44.71
237.692	53.59
237.909	76.12
238.127	-1.71
238.344	76.12
238.562	-13.99
238.779	-108.2
238.996	-3.75
239.214	78.16
239.431	37.2
239.648	-20.14
239.865	67.92
240.083	-16.04
240.3	-61.1
240.517	-3.75
240.735	4.44
240.952	31.06
241.169	26.96
241.386	-1.71
241.603	-20.14
241.821	29.01
242.038	12.63
242.255	45.4
242.472	-42.67
242.689	57.68
242.907	-5.8
243.124	-26.28
243.341	31.06
243.558	-36.52
243.775	69.97
243.992	-54.95
244.209	31.06
244.426	47.44
244.643	53.59
244.86	4.44
245.078	41.3
245.295	86.36
245.512	18.77
245.729	0.34
245.946	74.07
246.163	100.69
246.38	-1.71
246.597	29.01
246.814	39.25
247.031	29.01
247.248	-50.86
247.464	55.64
247.681	22.87
247.898	57.68
248.115	76.12
248.332	-3.75
248.549	-1.71
248.766	131.41
248.983	45.4
249.2	98.64
249.417	29.01
249.633	-18.09
249.85	14.68
250.067	12.63
250.284	-22.19
250.501	10.58
250.717	131.41
250.934	-26.28
251.151	-20.14
251.368	2.39
251.585	33.11
251.801	-18.09
252.018	-7.85
252.235	88.4
252.451	53.59
252.668	6.49
252.885	53.59
253.102	24.92
253.318	0.34
253.535	26.96
253.752	6.49
253.968	-11.95
254.185	8.53
254.401	18.77
254.618	-3.75
254.835	57.68
255.051	69.97
255.268	0.34
255.484	39.25
255.701	29.01
255.917	45.4
256.134	-32.43
256.351	-16.04
256.567	61.78
256.784	-7.85
257	-11.95
257.217	-11.95
257.433	37.2
257.65	53.59
257.866	65.88
258.082	-71.34
258.299	-7.85
258.515	31.06
258.732	63.83
258.948	-57
259.165	6.49
259.381	37.2
259.597	37.2
259.814	-3.75
260.03	10.58
260.246	53.59
260.463	-1.71
260.679	41.3
260.895	20.82
261.112	2.39
261.328	-24.23
261.544	-34.47
261.761	143.7
261.977	-7.85
262.193	-24.23
262.409	-26.28
262.626	88.4
262.842	4.44
263.058	-3.75
263.274	-24.23
263.49	2.39
263.707	53.59
263.923	8.53
264.139	16.73
264.355	16.73
264.571	63.83
264.787	12.63
265.004	69.97
265.22	45.4
265.436	-50.86
265.652	8.53
265.868	20.82
266.084	-1.71
266.3	104.79
266.516	41.3
266.732	31.06
266.948	-3.75
267.164	-18.09
267.38	57.68
267.596	72.02
267.812	88.4
268.028	14.68
268.244	65.88
268.46	12.63
268.676	-48.81
268.892	20.82
269.108	-7.85
269.324	-20.14
269.54	-11.95
269.756	69.97
269.972	49.49
270.188	-20.14
270.403	61.78
270.619	-7.85
270.835	20.82
271.051	-3.75
271.267	37.2
271.483	94.55
271.698	-3.75
271.914	4.44
272.13	37.2
272.346	-9.9
272.562	4.44
272.777	39.25
272.993	-36.52
273.209	-24.23
273.425	61.78
273.64	59.73
273.856	53.59
274.072	14.68
274.287	-54.95
274.503	69.97
274.719	4.44
274.934	-11.95
275.15	-32.43
275.366	-11.95
275.581	-63.15
275.797	61.78
276.012	10.58
276.228	31.06
276.444	20.82
276.659	110.93
276.875	16.73
277.09	-20.14
277.306	-18.09
277.521	20.82
277.737	45.4
277.952	53.59
278.168	-50.86
278.383	121.17
278.599	-18.09
278.814	10.58
279.03	-50.86
279.245	84.31
279.461	0.34
279.676	-7.85
279.892	24.92
280.107	-13.99
280.322	33.11
280.538	22.87
280.753	-28.33
280.969	33.11
281.184	112.98
281.399	2.39
281.615	4.44
281.83	22.87
282.045	-61.1
282.26	45.4
282.476	88.4
282.691	22.87
282.906	-7.85
283.122	-28.33
283.337	-22.19
283.552	55.64
283.767	24.92
283.983	4.44
284.198	-7.85
284.413	49.49
284.628	-24.23
284.843	0.34
285.058	37.2
285.274	37.2
285.489	-3.75
285.704	-18.09
285.919	-52.91
286.134	10.58
286.349	-36.52
286.564	-36.52
286.779	110.93
286.995	-11.95
287.21	-13.99
287.425	45.4
287.64	-1.71
287.855	-26.28
288.07	8.53
288.285	135.51
288.5	55.64
288.715	80.21
288.93	24.92
289.145	82.26
289.36	29.01
289.575	4.44
289.79	59.73
290.004	6.49
290.219	-26.28
290.434	2.39
290.649	8.53
290.864	-36.52
291.079	-16.04
291.294	24.92
291.509	26.96
291.724	63.83
291.938	-32.43
292.153	65.88
292.368	-34.47
292.583	-44.71
292.798	10.58
293.012	12.63
293.227	-22.19
293.442	0.34
293.657	37.2
293.871	110.93
294.086	4.44
294.301	-20.14
294.516	-16.04
294.73	39.25
294.945	33.11
295.16	33.11
295.374	-11.95
295.589	8.53
295.804	-122.54
296.018	-3.75
296.233	4.44
296.447	-11.95
296.662	-32.43
296.877	-1.71
297.091	41.3
297.306	88.4
297.52	-3.75
297.735	22.87
297.949	8.53
298.164	53.59
298.378	12.63
298.593	-3.75
298.807	-24.23
299.022	-67.24
299.236	-24.23
299.451	102.74
299.665	-5.8
299.88	63.83
300.094	12.63
300.309	6.49
300.523	-38.57
300.737	53.59
300.952	2.39
301.166	-34.47
301.381	-24.23
301.595	4.44
301.809	45.4
302.024	61.78
302.238	-3.75
302.452	31.06
302.667	49.49
302.881	26.96
303.095	18.77
303.309	29.01
303.524	72.02
303.738	98.64
303.952	12.63
304.166	-11.95
304.381	10.58
304.595	45.4
304.809	4.44
305.023	84.31
305.237	20.82
305.452	22.87
305.666	29.01
305.88	53.59
306.094	-36.52
306.308	106.84
306.522	106.84
306.736	55.64
306.95	31.06
307.164	0.34
307.379	61.78
307.593	69.97
307.807	37.2
308.021	43.35
308.235	14.68
308.449	12.63
308.663	16.73
308.877	31.06
309.091	69.97
309.305	-9.9
309.519	0.34
309.733	20.82
309.947	-20.14
310.161	61.78
310.374	6.49
310.588	45.4
310.802	16.73
311.016	-46.76
311.23	67.92
311.444	22.87
311.658	-7.85
311.872	55.64
312.085	88.4
312.299	24.92
312.513	14.68
312.727	-7.85
312.941	14.68
313.154	45.4
313.368	22.87
313.582	14.68
313.796	-18.09
314.009	14.68
314.223	45.4
314.437	29.01
314.651	53.59
314.864	-9.9
315.078	-24.23
315.292	69.97
315.505	-18.09
315.719	22.87
315.933	-9.9
316.146	14.68
316.36	-26.28
316.573	-42.67
316.787	41.3
317.001	2.39
317.214	29.01
317.428	20.82
317.641	-73.39
317.855	37.2
318.068	121.17
318.282	-13.99
318.495	41.3
318.709	88.4
318.922	-16.04
319.136	88.4
319.349	6.49
319.563	24.92
319.776	24.92
319.99	8.53
320.203	33.11
320.417	-1.71
320.63	108.88
320.843	98.64
321.057	-5.8
321.27	6.49
321.483	-3.75
321.697	43.35
321.91	-20.14
322.124	37.2
322.337	16.73
322.55	-24.23
322.763	65.88
322.977	45.4
323.19	-118.44
323.403	92.5
323.617	31.06
323.83	55.64
324.043	57.68
324.256	6.49
324.469	-48.81
324.683	119.12
324.896	49.49
325.109	2.39
325.322	20.82
325.535	45.4
325.748	29.01
325.962	37.2
326.175	98.64
326.388	12.63
326.601	49.49
326.814	-20.14
327.027	-11.95
327.24	78.16
327.453	-1.71
327.666	22.87
327.879	-30.38
328.092	74.07
328.305	29.01
328.518	14.68
328.731	24.92
328.944	22.87
329.157	67.92
329.37	-48.81
329.583	96.6
329.796	37.2
330.009	-97.96
330.222	53.59
330.435	31.06
330.648	-1.71
330.861	39.25
331.073	12.63
331.286	29.01
331.499	65.88
331.712	-18.09
331.925	8.53
332.138	-40.62
332.35	104.79
332.563	-16.04
332.776	106.84
332.989	-26.28
333.202	96.6
333.414	12.63
333.627	24.92
333.84	82.26
334.053	74.07
334.265	80.21
334.478	2.39
334.691	86.36
334.903	37.2
335.116	65.88
335.329	22.87
335.541	-24.23
335.754	86.36
335.966	14.68
336.179	4.44
336.392	29.01
336.604	12.63
336.817	29.01
337.029	102.74
337.242	67.92
337.454	88.4
337.667	96.6
337.88	4.44
338.092	-36.52
338.305	41.3
338.517	65.88
338.729	43.35
338.942	112.98
339.154	49.49
339.367	-3.75
339.579	31.06
339.792	10.58
340.004	35.16
340.217	-16.04
340.429	24.92
340.641	45.4
340.854	20.82
341.066	-1.71
341.278	31.06
341.491	10.58
341.703	12.63
341.915	-1.71
342.128	100.69
342.34	-20.14
342.552	-36.52
342.764	53.59
342.977	78.16
343.189	61.78
343.401	12.63
343.613	65.88
343.826	24.92
344.038	-44.71
344.25	63.83
344.462	8.53
344.674	14.68
344.886	-16.04
345.099	53.59
345.311	-42.67
345.523	47.44
345.735	-26.28
345.947	-11.95
346.159	45.4
346.371	65.88
346.583	10.58
346.795	88.4
347.007	4.44
347.219	39.25
347.431	78.16
347.643	-5.8
347.855	24.92
348.067	31.06
348.279	57.68
348.491	61.78
348.703	-48.81
348.915	22.87
349.127	72.02
349.339	-22.19
349.551	-28.33
349.763	-9.9
349.975	-20.14
350.187	61.78
350.399	-73.39
350.61	53.59
350.822	35.16
351.034	2.39
351.246	4.44
351.458	53.59
351.669	37.2
351.881	74.07
352.093	29.01
352.305	20.82
352.517	69.97
352.728	67.92
352.94	82.26
353.152	61.78
353.363	6.49
353.575	37.2
353.787	-1.71
353.999	29.01
354.21	78.16
354.422	31.06
354.633	12.63
354.845	43.35
355.057	41.3
355.268	55.64
355.48	96.6
355.692	-52.91
355.903	24.92
356.115	37.2
356.326	-65.19
356.538	47.44
356.749	-32.43
356.961	12.63
357.172	24.92
357.384	6.49
357.595	63.83
357.807	12.63
358.018	-16.04
358.23	-28.33
358.441	82.26
358.653	129.36
358.864	31.06
359.075	29.01
359.287	26.96
359.498	80.21
359.709	-3.75
359.921	63.83
360.132	24.92
360.344	31.06
360.555	29.01
360.766	31.06
360.977	86.36
361.189	41.3
361.4	94.55
361.611	108.88
361.823	69.97
362.034	67.92
362.245	18.77
362.456	-3.75
362.667	51.54
362.879	-11.95
363.09	-40.62
363.301	10.58
363.512	-24.23
363.723	61.78
363.935	39.25
364.146	-20.14
364.357	104.79
364.568	72.02
364.779	24.92
364.99	94.55
365.201	-11.95
365.412	90.45
365.623	-28.33
365.834	31.06
366.045	37.2
366.256	33.11
366.467	45.4
366.678	-75.43
366.889	-3.75
367.1	12.63
367.311	20.82
367.522	29.01
367.733	69.97
367.944	74.07
368.155	4.44
368.366	31.06
368.577	57.68
368.788	33.11
368.999	51.54
369.209	53.59
369.42	45.4
369.631	117.08
369.842	12.63
370.053	-3.75
370.264	76.12
370.474	53.59
370.685	55.64
370.896	37.2
371.107	20.82
371.317	-46.76
371.528	-1.71
371.739	-28.33
371.95	53.59
372.16	-7.85
372.371	16.73
372.582	-36.52
372.792	4.44
373.003	47.44
373.214	29.01
373.424	-32.43
373.635	94.55
373.846	31.06
374.056	6.49
374.267	57.68
374.477	74.07
374.688	39.25
374.898	8.53
375.109	4.44
375.319	-11.95
375.53	20.82
375.74	57.68
375.951	63.83
376.161	-20.14
376.372	29.01
376.582	43.35
376.793	63.83
377.003	18.77
377.214	-77.48
377.424	-16.04
377.635	88.4
377.845	39.25
378.055	45.4
378.266	-93.87
378.476	63.83
378.686	-28.33
378.897	-28.33
379.107	8.53
379.317	-1.71
379.528	86.36
379.738	14.68
379.948	-36.52
380.158	69.97
380.369	-20.14
380.579	90.45
380.789	24.92
380.999	39.25
381.21	63.83
381.42	51.54
381.63	12.63
381.84	110.93
382.05	-5.8
382.261	106.84
382.471	2.39
382.681	6.49
382.891	69.97
383.101	-7.85
383.311	-36.52
383.521	-11.95
383.731	102.74
383.941	90.45
384.151	20.82
384.361	72.02
384.571	72.02
384.781	104.79
384.991	33.11
385.201	65.88
385.411	63.83
385.621	88.4
385.831	35.16
386.041	-3.75
386.251	20.82
386.461	20.82
386.671	39.25
386.881	74.07
387.091	92.5
387.301	37.2
387.511	41.3
387.72	55.64
387.93	-52.91
388.14	78.16
388.35	20.82
388.56	106.84
388.769	24.92
388.979	-3.75
389.189	74.07
389.399	84.31
389.609	29.01
389.818	143.7
390.028	65.88
390.238	-3.75
390.447	61.78
390.657	4.44
390.867	-26.28
391.076	4.44
391.286	45.4
391.496	39.25
391.705	2.39
391.915	74.07
392.125	69.97
392.334	61.78
392.544	37.2
392.753	-40.62
392.963	63.83
393.172	33.11
393.382	55.64
393.591	131.41
393.801	78.16
394.01	67.92
394.22	45.4
394.429	-7.85
394.639	4.44
394.848	100.69
395.058	0.34
395.267	110.93
395.477	82.26
395.686	0.34
395.895	110.93
396.105	100.69
396.314	29.01
396.524	63.83
396.733	33.11
396.942	39.25
397.152	61.78
397.361	100.69
397.57	45.4
397.78	33.11
397.989	33.11
398.198	102.74
398.407	57.68
398.617	33.11
398.826	98.64
399.035	110.93
399.244	47.44
399.453	137.56
399.663	94.55
399.872	41.3
400.081	53.59
400.29	115.03
400.499	51.54
400.708	90.45
400.917	92.5
401.127	102.74
401.336	94.55
401.545	143.7
401.754	69.97
401.963	145.75
402.172	96.6
402.381	69.97
402.59	96.6
402.799	98.64
403.008	90.45
403.217	74.07
403.426	121.17
403.635	69.97
403.844	115.03
404.053	184.66
404.262	139.6
404.471	88.4
404.68	82.26
404.888	106.84
405.097	135.51
405.306	129.36
405.515	164.18
405.724	115.03
405.933	121.17
406.142	239.95
406.35	186.71
406.559	96.6
406.768	102.74
406.977	180.56
407.185	121.17
407.394	143.7
407.603	29.01
407.812	121.17
408.02	244.05
408.229	129.36
408.438	258.39
408.646	168.27
408.855	180.56
409.064	188.75
409.272	147.8
409.481	325.97
409.69	223.57
409.898	196.95
410.107	209.23
410.315	285.01
410.524	209.23
410.733	227.67
410.941	293.2
411.15	229.71
411.358	217.43
411.567	416.08
411.775	278.87
411.984	303.44
412.192	309.58
412.401	289.1
412.609	362.83
412.818	352.59
413.026	340.3
413.234	325.97
413.443	346.45
413.651	397.65
413.86	446.8
414.068	438.61
414.276	414.03
414.485	463.18
414.693	491.85
414.901	522.57
415.11	495.95
415.318	514.38
415.526	448.85
415.734	518.48
415.943	536.91
416.151	637.26
416.359	565.58
416.567	645.45
416.776	581.96
416.984	651.6
417.192	756.04
417.4	684.36
417.608	594.25
417.817	778.57
418.025	756.04
418.233	940.36
418.441	790.86
418.649	864.58
418.857	887.11
419.065	1055.05
419.273	977.22
419.481	997.7
419.689	1026.37
419.897	1114.44
420.105	1020.23
420.313	1104.2
420.521	1182.02
420.729	1147.2
420.937	1208.64
421.145	1286.47
421.353	1438.02
421.561	1421.63
421.769	1278.27
421.977	1392.96
422.185	1438.02
422.393	1493.31
422.601	1610.04
422.809	1577.28
423.017	1691.96
423.224	1745.21
423.432	1855.8
423.64	1831.23
423.848	1988.92
424.056	1923.38
424.263	2062.65
424.471	2074.93
424.679	2099.51
424.887	2185.52
425.094	2253.11
425.302	2259.25
425.51	2289.97
425.718	2431.28
425.925	2490.67
426.133	2588.97
426.341	2674.99
426.548	2693.42
426.756	2818.35
426.964	2822.44
427.171	2890.03
427.379	3060.01
427.586	3129.64
427.794	3246.37
428.001	3244.32
428.209	3582.24
428.417	3463.46
428.624	3658.01
428.832	3772.7
429.039	3641.63
429.247	3637.53
429.454	4116.76
429.662	4208.92
429.869	3952.92
430.076	4270.36
430.284	4280.6
430.491	4358.42
430.699	4718.86
430.906	4536.59
431.114	4602.13
431.321	4782.35
431.528	4755.72
431.736	5312.77
431.943	5454.08
432.15	5265.67
432.358	5316.87
432.565	5699.84
432.772	5544.19
432.979	6074.62
433.187	5886.2
433.394	6228.21
433.601	6598.9
433.808	6512.88
434.016	6328.56
434.223	6766.83
434.43	7164.14
434.637	6902
434.844	7506.15
435.052	7475.43
435.259	7569.63
435.466	7590.11
435.673	7524.58
435.88	8102.11
436.087	8417.49
436.294	8204.5
436.501	8179.93
436.708	8206.55
436.915	8638.67
437.122	9023.69
437.329	8806.61
437.537	9093.32
437.743	9302.22
437.95	9300.17
438.157	9806.02
438.364	10318.01
438.571	10139.83
438.778	10301.62
438.985	10868.91
439.192	10604.72
439.399	11149.48
439.606	10703.03
439.813	11243.69
440.02	11962.53
440.227	11993.25
440.433	11620.52
440.64	11993.25
440.847	11944.1
441.054	12460.18
441.261	13009.04
441.467	12963.98
441.674	13152.4
441.881	13611.14
442.088	13574.28
442.294	13361.29
442.501	13955.2
442.708	14256.25
442.914	14471.29
443.121	15519.85
443.328	14880.88
443.534	15966.31
443.741	15462.51
443.948	14950.51
444.154	16265.31
444.361	16584.79
444.568	16404.57
444.774	16506.97
444.981	16543.83
445.187	17104.98
445.394	17772.61
445.6	17537.1
445.807	19114.03
446.013	17954.88
446.22	18665.53
446.426	19329.07
446.633	19480.62
446.839	20221.98
447.046	19347.5
447.252	20391.97
447.459	20324.38
447.665	20430.88
447.871	21313.55
448.078	22263.81
448.284	21243.92
448.491	22046.72
448.697	22564.86
448.903	23013.37
449.11	23056.37
449.316	22829.05
449.522	23207.92
449.728	23861.23
449.935	24053.73
450.141	24078.31
450.347	24860.63
450.553	23592.94
450.76	24170.47
450.966	24965.08
451.172	24426.46
451.378	25272.28
451.584	24727.52
451.791	25360.34
451.997	25327.57
452.203	25487.31
452.409	25552.85
452.615	25413.59
452.821	24745.95
453.027	24408.03
453.233	25901
453.44	24557.53
453.646	24772.57
453.852	24958.94
454.058	25704.4
454.264	24805.34
454.47	25051.1
454.676	24573.92
454.882	25499.6
455.088	23586.8
455.294	23832.55
455.5	24035.3
455.705	24324.07
455.911	22958.07
456.117	22681.6
456.323	22587.39
456.529	21372.94
456.735	22458.37
456.941	21678.09
457.147	21655.56
457.352	20723.74
457.558	20662.3
457.764	20652.06
457.97	20181.03
458.176	19955.75
458.381	20027.43
458.587	18976.82
458.793	18810.93
458.999	17887.3
459.204	19337.26
459.41	18645.05
459.616	17391.69
459.821	17555.53
460.027	17498.19
460.233	17209.42
460.438	16341.08
460.644	16429.15
460.85	15550.57
461.055	15401.07
461.261	15609.96
461.466	14319.74
461.672	13897.86
461.878	14731.38
462.083	14037.12
462.289	13602.95
462.494	13609.09
462.7	12732.56
462.905	12542.1
463.111	13033.61
463.316	12781.71
463.522	12597.4
463.727	12724.37
463.932	12519.57
464.138	12466.33
464.343	12730.52
464.549	12390.55
464.754	12810.39
464.959	12755.09
465.165	12359.83
465.37	11833.5
465.575	11702.43
465.781	12105.88
465.986	12226.71
466.191	11718.82
466.397	11268.27
466.602	10993.84
466.807	11477.16
467.012	11524.26
467.218	11456.68
467.423	10997.93
467.628	11268.27
467.833	11692.19
