Data from USB4F104151__159__14-44-41-838.txt Node

Date: Thu Mar 13 14:44:41 EDT 2025
User: louis
Spectrometer: USB4F10415
Trigger mode: 4
Integration Time (sec): 2.000000E-2
Scans to average: 1
Electric dark correction enabled: true
Nonlinearity correction enabled: false
Boxcar width: 0
XAxis mode: Wavelengths
Number of Pixels in Spectrum: 3648
>>>>>Begin Spectral Data<<<<<
178.204	-84.31
178.424	-84.31
178.644	-84.31
178.864	-125.27
179.084	-69.97
179.304	-20.82
179.524	-10.58
179.744	-45.4
179.964	63.15
180.184	42.67
180.404	20.14
180.624	-6.49
180.844	1.71
181.064	-10.58
181.283	-4.44
181.503	-10.58
181.723	-18.77
181.943	-90.45
182.163	57
182.383	-76.12
182.602	7.85
182.822	30.38
183.042	7.85
183.262	38.57
183.482	40.62
183.701	-94.55
183.921	-45.4
184.141	3.75
184.361	-0.34
184.58	28.33
184.8	28.33
185.02	-26.96
185.239	59.05
185.459	7.85
185.679	-4.44
185.898	-49.49
186.118	44.71
186.338	40.62
186.557	28.33
186.777	13.99
186.997	-0.34
187.216	-16.73
187.436	52.91
187.655	-49.49
187.875	36.52
188.095	-12.63
188.314	7.85
188.534	18.09
188.753	-76.12
188.973	57
189.192	52.91
189.412	-53.59
189.631	-4.44
189.851	-45.4
190.07	110.25
190.29	-57.68
190.509	-45.4
190.729	-26.96
190.948	28.33
191.168	79.53
191.387	-57.68
191.607	-61.78
191.826	-12.63
192.045	57
192.265	13.99
192.484	-26.96
192.704	-16.73
192.923	-45.4
193.142	36.52
193.362	-49.49
193.581	22.19
193.8	-12.63
194.02	-0.34
194.239	-65.88
194.458	32.43
194.678	30.38
194.897	16.04
195.116	-16.73
195.335	38.57
195.555	38.57
195.774	1.71
195.993	36.52
196.212	11.95
196.432	22.19
196.651	-63.83
196.87	-59.73
197.089	16.04
197.308	61.1
197.528	57
197.747	36.52
197.966	13.99
198.185	61.1
198.404	63.15
198.623	16.04
198.842	16.04
199.062	52.91
199.281	28.33
199.5	11.95
199.719	5.8
199.938	48.81
200.157	32.43
200.376	-0.34
200.595	63.15
200.814	-26.96
201.033	-26.96
201.252	52.91
201.471	24.23
201.69	42.67
201.909	-20.82
202.128	57
202.347	18.09
202.566	-12.63
202.785	-33.11
203.004	-31.06
203.223	11.95
203.442	20.14
203.661	-18.77
203.879	-61.78
204.098	11.95
204.317	-57.68
204.536	40.62
204.755	73.39
204.974	-12.63
205.193	11.95
205.411	54.95
205.63	-12.63
205.849	69.29
206.068	-35.16
206.287	18.09
206.505	89.77
206.724	-45.4
206.943	50.86
207.162	-33.11
207.381	11.95
207.599	-29.01
207.818	18.09
208.037	-4.44
208.255	-37.2
208.474	65.19
208.693	9.9
208.911	3.75
209.13	-24.92
209.349	32.43
209.567	-2.39
209.786	7.85
210.005	61.1
210.223	-29.01
210.442	5.8
210.661	24.23
210.879	-4.44
211.098	-16.73
211.316	3.75
211.535	38.57
211.753	34.47
211.972	-4.44
212.191	5.8
212.409	24.23
212.628	-8.53
212.846	28.33
213.065	46.76
213.283	85.67
213.502	7.85
213.72	11.95
213.938	-6.49
214.157	-24.92
214.375	1.71
214.594	-53.59
214.812	24.23
215.031	81.58
215.249	-8.53
215.467	-12.63
215.686	-39.25
215.904	65.19
216.122	-6.49
216.341	32.43
216.559	-4.44
216.778	28.33
216.996	16.04
217.214	20.14
217.432	-55.64
217.651	28.33
217.869	-53.59
218.087	-2.39
218.306	-80.21
218.524	69.29
218.742	38.57
218.96	81.58
219.179	77.48
219.397	5.8
219.615	32.43
219.833	11.95
220.051	-31.06
220.27	48.81
220.488	3.75
220.706	32.43
220.924	36.52
221.142	-37.2
221.36	24.23
221.578	22.19
221.796	-20.82
222.015	-2.39
222.233	-4.44
222.451	40.62
222.669	-57.68
222.887	48.81
223.105	-18.77
223.323	5.8
223.541	24.23
223.759	3.75
223.977	5.8
224.195	77.48
224.413	-29.01
224.631	-37.2
224.849	-0.34
225.067	77.48
225.285	-67.92
225.503	61.1
225.721	-86.36
225.939	-20.82
226.157	5.8
226.375	77.48
226.592	-22.87
226.81	32.43
227.028	16.04
227.246	69.29
227.464	-31.06
227.682	20.14
227.9	3.75
228.117	-0.34
228.335	54.95
228.553	-2.39
228.771	44.71
228.989	38.57
229.206	-41.3
229.424	9.9
229.642	87.72
229.86	-0.34
230.077	48.81
230.295	3.75
230.513	32.43
230.731	3.75
230.948	63.15
231.166	-4.44
231.384	-63.83
231.601	-59.73
231.819	22.19
232.037	81.58
232.254	11.95
232.472	5.8
232.689	9.9
232.907	26.28
233.125	-51.54
233.342	73.39
233.56	-35.16
233.777	-2.39
233.995	57
234.213	36.52
234.43	40.62
234.648	-26.96
234.865	20.14
235.083	5.8
235.3	20.14
235.518	77.48
235.735	20.14
235.953	-37.2
236.17	-4.44
236.388	87.72
236.605	9.9
236.822	46.76
237.04	48.81
237.257	61.1
237.475	-6.49
237.692	-26.96
237.909	-16.73
238.127	-29.01
238.344	28.33
238.562	-12.63
238.779	-29.01
238.996	38.57
239.214	-35.16
239.431	13.99
239.648	77.48
239.865	54.95
240.083	3.75
240.3	59.05
240.517	-49.49
240.735	50.86
240.952	20.14
241.169	-29.01
241.386	46.76
241.603	24.23
241.821	-61.78
242.038	-2.39
242.255	11.95
242.472	-49.49
242.689	13.99
242.907	32.43
243.124	-4.44
243.341	-41.3
243.558	-80.21
243.775	30.38
243.992	-37.2
244.209	79.53
244.426	44.71
244.643	20.14
244.86	20.14
245.078	34.47
245.295	36.52
245.512	26.28
245.729	-47.44
245.946	42.67
246.163	30.38
246.38	-0.34
246.597	52.91
246.814	-16.73
247.031	89.77
247.248	63.15
247.464	-37.2
247.681	-12.63
247.898	-2.39
248.115	11.95
248.332	1.71
248.549	48.81
248.766	69.29
248.983	44.71
249.2	-8.53
249.417	-0.34
249.633	-14.68
249.85	5.8
250.067	-12.63
250.284	-33.11
250.501	52.91
250.717	48.81
250.934	5.8
251.151	38.57
251.368	-29.01
251.585	-16.73
251.801	-0.34
252.018	-26.96
252.235	54.95
252.451	38.57
252.668	57
252.885	16.04
253.102	16.04
253.318	57
253.535	48.81
253.752	20.14
253.968	-14.68
254.185	24.23
254.401	44.71
254.618	5.8
254.835	-12.63
255.051	11.95
255.268	-12.63
255.484	-33.11
255.701	-12.63
255.917	-10.58
256.134	-24.92
256.351	11.95
256.567	13.99
256.784	-14.68
257	-110.93
257.217	71.34
257.433	-14.68
257.65	77.48
257.866	-29.01
258.082	-106.84
258.299	-88.4
258.515	-20.82
258.732	-49.49
258.948	13.99
259.165	-10.58
259.381	16.04
259.597	20.14
259.814	-10.58
260.03	-10.58
260.246	32.43
260.463	7.85
260.679	93.87
260.895	11.95
261.112	16.04
261.328	-10.58
261.544	-31.06
261.761	46.76
261.977	-0.34
262.193	-16.73
262.409	-2.39
262.626	28.33
262.842	40.62
263.058	13.99
263.274	7.85
263.49	61.1
263.707	-6.49
263.923	-45.4
264.139	-26.96
264.355	11.95
264.571	52.91
264.787	38.57
265.004	63.15
265.22	20.14
265.436	-0.34
265.652	-47.44
265.868	69.29
266.084	-43.35
266.3	-20.82
266.516	3.75
266.732	-4.44
266.948	-2.39
267.164	-45.4
267.38	67.24
267.596	11.95
267.812	-37.2
268.028	5.8
268.244	7.85
268.46	-49.49
268.676	48.81
268.892	28.33
269.108	22.19
269.324	40.62
269.54	-45.4
269.756	-14.68
269.972	-65.88
270.188	-61.78
270.403	-18.77
270.619	-35.16
270.835	46.76
271.051	5.8
271.267	50.86
271.483	-10.58
271.698	20.14
271.914	52.91
272.13	61.1
272.346	-0.34
272.562	-14.68
272.777	5.8
272.993	-100.69
273.209	28.33
273.425	48.81
273.64	-33.11
273.856	59.05
274.072	-61.78
274.287	-16.73
274.503	-6.49
274.719	-4.44
274.934	5.8
275.15	-16.73
275.366	-33.11
275.581	-12.63
275.797	3.75
276.012	-29.01
276.228	32.43
276.444	-53.59
276.659	69.29
276.875	-65.88
277.09	22.19
277.306	-35.16
277.521	79.53
277.737	-53.59
277.952	67.24
278.168	-0.34
278.383	9.9
278.599	-2.39
278.814	36.52
279.03	54.95
279.245	50.86
279.461	34.47
279.676	-20.82
279.892	-39.25
280.107	-39.25
280.322	11.95
280.538	-20.82
280.753	-55.64
280.969	34.47
281.184	-4.44
281.399	71.34
281.615	-51.54
281.83	-10.58
282.045	-12.63
282.26	77.48
282.476	7.85
282.691	-16.73
282.906	32.43
283.122	11.95
283.337	-2.39
283.552	26.28
283.767	-29.01
283.983	54.95
284.198	-20.82
284.413	7.85
284.628	-137.56
284.843	-29.01
285.058	-14.68
285.274	-24.92
285.489	-20.82
285.704	-35.16
285.919	83.63
286.134	-45.4
286.349	-12.63
286.564	11.95
286.779	13.99
286.995	3.75
287.21	-43.35
287.425	110.25
287.64	-20.82
287.855	-18.77
288.07	-22.87
288.285	20.14
288.5	-10.58
288.715	20.14
288.93	-16.73
289.145	-45.4
289.36	52.91
289.575	22.19
289.79	95.91
290.004	11.95
290.219	59.05
290.434	13.99
290.649	5.8
290.864	-69.97
291.079	61.1
291.294	36.52
291.509	-53.59
291.724	-24.92
291.938	79.53
292.153	24.23
292.368	24.23
292.583	57
292.798	44.71
293.012	9.9
293.227	-29.01
293.442	28.33
293.657	1.71
293.871	38.57
294.086	32.43
294.301	20.14
294.516	-29.01
294.73	3.75
294.945	69.29
295.16	-4.44
295.374	65.19
295.589	26.28
295.804	-26.96
296.018	-8.53
296.233	61.1
296.447	16.04
296.662	3.75
296.877	67.24
297.091	-0.34
297.306	-2.39
297.52	40.62
297.735	-20.82
297.949	24.23
298.164	-12.63
298.378	-47.44
298.593	-10.58
298.807	30.38
299.022	-8.53
299.236	13.99
299.451	13.99
299.665	-39.25
299.88	-29.01
300.094	-86.36
300.309	16.04
300.523	13.99
300.737	-12.63
300.952	61.1
301.166	73.39
301.381	-41.3
301.595	-43.35
301.809	-43.35
302.024	-8.53
302.238	-24.92
302.452	38.57
302.667	38.57
302.881	79.53
303.095	-53.59
303.309	71.34
303.524	3.75
303.738	36.52
303.952	22.19
304.166	7.85
304.381	-20.82
304.595	36.52
304.809	-4.44
305.023	28.33
305.237	106.15
305.452	-29.01
305.666	-2.39
305.88	46.76
306.094	93.87
306.308	-4.44
306.522	104.11
306.736	30.38
306.95	-6.49
307.164	-8.53
307.379	48.81
307.593	52.91
307.807	61.1
308.021	36.52
308.235	36.52
308.449	-10.58
308.663	-26.96
308.877	32.43
309.091	-29.01
309.305	28.33
309.519	-24.92
309.733	65.19
309.947	-16.73
310.161	85.67
310.374	32.43
310.588	-16.73
310.802	-84.31
311.016	52.91
311.23	30.38
311.444	42.67
311.658	-12.63
311.872	5.8
312.085	18.09
312.299	69.29
312.513	63.15
312.727	-12.63
312.941	-2.39
313.154	-35.16
313.368	52.91
313.582	-2.39
313.796	-61.78
314.009	93.87
314.223	61.1
314.437	22.19
314.651	38.57
314.864	48.81
315.078	-2.39
315.292	-24.92
315.505	-14.68
315.719	-37.2
315.933	5.8
316.146	-37.2
316.36	-8.53
316.573	93.87
316.787	-20.82
317.001	52.91
317.214	-35.16
317.428	22.19
317.641	93.87
317.855	-45.4
318.068	24.23
318.282	-29.01
318.495	-26.96
318.709	-16.73
318.922	-20.82
319.136	71.34
319.349	77.48
319.563	48.81
319.776	32.43
319.99	40.62
320.203	40.62
320.417	110.25
320.63	71.34
320.843	44.71
321.057	32.43
321.27	46.76
321.483	104.11
321.697	-22.87
321.91	3.75
322.124	-39.25
322.337	-20.82
322.55	3.75
322.763	-26.96
322.977	52.91
323.19	16.04
323.403	24.23
323.617	54.95
323.83	36.52
324.043	40.62
324.256	5.8
324.469	-41.3
324.683	52.91
324.896	-65.88
325.109	-14.68
325.322	-0.34
325.535	71.34
325.748	-20.82
325.962	-45.4
326.175	54.95
326.388	-4.44
326.601	-10.58
326.814	48.81
327.027	36.52
327.24	38.57
327.453	-55.64
327.666	44.71
327.879	61.1
328.092	-29.01
328.305	-16.73
328.518	11.95
328.731	-49.49
328.944	11.95
329.157	5.8
329.37	-53.59
329.583	104.11
329.796	79.53
330.009	-59.73
330.222	104.11
330.435	-8.53
330.648	-45.4
330.861	48.81
331.073	28.33
331.286	83.63
331.499	44.71
331.712	-82.26
331.925	71.34
332.138	-57.68
332.35	61.1
332.563	-43.35
332.776	3.75
332.989	-10.58
333.202	-20.82
333.414	20.14
333.627	-20.82
333.84	20.14
334.053	65.19
334.265	52.91
334.478	22.19
334.691	-18.77
334.903	77.48
335.116	-37.2
335.329	13.99
335.541	52.91
335.754	71.34
335.966	11.95
336.179	22.19
336.392	-16.73
336.604	-6.49
336.817	18.09
337.029	-20.82
337.242	11.95
337.454	116.39
337.667	-20.82
337.88	97.96
338.092	-10.58
338.305	-8.53
338.517	52.91
338.729	24.23
338.942	28.33
339.154	-24.92
339.367	-69.97
339.579	22.19
339.792	16.04
340.004	-4.44
340.217	-16.73
340.429	-82.26
340.641	-76.12
340.854	28.33
341.066	89.77
341.278	32.43
341.491	-22.87
341.703	-4.44
341.915	3.75
342.128	102.06
342.34	-20.82
342.552	32.43
342.764	9.9
342.977	-61.78
343.189	-31.06
343.401	9.9
343.613	-78.16
343.826	1.71
344.038	-37.2
344.25	151.21
344.462	-51.54
344.674	-12.63
344.886	-59.73
345.099	16.04
345.311	11.95
345.523	-8.53
345.735	-12.63
345.947	1.71
346.159	63.15
346.371	71.34
346.583	30.38
346.795	36.52
347.007	50.86
347.219	-4.44
347.431	40.62
347.643	9.9
347.855	18.09
348.067	63.15
348.279	11.95
348.491	38.57
348.703	59.05
348.915	-2.39
349.127	-20.82
349.339	3.75
349.551	44.71
349.763	5.8
349.975	63.15
350.187	44.71
350.399	52.91
350.61	63.15
350.822	22.19
351.034	3.75
351.246	20.14
351.458	11.95
351.669	-43.35
351.881	-0.34
352.093	13.99
352.305	104.11
352.517	77.48
352.728	28.33
352.94	3.75
353.152	61.1
353.363	-53.59
353.575	44.71
353.787	73.39
353.999	13.99
354.21	52.91
354.422	-43.35
354.633	-6.49
354.845	16.04
355.057	54.95
355.268	9.9
355.48	16.04
355.692	-35.16
355.903	5.8
356.115	5.8
356.326	-31.06
356.538	71.34
356.749	16.04
356.961	52.91
357.172	-63.83
357.384	5.8
357.595	73.39
357.807	22.19
358.018	-41.3
358.23	-20.82
358.441	28.33
358.653	32.43
358.864	-20.82
359.075	-45.4
359.287	20.14
359.498	69.29
359.709	50.86
359.921	65.19
360.132	-0.34
360.344	28.33
360.555	7.85
360.766	52.91
360.977	-37.2
361.189	-16.73
361.4	5.8
361.611	38.57
361.823	1.71
362.034	85.67
362.245	-37.2
362.456	22.19
362.667	-33.11
362.879	-10.58
363.09	-12.63
363.301	-41.3
363.512	28.33
363.723	57
363.935	-90.45
364.146	73.39
364.357	-49.49
364.568	11.95
364.779	-10.58
364.99	46.76
365.201	13.99
365.412	20.14
365.623	-61.78
365.834	77.48
366.045	-18.77
366.256	59.05
366.467	-20.82
366.678	-8.53
366.889	-43.35
367.1	5.8
367.311	97.96
367.522	-4.44
367.733	-26.96
367.944	36.52
368.155	-4.44
368.366	44.71
368.577	63.15
368.788	3.75
368.999	11.95
369.209	61.1
369.42	93.87
369.631	93.87
369.842	30.38
370.053	-26.96
370.264	85.67
370.474	22.19
370.685	28.33
370.896	61.1
371.107	48.81
371.317	97.96
371.528	54.95
371.739	52.91
371.95	38.57
372.16	-20.82
372.371	-18.77
372.582	9.9
372.792	28.33
373.003	54.95
373.214	87.72
373.424	44.71
373.635	-20.82
373.846	71.34
374.056	5.8
374.267	54.95
374.477	65.19
374.688	24.23
374.898	77.48
375.109	-10.58
375.319	-29.01
375.53	63.15
375.74	61.1
375.951	54.95
376.161	7.85
376.372	7.85
376.582	-12.63
376.793	28.33
377.003	-39.25
377.214	-35.16
377.424	20.14
377.635	48.81
377.845	54.95
378.055	69.29
378.266	54.95
378.476	38.57
378.686	97.96
378.897	-4.44
379.107	77.48
379.317	28.33
379.528	-65.88
379.738	-4.44
379.948	-2.39
380.158	85.67
380.369	67.24
380.579	-31.06
380.789	46.76
380.999	24.23
381.21	54.95
381.42	44.71
381.63	-0.34
381.84	-10.58
382.05	7.85
382.261	24.23
382.471	63.15
382.681	24.23
382.891	24.23
383.101	-12.63
383.311	-12.63
383.521	32.43
383.731	-59.73
383.941	32.43
384.151	50.86
384.361	28.33
384.571	89.77
384.781	32.43
384.991	28.33
385.201	102.06
385.411	59.05
385.621	3.75
385.831	-6.49
386.041	32.43
386.251	13.99
386.461	108.2
386.671	16.04
386.881	1.71
387.091	-20.82
387.301	61.1
387.511	13.99
387.72	71.34
387.93	63.15
388.14	-10.58
388.35	-35.16
388.56	85.67
388.769	-14.68
388.979	77.48
389.189	11.95
389.399	65.19
389.609	20.14
389.818	104.11
390.028	7.85
390.238	89.77
390.447	3.75
390.657	54.95
390.867	28.33
391.076	16.04
391.286	13.99
391.496	42.67
391.705	9.9
391.915	-0.34
392.125	-12.63
392.334	52.91
392.544	28.33
392.753	28.33
392.963	73.39
393.172	38.57
393.382	65.19
393.591	73.39
393.801	-12.63
394.01	42.67
394.22	36.52
394.429	52.91
394.639	114.34
394.848	5.8
395.058	87.72
395.267	71.34
395.477	52.91
395.686	-69.97
395.895	149.16
396.105	77.48
396.314	52.91
396.524	44.71
396.733	30.38
396.942	138.92
397.152	24.23
397.361	93.87
397.57	67.24
397.78	11.95
397.989	87.72
398.198	65.19
398.407	28.33
398.617	65.19
398.826	87.72
399.035	28.33
399.244	95.91
399.453	13.99
399.663	-2.39
399.872	97.96
400.081	-0.34
400.29	52.91
400.499	-12.63
400.708	77.48
400.917	24.23
401.127	63.15
401.336	61.1
401.545	147.11
401.754	73.39
401.963	149.16
402.172	48.81
402.381	114.34
402.59	122.54
402.799	100.01
403.008	79.53
403.217	110.25
403.426	61.1
403.635	118.44
403.844	44.71
404.053	73.39
404.262	108.2
404.471	153.26
404.68	110.25
404.888	63.15
405.097	100.01
405.306	136.87
405.515	106.15
405.724	153.26
405.933	132.78
406.142	159.4
406.35	122.54
406.559	134.82
406.768	157.35
406.977	130.73
407.185	83.63
407.394	143.02
407.603	77.48
407.812	163.5
408.02	196.26
408.229	175.78
408.438	196.26
408.646	179.88
408.855	134.82
409.064	261.8
409.272	147.11
409.481	198.31
409.69	202.41
409.898	210.6
410.107	186.02
410.315	235.18
410.524	204.46
410.733	276.13
410.941	235.18
411.15	274.09
411.358	321.19
411.567	374.44
411.775	315.05
411.984	280.23
412.192	292.52
412.401	282.28
412.609	409.25
412.818	388.77
413.026	315.05
413.234	364.2
413.443	321.19
413.651	405.16
413.86	386.72
414.068	489.12
414.276	503.46
414.485	435.88
414.693	458.4
414.901	511.65
415.11	507.55
415.318	439.97
415.526	509.6
415.734	614.05
415.943	556.71
416.151	718.5
416.359	642.72
416.567	652.96
416.776	693.92
416.984	736.93
417.192	839.33
417.4	661.15
417.608	695.97
417.817	775.84
418.025	911
418.233	908.96
418.441	845.47
418.649	900.76
418.857	1009.31
419.065	1023.64
419.273	964.25
419.481	1009.31
419.689	1097.37
419.897	1044.12
420.105	1152.67
420.313	1169.05
420.521	1226.39
420.729	1265.3
420.937	1339.03
421.145	1248.92
421.353	1361.56
421.561	1504.92
421.769	1474.2
421.977	1543.83
422.185	1445.52
422.393	1660.56
422.601	1742.48
422.809	1752.72
423.017	1724.05
423.224	1896.08
423.432	1887.89
423.64	1865.36
423.848	2039.44
424.056	2008.72
424.263	2051.72
424.471	2088.59
424.679	2256.52
424.887	2256.52
425.094	2399.88
425.302	2510.47
425.51	2430.6
425.718	2619.01
425.925	2559.62
426.133	2735.74
426.341	2848.38
426.548	2952.83
426.756	3038.84
426.964	3069.56
427.171	3110.52
427.379	3255.93
427.586	3348.09
427.794	3411.57
428.001	3606.13
428.209	3612.28
428.417	3747.44
428.624	3929.71
428.832	4066.92
429.039	3886.7
429.247	3845.74
429.454	4294.25
429.662	4456.04
429.869	4290.15
430.076	4550.25
430.284	4474.47
430.491	4726.37
430.699	4939.36
430.906	4787.81
431.114	4935.26
431.321	5174.88
431.528	5238.36
431.736	5516.89
431.943	5758.55
432.15	5602.9
432.358	5705.3
432.565	6008.4
432.772	6004.3
432.979	6114.89
433.187	6360.65
433.394	6452.81
433.601	6854.21
433.808	6680.13
434.016	6952.51
434.223	7149.12
434.43	7499.32
434.637	7253.56
434.844	8005.17
435.052	7855.67
435.259	7966.26
435.466	7939.63
435.673	7921.2
435.88	8498.73
436.087	8795.68
436.294	8859.17
436.501	8781.35
436.708	9053.73
436.915	9397.79
437.122	9657.88
437.329	9432.6
437.537	9868.82
437.743	9877.01
437.95	9801.24
438.157	10477.07
438.364	10743.3
438.571	10835.46
438.778	10776.07
438.985	11822.58
439.192	11406.84
439.399	11810.29
439.606	11488.76
439.813	11914.74
440.02	12797.42
440.227	12668.39
440.433	12285.42
440.64	13004.26
440.847	12703.21
441.054	13043.17
441.261	13946.33
441.467	13897.17
441.674	14159.31
441.881	14587.34
442.088	14550.48
442.294	14267.86
442.501	14675.4
442.708	15037.89
442.914	15570.37
443.121	16311.73
443.328	16053.69
443.534	16860.59
443.741	16475.57
443.948	16061.88
444.154	17307.04
444.361	17425.82
444.568	17415.58
444.774	17702.3
444.981	17685.92
445.187	18296.21
445.394	18603.41
445.6	18853.26
445.807	20510.07
446.013	19568
446.22	19826.04
446.426	20860.27
446.633	21095.78
446.839	21716.32
447.046	20415.86
447.252	22048.09
447.459	21984.6
447.665	21812.57
447.871	22877.52
448.078	23645.51
448.284	22793.55
448.491	23057.74
448.697	23997.76
448.903	24728.88
449.11	24692.02
449.316	24030.52
449.522	24886.57
449.728	25281.83
449.935	25857.31
450.141	25539.88
450.347	26135.84
450.553	25539.88
450.76	25822.5
450.966	26682.64
451.172	26565.91
451.378	26993.93
451.584	26406.17
451.791	26815.76
451.997	27047.18
452.203	27297.03
452.409	27391.24
452.615	27401.48
452.821	26144.03
453.027	25926.94
453.233	27534.6
453.44	26647.83
453.646	26586.39
453.852	26979.6
454.058	27059.47
454.264	26285.34
454.47	27151.63
454.676	26527
454.882	27114.76
455.088	25015.6
455.294	25417
455.5	25705.76
455.705	26086.68
455.911	24816.94
456.117	24618.29
456.323	24110.39
456.529	23211.34
456.735	23924.03
456.941	23512.39
457.147	23106.89
457.352	22488.4
457.558	21955.93
457.764	22414.68
457.97	21523.81
458.176	21224.81
458.381	21519.71
458.587	20135.29
458.793	20278.65
458.999	19129.73
459.204	20573.55
459.41	20032.89
459.616	18720.14
459.821	18783.63
460.027	18619.79
460.233	18529.68
460.438	17358.24
460.644	17530.27
460.85	16655.79
461.055	16420.27
461.261	16528.81
461.466	15334.85
461.672	14775.75
461.878	15664.57
462.083	14900.68
462.289	14388.69
462.494	14267.86
462.7	13856.22
462.905	13524.44
463.111	13737.43
463.316	13776.34
463.522	13592.03
463.727	13612.51
463.932	13549.02
464.138	13280.74
464.343	13479.39
464.549	12963.3
464.754	13536.73
464.959	13409.76
465.165	13213.15
465.37	12766.7
465.575	12482.03
465.781	12824.04
465.986	13084.13
466.191	12375.53
466.397	12334.57
466.602	11711.99
466.807	12086.77
467.012	11918.84
