Data from USB4F104151__84__14-43-30-115.txt Node

Date: Thu Mar 13 14:43:30 EDT 2025
User: louis
Spectrometer: USB4F10415
Trigger mode: 4
Integration Time (sec): 2.000000E-2
Scans to average: 1
Electric dark correction enabled: true
Nonlinearity correction enabled: false
Boxcar width: 0
XAxis mode: Wavelengths
Number of Pixels in Spectrum: 3648
>>>>>Begin Spectral Data<<<<<
178.204	-163.15
178.424	-163.15
178.644	-163.15
178.864	-120.15
179.084	-105.81
179.304	41.64
179.524	-15.7
179.744	31.4
179.964	-5.46
180.184	33.45
180.404	41.64
180.624	-50.52
180.844	-48.47
181.064	-15.7
181.283	-19.8
181.503	-54.61
181.723	62.12
181.943	2.73
182.163	117.42
182.383	98.99
182.602	82.6
182.822	72.36
183.042	94.89
183.262	-30.04
183.482	60.07
183.701	78.51
183.921	25.26
184.141	25.26
184.361	131.75
184.58	80.55
184.8	78.51
185.02	4.78
185.239	58.03
185.459	10.92
185.679	49.83
185.898	-11.61
186.118	123.56
186.338	60.07
186.557	41.64
186.777	-5.46
186.997	25.26
187.216	21.16
187.436	248.49
187.655	19.11
187.875	92.84
188.095	76.46
188.314	119.46
188.534	158.38
188.753	66.22
188.973	49.83
189.192	49.83
189.412	41.64
189.631	148.14
189.851	-15.7
190.07	33.45
190.29	45.74
190.509	96.94
190.729	25.26
190.948	8.87
191.168	133.8
191.387	60.07
191.607	78.51
191.826	66.22
192.045	172.71
192.265	19.11
192.484	33.45
192.704	33.45
192.923	15.02
193.142	121.51
193.362	47.79
193.581	156.33
193.8	90.79
194.02	115.37
194.239	66.22
194.458	88.75
194.678	123.56
194.897	86.7
195.116	90.79
195.335	72.36
195.555	82.6
195.774	62.12
195.993	60.07
196.212	0.68
196.432	66.22
196.651	82.6
196.87	37.55
197.089	62.12
197.308	66.22
197.528	43.69
197.747	-7.51
197.966	72.36
198.185	105.13
198.404	51.88
198.623	137.9
198.842	111.27
199.062	74.41
199.281	101.03
199.5	82.6
199.719	131.75
199.938	156.33
200.157	78.51
200.376	168.62
200.595	98.99
200.814	-3.41
201.033	58.03
201.252	90.79
201.471	27.31
201.69	35.5
201.909	109.23
202.128	76.46
202.347	41.64
202.566	47.79
202.785	41.64
203.004	101.03
203.223	123.56
203.442	90.79
203.661	58.03
203.879	45.74
204.098	68.27
204.317	125.61
204.536	53.93
204.755	94.89
204.974	68.27
205.193	84.65
205.411	119.46
205.63	8.87
205.849	82.6
206.068	27.31
206.287	94.89
206.505	62.12
206.724	107.18
206.943	88.75
207.162	25.26
207.381	103.08
207.599	74.41
207.818	6.83
208.037	31.4
208.255	29.35
208.474	66.22
208.693	35.5
208.911	101.03
209.13	76.46
209.349	115.37
209.567	96.94
209.786	-7.51
210.005	60.07
210.223	76.46
210.442	2.73
210.661	101.03
210.879	150.18
211.098	45.74
211.316	60.07
211.535	68.27
211.753	19.11
211.972	70.31
212.191	27.31
212.409	49.83
212.628	70.31
212.846	92.84
213.065	154.28
213.283	119.46
213.502	74.41
213.72	33.45
213.938	25.26
214.157	68.27
214.375	117.42
214.594	19.11
214.812	-44.37
215.031	98.99
215.249	164.52
215.467	49.83
215.686	27.31
215.904	29.35
216.122	27.31
216.341	123.56
216.559	55.98
216.778	82.6
216.996	53.93
217.214	10.92
217.432	103.08
217.651	58.03
217.869	82.6
218.087	25.26
218.306	98.99
218.524	119.46
218.742	135.85
218.96	94.89
219.179	72.36
219.397	74.41
219.615	82.6
219.833	84.65
220.051	29.35
220.27	160.42
220.488	101.03
220.706	78.51
220.924	107.18
221.142	107.18
221.36	74.41
221.578	90.79
221.796	21.16
222.015	115.37
222.233	21.16
222.451	90.79
222.669	33.45
222.887	135.85
223.105	33.45
223.323	-15.7
223.541	35.5
223.759	53.93
223.977	53.93
224.195	125.61
224.413	74.41
224.631	131.75
224.849	-11.61
225.067	131.75
225.285	123.56
225.503	92.84
225.721	0.68
225.939	105.13
226.157	37.55
226.375	115.37
226.592	37.55
226.81	29.35
227.028	90.79
227.246	139.94
227.464	125.61
227.682	55.98
227.9	33.45
228.117	17.07
228.335	66.22
228.553	35.5
228.771	84.65
228.989	49.83
229.206	64.17
229.424	90.79
229.642	43.69
229.86	66.22
230.077	103.08
230.295	90.79
230.513	107.18
230.731	90.79
230.948	55.98
231.166	51.88
231.384	90.79
231.601	49.83
231.819	92.84
232.037	74.41
232.254	74.41
232.472	25.26
232.689	37.55
232.907	27.31
233.125	58.03
233.342	58.03
233.56	70.31
233.777	49.83
233.995	72.36
234.213	49.83
234.43	43.69
234.648	72.36
234.865	25.26
235.083	94.89
235.3	12.97
235.518	82.6
235.735	84.65
235.953	55.98
236.17	-46.42
236.388	-13.65
236.605	51.88
236.822	90.79
237.04	66.22
237.257	107.18
237.475	-25.94
237.692	0.68
237.909	115.37
238.127	107.18
238.344	131.75
238.562	78.51
238.779	23.21
238.996	55.98
239.214	45.74
239.431	96.94
239.648	-3.41
239.865	92.84
240.083	164.52
240.3	70.31
240.517	51.88
240.735	25.26
240.952	33.45
241.169	103.08
241.386	17.07
241.603	-3.41
241.821	60.07
242.038	123.56
242.255	68.27
242.472	25.26
242.689	103.08
242.907	90.79
243.124	113.32
243.341	60.07
243.558	21.16
243.775	43.69
243.992	33.45
244.209	74.41
244.426	12.97
244.643	70.31
244.86	21.16
245.078	41.64
245.295	45.74
245.512	62.12
245.729	29.35
245.946	160.42
246.163	78.51
246.38	101.03
246.597	119.46
246.814	51.88
247.031	55.98
247.248	82.6
247.464	58.03
247.681	96.94
247.898	76.46
248.115	94.89
248.332	8.87
248.549	139.94
248.766	117.42
248.983	72.36
249.2	0.68
249.417	137.9
249.633	94.89
249.85	10.92
250.067	70.31
250.284	68.27
250.501	33.45
250.717	78.51
250.934	-21.84
251.151	84.65
251.368	107.18
251.585	88.75
251.801	101.03
252.018	0.68
252.235	60.07
252.451	-34.13
252.668	72.36
252.885	33.45
253.102	55.98
253.318	35.5
253.535	25.26
253.752	76.46
253.968	68.27
254.185	62.12
254.401	0.68
254.618	21.16
254.835	27.31
255.051	154.28
255.268	76.46
255.484	58.03
255.701	62.12
255.917	74.41
256.134	92.84
256.351	58.03
256.567	55.98
256.784	19.11
257	2.73
257.217	158.38
257.433	111.27
257.65	82.6
257.866	84.65
258.082	4.78
258.299	41.64
258.515	58.03
258.732	0.68
258.948	25.26
259.165	31.4
259.381	86.7
259.597	90.79
259.814	17.07
260.03	109.23
260.246	41.64
260.463	101.03
260.679	90.79
260.895	76.46
261.112	98.99
261.328	76.46
261.544	111.27
261.761	125.61
261.977	90.79
262.193	19.11
262.409	84.65
262.626	107.18
262.842	41.64
263.058	-15.7
263.274	60.07
263.49	111.27
263.707	62.12
263.923	107.18
264.139	131.75
264.355	66.22
264.571	66.22
264.787	0.68
265.004	64.17
265.22	23.21
265.436	98.99
265.652	49.83
265.868	66.22
266.084	23.21
266.3	74.41
266.516	133.8
266.732	12.97
266.948	86.7
267.164	107.18
267.38	27.31
267.596	103.08
267.812	90.79
268.028	115.37
268.244	70.31
268.46	58.03
268.676	-56.66
268.892	58.03
269.108	29.35
269.324	29.35
269.54	0.68
269.756	119.46
269.972	0.68
270.188	94.89
270.403	29.35
270.619	90.79
270.835	90.79
271.051	43.69
271.267	41.64
271.483	78.51
271.698	60.07
271.914	47.79
272.13	86.7
272.346	82.6
272.562	131.75
272.777	51.88
272.993	82.6
273.209	62.12
273.425	98.99
273.64	4.78
273.856	82.6
274.072	105.13
274.287	45.74
274.503	131.75
274.719	86.7
274.934	84.65
275.15	66.22
275.366	76.46
275.581	25.26
275.797	80.55
276.012	53.93
276.228	39.59
276.444	90.79
276.659	144.04
276.875	43.69
277.09	94.89
277.306	80.55
277.521	86.7
277.737	84.65
277.952	49.83
278.168	82.6
278.383	78.51
278.599	27.31
278.814	103.08
279.03	33.45
279.245	25.26
279.461	8.87
279.676	90.79
279.892	103.08
280.107	15.02
280.322	45.74
280.538	43.69
280.753	68.27
280.969	-7.51
281.184	25.26
281.399	148.14
281.615	49.83
281.83	39.59
282.045	53.93
282.26	51.88
282.476	84.65
282.691	53.93
282.906	35.5
283.122	51.88
283.337	43.69
283.552	129.7
283.767	117.42
283.983	96.94
284.198	82.6
284.413	35.5
284.628	-11.61
284.843	105.13
285.058	90.79
285.274	115.37
285.489	64.17
285.704	74.41
285.919	107.18
286.134	2.73
286.349	90.79
286.564	6.83
286.779	144.04
286.995	60.07
287.21	74.41
287.425	49.83
287.64	70.31
287.855	31.4
288.07	101.03
288.285	131.75
288.5	33.45
288.715	98.99
288.93	86.7
289.145	53.93
289.36	66.22
289.575	53.93
289.79	51.88
290.004	76.46
290.219	139.94
290.434	111.27
290.649	90.79
290.864	43.69
291.079	31.4
291.294	98.99
291.509	12.97
291.724	105.13
291.938	49.83
292.153	43.69
292.368	35.5
292.583	66.22
292.798	66.22
293.012	53.93
293.227	72.36
293.442	-30.04
293.657	62.12
293.871	58.03
294.086	68.27
294.301	74.41
294.516	94.89
294.73	66.22
294.945	76.46
295.16	19.11
295.374	66.22
295.589	90.79
295.804	45.74
296.018	6.83
296.233	49.83
296.447	113.32
296.662	109.23
296.877	78.51
297.091	70.31
297.306	37.55
297.52	98.99
297.735	115.37
297.949	90.79
298.164	35.5
298.378	33.45
298.593	4.78
298.807	47.79
299.022	139.94
299.236	49.83
299.451	23.21
299.665	109.23
299.88	58.03
300.094	37.55
300.309	17.07
300.523	41.64
300.737	60.07
300.952	86.7
301.166	86.7
301.381	35.5
301.595	90.79
301.809	70.31
302.024	94.89
302.238	29.35
302.452	94.89
302.667	107.18
302.881	107.18
303.095	21.16
303.309	135.85
303.524	82.6
303.738	103.08
303.952	51.88
304.166	45.74
304.381	49.83
304.595	74.41
304.809	51.88
305.023	107.18
305.237	41.64
305.452	123.56
305.666	82.6
305.88	115.37
306.094	49.83
306.308	66.22
306.522	60.07
306.736	45.74
306.95	60.07
307.164	98.99
307.379	168.62
307.593	119.46
307.807	82.6
308.021	19.11
308.235	101.03
308.449	4.78
308.663	137.9
308.877	76.46
309.091	62.12
309.305	74.41
309.519	10.92
309.733	107.18
309.947	33.45
310.161	82.6
310.374	76.46
310.588	125.61
310.802	-13.65
311.016	64.17
311.23	43.69
311.444	58.03
311.658	53.93
311.872	78.51
312.085	58.03
312.299	131.75
312.513	68.27
312.727	123.56
312.941	51.88
313.154	47.79
313.368	6.83
313.582	27.31
313.796	72.36
314.009	23.21
314.223	72.36
314.437	58.03
314.651	98.99
314.864	86.7
315.078	51.88
315.292	25.26
315.505	8.87
315.719	60.07
315.933	19.11
316.146	33.45
316.36	8.87
316.573	135.85
316.787	101.03
317.001	76.46
317.214	107.18
317.428	92.84
317.641	66.22
317.855	109.23
318.068	94.89
318.282	80.55
318.495	82.6
318.709	41.64
318.922	82.6
319.136	62.12
319.349	98.99
319.563	37.55
319.776	53.93
319.99	41.64
320.203	51.88
320.417	66.22
320.63	98.99
320.843	82.6
321.057	68.27
321.27	31.4
321.483	90.79
321.697	68.27
321.91	105.13
322.124	0.68
322.337	92.84
322.55	47.79
322.763	-7.51
322.977	53.93
323.19	98.99
323.403	86.7
323.617	86.7
323.83	123.56
324.043	49.83
324.256	41.64
324.469	41.64
324.683	47.79
324.896	107.18
325.109	60.07
325.322	21.16
325.535	107.18
325.748	64.17
325.962	45.74
326.175	66.22
326.388	156.33
326.601	115.37
326.814	90.79
327.027	129.7
327.24	84.65
327.453	-30.04
327.666	98.99
327.879	119.46
328.092	90.79
328.305	25.26
328.518	45.74
328.731	90.79
328.944	78.51
329.157	92.84
329.37	33.45
329.583	144.04
329.796	127.66
330.009	43.69
330.222	27.31
330.435	109.23
330.648	117.42
330.861	86.7
331.073	117.42
331.286	156.33
331.499	78.51
331.712	66.22
331.925	107.18
332.138	58.03
332.35	103.08
332.563	41.64
332.776	78.51
332.989	33.45
333.202	60.07
333.414	70.31
333.627	66.22
333.84	17.07
334.053	84.65
334.265	58.03
334.478	23.21
334.691	64.17
334.903	2.73
335.116	21.16
335.329	117.42
335.541	25.26
335.754	66.22
335.966	8.87
336.179	25.26
336.392	94.89
336.604	17.07
336.817	76.46
337.029	109.23
337.242	49.83
337.454	19.11
337.667	80.55
337.88	133.8
338.092	90.79
338.305	51.88
338.517	107.18
338.729	64.17
338.942	84.65
339.154	60.07
339.367	80.55
339.579	33.45
339.792	21.16
340.004	162.47
340.217	103.08
340.429	103.08
340.641	78.51
340.854	76.46
341.066	35.5
341.278	90.79
341.491	62.12
341.703	60.07
341.915	133.8
342.128	180.9
342.34	60.07
342.552	58.03
342.764	80.55
342.977	117.42
343.189	82.6
343.401	60.07
343.613	8.87
343.826	58.03
344.038	107.18
344.25	150.18
344.462	41.64
344.674	17.07
344.886	70.31
345.099	66.22
345.311	78.51
345.523	105.13
345.735	29.35
345.947	84.65
346.159	76.46
346.371	90.79
346.583	17.07
346.795	158.38
347.007	4.78
347.219	90.79
347.431	60.07
347.643	78.51
347.855	123.56
348.067	117.42
348.279	-9.56
348.491	74.41
348.703	94.89
348.915	43.69
349.127	60.07
349.339	25.26
349.551	111.27
349.763	111.27
349.975	17.07
350.187	107.18
350.399	82.6
350.61	107.18
350.822	55.98
351.034	119.46
351.246	158.38
351.458	72.36
351.669	62.12
351.881	82.6
352.093	68.27
352.305	144.04
352.517	90.79
352.728	92.84
352.94	74.41
353.152	111.27
353.363	-30.04
353.575	21.16
353.787	109.23
353.999	82.6
354.21	109.23
354.422	94.89
354.633	49.83
354.845	70.31
355.057	29.35
355.268	107.18
355.48	66.22
355.692	107.18
355.903	107.18
356.115	35.5
356.326	25.26
356.538	215.72
356.749	41.64
356.961	168.62
357.172	33.45
357.384	53.93
357.595	162.47
357.807	107.18
358.018	31.4
358.23	-7.51
358.441	96.94
358.653	111.27
358.864	74.41
359.075	96.94
359.287	80.55
359.498	62.12
359.709	58.03
359.921	-15.7
360.132	141.99
360.344	66.22
360.555	92.84
360.766	21.16
360.977	64.17
361.189	115.37
361.4	66.22
361.611	82.6
361.823	94.89
362.034	41.64
362.245	41.64
362.456	33.45
362.667	19.11
362.879	53.93
363.09	64.17
363.301	33.45
363.512	33.45
363.723	49.83
363.935	17.07
364.146	119.46
364.357	-13.65
364.568	94.89
364.779	-5.46
364.99	117.42
365.201	41.64
365.412	94.89
365.623	49.83
365.834	111.27
366.045	137.9
366.256	62.12
366.467	148.14
366.678	84.65
366.889	115.37
367.1	72.36
367.311	98.99
367.522	33.45
367.733	33.45
367.944	86.7
368.155	-32.08
368.366	141.99
368.577	76.46
368.788	98.99
368.999	47.79
369.209	78.51
369.42	160.42
369.631	178.86
369.842	101.03
370.053	92.84
370.264	146.09
370.474	37.55
370.685	90.79
370.896	109.23
371.107	109.23
371.317	68.27
371.528	10.92
371.739	10.92
371.95	80.55
372.16	162.47
372.371	45.74
372.582	74.41
372.792	74.41
373.003	113.32
373.214	62.12
373.424	137.9
373.635	117.42
373.846	62.12
374.056	84.65
374.267	49.83
374.477	41.64
374.688	49.83
374.898	4.78
375.109	76.46
375.319	58.03
375.53	101.03
375.74	96.94
375.951	115.37
376.161	62.12
376.372	113.32
376.582	58.03
376.793	141.99
377.003	66.22
377.214	80.55
377.424	45.74
377.635	98.99
377.845	133.8
378.055	197.29
378.266	90.79
378.476	70.31
378.686	94.89
378.897	78.51
379.107	82.6
379.317	139.94
379.528	123.56
379.738	68.27
379.948	90.79
380.158	164.52
380.369	115.37
380.579	68.27
380.789	158.38
380.999	94.89
381.21	131.75
381.42	74.41
381.63	47.79
381.84	148.14
382.05	113.32
382.261	82.6
382.471	139.94
382.681	139.94
382.891	84.65
383.101	103.08
383.311	80.55
383.521	8.87
383.731	76.46
383.941	205.48
384.151	70.31
384.361	123.56
384.571	144.04
384.781	125.61
384.991	98.99
385.201	119.46
385.411	119.46
385.621	74.41
385.831	58.03
386.041	101.03
386.251	101.03
386.461	60.07
386.671	33.45
386.881	109.23
387.091	123.56
387.301	35.5
387.511	2.73
387.72	113.32
387.93	94.89
388.14	66.22
388.35	58.03
388.56	127.66
388.769	76.46
388.979	180.9
389.189	96.94
389.399	47.79
389.609	25.26
389.818	115.37
390.028	139.94
390.238	66.22
390.447	43.69
390.657	90.79
390.867	58.03
391.076	55.98
391.286	115.37
391.496	66.22
391.705	86.7
391.915	156.33
392.125	74.41
392.334	129.7
392.544	101.03
392.753	156.33
392.963	107.18
393.172	92.84
393.382	90.79
393.591	178.86
393.801	88.75
394.01	221.86
394.22	125.61
394.429	90.79
394.639	49.83
394.848	107.18
395.058	98.99
395.267	144.04
395.477	86.7
395.686	156.33
395.895	156.33
396.105	141.99
396.314	103.08
396.524	98.99
396.733	133.8
396.942	133.8
397.152	107.18
397.361	66.22
397.57	164.52
397.78	27.31
397.989	148.14
398.198	213.67
398.407	94.89
398.617	133.8
398.826	148.14
399.035	105.13
399.244	115.37
399.453	90.79
399.663	115.37
399.872	174.76
400.081	119.46
400.29	215.72
400.499	70.31
400.708	152.23
400.917	158.38
401.127	150.18
401.336	201.38
401.545	133.8
401.754	139.94
401.963	180.9
402.172	152.23
402.381	113.32
402.59	185
402.799	195.24
403.008	189.1
403.217	215.72
403.426	74.41
403.635	162.47
403.844	103.08
404.053	133.8
404.262	133.8
404.471	228.01
404.68	156.33
404.888	221.86
405.097	191.14
405.306	162.47
405.515	215.72
405.724	266.92
405.933	176.81
406.142	258.73
406.35	238.25
406.559	240.3
406.768	166.57
406.977	180.9
407.185	264.87
407.394	256.68
407.603	230.06
407.812	182.95
408.02	281.25
408.229	252.58
408.438	303.78
408.646	232.1
408.855	305.83
409.064	346.79
409.272	295.59
409.481	283.3
409.69	275.11
409.898	223.91
410.107	387.75
410.315	385.7
410.524	357.03
410.733	471.72
410.941	352.93
411.15	395.94
411.358	467.62
411.567	434.85
411.775	516.77
411.984	451.24
412.192	508.58
412.401	428.71
412.609	492.2
412.818	576.16
413.026	588.45
413.234	508.58
413.443	512.67
413.651	565.92
413.86	658.08
414.068	606.88
414.276	639.65
414.485	592.55
414.693	707.23
414.901	629.41
415.11	707.23
415.318	754.34
415.526	780.96
415.734	758.43
415.943	778.91
416.151	854.69
416.359	858.78
416.567	909.98
416.776	967.32
416.984	1030.81
417.192	1018.52
417.4	1022.62
417.608	1028.76
417.817	1024.67
418.025	1137.31
418.233	1200.79
418.441	1155.74
418.649	1188.5
418.857	1317.53
419.065	1288.86
419.273	1348.25
419.481	1356.44
419.689	1495.7
419.897	1510.04
420.105	1532.56
420.313	1565.33
420.521	1589.91
420.729	1639.06
420.937	1753.74
421.145	1761.94
421.353	1806.99
421.561	1993.36
421.769	1970.83
421.977	2067.08
422.185	2093.71
422.393	2048.65
422.601	2308.74
422.809	2228.87
423.017	2194.06
423.224	2462.34
423.432	2548.36
423.64	2417.29
423.848	2583.17
424.056	2706.05
424.263	2851.46
424.471	2802.3
424.679	2859.65
424.887	3050.11
425.094	3148.41
425.302	3132.03
425.51	3224.19
425.718	3398.26
425.925	3508.85
426.133	3422.84
426.341	3621.49
426.548	3967.6
426.756	3863.15
426.964	3981.93
427.171	4153.96
427.379	4405.86
427.586	4426.34
427.794	4409.96
428.001	4579.94
428.209	4870.75
428.417	4733.54
428.624	5063.26
428.832	5309.02
429.039	5145.18
429.247	5042.78
429.454	5460.57
429.662	5816.91
429.869	5753.43
430.076	5937.74
430.284	5806.67
430.491	5952.08
430.699	6341.19
430.906	6312.52
431.114	6554.18
431.321	6535.75
431.528	7045.7
431.736	7164.48
431.943	7594.55
432.15	7254.59
432.358	7373.37
432.565	7946.8
432.772	7791.16
432.979	8176.17
433.187	8227.37
433.394	8497.7
433.601	8823.33
433.808	8974.88
434.016	8708.65
434.223	9298.46
434.43	9638.42
434.637	9560.6
434.844	10279.44
435.052	10560.01
435.259	10207.76
435.466	10510.86
435.673	10371.6
435.88	11260.41
436.087	11504.12
436.294	11608.57
436.501	11493.88
436.708	11508.22
436.915	11868.66
437.122	12659.18
437.329	12401.13
437.537	12698.09
437.743	12802.54
437.95	12833.25
438.157	13564.38
438.364	13916.63
438.571	14049.75
438.778	14109.14
438.985	15284.67
439.192	14799.3
439.399	15352.26
439.606	14957
439.813	15690.17
440.02	16497.07
440.227	16161.2
440.433	15958.46
440.64	16609.71
440.847	16542.13
441.054	17031.59
441.261	18194.84
441.467	17668.51
441.674	18340.24
441.881	18792.84
442.088	18780.56
442.294	18493.84
442.501	19231.11
442.708	19620.22
442.914	20064.63
443.121	21133.67
443.328	20687.21
443.534	22067.55
443.741	21422.44
443.948	21100.9
444.154	22620.5
444.361	22567.25
444.568	22839.63
444.774	22669.65
444.981	22831.44
445.187	23497.03
445.394	24789.3
445.6	24131.9
445.807	26577.17
446.013	25598.24
446.22	25948.45
446.426	26626.32
446.633	27240.71
446.839	27959.55
447.046	27074.83
447.252	28221.69
447.459	28387.58
447.665	28422.39
447.871	29464.81
448.078	30890.2
448.284	29165.81
448.491	30146.78
448.697	31482.06
448.903	31764.68
449.11	32147.65
449.316	31267.02
449.522	31936.71
449.728	32977.08
449.935	33099.95
450.141	33069.23
450.347	33808.55
450.553	32829.62
450.76	33505.45
450.966	34119.84
451.172	34439.33
451.378	34932.89
451.584	34521.24
451.791	35225.75
451.997	35104.91
452.203	35457.17
452.409	35385.49
452.615	35278.99
452.821	34025.64
453.027	33847.46
453.233	35362.96
453.44	34525.34
453.646	34517.15
453.852	34699.42
454.058	35313.81
454.264	34195.62
454.47	35391.63
454.676	33886.37
454.882	35442.83
455.088	32393.4
455.294	33052.85
455.5	33294.51
455.705	33679.53
455.911	32481.47
456.117	31846.6
456.323	31215.82
456.529	29618.41
456.735	31281.36
456.941	30120.16
457.147	29597.93
457.352	28948.72
457.558	28573.94
457.764	28891.38
457.97	28199.16
458.176	27652.36
458.381	27445.51
458.587	26167.58
458.793	26239.26
458.999	24897.84
459.204	26941.71
459.41	25938.21
459.616	24447.29
459.821	24023.36
460.027	24191.29
460.233	23759.17
460.438	22530.39
460.644	22919.5
460.85	21918.04
461.055	21373.28
461.261	21602.66
461.466	19917.18
461.672	19423.62
461.878	20564.34
462.083	19104.14
462.289	18948.49
462.494	18846.09
462.7	18016.66
462.905	17463.71
463.111	18393.49
463.316	17992.09
463.522	17568.16
463.727	17514.91
463.932	17746.33
464.138	17684.89
464.343	17768.86
464.549	17107.37
464.754	17725.85
464.959	17519.01
465.165	17088.93
465.37	16484.78
465.575	16218.55
465.781	16816.55
465.986	16923.05
