Data from USB4F104151__234__14-45-40-045.txt Node

Date: Thu Mar 13 14:45:40 EDT 2025
User: louis
Spectrometer: USB4F10415
Trigger mode: 4
Integration Time (sec): 2.000000E-2
Scans to average: 1
Electric dark correction enabled: true
Nonlinearity correction enabled: false
Boxcar width: 0
XAxis mode: Wavelengths
Number of Pixels in Spectrum: 3648
>>>>>Begin Spectral Data<<<<<
178.204	-55.12
178.424	-55.12
178.644	-55.12
178.864	-63.32
179.084	-53.08
179.304	-53.08
179.524	-42.84
179.744	-20.31
179.964	98.47
180.184	53.42
180.404	28.84
180.624	10.41
180.844	-36.69
181.064	6.31
181.283	-26.45
181.503	-34.64
181.723	16.55
181.943	26.79
182.163	96.43
182.383	-20.31
182.602	55.47
182.822	47.27
183.042	10.41
183.262	28.84
183.482	71.85
183.701	-34.64
183.921	47.27
184.141	-3.93
184.361	34.99
184.58	16.55
184.8	-28.5
185.02	49.32
185.239	82.09
185.459	8.36
185.679	65.71
185.898	-57.17
186.118	51.37
186.338	12.46
186.557	47.27
186.777	-12.12
186.997	57.51
187.216	24.75
187.436	61.61
187.655	28.84
187.875	28.84
188.095	-3.93
188.314	28.84
188.534	-3.93
188.753	22.7
188.973	82.09
189.192	57.51
189.412	37.03
189.631	110.76
189.851	4.27
190.07	106.67
190.29	-36.69
190.509	-26.45
190.729	-26.45
190.948	53.42
191.168	116.9
191.387	41.13
191.607	-53.08
191.826	77.99
192.045	28.84
192.265	-32.6
192.484	39.08
192.704	28.84
192.923	-46.93
193.142	28.84
193.362	24.75
193.581	-3.93
193.8	16.55
194.02	77.99
194.239	53.42
194.458	51.37
194.678	41.13
194.897	28.84
195.116	28.84
195.335	-24.4
195.555	94.38
195.774	12.46
195.993	88.23
196.212	24.75
196.432	37.03
196.651	-44.88
196.87	4.27
197.089	86.19
197.308	49.32
197.528	2.22
197.747	2.22
197.966	14.51
198.185	127.14
198.404	12.46
198.623	51.37
198.842	86.19
199.062	-24.4
199.281	10.41
199.5	10.41
199.719	10.41
199.938	63.66
200.157	49.32
200.376	16.55
200.595	-18.26
200.814	84.14
201.033	-24.4
201.252	20.65
201.471	71.85
201.69	84.14
201.909	-16.21
202.128	73.9
202.347	-24.4
202.566	77.99
202.785	-18.26
203.004	-12.12
203.223	14.51
203.442	47.27
203.661	61.61
203.879	45.23
204.098	63.66
204.317	-36.69
204.536	45.23
204.755	4.27
204.974	39.08
205.193	-8.02
205.411	57.51
205.63	86.19
205.849	12.46
206.068	2.22
206.287	86.19
206.505	0.17
206.724	47.27
206.943	67.75
207.162	37.03
207.381	37.03
207.599	-20.31
207.818	2.22
208.037	22.7
208.255	8.36
208.474	53.42
208.693	49.32
208.911	20.65
209.13	12.46
209.349	4.27
209.567	-3.93
209.786	34.99
210.005	6.31
210.223	47.27
210.442	39.08
210.661	-42.84
210.879	77.99
211.098	55.47
211.316	24.75
211.535	28.84
211.753	39.08
211.972	30.89
212.191	53.42
212.409	22.7
212.628	55.47
212.846	49.32
213.065	49.32
213.283	-3.93
213.502	61.61
213.72	24.75
213.938	12.46
214.157	-12.12
214.375	77.99
214.594	47.27
214.812	-16.21
215.031	90.28
215.249	69.8
215.467	96.43
215.686	16.55
215.904	28.84
216.122	86.19
216.341	55.47
216.559	6.31
216.778	26.79
216.996	47.27
217.214	30.89
217.432	43.18
217.651	63.66
217.869	-18.26
218.087	18.6
218.306	53.42
218.524	55.47
218.742	-16.21
218.96	0.17
219.179	71.85
219.397	-1.88
219.615	77.99
219.833	61.61
220.051	61.61
220.27	80.04
220.488	24.75
220.706	-59.22
220.924	-44.88
221.142	65.71
221.36	45.23
221.578	43.18
221.796	51.37
222.015	37.03
222.233	16.55
222.451	71.85
222.669	-32.6
222.887	14.51
223.105	-5.97
223.323	-1.88
223.541	28.84
223.759	20.65
223.977	30.89
224.195	28.84
224.413	-8.02
224.631	108.71
224.849	41.13
225.067	77.99
225.285	28.84
225.503	28.84
225.721	-3.93
225.939	80.04
226.157	10.41
226.375	94.38
226.592	-14.17
226.81	63.66
227.028	55.47
227.246	118.95
227.464	14.51
227.682	102.57
227.9	14.51
228.117	86.19
228.335	-1.88
228.553	-61.27
228.771	41.13
228.989	41.13
229.206	-16.21
229.424	96.43
229.642	-3.93
229.86	53.42
230.077	28.84
230.295	75.95
230.513	104.62
230.731	20.65
230.948	77.99
231.166	77.99
231.384	-3.93
231.601	45.23
231.819	82.09
232.037	22.7
232.254	41.13
232.472	20.65
232.689	0.17
232.907	71.85
233.125	16.55
233.342	-28.5
233.56	-8.02
233.777	49.32
233.995	71.85
234.213	86.19
234.43	32.94
234.648	94.38
234.865	32.94
235.083	104.62
235.3	37.03
235.518	94.38
235.735	26.79
235.953	51.37
236.17	-26.45
236.388	30.89
236.605	-20.31
236.822	61.61
237.04	61.61
237.257	37.03
237.475	-24.4
237.692	43.18
237.909	30.89
238.127	86.19
238.344	110.76
238.562	-12.12
238.779	-22.36
238.996	94.38
239.214	57.51
239.431	80.04
239.648	14.51
239.865	57.51
240.083	49.32
240.3	98.47
240.517	57.51
240.735	20.65
240.952	39.08
241.169	53.42
241.386	57.51
241.603	22.7
241.821	41.13
242.038	98.47
242.255	37.03
242.472	-69.46
242.689	71.85
242.907	28.84
243.124	18.6
243.341	8.36
243.558	-12.12
243.775	-1.88
243.992	69.8
244.209	94.38
244.426	73.9
244.643	110.76
244.86	34.99
245.078	-18.26
245.295	14.51
245.512	55.47
245.729	12.46
245.946	-1.88
246.163	41.13
246.38	10.41
246.597	12.46
246.814	45.23
247.031	49.32
247.248	49.32
247.464	-18.26
247.681	30.89
247.898	-12.12
248.115	-12.12
248.332	24.75
248.549	-18.26
248.766	102.57
248.983	61.61
249.2	45.23
249.417	37.03
249.633	10.41
249.85	6.31
250.067	-8.02
250.284	53.42
250.501	37.03
250.717	77.99
250.934	-57.17
251.151	53.42
251.368	24.75
251.585	6.31
251.801	-48.98
252.018	30.89
252.235	4.27
252.451	-22.36
252.668	-40.79
252.885	45.23
253.102	10.41
253.318	-8.02
253.535	34.99
253.752	12.46
253.968	20.65
254.185	24.75
254.401	-12.12
254.618	75.95
254.835	6.31
255.051	55.47
255.268	-16.21
255.484	137.38
255.701	41.13
255.917	55.47
256.134	-1.88
256.351	10.41
256.567	82.09
256.784	-5.97
257	-34.64
257.217	10.41
257.433	63.66
257.65	20.65
257.866	82.09
258.082	30.89
258.299	53.42
258.515	45.23
258.732	73.9
258.948	14.51
259.165	77.99
259.381	41.13
259.597	6.31
259.814	0.17
260.03	34.99
260.246	0.17
260.463	61.61
260.679	80.04
260.895	51.37
261.112	32.94
261.328	-3.93
261.544	14.51
261.761	102.57
261.977	86.19
262.193	16.55
262.409	-28.5
262.626	94.38
262.842	16.55
263.058	22.7
263.274	-18.26
263.49	77.99
263.707	22.7
263.923	57.51
264.139	12.46
264.355	12.46
264.571	90.28
264.787	49.32
265.004	39.08
265.22	16.55
265.436	28.84
265.652	6.31
265.868	55.47
266.084	-20.31
266.3	71.85
266.516	-69.46
266.732	12.46
266.948	49.32
267.164	14.51
267.38	63.66
267.596	45.23
267.812	143.53
268.028	-3.93
268.244	-3.93
268.46	47.27
268.676	96.43
268.892	51.37
269.108	90.28
269.324	-20.31
269.54	82.09
269.756	102.57
269.972	12.46
270.188	86.19
270.403	82.09
270.619	-26.45
270.835	32.94
271.051	4.27
271.267	45.23
271.483	-26.45
271.698	39.08
271.914	45.23
272.13	37.03
272.346	-3.93
272.562	86.19
272.777	-28.5
272.993	75.95
273.209	61.61
273.425	-3.93
273.64	-36.69
273.856	71.85
274.072	20.65
274.287	-28.5
274.503	4.27
274.719	114.86
274.934	-1.88
275.15	26.79
275.366	12.46
275.581	24.75
275.797	12.46
276.012	102.57
276.228	77.99
276.444	80.04
276.659	30.89
276.875	10.41
277.09	80.04
277.306	-3.93
277.521	69.8
277.737	69.8
277.952	104.62
278.168	22.7
278.383	20.65
278.599	-18.26
278.814	39.08
279.03	-8.02
279.245	92.33
279.461	98.47
279.676	59.56
279.892	-5.97
280.107	59.56
280.322	-8.02
280.538	4.27
280.753	-3.93
280.969	114.86
281.184	-3.93
281.399	57.51
281.615	28.84
281.83	73.9
282.045	24.75
282.26	-5.97
282.476	73.9
282.691	37.03
282.906	106.67
283.122	-3.93
283.337	-28.5
283.552	-1.88
283.767	8.36
283.983	80.04
284.198	-3.93
284.413	28.84
284.628	-18.26
284.843	-3.93
285.058	51.37
285.274	39.08
285.489	-5.97
285.704	94.38
285.919	12.46
286.134	77.99
286.349	24.75
286.564	-12.12
286.779	41.13
286.995	102.57
287.21	45.23
287.425	71.85
287.64	-24.4
287.855	45.23
288.07	-42.84
288.285	20.65
288.5	51.37
288.715	53.42
288.93	4.27
289.145	63.66
289.36	86.19
289.575	22.7
289.79	8.36
290.004	80.04
290.219	77.99
290.434	28.84
290.649	71.85
290.864	-26.45
291.079	24.75
291.294	-28.5
291.509	20.65
291.724	22.7
291.938	-3.93
292.153	-8.02
292.368	4.27
292.583	-12.12
292.798	92.33
293.012	0.17
293.227	30.89
293.442	-10.07
293.657	114.86
293.871	65.71
294.086	-20.31
294.301	26.79
294.516	80.04
294.73	-3.93
294.945	-24.4
295.16	45.23
295.374	37.03
295.589	34.99
295.804	39.08
296.018	-16.21
296.233	32.94
296.447	80.04
296.662	-28.5
296.877	69.8
297.091	61.61
297.306	47.27
297.52	4.27
297.735	22.7
297.949	-75.6
298.164	18.6
298.378	53.42
298.593	53.42
298.807	-20.31
299.022	-28.5
299.236	28.84
299.451	67.75
299.665	41.13
299.88	4.27
300.094	90.28
300.309	2.22
300.523	57.51
300.737	49.32
300.952	18.6
301.166	16.55
301.381	16.55
301.595	57.51
301.809	28.84
302.024	71.85
302.238	45.23
302.452	94.38
302.667	77.99
302.881	41.13
303.095	-20.31
303.309	0.17
303.524	45.23
303.738	61.61
303.952	-10.07
304.166	49.32
304.381	-16.21
304.595	77.99
304.809	73.9
305.023	37.03
305.237	49.32
305.452	61.61
305.666	53.42
305.88	45.23
306.094	41.13
306.308	14.51
306.522	69.8
306.736	43.18
306.95	-48.98
307.164	32.94
307.379	30.89
307.593	98.47
307.807	73.9
308.021	41.13
308.235	18.6
308.449	20.65
308.663	30.89
308.877	90.28
309.091	88.23
309.305	102.57
309.519	28.84
309.733	39.08
309.947	-8.02
310.161	71.85
310.374	20.65
310.588	84.14
310.802	-18.26
311.016	18.6
311.23	20.65
311.444	61.61
311.658	86.19
311.872	20.65
312.085	-12.12
312.299	102.57
312.513	94.38
312.727	2.22
312.941	8.36
313.154	61.61
313.368	12.46
313.582	86.19
313.796	4.27
314.009	49.32
314.223	131.24
314.437	94.38
314.651	88.23
314.864	-32.6
315.078	14.51
315.292	-12.12
315.505	-22.36
315.719	61.61
315.933	-18.26
316.146	73.9
316.36	-67.41
316.573	61.61
316.787	37.03
317.001	53.42
317.214	22.7
317.428	37.03
317.641	53.42
317.855	-32.6
318.068	20.65
318.282	14.51
318.495	96.43
318.709	71.85
318.922	53.42
319.136	12.46
319.349	80.04
319.563	88.23
319.776	71.85
319.99	-30.55
320.203	84.14
320.417	100.52
320.63	28.84
320.843	77.99
321.057	57.51
321.27	118.95
321.483	24.75
321.697	94.38
321.91	88.23
322.124	92.33
322.337	61.61
322.55	18.6
322.763	92.33
322.977	112.81
323.19	37.03
323.403	39.08
323.617	22.7
323.83	104.62
324.043	37.03
324.256	75.95
324.469	22.7
324.683	69.8
324.896	43.18
325.109	-1.88
325.322	47.27
325.535	135.34
325.748	-46.93
325.962	0.17
326.175	94.38
326.388	47.27
326.601	143.53
326.814	47.27
327.027	-1.88
327.24	61.61
327.453	-32.6
327.666	82.09
327.879	55.47
328.092	34.99
328.305	32.94
328.518	-10.07
328.731	53.42
328.944	12.46
329.157	20.65
329.37	14.51
329.583	116.9
329.796	41.13
330.009	-3.93
330.222	-28.5
330.435	61.61
330.648	47.27
330.861	26.79
331.073	32.94
331.286	49.32
331.499	96.43
331.712	-36.69
331.925	-3.93
332.138	-3.93
332.35	4.27
332.563	-36.69
332.776	-28.5
332.989	6.31
333.202	37.03
333.414	-1.88
333.627	-53.08
333.84	0.17
334.053	-20.31
334.265	-8.02
334.478	37.03
334.691	63.66
334.903	28.84
335.116	28.84
335.329	6.31
335.541	82.09
335.754	131.24
335.966	41.13
336.179	22.7
336.392	90.28
336.604	34.99
336.817	18.6
337.029	55.47
337.242	45.23
337.454	4.27
337.667	22.7
337.88	4.27
338.092	41.13
338.305	80.04
338.517	80.04
338.729	2.22
338.942	110.76
339.154	-24.4
339.367	20.65
339.579	80.04
339.792	16.55
340.004	131.24
340.217	77.99
340.429	-8.02
340.641	8.36
340.854	37.03
341.066	-8.02
341.278	98.47
341.491	53.42
341.703	37.03
341.915	-1.88
342.128	53.42
342.34	47.27
342.552	-5.97
342.764	-79.7
342.977	61.61
343.189	41.13
343.401	12.46
343.613	61.61
343.826	43.18
344.038	53.42
344.25	86.19
344.462	4.27
344.674	45.23
344.886	8.36
345.099	32.94
345.311	34.99
345.523	41.13
345.735	-8.02
345.947	69.8
346.159	59.56
346.371	-8.02
346.583	53.42
346.795	69.8
347.007	41.13
347.219	153.77
347.431	127.14
347.643	88.23
347.855	-14.17
348.067	80.04
348.279	-20.31
348.491	71.85
348.703	65.71
348.915	-53.08
349.127	47.27
349.339	77.99
349.551	-20.31
349.763	114.86
349.975	16.55
350.187	61.61
350.399	37.03
350.61	53.42
350.822	63.66
351.034	16.55
351.246	-28.5
351.458	86.19
351.669	69.8
351.881	49.32
352.093	-3.93
352.305	71.85
352.517	-40.79
352.728	20.65
352.94	39.08
353.152	24.75
353.363	45.23
353.575	90.28
353.787	84.14
353.999	37.03
354.21	82.09
354.422	45.23
354.633	-1.88
354.845	28.84
355.057	-3.93
355.268	20.65
355.48	94.38
355.692	-12.12
355.903	28.84
356.115	53.42
356.326	-65.36
356.538	102.57
356.749	98.47
356.961	90.28
357.172	45.23
357.384	-10.07
357.595	133.29
357.807	4.27
358.018	30.89
358.23	22.7
358.441	39.08
358.653	12.46
358.864	28.84
359.075	22.7
359.287	108.71
359.498	12.46
359.709	53.42
359.921	96.43
360.132	16.55
360.344	22.7
360.555	-20.31
360.766	8.36
360.977	34.99
361.189	94.38
361.4	67.75
361.611	104.62
361.823	47.27
362.034	127.14
362.245	63.66
362.456	-1.88
362.667	-28.5
362.879	-40.79
363.09	20.65
363.301	53.42
363.512	57.51
363.723	63.66
363.935	100.52
364.146	80.04
364.357	-36.69
364.568	-20.31
364.779	86.19
364.99	55.47
365.201	-16.21
365.412	51.37
365.623	16.55
365.834	102.57
366.045	73.9
366.256	182.44
366.467	39.08
366.678	-1.88
366.889	-3.93
367.1	69.8
367.311	-3.93
367.522	77.99
367.733	37.03
367.944	-1.88
368.155	-38.74
368.366	57.51
368.577	39.08
368.788	69.8
368.999	45.23
369.209	14.51
369.42	30.89
369.631	77.99
369.842	71.85
370.053	49.32
370.264	65.71
370.474	80.04
370.685	80.04
370.896	71.85
371.107	24.75
371.317	28.84
371.528	14.51
371.739	-8.02
371.95	12.46
372.16	47.27
372.371	32.94
372.582	39.08
372.792	32.94
373.003	55.47
373.214	-22.36
373.424	12.46
373.635	4.27
373.846	37.03
374.056	-44.88
374.267	84.14
374.477	96.43
374.688	37.03
374.898	57.51
375.109	125.1
375.319	-3.93
375.53	104.62
375.74	22.7
375.951	4.27
376.161	43.18
376.372	20.65
376.582	-28.5
376.793	57.51
377.003	53.42
377.214	47.27
377.424	69.8
377.635	-20.31
377.845	2.22
378.055	153.77
378.266	4.27
378.476	-3.93
378.686	102.57
378.897	49.32
379.107	94.38
379.317	90.28
379.528	-12.12
379.738	32.94
379.948	-53.08
380.158	45.23
380.369	82.09
380.579	67.75
380.789	14.51
380.999	123.05
381.21	104.62
381.42	110.76
381.63	37.03
381.84	112.81
382.05	53.42
382.261	90.28
382.471	63.66
382.681	-3.93
382.891	59.56
383.101	86.19
383.311	32.94
383.521	80.04
383.731	45.23
383.941	168.1
384.151	86.19
384.361	71.85
384.571	0.17
384.781	86.19
384.991	37.03
385.201	80.04
385.411	137.38
385.621	6.31
385.831	45.23
386.041	-10.07
386.251	37.03
386.461	96.43
386.671	82.09
386.881	47.27
387.091	104.62
387.301	104.62
387.511	59.56
387.72	53.42
387.93	73.9
388.14	2.22
388.35	30.89
388.56	104.62
388.769	92.33
388.979	86.19
389.189	49.32
389.399	28.84
389.609	-69.46
389.818	53.42
390.028	77.99
390.238	94.38
390.447	77.99
390.657	73.9
390.867	118.95
391.076	49.32
391.286	-3.93
391.496	57.51
391.705	90.28
391.915	49.32
392.125	75.95
392.334	65.71
392.544	41.13
392.753	69.8
392.963	82.09
393.172	125.1
393.382	26.79
393.591	118.95
393.801	4.27
394.01	69.8
394.22	12.46
394.429	80.04
394.639	69.8
394.848	127.14
395.058	86.19
395.267	71.85
395.477	67.75
395.686	86.19
395.895	155.82
396.105	184.49
396.314	116.9
396.524	53.42
396.733	102.57
396.942	96.43
397.152	110.76
397.361	71.85
397.57	135.34
397.78	110.76
397.989	73.9
398.198	96.43
398.407	112.81
398.617	112.81
398.826	49.32
399.035	86.19
399.244	65.71
399.453	37.03
399.663	96.43
399.872	96.43
400.081	63.66
400.29	110.76
400.499	4.27
400.708	51.37
400.917	-10.07
401.127	159.91
401.336	102.57
401.545	147.62
401.754	123.05
401.963	45.23
402.172	63.66
402.381	88.23
402.59	84.14
402.799	77.99
403.008	88.23
403.217	121
403.426	164.01
403.635	53.42
403.844	110.76
404.053	96.43
404.262	211.11
404.471	219.3
404.68	147.62
404.888	86.19
405.097	139.43
405.306	180.39
405.515	164.01
405.724	141.48
405.933	176.3
406.142	104.62
406.35	125.1
406.559	159.91
406.768	221.35
406.977	221.35
407.185	192.68
407.394	151.72
407.603	168.1
407.812	147.62
408.02	192.68
408.229	168.1
408.438	217.26
408.646	121
408.855	247.97
409.064	227.5
409.272	215.21
409.481	217.26
409.69	211.11
409.898	301.22
410.107	266.41
410.315	221.35
410.524	276.65
410.733	280.74
410.941	221.35
411.15	340.13
411.358	323.75
411.567	372.9
411.775	333.99
411.984	397.48
412.192	323.75
412.401	399.52
412.609	368.81
412.818	405.67
413.026	411.81
413.234	366.76
413.443	399.52
413.651	358.57
413.86	479.4
414.068	452.77
414.276	499.88
414.485	503.97
414.693	594.08
414.901	493.73
415.11	614.56
415.318	604.32
415.526	630.95
415.734	686.24
415.943	600.23
416.151	780.45
416.359	708.77
416.567	655.52
416.776	782.49
416.984	831.65
417.192	827.55
417.4	813.21
417.608	794.78
417.817	866.46
418.025	868.51
418.233	1011.87
418.441	864.41
418.649	938.14
418.857	987.29
419.065	1054.87
419.273	907.42
419.481	1044.63
419.689	1155.23
419.897	1177.75
420.105	1267.86
420.313	1274.01
420.521	1290.39
420.729	1302.68
420.937	1284.25
421.145	1388.69
421.353	1527.96
421.561	1570.96
421.769	1642.64
421.977	1663.12
422.185	1601.68
422.393	1771.66
422.601	1970.32
422.809	1814.67
423.017	1865.87
423.224	1859.73
423.432	1990.8
423.64	2056.33
423.848	2138.25
424.056	2162.83
424.263	2363.53
424.471	2322.57
424.679	2445.45
424.887	2527.36
425.094	2582.66
425.302	2568.32
425.51	2420.87
425.718	2551.94
425.925	2683.01
426.133	2846.85
426.341	2965.63
426.548	3039.36
426.756	3088.51
426.964	3166.33
427.171	3332.22
427.379	3403.89
427.586	3469.43
427.794	3520.63
428.001	3637.36
428.209	3897.46
428.417	3659.89
428.624	4110.44
428.832	4124.78
429.039	4051.05
429.247	4067.44
429.454	4313.19
429.662	4765.79
429.869	4561
430.076	4733.03
430.284	4706.4
430.491	5019.74
430.699	5093.47
430.906	5132.38
431.114	5140.57
431.321	5365.85
431.528	5591.13
431.736	5894.22
431.943	6139.98
432.15	5939.28
432.358	5830.74
432.565	6389.83
432.772	6226
432.979	6602.82
433.187	6725.7
433.394	6707.27
433.601	7245.88
433.808	7243.84
434.016	7049.28
434.223	7540.79
434.43	7987.25
434.637	7786.55
434.844	8138.8
435.052	8482.86
435.259	8341.55
435.466	8427.56
435.673	8321.07
435.88	8917.03
436.087	9568.28
436.294	9345.05
436.501	8980.51
436.708	9429.02
436.915	9650.2
437.122	9973.78
437.329	10055.7
437.537	10381.32
437.743	10440.72
437.95	10410
438.157	11001.86
438.364	11309.05
438.571	11407.36
438.778	11352.06
438.985	12580.84
439.192	11966.45
439.399	12333.04
439.606	11935.73
439.813	12820.46
440.02	13541.34
440.227	13299.68
440.433	12961.76
440.64	13551.58
440.847	13438.94
441.054	13819.86
441.261	14782.41
441.467	14663.63
441.674	15161.28
441.881	15482.81
442.088	15214.53
442.294	15060.93
442.501	15638.46
442.708	16080.82
442.914	16584.62
443.121	17479.58
443.328	16791.47
443.534	17985.43
443.741	17651.61
443.948	17463.2
444.154	18517.9
444.361	18427.79
444.568	18495.38
444.774	18423.7
444.981	18626.45
445.187	19361.67
445.394	20320.12
445.6	19720.06
445.807	21655.39
446.013	20959.08
446.22	20971.37
446.426	21753.69
446.633	22189.91
446.839	23160.65
447.046	22130.52
447.252	23168.84
447.459	23453.51
447.665	23611.2
447.871	24321.85
448.078	25229.1
448.284	23797.57
448.491	25202.47
448.697	25829.15
448.903	26236.7
449.11	26320.67
449.316	25800.48
449.522	26146.59
449.728	27088.65
449.935	27236.11
450.141	27174.67
450.347	28118.78
450.553	27010.83
450.76	27551.49
450.966	28311.29
451.172	27811.59
451.378	29234.92
451.584	28288.76
451.791	28667.64
451.997	28876.53
452.203	29802.21
452.409	29318.89
452.615	29222.64
452.821	28202.75
453.027	28116.73
453.233	29390.57
453.44	28581.62
453.646	28325.63
453.852	28722.93
454.058	29261.55
454.264	28464.89
454.47	29005.55
454.676	28294.91
454.882	29396.71
455.088	27021.07
455.294	27094.8
455.5	27885.31
455.705	27866.88
455.911	26840.85
456.117	26341.14
456.323	25878.3
456.529	24794.93
456.735	25739.04
456.941	25349.93
457.147	24997.68
457.352	24276.79
457.558	23875.39
457.764	23822.14
457.97	23437.13
458.176	23074.63
458.381	23107.4
458.587	22124.38
458.793	22136.66
458.999	20940.65
459.204	22355.8
459.41	21630.82
459.616	20270.97
459.821	20277.11
460.027	20230.01
460.233	19640.19
460.438	19033.99
460.644	18997.13
460.85	18192.28
461.055	18059.16
461.261	17846.17
461.466	16457.65
461.672	16105.4
461.878	17321.89
462.083	16086.97
462.289	15906.74
462.494	15716.28
462.7	14966.73
462.905	14571.47
463.111	15081.41
463.316	15052.74
463.522	14950.34
463.727	14876.62
463.932	14817.22
464.138	14637
464.343	14825.42
464.549	14342.1
464.754	14743.5
464.959	14460.88
465.165	14462.93
465.37	13826.01
465.575	13570.01
465.781	14118.87
465.986	14047.19
466.191	13363.17
466.397	13572.06
466.602	12697.58
466.807	13129.7
467.012	13135.84
467.218	13367.26
467.423	13002.72
467.628	13113.31
467.833	13455.33
