Data from USB4F104151__218__14-45-30-227.txt Node

Date: Thu Mar 13 14:45:30 EDT 2025
User: louis
Spectrometer: USB4F10415
Trigger mode: 4
Integration Time (sec): 2.000000E-2
Scans to average: 1
Electric dark correction enabled: true
Nonlinearity correction enabled: false
Boxcar width: 0
XAxis mode: Wavelengths
Number of Pixels in Spectrum: 3648
>>>>>Begin Spectral Data<<<<<
178.204	-150.01
178.424	-150.01
178.644	-150.01
178.864	-133.63
179.084	-86.53
179.304	-35.33
179.524	-31.23
179.744	42.5
179.964	15.87
180.184	-66.05
180.404	48.64
180.624	22.02
180.844	-14.85
181.064	-14.85
181.283	44.54
181.503	11.78
181.723	-23.04
181.943	52.74
182.163	79.36
182.383	-6.66
182.602	42.5
182.822	32.26
183.042	75.26
183.262	-8.7
183.482	-12.8
183.701	-25.09
183.921	-41.47
184.141	26.11
184.361	-45.57
184.58	-4.61
184.8	17.92
185.02	9.73
185.239	46.59
185.459	-43.52
185.679	15.87
185.898	-25.09
186.118	83.45
186.338	48.64
186.557	40.45
186.777	7.68
186.997	28.16
187.216	-57.86
187.436	15.87
187.655	22.02
187.875	46.59
188.095	42.5
188.314	38.4
188.534	69.12
188.753	46.59
188.973	48.64
189.192	15.87
189.412	22.02
189.631	30.21
189.851	-16.9
190.07	65.02
190.29	17.92
190.509	54.78
190.729	9.73
190.948	138.75
191.168	122.37
191.387	97.79
191.607	132.61
191.826	-31.23
192.045	-6.66
192.265	32.26
192.484	73.21
192.704	17.92
192.923	-43.52
193.142	38.4
193.362	110.08
193.581	101.89
193.8	3.58
194.02	128.51
194.239	-8.7
194.458	15.87
194.678	85.5
194.897	38.4
195.116	69.12
195.335	-0.51
195.555	50.69
195.774	22.02
195.993	32.26
196.212	38.4
196.432	56.83
196.651	19.97
196.87	-35.33
197.089	91.65
197.308	114.17
197.528	91.65
197.747	-18.94
197.966	75.26
198.185	38.4
198.404	-33.28
198.623	81.41
198.842	48.64
199.062	83.45
199.281	62.98
199.5	46.59
199.719	-2.56
199.938	118.27
200.157	32.26
200.376	101.89
200.595	-6.66
200.814	17.92
201.033	30.21
201.252	89.6
201.471	30.21
201.69	67.07
201.909	17.92
202.128	3.58
202.347	32.26
202.566	-14.85
202.785	-37.38
203.004	38.4
203.223	-10.75
203.442	9.73
203.661	15.87
203.879	-76.29
204.098	-2.56
204.317	13.82
204.536	99.84
204.755	46.59
204.974	28.16
205.193	30.21
205.411	79.36
205.63	-4.61
205.849	30.21
206.068	56.83
206.287	22.02
206.505	50.69
206.724	-47.62
206.943	7.68
207.162	73.21
207.381	-2.56
207.599	5.63
207.818	50.69
208.037	-51.71
208.255	26.11
208.474	58.88
208.693	24.06
208.911	71.17
209.13	65.02
209.349	71.17
209.567	-6.66
209.786	75.26
210.005	42.5
210.223	54.78
210.442	22.02
210.661	71.17
210.879	46.59
211.098	9.73
211.316	50.69
211.535	60.93
211.753	-0.51
211.972	38.4
212.191	50.69
212.409	-14.85
212.628	50.69
212.846	13.82
213.065	13.82
213.283	130.56
213.502	38.4
213.72	79.36
213.938	28.16
214.157	-43.52
214.375	3.58
214.594	24.06
214.812	73.21
215.031	62.98
215.249	17.92
215.467	-6.66
215.686	7.68
215.904	-2.56
216.122	-49.66
216.341	19.97
216.559	71.17
216.778	65.02
216.996	30.21
217.214	-23.04
217.432	13.82
217.651	38.4
217.869	52.74
218.087	24.06
218.306	38.4
218.524	-45.57
218.742	13.82
218.96	114.17
219.179	-16.9
219.397	54.78
219.615	71.17
219.833	-27.14
220.051	69.12
220.27	79.36
220.488	52.74
220.706	9.73
220.924	-14.85
221.142	7.68
221.36	54.78
221.578	60.93
221.796	42.5
222.015	-10.75
222.233	7.68
222.451	22.02
222.669	48.64
222.887	32.26
223.105	114.17
223.323	32.26
223.541	24.06
223.759	46.59
223.977	46.59
224.195	73.21
224.413	87.55
224.631	32.26
224.849	-6.66
225.067	75.26
225.285	7.68
225.503	56.83
225.721	-0.51
225.939	-16.9
226.157	22.02
226.375	89.6
226.592	-14.85
226.81	75.26
227.028	95.74
227.246	62.98
227.464	73.21
227.682	30.21
227.9	38.4
228.117	54.78
228.335	-4.61
228.553	26.11
228.771	-35.33
228.989	13.82
229.206	24.06
229.424	11.78
229.642	-2.56
229.86	-33.28
230.077	93.69
230.295	81.41
230.513	30.21
230.731	26.11
230.948	93.69
231.166	7.68
231.384	-0.51
231.601	26.11
231.819	79.36
232.037	91.65
232.254	-55.81
232.472	-0.51
232.689	13.82
232.907	54.78
233.125	-64
233.342	-49.66
233.56	-70.14
233.777	32.26
233.995	17.92
234.213	54.78
234.43	54.78
234.648	42.5
234.865	15.87
235.083	9.73
235.3	15.87
235.518	71.17
235.735	40.45
235.953	73.21
236.17	56.83
236.388	19.97
236.605	7.68
236.822	108.03
237.04	89.6
237.257	19.97
237.475	30.21
237.692	136.7
237.909	-55.81
238.127	36.35
238.344	-10.75
238.562	-31.23
238.779	-23.04
238.996	-82.43
239.214	7.68
239.431	-2.56
239.648	89.6
239.865	42.5
240.083	22.02
240.3	56.83
240.517	58.88
240.735	48.64
240.952	97.79
241.169	38.4
241.386	22.02
241.603	89.6
241.821	-6.66
242.038	15.87
242.255	105.98
242.472	-88.57
242.689	22.02
242.907	65.02
243.124	-10.75
243.341	48.64
243.558	-20.99
243.775	-0.51
243.992	24.06
244.209	48.64
244.426	60.93
244.643	13.82
244.86	24.06
245.078	79.36
245.295	46.59
245.512	22.02
245.729	89.6
245.946	79.36
246.163	65.02
246.38	-16.9
246.597	-20.99
246.814	-8.7
247.031	97.79
247.248	46.59
247.464	75.26
247.681	19.97
247.898	79.36
248.115	132.61
248.332	-18.94
248.549	52.74
248.766	105.98
248.983	9.73
249.2	38.4
249.417	87.55
249.633	40.45
249.85	46.59
250.067	30.21
250.284	24.06
250.501	87.55
250.717	79.36
250.934	1.54
251.151	99.84
251.368	-66.05
251.585	48.64
251.801	-8.7
252.018	3.58
252.235	56.83
252.451	11.78
252.668	-66.05
252.885	83.45
253.102	38.4
253.318	79.36
253.535	-61.95
253.752	-10.75
253.968	-12.8
254.185	36.35
254.401	40.45
254.618	91.65
254.835	-8.7
255.051	112.13
255.268	95.74
255.484	73.21
255.701	32.26
255.917	54.78
256.134	-2.56
256.351	65.02
256.567	13.82
256.784	-10.75
257	-90.62
257.217	54.78
257.433	11.78
257.65	71.17
257.866	138.75
258.082	11.78
258.299	-2.56
258.515	71.17
258.732	89.6
258.948	73.21
259.165	97.79
259.381	65.02
259.597	110.08
259.814	-72.19
260.03	15.87
260.246	71.17
260.463	56.83
260.679	65.02
260.895	87.55
261.112	46.59
261.328	-23.04
261.544	95.74
261.761	79.36
261.977	46.59
262.193	-25.09
262.409	54.78
262.626	112.13
262.842	30.21
263.058	22.02
263.274	87.55
263.49	93.69
263.707	-2.56
263.923	81.41
264.139	-33.28
264.355	73.21
264.571	71.17
264.787	24.06
265.004	13.82
265.22	91.65
265.436	-25.09
265.652	-20.99
265.868	124.41
266.084	-49.66
266.3	19.97
266.516	-2.56
266.732	-31.23
266.948	7.68
267.164	54.78
267.38	-6.66
267.596	62.98
267.812	11.78
268.028	24.06
268.244	13.82
268.46	93.69
268.676	26.11
268.892	-16.9
269.108	-43.52
269.324	-43.52
269.54	34.3
269.756	71.17
269.972	17.92
270.188	9.73
270.403	-18.94
270.619	38.4
270.835	-25.09
271.051	58.88
271.267	-29.18
271.483	40.45
271.698	75.26
271.914	62.98
272.13	30.21
272.346	69.12
272.562	9.73
272.777	71.17
272.993	103.93
273.209	36.35
273.425	-51.71
273.64	-51.71
273.856	-6.66
274.072	38.4
274.287	-39.42
274.503	60.93
274.719	36.35
274.934	13.82
275.15	-25.09
275.366	42.5
275.581	-35.33
275.797	62.98
276.012	38.4
276.228	40.45
276.444	30.21
276.659	13.82
276.875	13.82
277.09	19.97
277.306	-10.75
277.521	17.92
277.737	56.83
277.952	56.83
278.168	-2.56
278.383	91.65
278.599	-31.23
278.814	83.45
279.03	32.26
279.245	144.89
279.461	91.65
279.676	62.98
279.892	-0.51
280.107	-25.09
280.322	22.02
280.538	26.11
280.753	22.02
280.969	50.69
281.184	97.79
281.399	136.7
281.615	32.26
281.83	56.83
282.045	-2.56
282.26	7.68
282.476	-18.94
282.691	56.83
282.906	24.06
283.122	13.82
283.337	-10.75
283.552	46.59
283.767	65.02
283.983	83.45
284.198	13.82
284.413	-33.28
284.628	7.68
284.843	26.11
285.058	79.36
285.274	-33.28
285.489	-0.51
285.704	56.83
285.919	-39.42
286.134	5.63
286.349	60.93
286.564	30.21
286.779	38.4
286.995	73.21
287.21	83.45
287.425	65.02
287.64	-0.51
287.855	24.06
288.07	-78.33
288.285	36.35
288.5	79.36
288.715	56.83
288.93	42.5
289.145	36.35
289.36	136.7
289.575	11.78
289.79	50.69
290.004	-35.33
290.219	58.88
290.434	52.74
290.649	62.98
290.864	22.02
291.079	7.68
291.294	19.97
291.509	15.87
291.724	48.64
291.938	44.54
292.153	-6.66
292.368	30.21
292.583	30.21
292.798	26.11
293.012	40.45
293.227	-39.42
293.442	22.02
293.657	48.64
293.871	105.98
294.086	17.92
294.301	136.7
294.516	34.3
294.73	58.88
294.945	-16.9
295.16	-4.61
295.374	134.65
295.589	56.83
295.804	-10.75
296.018	44.54
296.233	34.3
296.447	140.8
296.662	7.68
296.877	22.02
297.091	22.02
297.306	58.88
297.52	13.82
297.735	75.26
297.949	-2.56
298.164	79.36
298.378	30.21
298.593	-35.33
298.807	-35.33
299.022	32.26
299.236	124.41
299.451	46.59
299.665	54.78
299.88	56.83
300.094	-10.75
300.309	87.55
300.523	50.69
300.737	95.74
300.952	22.02
301.166	30.21
301.381	-18.94
301.595	50.69
301.809	42.5
302.024	32.26
302.238	-14.85
302.452	65.02
302.667	7.68
302.881	50.69
303.095	30.21
303.309	95.74
303.524	108.03
303.738	13.82
303.952	-33.28
304.166	81.41
304.381	-39.42
304.595	108.03
304.809	26.11
305.023	38.4
305.237	-27.14
305.452	5.63
305.666	108.03
305.88	17.92
306.094	62.98
306.308	81.41
306.522	128.51
306.736	42.5
306.95	79.36
307.164	58.88
307.379	56.83
307.593	77.31
307.807	79.36
308.021	38.4
308.235	-2.56
308.449	24.06
308.663	-45.57
308.877	138.75
309.091	30.21
309.305	89.6
309.519	-27.14
309.733	128.51
309.947	-64
310.161	36.35
310.374	58.88
310.588	40.45
310.802	44.54
311.016	38.4
311.23	50.69
311.444	46.59
311.658	42.5
311.872	67.07
312.085	5.63
312.299	32.26
312.513	44.54
312.727	54.78
312.941	95.74
313.154	46.59
313.368	58.88
313.582	67.07
313.796	103.93
314.009	62.98
314.223	83.45
314.437	-2.56
314.651	-10.75
314.864	38.4
315.078	-14.85
315.292	9.73
315.505	32.26
315.719	56.83
315.933	32.26
316.146	46.59
316.36	-43.52
316.573	69.12
316.787	13.82
317.001	95.74
317.214	-10.75
317.428	44.54
317.641	15.87
317.855	124.41
318.068	-2.56
318.282	34.3
318.495	22.02
318.709	67.07
318.922	79.36
319.136	67.07
319.349	79.36
319.563	87.55
319.776	95.74
319.99	32.26
320.203	58.88
320.417	19.97
320.63	38.4
320.843	161.28
321.057	34.3
321.27	-2.56
321.483	13.82
321.697	103.93
321.91	54.78
322.124	130.56
322.337	71.17
322.55	62.98
322.763	54.78
322.977	79.36
323.19	46.59
323.403	30.21
323.617	62.98
323.83	62.98
324.043	-20.99
324.256	15.87
324.469	-33.28
324.683	65.02
324.896	-12.8
325.109	83.45
325.322	-39.42
325.535	46.59
325.748	105.98
325.962	26.11
326.175	5.63
326.388	26.11
326.601	22.02
326.814	105.98
327.027	24.06
327.24	130.56
327.453	-2.56
327.666	5.63
327.879	120.32
328.092	38.4
328.305	114.17
328.518	81.41
328.731	-39.42
328.944	17.92
329.157	99.84
329.37	15.87
329.583	44.54
329.796	87.55
330.009	-37.38
330.222	103.93
330.435	50.69
330.648	69.12
330.861	46.59
331.073	38.4
331.286	69.12
331.499	30.21
331.712	36.35
331.925	89.6
332.138	-4.61
332.35	34.3
332.563	-12.8
332.776	79.36
332.989	-0.51
333.202	40.45
333.414	54.78
333.627	11.78
333.84	54.78
334.053	50.69
334.265	36.35
334.478	65.02
334.691	65.02
334.903	79.36
335.116	-20.99
335.329	62.98
335.541	54.78
335.754	30.21
335.966	-18.94
336.179	30.21
336.392	30.21
336.604	71.17
336.817	50.69
337.029	48.64
337.242	103.93
337.454	134.65
337.667	-4.61
337.88	144.89
338.092	3.58
338.305	46.59
338.517	34.3
338.729	120.32
338.942	62.98
339.154	26.11
339.367	-49.66
339.579	-0.51
339.792	56.83
340.004	-6.66
340.217	71.17
340.429	54.78
340.641	15.87
340.854	62.98
341.066	40.45
341.278	38.4
341.491	128.51
341.703	128.51
341.915	7.68
342.128	32.26
342.34	67.07
342.552	15.87
342.764	50.69
342.977	1.54
343.189	32.26
343.401	50.69
343.613	42.5
343.826	-0.51
344.038	24.06
344.25	22.02
344.462	-2.56
344.674	38.4
344.886	40.45
345.099	58.88
345.311	28.16
345.523	-10.75
345.735	28.16
345.947	38.4
346.159	5.63
346.371	50.69
346.583	-0.51
346.795	138.75
347.007	93.69
347.219	26.11
347.431	73.21
347.643	44.54
347.855	54.78
348.067	73.21
348.279	81.41
348.491	44.54
348.703	3.58
348.915	30.21
349.127	26.11
349.339	30.21
349.551	-10.75
349.763	30.21
349.975	62.98
350.187	19.97
350.399	67.07
350.61	-2.56
350.822	30.21
351.034	28.16
351.246	75.26
351.458	38.4
351.669	65.02
351.881	112.13
352.093	46.59
352.305	179.71
352.517	71.17
352.728	79.36
352.94	17.92
353.152	60.93
353.363	73.21
353.575	89.6
353.787	50.69
353.999	42.5
354.21	114.17
354.422	71.17
354.633	54.78
354.845	136.7
355.057	108.03
355.268	34.3
355.48	89.6
355.692	38.4
355.903	-27.14
356.115	1.54
356.326	9.73
356.538	99.84
356.749	83.45
356.961	99.84
357.172	-18.94
357.384	-6.66
357.595	122.37
357.807	83.45
358.018	9.73
358.23	112.13
358.441	77.31
358.653	112.13
358.864	42.5
359.075	9.73
359.287	56.83
359.498	114.17
359.709	32.26
359.921	132.61
360.132	71.17
360.344	114.17
360.555	95.74
360.766	46.59
360.977	50.69
361.189	79.36
361.4	95.74
361.611	1.54
361.823	30.21
362.034	71.17
362.245	-49.66
362.456	32.26
362.667	114.17
362.879	58.88
363.09	38.4
363.301	132.61
363.512	30.21
363.723	-33.28
363.935	-33.28
364.146	48.64
364.357	71.17
364.568	71.17
364.779	13.82
364.99	40.45
365.201	42.5
365.412	71.17
365.623	58.88
365.834	73.21
366.045	87.55
366.256	13.82
366.467	50.69
366.678	128.51
366.889	-29.18
367.1	9.73
367.311	58.88
367.522	-6.66
367.733	9.73
367.944	71.17
368.155	1.54
368.366	101.89
368.577	62.98
368.788	44.54
368.999	5.63
369.209	13.82
369.42	151.04
369.631	73.21
369.842	120.32
370.053	60.93
370.264	24.06
370.474	38.4
370.685	97.79
370.896	54.78
371.107	79.36
371.317	38.4
371.528	48.64
371.739	108.03
371.95	30.21
372.16	97.79
372.371	-6.66
372.582	95.74
372.792	-16.9
373.003	87.55
373.214	71.17
373.424	54.78
373.635	48.64
373.846	30.21
374.056	62.98
374.267	97.79
374.477	71.17
374.688	30.21
374.898	13.82
375.109	48.64
375.319	54.78
375.53	103.93
375.74	79.36
375.951	48.64
376.161	85.5
376.372	89.6
376.582	46.59
376.793	62.98
377.003	34.3
377.214	34.3
377.424	46.59
377.635	79.36
377.845	-4.61
378.055	105.98
378.266	28.16
378.476	58.88
378.686	54.78
378.897	67.07
379.107	44.54
379.317	30.21
379.528	48.64
379.738	81.41
379.948	128.51
380.158	56.83
380.369	32.26
380.579	52.74
380.789	42.5
380.999	81.41
381.21	83.45
381.42	54.78
381.63	-2.56
381.84	77.31
382.05	5.63
382.261	50.69
382.471	17.92
382.681	-8.7
382.891	22.02
383.101	54.78
383.311	38.4
383.521	-31.23
383.731	128.51
383.941	185.85
384.151	13.82
384.361	75.26
384.571	75.26
384.781	95.74
384.991	13.82
385.201	103.93
385.411	62.98
385.621	112.13
385.831	50.69
386.041	79.36
386.251	108.03
386.461	122.37
386.671	71.17
386.881	50.69
387.091	-10.75
387.301	120.32
387.511	99.84
387.72	108.03
387.93	-61.95
388.14	34.3
388.35	38.4
388.56	171.52
388.769	65.02
388.979	13.82
389.189	50.69
389.399	-12.8
389.609	38.4
389.818	130.56
390.028	118.27
390.238	79.36
390.447	-8.7
390.657	-6.66
390.867	22.02
391.076	65.02
391.286	75.26
391.496	22.02
391.705	34.3
391.915	112.13
392.125	144.89
392.334	87.55
392.544	79.36
392.753	99.84
392.963	93.69
393.172	54.78
393.382	36.35
393.591	79.36
393.801	89.6
394.01	73.21
394.22	89.6
394.429	34.3
394.639	112.13
394.848	108.03
395.058	144.89
395.267	85.5
395.477	103.93
395.686	165.37
395.895	155.13
396.105	140.8
396.314	54.78
396.524	38.4
396.733	56.83
396.942	62.98
397.152	54.78
397.361	112.13
397.57	99.84
397.78	71.17
397.989	71.17
398.198	142.85
398.407	81.41
398.617	89.6
398.826	93.69
399.035	13.82
399.244	95.74
399.453	97.79
399.663	97.79
399.872	155.13
400.081	73.21
400.29	132.61
400.499	24.06
400.708	144.89
400.917	65.02
401.127	11.78
401.336	7.68
401.545	161.28
401.754	132.61
401.963	79.36
402.172	46.59
402.381	136.7
402.59	30.21
402.799	71.17
403.008	169.47
403.217	134.65
403.426	124.41
403.635	46.59
403.844	161.28
404.053	65.02
404.262	81.41
404.471	103.93
404.68	163.33
404.888	181.76
405.097	138.75
405.306	187.9
405.515	126.46
405.724	155.13
405.933	128.51
406.142	148.99
406.35	140.8
406.559	202.24
406.768	161.28
406.977	146.94
407.185	130.56
407.394	157.18
407.603	89.6
407.812	210.43
408.02	249.34
408.229	237.05
408.438	202.24
408.646	185.85
408.855	140.8
409.064	280.06
409.272	243.2
409.481	243.2
409.69	280.06
409.898	259.58
410.107	298.49
410.315	308.73
410.524	206.33
410.733	269.82
410.941	247.29
411.15	292.35
411.358	325.12
411.567	421.37
411.775	370.17
411.984	386.55
412.192	376.31
412.401	452.09
412.609	366.07
412.818	441.85
413.026	425.47
413.234	407.03
413.443	488.95
413.651	480.76
413.86	572.92
414.068	542.2
414.276	574.97
414.485	548.34
414.693	615.93
414.901	589.3
415.11	622.07
415.318	638.45
415.526	579.06
415.734	693.75
415.943	630.26
416.151	726.52
416.359	663.03
416.567	833.01
416.776	785.91
416.984	738.8
417.192	914.93
417.4	800.24
417.608	826.87
417.817	761.33
418.025	855.54
418.233	988.66
418.441	959.99
418.649	921.07
418.857	1162.73
419.065	1140.21
419.273	1046
419.481	1195.5
419.689	1201.65
419.897	1213.93
420.105	1238.51
420.313	1299.95
420.521	1381.87
420.729	1390.06
420.937	1431.02
421.145	1402.35
421.353	1549.8
421.561	1644.01
421.769	1607.14
421.977	1668.58
422.185	1783.27
422.393	1824.23
422.601	2029.03
422.809	1924.58
423.017	1932.77
423.224	2035.17
423.432	2086.37
423.64	2080.22
423.848	2254.3
424.056	2227.68
424.263	2336.22
424.471	2391.52
424.679	2455
424.887	2465.24
425.094	2815.45
425.302	2602.46
425.51	2620.89
425.718	2807.25
425.925	2741.72
426.133	2893.27
426.341	3159.5
426.548	3306.96
426.756	3245.52
426.964	3317.2
427.171	3478.99
427.379	3585.48
427.586	3642.82
427.794	3880.39
428.001	3976.64
428.209	4128.19
428.417	3978.69
428.624	4298.17
428.832	4265.41
429.039	4244.93
429.247	4294.08
429.454	4740.54
429.662	4980.15
429.869	4810.17
430.076	5031.35
430.284	4969.91
430.491	5146.03
430.699	5455.28
430.906	5297.58
431.114	5451.18
431.321	5651.88
431.528	5633.45
431.736	6133.15
431.943	6440.35
432.15	6135.2
432.358	6364.57
432.565	6516.12
432.772	6655.39
432.979	6944.15
433.187	7230.87
433.394	7038.36
433.601	7533.97
433.808	7462.29
434.016	7554.44
434.223	7681.42
434.43	8197.51
434.637	8181.12
434.844	8508.8
435.052	8805.75
435.259	8869.24
435.466	8815.99
435.673	8672.64
435.88	9229.68
436.087	9766.25
436.294	9837.93
436.501	9481.58
436.708	9624.94
436.915	10040.68
437.122	10405.22
437.329	10501.47
437.537	10747.23
437.743	11001.18
437.95	10771.8
438.157	11511.12
438.364	11806.03
438.571	11783.5
438.778	11658.57
438.985	12918.07
439.192	12754.24
439.399	12791.1
439.606	12586.3
439.813	13430.07
440.02	14157.1
440.227	13808.94
440.433	13901.1
440.64	14079.27
440.847	13952.3
441.054	14540.07
441.261	15246.62
441.467	15369.49
441.674	15463.7
441.881	15922.45
442.088	16004.36
442.294	15688.98
442.501	16268.55
442.708	16545.03
442.914	17396.98
443.121	17782
443.328	17609.97
443.534	18498.79
443.741	17970.41
443.948	18298.09
444.154	19317.98
444.361	19084.51
444.568	19115.23
444.774	19127.52
444.981	19213.53
445.187	20036.81
445.394	20720.84
445.6	20427.98
445.807	22422.7
446.013	21597.37
446.22	21810.36
446.426	22928.55
446.633	22951.07
446.839	23856.28
447.046	22647.97
447.252	24110.22
447.459	24110.22
447.665	23852.18
447.871	24874.12
448.078	26000.5
448.284	24949.89
448.491	25793.65
448.697	26354.8
448.903	27231.33
449.11	27235.42
449.316	26733.67
449.522	26895.46
449.728	28011.6
449.935	28163.15
450.141	28230.74
450.347	28730.44
450.553	27688.03
450.76	28496.97
450.966	29152.32
451.172	29094.98
451.378	29553.73
451.584	28793.93
451.791	30053.43
451.997	29740.09
452.203	30121.01
452.409	29940.79
452.615	30307.38
452.821	29219.91
453.027	28456.01
453.233	30309.43
453.44	28992.58
453.646	29340.74
453.852	29271.11
454.058	30243.89
454.264	29035.59
454.47	29652.03
454.676	28722.25
454.882	30071.86
455.088	27665.5
455.294	27753.56
455.5	28372.05
455.705	28376.14
455.911	27503.71
456.117	26860.65
456.323	26719.34
456.529	25056.39
456.735	26647.66
456.941	25842.81
457.147	25433.21
457.352	24663.18
457.558	24085.65
457.764	24239.25
457.97	24018.07
458.176	23493.79
458.381	23424.15
458.587	22246.57
458.793	22555.82
458.999	20997.31
459.204	22674.6
459.41	22002.86
459.616	20817.09
459.821	20501.7
460.027	20335.82
460.233	20264.14
460.438	19113.18
460.644	19377.37
460.85	18521.32
461.055	18242.79
461.261	18101.48
461.466	16686.34
461.672	16106.76
461.878	17513.72
462.083	16438.53
462.289	16047.37
462.494	15865.1
462.7	15183.13
462.905	14677.28
463.111	15234.33
463.316	15320.34
463.522	15066.39
463.727	14912.8
463.932	14998.81
464.138	14636.32
464.343	14771.49
464.549	14669.09
464.754	14869.79
464.959	14685.47
465.165	14646.56
465.37	14028.07
465.575	13792.56
465.781	14140.71
465.986	14363.94
466.191	13743.41
466.397	13593.9
466.602	12977.47
466.807	13198.65
467.012	13292.85
467.218	13221.17
467.423	12735.81
467.628	13215.03
