Data from USB4F104151__295__14-46-31-433.txt Node

Date: Thu Mar 13 14:46:31 EDT 2025
User: louis
Spectrometer: USB4F10415
Trigger mode: 4
Integration Time (sec): 2.000000E-2
Scans to average: 1
Electric dark correction enabled: true
Nonlinearity correction enabled: false
Boxcar width: 0
XAxis mode: Wavelengths
Number of Pixels in Spectrum: 3648
>>>>>Begin Spectral Data<<<<<
178.204	-104.45
178.424	-104.45
178.644	-104.45
178.864	-100.35
179.084	-96.25
179.304	-14.34
179.524	-18.43
179.744	-4.1
179.964	43.01
180.184	18.43
180.404	-45.06
180.624	30.72
180.844	-32.77
181.064	14.34
181.283	34.82
181.503	-4.1
181.723	-22.53
181.943	-22.53
182.163	135.17
182.383	34.82
182.602	26.62
182.822	94.21
183.042	45.06
183.262	-55.3
183.482	34.82
183.701	36.86
183.921	61.44
184.141	-2.05
184.361	28.67
184.58	96.25
184.8	-24.58
185.02	24.58
185.239	34.82
185.459	55.3
185.679	75.77
185.898	12.29
186.118	14.34
186.338	4.1
186.557	10.24
186.777	-49.15
186.997	18.43
187.216	-36.86
187.436	67.58
187.655	-22.53
187.875	28.67
188.095	-65.53
188.314	98.3
188.534	-10.24
188.753	63.49
188.973	18.43
189.192	118.78
189.412	45.06
189.631	24.58
189.851	16.38
190.07	14.34
190.29	-26.62
190.509	-8.19
190.729	18.43
190.948	18.43
191.168	135.17
191.387	51.2
191.607	-18.43
191.826	-6.14
192.045	32.77
192.265	-26.62
192.484	0
192.704	71.68
192.923	-43.01
193.142	55.3
193.362	59.39
193.581	83.97
193.8	77.82
194.02	-14.34
194.239	45.06
194.458	-8.19
194.678	-22.53
194.897	4.1
195.116	51.2
195.335	20.48
195.555	-2.05
195.774	2.05
195.993	20.48
196.212	24.58
196.432	10.24
196.651	24.58
196.87	-55.3
197.089	96.25
197.308	22.53
197.528	-8.19
197.747	-10.24
197.966	-10.24
198.185	55.3
198.404	2.05
198.623	38.91
198.842	-6.14
199.062	38.91
199.281	118.78
199.5	26.62
199.719	26.62
199.938	-63.49
200.157	18.43
200.376	-26.62
200.595	102.4
200.814	38.91
201.033	12.29
201.252	43.01
201.471	14.34
201.69	22.53
201.909	61.44
202.128	43.01
202.347	69.63
202.566	59.39
202.785	12.29
203.004	-32.77
203.223	55.3
203.442	-14.34
203.661	43.01
203.879	75.77
204.098	45.06
204.317	75.77
204.536	55.3
204.755	45.06
204.974	34.82
205.193	-18.43
205.411	73.73
205.63	-2.05
205.849	49.15
206.068	18.43
206.287	28.67
206.505	32.77
206.724	-8.19
206.943	-6.14
207.162	12.29
207.381	75.77
207.599	-30.72
207.818	-18.43
208.037	2.05
208.255	20.48
208.474	18.43
208.693	34.82
208.911	6.14
209.13	-55.3
209.349	94.21
209.567	51.2
209.786	94.21
210.005	-4.1
210.223	-22.53
210.442	18.43
210.661	-14.34
210.879	14.34
211.098	8.19
211.316	18.43
211.535	65.54
211.753	59.39
211.972	-47.1
212.191	34.82
212.409	6.14
212.628	71.68
212.846	40.96
213.065	47.1
213.283	61.44
213.502	51.2
213.72	-6.14
213.938	18.43
214.157	-28.67
214.375	-30.72
214.594	-36.86
214.812	-16.38
215.031	28.67
215.249	-14.34
215.467	-26.62
215.686	-6.14
215.904	12.29
216.122	-43.01
216.341	51.2
216.559	26.62
216.778	102.4
216.996	92.16
217.214	-28.67
217.432	28.67
217.651	47.1
217.869	-12.29
218.087	38.91
218.306	24.58
218.524	18.43
218.742	12.29
218.96	-22.53
219.179	43.01
219.397	88.06
219.615	61.44
219.833	102.4
220.051	-10.24
220.27	53.25
220.488	-43.01
220.706	-2.05
220.924	38.91
221.142	34.82
221.36	-88.06
221.578	-6.14
221.796	2.05
222.015	10.24
222.233	-2.05
222.451	137.21
222.669	-10.24
222.887	34.82
223.105	2.05
223.323	-2.05
223.541	-34.82
223.759	-12.29
223.977	30.72
224.195	10.24
224.413	6.14
224.631	43.01
224.849	10.24
225.067	34.82
225.285	0
225.503	20.48
225.721	30.72
225.939	-4.1
226.157	61.44
226.375	43.01
226.592	2.05
226.81	4.1
227.028	-47.1
227.246	10.24
227.464	61.44
227.682	30.72
227.9	116.73
228.117	22.53
228.335	63.49
228.553	92.16
228.771	67.58
228.989	63.49
229.206	38.91
229.424	90.11
229.642	22.53
229.86	-12.29
230.077	6.14
230.295	63.49
230.513	88.06
230.731	61.44
230.948	45.06
231.166	-6.14
231.384	-14.34
231.601	-38.91
231.819	53.25
232.037	34.82
232.254	-26.62
232.472	36.86
232.689	-26.62
232.907	-14.34
233.125	8.19
233.342	-38.91
233.56	-61.44
233.777	-16.38
233.995	-18.43
234.213	59.39
234.43	-2.05
234.648	-6.14
234.865	-49.15
235.083	47.1
235.3	51.2
235.518	14.34
235.735	47.1
235.953	36.86
236.17	-16.38
236.388	141.31
236.605	-28.67
236.822	12.29
237.04	71.68
237.257	51.2
237.475	96.25
237.692	47.1
237.909	16.38
238.127	88.06
238.344	81.92
238.562	92.16
238.779	26.62
238.996	-28.67
239.214	2.05
239.431	28.67
239.648	-63.49
239.865	79.87
240.083	10.24
240.3	-14.34
240.517	18.43
240.735	-18.43
240.952	63.49
241.169	51.2
241.386	59.39
241.603	-53.25
241.821	36.86
242.038	-22.53
242.255	45.06
242.472	2.05
242.689	10.24
242.907	67.58
243.124	10.24
243.341	-61.44
243.558	47.1
243.775	-16.38
243.992	-26.62
244.209	10.24
244.426	61.44
244.643	26.62
244.86	10.24
245.078	43.01
245.295	-2.05
245.512	57.34
245.729	43.01
245.946	10.24
246.163	-6.14
246.38	-6.14
246.597	18.43
246.814	-22.53
247.031	51.2
247.248	10.24
247.464	34.82
247.681	108.54
247.898	-4.1
248.115	43.01
248.332	38.91
248.549	59.39
248.766	143.36
248.983	28.67
249.2	-30.72
249.417	59.39
249.633	-22.53
249.85	36.86
250.067	20.48
250.284	-16.38
250.501	51.2
250.717	-6.14
250.934	-51.2
251.151	-43.01
251.368	59.39
251.585	-36.86
251.801	2.05
252.018	4.1
252.235	38.91
252.451	-6.14
252.668	51.2
252.885	14.34
253.102	4.1
253.318	14.34
253.535	92.16
253.752	-2.05
253.968	-4.1
254.185	32.77
254.401	0
254.618	45.06
254.835	4.1
255.051	36.86
255.268	-6.14
255.484	28.67
255.701	-12.29
255.917	55.3
256.134	22.53
256.351	-14.34
256.567	12.29
256.784	10.24
257	-30.72
257.217	108.54
257.433	-10.24
257.65	12.29
257.866	81.92
258.082	-2.05
258.299	67.58
258.515	51.2
258.732	32.77
258.948	-12.29
259.165	6.14
259.381	-22.53
259.597	-108.54
259.814	59.39
260.03	6.14
260.246	-6.14
260.463	43.01
260.679	-6.14
260.895	-14.34
261.112	6.14
261.328	4.1
261.544	34.82
261.761	149.5
261.977	20.48
262.193	-22.53
262.409	-40.96
262.626	12.29
262.842	28.67
263.058	-6.14
263.274	18.43
263.49	10.24
263.707	38.91
263.923	-30.72
264.139	-28.67
264.355	14.34
264.571	104.45
264.787	-51.2
265.004	2.05
265.22	-20.48
265.436	-18.43
265.652	-24.58
265.868	18.43
266.084	36.86
266.3	43.01
266.516	10.24
266.732	102.4
266.948	10.24
267.164	18.43
267.38	49.15
267.596	100.35
267.812	32.77
268.028	83.97
268.244	51.2
268.46	77.82
268.676	18.43
268.892	-12.29
269.108	-12.29
269.324	-34.82
269.54	43.01
269.756	34.82
269.972	34.82
270.188	59.39
270.403	10.24
270.619	12.29
270.835	32.77
271.051	26.62
271.267	28.67
271.483	20.48
271.698	20.48
271.914	30.72
272.13	47.1
272.346	0
272.562	-6.14
272.777	57.34
272.993	-14.34
273.209	63.49
273.425	34.82
273.64	20.48
273.856	65.54
274.072	-47.1
274.287	20.48
274.503	36.86
274.719	26.62
274.934	36.86
275.15	18.43
275.366	38.91
275.581	53.25
275.797	10.24
276.012	12.29
276.228	18.43
276.444	114.69
276.659	77.82
276.875	-32.77
277.09	45.06
277.306	-14.34
277.521	65.54
277.737	-6.14
277.952	12.29
278.168	43.01
278.383	2.05
278.599	22.53
278.814	77.82
279.03	43.01
279.245	81.92
279.461	4.1
279.676	112.64
279.892	-96.25
280.107	43.01
280.322	16.38
280.538	30.72
280.753	-2.05
280.969	-47.1
281.184	10.24
281.399	-36.86
281.615	-12.29
281.83	34.82
282.045	-22.53
282.26	51.2
282.476	-14.34
282.691	79.87
282.906	-59.39
283.122	49.15
283.337	-45.06
283.552	81.92
283.767	14.34
283.983	67.58
284.198	30.72
284.413	-20.48
284.628	22.53
284.843	53.25
285.058	43.01
285.274	28.67
285.489	47.1
285.704	71.68
285.919	28.67
286.134	-26.62
286.349	28.67
286.564	10.24
286.779	20.48
286.995	-49.15
287.21	-16.38
287.425	45.06
287.64	83.97
287.855	69.63
288.07	-36.86
288.285	108.54
288.5	61.44
288.715	116.73
288.93	43.01
289.145	77.82
289.36	57.34
289.575	34.82
289.79	53.25
290.004	-6.14
290.219	88.06
290.434	14.34
290.649	-8.19
290.864	-26.62
291.079	26.62
291.294	16.38
291.509	-4.1
291.724	45.06
291.938	4.1
292.153	149.5
292.368	-10.24
292.583	12.29
292.798	71.68
293.012	-28.67
293.227	10.24
293.442	28.67
293.657	4.1
293.871	12.29
294.086	-43.01
294.301	100.35
294.516	10.24
294.73	20.48
294.945	-24.58
295.16	34.82
295.374	20.48
295.589	108.54
295.804	6.14
296.018	49.15
296.233	73.73
296.447	-2.05
296.662	24.58
296.877	24.58
297.091	18.43
297.306	67.58
297.52	-4.1
297.735	79.87
297.949	59.39
298.164	45.06
298.378	10.24
298.593	47.1
298.807	10.24
299.022	-47.1
299.236	22.53
299.451	-14.34
299.665	-34.82
299.88	24.58
300.094	-2.05
300.309	4.1
300.523	24.58
300.737	36.86
300.952	-53.25
301.166	34.82
301.381	34.82
301.595	55.3
301.809	34.82
302.024	51.2
302.238	-69.63
302.452	67.58
302.667	4.1
302.881	63.49
303.095	18.43
303.309	-28.67
303.524	2.05
303.738	2.05
303.952	30.72
304.166	67.58
304.381	-24.58
304.595	110.59
304.809	-2.05
305.023	-4.1
305.237	-26.62
305.452	34.82
305.666	-2.05
305.88	104.45
306.094	10.24
306.308	0
306.522	118.78
306.736	51.2
306.95	12.29
307.164	49.15
307.379	-34.82
307.593	75.77
307.807	22.53
308.021	34.82
308.235	100.35
308.449	-18.43
308.663	28.67
308.877	110.59
309.091	-14.34
309.305	88.06
309.519	4.1
309.733	28.67
309.947	2.05
310.161	71.68
310.374	28.67
310.588	-6.14
310.802	10.24
311.016	-6.14
311.23	43.01
311.444	-16.38
311.658	94.21
311.872	116.73
312.085	47.1
312.299	79.87
312.513	77.82
312.727	30.72
312.941	36.86
313.154	-14.34
313.368	-18.43
313.582	51.2
313.796	67.58
314.009	59.39
314.223	-14.34
314.437	61.44
314.651	16.38
314.864	20.48
315.078	-12.29
315.292	-8.19
315.505	-55.3
315.719	-38.91
315.933	-34.82
316.146	18.43
316.36	-18.43
316.573	22.53
316.787	75.77
317.001	34.82
317.214	51.2
317.428	16.38
317.641	-53.25
317.855	-14.34
318.068	2.05
318.282	-53.25
318.495	67.58
318.709	69.63
318.922	59.39
319.136	102.4
319.349	77.82
319.563	26.62
319.776	-30.72
319.99	18.43
320.203	8.19
320.417	8.19
320.63	-14.34
320.843	69.63
321.057	22.53
321.27	-34.82
321.483	120.83
321.697	116.73
321.91	-14.34
322.124	22.53
322.337	26.62
322.55	-28.67
322.763	-14.34
322.977	18.43
323.19	-53.25
323.403	4.1
323.617	28.67
323.83	-8.19
324.043	-45.06
324.256	2.05
324.469	24.58
324.683	112.64
324.896	10.24
325.109	67.58
325.322	12.29
325.535	98.3
325.748	14.34
325.962	10.24
326.175	26.62
326.388	6.14
326.601	30.72
326.814	-26.62
327.027	92.16
327.24	96.25
327.453	-28.67
327.666	4.1
327.879	22.53
328.092	-12.29
328.305	6.14
328.518	28.67
328.731	38.91
328.944	47.1
329.157	112.64
329.37	14.34
329.583	18.43
329.796	59.39
330.009	2.05
330.222	22.53
330.435	10.24
330.648	10.24
330.861	34.82
331.073	22.53
331.286	14.34
331.499	63.49
331.712	-14.34
331.925	63.49
332.138	14.34
332.35	69.63
332.563	28.67
332.776	86.01
332.989	-16.38
333.202	96.25
333.414	-18.43
333.627	-6.14
333.84	14.34
334.053	94.21
334.265	53.25
334.478	49.15
334.691	36.86
334.903	49.15
335.116	43.01
335.329	-43.01
335.541	51.2
335.754	100.35
335.966	-43.01
336.179	-6.14
336.392	47.1
336.604	-24.58
336.817	71.68
337.029	45.06
337.242	20.48
337.454	26.62
337.667	30.72
337.88	4.1
338.092	18.43
338.305	81.92
338.517	2.05
338.729	53.25
338.942	67.58
339.154	51.2
339.367	-22.53
339.579	126.97
339.792	-26.62
340.004	43.01
340.217	40.96
340.429	12.29
340.641	-10.24
340.854	-36.86
341.066	-55.3
341.278	-6.14
341.491	14.34
341.703	63.49
341.915	83.97
342.128	10.24
342.34	-49.15
342.552	43.01
342.764	22.53
342.977	14.34
343.189	49.15
343.401	-47.1
343.613	10.24
343.826	61.44
344.038	67.58
344.25	67.58
344.462	-6.14
344.674	-14.34
344.886	86.01
345.099	43.01
345.311	30.72
345.523	-30.72
345.735	43.01
345.947	53.25
346.159	-34.82
346.371	-20.48
346.583	-14.34
346.795	90.11
347.007	55.3
347.219	92.16
347.431	-20.48
347.643	-10.24
347.855	-10.24
348.067	36.86
348.279	38.91
348.491	51.2
348.703	83.97
348.915	4.1
349.127	-86.01
349.339	2.05
349.551	-32.77
349.763	79.87
349.975	34.82
350.187	51.2
350.399	24.58
350.61	118.78
350.822	77.82
351.034	24.58
351.246	67.58
351.458	69.63
351.669	69.63
351.881	26.62
352.093	18.43
352.305	-30.72
352.517	47.1
352.728	96.25
352.94	-10.24
353.152	59.39
353.363	-6.14
353.575	96.25
353.787	34.82
353.999	18.43
354.21	45.06
354.422	43.01
354.633	40.96
354.845	28.67
355.057	51.2
355.268	45.06
355.48	94.21
355.692	-55.3
355.903	57.34
356.115	45.06
356.326	43.01
356.538	59.39
356.749	14.34
356.961	38.91
357.172	6.14
357.384	-14.34
357.595	30.72
357.807	53.25
358.018	-61.44
358.23	118.78
358.441	116.73
358.653	30.72
358.864	28.67
359.075	-6.14
359.287	12.29
359.498	69.63
359.709	47.1
359.921	22.53
360.132	36.86
360.344	49.15
360.555	-22.53
360.766	38.91
360.977	36.86
361.189	53.25
361.4	55.3
361.611	43.01
361.823	30.72
362.034	-12.29
362.245	-10.24
362.456	-12.29
362.667	36.86
362.879	34.82
363.09	88.06
363.301	26.62
363.512	88.06
363.723	40.96
363.935	34.82
364.146	30.72
364.357	38.91
364.568	22.53
364.779	-22.53
364.99	102.4
365.201	14.34
365.412	49.15
365.623	18.43
365.834	12.29
366.045	67.58
366.256	36.86
366.467	-18.43
366.678	55.3
366.889	53.25
367.1	43.01
367.311	-6.14
367.522	-20.48
367.733	10.24
367.944	24.58
368.155	81.92
368.366	28.67
368.577	126.97
368.788	34.82
368.999	40.96
369.209	10.24
369.42	51.2
369.631	92.16
369.842	26.62
370.053	-20.48
370.264	34.82
370.474	79.87
370.685	18.43
370.896	-22.53
371.107	43.01
371.317	-55.3
371.528	-14.34
371.739	83.97
371.95	47.1
372.16	12.29
372.371	4.1
372.582	-47.1
372.792	43.01
373.003	96.25
373.214	-61.44
373.424	53.25
373.635	34.82
373.846	38.91
374.056	18.43
374.267	75.77
374.477	22.53
374.688	12.29
374.898	-2.05
375.109	16.38
375.319	32.77
375.53	22.53
375.74	-16.38
375.951	-4.1
376.161	38.91
376.372	55.3
376.582	28.67
376.793	-22.53
377.003	-36.86
377.214	-51.2
377.424	51.2
377.635	10.24
377.845	69.63
378.055	43.01
378.266	6.14
378.476	61.44
378.686	16.38
378.897	59.39
379.107	61.44
379.317	81.92
379.528	8.19
379.738	61.44
379.948	-30.72
380.158	30.72
380.369	-4.1
380.579	26.62
380.789	-6.14
380.999	-30.72
381.21	51.2
381.42	20.48
381.63	43.01
381.84	43.01
382.05	-45.06
382.261	131.07
382.471	108.54
382.681	14.34
382.891	61.44
383.101	45.06
383.311	38.91
383.521	-14.34
383.731	61.44
383.941	28.67
384.151	-16.38
384.361	-18.43
384.571	6.14
384.781	26.62
384.991	61.44
385.201	112.64
385.411	40.96
385.621	69.63
385.831	-4.1
386.041	-22.53
386.251	45.06
386.461	120.83
386.671	-2.05
386.881	2.05
387.091	-94.21
387.301	126.97
387.511	53.25
387.72	61.44
387.93	55.3
388.14	-30.72
388.35	20.48
388.56	-24.58
388.769	38.91
388.979	26.62
389.189	51.2
389.399	26.62
389.609	100.35
389.818	38.91
390.028	-26.62
390.238	81.92
390.447	38.91
390.657	-22.53
390.867	26.62
391.076	-6.14
391.286	51.2
391.496	-45.06
391.705	38.91
391.915	26.62
392.125	34.82
392.334	92.16
392.544	83.97
392.753	-6.14
392.963	69.63
393.172	10.24
393.382	30.72
393.591	77.82
393.801	104.45
394.01	47.1
394.22	-26.62
394.429	63.49
394.639	45.06
394.848	100.35
395.058	2.05
395.267	69.63
395.477	108.54
395.686	71.68
395.895	53.25
396.105	112.64
396.314	14.34
396.524	51.2
396.733	67.58
396.942	73.73
397.152	18.43
397.361	67.58
397.57	18.43
397.78	77.82
397.989	83.97
398.198	100.35
398.407	71.68
398.617	-14.34
398.826	14.34
399.035	67.58
399.244	34.82
399.453	43.01
399.663	47.1
399.872	61.44
400.081	28.67
400.29	36.86
400.499	67.58
400.708	67.58
400.917	100.35
401.127	69.63
401.336	49.15
401.545	116.73
401.754	98.3
401.963	100.35
402.172	26.62
402.381	-30.72
402.59	14.34
402.799	71.68
403.008	133.12
403.217	75.77
403.426	71.68
403.635	-18.43
403.844	86.01
404.053	-28.67
404.262	67.58
404.471	104.45
404.68	188.41
404.888	90.11
405.097	40.96
405.306	34.82
405.515	26.62
405.724	67.58
405.933	110.59
406.142	67.58
406.35	36.86
406.559	102.4
406.768	90.11
406.977	106.49
407.185	133.12
407.394	79.87
407.603	83.97
407.812	36.86
408.02	55.3
408.229	100.35
408.438	100.35
408.646	49.15
408.855	124.93
409.064	196.61
409.272	110.59
409.481	182.27
409.69	141.31
409.898	75.77
410.107	276.48
410.315	198.65
410.524	149.5
410.733	122.88
410.941	126.97
411.15	165.89
411.358	239.61
411.567	225.28
411.775	178.17
411.984	217.08
412.192	202.75
412.401	272.38
412.609	262.14
412.818	276.48
413.026	284.67
413.234	219.13
413.443	194.56
413.651	272.38
413.86	239.61
414.068	366.59
414.276	309.24
414.485	348.15
414.693	290.81
414.901	313.34
415.11	272.38
415.318	391.16
415.526	411.64
415.734	415.74
415.943	387.07
416.151	403.45
416.359	397.31
416.567	452.6
416.776	538.62
416.984	524.28
417.192	563.19
417.4	499.7
417.608	446.46
417.817	548.86
418.025	569.34
418.233	618.49
418.441	575.48
418.649	647.16
418.857	595.96
419.065	749.56
419.273	641.01
419.481	669.69
419.689	714.74
419.897	731.12
420.105	673.78
420.313	886.77
420.521	808.95
420.729	804.85
420.937	880.63
421.145	960.5
421.353	917.49
421.561	1005.55
421.769	919.54
421.977	940.02
422.185	1021.94
422.393	1128.43
422.601	1155.05
422.809	1189.87
423.017	1110
423.224	1228.78
423.432	1249.26
423.64	1329.13
423.848	1404.91
424.056	1300.46
424.263	1460.2
424.471	1445.87
424.679	1515.5
424.887	1470.44
425.094	1583.08
425.302	1562.6
425.51	1652.71
425.718	1783.78
425.925	1697.77
426.133	1902.56
426.341	1923.04
426.548	1927.14
426.756	1992.67
426.964	1994.72
427.171	1992.67
427.379	2035.68
427.586	2146.27
427.794	2279.39
428.001	2338.78
428.209	2492.38
428.417	2418.65
428.624	2478.04
428.832	2729.94
429.039	2693.08
429.247	2570.2
429.454	2803.67
429.662	3086.29
429.869	2803.67
430.076	3074
430.284	2863.06
430.491	3094.48
430.699	3289.04
430.906	3311.57
431.114	3291.09
431.321	3450.83
431.528	3471.31
431.736	3624.9
431.943	3786.69
432.15	3698.63
432.358	3792.84
432.565	4003.78
432.772	3930.05
432.979	4145.09
433.187	4151.23
433.394	4304.83
433.601	4609.98
433.808	4589.5
434.016	4403.13
434.223	4861.88
434.43	5035.96
434.637	4939.7
434.844	5287.86
435.052	5152.69
435.259	5187.5
435.466	5300.14
435.673	5365.68
435.88	5705.64
436.087	5969.83
436.294	5994.4
436.501	5719.98
436.708	5965.73
436.915	6080.42
437.122	6526.88
437.329	6373.28
437.537	6598.56
437.743	6690.71
437.95	6500.25
438.157	7055.25
438.364	7268.24
438.571	7149.46
438.778	7280.53
438.985	7866.25
439.192	7485.33
439.399	7810.95
439.606	7358.35
439.813	8097.67
440.02	8636.28
440.227	8101.76
440.433	8419.2
440.64	8431.49
440.847	8523.65
441.054	8732.54
441.261	9287.54
441.467	9164.66
441.674	9219.96
441.881	9559.92
442.088	9488.24
442.294	9430.9
442.501	10037.09
442.708	10035.05
442.914	10436.45
443.121	10631.01
443.328	10553.18
443.534	11358.03
443.741	10989.4
443.948	10717.02
444.154	11585.36
444.361	11274.07
444.568	11554.64
444.774	11528.02
444.981	11540.3
445.187	12087.11
445.394	12599.1
445.6	12379.97
445.807	13668.14
446.013	13068.09
446.22	13154.1
446.426	13700.91
446.633	13692.72
446.839	14470.95
447.046	13752.11
447.252	14872.35
447.459	14722.85
447.665	14741.28
447.871	14987.04
448.078	15623.95
448.284	15144.73
448.491	15456.02
448.697	16017.16
448.903	16418.57
449.11	16371.46
449.316	15812.37
449.522	16527.11
449.728	16922.37
449.935	16916.22
450.141	17092.35
450.347	17635.06
450.553	17006.33
450.76	17024.76
450.966	17665.78
451.172	17569.52
451.378	17882.86
451.584	17616.63
451.791	18145
451.997	18130.67
452.203	18308.84
452.409	18155.24
452.615	18175.72
452.821	17708.79
453.027	17547
453.233	18226.92
453.44	17692.4
453.646	17870.58
453.852	18013.93
454.058	18329.32
454.264	17723.12
454.47	18355.94
454.676	17434.36
454.882	18251.5
455.088	16822.02
455.294	16955.13
455.5	17366.77
455.705	17549.04
455.911	16715.52
456.117	16475.91
456.323	16170.76
456.529	15468.31
456.735	16135.95
456.941	15638.29
457.147	15742.74
457.352	15017.75
457.558	14870.3
457.764	14925.6
457.97	14958.36
458.176	14489.38
458.381	14245.67
458.587	13649.71
458.793	13625.14
458.999	12906.3
459.204	13940.52
459.41	13528.88
459.616	12558.14
459.821	12683.07
460.027	12789.56
460.233	12357.44
460.438	11790.16
460.644	11712.33
460.85	11415.38
461.055	11061.08
461.261	11075.42
461.466	10307.43
461.672	10135.4
461.878	10573.66
462.083	10000.23
462.289	9723.76
462.494	9850.73
462.7	9353.07
462.905	9101.17
463.111	9516.91
463.316	9340.79
463.522	9086.84
463.727	9119.6
463.932	9185.14
464.138	9047.93
464.343	9117.56
464.549	8834.94
464.754	8998.77
464.959	8912.76
465.165	8826.75
465.37	8572.8
465.575	8337.28
465.781	8787.83
465.986	8687.48
466.191	8333.18
466.397	8284.03
466.602	8005.51
466.807	8236.93
467.012	8136.58
467.218	8193.92
467.423	7939.97
467.628	7970.69
467.833	8587.13
468.038	8116.1
468.244	7894.92
468.449	8202.11
