Data from USB4F104151__190__14-45-11-572.txt Node

Date: Thu Mar 13 14:45:11 EDT 2025
User: louis
Spectrometer: USB4F10415
Trigger mode: 4
Integration Time (sec): 2.000000E-2
Scans to average: 1
Electric dark correction enabled: true
Nonlinearity correction enabled: false
Boxcar width: 0
XAxis mode: Wavelengths
Number of Pixels in Spectrum: 3648
>>>>>Begin Spectral Data<<<<<
178.204	-119.64
178.424	-119.64
178.644	-119.64
178.864	-150.36
179.084	-111.44
179.304	-50
179.524	-62.29
179.744	-37.72
179.964	76.97
180.184	-35.67
180.404	-41.81
180.624	68.78
180.844	134.31
181.064	-56.15
181.283	-9.05
181.503	-13.14
181.723	25.77
181.943	27.82
182.163	29.87
182.383	-7
182.602	3.24
182.822	40.11
183.042	-4.95
183.262	-9.05
183.482	79.02
183.701	101.55
183.921	-2.9
184.141	13.48
184.361	-0.85
184.58	15.53
184.8	11.43
185.02	23.72
185.239	-29.52
185.459	64.68
185.679	56.49
185.898	21.67
186.118	79.02
186.338	-13.14
186.557	5.29
186.777	44.2
186.997	11.43
187.216	23.72
187.436	68.78
187.655	13.48
187.875	36.01
188.095	23.72
188.314	25.77
188.534	54.44
188.753	25.77
188.973	91.31
189.192	21.67
189.412	-70.48
189.631	48.3
189.851	-9.05
190.07	60.59
190.29	-39.76
190.509	27.82
190.729	40.11
190.948	107.69
191.168	148.65
191.387	62.63
191.607	15.53
191.826	46.25
192.045	40.11
192.265	79.02
192.484	-21.33
192.704	-4.95
192.923	36.01
193.142	52.39
193.362	48.3
193.581	13.48
193.8	5.29
194.02	29.87
194.239	-2.9
194.458	60.59
194.678	48.3
194.897	-43.86
195.116	11.43
195.335	-2.9
195.555	7.34
195.774	-2.9
195.993	109.74
196.212	-13.14
196.432	-17.24
196.651	-19.29
196.87	-74.58
197.089	68.78
197.308	21.67
197.528	95.4
197.747	-2.9
197.966	-9.05
198.185	44.2
198.404	79.02
198.623	74.92
198.842	68.78
199.062	19.63
199.281	68.78
199.5	54.44
199.719	93.35
199.938	-19.29
200.157	87.21
200.376	93.35
200.595	-9.05
200.814	52.39
201.033	1.19
201.252	68.78
201.471	56.49
201.69	52.39
201.909	58.54
202.128	-2.9
202.347	5.29
202.566	56.49
202.785	-54.1
203.004	-13.14
203.223	85.16
203.442	52.39
203.661	46.25
203.879	-4.95
204.098	68.78
204.317	17.58
204.536	101.55
204.755	13.48
204.974	29.87
205.193	70.83
205.411	79.02
205.63	136.36
205.849	21.67
206.068	-2.9
206.287	5.29
206.505	52.39
206.724	-29.52
206.943	-29.52
207.162	72.87
207.381	21.67
207.599	52.39
207.818	7.34
208.037	19.63
208.255	31.91
208.474	56.49
208.693	23.72
208.911	-27.48
209.13	76.97
209.349	72.87
209.567	-4.95
209.786	27.82
210.005	3.24
210.223	29.87
210.442	36.01
210.661	36.01
210.879	46.25
211.098	11.43
211.316	-72.53
211.535	70.83
211.753	70.83
211.972	79.02
212.191	17.58
212.409	27.82
212.628	152.74
212.846	-95.06
213.065	52.39
213.283	126.12
213.502	-17.24
213.72	124.07
213.938	-13.14
214.157	40.11
214.375	33.96
214.594	-29.52
214.812	-37.72
215.031	70.83
215.249	27.82
215.467	60.59
215.686	58.54
215.904	-33.62
216.122	46.25
216.341	83.11
216.559	-2.9
216.778	85.16
216.996	36.01
217.214	87.21
217.432	-45.91
217.651	-27.48
217.869	89.26
218.087	-43.86
218.306	3.24
218.524	44.2
218.742	-52.05
218.96	76.97
219.179	11.43
219.397	11.43
219.615	19.63
219.833	-4.95
220.051	-13.14
220.27	117.93
220.488	9.39
220.706	25.77
220.924	19.63
221.142	70.83
221.36	7.34
221.578	15.53
221.796	38.06
222.015	36.01
222.233	-35.67
222.451	117.93
222.669	72.87
222.887	44.2
223.105	76.97
223.323	-0.85
223.541	-21.33
223.759	13.48
223.977	81.07
224.195	89.26
224.413	1.19
224.631	76.97
224.849	13.48
225.067	70.83
225.285	11.43
225.503	-45.91
225.721	27.82
225.939	-21.33
226.157	-19.29
226.375	128.17
226.592	19.63
226.81	-11.09
227.028	79.02
227.246	66.73
227.464	74.92
227.682	13.48
227.9	36.01
228.117	13.48
228.335	23.72
228.553	1.19
228.771	56.49
228.989	68.78
229.206	29.87
229.424	11.43
229.642	46.25
229.86	-13.14
230.077	7.34
230.295	-0.85
230.513	25.77
230.731	36.01
230.948	68.78
231.166	56.49
231.384	-17.24
231.601	27.82
231.819	46.25
232.037	-29.52
232.254	5.29
232.472	50.35
232.689	-4.95
232.907	44.2
233.125	36.01
233.342	70.83
233.56	-33.62
233.777	93.35
233.995	79.02
234.213	62.63
234.43	44.2
234.648	-27.48
234.865	11.43
235.083	46.25
235.3	11.43
235.518	54.44
235.735	68.78
235.953	76.97
236.17	29.87
236.388	62.63
236.605	72.87
236.822	117.93
237.04	60.59
237.257	-54.1
237.475	27.82
237.692	44.2
237.909	3.24
238.127	-35.67
238.344	36.01
238.562	48.3
238.779	56.49
238.996	36.01
239.214	38.06
239.431	79.02
239.648	40.11
239.865	3.24
240.083	81.07
240.3	52.39
240.517	21.67
240.735	33.96
240.952	79.02
241.169	27.82
241.386	-37.72
241.603	5.29
241.821	-62.29
242.038	46.25
242.255	40.11
242.472	15.53
242.689	23.72
242.907	9.39
243.124	97.45
243.341	95.4
243.558	-19.29
243.775	97.45
243.992	17.58
244.209	64.68
244.426	48.3
244.643	13.48
244.86	13.48
245.078	36.01
245.295	56.49
245.512	83.11
245.729	62.63
245.946	-45.91
246.163	3.24
246.38	27.82
246.597	29.87
246.814	-13.14
247.031	-37.72
247.248	-13.14
247.464	15.53
247.681	56.49
247.898	42.15
248.115	60.59
248.332	-19.29
248.549	93.35
248.766	-11.09
248.983	85.16
249.2	7.34
249.417	46.25
249.633	95.4
249.85	-17.24
250.067	72.87
250.284	19.63
250.501	46.25
250.717	72.87
250.934	70.83
251.151	89.26
251.368	117.93
251.585	76.97
251.801	85.16
252.018	-9.05
252.235	76.97
252.451	-37.72
252.668	36.01
252.885	33.96
253.102	40.11
253.318	79.02
253.535	54.44
253.752	109.74
253.968	19.63
254.185	7.34
254.401	-21.33
254.618	31.91
254.835	31.91
255.051	48.3
255.268	52.39
255.484	23.72
255.701	46.25
255.917	72.87
256.134	-4.95
256.351	134.31
256.567	-11.09
256.784	60.59
257	36.01
257.217	33.96
257.433	136.36
257.65	93.35
257.866	91.31
258.082	38.06
258.299	3.24
258.515	40.11
258.732	19.63
258.948	-2.9
259.165	79.02
259.381	-15.19
259.597	68.78
259.814	31.91
260.03	-11.09
260.246	-11.09
260.463	52.39
260.679	60.59
260.895	52.39
261.112	25.77
261.328	-54.1
261.544	68.78
261.761	76.97
261.977	60.59
262.193	-4.95
262.409	27.82
262.626	117.93
262.842	-4.95
263.058	-21.33
263.274	36.01
263.49	11.43
263.707	101.55
263.923	33.96
264.139	23.72
264.355	54.44
264.571	70.83
264.787	36.01
265.004	64.68
265.22	29.87
265.436	29.87
265.652	-2.9
265.868	15.53
266.084	-45.91
266.3	60.59
266.516	52.39
266.732	-0.85
266.948	36.01
267.164	40.11
267.38	60.59
267.596	3.24
267.812	44.2
268.028	13.48
268.244	21.67
268.46	-25.43
268.676	-11.09
268.892	70.83
269.108	-13.14
269.324	-2.9
269.54	-9.05
269.756	54.44
269.972	-52.05
270.188	-37.72
270.403	-17.24
270.619	36.01
270.835	5.29
271.051	31.91
271.267	-23.38
271.483	95.4
271.698	36.01
271.914	87.21
272.13	19.63
272.346	60.59
272.562	11.43
272.777	38.06
272.993	40.11
273.209	-4.95
273.425	103.59
273.64	56.49
273.856	48.3
274.072	83.11
274.287	23.72
274.503	-4.95
274.719	23.72
274.934	52.39
275.15	-9.05
275.366	13.48
275.581	-23.38
275.797	68.78
276.012	44.2
276.228	36.01
276.444	23.72
276.659	29.87
276.875	9.39
277.09	44.2
277.306	52.39
277.521	64.68
277.737	23.72
277.952	33.96
278.168	15.53
278.383	119.98
278.599	5.29
278.814	40.11
279.03	17.58
279.245	29.87
279.461	25.77
279.676	68.78
279.892	-15.19
280.107	54.44
280.322	85.16
280.538	23.72
280.753	52.39
280.969	109.74
281.184	27.82
281.399	122.02
281.615	-4.95
281.83	21.67
282.045	5.29
282.26	-27.48
282.476	36.01
282.691	68.78
282.906	76.97
283.122	52.39
283.337	-27.48
283.552	60.59
283.767	36.01
283.983	52.39
284.198	85.16
284.413	-25.43
284.628	-29.52
284.843	31.91
285.058	76.97
285.274	44.2
285.489	44.2
285.704	29.87
285.919	-9.05
286.134	-4.95
286.349	46.25
286.564	19.63
286.779	87.21
286.995	36.01
287.21	62.63
287.425	31.91
287.64	81.07
287.855	15.53
288.07	-25.43
288.285	167.08
288.5	15.53
288.715	95.4
288.93	11.43
289.145	-9.05
289.36	-4.95
289.575	-4.95
289.79	13.48
290.004	111.78
290.219	91.31
290.434	-13.14
290.649	36.01
290.864	-2.9
291.079	40.11
291.294	-4.95
291.509	48.3
291.724	-21.33
291.938	31.91
292.153	23.72
292.368	44.2
292.583	5.29
292.798	109.74
293.012	52.39
293.227	76.97
293.442	97.45
293.657	91.31
293.871	128.17
294.086	-60.24
294.301	95.4
294.516	52.39
294.73	-52.05
294.945	-50
295.16	23.72
295.374	52.39
295.589	-7
295.804	40.11
296.018	52.39
296.233	-19.29
296.447	23.72
296.662	-25.43
296.877	7.34
297.091	101.55
297.306	79.02
297.52	79.02
297.735	-2.9
297.949	62.63
298.164	-11.09
298.378	27.82
298.593	11.43
298.807	74.92
299.022	93.35
299.236	40.11
299.451	19.63
299.665	31.91
299.88	-13.14
300.094	-41.81
300.309	13.48
300.523	3.24
300.737	-9.05
300.952	27.82
301.166	50.35
301.381	21.67
301.595	5.29
301.809	40.11
302.024	7.34
302.238	36.01
302.452	50.35
302.667	40.11
302.881	54.44
303.095	7.34
303.309	101.55
303.524	7.34
303.738	9.39
303.952	5.29
304.166	44.2
304.381	68.78
304.595	95.4
304.809	46.25
305.023	21.67
305.237	-4.95
305.452	-56.15
305.666	42.15
305.88	142.5
306.094	134.31
306.308	101.55
306.522	64.68
306.736	72.87
306.95	85.16
307.164	27.82
307.379	38.06
307.593	52.39
307.807	126.12
308.021	79.02
308.235	72.87
308.449	66.73
308.663	7.34
308.877	109.74
309.091	-11.09
309.305	93.35
309.519	-33.62
309.733	79.02
309.947	-13.14
310.161	52.39
310.374	128.17
310.588	13.48
310.802	60.59
311.016	-74.58
311.23	87.21
311.444	7.34
311.658	36.01
311.872	48.3
312.085	38.06
312.299	64.68
312.513	38.06
312.727	44.2
312.941	23.72
313.154	60.59
313.368	-4.95
313.582	13.48
313.796	31.91
314.009	81.07
314.223	74.92
314.437	44.2
314.651	13.48
314.864	40.11
315.078	54.44
315.292	-62.29
315.505	54.44
315.719	36.01
315.933	60.59
316.146	64.68
316.36	-56.15
316.573	-25.43
316.787	68.78
317.001	128.17
317.214	62.63
317.428	-13.14
317.641	-29.52
317.855	13.48
318.068	-0.85
318.282	87.21
318.495	58.54
318.709	76.97
318.922	13.48
319.136	85.16
319.349	13.48
319.563	40.11
319.776	27.82
319.99	-47.96
320.203	58.54
320.417	44.2
320.63	19.63
320.843	19.63
321.057	36.01
321.27	36.01
321.483	70.83
321.697	72.87
321.91	46.25
322.124	76.97
322.337	95.4
322.55	40.11
322.763	40.11
322.977	87.21
323.19	36.01
323.403	68.78
323.617	60.59
323.83	46.25
324.043	-11.09
324.256	40.11
324.469	-17.24
324.683	68.78
324.896	-0.85
325.109	-4.95
325.322	31.91
325.535	91.31
325.748	40.11
325.962	54.44
326.175	93.35
326.388	68.78
326.601	119.98
326.814	60.59
327.027	83.11
327.24	142.5
327.453	13.48
327.666	7.34
327.879	44.2
328.092	105.64
328.305	44.2
328.518	21.67
328.731	17.58
328.944	25.77
329.157	58.54
329.37	27.82
329.583	87.21
329.796	109.74
330.009	-29.52
330.222	7.34
330.435	3.24
330.648	58.54
330.861	60.59
331.073	97.45
331.286	93.35
331.499	1.19
331.712	74.92
331.925	74.92
332.138	89.26
332.35	21.67
332.563	1.19
332.776	46.25
332.989	23.72
333.202	44.2
333.414	13.48
333.627	7.34
333.84	19.63
334.053	79.02
334.265	-50
334.478	52.39
334.691	36.01
334.903	70.83
335.116	76.97
335.329	-0.85
335.541	91.31
335.754	93.35
335.966	85.16
336.179	48.3
336.392	36.01
336.604	52.39
336.817	-13.14
337.029	117.93
337.242	5.29
337.454	101.55
337.667	85.16
337.88	64.68
338.092	87.21
338.305	128.17
338.517	29.87
338.729	76.97
338.942	56.49
339.154	-78.68
339.367	3.24
339.579	68.78
339.792	-2.9
340.004	44.2
340.217	27.82
340.429	38.06
340.641	27.82
340.854	48.3
341.066	3.24
341.278	85.16
341.491	46.25
341.703	93.35
341.915	-11.09
342.128	31.91
342.34	15.53
342.552	-33.62
342.764	68.78
342.977	21.67
343.189	101.55
343.401	79.02
343.613	-9.05
343.826	117.93
344.038	111.78
344.25	-9.05
344.462	107.69
344.674	87.21
344.886	42.15
345.099	95.4
345.311	85.16
345.523	11.43
345.735	-43.86
345.947	76.97
346.159	15.53
346.371	36.01
346.583	36.01
346.795	144.55
347.007	27.82
347.219	36.01
347.431	91.31
347.643	76.97
347.855	-62.29
348.067	117.93
348.279	-60.24
348.491	36.01
348.703	38.06
348.915	101.55
349.127	27.82
349.339	70.83
349.551	89.26
349.763	36.01
349.975	9.39
350.187	93.35
350.399	109.74
350.61	93.35
350.822	21.67
351.034	54.44
351.246	72.87
351.458	44.2
351.669	64.68
351.881	93.35
352.093	27.82
352.305	101.55
352.517	21.67
352.728	56.49
352.94	87.21
353.152	76.97
353.363	27.82
353.575	76.97
353.787	68.78
353.999	21.67
354.21	70.83
354.422	-4.95
354.633	-0.85
354.845	46.25
355.057	95.4
355.268	5.29
355.48	115.88
355.692	27.82
355.903	62.63
356.115	-4.95
356.326	-0.85
356.538	66.73
356.749	60.59
356.961	81.07
357.172	23.72
357.384	19.63
357.595	95.4
357.807	-37.72
358.018	36.01
358.23	93.35
358.441	109.74
358.653	101.55
358.864	68.78
359.075	50.35
359.287	60.59
359.498	21.67
359.709	76.97
359.921	89.26
360.132	11.43
360.344	52.39
360.555	48.3
360.766	95.4
360.977	-4.95
361.189	27.82
361.4	42.15
361.611	66.73
361.823	-17.24
362.034	81.07
362.245	-11.09
362.456	27.82
362.667	33.96
362.879	1.19
363.09	38.06
363.301	44.2
363.512	19.63
363.723	68.78
363.935	-11.09
364.146	52.39
364.357	52.39
364.568	62.63
364.779	44.2
364.99	89.26
365.201	-50
365.412	119.98
365.623	85.16
365.834	103.59
366.045	5.29
366.256	48.3
366.467	38.06
366.678	7.34
366.889	36.01
367.1	40.11
367.311	72.87
367.522	27.82
367.733	44.2
367.944	11.43
368.155	68.78
368.366	70.83
368.577	91.31
368.788	52.39
368.999	11.43
369.209	87.21
369.42	134.31
369.631	105.64
369.842	60.59
370.053	-70.48
370.264	115.88
370.474	60.59
370.685	40.11
370.896	95.4
371.107	36.01
371.317	79.02
371.528	33.96
371.739	117.93
371.95	42.15
372.16	23.72
372.371	64.68
372.582	5.29
372.792	21.67
373.003	109.74
373.214	117.93
373.424	23.72
373.635	19.63
373.846	109.74
374.056	85.16
374.267	46.25
374.477	107.69
374.688	36.01
374.898	93.35
375.109	93.35
375.319	87.21
375.53	87.21
375.74	9.39
375.951	21.67
376.161	23.72
376.372	68.78
376.582	27.82
376.793	54.44
377.003	19.63
377.214	52.39
377.424	21.67
377.635	25.77
377.845	23.72
378.055	109.74
378.266	-4.95
378.476	25.77
378.686	109.74
378.897	40.11
379.107	60.59
379.317	19.63
379.528	48.3
379.738	64.68
379.948	-25.43
380.158	103.59
380.369	52.39
380.579	-0.85
380.789	119.98
380.999	89.26
381.21	93.35
381.42	111.78
381.63	95.4
381.84	130.22
382.05	36.01
382.261	38.06
382.471	93.35
382.681	83.11
382.891	68.78
383.101	89.26
383.311	21.67
383.521	50.35
383.731	60.59
383.941	126.12
384.151	64.68
384.361	76.97
384.571	76.97
384.781	76.97
384.991	101.55
385.201	171.18
385.411	119.98
385.621	76.97
385.831	95.4
386.041	79.02
386.251	54.44
386.461	52.39
386.671	31.91
386.881	87.21
387.091	68.78
387.301	76.97
387.511	46.25
387.72	11.43
387.93	36.01
388.14	79.02
388.35	38.06
388.56	130.22
388.769	19.63
388.979	142.5
389.189	17.58
389.399	76.97
389.609	97.45
389.818	85.16
390.028	44.2
390.238	115.88
390.447	13.48
390.657	64.68
390.867	27.82
391.076	97.45
391.286	58.54
391.496	76.97
391.705	76.97
391.915	60.59
392.125	52.39
392.334	113.83
392.544	74.92
392.753	111.78
392.963	-11.09
393.172	83.11
393.382	54.44
393.591	76.97
393.801	58.54
394.01	152.74
394.22	126.12
394.429	91.31
394.639	36.01
394.848	89.26
395.058	128.17
395.267	109.74
395.477	142.5
395.686	142.5
395.895	169.13
396.105	144.55
396.314	-29.52
396.524	93.35
396.733	42.15
396.942	99.5
397.152	87.21
397.361	68.78
397.57	36.01
397.78	101.55
397.989	85.16
398.198	85.16
398.407	70.83
398.617	44.2
398.826	95.4
399.035	91.31
399.244	95.4
399.453	117.93
399.663	89.26
399.872	79.02
400.081	85.16
400.29	126.12
400.499	58.54
400.708	21.67
400.917	113.83
401.127	179.37
401.336	144.55
401.545	167.08
401.754	103.59
401.963	154.79
402.172	117.93
402.381	31.91
402.59	40.11
402.799	134.31
403.008	138.41
403.217	136.36
403.426	60.59
403.635	52.39
403.844	150.7
404.053	70.83
404.262	162.98
404.471	220.33
404.68	152.74
404.888	91.31
405.097	150.7
405.306	195.75
405.515	177.32
405.724	111.78
405.933	85.16
406.142	208.04
406.35	187.56
406.559	142.5
406.768	99.5
406.977	144.55
407.185	126.12
407.394	91.31
407.603	167.08
407.812	203.94
408.02	177.32
408.229	187.56
408.438	199.85
408.646	117.93
408.855	292.01
409.064	259.24
409.272	230.57
409.481	210.09
409.69	191.66
409.898	292.01
410.107	271.53
410.315	249
410.524	236.71
410.733	283.81
410.941	265.38
411.15	281.77
411.358	373.92
411.567	365.73
411.775	251.05
411.984	271.53
412.192	349.35
412.401	404.64
412.609	343.21
412.818	400.55
413.026	416.93
413.234	496.8
413.443	447.65
413.651	421.03
413.86	494.76
414.068	459.94
414.276	474.28
414.485	461.99
414.693	570.53
414.901	568.48
415.11	511.14
415.318	613.54
415.526	595.11
415.734	631.97
415.943	674.98
416.151	679.07
416.359	748.7
416.567	558.24
416.776	773.28
416.984	707.74
417.192	785.57
417.4	746.66
417.608	775.33
417.817	855.2
418.025	855.2
418.233	920.73
418.441	898.2
418.649	949.4
418.857	904.35
419.065	1094.81
419.273	1078.43
419.481	1080.47
419.689	1162.39
419.897	1150.11
420.105	1158.3
420.313	1240.22
420.521	1352.85
420.729	1332.37
420.937	1336.47
421.145	1469.59
421.353	1424.53
421.561	1436.82
421.769	1524.88
421.977	1588.37
422.185	1496.21
422.393	1633.43
422.601	1842.32
422.809	1819.79
423.017	1821.84
423.224	1911.95
423.432	2061.45
423.64	1944.72
423.848	2110.6
424.056	2071.69
424.263	2301.06
424.471	2169.99
424.679	2354.31
424.887	2356.36
425.094	2501.76
425.302	2385.03
425.51	2546.82
425.718	2638.98
425.925	2704.51
426.133	2790.53
426.341	2890.88
426.548	3120.25
426.756	3116.16
426.964	3144.83
427.171	3220.6
427.379	3394.68
427.586	3419.25
427.794	3525.75
428.001	3767.41
428.209	3822.7
428.417	3779.7
428.624	4045.93
428.832	4115.56
429.039	4074.6
429.247	4062.32
429.454	4508.77
429.662	4662.37
429.869	4363.37
430.076	4639.84
430.284	4617.32
430.491	4908.13
430.699	5018.72
430.906	5022.81
431.114	4963.42
431.321	5373.02
431.528	5452.89
431.736	5741.65
431.943	6038.61
432.15	5936.21
432.358	5909.58
432.565	6145.1
432.772	6194.25
432.979	6653
433.187	6724.68
433.394	6589.51
433.601	7138.37
433.808	7214.14
434.016	7150.65
434.223	7351.35
434.43	7812.15
434.637	7617.59
434.844	8203.31
435.052	8301.61
435.259	8395.82
435.466	8283.18
435.673	8352.81
435.88	8916
436.087	9260.06
436.294	9335.84
436.501	9069.6
436.708	9172
436.915	9802.77
437.122	10136.59
437.329	10013.71
437.537	10304.53
437.743	10472.46
437.95	10507.27
438.157	11115.52
438.364	11422.72
438.571	11160.58
438.778	11193.34
438.985	12383.21
439.192	11979.76
439.399	12291.06
439.606	12106.74
439.813	12598.25
440.02	13544.41
440.227	13378.53
440.433	12987.36
440.64	13687.77
440.847	13464.54
441.054	13792.22
441.261	14693.32
441.467	14494.67
441.674	14691.27
441.881	15422.4
442.088	15002.57
442.294	14896.07
442.501	15594.43
442.708	16044.98
442.914	16333.75
443.121	17148.84
443.328	16829.35
443.534	17787.8
443.741	17277.86
443.948	17314.72
444.154	18426.77
444.361	18211.73
444.568	18410.39
444.774	18574.22
444.981	18641.81
445.187	19135.37
445.394	20073.34
445.6	19833.72
445.807	22018.91
446.013	20847.47
446.22	21076.84
446.426	22076.25
446.633	22328.15
446.839	23106.38
447.046	22098.78
447.252	23036.75
447.459	23415.62
447.665	23458.63
447.871	24816.43
448.078	25449.25
448.284	24138.55
448.491	24916.78
448.697	25701.15
448.903	26084.12
449.11	26370.84
449.316	25766.69
449.522	26563.35
449.728	27300.62
449.935	27314.95
450.141	27544.33
450.347	28078.85
450.553	27147.02
450.76	27593.48
450.966	28660.47
451.172	28031.74
451.378	29281
451.584	28300.03
451.791	29094.64
451.997	29115.12
452.203	29651.69
452.409	29473.51
452.615	29704.93
452.821	28625.65
453.027	28123.9
453.233	29897.44
453.44	28703.48
453.646	28932.85
453.852	29141.74
454.058	29922.02
454.264	28490.49
454.47	29346.54
454.676	28576.5
454.882	29577.96
455.088	27050.77
455.294	27622.15
455.5	28021.5
455.705	28029.69
455.911	27261.71
456.117	26635.03
456.323	26358.55
456.529	24734.51
456.735	26356.5
456.941	25271.08
457.147	25203.5
457.352	24566.58
457.558	24017.72
457.764	24292.15
457.97	23728.96
458.176	23450.44
458.381	22985.55
458.587	22217.56
458.793	22182.74
458.999	21007.21
459.204	22604.63
459.41	21865.31
459.616	20487.03
459.821	20503.41
460.027	20446.07
460.233	20249.46
460.438	18994.06
460.644	19092.36
460.85	18396.05
461.055	18066.33
461.261	18260.88
461.466	16825.26
461.672	16337.84
461.878	17572.77
462.083	16167.86
462.289	16036.79
462.494	15971.25
462.7	15152.07
462.905	14773.19
463.111	15293.38
463.316	15233.99
463.522	15137.73
463.727	14959.56
463.932	14808.01
464.138	14795.72
464.343	14891.98
464.549	14511.05
464.754	14578.64
464.959	14670.79
465.165	14562.25
465.37	14062.55
465.575	13749.21
465.781	14390.22
465.986	14291.92
466.191	13765.59
466.397	13560.8
466.602	12809.19
466.807	13376.48
467.012	13456.35
467.218	13333.47
467.423	13157.35
467.628	13306.85
