Data from USB4F104151__263__14-46-02-740.txt Node

Date: Thu Mar 13 14:46:02 EDT 2025
User: louis
Spectrometer: USB4F10415
Trigger mode: 4
Integration Time (sec): 2.000000E-2
Scans to average: 1
Electric dark correction enabled: true
Nonlinearity correction enabled: false
Boxcar width: 0
XAxis mode: Wavelengths
Number of Pixels in Spectrum: 3648
>>>>>Begin Spectral Data<<<<<
178.204	-107.52
178.424	-107.52
178.644	-107.52
178.864	-181.25
179.084	-146.43
179.304	-72.7
179.524	-11.26
179.744	9.22
179.964	15.36
180.184	11.26
180.404	56.32
180.624	25.6
180.844	23.55
181.064	-25.6
181.283	66.56
181.503	-31.74
181.723	-66.56
181.943	-48.13
182.163	-31.74
182.383	121.85
182.602	13.31
182.822	-9.22
183.042	5.12
183.262	48.13
183.482	-5.12
183.701	-5.12
183.921	25.6
184.141	-15.36
184.361	50.18
184.58	11.26
184.8	25.6
185.02	56.32
185.239	35.84
185.459	41.98
185.679	91.13
185.898	-87.04
186.118	29.7
186.338	15.36
186.557	121.85
186.777	9.22
186.997	-46.08
187.216	-5.12
187.436	-17.41
187.655	60.42
187.875	52.22
188.095	-13.31
188.314	80.89
188.534	31.74
188.753	-17.41
188.973	66.56
189.192	7.17
189.412	68.61
189.631	60.42
189.851	25.6
190.07	33.79
190.29	-1.02
190.509	66.56
190.729	39.94
190.948	-29.7
191.168	134.14
191.387	58.37
191.607	31.74
191.826	41.98
192.045	-1.02
192.265	9.22
192.484	-1.02
192.704	23.55
192.923	-56.32
193.142	39.94
193.362	91.13
193.581	66.56
193.8	52.22
194.02	23.55
194.239	-5.12
194.458	15.36
194.678	-1.02
194.897	23.55
195.116	31.74
195.335	50.18
195.555	23.55
195.774	25.6
195.993	101.37
196.212	25.6
196.432	27.65
196.651	15.36
196.87	82.94
197.089	80.89
197.308	72.7
197.528	64.51
197.747	-31.74
197.966	5.12
198.185	113.66
198.404	-13.31
198.623	-7.17
198.842	15.36
199.062	15.36
199.281	52.22
199.5	31.74
199.719	21.5
199.938	72.7
200.157	23.55
200.376	-7.17
200.595	35.84
200.814	-11.26
201.033	3.07
201.252	41.98
201.471	-17.41
201.69	37.89
201.909	11.26
202.128	35.84
202.347	-1.02
202.566	64.51
202.785	70.65
203.004	19.46
203.223	76.8
203.442	11.26
203.661	-33.79
203.879	23.55
204.098	62.46
204.317	17.41
204.536	48.13
204.755	97.28
204.974	37.89
205.193	37.89
205.411	121.85
205.63	9.22
205.849	68.61
206.068	29.7
206.287	-23.55
206.505	15.36
206.724	48.13
206.943	17.41
207.162	41.98
207.381	19.46
207.599	39.94
207.818	31.74
208.037	-9.22
208.255	52.22
208.474	15.36
208.693	-1.02
208.911	50.18
209.13	-13.31
209.349	48.13
209.567	23.55
209.786	48.13
210.005	-25.6
210.223	-11.26
210.442	-15.36
210.661	50.18
210.879	-21.5
211.098	33.79
211.316	-11.26
211.535	66.56
211.753	33.79
211.972	31.74
212.191	-13.31
212.409	-25.6
212.628	19.46
212.846	1.02
213.065	82.94
213.283	56.32
213.502	76.8
213.72	60.42
213.938	-7.17
214.157	52.22
214.375	48.13
214.594	48.13
214.812	35.84
215.031	15.36
215.249	-13.31
215.467	105.47
215.686	87.04
215.904	107.52
216.122	50.18
216.341	-21.5
216.559	15.36
216.778	31.74
216.996	64.51
217.214	1.02
217.432	7.17
217.651	39.94
217.869	-1.02
218.087	-17.41
218.306	48.13
218.524	101.37
218.742	13.31
218.96	13.31
219.179	-5.12
219.397	72.7
219.615	105.47
219.833	15.36
220.051	27.65
220.27	33.79
220.488	99.33
220.706	50.18
220.924	-37.89
221.142	72.7
221.36	-41.98
221.578	76.8
221.796	44.03
222.015	41.98
222.233	-41.98
222.451	7.17
222.669	15.36
222.887	99.33
223.105	-13.31
223.323	58.37
223.541	11.26
223.759	48.13
223.977	50.18
224.195	35.84
224.413	52.22
224.631	19.46
224.849	1.02
225.067	41.98
225.285	17.41
225.503	44.03
225.721	-25.6
225.939	39.94
226.157	39.94
226.375	80.89
226.592	-5.12
226.81	7.17
227.028	-9.22
227.246	41.98
227.464	142.33
227.682	17.41
227.9	27.65
228.117	89.09
228.335	27.65
228.553	-17.41
228.771	58.37
228.989	89.09
229.206	-9.22
229.424	17.41
229.642	27.65
229.86	107.52
230.077	50.18
230.295	48.13
230.513	9.22
230.731	-1.02
230.948	9.22
231.166	58.37
231.384	15.36
231.601	44.03
231.819	37.89
232.037	46.08
232.254	72.7
232.472	78.85
232.689	87.04
232.907	105.47
233.125	1.02
233.342	50.18
233.56	-1.02
233.777	35.84
233.995	15.36
234.213	97.28
234.43	50.18
234.648	95.23
234.865	66.56
235.083	84.99
235.3	62.46
235.518	-5.12
235.735	82.94
235.953	39.94
236.17	17.41
236.388	19.46
236.605	3.07
236.822	84.99
237.04	74.75
237.257	72.7
237.475	-15.36
237.692	56.32
237.909	56.32
238.127	21.5
238.344	21.5
238.562	-1.02
238.779	48.13
238.996	72.7
239.214	15.36
239.431	80.89
239.648	48.13
239.865	9.22
240.083	72.7
240.3	82.94
240.517	35.84
240.735	-13.31
240.952	64.51
241.169	25.6
241.386	33.79
241.603	35.84
241.821	-29.7
242.038	74.75
242.255	91.13
242.472	39.94
242.689	72.7
242.907	74.75
243.124	138.24
243.341	25.6
243.558	1.02
243.775	68.61
243.992	41.98
244.209	23.55
244.426	97.28
244.643	-3.07
244.86	5.12
245.078	74.75
245.295	-9.22
245.512	97.28
245.729	-5.12
245.946	7.17
246.163	93.18
246.38	68.61
246.597	56.32
246.814	7.17
247.031	56.32
247.248	58.37
247.464	-17.41
247.681	5.12
247.898	35.84
248.115	74.75
248.332	1.02
248.549	72.7
248.766	123.9
248.983	80.89
249.2	101.37
249.417	3.07
249.633	44.03
249.85	46.08
250.067	44.03
250.284	93.18
250.501	-13.31
250.717	21.5
250.934	-7.17
251.151	-17.41
251.368	29.7
251.585	66.56
251.801	21.5
252.018	5.12
252.235	68.61
252.451	23.55
252.668	41.98
252.885	23.55
253.102	17.41
253.318	41.98
253.535	1.02
253.752	35.84
253.968	1.02
254.185	-25.6
254.401	-33.79
254.618	31.74
254.835	7.17
255.051	89.09
255.268	27.65
255.484	11.26
255.701	23.55
255.917	29.7
256.134	-9.22
256.351	-17.41
256.567	-9.22
256.784	39.94
257	52.22
257.217	64.51
257.433	7.17
257.65	31.74
257.866	101.37
258.082	-31.74
258.299	29.7
258.515	80.89
258.732	7.17
258.948	-21.5
259.165	76.8
259.381	58.37
259.597	99.33
259.814	9.22
260.03	17.41
260.246	31.74
260.463	44.03
260.679	84.99
260.895	56.32
261.112	66.56
261.328	72.7
261.544	44.03
261.761	64.51
261.977	3.07
262.193	-17.41
262.409	68.61
262.626	60.42
262.842	84.99
263.058	27.65
263.274	74.75
263.49	52.22
263.707	70.65
263.923	99.33
264.139	107.52
264.355	-9.22
264.571	48.13
264.787	68.61
265.004	52.22
265.22	23.55
265.436	-25.6
265.652	1.02
265.868	64.51
266.084	-7.17
266.3	7.17
266.516	93.18
266.732	1.02
266.948	37.89
267.164	48.13
267.38	15.36
267.596	80.89
267.812	39.94
268.028	56.32
268.244	64.51
268.46	-5.12
268.676	27.65
268.892	64.51
269.108	-29.7
269.324	15.36
269.54	-35.84
269.756	105.47
269.972	64.51
270.188	39.94
270.403	-3.07
270.619	68.61
270.835	68.61
271.051	52.22
271.267	82.94
271.483	52.22
271.698	15.36
271.914	25.6
272.13	78.85
272.346	44.03
272.562	56.32
272.777	113.66
272.993	11.26
273.209	33.79
273.425	91.13
273.64	-29.7
273.856	80.89
274.072	7.17
274.287	17.41
274.503	27.65
274.719	117.76
274.934	72.7
275.15	-37.89
275.366	60.42
275.581	44.03
275.797	35.84
276.012	-1.02
276.228	46.08
276.444	13.31
276.659	50.18
276.875	15.36
277.09	58.37
277.306	35.84
277.521	72.7
277.737	31.74
277.952	15.36
278.168	93.18
278.383	76.8
278.599	39.94
278.814	-82.94
279.03	-31.74
279.245	97.28
279.461	-19.46
279.676	-39.94
279.892	23.55
280.107	-39.94
280.322	56.32
280.538	35.84
280.753	27.65
280.969	19.46
281.184	-35.84
281.399	64.51
281.615	-1.02
281.83	39.94
282.045	-1.02
282.26	48.13
282.476	44.03
282.691	64.51
282.906	62.46
283.122	52.22
283.337	35.84
283.552	19.46
283.767	-25.6
283.983	72.7
284.198	60.42
284.413	66.56
284.628	-37.89
284.843	-33.79
285.058	23.55
285.274	123.9
285.489	19.46
285.704	-17.41
285.919	15.36
286.134	56.32
286.349	-23.55
286.564	72.7
286.779	99.33
286.995	11.26
287.21	9.22
287.425	54.27
287.64	7.17
287.855	44.03
288.07	35.84
288.285	41.98
288.5	87.04
288.715	82.94
288.93	50.18
289.145	-1.02
289.36	54.27
289.575	9.22
289.79	66.56
290.004	46.08
290.219	60.42
290.434	31.74
290.649	48.13
290.864	72.7
291.079	-25.6
291.294	5.12
291.509	48.13
291.724	97.28
291.938	56.32
292.153	-5.12
292.368	7.17
292.583	44.03
292.798	35.84
293.012	39.94
293.227	23.55
293.442	56.32
293.657	60.42
293.871	35.84
294.086	19.46
294.301	82.94
294.516	-33.79
294.73	17.41
294.945	15.36
295.16	31.74
295.374	15.36
295.589	89.09
295.804	3.07
296.018	99.33
296.233	91.13
296.447	21.5
296.662	7.17
296.877	15.36
297.091	76.8
297.306	41.98
297.52	-66.56
297.735	-25.6
297.949	66.56
298.164	48.13
298.378	54.27
298.593	44.03
298.807	87.04
299.022	99.33
299.236	31.74
299.451	66.56
299.665	15.36
299.88	74.75
300.094	91.13
300.309	31.74
300.523	39.94
300.737	9.22
300.952	-9.22
301.166	3.07
301.381	-15.36
301.595	27.65
301.809	23.55
302.024	-1.02
302.238	62.46
302.452	39.94
302.667	21.5
302.881	11.26
303.095	44.03
303.309	50.18
303.524	19.46
303.738	58.37
303.952	-21.5
304.166	44.03
304.381	-33.79
304.595	58.37
304.809	15.36
305.023	80.89
305.237	-50.18
305.452	-17.41
305.666	89.09
305.88	72.7
306.094	70.65
306.308	117.76
306.522	39.94
306.736	58.37
306.95	58.37
307.164	-17.41
307.379	23.55
307.593	80.89
307.807	21.5
308.021	60.42
308.235	89.09
308.449	-15.36
308.663	72.7
308.877	68.61
309.091	56.32
309.305	48.13
309.519	-9.22
309.733	58.37
309.947	7.17
310.161	99.33
310.374	146.43
310.588	35.84
310.802	25.6
311.016	27.65
311.23	3.07
311.444	15.36
311.658	56.32
311.872	58.37
312.085	72.7
312.299	130.05
312.513	105.47
312.727	17.41
312.941	9.22
313.154	11.26
313.368	23.55
313.582	56.32
313.796	35.84
314.009	17.41
314.223	9.22
314.437	29.7
314.651	58.37
314.864	52.22
315.078	64.51
315.292	-56.32
315.505	7.17
315.719	15.36
315.933	-17.41
316.146	123.9
316.36	23.55
316.573	154.62
316.787	-29.7
317.001	9.22
317.214	27.65
317.428	58.37
317.641	17.41
317.855	70.65
318.068	17.41
318.282	27.65
318.495	87.04
318.709	60.42
318.922	-5.12
319.136	74.75
319.349	19.46
319.563	39.94
319.776	93.18
319.99	15.36
320.203	76.8
320.417	23.55
320.63	23.55
320.843	-1.02
321.057	56.32
321.27	29.7
321.483	109.57
321.697	60.42
321.91	64.51
322.124	44.03
322.337	-21.5
322.55	-11.26
322.763	15.36
322.977	15.36
323.19	11.26
323.403	3.07
323.617	72.7
323.83	68.61
324.043	107.52
324.256	44.03
324.469	1.02
324.683	56.32
324.896	64.51
325.109	39.94
325.322	3.07
325.535	31.74
325.748	7.17
325.962	1.02
326.175	19.46
326.388	19.46
326.601	-9.22
326.814	84.99
327.027	31.74
327.24	44.03
327.453	-19.46
327.666	66.56
327.879	25.6
328.092	1.02
328.305	15.36
328.518	80.89
328.731	-17.41
328.944	72.7
329.157	-25.6
329.37	-29.7
329.583	91.13
329.796	87.04
330.009	27.65
330.222	31.74
330.435	68.61
330.648	39.94
330.861	-5.12
331.073	78.85
331.286	148.48
331.499	3.07
331.712	-7.17
331.925	1.02
332.138	17.41
332.35	115.71
332.563	56.32
332.776	64.51
332.989	-17.41
333.202	74.75
333.414	35.84
333.627	9.22
333.84	3.07
334.053	128
334.265	48.13
334.478	-25.6
334.691	-5.12
334.903	72.7
335.116	25.6
335.329	39.94
335.541	82.94
335.754	113.66
335.966	54.27
336.179	158.72
336.392	50.18
336.604	74.75
336.817	64.51
337.029	109.57
337.242	-3.07
337.454	48.13
337.667	25.6
337.88	89.09
338.092	-27.65
338.305	72.7
338.517	-35.84
338.729	31.74
338.942	158.72
339.154	15.36
339.367	-19.46
339.579	93.18
339.792	-17.41
340.004	3.07
340.217	72.7
340.429	78.85
340.641	50.18
340.854	15.36
341.066	19.46
341.278	89.09
341.491	99.33
341.703	52.22
341.915	-21.5
342.128	97.28
342.34	25.6
342.552	11.26
342.764	56.32
342.977	52.22
343.189	105.47
343.401	82.94
343.613	-3.07
343.826	97.28
344.038	58.37
344.25	105.47
344.462	58.37
344.674	68.61
344.886	33.79
345.099	84.99
345.311	41.98
345.523	15.36
345.735	-21.5
345.947	15.36
346.159	31.74
346.371	50.18
346.583	101.37
346.795	74.75
347.007	29.7
347.219	66.56
347.431	7.17
347.643	56.32
347.855	33.79
348.067	80.89
348.279	80.89
348.491	48.13
348.703	105.47
348.915	41.98
349.127	-17.41
349.339	41.98
349.551	21.5
349.763	41.98
349.975	-11.26
350.187	25.6
350.399	74.75
350.61	48.13
350.822	84.99
351.034	56.32
351.246	76.8
351.458	82.94
351.669	109.57
351.881	80.89
352.093	25.6
352.305	46.08
352.517	84.99
352.728	74.75
352.94	-31.74
353.152	39.94
353.363	72.7
353.575	-27.65
353.787	74.75
353.999	50.18
354.21	68.61
354.422	15.36
354.633	56.32
354.845	-41.98
355.057	48.13
355.268	35.84
355.48	80.89
355.692	11.26
355.903	27.65
356.115	-37.89
356.326	-1.02
356.538	41.98
356.749	23.55
356.961	80.89
357.172	23.55
357.384	7.17
357.595	80.89
357.807	68.61
358.018	1.02
358.23	-7.17
358.441	123.9
358.653	84.99
358.864	9.22
359.075	64.51
359.287	3.07
359.498	29.7
359.709	31.74
359.921	25.6
360.132	23.55
360.344	64.51
360.555	89.09
360.766	64.51
360.977	72.7
361.189	58.37
361.4	9.22
361.611	84.99
361.823	66.56
362.034	93.18
362.245	-23.55
362.456	64.51
362.667	44.03
362.879	39.94
363.09	7.17
363.301	95.23
363.512	80.89
363.723	17.41
363.935	23.55
364.146	72.7
364.357	27.65
364.568	80.89
364.779	-27.65
364.99	125.95
365.201	-15.36
365.412	93.18
365.623	97.28
365.834	44.03
366.045	39.94
366.256	72.7
366.467	87.04
366.678	72.7
366.889	125.95
367.1	-19.46
367.311	72.7
367.522	31.74
367.733	97.28
367.944	39.94
368.155	33.79
368.366	123.9
368.577	138.24
368.788	82.94
368.999	50.18
369.209	1.02
369.42	68.61
369.631	197.63
369.842	78.85
370.053	31.74
370.264	146.43
370.474	82.94
370.685	97.28
370.896	-1.02
371.107	64.51
371.317	48.13
371.528	35.84
371.739	87.04
371.95	72.7
372.16	103.42
372.371	44.03
372.582	31.74
372.792	62.46
373.003	72.7
373.214	113.66
373.424	39.94
373.635	48.13
373.846	156.67
374.056	-11.26
374.267	78.85
374.477	54.27
374.688	27.65
374.898	-1.02
375.109	76.8
375.319	78.85
375.53	80.89
375.74	117.76
375.951	35.84
376.161	15.36
376.372	52.22
376.582	27.65
376.793	87.04
377.003	25.6
377.214	-7.17
377.424	82.94
377.635	76.8
377.845	-33.79
378.055	39.94
378.266	56.32
378.476	105.47
378.686	11.26
378.897	80.89
379.107	117.76
379.317	80.89
379.528	54.27
379.738	74.75
379.948	29.7
380.158	115.71
380.369	58.37
380.579	31.74
380.789	39.94
380.999	56.32
381.21	101.37
381.42	136.19
381.63	101.37
381.84	82.94
382.05	80.89
382.261	123.9
382.471	97.28
382.681	-9.22
382.891	72.7
383.101	64.51
383.311	35.84
383.521	31.74
383.731	64.51
383.941	89.09
384.151	97.28
384.361	-33.79
384.571	142.33
384.781	64.51
384.991	50.18
385.201	66.56
385.411	46.08
385.621	56.32
385.831	52.22
386.041	164.86
386.251	76.8
386.461	72.7
386.671	99.33
386.881	39.94
387.091	1.02
387.301	82.94
387.511	82.94
387.72	111.61
387.93	72.7
388.14	41.98
388.35	105.47
388.56	89.09
388.769	80.89
388.979	136.19
389.189	3.07
389.399	39.94
389.609	132.09
389.818	97.28
390.028	82.94
390.238	105.47
390.447	64.51
390.657	132.09
390.867	27.65
391.076	17.41
391.286	33.79
391.496	91.13
391.705	80.89
391.915	146.43
392.125	70.65
392.334	68.61
392.544	142.33
392.753	72.7
392.963	99.33
393.172	101.37
393.382	72.7
393.591	113.66
393.801	121.85
394.01	109.57
394.22	23.55
394.429	64.51
394.639	103.42
394.848	48.13
395.058	76.8
395.267	91.13
395.477	74.75
395.686	54.27
395.895	101.37
396.105	107.52
396.314	142.33
396.524	132.09
396.733	130.05
396.942	158.72
397.152	99.33
397.361	97.28
397.57	128
397.78	134.14
397.989	76.8
398.198	197.63
398.407	70.65
398.617	146.43
398.826	64.51
399.035	99.33
399.244	152.57
399.453	35.84
399.663	80.89
399.872	121.85
400.081	64.51
400.29	146.43
400.499	138.24
400.708	195.58
400.917	111.61
401.127	179.2
401.336	117.76
401.545	187.39
401.754	105.47
401.963	107.52
402.172	41.98
402.381	107.52
402.59	101.37
402.799	142.33
403.008	209.92
403.217	72.7
403.426	179.2
403.635	130.05
403.844	162.81
404.053	205.82
404.262	111.61
404.471	187.39
404.68	95.23
404.888	117.76
405.097	211.96
405.306	187.39
405.515	189.44
405.724	191.49
405.933	187.39
406.142	199.68
406.35	199.68
406.559	134.14
406.768	158.72
406.977	203.77
407.185	242.68
407.394	150.53
407.603	199.68
407.812	248.83
408.02	254.97
408.229	166.91
408.438	246.78
408.646	173.05
408.855	195.58
409.064	232.44
409.272	211.96
409.481	302.08
409.69	269.31
409.898	310.27
410.107	304.12
410.315	343.03
410.524	388.09
410.733	355.32
410.941	377.85
411.15	306.17
411.358	359.42
411.567	369.66
411.775	420.86
411.984	310.27
412.192	371.71
412.401	490.49
412.609	500.73
412.818	457.72
413.026	566.26
413.234	529.4
413.443	611.32
413.651	506.87
413.86	515.06
414.068	672.76
414.276	609.27
414.485	531.45
414.693	728.05
414.901	719.86
415.11	760.82
415.318	746.48
415.526	670.71
415.734	746.48
415.943	805.88
416.151	728.05
416.359	818.16
416.567	877.55
416.776	871.41
416.984	988.14
417.192	982
417.4	1039.34
417.608	965.62
417.817	1002.48
418.025	1088.5
418.233	1168.37
418.441	1145.84
418.649	1108.98
418.857	1242.09
419.065	1367.02
419.273	1307.63
419.481	1328.11
419.689	1285.1
419.897	1438.7
420.105	1551.34
420.313	1571.82
420.521	1604.58
420.729	1614.82
420.937	1655.78
421.145	1717.22
421.353	1803.24
421.561	1942.5
421.769	1946.59
421.977	2032.61
422.185	2046.94
422.393	2104.29
422.601	2227.17
422.809	2280.41
423.017	2360.28
423.224	2362.33
423.432	2489.31
423.64	2436.06
423.848	2685.91
424.056	2655.19
424.263	2841.56
424.471	2888.66
424.679	2898.9
424.887	3015.63
425.094	3161.04
425.302	3181.52
425.51	3185.62
425.718	3505.1
425.925	3523.53
426.133	3433.42
426.341	3726.28
426.548	3857.35
426.756	4037.57
426.964	3843.01
427.171	4185.02
427.379	4287.42
427.586	4246.46
427.794	4557.75
428.001	4578.23
428.209	4998.07
428.417	4826.04
428.624	5170.1
428.832	5135.28
429.039	5047.22
429.247	4924.34
429.454	5628.84
429.662	5888.93
429.869	5538.73
430.076	6075.3
430.284	5800.87
430.491	6138.79
430.699	6398.88
430.906	6300.58
431.114	6552.48
431.321	6736.79
431.528	6726.55
431.736	7216.02
431.943	7512.97
432.15	7338.9
432.358	7535.5
432.565	7916.42
432.772	7850.89
432.979	8108.93
433.187	8141.7
433.394	8409.98
433.601	8844.15
433.808	9087.86
434.016	8962.94
434.223	9296.75
434.43	9878.38
434.637	9710.44
434.844	10175.33
435.052	10404.71
435.259	10541.92
435.466	10795.87
435.673	10337.12
435.88	11170.65
436.087	11838.28
436.294	11799.37
436.501	11440.98
436.708	11629.39
436.915	12114.76
437.122	12757.82
437.329	12559.17
437.537	13159.22
437.743	13413.17
437.95	13042.49
438.157	14019.37
438.364	14156.58
438.571	14406.44
438.778	14324.52
438.985	15455
439.192	15194.9
439.399	15342.36
439.606	15143.7
439.813	16102.15
440.02	16900.86
440.227	16579.33
440.433	16399.11
440.64	17130.23
440.847	16960.25
441.054	17455.86
441.261	18576.1
441.467	18186.99
441.674	18586.34
441.881	19372.76
442.088	19241.69
442.294	18934.5
442.501	19630.8
442.708	20267.72
442.914	20806.34
443.121	21684.92
443.328	21351.1
443.534	22569.64
443.741	21852.85
443.948	21682.87
444.154	23548.57
444.361	23448.22
444.568	23255.71
444.774	23304.86
444.981	23675.54
445.187	24089.23
445.394	25451.13
445.6	25193.09
445.807	27693.66
446.013	26172.02
446.22	26653.29
446.426	27675.23
446.633	27781.72
446.839	29217.35
447.046	28090.96
447.252	29465.15
447.459	29618.75
447.665	29407.81
447.871	30781.99
448.078	32055.83
448.284	30695.98
448.491	31427.1
448.697	32895.5
448.903	33434.11
449.11	33397.25
449.316	32852.49
449.522	33702.4
449.728	34281.97
449.935	34593.26
450.141	34609.65
450.347	35391.97
450.553	34677.23
450.76	34992.62
450.966	36045.27
451.172	35795.42
451.378	36946.38
451.584	36000.22
451.791	36866.51
451.997	37003.72
452.203	37286.34
452.409	37505.48
452.615	36958.67
452.821	35875.29
453.027	35287.53
453.233	37894.59
453.44	36215.26
453.646	36819.41
453.852	36538.83
454.058	37648.83
454.264	36301.27
454.47	37089.74
454.676	36231.64
454.882	37540.29
455.088	34003.45
455.294	34988.52
455.5	35498.47
455.705	36078.04
455.911	34388.47
456.117	34056.7
456.323	33526.27
456.529	31650.33
456.735	33233.41
456.941	32074.26
457.147	31730.2
457.352	30915.11
457.558	30612.01
457.764	30689.84
457.97	30313.01
458.176	29538.88
458.381	29649.47
458.587	28160.59
458.793	28246.61
458.999	26862.18
459.204	28709.45
459.41	28019.28
459.616	25762.42
459.821	25727.61
460.027	25899.64
460.233	25459.32
460.438	24296.08
460.644	24461.96
460.85	23696.02
461.055	22909.6
461.261	23089.82
461.466	21299.9
461.672	20906.69
461.878	22284.97
462.083	20640.45
462.289	20320.97
462.494	19825.36
462.7	18965.21
462.905	18590.44
463.111	19626.71
463.316	19614.42
463.522	19034.85
463.727	19047.13
463.932	18969.31
464.138	18899.68
464.343	19147.48
464.549	18670.31
464.754	19241.69
464.959	18850.53
465.165	18705.12
465.37	17734.39
465.575	17515.25
465.781	18240.23
465.986	18586.34
466.191	17650.42
466.397	17341.18
466.602	16546.56
466.807	17183.48
467.012	17298.17
467.218	17132.28
467.423	16904.96
467.628	17007.36
467.833	17656.56
468.038	17130.23
