Data from USB4F104151__43__14-42-57-323.txt Node

Date: Thu Mar 13 14:42:57 EDT 2025
User: louis
Spectrometer: USB4F10415
Trigger mode: 4
Integration Time (sec): 2.000000E-2
Scans to average: 1
Electric dark correction enabled: true
Nonlinearity correction enabled: false
Boxcar width: 0
XAxis mode: Wavelengths
Number of Pixels in Spectrum: 3648
>>>>>Begin Spectral Data<<<<<
178.204	-116.05
178.424	-116.05
178.644	-116.05
178.864	-148.82
179.084	-99.67
179.304	0.68
179.524	23.21
179.744	33.45
179.964	-25.94
180.184	31.4
180.404	-25.94
180.624	-7.51
180.844	-17.75
181.064	-48.47
181.283	31.4
181.503	-1.37
181.723	6.83
181.943	6.83
182.163	131.75
182.383	88.75
182.602	41.64
182.822	25.26
183.042	119.46
183.262	60.07
183.482	35.5
183.701	-13.65
183.921	101.03
184.141	29.35
184.361	43.69
184.58	121.51
184.8	-23.89
185.02	-17.75
185.239	109.23
185.459	6.83
185.679	113.32
185.898	-3.41
186.118	23.21
186.338	103.08
186.557	68.27
186.777	74.41
186.997	101.03
187.216	60.07
187.436	125.61
187.655	49.83
187.875	103.08
188.095	47.79
188.314	66.22
188.534	105.13
188.753	51.88
188.973	60.07
189.192	25.26
189.412	70.31
189.631	8.87
189.851	84.65
190.07	125.61
190.29	4.78
190.509	60.07
190.729	10.92
190.948	80.55
191.168	187.05
191.387	84.65
191.607	107.18
191.826	129.7
192.045	-1.37
192.265	-9.56
192.484	64.17
192.704	92.84
192.923	27.31
193.142	88.75
193.362	92.84
193.581	80.55
193.8	37.55
194.02	117.42
194.239	-7.51
194.458	105.13
194.678	86.7
194.897	84.65
195.116	70.31
195.335	55.98
195.555	15.02
195.774	88.75
195.993	111.27
196.212	19.11
196.432	47.79
196.651	35.5
196.87	25.26
197.089	51.88
197.308	129.7
197.528	60.07
197.747	17.07
197.966	51.88
198.185	105.13
198.404	64.17
198.623	84.65
198.842	129.7
199.062	164.52
199.281	111.27
199.5	25.26
199.719	98.99
199.938	70.31
200.157	84.65
200.376	10.92
200.595	170.66
200.814	74.41
201.033	17.07
201.252	103.08
201.471	8.87
201.69	66.22
201.909	68.27
202.128	72.36
202.347	27.31
202.566	35.5
202.785	49.83
203.004	109.23
203.223	62.12
203.442	39.59
203.661	96.94
203.879	49.83
204.098	176.81
204.317	27.31
204.536	82.6
204.755	49.83
204.974	33.45
205.193	8.87
205.411	72.36
205.63	12.97
205.849	33.45
206.068	92.84
206.287	51.88
206.505	45.74
206.724	129.7
206.943	31.4
207.162	43.69
207.381	-1.37
207.599	43.69
207.818	25.26
208.037	64.17
208.255	66.22
208.474	133.8
208.693	15.02
208.911	58.03
209.13	39.59
209.349	129.7
209.567	72.36
209.786	111.27
210.005	92.84
210.223	15.02
210.442	25.26
210.661	27.31
210.879	43.69
211.098	33.45
211.316	90.79
211.535	137.9
211.753	25.26
211.972	8.87
212.191	47.79
212.409	17.07
212.628	58.03
212.846	-1.37
213.065	64.17
213.283	49.83
213.502	35.5
213.72	164.52
213.938	17.07
214.157	-1.37
214.375	-3.41
214.594	101.03
214.812	23.21
215.031	105.13
215.249	51.88
215.467	55.98
215.686	-1.37
215.904	115.37
216.122	19.11
216.341	70.31
216.559	68.27
216.778	80.55
216.996	90.79
217.214	82.6
217.432	88.75
217.651	47.79
217.869	23.21
218.087	19.11
218.306	76.46
218.524	15.02
218.742	74.41
218.96	86.7
219.179	74.41
219.397	107.18
219.615	0.68
219.833	-17.75
220.051	55.98
220.27	49.83
220.488	86.7
220.706	45.74
220.924	8.87
221.142	47.79
221.36	39.59
221.578	58.03
221.796	115.37
222.015	31.4
222.233	64.17
222.451	58.03
222.669	58.03
222.887	72.36
223.105	-9.56
223.323	39.59
223.541	51.88
223.759	82.6
223.977	60.07
224.195	113.32
224.413	121.51
224.631	47.79
224.849	80.55
225.067	107.18
225.285	39.59
225.503	10.92
225.721	10.92
225.939	64.17
226.157	49.83
226.375	164.52
226.592	64.17
226.81	43.69
227.028	98.99
227.246	146.09
227.464	72.36
227.682	70.31
227.9	92.84
228.117	64.17
228.335	88.75
228.553	25.26
228.771	31.4
228.989	76.46
229.206	68.27
229.424	76.46
229.642	72.36
229.86	80.55
230.077	154.28
230.295	6.83
230.513	60.07
230.731	86.7
230.948	176.81
231.166	133.8
231.384	21.16
231.601	-1.37
231.819	82.6
232.037	49.83
232.254	82.6
232.472	31.4
232.689	33.45
232.907	43.69
233.125	31.4
233.342	72.36
233.56	-21.84
233.777	88.75
233.995	60.07
234.213	127.66
234.43	74.41
234.648	80.55
234.865	58.03
235.083	88.75
235.3	109.23
235.518	55.98
235.735	58.03
235.953	72.36
236.17	35.5
236.388	137.9
236.605	72.36
236.822	66.22
237.04	21.16
237.257	25.26
237.475	76.46
237.692	123.56
237.909	88.75
238.127	80.55
238.344	19.11
238.562	72.36
238.779	35.5
238.996	55.98
239.214	45.74
239.431	72.36
239.648	47.79
239.865	107.18
240.083	72.36
240.3	6.83
240.517	39.59
240.735	41.64
240.952	55.98
241.169	76.46
241.386	74.41
241.603	101.03
241.821	68.27
242.038	154.28
242.255	23.21
242.472	43.69
242.689	92.84
242.907	76.46
243.124	35.5
243.341	47.79
243.558	8.87
243.775	-1.37
243.992	25.26
244.209	105.13
244.426	162.47
244.643	174.76
244.86	76.46
245.078	105.13
245.295	131.75
245.512	105.13
245.729	60.07
245.946	117.42
246.163	90.79
246.38	80.55
246.597	-5.46
246.814	113.32
247.031	121.51
247.248	0.68
247.464	37.55
247.681	84.65
247.898	72.36
248.115	27.31
248.332	45.74
248.549	109.23
248.766	92.84
248.983	51.88
249.2	55.98
249.417	131.75
249.633	39.59
249.85	43.69
250.067	68.27
250.284	94.89
250.501	90.79
250.717	66.22
250.934	113.32
251.151	-1.37
251.368	72.36
251.585	146.09
251.801	72.36
252.018	-7.51
252.235	113.32
252.451	-7.51
252.668	74.41
252.885	86.7
253.102	107.18
253.318	68.27
253.535	146.09
253.752	80.55
253.968	84.65
254.185	-5.46
254.401	43.69
254.618	72.36
254.835	98.99
255.051	148.14
255.268	51.88
255.484	21.16
255.701	66.22
255.917	74.41
256.134	70.31
256.351	23.21
256.567	68.27
256.784	68.27
257	19.11
257.217	10.92
257.433	158.38
257.65	31.4
257.866	129.7
258.082	60.07
258.299	23.21
258.515	86.7
258.732	64.17
258.948	23.21
259.165	-25.94
259.381	-1.37
259.597	64.17
259.814	51.88
260.03	68.27
260.246	96.94
260.463	113.32
260.679	72.36
260.895	6.83
261.112	74.41
261.328	12.97
261.544	-25.94
261.761	74.41
261.977	139.94
262.193	29.35
262.409	31.4
262.626	12.97
262.842	131.75
263.058	55.98
263.274	31.4
263.49	105.13
263.707	117.42
263.923	123.56
264.139	58.03
264.355	27.31
264.571	166.57
264.787	141.99
265.004	92.84
265.22	6.83
265.436	41.64
265.652	47.79
265.868	39.59
266.084	62.12
266.3	55.98
266.516	15.02
266.732	39.59
266.948	64.17
267.164	90.79
267.38	60.07
267.596	88.75
267.812	51.88
268.028	90.79
268.244	33.45
268.46	35.5
268.676	60.07
268.892	98.99
269.108	39.59
269.324	4.78
269.54	-25.94
269.756	8.87
269.972	55.98
270.188	66.22
270.403	47.79
270.619	47.79
270.835	15.02
271.051	66.22
271.267	58.03
271.483	82.6
271.698	74.41
271.914	162.47
272.13	23.21
272.346	64.17
272.562	27.31
272.777	123.56
272.993	23.21
273.209	31.4
273.425	80.55
273.64	43.69
273.856	47.79
274.072	80.55
274.287	72.36
274.503	137.9
274.719	27.31
274.934	96.94
275.15	0.68
275.366	154.28
275.581	-15.7
275.797	29.35
276.012	96.94
276.228	88.75
276.444	23.21
276.659	66.22
276.875	12.97
277.09	25.26
277.306	-13.65
277.521	121.51
277.737	72.36
277.952	90.79
278.168	60.07
278.383	47.79
278.599	55.98
278.814	55.98
279.03	33.45
279.245	129.7
279.461	-34.13
279.676	64.17
279.892	33.45
280.107	15.02
280.322	58.03
280.538	117.42
280.753	-1.37
280.969	72.36
281.184	35.5
281.399	117.42
281.615	35.5
281.83	113.32
282.045	-5.46
282.26	55.98
282.476	-17.75
282.691	158.38
282.906	64.17
283.122	23.21
283.337	72.36
283.552	68.27
283.767	101.03
283.983	113.32
284.198	80.55
284.413	33.45
284.628	-17.75
284.843	98.99
285.058	90.79
285.274	94.89
285.489	53.93
285.704	55.98
285.919	90.79
286.134	78.51
286.349	70.31
286.564	113.32
286.779	31.4
286.995	49.83
287.21	19.11
287.425	64.17
287.64	137.9
287.855	162.47
288.07	35.5
288.285	88.75
288.5	90.79
288.715	88.75
288.93	129.7
289.145	105.13
289.36	174.76
289.575	47.79
289.79	76.46
290.004	123.56
290.219	68.27
290.434	146.09
290.649	129.7
290.864	41.64
291.079	88.75
291.294	80.55
291.509	41.64
291.724	45.74
291.938	96.94
292.153	137.9
292.368	53.93
292.583	27.31
292.798	-13.65
293.012	90.79
293.227	47.79
293.442	146.09
293.657	125.61
293.871	141.99
294.086	15.02
294.301	139.94
294.516	98.99
294.73	64.17
294.945	15.02
295.16	21.16
295.374	23.21
295.589	55.98
295.804	41.64
296.018	33.45
296.233	66.22
296.447	121.51
296.662	-30.04
296.877	64.17
297.091	66.22
297.306	131.75
297.52	80.55
297.735	72.36
297.949	146.09
298.164	88.75
298.378	-9.56
298.593	17.07
298.807	129.7
299.022	88.75
299.236	139.94
299.451	101.03
299.665	17.07
299.88	101.03
300.094	88.75
300.309	66.22
300.523	47.79
300.737	29.35
300.952	88.75
301.166	2.73
301.381	-1.37
301.595	6.83
301.809	2.73
302.024	62.12
302.238	55.98
302.452	105.13
302.667	141.99
302.881	88.75
303.095	35.5
303.309	64.17
303.524	111.27
303.738	88.75
303.952	-25.94
304.166	121.51
304.381	4.78
304.595	80.55
304.809	96.94
305.023	115.37
305.237	72.36
305.452	49.83
305.666	105.13
305.88	131.75
306.094	129.7
306.308	88.75
306.522	-9.56
306.736	82.6
306.95	105.13
307.164	6.83
307.379	76.46
307.593	107.18
307.807	96.94
308.021	156.33
308.235	109.23
308.449	92.84
308.663	121.51
308.877	113.32
309.091	-9.56
309.305	76.46
309.519	-9.56
309.733	154.28
309.947	47.79
310.161	74.41
310.374	82.6
310.588	113.32
310.802	39.59
311.016	103.08
311.23	27.31
311.444	25.26
311.658	43.69
311.872	129.7
312.085	148.14
312.299	127.66
312.513	49.83
312.727	66.22
312.941	12.97
313.154	37.55
313.368	131.75
313.582	47.79
313.796	23.21
314.009	41.64
314.223	47.79
314.437	90.79
314.651	98.99
314.864	72.36
315.078	25.26
315.292	2.73
315.505	-13.65
315.719	113.32
315.933	105.13
316.146	66.22
316.36	6.83
316.573	158.38
316.787	74.41
317.001	96.94
317.214	17.07
317.428	150.18
317.641	6.83
317.855	29.35
318.068	-19.8
318.282	113.32
318.495	92.84
318.709	105.13
318.922	64.17
319.136	29.35
319.349	-3.41
319.563	92.84
319.776	66.22
319.99	6.83
320.203	131.75
320.417	10.92
320.63	55.98
320.843	76.46
321.057	47.79
321.27	49.83
321.483	60.07
321.697	41.64
321.91	72.36
322.124	74.41
322.337	49.83
322.55	-19.8
322.763	64.17
322.977	113.32
323.19	-5.46
323.403	105.13
323.617	115.37
323.83	123.56
324.043	66.22
324.256	80.55
324.469	84.65
324.683	72.36
324.896	92.84
325.109	98.99
325.322	55.98
325.535	80.55
325.748	68.27
325.962	43.69
326.175	58.03
326.388	121.51
326.601	105.13
326.814	84.65
327.027	55.98
327.24	162.47
327.453	92.84
327.666	80.55
327.879	15.02
328.092	53.93
328.305	133.8
328.518	74.41
328.731	72.36
328.944	72.36
329.157	76.46
329.37	-48.47
329.583	131.75
329.796	82.6
330.009	72.36
330.222	174.76
330.435	96.94
330.648	10.92
330.861	88.75
331.073	148.14
331.286	141.99
331.499	115.37
331.712	82.6
331.925	-15.7
332.138	137.9
332.35	96.94
332.563	66.22
332.776	119.46
332.989	12.97
333.202	88.75
333.414	107.18
333.627	86.7
333.84	43.69
334.053	6.83
334.265	74.41
334.478	82.6
334.691	74.41
334.903	64.17
335.116	27.31
335.329	12.97
335.541	55.98
335.754	47.79
335.966	6.83
336.179	58.03
336.392	58.03
336.604	105.13
336.817	31.4
337.029	162.47
337.242	23.21
337.454	80.55
337.667	82.6
337.88	146.09
338.092	133.8
338.305	55.98
338.517	35.5
338.729	90.79
338.942	88.75
339.154	66.22
339.367	37.55
339.579	70.31
339.792	88.75
340.004	80.55
340.217	98.99
340.429	64.17
340.641	17.07
340.854	96.94
341.066	29.35
341.278	162.47
341.491	164.52
341.703	90.79
341.915	25.26
342.128	78.51
342.34	86.7
342.552	123.56
342.764	53.93
342.977	103.08
343.189	119.46
343.401	80.55
343.613	55.98
343.826	115.37
344.038	21.16
344.25	51.88
344.462	109.23
344.674	72.36
344.886	53.93
345.099	90.79
345.311	98.99
345.523	8.87
345.735	88.75
345.947	72.36
346.159	31.4
346.371	15.02
346.583	47.79
346.795	150.18
347.007	17.07
347.219	150.18
347.431	31.4
347.643	154.28
347.855	25.26
348.067	141.99
348.279	92.84
348.491	105.13
348.703	129.7
348.915	23.21
349.127	55.98
349.339	109.23
349.551	31.4
349.763	43.69
349.975	64.17
350.187	154.28
350.399	109.23
350.61	68.27
350.822	49.83
351.034	72.36
351.246	172.71
351.458	33.45
351.669	96.94
351.881	25.26
352.093	96.94
352.305	172.71
352.517	92.84
352.728	72.36
352.94	74.41
353.152	123.56
353.363	53.93
353.575	88.75
353.787	55.98
353.999	76.46
354.21	121.51
354.422	90.79
354.633	45.74
354.845	90.79
355.057	33.45
355.268	58.03
355.48	39.59
355.692	39.59
355.903	96.94
356.115	76.46
356.326	101.03
356.538	115.37
356.749	78.51
356.961	154.28
357.172	96.94
357.384	105.13
357.595	139.94
357.807	33.45
358.018	15.02
358.23	90.79
358.441	197.29
358.653	64.17
358.864	29.35
359.075	88.75
359.287	96.94
359.498	68.27
359.709	105.13
359.921	60.07
360.132	64.17
360.344	84.65
360.555	49.83
360.766	154.28
360.977	25.26
361.189	150.18
361.4	129.7
361.611	72.36
361.823	115.37
362.034	111.27
362.245	-17.75
362.456	49.83
362.667	101.03
362.879	154.28
363.09	78.51
363.301	121.51
363.512	64.17
363.723	76.46
363.935	76.46
364.146	146.09
364.357	123.56
364.568	43.69
364.779	55.98
364.99	39.59
365.201	49.83
365.412	94.89
365.623	31.4
365.834	148.14
366.045	27.31
366.256	86.7
366.467	101.03
366.678	47.79
366.889	156.33
367.1	37.55
367.311	68.27
367.522	74.41
367.733	58.03
367.944	113.32
368.155	47.79
368.366	115.37
368.577	86.7
368.788	123.56
368.999	78.51
369.209	58.03
369.42	133.8
369.631	133.8
369.842	90.79
370.053	146.09
370.264	92.84
370.474	45.74
370.685	109.23
370.896	80.55
371.107	133.8
371.317	162.47
371.528	86.7
371.739	150.18
371.95	129.7
372.16	156.33
372.371	-30.04
372.582	2.73
372.792	170.66
373.003	162.47
373.214	144.04
373.424	72.36
373.635	78.51
373.846	80.55
374.056	80.55
374.267	133.8
374.477	144.04
374.688	-9.56
374.898	58.03
375.109	113.32
375.319	72.36
375.53	115.37
375.74	131.75
375.951	80.55
376.161	37.55
376.372	148.14
376.582	47.79
376.793	88.75
377.003	98.99
377.214	109.23
377.424	74.41
377.635	121.51
377.845	76.46
378.055	129.7
378.266	109.23
378.476	113.32
378.686	101.03
378.897	146.09
379.107	105.13
379.317	74.41
379.528	88.75
379.738	96.94
379.948	43.69
380.158	162.47
380.369	125.61
380.579	64.17
380.789	33.45
380.999	58.03
381.21	98.99
381.42	123.56
381.63	58.03
381.84	133.8
382.05	139.94
382.261	154.28
382.471	96.94
382.681	172.71
382.891	88.75
383.101	94.89
383.311	76.46
383.521	146.09
383.731	131.75
383.941	82.6
384.151	90.79
384.361	51.88
384.571	131.75
384.781	156.33
384.991	146.09
385.201	105.13
385.411	105.13
385.621	68.27
385.831	86.7
386.041	15.02
386.251	141.99
386.461	113.32
386.671	105.13
386.881	139.94
387.091	27.31
387.301	162.47
387.511	92.84
387.72	17.07
387.93	105.13
388.14	129.7
388.35	74.41
388.56	148.14
388.769	90.79
388.979	64.17
389.189	123.56
389.399	105.13
389.609	146.09
389.818	98.99
390.028	88.75
390.238	154.28
390.447	70.31
390.657	129.7
390.867	105.13
391.076	68.27
391.286	203.43
391.496	72.36
391.705	105.13
391.915	195.24
392.125	117.42
392.334	141.99
392.544	115.37
392.753	150.18
392.963	41.64
393.172	150.18
393.382	121.51
393.591	131.75
393.801	78.51
394.01	166.57
394.22	82.6
394.429	74.41
394.639	146.09
394.848	96.94
395.058	137.9
395.267	96.94
395.477	162.47
395.686	101.03
395.895	185
396.105	178.86
396.314	170.66
396.524	156.33
396.733	80.55
396.942	92.84
397.152	98.99
397.361	105.13
397.57	185
397.78	96.94
397.989	96.94
398.198	139.94
398.407	152.23
398.617	150.18
398.826	121.51
399.035	137.9
399.244	115.37
399.453	141.99
399.663	215.72
399.872	213.67
400.081	92.84
400.29	197.29
400.499	117.42
400.708	180.9
400.917	125.61
401.127	170.66
401.336	115.37
401.545	250.53
401.754	178.86
401.963	189.1
402.172	131.75
402.381	146.09
402.59	174.76
402.799	211.62
403.008	205.48
403.217	125.61
403.426	125.61
403.635	180.9
403.844	193.19
404.053	189.1
404.262	174.76
404.471	197.29
404.68	121.51
404.888	199.34
405.097	191.14
405.306	232.1
405.515	250.53
405.724	225.96
405.933	219.82
406.142	250.53
406.35	185
406.559	238.25
406.768	201.38
406.977	303.78
407.185	221.86
407.394	211.62
407.603	197.29
407.812	309.93
408.02	213.67
408.229	328.36
408.438	256.68
408.646	260.77
408.855	303.78
409.064	318.12
409.272	328.36
409.481	348.84
409.69	307.88
409.898	326.31
410.107	432.8
410.315	383.65
410.524	352.93
410.733	352.93
410.941	443.04
411.15	465.57
411.358	410.28
411.567	424.61
411.775	436.9
411.984	424.61
412.192	428.71
412.401	557.73
412.609	518.82
412.818	522.91
413.026	656.03
413.234	533.15
413.443	582.31
413.651	543.39
413.86	608.93
414.068	678.56
414.276	768.67
414.485	637.6
414.693	674.46
414.901	725.66
415.11	811.68
415.318	819.87
415.526	746.14
415.734	817.82
415.943	846.49
416.151	895.64
416.359	918.17
416.567	920.22
416.776	883.36
416.984	1071.77
417.192	1065.63
417.4	998.04
417.608	1055.39
417.817	1194.65
418.025	1186.46
418.233	1333.91
418.441	1215.13
418.649	1381.01
418.857	1428.12
419.065	1401.49
419.273	1311.38
419.481	1401.49
419.689	1544.85
419.897	1608.34
420.105	1540.76
420.313	1634.96
420.521	1708.69
420.729	1792.66
420.937	1817.23
421.145	1796.75
421.353	2017.93
421.561	2089.61
421.769	2128.52
421.977	2189.96
422.185	2245.26
422.393	2343.56
422.601	2390.66
422.809	2278.02
423.017	2366.09
423.224	2605.7
423.432	2669.19
423.64	2632.32
423.848	2808.45
424.056	2787.97
424.263	2894.46
424.471	2980.48
424.679	3086.97
424.887	3066.49
425.094	3359.35
425.302	3398.26
425.51	3390.07
425.718	3566.2
425.925	3582.58
426.133	3695.22
426.341	3961.45
426.548	3967.6
426.756	4141.68
426.964	4176.49
427.171	4369
427.379	4414.06
427.586	4477.54
427.794	4727.39
428.001	4883.04
428.209	5175.9
428.417	5112.41
428.624	5630.55
428.832	5456.47
429.039	5489.24
429.247	5438.04
429.454	5847.63
429.662	6287.95
429.869	5898.83
430.076	6494.79
430.284	6029.9
430.491	6412.87
430.699	6609.48
430.906	6746.69
431.114	6814.27
431.321	7170.62
431.528	7158.33
431.736	7748.15
431.943	7903.79
432.15	7776.82
432.358	7995.95
432.565	8352.3
432.772	8231.47
432.979	8817.19
433.187	8747.56
433.394	8915.49
433.601	9366.04
433.808	9609.75
434.016	9349.66
434.223	10058.26
434.43	10527.24
434.637	10213.9
434.844	10797.57
435.052	10795.53
435.259	11033.09
435.466	11158.02
435.673	11024.9
435.88	11889.14
436.087	12403.18
436.294	12259.82
436.501	12151.28
436.708	12339.69
436.915	12796.39
437.122	13359.58
437.329	13361.63
437.537	13744.6
437.743	14023.12
437.95	13896.15
438.157	14612.94
438.364	14854.6
438.571	15045.06
438.778	15079.88
438.985	16374.19
439.192	15815.1
439.399	16253.36
439.606	15864.25
439.813	16951.72
440.02	17789.34
440.227	17514.91
440.433	17150.37
440.64	18024.86
440.847	17959.32
441.054	18155.93
441.261	19374.47
441.467	19308.93
441.674	19534.21
441.881	20441.46
442.088	20388.21
442.294	20144.5
442.501	20875.63
442.708	21215.59
442.914	22049.11
443.121	22882.64
443.328	22018.39
443.534	23953.73
443.741	23191.88
443.948	23044.43
444.154	24754.48
444.361	24277.3
444.568	24363.32
444.774	24543.54
444.981	24848.69
445.187	25637.16
445.394	26632.47
445.6	26515.73
445.807	28993.78
446.013	27556.1
446.22	28098.81
446.426	29120.75
446.633	29552.87
446.839	30718.17
447.046	29022.45
447.252	30908.63
447.459	31129.81
447.665	30789.84
447.871	32116.93
448.078	33288.37
448.284	32360.64
448.491	32745.65
448.697	34277.54
448.903	35002.52
449.11	35129.49
449.316	34320.54
449.522	34949.27
449.728	36003.97
449.935	36292.74
450.141	36259.97
450.347	36880.5
450.553	36171.91
450.76	36659.32
450.966	37855.34
451.172	37148.79
451.378	38426.72
451.584	37607.53
451.791	38770.78
451.997	38621.28
452.203	38813.79
452.409	39065.69
452.615	38846.55
452.821	37367.92
453.027	37425.26
453.233	39297.11
453.44	37664.88
453.646	38029.41
453.852	38490.21
454.058	38883.42
454.264	37650.54
454.47	38565.98
454.676	37427.31
454.882	39114.84
455.088	35498.12
455.294	36194.43
455.5	37140.6
455.705	37238.9
455.911	35639.43
456.117	35158.16
456.323	34654.36
456.529	33079.47
456.735	34271.39
456.941	33396.91
457.147	32706.74
457.352	32346.3
457.558	31963.33
457.764	32020.67
457.97	31234.25
458.176	30894.29
458.381	30513.37
458.587	29122.8
458.793	29389.03
458.999	27887.87
459.204	29870.31
459.41	28895.47
459.616	26863.89
459.821	27056.4
460.027	26835.22
460.233	26519.83
460.438	25385.26
460.644	25555.24
460.85	24181.05
461.055	23982.4
461.261	23746.88
461.466	21993.82
461.672	21336.42
461.878	22946.12
462.083	21643.62
462.289	21154.15
462.494	20828.52
462.7	19949.95
462.905	19378.56
463.111	19831.16
463.316	20289.91
463.522	19712.38
463.727	19857.79
463.932	20017.53
464.138	19696
464.343	19571.07
464.549	18725.26
464.754	19825.02
464.959	19487.11
465.165	18913.67
465.37	18829.71
465.575	18190.74
465.781	19022.22
