Data from USB4F104151__298__14-46-32-472.txt Node

Date: Thu Mar 13 14:46:32 EDT 2025
User: louis
Spectrometer: USB4F10415
Trigger mode: 4
Integration Time (sec): 2.000000E-2
Scans to average: 1
Electric dark correction enabled: true
Nonlinearity correction enabled: false
Boxcar width: 0
XAxis mode: Wavelengths
Number of Pixels in Spectrum: 3648
>>>>>Begin Spectral Data<<<<<
178.204	-124.58
178.424	-124.58
178.644	-124.58
178.864	-81.58
179.084	-108.2
179.304	-54.95
179.524	12.63
179.744	53.59
179.964	-18.09
180.184	22.87
180.404	8.53
180.624	-16.04
180.844	8.53
181.064	-5.8
181.283	20.82
181.503	-63.15
181.723	31.06
181.943	20.82
182.163	131.41
182.383	67.92
182.602	119.12
182.822	4.44
183.042	-3.75
183.262	-9.9
183.482	29.01
183.701	8.53
183.921	61.78
184.141	-34.47
184.361	49.49
184.58	78.16
184.8	55.64
185.02	22.87
185.239	43.35
185.459	20.82
185.679	37.2
185.898	53.59
186.118	45.4
186.338	-42.67
186.557	61.78
186.777	55.64
186.997	53.59
187.216	20.82
187.436	57.68
187.655	-44.71
187.875	59.73
188.095	69.97
188.314	24.92
188.534	96.6
188.753	29.01
188.973	33.11
189.192	104.79
189.412	102.74
189.631	47.44
189.851	39.25
190.07	37.2
190.29	-22.19
190.509	16.73
190.729	6.49
190.948	63.83
191.168	108.88
191.387	55.64
191.607	-9.9
191.826	20.82
192.045	35.16
192.265	-34.47
192.484	69.97
192.704	20.82
192.923	74.07
193.142	92.5
193.362	8.53
193.581	65.88
193.8	59.73
194.02	45.4
194.239	69.97
194.458	94.55
194.678	41.3
194.897	8.53
195.116	53.59
195.335	2.39
195.555	24.92
195.774	63.83
195.993	69.97
196.212	29.01
196.432	-34.47
196.651	-7.85
196.87	-9.9
197.089	49.49
197.308	65.88
197.528	14.68
197.747	-54.95
197.966	37.2
198.185	102.74
198.404	67.92
198.623	80.21
198.842	69.97
199.062	57.68
199.281	37.2
199.5	61.78
199.719	37.2
199.938	-16.04
200.157	90.45
200.376	29.01
200.595	90.45
200.814	72.02
201.033	14.68
201.252	59.73
201.471	31.06
201.69	78.16
201.909	37.2
202.128	29.01
202.347	-7.85
202.566	-28.33
202.785	26.96
203.004	-28.33
203.223	31.06
203.442	45.4
203.661	4.44
203.879	-3.75
204.098	96.6
204.317	37.2
204.536	29.01
204.755	57.68
204.974	53.59
205.193	45.4
205.411	135.51
205.63	-61.1
205.849	90.45
206.068	45.4
206.287	-20.14
206.505	45.4
206.724	102.74
206.943	-20.14
207.162	31.06
207.381	55.64
207.599	55.64
207.818	-26.28
208.037	39.25
208.255	33.11
208.474	4.44
208.693	51.54
208.911	41.3
209.13	0.34
209.349	55.64
209.567	33.11
209.786	78.16
210.005	33.11
210.223	82.26
210.442	24.92
210.661	47.44
210.879	24.92
211.098	14.68
211.316	102.74
211.535	65.88
211.753	33.11
211.972	39.25
212.191	135.51
212.409	20.82
212.628	119.12
212.846	20.82
213.065	4.44
213.283	94.55
213.502	47.44
213.72	24.92
213.938	55.64
214.157	12.63
214.375	-26.28
214.594	82.26
214.812	10.58
215.031	0.34
215.249	53.59
215.467	74.07
215.686	4.44
215.904	115.03
216.122	31.06
216.341	20.82
216.559	90.45
216.778	24.92
216.996	12.63
217.214	59.73
217.432	20.82
217.651	-1.71
217.869	-48.81
218.087	86.36
218.306	119.12
218.524	37.2
218.742	8.53
218.96	55.64
219.179	43.35
219.397	98.64
219.615	102.74
219.833	49.49
220.051	22.87
220.27	43.35
220.488	117.08
220.706	37.2
220.924	43.35
221.142	45.4
221.36	53.59
221.578	80.21
221.796	37.2
222.015	45.4
222.233	41.3
222.451	26.96
222.669	37.2
222.887	115.03
223.105	63.83
223.323	35.16
223.541	-9.9
223.759	117.08
223.977	51.54
224.195	41.3
224.413	80.21
224.631	69.97
224.849	29.01
225.067	117.08
225.285	6.49
225.503	20.82
225.721	-20.14
225.939	59.73
226.157	-13.99
226.375	153.94
226.592	-16.04
226.81	104.79
227.028	86.36
227.246	12.63
227.464	51.54
227.682	61.78
227.9	51.54
228.117	86.36
228.335	10.58
228.553	86.36
228.771	4.44
228.989	24.92
229.206	0.34
229.424	-59.05
229.642	29.01
229.86	69.97
230.077	78.16
230.295	41.3
230.513	26.96
230.731	98.64
230.948	160.08
231.166	119.12
231.384	16.73
231.601	80.21
231.819	78.16
232.037	-26.28
232.254	8.53
232.472	12.63
232.689	33.11
232.907	47.44
233.125	-48.81
233.342	49.49
233.56	-42.67
233.777	20.82
233.995	145.75
234.213	158.03
234.43	94.55
234.648	-11.95
234.865	4.44
235.083	37.2
235.3	63.83
235.518	24.92
235.735	123.22
235.953	24.92
236.17	61.78
236.388	69.97
236.605	12.63
236.822	63.83
237.04	80.21
237.257	45.4
237.475	88.4
237.692	29.01
237.909	31.06
238.127	33.11
238.344	16.73
238.562	69.97
238.779	20.82
238.996	-18.09
239.214	8.53
239.431	6.49
239.648	6.49
239.865	4.44
240.083	-3.75
240.3	-11.95
240.517	-18.09
240.735	78.16
240.952	94.55
241.169	41.3
241.386	0.34
241.603	37.2
241.821	37.2
242.038	63.83
242.255	92.5
242.472	-9.9
242.689	88.4
242.907	96.6
243.124	98.64
243.341	14.68
243.558	-28.33
243.775	4.44
243.992	22.87
244.209	57.68
244.426	143.7
244.643	24.92
244.86	37.2
245.078	65.88
245.295	96.6
245.512	63.83
245.729	31.06
245.946	94.55
246.163	55.64
246.38	37.2
246.597	31.06
246.814	16.73
247.031	53.59
247.248	45.4
247.464	45.4
247.681	16.73
247.898	16.73
248.115	92.5
248.332	69.97
248.549	-24.23
248.766	119.12
248.983	45.4
249.2	20.82
249.417	69.97
249.633	29.01
249.85	106.84
250.067	-22.19
250.284	49.49
250.501	72.02
250.717	45.4
250.934	14.68
251.151	61.78
251.368	106.84
251.585	72.02
251.801	39.25
252.018	-7.85
252.235	57.68
252.451	41.3
252.668	-5.8
252.885	63.83
253.102	57.68
253.318	61.78
253.535	47.44
253.752	63.83
253.968	14.68
254.185	-59.05
254.401	102.74
254.618	86.36
254.835	49.49
255.051	102.74
255.268	37.2
255.484	78.16
255.701	4.44
255.917	84.31
256.134	10.58
256.351	69.97
256.567	-24.23
256.784	33.11
257	-36.52
257.217	12.63
257.433	0.34
257.65	55.64
257.866	12.63
258.082	-3.75
258.299	72.02
258.515	78.16
258.732	-32.43
258.948	37.2
259.165	-61.1
259.381	53.59
259.597	94.55
259.814	20.82
260.03	94.55
260.246	94.55
260.463	12.63
260.679	110.93
260.895	106.84
261.112	53.59
261.328	20.82
261.544	0.34
261.761	92.5
261.977	45.4
262.193	-16.04
262.409	57.68
262.626	90.45
262.842	57.68
263.058	-1.71
263.274	33.11
263.49	67.92
263.707	16.73
263.923	4.44
264.139	37.2
264.355	29.01
264.571	16.73
264.787	45.4
265.004	80.21
265.22	-24.23
265.436	37.2
265.652	102.74
265.868	53.59
266.084	-81.58
266.3	-36.52
266.516	0.34
266.732	61.78
266.948	26.96
267.164	55.64
267.38	33.11
267.596	33.11
267.812	86.36
268.028	39.25
268.244	-3.75
268.46	94.55
268.676	24.92
268.892	82.26
269.108	43.35
269.324	4.44
269.54	24.92
269.756	-26.28
269.972	45.4
270.188	86.36
270.403	4.44
270.619	123.22
270.835	29.01
271.051	65.88
271.267	12.63
271.483	61.78
271.698	117.08
271.914	74.07
272.13	45.4
272.346	16.73
272.562	39.25
272.777	45.4
272.993	57.68
273.209	51.54
273.425	33.11
273.64	47.44
273.856	16.73
274.072	-24.23
274.287	82.26
274.503	-5.8
274.719	39.25
274.934	55.64
275.15	-9.9
275.366	63.83
275.581	-20.14
275.797	145.75
276.012	43.35
276.228	39.25
276.444	6.49
276.659	135.51
276.875	-28.33
277.09	26.96
277.306	14.68
277.521	37.2
277.737	57.68
277.952	14.68
278.168	98.64
278.383	104.79
278.599	22.87
278.814	57.68
279.03	-5.8
279.245	129.36
279.461	61.78
279.676	55.64
279.892	-20.14
280.107	69.97
280.322	-13.99
280.538	-28.33
280.753	18.77
280.969	29.01
281.184	59.73
281.399	57.68
281.615	51.54
281.83	39.25
282.045	-28.33
282.26	41.3
282.476	4.44
282.691	88.4
282.906	43.35
283.122	72.02
283.337	22.87
283.552	92.5
283.767	80.21
283.983	76.12
284.198	-3.75
284.413	47.44
284.628	-16.04
284.843	-1.71
285.058	20.82
285.274	98.64
285.489	-85.67
285.704	78.16
285.919	14.68
286.134	78.16
286.349	-1.71
286.564	29.01
286.779	106.84
286.995	53.59
287.21	-5.8
287.425	65.88
287.64	72.02
287.855	-7.85
288.07	-52.91
288.285	102.74
288.5	74.07
288.715	45.4
288.93	16.73
289.145	8.53
289.36	100.69
289.575	-34.47
289.79	80.21
290.004	4.44
290.219	45.4
290.434	6.49
290.649	4.44
290.864	69.97
291.079	-40.62
291.294	59.73
291.509	-28.33
291.724	45.4
291.938	47.44
292.153	-1.71
292.368	84.31
292.583	49.49
292.798	39.25
293.012	102.74
293.227	94.55
293.442	-11.95
293.657	39.25
293.871	153.94
294.086	51.54
294.301	129.36
294.516	110.93
294.73	37.2
294.945	4.44
295.16	20.82
295.374	115.03
295.589	65.88
295.804	61.78
296.018	20.82
296.233	90.45
296.447	33.11
296.662	22.87
296.877	12.63
297.091	31.06
297.306	41.3
297.52	41.3
297.735	110.93
297.949	-40.62
298.164	55.64
298.378	-5.8
298.593	18.77
298.807	53.59
299.022	33.11
299.236	57.68
299.451	115.03
299.665	0.34
299.88	53.59
300.094	41.3
300.309	10.58
300.523	43.35
300.737	37.2
300.952	39.25
301.166	57.68
301.381	-3.75
301.595	76.12
301.809	45.4
302.024	-36.52
302.238	53.59
302.452	18.77
302.667	-18.09
302.881	49.49
303.095	98.64
303.309	20.82
303.524	14.68
303.738	47.44
303.952	-40.62
304.166	53.59
304.381	-30.38
304.595	41.3
304.809	61.78
305.023	20.82
305.237	39.25
305.452	31.06
305.666	108.88
305.88	94.55
306.094	160.08
306.308	16.73
306.522	37.2
306.736	29.01
306.95	-11.95
307.164	90.45
307.379	35.16
307.593	100.69
307.807	78.16
308.021	61.78
308.235	69.97
308.449	-11.95
308.663	72.02
308.877	39.25
309.091	61.78
309.305	61.78
309.519	4.44
309.733	92.5
309.947	4.44
310.161	33.11
310.374	82.26
310.588	29.01
310.802	12.63
311.016	45.4
311.23	-18.09
311.444	37.2
311.658	65.88
311.872	14.68
312.085	82.26
312.299	67.92
312.513	61.78
312.727	47.44
312.941	-34.47
313.154	53.59
313.368	31.06
313.582	86.36
313.796	-7.85
314.009	-1.71
314.223	45.4
314.437	61.78
314.651	90.45
314.864	31.06
315.078	-36.52
315.292	65.88
315.505	-7.85
315.719	43.35
315.933	-1.71
316.146	43.35
316.36	31.06
316.573	96.6
316.787	53.59
317.001	80.21
317.214	86.36
317.428	2.39
317.641	29.01
317.855	31.06
318.068	45.4
318.282	8.53
318.495	4.44
318.709	45.4
318.922	10.58
319.136	82.26
319.349	78.16
319.563	22.87
319.776	24.92
319.99	-3.75
320.203	4.44
320.417	41.3
320.63	82.26
320.843	153.94
321.057	-18.09
321.27	49.49
321.483	72.02
321.697	112.98
321.91	-18.09
322.124	78.16
322.337	106.84
322.55	37.2
322.763	86.36
322.977	-22.19
323.19	65.88
323.403	29.01
323.617	53.59
323.83	61.78
324.043	65.88
324.256	45.4
324.469	-18.09
324.683	45.4
324.896	4.44
325.109	12.63
325.322	-7.85
325.535	26.96
325.748	102.74
325.962	86.36
326.175	49.49
326.388	65.88
326.601	2.39
326.814	37.2
327.027	37.2
327.24	16.73
327.453	69.97
327.666	14.68
327.879	115.03
328.092	14.68
328.305	69.97
328.518	33.11
328.731	35.16
328.944	29.01
329.157	104.79
329.37	10.58
329.583	86.36
329.796	39.25
330.009	29.01
330.222	69.97
330.435	-36.52
330.648	31.06
330.861	61.78
331.073	55.64
331.286	98.64
331.499	-22.19
331.712	6.49
331.925	41.3
332.138	24.92
332.35	106.84
332.563	4.44
332.776	110.93
332.989	65.88
333.202	33.11
333.414	14.68
333.627	10.58
333.84	37.2
334.053	69.97
334.265	-20.14
334.478	14.68
334.691	16.73
334.903	24.92
335.116	94.55
335.329	145.75
335.541	35.16
335.754	98.64
335.966	94.55
336.179	12.63
336.392	29.01
336.604	41.3
336.817	49.49
337.029	45.4
337.242	80.21
337.454	94.55
337.667	0.34
337.88	88.4
338.092	98.64
338.305	78.16
338.517	51.54
338.729	80.21
338.942	69.97
339.154	55.64
339.367	-11.95
339.579	102.74
339.792	88.4
340.004	45.4
340.217	65.88
340.429	43.35
340.641	67.92
340.854	4.44
341.066	4.44
341.278	20.82
341.491	110.93
341.703	88.4
341.915	-3.75
342.128	53.59
342.34	20.82
342.552	35.16
342.764	16.73
342.977	-3.75
343.189	37.2
343.401	69.97
343.613	57.68
343.826	-7.85
344.038	20.82
344.25	63.83
344.462	143.7
344.674	49.49
344.886	31.06
345.099	90.45
345.311	-30.38
345.523	4.44
345.735	69.97
345.947	69.97
346.159	31.06
346.371	33.11
346.583	41.3
346.795	80.21
347.007	74.07
347.219	4.44
347.431	74.07
347.643	45.4
347.855	-65.19
348.067	29.01
348.279	-9.9
348.491	6.49
348.703	78.16
348.915	61.78
349.127	47.44
349.339	31.06
349.551	37.2
349.763	51.54
349.975	41.3
350.187	98.64
350.399	41.3
350.61	63.83
350.822	35.16
351.034	72.02
351.246	31.06
351.458	41.3
351.669	22.87
351.881	37.2
352.093	20.82
352.305	29.01
352.517	57.68
352.728	65.88
352.94	-38.57
353.152	74.07
353.363	4.44
353.575	4.44
353.787	88.4
353.999	78.16
354.21	82.26
354.422	45.4
354.633	119.12
354.845	29.01
355.057	47.44
355.268	37.2
355.48	-1.71
355.692	4.44
355.903	57.68
356.115	45.4
356.326	20.82
356.538	80.21
356.749	14.68
356.961	145.75
357.172	4.44
357.384	37.2
357.595	86.36
357.807	69.97
358.018	29.01
358.23	45.4
358.441	61.78
358.653	45.4
358.864	78.16
359.075	37.2
359.287	84.31
359.498	102.74
359.709	145.75
359.921	145.75
360.132	65.88
360.344	53.59
360.555	14.68
360.766	69.97
360.977	61.78
361.189	57.68
361.4	-5.8
361.611	61.78
361.823	37.2
362.034	86.36
362.245	-9.9
362.456	94.55
362.667	-11.95
362.879	33.11
363.09	12.63
363.301	53.59
363.512	82.26
363.723	8.53
363.935	-11.95
364.146	61.78
364.357	45.4
364.568	31.06
364.779	33.11
364.99	45.4
365.201	-30.38
365.412	78.16
365.623	-44.71
365.834	14.68
366.045	29.01
366.256	88.4
366.467	102.74
366.678	22.87
366.889	45.4
367.1	45.4
367.311	67.92
367.522	69.97
367.733	86.36
367.944	6.49
368.155	49.49
368.366	67.92
368.577	72.02
368.788	90.45
368.999	-1.71
369.209	80.21
369.42	102.74
369.631	182.61
369.842	16.73
370.053	63.83
370.264	78.16
370.474	0.34
370.685	31.06
370.896	49.49
371.107	10.58
371.317	69.97
371.528	57.68
371.739	94.55
371.95	55.64
372.16	57.68
372.371	47.44
372.582	115.03
372.792	-11.95
373.003	49.49
373.214	20.82
373.424	24.92
373.635	76.12
373.846	8.53
374.056	29.01
374.267	37.2
374.477	35.16
374.688	86.36
374.898	57.68
375.109	0.34
375.319	80.21
375.53	78.16
375.74	53.59
375.951	2.39
376.161	57.68
376.372	12.63
376.582	-3.75
376.793	123.22
377.003	22.87
377.214	20.82
377.424	69.97
377.635	45.4
377.845	53.59
378.055	98.64
378.266	26.96
378.476	43.35
378.686	78.16
378.897	55.64
379.107	61.78
379.317	-16.04
379.528	-40.62
379.738	98.64
379.948	31.06
380.158	49.49
380.369	8.53
380.579	135.51
380.789	24.92
380.999	20.82
381.21	61.78
381.42	110.93
381.63	-32.43
381.84	72.02
382.05	94.55
382.261	115.03
382.471	69.97
382.681	63.83
382.891	72.02
383.101	16.73
383.311	22.87
383.521	78.16
383.731	96.6
383.941	35.16
384.151	72.02
384.361	67.92
384.571	-28.33
384.781	45.4
384.991	78.16
385.201	37.2
385.411	102.74
385.621	57.68
385.831	61.78
386.041	31.06
386.251	-3.75
386.461	86.36
386.671	-24.23
386.881	51.54
387.091	69.97
387.301	84.31
387.511	26.96
387.72	100.69
387.93	22.87
388.14	43.35
388.35	129.36
388.56	-20.14
388.769	45.4
388.979	14.68
389.189	20.82
389.399	88.4
389.609	88.4
389.818	119.12
390.028	149.84
390.238	6.49
390.447	16.73
390.657	61.78
390.867	29.01
391.076	45.4
391.286	43.35
391.496	0.34
391.705	-9.9
391.915	86.36
392.125	76.12
392.334	14.68
392.544	106.84
392.753	172.37
392.963	24.92
393.172	80.21
393.382	12.63
393.591	160.08
393.801	41.3
394.01	65.88
394.22	63.83
394.429	20.82
394.639	12.63
394.848	131.41
395.058	31.06
395.267	59.73
395.477	92.5
395.686	65.88
395.895	90.45
396.105	117.08
396.314	94.55
396.524	-7.85
396.733	6.49
396.942	110.93
397.152	57.68
397.361	61.78
397.57	94.55
397.78	145.75
397.989	47.44
398.198	102.74
398.407	29.01
398.617	37.2
398.826	102.74
399.035	47.44
399.244	69.97
399.453	39.25
399.663	106.84
399.872	0.34
400.081	-18.09
400.29	110.93
400.499	90.45
400.708	45.4
400.917	94.55
401.127	49.49
401.336	104.79
401.545	72.02
401.754	117.08
401.963	47.44
402.172	125.27
402.381	139.6
402.59	72.02
402.799	55.64
403.008	94.55
403.217	131.41
403.426	119.12
403.635	86.36
403.844	45.4
404.053	47.44
404.262	31.06
404.471	110.93
404.68	119.12
404.888	139.6
405.097	112.98
405.306	108.88
405.515	104.79
405.724	86.36
405.933	176.47
406.142	94.55
406.35	143.7
406.559	63.83
406.768	22.87
406.977	205.14
407.185	143.7
407.394	180.56
407.603	125.27
407.812	176.47
408.02	172.37
408.229	110.93
408.438	145.75
408.646	155.99
408.855	110.93
409.064	147.8
409.272	86.36
409.481	209.23
409.69	131.41
409.898	112.98
410.107	178.51
410.315	190.8
410.524	164.18
410.733	194.9
410.941	135.51
411.15	227.67
411.358	217.43
411.567	260.43
411.775	229.71
411.984	186.71
412.192	334.16
412.401	266.58
412.609	201.04
412.818	221.52
413.026	274.77
413.234	250.19
413.443	258.39
413.651	303.44
413.86	276.82
414.068	393.55
414.276	393.55
414.485	315.73
414.693	364.88
414.901	430.41
415.11	375.12
415.318	366.93
415.526	444.75
415.734	401.74
415.943	354.64
416.151	414.03
416.359	397.65
416.567	414.03
416.776	567.63
416.984	487.76
417.192	508.24
417.4	498
417.608	479.57
417.817	512.33
418.025	545.1
418.233	667.98
418.441	629.07
418.649	571.72
418.857	717.13
419.065	696.65
419.273	620.88
419.481	751.95
419.689	663.88
419.897	725.32
420.105	807.24
420.313	811.34
420.521	848.2
420.729	866.63
420.937	880.97
421.145	917.83
421.353	956.74
421.561	989.51
421.769	1028.42
421.977	1040.71
422.185	1055.05
422.393	1143.11
422.601	1249.6
422.809	1272.13
423.017	1198.4
423.224	1208.64
423.432	1239.36
423.64	1335.62
423.848	1403.2
424.056	1261.89
424.263	1487.17
424.471	1519.93
424.679	1478.97
424.887	1567.04
425.094	1610.04
425.302	1464.64
425.51	1802.55
425.718	1749.31
425.925	1642.81
426.133	1775.93
426.341	1878.33
426.548	2003.25
426.756	2050.36
426.964	1976.63
427.171	2185.52
427.379	2027.83
427.586	2308.4
427.794	2105.65
428.001	2347.31
428.209	2496.82
428.417	2470.19
428.624	2527.53
428.832	2625.84
429.039	2580.78
429.247	2758.96
429.454	2887.98
429.662	3199.27
429.869	2826.54
430.076	3100.97
430.284	2941.22
430.491	3213.6
430.699	3227.94
430.906	3184.93
431.114	3268.9
431.321	3610.91
431.528	3485.98
431.736	3725.6
431.943	3858.71
432.15	3768.6
432.358	3774.75
432.565	3959.06
432.772	3977.5
432.979	4208.92
433.187	4307.22
433.394	4348.18
433.601	4727.05
433.808	4649.23
434.016	4481.3
434.223	4796.68
434.43	5107.98
434.637	5036.3
434.844	5304.58
435.052	5361.92
435.259	5386.5
435.466	5513.47
435.673	5208.33
435.88	5736.7
436.087	5888.25
436.294	6007.03
436.501	5892.35
436.708	5990.65
436.915	6115.58
437.122	6494.45
437.329	6535.41
437.537	6496.5
437.743	6709.49
437.95	6689.01
438.157	6957.29
438.364	7323.88
438.571	7317.73
438.778	7305.45
438.985	7862.49
439.192	7629.02
439.399	7966.94
439.606	7524.58
439.813	8212.7
440.02	8573.14
440.227	8292.57
440.433	8272.09
440.64	8691.92
440.847	8622.29
441.054	8626.39
441.261	9539.78
441.467	9326.79
441.674	9380.04
441.881	9664.71
442.088	9656.51
442.294	9588.93
442.501	9916.61
442.708	9994.43
442.914	10391.73
443.121	10893.49
443.328	10670.26
443.534	11514.02
443.741	11194.54
443.948	10690.74
444.154	11571.36
444.361	11643.04
444.568	11616.42
444.774	11765.92
444.981	11698.34
445.187	12124.32
445.394	12656.79
445.6	12540.05
445.807	13731.97
446.013	12902.54
446.22	13375.63
446.426	13789.31
446.633	14051.45
446.839	14708.85
447.046	13705.35
447.252	14616.69
447.459	14821.49
447.665	14764.15
447.871	15374.44
448.078	15857.76
448.284	15030.38
448.491	15622.25
448.697	16080.99
448.903	16420.95
449.11	16341.08
449.316	16527.45
449.522	16787.54
449.728	17143.89
449.935	17154.13
450.141	17166.42
450.347	17375.31
450.553	17031.25
450.76	17389.64
450.966	18010.18
451.172	17627.21
451.378	18020.42
451.584	17903.68
451.791	18333.76
451.997	18405.44
452.203	18559.03
452.409	18749.5
452.615	18456.64
452.821	17756.23
453.027	17428.56
453.233	18864.18
453.44	17850.44
453.646	18067.52
453.852	17956.93
454.058	18493.5
454.264	17535.05
454.47	18266.17
454.676	18006.08
454.882	18374.72
455.088	16941.14
455.294	17057.87
455.5	17596.49
455.705	17598.54
455.911	16930.9
456.117	16822.36
456.323	16373.85
456.529	15593.58
456.735	16171.1
456.941	16033.89
457.147	15528.04
457.352	14991.47
457.558	15108.21
457.764	15169.65
457.97	14676.09
458.176	14700.66
458.381	14438.52
458.587	13949.06
458.793	13840.51
458.999	13072.53
459.204	13983.87
459.41	13645.96
459.616	12718.23
459.821	12744.85
460.027	12738.71
460.233	12529.81
460.438	11983.01
460.644	12050.59
460.85	11446.44
461.055	11219.11
461.261	11212.97
461.466	10252.47
461.672	10473.65
461.878	11059.37
462.083	10160.31
462.289	9859.26
462.494	10000.57
462.7	9355.46
462.905	9107.66
463.111	9461.96
463.316	9547.97
463.522	9134.28
463.727	9165
463.932	9355.46
464.138	9171.15
464.343	9201.86
464.549	8730.83
464.754	9351.37
464.959	9107.66
465.165	8851.66
465.37	8632.53
465.575	8222.94
465.781	8837.33
465.986	8753.36
466.191	8370.39
466.397	8419.54
466.602	8118.49
466.807	8493.27
467.012	8265.94
467.218	8302.81
467.423	7983.32
467.628	8222.94
467.833	8261.85
468.038	7975.13
468.244	7815.39
468.449	8304.85
468.654	7983.32
468.859	7960.8
469.064	7731.42
469.269	7508.19
469.474	7569.63
469.679	7858.4
