Data from USB4F104151__301__14-46-38-831.txt Node

Date: Thu Mar 13 14:46:38 EDT 2025
User: louis
Spectrometer: USB4F10415
Trigger mode: 4
Integration Time (sec): 2.000000E-2
Scans to average: 1
Electric dark correction enabled: true
Nonlinearity correction enabled: false
Boxcar width: 0
XAxis mode: Wavelengths
Number of Pixels in Spectrum: 3648
>>>>>Begin Spectral Data<<<<<
178.204	-85.16
178.424	-85.16
178.644	-85.16
178.864	-158.89
179.084	-140.46
179.304	-3.24
179.524	-13.48
179.744	68.44
179.964	62.29
180.184	-79.02
180.404	64.34
180.624	11.09
180.844	-50.35
181.064	-38.06
181.283	-13.48
181.503	-29.87
181.723	21.33
181.943	-38.06
182.163	27.48
182.383	-11.43
182.602	58.2
182.822	-23.72
183.042	52.05
183.262	52.05
183.482	-3.24
183.701	45.91
183.921	56.15
184.141	25.43
184.361	93.01
184.58	39.76
184.8	39.76
185.02	70.48
185.239	37.72
185.459	33.62
185.679	-13.48
185.898	-56.49
186.118	43.86
186.338	23.38
186.557	76.63
186.777	0.85
186.997	43.86
187.216	-29.87
187.436	70.48
187.655	-56.49
187.875	39.76
188.095	19.29
188.314	107.35
188.534	31.57
188.753	-21.67
188.973	19.29
189.192	54.1
189.412	52.05
189.631	7
189.851	23.38
190.07	72.53
190.29	31.57
190.509	-11.43
190.729	11.09
190.948	52.05
191.168	113.49
191.387	70.48
191.607	-11.43
191.826	-3.24
192.045	78.68
192.265	29.52
192.484	95.06
192.704	-1.19
192.923	19.29
193.142	37.72
193.362	15.19
193.581	125.78
193.8	80.72
194.02	33.62
194.239	7
194.458	-1.19
194.678	39.76
194.897	-19.63
195.116	76.63
195.335	11.09
195.555	13.14
195.774	19.29
195.993	19.29
196.212	37.72
196.432	19.29
196.651	39.76
196.87	41.81
197.089	97.11
197.308	62.29
197.528	95.06
197.747	-50.35
197.966	31.57
198.185	39.76
198.404	-11.43
198.623	45.91
198.842	27.48
199.062	31.57
199.281	68.44
199.5	11.09
199.719	35.67
199.938	60.24
200.157	109.4
200.376	47.96
200.595	56.15
200.814	35.67
201.033	-11.43
201.252	43.86
201.471	58.2
201.69	13.14
201.909	-3.24
202.128	54.1
202.347	47.96
202.566	-31.91
202.785	15.19
203.004	-21.67
203.223	76.63
203.442	35.67
203.661	47.96
203.879	2.9
204.098	33.62
204.317	-5.29
204.536	50
204.755	13.14
204.974	31.57
205.193	17.24
205.411	86.87
205.63	23.38
205.849	109.4
206.068	25.43
206.287	33.62
206.505	68.44
206.724	56.15
206.943	58.2
207.162	43.86
207.381	-9.39
207.599	-5.29
207.818	39.76
208.037	13.14
208.255	-9.39
208.474	29.52
208.693	72.53
208.911	84.82
209.13	4.95
209.349	117.59
209.567	45.91
209.786	72.53
210.005	58.2
210.223	66.39
210.442	-36.01
210.661	76.63
210.879	76.63
211.098	27.48
211.316	19.29
211.535	86.87
211.753	13.14
211.972	105.3
212.191	0.85
212.409	105.3
212.628	13.14
212.846	45.91
213.065	37.72
213.283	7
213.502	-13.48
213.72	31.57
213.938	72.53
214.157	19.29
214.375	43.86
214.594	11.09
214.812	60.24
215.031	54.1
215.249	-19.63
215.467	47.96
215.686	-5.29
215.904	101.2
216.122	-31.91
216.341	60.24
216.559	50
216.778	68.44
216.996	35.67
217.214	29.52
217.432	-33.96
217.651	35.67
217.869	19.29
218.087	37.72
218.306	9.05
218.524	56.15
218.742	27.48
218.96	21.33
219.179	54.1
219.397	-5.29
219.615	66.39
219.833	101.2
220.051	7
220.27	54.1
220.488	17.24
220.706	11.09
220.924	43.86
221.142	-11.43
221.36	11.09
221.578	-9.39
221.796	-9.39
222.015	60.24
222.233	2.9
222.451	17.24
222.669	-25.77
222.887	21.33
223.105	-25.77
223.323	-5.29
223.541	7
223.759	72.53
223.977	-11.43
224.195	76.63
224.413	-11.43
224.631	43.86
224.849	-19.63
225.067	37.72
225.285	13.14
225.503	62.29
225.721	4.95
225.939	29.52
226.157	13.14
226.375	60.24
226.592	19.29
226.81	43.86
227.028	17.24
227.246	21.33
227.464	31.57
227.682	37.72
227.9	2.9
228.117	19.29
228.335	43.86
228.553	62.29
228.771	-19.63
228.989	19.29
229.206	25.43
229.424	54.1
229.642	15.19
229.86	7
230.077	-1.19
230.295	70.48
230.513	56.15
230.731	54.1
230.948	39.76
231.166	52.05
231.384	-9.39
231.601	-9.39
231.819	-3.24
232.037	47.96
232.254	-5.29
232.472	9.05
232.689	19.29
232.907	127.83
233.125	39.76
233.342	47.96
233.56	39.76
233.777	-13.48
233.995	-21.67
234.213	54.1
234.43	47.96
234.648	15.19
234.865	50
235.083	-29.87
235.3	101.2
235.518	0.85
235.735	72.53
235.953	4.95
236.17	45.91
236.388	54.1
236.605	-13.48
236.822	72.53
237.04	64.34
237.257	-27.82
237.475	-15.53
237.692	-11.43
237.909	2.9
238.127	11.09
238.344	33.62
238.562	39.76
238.779	47.96
238.996	-9.39
239.214	27.48
239.431	76.63
239.648	74.58
239.865	76.63
240.083	43.86
240.3	-29.87
240.517	-29.87
240.735	-5.29
240.952	47.96
241.169	45.91
241.386	41.81
241.603	35.67
241.821	-3.24
242.038	60.24
242.255	68.44
242.472	-1.19
242.689	107.35
242.907	-17.58
243.124	4.95
243.341	60.24
243.558	35.67
243.775	-38.06
243.992	-3.24
244.209	27.48
244.426	7
244.643	-11.43
244.86	15.19
245.078	21.33
245.295	93.01
245.512	-17.58
245.729	56.15
245.946	93.01
246.163	50
246.38	-7.34
246.597	-3.24
246.814	-46.25
247.031	45.91
247.248	7
247.464	13.14
247.681	111.44
247.898	-5.29
248.115	2.9
248.332	11.09
248.549	27.48
248.766	72.53
248.983	60.24
249.2	-1.19
249.417	62.29
249.633	-46.25
249.85	60.24
250.067	43.86
250.284	23.38
250.501	68.44
250.717	78.68
250.934	9.05
251.151	21.33
251.368	29.52
251.585	88.92
251.801	11.09
252.018	27.48
252.235	62.29
252.451	15.19
252.668	31.57
252.885	72.53
253.102	21.33
253.318	27.48
253.535	13.14
253.752	-23.72
253.968	2.9
254.185	93.01
254.401	-5.29
254.618	60.24
254.835	-23.72
255.051	93.01
255.268	0.85
255.484	9.05
255.701	21.33
255.917	144.21
256.134	-54.44
256.351	11.09
256.567	-1.19
256.784	0.85
257	-31.91
257.217	35.67
257.433	88.92
257.65	66.39
257.866	80.72
258.082	50
258.299	39.76
258.515	39.76
258.732	101.2
258.948	-33.96
259.165	43.86
259.381	50
259.597	-48.3
259.814	45.91
260.03	37.72
260.246	47.96
260.463	-54.44
260.679	19.29
260.895	23.38
261.112	72.53
261.328	47.96
261.544	-40.11
261.761	93.01
261.977	60.24
262.193	-21.67
262.409	27.48
262.626	43.86
262.842	47.96
263.058	31.57
263.274	45.91
263.49	2.9
263.707	93.01
263.923	11.09
264.139	-11.43
264.355	-3.24
264.571	101.2
264.787	7
265.004	52.05
265.22	-29.87
265.436	11.09
265.652	37.72
265.868	76.63
266.084	-3.24
266.3	52.05
266.516	4.95
266.732	68.44
266.948	60.24
267.164	15.19
267.38	-40.11
267.596	23.38
267.812	39.76
268.028	78.68
268.244	19.29
268.46	99.16
268.676	-5.29
268.892	66.39
269.108	-5.29
269.324	23.38
269.54	13.14
269.756	43.86
269.972	-1.19
270.188	11.09
270.403	-44.2
270.619	43.86
270.835	35.67
271.051	-25.77
271.267	58.2
271.483	19.29
271.698	101.2
271.914	29.52
272.13	13.14
272.346	33.62
272.562	88.92
272.777	27.48
272.993	-1.19
273.209	45.91
273.425	23.38
273.64	2.9
273.856	29.52
274.072	2.9
274.287	47.96
274.503	76.63
274.719	11.09
274.934	103.25
275.15	-3.24
275.366	35.67
275.581	43.86
275.797	-13.48
276.012	4.95
276.228	17.24
276.444	74.58
276.659	31.57
276.875	-62.63
277.09	76.63
277.306	60.24
277.521	29.52
277.737	50
277.952	54.1
278.168	23.38
278.383	-25.77
278.599	66.39
278.814	95.06
279.03	19.29
279.245	84.82
279.461	27.48
279.676	58.2
279.892	-81.07
280.107	-79.02
280.322	-56.49
280.538	62.29
280.753	68.44
280.969	-27.82
281.184	2.9
281.399	82.77
281.615	29.52
281.83	56.15
282.045	64.34
282.26	93.01
282.476	93.01
282.691	13.14
282.906	7
283.122	125.78
283.337	43.86
283.552	45.91
283.767	-1.19
283.983	29.52
284.198	35.67
284.413	4.95
284.628	25.43
284.843	7
285.058	56.15
285.274	19.29
285.489	56.15
285.704	-5.29
285.919	11.09
286.134	29.52
286.349	35.67
286.564	88.92
286.779	39.76
286.995	-5.29
287.21	-11.43
287.425	-13.48
287.64	-1.19
287.855	68.44
288.07	25.43
288.285	54.1
288.5	-29.87
288.715	60.24
288.93	31.57
289.145	35.67
289.36	54.1
289.575	35.67
289.79	78.68
290.004	68.44
290.219	54.1
290.434	-27.82
290.649	7
290.864	-29.87
291.079	76.63
291.294	54.1
291.509	13.14
291.724	52.05
291.938	13.14
292.153	27.48
292.368	27.48
292.583	-36.01
292.798	41.81
293.012	103.25
293.227	11.09
293.442	35.67
293.657	-21.67
293.871	109.4
294.086	60.24
294.301	45.91
294.516	41.81
294.73	31.57
294.945	-19.63
295.16	-11.43
295.374	-9.39
295.589	-29.87
295.804	-5.29
296.018	21.33
296.233	52.05
296.447	31.57
296.662	68.44
296.877	-13.48
297.091	21.33
297.306	23.38
297.52	-83.11
297.735	35.67
297.949	13.14
298.164	150.36
298.378	25.43
298.593	43.86
298.807	-33.96
299.022	27.48
299.236	27.48
299.451	43.86
299.665	39.76
299.88	-17.58
300.094	84.82
300.309	-11.43
300.523	72.53
300.737	62.29
300.952	119.64
301.166	121.68
301.381	-60.59
301.595	7
301.809	64.34
302.024	-13.48
302.238	2.9
302.452	101.2
302.667	23.38
302.881	70.48
303.095	35.67
303.309	-68.78
303.524	74.58
303.738	39.76
303.952	19.29
304.166	-5.29
304.381	27.48
304.595	43.86
304.809	-1.19
305.023	50
305.237	19.29
305.452	2.9
305.666	19.29
305.88	54.1
306.094	88.92
306.308	-27.82
306.522	72.53
306.736	93.01
306.95	17.24
307.164	35.67
307.379	43.86
307.593	152.4
307.807	39.76
308.021	74.58
308.235	80.72
308.449	56.15
308.663	27.48
308.877	43.86
309.091	27.48
309.305	37.72
309.519	-68.78
309.733	11.09
309.947	-27.82
310.161	84.82
310.374	-9.39
310.588	72.53
310.802	17.24
311.016	-3.24
311.23	27.48
311.444	-21.67
311.658	-52.39
311.872	70.48
312.085	52.05
312.299	29.52
312.513	107.35
312.727	39.76
312.941	-19.63
313.154	31.57
313.368	70.48
313.582	45.91
313.796	33.62
314.009	52.05
314.223	111.44
314.437	33.62
314.651	47.96
314.864	45.91
315.078	84.82
315.292	-13.48
315.505	-31.91
315.719	76.63
315.933	54.1
316.146	52.05
316.36	-1.19
316.573	56.15
316.787	82.77
317.001	68.44
317.214	37.72
317.428	68.44
317.641	-25.77
317.855	68.44
318.068	54.1
318.282	138.07
318.495	19.29
318.709	68.44
318.922	97.11
319.136	29.52
319.349	93.01
319.563	0.85
319.776	121.68
319.99	21.33
320.203	72.53
320.417	-25.77
320.63	19.29
320.843	103.25
321.057	-9.39
321.27	45.91
321.483	60.24
321.697	76.63
321.91	68.44
322.124	52.05
322.337	45.91
322.55	35.67
322.763	43.86
322.977	45.91
323.19	-119.98
323.403	27.48
323.617	7
323.83	78.68
324.043	27.48
324.256	76.63
324.469	45.91
324.683	35.67
324.896	88.92
325.109	74.58
325.322	-1.19
325.535	90.96
325.748	154.45
325.962	29.52
326.175	-58.54
326.388	35.67
326.601	52.05
326.814	27.48
327.027	70.48
327.24	60.24
327.453	19.29
327.666	45.91
327.879	31.57
328.092	93.01
328.305	62.29
328.518	52.05
328.731	64.34
328.944	-44.2
329.157	-13.48
329.37	-38.06
329.583	82.77
329.796	7
330.009	66.39
330.222	52.05
330.435	7
330.648	19.29
330.861	45.91
331.073	27.48
331.286	64.34
331.499	35.67
331.712	11.09
331.925	86.87
332.138	70.48
332.35	107.35
332.563	2.9
332.776	60.24
332.989	-17.58
333.202	84.82
333.414	54.1
333.627	52.05
333.84	66.39
334.053	60.24
334.265	56.15
334.478	78.68
334.691	74.58
334.903	84.82
335.116	39.76
335.329	76.63
335.541	76.63
335.754	86.87
335.966	-62.63
336.179	60.24
336.392	33.62
336.604	-36.01
336.817	35.67
337.029	60.24
337.242	72.53
337.454	74.58
337.667	-9.39
337.88	47.96
338.092	27.48
338.305	78.68
338.517	23.38
338.729	2.9
338.942	72.53
339.154	-13.48
339.367	121.68
339.579	21.33
339.792	72.53
340.004	52.05
340.217	-25.77
340.429	19.29
340.641	-1.19
340.854	50
341.066	31.57
341.278	41.81
341.491	62.29
341.703	4.95
341.915	97.11
342.128	76.63
342.34	58.2
342.552	52.05
342.764	-31.91
342.977	60.24
343.189	47.96
343.401	84.82
343.613	52.05
343.826	45.91
344.038	0.85
344.25	144.21
344.462	-9.39
344.674	35.67
344.886	101.2
345.099	62.29
345.311	27.48
345.523	35.67
345.735	13.14
345.947	43.86
346.159	11.09
346.371	47.96
346.583	27.48
346.795	117.59
347.007	-21.67
347.219	150.36
347.431	0.85
347.643	52.05
347.855	11.09
348.067	66.39
348.279	7
348.491	84.82
348.703	88.92
348.915	-36.01
349.127	84.82
349.339	60.24
349.551	7
349.763	154.45
349.975	19.29
350.187	78.68
350.399	158.55
350.61	43.86
350.822	35.67
351.034	27.48
351.246	-7.34
351.458	60.24
351.669	23.38
351.881	2.9
352.093	52.05
352.305	31.57
352.517	27.48
352.728	123.73
352.94	70.48
353.152	47.96
353.363	19.29
353.575	2.9
353.787	170.83
353.999	23.38
354.21	43.86
354.422	68.44
354.633	-17.58
354.845	119.64
355.057	93.01
355.268	7
355.48	47.96
355.692	19.29
355.903	35.67
356.115	43.86
356.326	-21.67
356.538	70.48
356.749	52.05
356.961	29.52
357.172	45.91
357.384	-21.67
357.595	43.86
357.807	64.34
358.018	31.57
358.23	19.29
358.441	39.76
358.653	93.01
358.864	23.38
359.075	33.62
359.287	2.9
359.498	45.91
359.709	84.82
359.921	39.76
360.132	23.38
360.344	64.34
360.555	-15.53
360.766	43.86
360.977	29.52
361.189	60.24
361.4	43.86
361.611	90.96
361.823	78.68
362.034	-21.67
362.245	39.76
362.456	13.14
362.667	47.96
362.879	35.67
363.09	74.58
363.301	45.91
363.512	27.48
363.723	21.33
363.935	13.14
364.146	101.2
364.357	-46.25
364.568	19.29
364.779	70.48
364.99	66.39
365.201	35.67
365.412	113.49
365.623	-48.3
365.834	-1.19
366.045	84.82
366.256	138.07
366.467	-19.63
366.678	68.44
366.889	31.57
367.1	15.19
367.311	47.96
367.522	-29.87
367.733	105.3
367.944	35.67
368.155	45.91
368.366	54.1
368.577	84.82
368.788	101.2
368.999	19.29
369.209	-3.24
369.42	99.16
369.631	60.24
369.842	72.53
370.053	72.53
370.264	68.44
370.474	52.05
370.685	58.2
370.896	-13.48
371.107	90.96
371.317	66.39
371.528	88.92
371.739	117.59
371.95	29.52
372.16	150.36
372.371	19.29
372.582	41.81
372.792	35.67
373.003	86.87
373.214	68.44
373.424	35.67
373.635	15.19
373.846	76.63
374.056	84.82
374.267	37.72
374.477	60.24
374.688	60.24
374.898	72.53
375.109	111.44
375.319	35.67
375.53	111.44
375.74	72.53
375.951	21.33
376.161	56.15
376.372	45.91
376.582	-19.63
376.793	78.68
377.003	158.55
377.214	27.48
377.424	35.67
377.635	-13.48
377.845	35.67
378.055	56.15
378.266	2.9
378.476	76.63
378.686	56.15
378.897	29.52
379.107	37.72
379.317	60.24
379.528	-31.91
379.738	72.53
379.948	80.72
380.158	109.4
380.369	64.34
380.579	93.01
380.789	15.19
380.999	95.06
381.21	62.29
381.42	82.77
381.63	-1.19
381.84	50
382.05	50
382.261	76.63
382.471	90.96
382.681	90.96
382.891	103.25
383.101	76.63
383.311	93.01
383.521	7
383.731	37.72
383.941	23.38
384.151	76.63
384.361	0.85
384.571	35.67
384.781	56.15
384.991	101.2
385.201	168.79
385.411	101.2
385.621	13.14
385.831	111.44
386.041	-3.24
386.251	19.29
386.461	64.34
386.671	93.01
386.881	76.63
387.091	115.54
387.301	95.06
387.511	7
387.72	105.3
387.93	52.05
388.14	60.24
388.35	54.1
388.56	144.21
388.769	109.4
388.979	84.82
389.189	13.14
389.399	127.83
389.609	7
389.818	80.72
390.028	80.72
390.238	43.86
390.447	68.44
390.657	125.78
390.867	82.77
391.076	68.44
391.286	101.2
391.496	37.72
391.705	7
391.915	129.88
392.125	90.96
392.334	52.05
392.544	166.74
392.753	60.24
392.963	84.82
393.172	33.62
393.382	109.4
393.591	105.3
393.801	93.01
394.01	95.06
394.22	123.73
394.429	74.58
394.639	17.24
394.848	131.92
395.058	72.53
395.267	11.09
395.477	78.68
395.686	84.82
395.895	103.25
396.105	125.78
396.314	52.05
396.524	84.82
396.733	78.68
396.942	115.54
397.152	70.48
397.361	97.11
397.57	131.92
397.78	113.49
397.989	60.24
398.198	111.44
398.407	199.51
398.617	170.83
398.826	123.73
399.035	164.69
399.244	60.24
399.453	146.26
399.663	84.82
399.872	84.82
400.081	47.96
400.29	125.78
400.499	43.86
400.708	148.31
400.917	70.48
401.127	144.21
401.336	64.34
401.545	174.93
401.754	70.48
401.963	179.03
402.172	107.35
402.381	113.49
402.59	105.3
402.799	97.11
403.008	107.35
403.217	131.92
403.426	74.58
403.635	52.05
403.844	174.93
404.053	160.59
404.262	119.64
404.471	250.71
404.68	160.59
404.888	162.64
405.097	109.4
405.306	144.21
405.515	150.36
405.724	76.63
405.933	166.74
406.142	187.22
406.35	236.37
406.559	142.16
406.768	195.41
406.977	267.09
407.185	252.75
407.394	203.6
407.603	234.32
407.812	226.13
408.02	158.55
408.229	234.32
408.438	246.61
408.646	211.79
408.855	207.7
409.064	265.04
409.272	265.04
409.481	379.73
409.69	285.52
409.898	324.43
410.107	387.92
410.315	340.82
410.524	367.44
410.733	338.77
410.941	312.14
411.15	299.86
411.358	332.62
411.567	359.25
411.775	344.91
411.984	414.54
412.192	447.31
412.401	473.93
412.609	471.89
412.818	496.46
413.026	543.57
413.234	502.61
413.443	555.85
413.651	586.57
413.86	627.53
414.068	645.96
414.276	600.91
414.485	633.68
414.693	725.83
414.901	736.07
415.11	762.7
415.318	727.88
415.526	744.27
415.734	883.53
415.943	846.66
416.151	865.1
416.359	834.38
416.567	928.58
416.776	901.96
416.984	965.45
417.192	1010.5
417.4	1014.6
417.608	1014.6
417.817	1067.85
418.025	1198.92
418.233	1370.94
418.441	1141.57
418.649	1200.96
418.857	1299.27
419.065	1420.1
419.273	1317.7
419.481	1391.42
419.689	1485.63
419.897	1551.17
420.105	1481.53
420.313	1575.74
420.521	1676.09
420.729	1665.85
420.937	1723.2
421.145	1772.35
421.353	1821.5
421.561	2020.15
421.769	1995.57
421.977	2097.97
422.185	2075.45
422.393	2288.43
422.601	2224.95
422.809	2315.06
423.017	2423.6
423.224	2521.9
423.432	2487.09
423.64	2544.43
423.848	2845.48
424.056	2675.5
424.263	2919.21
424.471	2927.4
424.679	2984.74
424.887	3238.69
425.094	3220.26
425.302	3271.46
425.51	3445.54
425.718	3463.97
425.925	3468.06
426.133	3664.67
426.341	3789.6
426.548	4000.54
426.756	3820.32
426.964	3910.43
427.171	4174.61
427.379	4371.22
427.586	4479.76
427.794	4549.39
428.001	4727.57
428.209	4971.27
428.417	4936.46
428.624	5098.25
428.832	5182.21
429.039	5169.93
429.247	5063.43
429.454	5796.6
429.662	6167.29
429.869	5903.1
430.076	6105.85
430.284	5950.2
430.491	6165.24
430.699	6705.9
430.906	6691.57
431.114	6572.79
431.321	6875.88
431.528	7064.3
431.736	7492.32
431.943	7934.68
432.15	7736.03
432.358	7637.73
432.565	8094.43
432.772	7955.16
432.979	8461.01
433.187	8641.23
433.394	8729.3
433.601	9394.89
433.808	9153.23
434.016	9456.33
434.223	9501.38
434.43	10193.59
434.637	9972.41
434.844	10713.78
435.052	10877.62
435.259	10812.08
435.466	10855.09
435.673	10635.96
435.88	11481.77
436.087	11942.56
436.294	11913.89
436.501	11733.67
436.708	11842.21
436.915	12329.63
437.122	12890.77
437.329	12735.12
437.537	13398.66
437.743	13554.31
437.95	13599.37
438.157	14060.16
438.364	14523
438.571	14733.94
438.778	14727.8
438.985	15821.41
439.192	15499.88
439.399	15829.6
439.606	15430.25
439.813	16405.08
440.02	17349.2
440.227	16927.32
440.433	16726.61
440.64	17486.41
440.847	17175.12
441.054	17857.09
441.261	18823.73
441.467	18729.53
441.674	18782.77
441.881	19886.63
442.088	19384.88
442.294	19227.18
442.501	19823.14
442.708	20294.18
442.914	20883.99
443.121	22118.92
443.328	21387.79
443.534	22893.05
443.741	22516.22
443.948	21885.45
444.154	23523.82
444.361	23351.79
444.568	23572.97
444.774	23482.86
444.981	23620.08
445.187	24654.3
445.394	25336.27
445.6	25094.61
445.807	27423.15
446.013	26333.64
446.22	26730.94
446.426	27752.88
446.633	27963.82
446.839	28879.26
447.046	27945.39
447.252	29329.81
447.459	29618.58
447.665	29356.44
447.871	30972.28
448.078	31842.67
448.284	30245.26
448.491	31189.37
448.697	32549.22
448.903	32889.18
449.11	33038.69
449.316	32506.21
449.522	33120.6
449.728	33814.87
449.935	34171.21
450.141	34163.02
450.347	35215.68
450.553	34015.57
450.76	34156.88
450.966	35608.89
451.172	35084.61
451.378	35991.86
451.584	35619.13
451.791	36315.44
451.997	36344.11
452.203	36841.76
452.409	36667.69
452.615	36372.78
452.821	35301.69
453.027	35121.47
453.233	36968.74
453.44	35440.95
453.646	35545.4
453.852	35879.22
454.058	36575.53
454.264	35623.22
454.47	36524.33
454.676	35127.61
454.882	36722.98
455.088	33313.11
455.294	33913.17
455.5	34562.37
455.705	35125.57
455.911	33409.37
456.117	32735.59
456.323	32612.71
456.529	31017.34
456.735	32282.98
456.941	31451.51
457.147	30749.06
457.352	29866.38
457.558	29696.4
457.764	29778.32
457.97	29417.88
458.176	28662.18
458.381	28574.11
458.587	27267.51
458.793	27423.15
458.999	26169.8
459.204	28008.87
459.41	27066.81
459.616	25160.15
459.821	25170.39
460.027	25299.41
460.233	24529.38
460.438	23788.01
460.644	23597.55
460.85	22395.39
461.055	22258.18
461.261	22460.93
461.466	20455.97
461.672	20083.23
461.878	21651.98
462.083	20216.35
462.289	19833.38
462.494	19442.22
462.7	18713.14
462.905	18270.78
463.111	18850.36
463.316	18889.27
463.522	18362.94
463.727	18268.73
463.932	18520.63
464.138	18133.57
464.343	18258.49
464.549	17599.05
464.754	18448.96
464.959	18074.18
465.165	17685.06
465.37	17603.14
465.575	16751.19
465.781	17371.72
465.986	17531.47
466.191	17007.19
466.397	16530.01
466.602	15796.84
466.807	16308.83
467.012	16597.59
467.218	16204.38
467.423	15856.23
467.628	16032.35
467.833	16652.89
468.038	16443.99
468.244	15751.78
