Data from USB4F104151__115__14-43-53-030.txt Node

Date: Thu Mar 13 14:43:53 EDT 2025
User: louis
Spectrometer: USB4F10415
Trigger mode: 4
Integration Time (sec): 2.000000E-2
Scans to average: 1
Electric dark correction enabled: true
Nonlinearity correction enabled: false
Boxcar width: 0
XAxis mode: Wavelengths
Number of Pixels in Spectrum: 3648
>>>>>Begin Spectral Data<<<<<
178.204	-161.45
178.424	-161.45
178.644	-161.45
178.864	-114.34
179.084	-126.63
179.304	-22.19
179.524	-69.29
179.744	6.49
179.964	72.02
180.184	2.39
180.404	-50.86
180.624	-36.52
180.844	26.96
181.064	-36.52
181.283	94.55
181.503	20.82
181.723	-7.85
181.943	-22.19
182.163	108.88
182.383	-9.9
182.602	37.2
182.822	33.11
183.042	20.82
183.262	51.54
183.482	-11.95
183.701	-1.71
183.921	-16.04
184.141	20.82
184.361	-3.75
184.58	29.01
184.8	20.82
185.02	102.74
185.239	39.25
185.459	31.06
185.679	61.78
185.898	37.2
186.118	65.88
186.338	69.97
186.557	49.49
186.777	20.82
186.997	-28.33
187.216	37.2
187.436	12.63
187.655	-36.52
187.875	33.11
188.095	-1.71
188.314	33.11
188.534	39.25
188.753	112.98
188.973	26.96
189.192	47.44
189.412	37.2
189.631	8.53
189.851	16.73
190.07	65.88
190.29	29.01
190.509	-75.43
190.729	102.74
190.948	88.4
191.168	203.09
191.387	121.17
191.607	-11.95
191.826	59.73
192.045	49.49
192.265	37.2
192.484	29.01
192.704	31.06
192.923	-7.85
193.142	119.12
193.362	6.49
193.581	94.55
193.8	-32.43
194.02	63.83
194.239	41.3
194.458	69.97
194.678	-16.04
194.897	20.82
195.116	20.82
195.335	45.4
195.555	53.59
195.774	6.49
195.993	63.83
196.212	29.01
196.432	12.63
196.651	49.49
196.87	29.01
197.089	86.36
197.308	8.53
197.528	127.32
197.747	12.63
197.966	53.59
198.185	26.96
198.404	53.59
198.623	112.98
198.842	57.68
199.062	53.59
199.281	41.3
199.5	-65.19
199.719	78.16
199.938	-9.9
200.157	24.92
200.376	82.26
200.595	-3.75
200.814	20.82
201.033	78.16
201.252	63.83
201.471	41.3
201.69	69.97
201.909	96.6
202.128	110.93
202.347	145.75
202.566	69.97
202.785	-5.8
203.004	47.44
203.223	63.83
203.442	37.2
203.661	82.26
203.879	37.2
204.098	55.64
204.317	-7.85
204.536	53.59
204.755	61.78
204.974	100.69
205.193	43.35
205.411	90.45
205.63	86.36
205.849	65.88
206.068	39.25
206.287	49.49
206.505	61.78
206.724	86.36
206.943	49.49
207.162	4.44
207.381	37.2
207.599	37.2
207.818	-46.76
208.037	31.06
208.255	22.87
208.474	57.68
208.693	94.55
208.911	31.06
209.13	-3.75
209.349	76.12
209.567	63.83
209.786	45.4
210.005	78.16
210.223	20.82
210.442	29.01
210.661	72.02
210.879	20.82
211.098	37.2
211.316	24.92
211.535	-1.71
211.753	57.68
211.972	-11.95
212.191	94.55
212.409	61.78
212.628	94.55
212.846	14.68
213.065	16.73
213.283	80.21
213.502	33.11
213.72	-9.9
213.938	6.49
214.157	24.92
214.375	0.34
214.594	20.82
214.812	55.64
215.031	0.34
215.249	-1.71
215.467	0.34
215.686	61.78
215.904	69.97
216.122	6.49
216.341	45.4
216.559	102.74
216.778	178.51
216.996	82.26
217.214	31.06
217.432	37.2
217.651	20.82
217.869	24.92
218.087	22.87
218.306	-26.28
218.524	69.97
218.742	37.2
218.96	-32.43
219.179	45.4
219.397	53.59
219.615	90.45
219.833	45.4
220.051	4.44
220.27	49.49
220.488	43.35
220.706	69.97
220.924	-5.8
221.142	10.58
221.36	20.82
221.578	16.73
221.796	72.02
222.015	4.44
222.233	98.64
222.451	80.21
222.669	39.25
222.887	6.49
223.105	43.35
223.323	4.44
223.541	53.59
223.759	39.25
223.977	20.82
224.195	4.44
224.413	55.64
224.631	22.87
224.849	37.2
225.067	0.34
225.285	29.01
225.503	47.44
225.721	4.44
225.939	-20.14
226.157	51.54
226.375	205.14
226.592	18.77
226.81	98.64
227.028	61.78
227.246	135.51
227.464	55.64
227.682	33.11
227.9	55.64
228.117	49.49
228.335	24.92
228.553	45.4
228.771	-34.47
228.989	65.88
229.206	94.55
229.424	90.45
229.642	-42.67
229.86	20.82
230.077	4.44
230.295	12.63
230.513	78.16
230.731	29.01
230.948	6.49
231.166	63.83
231.384	53.59
231.601	45.4
231.819	31.06
232.037	-9.9
232.254	-26.28
232.472	-28.33
232.689	-32.43
232.907	47.44
233.125	12.63
233.342	6.49
233.56	12.63
233.777	-3.75
233.995	26.96
234.213	69.97
234.43	-22.19
234.648	53.59
234.865	78.16
235.083	72.02
235.3	24.92
235.518	39.25
235.735	0.34
235.953	106.84
236.17	86.36
236.388	-3.75
236.605	53.59
236.822	123.22
237.04	-24.23
237.257	88.4
237.475	-50.86
237.692	129.36
237.909	37.2
238.127	63.83
238.344	41.3
238.562	57.68
238.779	-30.38
238.996	-3.75
239.214	-20.14
239.431	33.11
239.648	39.25
239.865	31.06
240.083	12.63
240.3	47.44
240.517	29.01
240.735	-24.23
240.952	29.01
241.169	65.88
241.386	57.68
241.603	20.82
241.821	69.97
242.038	135.51
242.255	69.97
242.472	-9.9
242.689	112.98
242.907	78.16
243.124	57.68
243.341	-7.85
243.558	61.78
243.775	55.64
243.992	4.44
244.209	45.4
244.426	47.44
244.643	102.74
244.86	0.34
245.078	135.51
245.295	86.36
245.512	16.73
245.729	-9.9
245.946	37.2
246.163	49.49
246.38	20.82
246.597	12.63
246.814	137.56
247.031	14.68
247.248	141.65
247.464	29.01
247.681	69.97
247.898	69.97
248.115	131.41
248.332	-20.14
248.549	110.93
248.766	143.7
248.983	69.97
249.2	-13.99
249.417	98.64
249.633	12.63
249.85	86.36
250.067	-22.19
250.284	94.55
250.501	-3.75
250.717	82.26
250.934	4.44
251.151	37.2
251.368	53.59
251.585	102.74
251.801	8.53
252.018	61.78
252.235	37.2
252.451	78.16
252.668	45.4
252.885	80.21
253.102	8.53
253.318	14.68
253.535	-59.05
253.752	0.34
253.968	14.68
254.185	8.53
254.401	59.73
254.618	37.2
254.835	94.55
255.051	121.17
255.268	51.54
255.484	41.3
255.701	49.49
255.917	45.4
256.134	8.53
256.351	33.11
256.567	37.2
256.784	6.49
257	-1.71
257.217	-16.04
257.433	84.31
257.65	80.21
257.866	20.82
258.082	0.34
258.299	78.16
258.515	61.78
258.732	-16.04
258.948	-3.75
259.165	102.74
259.381	72.02
259.597	33.11
259.814	49.49
260.03	37.2
260.246	14.68
260.463	86.36
260.679	69.97
260.895	6.49
261.112	88.4
261.328	69.97
261.544	14.68
261.761	121.17
261.977	65.88
262.193	57.68
262.409	86.36
262.626	31.06
262.842	-42.67
263.058	33.11
263.274	6.49
263.49	14.68
263.707	57.68
263.923	78.16
264.139	49.49
264.355	69.97
264.571	63.83
264.787	49.49
265.004	39.25
265.22	33.11
265.436	47.44
265.652	33.11
265.868	98.64
266.084	74.07
266.3	147.8
266.516	0.34
266.732	88.4
266.948	4.44
267.164	-3.75
267.38	31.06
267.596	4.44
267.812	61.78
268.028	53.59
268.244	45.4
268.46	63.83
268.676	20.82
268.892	4.44
269.108	45.4
269.324	-9.9
269.54	31.06
269.756	57.68
269.972	-20.14
270.188	141.65
270.403	-20.14
270.619	-44.71
270.835	65.88
271.051	45.4
271.267	65.88
271.483	72.02
271.698	24.92
271.914	0.34
272.13	74.07
272.346	14.68
272.562	16.73
272.777	-3.75
272.993	4.44
273.209	53.59
273.425	14.68
273.64	18.77
273.856	53.59
274.072	37.2
274.287	49.49
274.503	57.68
274.719	-11.95
274.934	78.16
275.15	20.82
275.366	155.99
275.581	-59.05
275.797	39.25
276.012	45.4
276.228	39.25
276.444	14.68
276.659	84.31
276.875	49.49
277.09	16.73
277.306	63.83
277.521	49.49
277.737	55.64
277.952	86.36
278.168	43.35
278.383	69.97
278.599	0.34
278.814	-32.43
279.03	39.25
279.245	47.44
279.461	12.63
279.676	86.36
279.892	-9.9
280.107	16.73
280.322	8.53
280.538	72.02
280.753	4.44
280.969	53.59
281.184	76.12
281.399	49.49
281.615	45.4
281.83	6.49
282.045	29.01
282.26	69.97
282.476	53.59
282.691	125.27
282.906	45.4
283.122	98.64
283.337	51.54
283.552	61.78
283.767	8.53
283.983	20.82
284.198	31.06
284.413	94.55
284.628	-18.09
284.843	20.82
285.058	55.64
285.274	61.78
285.489	-1.71
285.704	22.87
285.919	4.44
286.134	45.4
286.349	45.4
286.564	31.06
286.779	115.03
286.995	37.2
287.21	86.36
287.425	67.92
287.64	22.87
287.855	47.44
288.07	29.01
288.285	98.64
288.5	12.63
288.715	31.06
288.93	-9.9
289.145	0.34
289.36	106.84
289.575	43.35
289.79	39.25
290.004	6.49
290.219	121.17
290.434	-26.28
290.649	53.59
290.864	4.44
291.079	37.2
291.294	29.01
291.509	-32.43
291.724	37.2
291.938	86.36
292.153	53.59
292.368	69.97
292.583	96.6
292.798	76.12
293.012	43.35
293.227	69.97
293.442	39.25
293.657	86.36
293.871	94.55
294.086	96.6
294.301	86.36
294.516	69.97
294.73	72.02
294.945	22.87
295.16	53.59
295.374	41.3
295.589	127.32
295.804	18.77
296.018	47.44
296.233	63.83
296.447	59.73
296.662	41.3
296.877	112.98
297.091	69.97
297.306	80.21
297.52	-52.91
297.735	74.07
297.949	78.16
298.164	153.94
298.378	22.87
298.593	22.87
298.807	86.36
299.022	69.97
299.236	45.4
299.451	-9.9
299.665	37.2
299.88	102.74
300.094	45.4
300.309	6.49
300.523	29.01
300.737	45.4
300.952	14.68
301.166	55.64
301.381	22.87
301.595	4.44
301.809	-3.75
302.024	4.44
302.238	65.88
302.452	72.02
302.667	33.11
302.881	94.55
303.095	55.64
303.309	57.68
303.524	51.54
303.738	20.82
303.952	10.58
304.166	53.59
304.381	-9.9
304.595	47.44
304.809	12.63
305.023	86.36
305.237	61.78
305.452	80.21
305.666	80.21
305.88	0.34
306.094	78.16
306.308	47.44
306.522	41.3
306.736	74.07
306.95	63.83
307.164	72.02
307.379	12.63
307.593	112.98
307.807	65.88
308.021	49.49
308.235	57.68
308.449	39.25
308.663	-36.52
308.877	145.75
309.091	-1.71
309.305	108.88
309.519	-52.91
309.733	-1.71
309.947	37.2
310.161	24.92
310.374	4.44
310.588	74.07
310.802	37.2
311.016	0.34
311.23	22.87
311.444	45.4
311.658	74.07
311.872	78.16
312.085	119.12
312.299	26.96
312.513	45.4
312.727	31.06
312.941	-3.75
313.154	-11.95
313.368	20.82
313.582	47.44
313.796	8.53
314.009	61.78
314.223	78.16
314.437	20.82
314.651	-28.33
314.864	67.92
315.078	61.78
315.292	6.49
315.505	69.97
315.719	108.88
315.933	-11.95
316.146	35.16
316.36	-9.9
316.573	59.73
316.787	4.44
317.001	22.87
317.214	35.16
317.428	37.2
317.641	41.3
317.855	39.25
318.068	29.01
318.282	67.92
318.495	51.54
318.709	53.59
318.922	29.01
319.136	86.36
319.349	119.12
319.563	20.82
319.776	80.21
319.99	47.44
320.203	78.16
320.417	24.92
320.63	78.16
320.843	104.79
321.057	-13.99
321.27	59.73
321.483	-3.75
321.697	110.93
321.91	-20.14
322.124	35.16
322.337	84.31
322.55	-26.28
322.763	-3.75
322.977	47.44
323.19	8.53
323.403	59.73
323.617	-11.95
323.83	135.51
324.043	115.03
324.256	31.06
324.469	-9.9
324.683	31.06
324.896	61.78
325.109	49.49
325.322	29.01
325.535	102.74
325.748	35.16
325.962	39.25
326.175	39.25
326.388	37.2
326.601	45.4
326.814	45.4
327.027	-28.33
327.24	112.98
327.453	22.87
327.666	35.16
327.879	39.25
328.092	86.36
328.305	104.79
328.518	14.68
328.731	20.82
328.944	80.21
329.157	-5.8
329.37	-11.95
329.583	139.6
329.796	72.02
330.009	33.11
330.222	24.92
330.435	45.4
330.648	78.16
330.861	33.11
331.073	63.83
331.286	51.54
331.499	-9.9
331.712	20.82
331.925	90.45
332.138	88.4
332.35	78.16
332.563	39.25
332.776	37.2
332.989	16.73
333.202	45.4
333.414	29.01
333.627	-1.71
333.84	-11.95
334.053	90.45
334.265	61.78
334.478	29.01
334.691	47.44
334.903	37.2
335.116	53.59
335.329	57.68
335.541	119.12
335.754	127.32
335.966	37.2
336.179	-36.52
336.392	90.45
336.604	110.93
336.817	24.92
337.029	131.41
337.242	82.26
337.454	110.93
337.667	8.53
337.88	121.17
338.092	22.87
338.305	67.92
338.517	8.53
338.729	78.16
338.942	76.12
339.154	98.64
339.367	-28.33
339.579	33.11
339.792	31.06
340.004	88.4
340.217	-7.85
340.429	78.16
340.641	16.73
340.854	106.84
341.066	16.73
341.278	63.83
341.491	86.36
341.703	55.64
341.915	110.93
342.128	100.69
342.34	94.55
342.552	88.4
342.764	117.08
342.977	86.36
343.189	74.07
343.401	35.16
343.613	29.01
343.826	102.74
344.038	33.11
344.25	20.82
344.462	0.34
344.674	74.07
344.886	-11.95
345.099	96.6
345.311	-3.75
345.523	29.01
345.735	-11.95
345.947	102.74
346.159	10.58
346.371	94.55
346.583	37.2
346.795	61.78
347.007	96.6
347.219	37.2
347.431	20.82
347.643	102.74
347.855	82.26
348.067	86.36
348.279	26.96
348.491	8.53
348.703	55.64
348.915	29.01
349.127	49.49
349.339	53.59
349.551	-5.8
349.763	78.16
349.975	24.92
350.187	80.21
350.399	80.21
350.61	86.36
350.822	69.97
351.034	84.31
351.246	88.4
351.458	69.97
351.669	33.11
351.881	106.84
352.093	92.5
352.305	69.97
352.517	55.64
352.728	139.6
352.94	45.4
353.152	90.45
353.363	-1.71
353.575	78.16
353.787	69.97
353.999	41.3
354.21	61.78
354.422	-20.14
354.633	-20.14
354.845	-11.95
355.057	98.64
355.268	37.2
355.48	78.16
355.692	4.44
355.903	24.92
356.115	61.78
356.326	-26.28
356.538	12.63
356.749	51.54
356.961	151.89
357.172	-38.57
357.384	39.25
357.595	155.99
357.807	61.78
358.018	24.92
358.23	-9.9
358.441	104.79
358.653	117.08
358.864	16.73
359.075	14.68
359.287	18.77
359.498	86.36
359.709	47.44
359.921	53.59
360.132	102.74
360.344	47.44
360.555	39.25
360.766	57.68
360.977	53.59
361.189	55.64
361.4	108.88
361.611	20.82
361.823	98.64
362.034	8.53
362.245	14.68
362.456	141.65
362.667	47.44
362.879	69.97
363.09	-7.85
363.301	31.06
363.512	47.44
363.723	53.59
363.935	18.77
364.146	37.2
364.357	102.74
364.568	115.03
364.779	-7.85
364.99	82.26
365.201	18.77
365.412	121.17
365.623	45.4
365.834	137.56
366.045	4.44
366.256	63.83
366.467	55.64
366.678	33.11
366.889	41.3
367.1	63.83
367.311	104.79
367.522	-1.71
367.733	69.97
367.944	55.64
368.155	35.16
368.366	86.36
368.577	59.73
368.788	94.55
368.999	24.92
369.209	61.78
369.42	153.94
369.631	94.55
369.842	12.63
370.053	53.59
370.264	74.07
370.474	-11.95
370.685	-11.95
370.896	29.01
371.107	153.94
371.317	51.54
371.528	-16.04
371.739	78.16
371.95	49.49
372.16	69.97
372.371	65.88
372.582	29.01
372.792	59.73
373.003	90.45
373.214	98.64
373.424	86.36
373.635	45.4
373.846	84.31
374.056	49.49
374.267	117.08
374.477	65.88
374.688	55.64
374.898	29.01
375.109	55.64
375.319	69.97
375.53	63.83
375.74	37.2
375.951	-20.14
376.161	-18.09
376.372	61.78
376.582	-24.23
376.793	57.68
377.003	69.97
377.214	45.4
377.424	61.78
377.635	63.83
377.845	82.26
378.055	80.21
378.266	4.44
378.476	96.6
378.686	88.4
378.897	55.64
379.107	-16.04
379.317	20.82
379.528	20.82
379.738	53.59
379.948	-48.81
380.158	4.44
380.369	96.6
380.579	-3.75
380.789	-13.99
380.999	-26.28
381.21	63.83
381.42	86.36
381.63	22.87
381.84	67.92
382.05	18.77
382.261	24.92
382.471	108.88
382.681	4.44
382.891	20.82
383.101	82.26
383.311	-7.85
383.521	4.44
383.731	33.11
383.941	45.4
384.151	100.69
384.361	84.31
384.571	125.27
384.781	96.6
384.991	86.36
385.201	88.4
385.411	80.21
385.621	67.92
385.831	96.6
386.041	45.4
386.251	80.21
386.461	37.2
386.671	69.97
386.881	29.01
387.091	6.49
387.301	49.49
387.511	112.98
387.72	160.08
387.93	-34.47
388.14	39.25
388.35	53.59
388.56	112.98
388.769	31.06
388.979	76.12
389.189	-36.52
389.399	24.92
389.609	80.21
389.818	119.12
390.028	65.88
390.238	29.01
390.447	37.2
390.657	35.16
390.867	86.36
391.076	0.34
391.286	74.07
391.496	78.16
391.705	80.21
391.915	45.4
392.125	37.2
392.334	-3.75
392.544	96.6
392.753	53.59
392.963	-59.05
393.172	37.2
393.382	82.26
393.591	96.6
393.801	76.12
394.01	153.94
394.22	61.78
394.429	78.16
394.639	67.92
394.848	135.51
395.058	141.65
395.267	61.78
395.477	61.78
395.686	41.3
395.895	96.6
396.105	147.8
396.314	88.4
396.524	57.68
396.733	90.45
396.942	96.6
397.152	69.97
397.361	112.98
397.57	125.27
397.78	151.89
397.989	127.32
398.198	137.56
398.407	94.55
398.617	86.36
398.826	41.3
399.035	29.01
399.244	112.98
399.453	92.5
399.663	94.55
399.872	86.36
400.081	78.16
400.29	94.55
400.499	115.03
400.708	104.79
400.917	98.64
401.127	57.68
401.336	53.59
401.545	145.75
401.754	133.46
401.963	170.32
402.172	153.94
402.381	72.02
402.59	98.64
402.799	39.25
403.008	135.51
403.217	84.31
403.426	176.47
403.635	82.26
403.844	112.98
404.053	98.64
404.262	104.79
404.471	125.27
404.68	203.09
404.888	55.64
405.097	72.02
405.306	76.12
405.515	162.13
405.724	104.79
405.933	164.18
406.142	141.65
406.35	196.95
406.559	162.13
406.768	110.93
406.977	213.33
407.185	135.51
407.394	145.75
407.603	147.8
407.812	194.9
408.02	184.66
408.229	158.03
408.438	170.32
408.646	110.93
408.855	192.85
409.064	151.89
409.272	139.6
409.481	137.56
409.69	198.99
409.898	160.08
410.107	303.44
410.315	227.67
410.524	186.71
410.733	217.43
410.941	203.09
411.15	270.67
411.358	278.87
411.567	354.64
411.775	258.39
411.984	332.11
412.192	274.77
412.401	186.71
412.609	426.32
412.818	414.03
413.026	303.44
413.234	344.4
413.443	325.97
413.651	452.94
413.86	387.41
414.068	446.8
414.276	465.23
414.485	352.59
414.693	524.62
414.901	463.18
415.11	534.86
415.318	463.18
415.526	489.81
415.734	561.48
415.943	442.7
416.151	631.12
416.359	569.68
416.567	627.02
416.776	643.4
416.984	729.42
417.192	614.73
417.4	684.36
417.608	692.55
417.817	694.6
418.025	762.19
418.233	860.49
418.441	735.56
418.649	717.13
418.857	889.16
419.065	1009.99
419.273	889.16
419.481	862.54
419.689	946.5
419.897	1036.61
420.105	1012.04
420.313	1016.13
420.521	1126.72
420.729	1100.1
420.937	1087.81
421.145	1108.29
421.353	1161.54
421.561	1382.72
421.769	1306.95
421.977	1317.19
422.185	1253.7
422.393	1341.76
422.601	1472.83
422.809	1564.99
423.017	1511.74
423.224	1585.47
423.432	1624.38
423.64	1634.62
423.848	1741.11
424.056	1823.03
424.263	1855.8
424.471	1947.96
424.679	2066.74
424.887	1925.43
425.094	2076.98
425.302	2117.94
425.51	2156.85
425.718	2169.14
425.925	2236.72
426.133	2275.63
426.341	2306.35
426.548	2584.88
426.756	2578.73
426.964	2513.2
427.171	2840.87
427.379	2822.44
427.586	2767.15
427.794	2978.09
428.001	3037.48
428.209	3260.71
428.417	3160.36
428.624	3412.26
428.832	3365.15
429.039	3277.09
429.247	3453.22
429.454	3705.12
429.662	3946.78
429.869	3733.79
430.076	3952.92
430.284	3799.32
430.491	4036.89
430.699	4196.63
430.906	4307.22
431.114	4208.92
431.321	4288.79
431.528	4440.34
431.736	4817.16
431.943	5069.06
432.15	4788.49
432.358	4856.08
432.565	5198.09
432.772	5099.78
432.979	5470.47
433.187	5490.95
433.394	5546.24
433.601	5939.45
433.808	6134.01
434.016	5837.05
434.223	6160.63
434.43	6527.22
434.637	6332.66
434.844	6721.77
435.052	6848.75
435.259	6912.24
435.466	7028.97
435.673	6885.61
435.88	7258.34
436.087	7721.18
436.294	7659.74
436.501	7694.56
436.708	7631.07
436.915	8081.63
437.122	8188.12
437.329	8167.64
437.537	8329.43
437.743	8591.57
437.95	8421.59
438.157	8954.06
438.364	9187.53
438.571	9427.14
438.778	9304.26
438.985	10043.58
439.192	9922.75
439.399	10047.68
439.606	9793.73
439.813	10434.74
440.02	11360.42
440.227	10926.25
440.433	10696.88
440.64	11157.68
440.847	11040.94
441.054	11489.45
441.261	11911.33
441.467	11835.55
441.674	11878.56
441.881	12613.78
442.088	12167.32
442.294	12236.95
442.501	12730.52
442.708	13011.09
442.914	13242.51
443.121	13834.37
443.328	13568.13
443.534	14532.73
443.741	14004.35
443.948	13883.52
444.154	15052.91
444.361	15052.91
444.568	15165.55
444.774	15112.3
444.981	15169.65
445.187	15257.71
445.394	16072.8
445.6	16175.2
445.807	17467.47
446.013	16879.7
446.22	17145.94
446.426	17819.72
446.633	18012.23
446.839	18671.67
447.046	17547.34
447.252	18583.61
447.459	18696.25
447.665	18931.76
447.871	19415.09
448.078	20320.29
448.284	19111.99
448.491	20107.3
448.697	21063.7
448.903	21082.13
449.11	21116.95
449.316	20752.41
449.522	21350.42
449.728	21469.2
449.935	22253.57
450.141	21684.23
450.347	22458.37
450.553	21970.95
450.76	22212.61
450.966	22982.65
451.172	22482.94
451.378	23203.83
451.584	22763.51
451.791	23373.81
451.997	23148.53
452.203	23508.97
452.409	23463.92
452.615	23560.17
452.821	22726.65
453.027	22329.34
453.233	23603.18
453.44	22571
453.646	22937.59
453.852	23064.57
454.058	23433.2
454.264	22607.87
454.47	23429.1
454.676	22759.42
454.882	23447.54
455.088	21329.94
455.294	21817.35
455.5	22353.92
455.705	22507.52
455.911	21172.24
456.117	21166.1
456.323	20860.95
456.529	19566.63
456.735	20709.4
456.941	19818.53
457.147	19552.3
457.352	19216.43
457.558	19044.4
457.764	19165.23
457.97	18763.83
458.176	18325.57
458.381	18280.51
458.587	17487.95
458.793	17518.67
458.999	16478.3
459.204	17811.53
459.41	17129.55
459.616	15984.74
459.821	16380
460.027	15902.82
460.233	15751.27
460.438	15057.01
460.644	15100.01
460.85	14688.37
461.055	14280.83
461.261	14180.48
461.466	13131.92
461.672	12873.87
461.878	13684.87
462.083	12724.37
462.289	12728.47
462.494	12370.07
462.7	11702.43
462.905	11546.79
463.111	12040.35
463.316	12163.23
463.522	11700.39
463.727	11665.57
463.932	11614.37
464.138	11638.95
464.343	11423.91
464.549	11655.33
464.754	11778.21
464.959	11475.11
465.165	11485.35
465.37	11049.13
465.575	10660.02
465.781	11182.25
465.986	11086
466.191	10830
466.397	10522.8
466.602	10080.44
466.807	10444.98
467.012	10547.38
467.218	10481.85
467.423	10291.38
467.628	10197.18
467.833	10754.23
468.038	10289.34
468.244	9986.24
468.449	10361.02
468.654	10188.99
468.859	9932.99
