Data from USB4F104151__45__14-43-00-702.txt Node

Date: Thu Mar 13 14:43:00 EDT 2025
User: louis
Spectrometer: USB4F10415
Trigger mode: 4
Integration Time (sec): 2.000000E-2
Scans to average: 1
Electric dark correction enabled: true
Nonlinearity correction enabled: false
Boxcar width: 0
XAxis mode: Wavelengths
Number of Pixels in Spectrum: 3648
>>>>>Begin Spectral Data<<<<<
178.204	-67.41
178.424	-67.41
178.644	-67.41
178.864	-112.47
179.084	-145.24
179.304	-44.88
179.524	-12.12
179.744	-22.36
179.964	-1.88
180.184	61.61
180.404	37.03
180.624	-22.36
180.844	-18.26
181.064	-22.36
181.283	22.7
181.503	6.31
181.723	16.55
181.943	-14.17
182.163	20.65
182.383	37.03
182.602	75.95
182.822	-10.07
183.042	121
183.262	49.32
183.482	67.75
183.701	26.79
183.921	53.42
184.141	-14.17
184.361	26.79
184.58	18.6
184.8	69.8
185.02	-14.17
185.239	141.48
185.459	24.75
185.679	26.79
185.898	-46.93
186.118	59.56
186.338	61.61
186.557	116.9
186.777	-38.74
186.997	22.7
187.216	30.89
187.436	116.9
187.655	55.47
187.875	2.22
188.095	43.18
188.314	30.89
188.534	-5.97
188.753	39.08
188.973	43.18
189.192	51.37
189.412	18.6
189.631	125.1
189.851	18.6
190.07	96.43
190.29	12.46
190.509	45.23
190.729	45.23
190.948	43.18
191.168	123.05
191.387	125.1
191.607	26.79
191.826	43.18
192.045	110.76
192.265	51.37
192.484	12.46
192.704	77.99
192.923	51.37
193.142	86.19
193.362	61.61
193.581	61.61
193.8	92.33
194.02	51.37
194.239	90.28
194.458	102.57
194.678	-22.36
194.897	51.37
195.116	59.56
195.335	6.31
195.555	100.52
195.774	12.46
195.993	18.6
196.212	67.75
196.432	-20.31
196.651	28.84
196.87	63.66
197.089	55.47
197.308	2.22
197.528	61.61
197.747	2.22
197.966	10.41
198.185	80.04
198.404	2.22
198.623	80.04
198.842	71.85
199.062	43.18
199.281	14.51
199.5	-26.45
199.719	141.48
199.938	118.95
200.157	43.18
200.376	67.75
200.595	63.66
200.814	75.95
201.033	-20.31
201.252	47.27
201.471	47.27
201.69	51.37
201.909	77.99
202.128	43.18
202.347	4.27
202.566	-51.03
202.785	84.14
203.004	45.23
203.223	98.47
203.442	-10.07
203.661	34.99
203.879	80.04
204.098	151.72
204.317	-22.36
204.536	51.37
204.755	-3.93
204.974	108.71
205.193	-44.88
205.411	118.95
205.63	57.51
205.849	28.84
206.068	39.08
206.287	43.18
206.505	71.85
206.724	47.27
206.943	53.42
207.162	18.6
207.381	6.31
207.599	67.75
207.818	86.19
208.037	-18.26
208.255	12.46
208.474	100.52
208.693	96.43
208.911	67.75
209.13	61.61
209.349	96.43
209.567	-5.97
209.786	69.8
210.005	45.23
210.223	34.99
210.442	41.13
210.661	96.43
210.879	55.47
211.098	20.65
211.316	39.08
211.535	61.61
211.753	39.08
211.972	10.41
212.191	-16.21
212.409	102.57
212.628	51.37
212.846	34.99
213.065	4.27
213.283	121
213.502	-5.97
213.72	28.84
213.938	37.03
214.157	69.8
214.375	32.94
214.594	-10.07
214.812	-20.31
215.031	-20.31
215.249	16.55
215.467	116.9
215.686	32.94
215.904	77.99
216.122	24.75
216.341	116.9
216.559	20.65
216.778	51.37
216.996	39.08
217.214	2.22
217.432	26.79
217.651	22.7
217.869	47.27
218.087	10.41
218.306	116.9
218.524	108.71
218.742	20.65
218.96	67.75
219.179	2.22
219.397	53.42
219.615	47.27
219.833	28.84
220.051	108.71
220.27	100.52
220.488	75.95
220.706	178.34
220.924	32.94
221.142	4.27
221.36	10.41
221.578	84.14
221.796	12.46
222.015	61.61
222.233	53.42
222.451	59.56
222.669	51.37
222.887	94.38
223.105	-38.74
223.323	127.14
223.541	14.51
223.759	77.99
223.977	-16.21
224.195	32.94
224.413	71.85
224.631	8.36
224.849	51.37
225.067	94.38
225.285	22.7
225.503	59.56
225.721	-3.93
225.939	-14.17
226.157	84.14
226.375	100.52
226.592	-24.4
226.81	-30.55
227.028	100.52
227.246	114.86
227.464	90.28
227.682	67.75
227.9	20.65
228.117	80.04
228.335	39.08
228.553	-3.93
228.771	43.18
228.989	125.1
229.206	86.19
229.424	-53.08
229.642	14.51
229.86	-22.36
230.077	96.43
230.295	32.94
230.513	22.7
230.731	61.61
230.948	34.99
231.166	67.75
231.384	39.08
231.601	-46.93
231.819	127.14
232.037	67.75
232.254	-61.27
232.472	67.75
232.689	-30.55
232.907	-59.22
233.125	34.99
233.342	20.65
233.56	28.84
233.777	-3.93
233.995	37.03
234.213	86.19
234.43	26.79
234.648	10.41
234.865	-18.26
235.083	84.14
235.3	-3.93
235.518	32.94
235.735	116.9
235.953	37.03
236.17	67.75
236.388	127.14
236.605	59.56
236.822	77.99
237.04	30.89
237.257	43.18
237.475	92.33
237.692	75.95
237.909	6.31
238.127	10.41
238.344	34.99
238.562	67.75
238.779	34.99
238.996	37.03
239.214	75.95
239.431	-38.74
239.648	-34.64
239.865	22.7
240.083	30.89
240.3	39.08
240.517	26.79
240.735	34.99
240.952	77.99
241.169	69.8
241.386	10.41
241.603	43.18
241.821	47.27
242.038	53.42
242.255	53.42
242.472	-57.17
242.689	6.31
242.907	12.46
243.124	55.47
243.341	-38.74
243.558	24.75
243.775	22.7
243.992	30.89
244.209	84.14
244.426	65.71
244.643	77.99
244.86	55.47
245.078	18.6
245.295	96.43
245.512	114.86
245.729	-3.93
245.946	10.41
246.163	69.8
246.38	75.95
246.597	30.89
246.814	18.6
247.031	39.08
247.248	-20.31
247.464	71.85
247.681	20.65
247.898	39.08
248.115	67.75
248.332	28.84
248.549	4.27
248.766	112.81
248.983	26.79
249.2	6.31
249.417	12.46
249.633	12.46
249.85	45.23
250.067	67.75
250.284	30.89
250.501	67.75
250.717	45.23
250.934	-22.36
251.151	100.52
251.368	37.03
251.585	22.7
251.801	82.09
252.018	43.18
252.235	28.84
252.451	4.27
252.668	14.51
252.885	53.42
253.102	75.95
253.318	51.37
253.535	8.36
253.752	-40.79
253.968	73.9
254.185	34.99
254.401	6.31
254.618	51.37
254.835	43.18
255.051	102.57
255.268	39.08
255.484	75.95
255.701	34.99
255.917	18.6
256.134	-26.45
256.351	43.18
256.567	92.33
256.784	65.71
257	-3.93
257.217	37.03
257.433	-14.17
257.65	61.61
257.866	67.75
258.082	59.56
258.299	-38.74
258.515	94.38
258.732	75.95
258.948	45.23
259.165	100.52
259.381	20.65
259.597	67.75
259.814	-30.55
260.03	14.51
260.246	51.37
260.463	45.23
260.679	59.56
260.895	30.89
261.112	26.79
261.328	43.18
261.544	77.99
261.761	116.9
261.977	125.1
262.193	32.94
262.409	110.76
262.626	32.94
262.842	47.27
263.058	-14.17
263.274	43.18
263.49	-38.74
263.707	84.14
263.923	12.46
264.139	61.61
264.355	6.31
264.571	59.56
264.787	100.52
265.004	61.61
265.22	84.14
265.436	2.22
265.652	-30.55
265.868	22.7
266.084	65.71
266.3	26.79
266.516	53.42
266.732	118.95
266.948	55.47
267.164	51.37
267.38	77.99
267.596	59.56
267.812	43.18
268.028	63.66
268.244	18.6
268.46	51.37
268.676	37.03
268.892	-42.84
269.108	86.19
269.324	20.65
269.54	121
269.756	90.28
269.972	28.84
270.188	75.95
270.403	0.17
270.619	-14.17
270.835	45.23
271.051	26.79
271.267	-24.4
271.483	32.94
271.698	47.27
271.914	24.75
272.13	8.36
272.346	12.46
272.562	-3.93
272.777	61.61
272.993	14.51
273.209	125.1
273.425	65.71
273.64	49.32
273.856	61.61
274.072	67.75
274.287	26.79
274.503	104.62
274.719	77.99
274.934	-34.64
275.15	37.03
275.366	18.6
275.581	-26.45
275.797	43.18
276.012	10.41
276.228	-12.12
276.444	47.27
276.659	104.62
276.875	32.94
277.09	34.99
277.306	106.67
277.521	51.37
277.737	-10.07
277.952	43.18
278.168	104.62
278.383	41.13
278.599	-8.02
278.814	71.85
279.03	80.04
279.245	75.95
279.461	10.41
279.676	53.42
279.892	8.36
280.107	43.18
280.322	26.79
280.538	43.18
280.753	53.42
280.969	61.61
281.184	34.99
281.399	26.79
281.615	34.99
281.83	39.08
282.045	10.41
282.26	51.37
282.476	2.22
282.691	28.84
282.906	53.42
283.122	4.27
283.337	55.47
283.552	51.37
283.767	39.08
283.983	67.75
284.198	0.17
284.413	51.37
284.628	12.46
284.843	-12.12
285.058	86.19
285.274	116.9
285.489	-42.84
285.704	75.95
285.919	43.18
286.134	116.9
286.349	4.27
286.564	20.65
286.779	39.08
286.995	-3.93
287.21	-20.31
287.425	43.18
287.64	75.95
287.855	94.38
288.07	30.89
288.285	10.41
288.5	145.58
288.715	53.42
288.93	67.75
289.145	-73.56
289.36	43.18
289.575	18.6
289.79	61.61
290.004	34.99
290.219	2.22
290.434	10.41
290.649	-18.26
290.864	-12.12
291.079	57.51
291.294	135.34
291.509	59.56
291.724	59.56
291.938	-5.97
292.153	75.95
292.368	86.19
292.583	12.46
292.798	34.99
293.012	37.03
293.227	67.75
293.442	51.37
293.657	108.71
293.871	125.1
294.086	26.79
294.301	143.53
294.516	10.41
294.73	61.61
294.945	49.32
295.16	100.52
295.374	88.23
295.589	24.75
295.804	37.03
296.018	102.57
296.233	80.04
296.447	67.75
296.662	43.18
296.877	53.42
297.091	75.95
297.306	18.6
297.52	10.41
297.735	88.23
297.949	77.99
298.164	77.99
298.378	32.94
298.593	12.46
298.807	55.47
299.022	98.47
299.236	51.37
299.451	71.85
299.665	100.52
299.88	30.89
300.094	108.71
300.309	-5.97
300.523	-1.88
300.737	0.17
300.952	49.32
301.166	80.04
301.381	14.51
301.595	10.41
301.809	133.29
302.024	53.42
302.238	10.41
302.452	110.76
302.667	45.23
302.881	82.09
303.095	55.47
303.309	16.55
303.524	39.08
303.738	4.27
303.952	34.99
304.166	59.56
304.381	37.03
304.595	129.19
304.809	55.47
305.023	69.8
305.237	77.99
305.452	2.22
305.666	67.75
305.88	20.65
306.094	59.56
306.308	34.99
306.522	67.75
306.736	51.37
306.95	20.65
307.164	67.75
307.379	39.08
307.593	110.76
307.807	51.37
308.021	100.52
308.235	26.79
308.449	6.31
308.663	24.75
308.877	133.29
309.091	10.41
309.305	51.37
309.519	55.47
309.733	18.6
309.947	-5.97
310.161	37.03
310.374	82.09
310.588	100.52
310.802	20.65
311.016	63.66
311.23	-14.17
311.444	-55.12
311.658	37.03
311.872	26.79
312.085	104.62
312.299	100.52
312.513	28.84
312.727	125.1
312.941	37.03
313.154	45.23
313.368	26.79
313.582	57.51
313.796	2.22
314.009	43.18
314.223	59.56
314.437	-22.36
314.651	28.84
314.864	51.37
315.078	26.79
315.292	4.27
315.505	34.99
315.719	34.99
315.933	57.51
316.146	80.04
316.36	12.46
316.573	121
316.787	77.99
317.001	94.38
317.214	-12.12
317.428	67.75
317.641	14.51
317.855	43.18
318.068	51.37
318.282	92.33
318.495	39.08
318.709	77.99
318.922	34.99
319.136	92.33
319.349	10.41
319.563	49.32
319.776	67.75
319.99	18.6
320.203	84.14
320.417	47.27
320.63	-14.17
320.843	123.05
321.057	-10.07
321.27	112.81
321.483	41.13
321.697	131.24
321.91	45.23
322.124	34.99
322.337	43.18
322.55	10.41
322.763	82.09
322.977	71.85
323.19	92.33
323.403	45.23
323.617	34.99
323.83	65.71
324.043	51.37
324.256	18.6
324.469	18.6
324.683	41.13
324.896	96.43
325.109	18.6
325.322	-14.17
325.535	37.03
325.748	53.42
325.962	67.75
326.175	73.9
326.388	80.04
326.601	39.08
326.814	43.18
327.027	4.27
327.24	118.95
327.453	-18.26
327.666	-1.88
327.879	69.8
328.092	121
328.305	34.99
328.518	84.14
328.731	-26.45
328.944	-14.17
329.157	43.18
329.37	92.33
329.583	102.57
329.796	77.99
330.009	-5.97
330.222	67.75
330.435	6.31
330.648	26.79
330.861	47.27
331.073	59.56
331.286	100.52
331.499	67.75
331.712	-10.07
331.925	28.84
332.138	63.66
332.35	84.14
332.563	75.95
332.776	112.81
332.989	22.7
333.202	-26.45
333.414	-3.93
333.627	26.79
333.84	53.42
334.053	59.56
334.265	-30.55
334.478	69.8
334.691	18.6
334.903	-22.36
335.116	43.18
335.329	59.56
335.541	67.75
335.754	20.65
335.966	16.55
336.179	69.8
336.392	12.46
336.604	41.13
336.817	-1.88
337.029	110.76
337.242	47.27
337.454	69.8
337.667	59.56
337.88	147.62
338.092	77.99
338.305	108.71
338.517	16.55
338.729	92.33
338.942	106.67
339.154	30.89
339.367	-22.36
339.579	61.61
339.792	22.7
340.004	96.43
340.217	80.04
340.429	57.51
340.641	18.6
340.854	39.08
341.066	-36.69
341.278	96.43
341.491	125.1
341.703	94.38
341.915	-55.12
342.128	112.81
342.34	88.23
342.552	61.61
342.764	37.03
342.977	37.03
343.189	75.95
343.401	37.03
343.613	10.41
343.826	-1.88
344.038	108.71
344.25	59.56
344.462	63.66
344.674	18.6
344.886	61.61
345.099	71.85
345.311	24.75
345.523	20.65
345.735	12.46
345.947	77.99
346.159	53.42
346.371	100.52
346.583	30.89
346.795	121
347.007	43.18
347.219	22.7
347.431	39.08
347.643	55.47
347.855	73.9
348.067	90.28
348.279	-26.45
348.491	45.23
348.703	45.23
348.915	77.99
349.127	39.08
349.339	-8.02
349.551	47.27
349.763	86.19
349.975	133.29
350.187	121
350.399	94.38
350.61	59.56
350.822	-36.69
351.034	47.27
351.246	26.79
351.458	55.47
351.669	-12.12
351.881	77.99
352.093	92.33
352.305	106.67
352.517	84.14
352.728	94.38
352.94	65.71
353.152	71.85
353.363	34.99
353.575	112.81
353.787	30.89
353.999	-3.93
354.21	102.57
354.422	34.99
354.633	-1.88
354.845	80.04
355.057	34.99
355.268	59.56
355.48	34.99
355.692	77.99
355.903	2.22
356.115	77.99
356.326	10.41
356.538	135.34
356.749	-3.93
356.961	118.95
357.172	80.04
357.384	86.19
357.595	59.56
357.807	86.19
358.018	18.6
358.23	61.61
358.441	118.95
358.653	102.57
358.864	49.32
359.075	2.22
359.287	12.46
359.498	127.14
359.709	112.81
359.921	127.14
360.132	65.71
360.344	53.42
360.555	86.19
360.766	34.99
360.977	43.18
361.189	92.33
361.4	10.41
361.611	28.84
361.823	34.99
362.034	34.99
362.245	-5.97
362.456	-5.97
362.667	-16.21
362.879	88.23
363.09	104.62
363.301	77.99
363.512	45.23
363.723	37.03
363.935	37.03
364.146	100.52
364.357	28.84
364.568	61.61
364.779	84.14
364.99	104.62
365.201	82.09
365.412	90.28
365.623	-30.55
365.834	121
366.045	24.75
366.256	28.84
366.467	45.23
366.678	32.94
366.889	4.27
367.1	80.04
367.311	59.56
367.522	-3.93
367.733	86.19
367.944	166.06
368.155	67.75
368.366	51.37
368.577	55.47
368.788	88.23
368.999	16.55
369.209	26.79
369.42	143.53
369.631	123.05
369.842	110.76
370.053	-10.07
370.264	51.37
370.474	16.55
370.685	98.47
370.896	-5.97
371.107	77.99
371.317	69.8
371.528	45.23
371.739	96.43
371.95	67.75
372.16	114.86
372.371	10.41
372.582	69.8
372.792	94.38
373.003	80.04
373.214	59.56
373.424	84.14
373.635	102.57
373.846	90.28
374.056	75.95
374.267	43.18
374.477	104.62
374.688	92.33
374.898	86.19
375.109	57.51
375.319	45.23
375.53	57.51
375.74	26.79
375.951	34.99
376.161	28.84
376.372	59.56
376.582	100.52
376.793	118.95
377.003	10.41
377.214	2.22
377.424	28.84
377.635	63.66
377.845	-12.12
378.055	133.29
378.266	20.65
378.476	61.61
378.686	12.46
378.897	47.27
379.107	65.71
379.317	100.52
379.528	18.6
379.738	69.8
379.948	26.79
380.158	63.66
380.369	-28.5
380.579	47.27
380.789	4.27
380.999	94.38
381.21	84.14
381.42	141.48
381.63	57.51
381.84	133.29
382.05	75.95
382.261	125.1
382.471	39.08
382.681	51.37
382.891	141.48
383.101	30.89
383.311	67.75
383.521	86.19
383.731	12.46
383.941	37.03
384.151	116.9
384.361	159.91
384.571	94.38
384.781	141.48
384.991	104.62
385.201	63.66
385.411	141.48
385.621	92.33
385.831	34.99
386.041	59.56
386.251	59.56
386.461	143.53
386.671	57.51
386.881	26.79
387.091	43.18
387.301	123.05
387.511	69.8
387.72	102.57
387.93	92.33
388.14	4.27
388.35	57.51
388.56	112.81
388.769	168.1
388.979	92.33
389.189	69.8
389.399	108.71
389.609	59.56
389.818	63.66
390.028	75.95
390.238	96.43
390.447	61.61
390.657	67.75
390.867	75.95
391.076	73.9
391.286	135.34
391.496	69.8
391.705	-10.07
391.915	92.33
392.125	55.47
392.334	10.41
392.544	121
392.753	18.6
392.963	47.27
393.172	61.61
393.382	102.57
393.591	123.05
393.801	116.9
394.01	184.49
394.22	61.61
394.429	73.9
394.639	100.52
394.848	34.99
395.058	67.75
395.267	75.95
395.477	75.95
395.686	51.37
395.895	149.67
396.105	127.14
396.314	77.99
396.524	125.1
396.733	116.9
396.942	61.61
397.152	82.09
397.361	168.1
397.57	92.33
397.78	84.14
397.989	98.47
398.198	112.81
398.407	102.57
398.617	53.42
398.826	116.9
399.035	67.75
399.244	121
399.453	137.38
399.663	61.61
399.872	18.6
400.081	67.75
400.29	116.9
400.499	125.1
400.708	190.63
400.917	143.53
401.127	75.95
401.336	75.95
401.545	106.67
401.754	250.02
401.963	141.48
402.172	98.47
402.381	10.41
402.59	96.43
402.799	182.44
403.008	55.47
403.217	192.68
403.426	129.19
403.635	73.9
403.844	118.95
404.053	145.58
404.262	121
404.471	178.34
404.68	149.67
404.888	116.9
405.097	133.29
405.306	125.1
405.515	215.21
405.724	139.43
405.933	192.68
406.142	231.59
406.35	202.92
406.559	135.34
406.768	145.58
406.977	194.73
407.185	133.29
407.394	211.11
407.603	192.68
407.812	301.22
408.02	202.92
408.229	168.1
408.438	231.59
408.646	252.07
408.855	213.16
409.064	211.11
409.272	274.6
409.481	272.55
409.69	237.74
409.898	321.7
410.107	295.08
410.315	323.75
410.524	329.89
410.733	342.18
410.941	329.89
411.15	387.24
411.358	426.15
411.567	413.86
411.775	399.52
411.984	383.14
412.192	350.37
412.401	499.88
412.609	454.82
412.818	448.68
413.026	471.2
413.234	362.66
413.443	444.58
413.651	413.86
413.86	493.73
414.068	583.84
414.276	540.83
414.485	544.93
414.693	649.38
414.901	653.47
415.11	559.27
415.318	657.57
415.526	641.18
415.734	790.69
415.943	790.69
416.151	757.92
416.359	745.63
416.567	739.49
416.776	843.93
416.984	839.84
417.192	929.95
417.4	862.37
417.608	872.61
417.817	987.29
418.025	995.48
418.233	1075.35
418.441	1013.92
418.649	1165.46
418.857	1165.46
419.065	1218.71
419.273	1185.94
419.481	1302.68
419.689	1370.26
419.897	1347.73
420.105	1349.78
420.313	1353.88
420.521	1564.82
420.729	1542.29
420.937	1536.15
421.145	1622.16
421.353	1656.98
421.561	1738.9
421.769	1710.22
421.977	1841.29
422.185	1841.29
422.393	2027.66
422.601	1964.17
422.809	2062.48
423.017	2105.48
423.224	2164.87
423.432	2279.56
423.64	2287.75
423.848	2613.38
424.056	2427.01
424.263	2601.09
424.471	2525.32
424.679	2633.86
424.887	2738.3
425.094	2824.32
425.302	2943.1
425.51	2979.97
425.718	3106.94
425.925	3053.69
426.133	3231.87
426.341	3256.44
426.548	3410.04
426.756	3428.47
426.964	3557.49
427.171	3852.4
427.379	4016.24
427.586	3924.08
427.794	4108.4
428.001	4223.08
428.209	4495.46
428.417	4399.21
428.624	4640.87
428.832	4651.11
429.039	4671.59
429.247	4628.58
429.454	5206.11
429.662	5363.8
429.869	5036.13
430.076	5419.1
430.284	5251.16
430.491	5517.4
430.699	5777.49
430.906	5744.72
431.114	6051.92
431.321	6043.73
431.528	6205.52
431.736	6596.68
431.943	6936.64
432.15	6844.48
432.358	6787.14
432.565	7235.64
432.772	7194.68
432.979	7702.58
433.187	7684.15
433.394	7403.58
433.601	8241.2
433.808	8286.25
434.016	8212.53
434.223	8587.3
434.43	9099.3
434.637	8853.54
434.844	9439.26
435.052	9639.96
435.259	9515.03
435.466	9621.53
435.673	9560.09
435.88	9988.11
436.087	10592.27
436.294	10668.04
436.501	10410
436.708	10522.63
436.915	11143.17
437.122	11286.53
437.329	11472.89
437.537	11837.43
437.743	11835.38
437.95	11784.18
438.157	12474.35
438.364	12908.52
438.571	12896.23
438.778	12820.46
438.985	14022.61
439.192	13518.81
439.399	13871.06
439.606	13592.54
439.813	14385.1
440.02	15267.78
440.227	14913.48
440.433	14899.14
440.64	15613.88
440.847	15067.08
441.054	15742.91
441.261	16713.64
441.467	16320.43
441.674	16732.08
441.881	17403.81
442.088	17217.44
442.294	16959.4
442.501	17637.28
442.708	18177.94
442.914	18673.55
443.121	19206.02
443.328	19046.28
443.534	20350.84
443.741	19806.08
443.948	19500.93
444.154	20694.89
444.361	20641.65
444.568	20850.54
444.774	21020.52
444.981	21147.5
445.187	21813.09
445.394	22781.78
445.6	22421.33
445.807	24588.08
446.013	23261
446.22	23961.41
446.426	24756.02
446.633	24778.54
446.839	25790.24
447.046	24618.8
447.252	26404.63
447.459	26056.48
447.665	25974.56
447.871	27582.21
448.078	28413.69
448.284	26908.43
448.491	28059.39
448.697	28919.54
448.903	29007.6
449.11	29591.27
449.316	28804.85
449.522	29748.96
449.728	30467.8
449.935	30330.59
450.141	30320.35
450.347	31344.33
450.553	30367.45
450.76	30887.64
450.966	31971.01
451.172	31149.78
451.378	32460.48
451.584	31631.05
451.791	32380.6
451.997	32222.91
452.203	32507.58
452.409	32745.14
452.615	32556.73
452.821	31538.89
453.027	30940.88
453.233	32509.63
453.44	31432.4
453.646	31762.12
453.852	32298.69
454.058	32456.38
454.264	31499.98
454.47	32566.97
454.676	31559.37
454.882	32595.64
455.088	29527.78
455.294	30377.69
455.5	30883.54
455.705	31162.06
455.911	29505.26
456.117	29187.82
456.323	28706.55
456.529	27354.89
456.735	28346.11
456.941	27891.46
457.147	27545.35
457.352	26371.86
457.558	26607.38
457.764	26429.21
457.97	25769.76
458.176	25147.18
458.381	25550.63
458.587	24139.58
458.793	24145.72
458.999	22880.08
459.204	24266.55
459.41	24059.71
459.616	22198.1
459.821	22396.76
460.027	22253.4
460.233	21821.28
460.438	20854.64
460.644	20975.47
460.85	19857.28
461.055	19533.7
461.261	19523.46
461.466	17997.72
461.672	17692.57
461.878	18802.57
462.083	17643.42
462.289	17446.82
462.494	17166.24
462.7	16142.26
462.905	16048.05
463.111	16426.93
463.316	16654.25
463.522	16070.58
463.727	16097.21
463.932	16514.99
464.138	16172.98
464.343	16011.19
464.549	15861.69
464.754	16017.33
464.959	16115.64
465.165	15814.59
465.37	15370.18
465.575	14725.07
465.781	15468.48
465.986	15361.98
466.191	14829.51
466.397	14440.4
466.602	13893.59
466.807	14317.52
467.012	14522.32
467.218	14276.56
