Data from USB4F104151__268__14-46-06-179.txt Node

Date: Thu Mar 13 14:46:06 EDT 2025
User: louis
Spectrometer: USB4F10415
Trigger mode: 4
Integration Time (sec): 2.000000E-2
Scans to average: 1
Electric dark correction enabled: true
Nonlinearity correction enabled: false
Boxcar width: 0
XAxis mode: Wavelengths
Number of Pixels in Spectrum: 3648
>>>>>Begin Spectral Data<<<<<
178.204	-83.63
178.424	-83.63
178.644	-83.63
178.864	-124.58
179.084	-32.43
179.304	-18.09
179.524	0.34
179.744	35.16
179.964	-22.19
180.184	-54.95
180.404	16.73
180.624	47.44
180.844	47.44
181.064	-50.86
181.283	51.54
181.503	-42.67
181.723	-9.9
181.943	14.68
182.163	63.83
182.383	6.49
182.602	-30.38
182.822	-52.91
183.042	41.3
183.262	0.34
183.482	76.12
183.701	33.11
183.921	-22.19
184.141	-67.24
184.361	24.92
184.58	-22.19
184.8	31.06
185.02	-50.86
185.239	2.39
185.459	-13.99
185.679	-18.09
185.898	-18.09
186.118	82.26
186.338	-16.04
186.557	55.64
186.777	-81.58
186.997	96.6
187.216	-34.47
187.436	51.54
187.655	20.82
187.875	-18.09
188.095	57.68
188.314	0.34
188.534	37.2
188.753	47.44
188.973	-16.04
189.192	69.97
189.412	31.06
189.631	-9.9
189.851	14.68
190.07	10.58
190.29	-38.57
190.509	37.2
190.729	49.49
190.948	100.69
191.168	92.5
191.387	8.53
191.607	47.44
191.826	-7.85
192.045	31.06
192.265	57.68
192.484	-40.62
192.704	49.49
192.923	-108.2
193.142	39.25
193.362	22.87
193.581	33.11
193.8	-1.71
194.02	12.63
194.239	65.88
194.458	104.79
194.678	39.25
194.897	-22.19
195.116	4.44
195.335	-20.14
195.555	-26.28
195.774	106.84
195.993	-9.9
196.212	-34.47
196.432	-30.38
196.651	-26.28
196.87	-38.57
197.089	108.88
197.308	-20.14
197.528	41.3
197.747	-1.71
197.966	47.44
198.185	108.88
198.404	47.44
198.623	47.44
198.842	112.98
199.062	102.74
199.281	8.53
199.5	49.49
199.719	104.79
199.938	39.25
200.157	123.22
200.376	72.02
200.595	35.16
200.814	0.34
201.033	10.58
201.252	-1.71
201.471	-13.99
201.69	18.77
201.909	31.06
202.128	14.68
202.347	51.54
202.566	8.53
202.785	80.21
203.004	-11.95
203.223	88.4
203.442	22.87
203.661	2.39
203.879	14.68
204.098	39.25
204.317	-13.99
204.536	123.22
204.755	-54.95
204.974	31.06
205.193	-7.85
205.411	59.73
205.63	26.96
205.849	-22.19
206.068	16.73
206.287	47.44
206.505	65.88
206.724	80.21
206.943	8.53
207.162	16.73
207.381	-13.99
207.599	72.02
207.818	98.64
208.037	41.3
208.255	14.68
208.474	63.83
208.693	22.87
208.911	29.01
209.13	22.87
209.349	18.77
209.567	6.49
209.786	76.12
210.005	24.92
210.223	26.96
210.442	-30.38
210.661	-34.47
210.879	14.68
211.098	41.3
211.316	-44.71
211.535	-18.09
211.753	-42.67
211.972	72.02
212.191	33.11
212.409	55.64
212.628	55.64
212.846	35.16
213.065	104.79
213.283	96.6
213.502	-24.23
213.72	65.88
213.938	-9.9
214.157	26.96
214.375	37.2
214.594	-71.34
214.812	55.64
215.031	69.97
215.249	53.59
215.467	18.77
215.686	18.77
215.904	51.54
216.122	-52.91
216.341	35.16
216.559	14.68
216.778	63.83
216.996	51.54
217.214	24.92
217.432	10.58
217.651	47.44
217.869	29.01
218.087	0.34
218.306	96.6
218.524	-26.28
218.742	-5.8
218.96	45.4
219.179	4.44
219.397	-9.9
219.615	74.07
219.833	59.73
220.051	-83.63
220.27	90.45
220.488	-18.09
220.706	-9.9
220.924	6.49
221.142	37.2
221.36	18.77
221.578	88.4
221.796	55.64
222.015	8.53
222.233	-30.38
222.451	119.12
222.669	-42.67
222.887	26.96
223.105	22.87
223.323	45.4
223.541	14.68
223.759	14.68
223.977	-9.9
224.195	45.4
224.413	53.59
224.631	49.49
224.849	6.49
225.067	100.69
225.285	14.68
225.503	0.34
225.721	0.34
225.939	2.39
226.157	22.87
226.375	131.41
226.592	22.87
226.81	80.21
227.028	72.02
227.246	-26.28
227.464	33.11
227.682	22.87
227.9	117.08
228.117	22.87
228.335	43.35
228.553	-3.75
228.771	37.2
228.989	6.49
229.206	37.2
229.424	-18.09
229.642	-9.9
229.86	-13.99
230.077	47.44
230.295	82.26
230.513	123.22
230.731	33.11
230.948	158.03
231.166	39.25
231.384	31.06
231.601	47.44
231.819	88.4
232.037	-9.9
232.254	6.49
232.472	125.27
232.689	-26.28
232.907	63.83
233.125	35.16
233.342	-34.47
233.56	72.02
233.777	-63.15
233.995	2.39
234.213	63.83
234.43	20.82
234.648	18.77
234.865	14.68
235.083	22.87
235.3	0.34
235.518	55.64
235.735	53.59
235.953	47.44
236.17	35.16
236.388	53.59
236.605	2.39
236.822	59.73
237.04	26.96
237.257	-40.62
237.475	0.34
237.692	59.73
237.909	47.44
238.127	-5.8
238.344	-3.75
238.562	125.27
238.779	-38.57
238.996	-7.85
239.214	63.83
239.431	47.44
239.648	6.49
239.865	100.69
240.083	33.11
240.3	39.25
240.517	63.83
240.735	-16.04
240.952	47.44
241.169	104.79
241.386	37.2
241.603	-18.09
241.821	-1.71
242.038	55.64
242.255	-13.99
242.472	14.68
242.689	63.83
242.907	96.6
243.124	41.3
243.341	-32.43
243.558	49.49
243.775	-7.85
243.992	-42.67
244.209	16.73
244.426	67.92
244.643	16.73
244.86	-9.9
245.078	-18.09
245.295	0.34
245.512	14.68
245.729	4.44
245.946	104.79
246.163	43.35
246.38	14.68
246.597	55.64
246.814	51.54
247.031	0.34
247.248	-1.71
247.464	24.92
247.681	39.25
247.898	47.44
248.115	74.07
248.332	39.25
248.549	31.06
248.766	72.02
248.983	59.73
249.2	-13.99
249.417	-54.95
249.633	-7.85
249.85	59.73
250.067	22.87
250.284	63.83
250.501	-38.57
250.717	24.92
250.934	6.49
251.151	16.73
251.368	24.92
251.585	-7.85
251.801	22.87
252.018	6.49
252.235	65.88
252.451	-42.67
252.668	-22.19
252.885	74.07
253.102	-42.67
253.318	80.21
253.535	22.87
253.752	51.54
253.968	18.77
254.185	31.06
254.401	18.77
254.618	47.44
254.835	67.92
255.051	67.92
255.268	14.68
255.484	59.73
255.701	16.73
255.917	55.64
256.134	8.53
256.351	-57
256.567	-50.86
256.784	88.4
257	-1.71
257.217	35.16
257.433	12.63
257.65	-16.04
257.866	24.92
258.082	22.87
258.299	-32.43
258.515	63.83
258.732	10.58
258.948	8.53
259.165	22.87
259.381	-26.28
259.597	-18.09
259.814	29.01
260.03	29.01
260.246	0.34
260.463	-9.9
260.679	90.45
260.895	22.87
261.112	55.64
261.328	-26.28
261.544	14.68
261.761	88.4
261.977	-69.29
262.193	-34.47
262.409	-9.9
262.626	-32.43
262.842	55.64
263.058	-34.47
263.274	104.79
263.49	-1.71
263.707	-75.43
263.923	16.73
264.139	-1.71
264.355	45.4
264.571	16.73
264.787	49.49
265.004	55.64
265.22	0.34
265.436	-5.8
265.652	-24.23
265.868	88.4
266.084	-38.57
266.3	55.64
266.516	0.34
266.732	41.3
266.948	26.96
267.164	31.06
267.38	92.5
267.596	14.68
267.812	112.98
268.028	43.35
268.244	41.3
268.46	35.16
268.676	4.44
268.892	104.79
269.108	22.87
269.324	33.11
269.54	-5.8
269.756	47.44
269.972	-32.43
270.188	29.01
270.403	-3.75
270.619	63.83
270.835	-7.85
271.051	-11.95
271.267	-9.9
271.483	-7.85
271.698	39.25
271.914	72.02
272.13	22.87
272.346	33.11
272.562	12.63
272.777	39.25
272.993	55.64
273.209	22.87
273.425	57.68
273.64	24.92
273.856	2.39
274.072	-20.14
274.287	88.4
274.503	33.11
274.719	61.78
274.934	47.44
275.15	-22.19
275.366	31.06
275.581	-38.57
275.797	-54.95
276.012	26.96
276.228	-83.63
276.444	49.49
276.659	96.6
276.875	14.68
277.09	59.73
277.306	10.58
277.521	55.64
277.737	-18.09
277.952	61.78
278.168	24.92
278.383	55.64
278.599	41.3
278.814	33.11
279.03	20.82
279.245	39.25
279.461	45.4
279.676	63.83
279.892	-1.71
280.107	-9.9
280.322	26.96
280.538	63.83
280.753	22.87
280.969	49.49
281.184	18.77
281.399	39.25
281.615	14.68
281.83	4.44
282.045	-18.09
282.26	10.58
282.476	22.87
282.691	117.08
282.906	26.96
283.122	49.49
283.337	47.44
283.552	72.02
283.767	2.39
283.983	80.21
284.198	31.06
284.413	14.68
284.628	22.87
284.843	98.64
285.058	-16.04
285.274	14.68
285.489	-24.23
285.704	82.26
285.919	51.54
286.134	-3.75
286.349	119.12
286.564	49.49
286.779	18.77
286.995	49.49
287.21	24.92
287.425	55.64
287.64	6.49
287.855	0.34
288.07	-54.95
288.285	24.92
288.5	10.58
288.715	8.53
288.93	10.58
289.145	39.25
289.36	55.64
289.575	-32.43
289.79	141.65
290.004	47.44
290.219	-5.8
290.434	47.44
290.649	-3.75
290.864	2.39
291.079	22.87
291.294	96.6
291.509	-40.62
291.724	22.87
291.938	-34.47
292.153	55.64
292.368	-26.28
292.583	57.68
292.798	39.25
293.012	88.4
293.227	57.68
293.442	67.92
293.657	41.3
293.871	39.25
294.086	6.49
294.301	115.03
294.516	47.44
294.73	72.02
294.945	-32.43
295.16	-18.09
295.374	35.16
295.589	121.17
295.804	-100.01
296.018	-28.33
296.233	49.49
296.447	31.06
296.662	24.92
296.877	90.45
297.091	0.34
297.306	-50.86
297.52	80.21
297.735	-9.9
297.949	-9.9
298.164	69.97
298.378	22.87
298.593	26.96
298.807	35.16
299.022	-28.33
299.236	-1.71
299.451	57.68
299.665	24.92
299.88	6.49
300.094	80.21
300.309	63.83
300.523	51.54
300.737	-30.38
300.952	8.53
301.166	31.06
301.381	2.39
301.595	0.34
301.809	49.49
302.024	-26.28
302.238	6.49
302.452	18.77
302.667	-18.09
302.881	51.54
303.095	31.06
303.309	8.53
303.524	-13.99
303.738	39.25
303.952	-7.85
304.166	49.49
304.381	-77.48
304.595	41.3
304.809	35.16
305.023	8.53
305.237	-11.95
305.452	57.68
305.666	10.58
305.88	57.68
306.094	31.06
306.308	88.4
306.522	37.2
306.736	-71.34
306.95	41.3
307.164	59.73
307.379	14.68
307.593	31.06
307.807	47.44
308.021	90.45
308.235	18.77
308.449	-24.23
308.663	-1.71
308.877	49.49
309.091	14.68
309.305	112.98
309.519	8.53
309.733	2.39
309.947	55.64
310.161	41.3
310.374	2.39
310.588	57.68
310.802	-36.52
311.016	55.64
311.23	72.02
311.444	-28.33
311.658	-7.85
311.872	129.36
312.085	37.2
312.299	20.82
312.513	12.63
312.727	69.97
312.941	35.16
313.154	41.3
313.368	72.02
313.582	96.6
313.796	31.06
314.009	31.06
314.223	6.49
314.437	-5.8
314.651	63.83
314.864	14.68
315.078	59.73
315.292	47.44
315.505	100.69
315.719	29.01
315.933	41.3
316.146	26.96
316.36	22.87
316.573	67.92
316.787	39.25
317.001	47.44
317.214	-46.76
317.428	63.83
317.641	-5.8
317.855	31.06
318.068	-7.85
318.282	-26.28
318.495	82.26
318.709	-24.23
318.922	-9.9
319.136	74.07
319.349	86.36
319.563	72.02
319.776	49.49
319.99	-22.19
320.203	88.4
320.417	6.49
320.63	8.53
320.843	-32.43
321.057	14.68
321.27	53.59
321.483	-5.8
321.697	-5.8
321.91	-16.04
322.124	49.49
322.337	39.25
322.55	-1.71
322.763	76.12
322.977	31.06
323.19	6.49
323.403	10.58
323.617	41.3
323.83	24.92
324.043	47.44
324.256	35.16
324.469	74.07
324.683	67.92
324.896	24.92
325.109	2.39
325.322	-18.09
325.535	88.4
325.748	24.92
325.962	49.49
326.175	63.83
326.388	121.17
326.601	55.64
326.814	59.73
327.027	-9.9
327.24	55.64
327.453	16.73
327.666	55.64
327.879	-13.99
328.092	82.26
328.305	6.49
328.518	51.54
328.731	-30.38
328.944	22.87
329.157	72.02
329.37	-34.47
329.583	22.87
329.796	31.06
330.009	31.06
330.222	8.53
330.435	0.34
330.648	-18.09
330.861	16.73
331.073	45.4
331.286	112.98
331.499	53.59
331.712	45.4
331.925	-9.9
332.138	47.44
332.35	65.88
332.563	49.49
332.776	22.87
332.989	-42.67
333.202	10.58
333.414	63.83
333.627	-26.28
333.84	14.68
334.053	-5.8
334.265	41.3
334.478	2.39
334.691	67.92
334.903	57.68
335.116	-46.76
335.329	72.02
335.541	94.55
335.754	110.93
335.966	33.11
336.179	63.83
336.392	22.87
336.604	41.3
336.817	8.53
337.029	2.39
337.242	45.4
337.454	37.2
337.667	-7.85
337.88	37.2
338.092	10.58
338.305	31.06
338.517	-9.9
338.729	18.77
338.942	112.98
339.154	65.88
339.367	-16.04
339.579	49.49
339.792	-16.04
340.004	47.44
340.217	96.6
340.429	76.12
340.641	-50.86
340.854	41.3
341.066	65.88
341.278	63.83
341.491	39.25
341.703	10.58
341.915	43.35
342.128	55.64
342.34	67.92
342.552	47.44
342.764	24.92
342.977	6.49
343.189	-7.85
343.401	47.44
343.613	-9.9
343.826	31.06
344.038	-73.39
344.25	41.3
344.462	6.49
344.674	29.01
344.886	-16.04
345.099	35.16
345.311	26.96
345.523	22.87
345.735	-30.38
345.947	100.69
346.159	0.34
346.371	96.6
346.583	-5.8
346.795	72.02
347.007	18.77
347.219	67.92
347.431	-13.99
347.643	31.06
347.855	6.49
348.067	43.35
348.279	39.25
348.491	35.16
348.703	8.53
348.915	39.25
349.127	80.21
349.339	6.49
349.551	57.68
349.763	8.53
349.975	65.88
350.187	35.16
350.399	0.34
350.61	63.83
350.822	2.39
351.034	43.35
351.246	57.68
351.458	49.49
351.669	74.07
351.881	63.83
352.093	153.94
352.305	41.3
352.517	29.01
352.728	37.2
352.94	24.92
353.152	84.31
353.363	-18.09
353.575	33.11
353.787	96.6
353.999	-32.43
354.21	57.68
354.422	6.49
354.633	112.98
354.845	90.45
355.057	37.2
355.268	2.39
355.48	45.4
355.692	-9.9
355.903	69.97
356.115	16.73
356.326	-54.95
356.538	90.45
356.749	51.54
356.961	72.02
357.172	35.16
357.384	-18.09
357.595	33.11
357.807	49.49
358.018	-50.86
358.23	59.73
358.441	72.02
358.653	20.82
358.864	72.02
359.075	20.82
359.287	-5.8
359.498	108.88
359.709	43.35
359.921	22.87
360.132	47.44
360.344	8.53
360.555	8.53
360.766	-9.9
360.977	-26.28
361.189	22.87
361.4	41.3
361.611	106.84
361.823	129.36
362.034	72.02
362.245	39.25
362.456	31.06
362.667	31.06
362.879	-9.9
363.09	41.3
363.301	57.68
363.512	16.73
363.723	22.87
363.935	26.96
364.146	2.39
364.357	47.44
364.568	-50.86
364.779	76.12
364.99	8.53
365.201	47.44
365.412	106.84
365.623	4.44
365.834	41.3
366.045	35.16
366.256	41.3
366.467	33.11
366.678	39.25
366.889	80.21
367.1	63.83
367.311	26.96
367.522	72.02
367.733	37.2
367.944	12.63
368.155	24.92
368.366	92.5
368.577	153.94
368.788	100.69
368.999	-26.28
369.209	49.49
369.42	147.8
369.631	35.16
369.842	76.12
370.053	2.39
370.264	63.83
370.474	6.49
370.685	-5.8
370.896	55.64
371.107	84.31
371.317	-9.9
371.528	-16.04
371.739	16.73
371.95	8.53
372.16	47.44
372.371	35.16
372.582	6.49
372.792	2.39
373.003	-16.04
373.214	39.25
373.424	31.06
373.635	29.01
373.846	35.16
374.056	-28.33
374.267	106.84
374.477	49.49
374.688	-34.47
374.898	143.7
375.109	6.49
375.319	84.31
375.53	137.56
375.74	67.92
375.951	82.26
376.161	76.12
376.372	72.02
376.582	-26.28
376.793	80.21
377.003	22.87
377.214	16.73
377.424	35.16
377.635	33.11
377.845	31.06
378.055	92.5
378.266	0.34
378.476	63.83
378.686	86.36
378.897	-1.71
379.107	72.02
379.317	43.35
379.528	63.83
379.738	78.16
379.948	22.87
380.158	4.44
380.369	86.36
380.579	88.4
380.789	35.16
380.999	14.68
381.21	6.49
381.42	98.64
381.63	49.49
381.84	31.06
382.05	26.96
382.261	88.4
382.471	-26.28
382.681	41.3
382.891	41.3
383.101	-11.95
383.311	20.82
383.521	-7.85
383.731	115.03
383.941	6.49
384.151	18.77
384.361	78.16
384.571	43.35
384.781	31.06
384.991	72.02
385.201	90.45
385.411	41.3
385.621	80.21
385.831	24.92
386.041	39.25
386.251	6.49
386.461	47.44
386.671	76.12
386.881	76.12
387.091	106.84
387.301	106.84
387.511	61.78
387.72	53.59
387.93	63.83
388.14	6.49
388.35	100.69
388.56	104.79
388.769	57.68
388.979	67.92
389.189	112.98
389.399	55.64
389.609	104.79
389.818	51.54
390.028	6.49
390.238	41.3
390.447	6.49
390.657	8.53
390.867	57.68
391.076	33.11
391.286	100.69
391.496	72.02
391.705	55.64
391.915	74.07
392.125	33.11
392.334	47.44
392.544	57.68
392.753	80.21
392.963	84.31
393.172	86.36
393.382	0.34
393.591	88.4
393.801	45.4
394.01	162.13
394.22	35.16
394.429	41.3
394.639	55.64
394.848	55.64
395.058	55.64
395.267	55.64
395.477	37.2
395.686	33.11
395.895	100.69
396.105	211.28
396.314	47.44
396.524	96.6
396.733	88.4
396.942	63.83
397.152	117.08
397.361	47.44
397.57	-9.9
397.78	74.07
397.989	98.64
398.198	98.64
398.407	92.5
398.617	22.87
398.826	39.25
399.035	125.27
399.244	82.26
399.453	170.32
399.663	96.6
399.872	55.64
400.081	-1.71
400.29	72.02
400.499	10.58
400.708	112.98
400.917	86.36
401.127	63.83
401.336	14.68
401.545	92.5
401.754	133.46
401.963	80.21
402.172	74.07
402.381	72.02
402.59	170.32
402.799	102.74
403.008	108.88
403.217	98.64
403.426	76.12
403.635	-18.09
403.844	72.02
404.053	100.69
404.262	96.6
404.471	162.13
404.68	84.31
404.888	110.93
405.097	117.08
405.306	133.46
405.515	112.98
405.724	190.8
405.933	145.75
406.142	170.32
406.35	137.56
406.559	151.89
406.768	178.51
406.977	188.75
407.185	155.99
407.394	219.47
407.603	131.41
407.812	190.8
408.02	184.66
408.229	178.51
408.438	182.61
408.646	147.8
408.855	282.96
409.064	178.51
409.272	176.47
409.481	276.82
409.69	178.51
409.898	207.19
410.107	203.09
410.315	219.47
410.524	266.58
410.733	311.63
410.941	264.53
411.15	280.91
411.358	231.76
411.567	356.69
411.775	301.39
411.984	323.92
412.192	366.93
412.401	313.68
412.609	371.02
412.818	481.61
413.026	426.32
413.234	409.94
413.443	489.81
413.651	426.32
413.86	375.12
414.068	465.23
414.276	485.71
414.485	498
414.693	547.15
414.901	575.82
415.11	571.72
415.318	514.38
415.526	594.25
415.734	541.01
415.943	608.59
416.151	702.79
416.359	635.21
416.567	612.68
416.776	647.5
416.984	803.15
417.192	756.04
417.4	645.45
417.608	831.82
417.817	792.91
418.025	866.63
418.233	909.64
418.441	786.76
418.649	854.34
418.857	928.07
419.065	1016.13
419.273	983.37
419.481	1009.99
419.689	1046.85
419.897	1071.43
420.105	1118.53
420.313	1227.07
420.521	1245.51
420.729	1235.27
420.937	1259.84
421.145	1415.49
421.353	1419.58
421.561	1466.69
421.769	1515.84
421.977	1534.27
422.185	1515.84
422.393	1687.87
422.601	1710.4
422.809	1874.23
423.017	1730.87
423.224	1857.85
423.432	1851.71
423.64	1874.23
423.848	2038.07
424.056	1952.06
424.263	2103.61
424.471	2193.72
424.679	2226.48
424.887	2294.07
425.094	2400.56
425.302	2515.25
425.51	2459.95
425.718	2545.97
425.925	2648.36
426.133	2722.09
426.341	2853.16
426.548	2933.03
426.756	2965.8
426.964	3021.1
427.171	3121.45
427.379	3258.66
427.586	3213.6
427.794	3373.35
428.001	3545.38
428.209	3784.99
428.417	3576.09
428.624	3799.32
428.832	4038.94
429.039	3907.87
429.247	3801.37
429.454	4174.1
429.662	4374.8
429.869	4268.31
430.076	4585.74
430.284	4481.3
430.491	4464.91
430.699	4790.54
430.906	4927.75
431.114	4929.8
431.321	5038.34
431.528	5204.23
431.736	5593.34
431.943	5810.43
432.15	5497.09
432.358	5581.06
432.565	5871.87
432.772	5953.79
432.979	6258.93
433.187	6363.38
433.394	6275.32
433.601	6908.14
433.808	6881.52
434.016	6873.32
434.223	7147.75
434.43	7622.88
434.637	7358.69
434.844	7829.73
435.052	7971.04
435.259	7903.45
435.466	7932.12
435.673	7913.69
435.88	8630.48
436.087	8902.86
436.294	8958.16
436.501	8777.94
436.708	8820.94
436.915	9195.72
437.122	9478.34
437.329	9281.74
437.537	9926.85
437.743	10027.2
437.95	9924.8
438.157	10485.94
438.364	11083.95
438.571	10672.31
438.778	10961.07
438.985	11663.52
439.192	11434.15
439.399	11720.87
439.606	11462.82
439.813	12136.6
440.02	12920.98
440.227	12585.11
440.433	12531.86
440.64	12867.73
440.847	12601.49
441.054	13019.28
441.261	13867.14
441.467	13781.12
441.674	14139.52
441.881	14698.61
442.088	14342.27
442.294	14487.67
442.501	14747.76
442.708	15102.06
442.914	15859.81
443.121	16418.91
443.328	15751.27
443.534	17004.63
443.741	16679
443.948	16185.44
444.154	17672.26
444.361	17317.97
444.568	17485.9
444.774	17586.25
444.981	17784.9
445.187	18352.19
445.394	19095.6
445.6	18626.62
445.807	21047.32
446.013	19658.79
446.22	20328.48
446.426	20779.03
446.633	20875.29
446.839	21350.42
447.046	20752.41
447.252	22009.86
447.459	22042.63
447.665	21960.71
447.871	23095.28
448.078	23820.27
448.284	22669.31
448.491	23410.67
448.697	24477.66
448.903	24721.37
449.11	24854.49
449.316	24668.12
449.522	24985.56
449.728	25728.97
449.935	25669.58
450.141	25489.36
450.347	26425.28
450.553	25671.63
450.76	26107.85
450.966	26988.47
451.172	26589.12
451.378	27170.74
451.584	26564.54
451.791	27447.22
451.997	27195.32
452.203	27883.44
452.409	27959.21
452.615	27903.92
452.821	26814.4
453.027	26296.26
453.233	28090.28
453.44	26787.77
453.646	27127.74
453.852	27107.26
454.058	27801.52
454.264	26982.33
454.47	27678.64
454.676	26603.46
454.882	27740.08
455.088	25253.84
455.294	26025.93
455.5	26095.56
455.705	26488.77
455.911	25464.78
456.117	24936.41
456.323	24682.46
456.529	23459.82
456.735	24461.28
456.941	23791.59
457.147	23390.19
457.352	22910.97
457.558	22550.53
457.764	22405.12
457.97	22130.69
458.176	21612.56
458.381	21768.2
458.587	20748.31
458.793	20736.02
458.999	19281.97
459.204	21237.78
459.41	20176.93
459.616	19273.78
459.821	19058.74
460.027	19357.74
460.233	18872.37
460.438	17948.74
460.644	17832.01
460.85	17145.94
461.055	16963.67
461.261	16971.86
461.466	15599.72
461.672	15231.08
461.878	16373.85
462.083	15288.43
462.289	14852.21
462.494	14727.28
462.7	14043.26
462.905	13760.64
463.111	14350.46
463.316	14258.3
463.522	13987.97
463.727	13985.92
463.932	14190.72
464.138	13658.24
464.343	14061.69
464.549	13447.3
464.754	13965.44
464.959	13738.12
465.165	13633.67
465.37	13201.55
465.575	12888.21
465.781	13170.83
465.986	13533.32
466.191	12888.21
466.397	12740.75
466.602	12081.31
466.807	12523.67
467.012	12456.09
467.218	12359.83
467.423	12245.15
467.628	12458.14
467.833	12923.02
468.038	12345.5
468.244	11968.67
468.449	12624.02
