Data from USB4F104151__37__14-42-53-184.txt Node

Date: Thu Mar 13 14:42:53 EDT 2025
User: louis
Spectrometer: USB4F10415
Trigger mode: 4
Integration Time (sec): 2.000000E-2
Scans to average: 1
Electric dark correction enabled: true
Nonlinearity correction enabled: false
Boxcar width: 0
XAxis mode: Wavelengths
Number of Pixels in Spectrum: 3648
>>>>>Begin Spectral Data<<<<<
178.204	-122.71
178.424	-122.71
178.644	-122.71
178.864	-100.18
179.084	-143.19
179.304	-20.31
179.524	-61.27
179.744	-3.93
179.964	63.66
180.184	-65.36
180.404	-36.69
180.624	18.6
180.844	39.08
181.064	-8.02
181.283	-12.12
181.503	37.03
181.723	49.32
181.943	-32.6
182.163	98.47
182.383	26.79
182.602	92.33
182.822	59.56
183.042	121
183.262	53.42
183.482	18.6
183.701	82.09
183.921	53.42
184.141	12.46
184.361	73.9
184.58	65.71
184.8	69.8
185.02	-5.97
185.239	65.71
185.459	-8.02
185.679	65.71
185.898	-22.36
186.118	32.94
186.338	12.46
186.557	-22.36
186.777	51.37
186.997	67.75
187.216	12.46
187.436	80.04
187.655	55.47
187.875	59.56
188.095	43.18
188.314	131.24
188.534	77.99
188.753	-3.93
188.973	32.94
189.192	139.43
189.412	0.17
189.631	32.94
189.851	57.51
190.07	34.99
190.29	-44.88
190.509	39.08
190.729	114.86
190.948	24.75
191.168	157.86
191.387	-28.5
191.607	106.67
191.826	-8.02
192.045	73.9
192.265	8.36
192.484	24.75
192.704	37.03
192.923	18.6
193.142	77.99
193.362	49.32
193.581	82.09
193.8	10.41
194.02	108.71
194.239	-16.21
194.458	100.52
194.678	-3.93
194.897	18.6
195.116	67.75
195.335	37.03
195.555	84.14
195.774	32.94
195.993	96.43
196.212	49.32
196.432	63.66
196.651	49.32
196.87	98.47
197.089	96.43
197.308	110.76
197.528	73.9
197.747	18.6
197.966	114.86
198.185	61.61
198.404	71.85
198.623	86.19
198.842	34.99
199.062	106.67
199.281	65.71
199.5	12.46
199.719	-38.74
199.938	90.28
200.157	8.36
200.376	20.65
200.595	77.99
200.814	-5.97
201.033	12.46
201.252	32.94
201.471	-1.88
201.69	24.75
201.909	90.28
202.128	90.28
202.347	88.23
202.566	32.94
202.785	88.23
203.004	32.94
203.223	108.71
203.442	80.04
203.661	2.22
203.879	100.52
204.098	84.14
204.317	24.75
204.536	12.46
204.755	-5.97
204.974	141.48
205.193	94.38
205.411	57.51
205.63	20.65
205.849	73.9
206.068	-5.97
206.287	61.61
206.505	43.18
206.724	8.36
206.943	94.38
207.162	4.27
207.381	-8.02
207.599	90.28
207.818	65.71
208.037	98.47
208.255	24.75
208.474	0.17
208.693	28.84
208.911	65.71
209.13	80.04
209.349	26.79
209.567	4.27
209.786	141.48
210.005	28.84
210.223	59.56
210.442	22.7
210.661	96.43
210.879	41.13
211.098	24.75
211.316	-32.6
211.535	94.38
211.753	39.08
211.972	-46.93
212.191	-8.02
212.409	75.95
212.628	90.28
212.846	98.47
213.065	59.56
213.283	8.36
213.502	8.36
213.72	94.38
213.938	16.55
214.157	106.67
214.375	41.13
214.594	65.71
214.812	73.9
215.031	82.09
215.249	-8.02
215.467	61.61
215.686	73.9
215.904	18.6
216.122	139.43
216.341	96.43
216.559	106.67
216.778	49.32
216.996	90.28
217.214	67.75
217.432	49.32
217.651	18.6
217.869	34.99
218.087	114.86
218.306	32.94
218.524	34.99
218.742	8.36
218.96	41.13
219.179	69.8
219.397	41.13
219.615	2.22
219.833	49.32
220.051	18.6
220.27	67.75
220.488	2.22
220.706	98.47
220.924	57.51
221.142	86.19
221.36	-14.17
221.578	63.66
221.796	-10.07
222.015	47.27
222.233	2.22
222.451	59.56
222.669	-28.5
222.887	16.55
223.105	2.22
223.323	18.6
223.541	16.55
223.759	141.48
223.977	24.75
224.195	82.09
224.413	57.51
224.631	39.08
224.849	-24.4
225.067	141.48
225.285	-24.4
225.503	43.18
225.721	30.89
225.939	59.56
226.157	59.56
226.375	106.67
226.592	34.99
226.81	2.22
227.028	94.38
227.246	100.52
227.464	131.24
227.682	65.71
227.9	47.27
228.117	65.71
228.335	4.27
228.553	110.76
228.771	59.56
228.989	82.09
229.206	67.75
229.424	53.42
229.642	82.09
229.86	59.56
230.077	65.71
230.295	67.75
230.513	84.14
230.731	24.75
230.948	106.67
231.166	100.52
231.384	51.37
231.601	77.99
231.819	82.09
232.037	67.75
232.254	24.75
232.472	26.79
232.689	-73.56
232.907	75.95
233.125	43.18
233.342	39.08
233.56	37.03
233.777	100.52
233.995	147.62
234.213	69.8
234.43	73.9
234.648	-30.55
234.865	34.99
235.083	67.75
235.3	24.75
235.518	37.03
235.735	57.51
235.953	106.67
236.17	41.13
236.388	34.99
236.605	14.51
236.822	86.19
237.04	90.28
237.257	55.47
237.475	49.32
237.692	110.76
237.909	30.89
238.127	57.51
238.344	90.28
238.562	114.86
238.779	30.89
238.996	28.84
239.214	110.76
239.431	84.14
239.648	106.67
239.865	51.37
240.083	34.99
240.3	71.85
240.517	10.41
240.735	47.27
240.952	55.47
241.169	28.84
241.386	-22.36
241.603	24.75
241.821	-24.4
242.038	90.28
242.255	41.13
242.472	-16.21
242.689	-48.98
242.907	116.9
243.124	104.62
243.341	53.42
243.558	32.94
243.775	20.65
243.992	-8.02
244.209	73.9
244.426	108.71
244.643	43.18
244.86	51.37
245.078	55.47
245.295	110.76
245.512	63.66
245.729	16.55
245.946	49.32
246.163	65.71
246.38	24.75
246.597	110.76
246.814	20.65
247.031	104.62
247.248	73.9
247.464	37.03
247.681	2.22
247.898	26.79
248.115	59.56
248.332	34.99
248.549	37.03
248.766	135.34
248.983	106.67
249.2	18.6
249.417	63.66
249.633	71.85
249.85	10.41
250.067	137.38
250.284	-5.97
250.501	16.55
250.717	73.9
250.934	26.79
251.151	20.65
251.368	26.79
251.585	16.55
251.801	92.33
252.018	90.28
252.235	16.55
252.451	16.55
252.668	73.9
252.885	67.75
253.102	86.19
253.318	73.9
253.535	-53.08
253.752	69.8
253.968	41.13
254.185	45.23
254.401	-12.12
254.618	65.71
254.835	82.09
255.051	53.42
255.268	37.03
255.484	73.9
255.701	16.55
255.917	82.09
256.134	-18.26
256.351	26.79
256.567	24.75
256.784	8.36
257	34.99
257.217	41.13
257.433	34.99
257.65	24.75
257.866	77.99
258.082	12.46
258.299	-26.45
258.515	49.32
258.732	32.94
258.948	34.99
259.165	-12.12
259.381	34.99
259.597	106.67
259.814	-16.21
260.03	53.42
260.246	73.9
260.463	65.71
260.679	20.65
260.895	59.56
261.112	73.9
261.328	82.09
261.544	51.37
261.761	106.67
261.977	57.51
262.193	14.51
262.409	53.42
262.626	123.05
262.842	57.51
263.058	-5.97
263.274	59.56
263.49	-8.02
263.707	2.22
263.923	73.9
264.139	18.6
264.355	24.75
264.571	77.99
264.787	12.46
265.004	116.9
265.22	32.94
265.436	30.89
265.652	92.33
265.868	96.43
266.084	82.09
266.3	34.99
266.516	6.31
266.732	69.8
266.948	-16.21
267.164	53.42
267.38	75.95
267.596	34.99
267.812	75.95
268.028	57.51
268.244	18.6
268.46	-8.02
268.676	4.27
268.892	96.43
269.108	-28.5
269.324	49.32
269.54	-8.02
269.756	49.32
269.972	49.32
270.188	6.31
270.403	73.9
270.619	2.22
270.835	129.19
271.051	63.66
271.267	59.56
271.483	57.51
271.698	0.17
271.914	41.13
272.13	45.23
272.346	96.43
272.562	49.32
272.777	82.09
272.993	30.89
273.209	37.03
273.425	106.67
273.64	82.09
273.856	12.46
274.072	80.04
274.287	45.23
274.503	32.94
274.719	67.75
274.934	-12.12
275.15	28.84
275.366	102.57
275.581	-16.21
275.797	51.37
276.012	90.28
276.228	55.47
276.444	34.99
276.659	123.05
276.875	-30.55
277.09	14.51
277.306	65.71
277.521	28.84
277.737	39.08
277.952	75.95
278.168	41.13
278.383	75.95
278.599	65.71
278.814	57.51
279.03	34.99
279.245	106.67
279.461	69.8
279.676	65.71
279.892	75.95
280.107	51.37
280.322	82.09
280.538	41.13
280.753	18.6
280.969	90.28
281.184	-40.79
281.399	106.67
281.615	69.8
281.83	123.05
282.045	-65.36
282.26	32.94
282.476	32.94
282.691	108.71
282.906	104.62
283.122	82.09
283.337	73.9
283.552	71.85
283.767	16.55
283.983	86.19
284.198	67.75
284.413	-24.4
284.628	-20.31
284.843	41.13
285.058	-32.6
285.274	45.23
285.489	-38.74
285.704	32.94
285.919	65.71
286.134	-12.12
286.349	24.75
286.564	18.6
286.779	94.38
286.995	57.51
287.21	12.46
287.425	108.71
287.64	100.52
287.855	43.18
288.07	61.61
288.285	43.18
288.5	51.37
288.715	16.55
288.93	34.99
289.145	-18.26
289.36	65.71
289.575	90.28
289.79	104.62
290.004	65.71
290.219	59.56
290.434	65.71
290.649	22.7
290.864	26.79
291.079	49.32
291.294	73.9
291.509	4.27
291.724	69.8
291.938	45.23
292.153	49.32
292.368	8.36
292.583	57.51
292.798	34.99
293.012	47.27
293.227	77.99
293.442	98.47
293.657	65.71
293.871	86.19
294.086	90.28
294.301	112.81
294.516	90.28
294.73	57.51
294.945	57.51
295.16	65.71
295.374	75.95
295.589	106.67
295.804	-3.93
296.018	106.67
296.233	34.99
296.447	2.22
296.662	10.41
296.877	43.18
297.091	106.67
297.306	84.14
297.52	-12.12
297.735	49.32
297.949	6.31
298.164	69.8
298.378	96.43
298.593	4.27
298.807	61.61
299.022	75.95
299.236	28.84
299.451	37.03
299.665	45.23
299.88	-12.12
300.094	39.08
300.309	51.37
300.523	65.71
300.737	67.75
300.952	41.13
301.166	92.33
301.381	-48.98
301.595	90.28
301.809	49.32
302.024	57.51
302.238	-5.97
302.452	73.9
302.667	2.22
302.881	84.14
303.095	67.75
303.309	24.75
303.524	65.71
303.738	20.65
303.952	65.71
304.166	82.09
304.381	-26.45
304.595	80.04
304.809	32.94
305.023	10.41
305.237	32.94
305.452	49.32
305.666	123.05
305.88	141.48
306.094	41.13
306.308	90.28
306.522	18.6
306.736	16.55
306.95	0.17
307.164	-46.93
307.379	69.8
307.593	155.82
307.807	59.56
308.021	59.56
308.235	69.8
308.449	43.18
308.663	49.32
308.877	143.53
309.091	127.14
309.305	51.37
309.519	-46.93
309.733	32.94
309.947	-28.5
310.161	59.56
310.374	61.61
310.588	174.25
310.802	49.32
311.016	28.84
311.23	26.79
311.444	-14.17
311.658	57.51
311.872	32.94
312.085	116.9
312.299	51.37
312.513	59.56
312.727	18.6
312.941	32.94
313.154	-57.17
313.368	32.94
313.582	49.32
313.796	37.03
314.009	123.05
314.223	65.71
314.437	84.14
314.651	100.52
314.864	90.28
315.078	12.46
315.292	6.31
315.505	49.32
315.719	6.31
315.933	-8.02
316.146	18.6
316.36	77.99
316.573	34.99
316.787	168.1
317.001	39.08
317.214	32.94
317.428	90.28
317.641	67.75
317.855	59.56
318.068	20.65
318.282	12.46
318.495	86.19
318.709	94.38
318.922	59.56
319.136	28.84
319.349	77.99
319.563	57.51
319.776	73.9
319.99	71.85
320.203	69.8
320.417	-28.5
320.63	92.33
320.843	149.67
321.057	67.75
321.27	28.84
321.483	69.8
321.697	82.09
321.91	-20.31
322.124	55.47
322.337	139.43
322.55	24.75
322.763	30.89
322.977	73.9
323.19	24.75
323.403	32.94
323.617	80.04
323.83	116.9
324.043	16.55
324.256	82.09
324.469	-16.21
324.683	77.99
324.896	75.95
325.109	37.03
325.322	34.99
325.535	90.28
325.748	73.9
325.962	102.57
326.175	94.38
326.388	131.24
326.601	41.13
326.814	84.14
327.027	28.84
327.24	82.09
327.453	61.61
327.666	71.85
327.879	34.99
328.092	10.41
328.305	2.22
328.518	32.94
328.731	39.08
328.944	84.14
329.157	28.84
329.37	59.56
329.583	61.61
329.796	90.28
330.009	53.42
330.222	49.32
330.435	77.99
330.648	57.51
330.861	-22.36
331.073	49.32
331.286	49.32
331.499	37.03
331.712	0.17
331.925	57.51
332.138	153.77
332.35	131.24
332.563	77.99
332.776	123.05
332.989	18.6
333.202	0.17
333.414	-12.12
333.627	67.75
333.84	65.71
334.053	-8.02
334.265	32.94
334.478	32.94
334.691	28.84
334.903	69.8
335.116	24.75
335.329	116.9
335.541	92.33
335.754	133.29
335.966	22.7
336.179	77.99
336.392	37.03
336.604	82.09
336.817	92.33
337.029	41.13
337.242	41.13
337.454	123.05
337.667	45.23
337.88	59.56
338.092	75.95
338.305	73.9
338.517	6.31
338.729	69.8
338.942	22.7
339.154	-16.21
339.367	16.55
339.579	127.14
339.792	-30.55
340.004	123.05
340.217	57.51
340.429	90.28
340.641	26.79
340.854	125.1
341.066	28.84
341.278	123.05
341.491	102.57
341.703	67.75
341.915	22.7
342.128	-24.4
342.34	155.82
342.552	-38.74
342.764	73.9
342.977	106.67
343.189	131.24
343.401	24.75
343.613	30.89
343.826	-3.93
344.038	-48.98
344.25	57.51
344.462	82.09
344.674	57.51
344.886	90.28
345.099	8.36
345.311	16.55
345.523	24.75
345.735	20.65
345.947	24.75
346.159	71.85
346.371	24.75
346.583	28.84
346.795	133.29
347.007	34.99
347.219	69.8
347.431	-1.88
347.643	0.17
347.855	8.36
348.067	80.04
348.279	-40.79
348.491	157.86
348.703	-10.07
348.915	86.19
349.127	84.14
349.339	65.71
349.551	-48.98
349.763	176.3
349.975	20.65
350.187	-77.65
350.399	98.47
350.61	53.42
350.822	73.9
351.034	67.75
351.246	24.75
351.458	28.84
351.669	125.1
351.881	98.47
352.093	106.67
352.305	73.9
352.517	4.27
352.728	143.53
352.94	100.52
353.152	100.52
353.363	10.41
353.575	80.04
353.787	98.47
353.999	57.51
354.21	141.48
354.422	51.37
354.633	34.99
354.845	34.99
355.057	59.56
355.268	147.62
355.48	20.65
355.692	-8.02
355.903	84.14
356.115	73.9
356.326	0.17
356.538	123.05
356.749	73.9
356.961	96.43
357.172	0.17
357.384	-14.17
357.595	71.85
357.807	-22.36
358.018	67.75
358.23	-5.97
358.441	108.71
358.653	73.9
358.864	92.33
359.075	59.56
359.287	80.04
359.498	77.99
359.709	16.55
359.921	67.75
360.132	106.67
360.344	28.84
360.555	-18.26
360.766	67.75
360.977	22.7
361.189	65.71
361.4	98.47
361.611	86.19
361.823	82.09
362.034	82.09
362.245	-20.31
362.456	32.94
362.667	20.65
362.879	61.61
363.09	67.75
363.301	59.56
363.512	77.99
363.723	6.31
363.935	82.09
364.146	92.33
364.357	24.75
364.568	47.27
364.779	30.89
364.99	80.04
365.201	8.36
365.412	12.46
365.623	28.84
365.834	24.75
366.045	121
366.256	121
366.467	86.19
366.678	45.23
366.889	63.66
367.1	96.43
367.311	45.23
367.522	26.79
367.733	127.14
367.944	90.28
368.155	-3.93
368.366	94.38
368.577	98.47
368.788	-3.93
368.999	16.55
369.209	10.41
369.42	88.23
369.631	82.09
369.842	102.57
370.053	57.51
370.264	28.84
370.474	32.94
370.685	39.08
370.896	0.17
371.107	82.09
371.317	118.95
371.528	65.71
371.739	32.94
371.95	45.23
372.16	34.99
372.371	-53.08
372.582	123.05
372.792	41.13
373.003	88.23
373.214	73.9
373.424	147.62
373.635	-32.6
373.846	94.38
374.056	-48.98
374.267	73.9
374.477	65.71
374.688	75.95
374.898	59.56
375.109	100.52
375.319	22.7
375.53	106.67
375.74	-14.17
375.951	20.65
376.161	0.17
376.372	116.9
376.582	-36.69
376.793	100.52
377.003	39.08
377.214	131.24
377.424	114.86
377.635	98.47
377.845	18.6
378.055	127.14
378.266	39.08
378.476	100.52
378.686	10.41
378.897	63.66
379.107	61.61
379.317	98.47
379.528	8.36
379.738	65.71
379.948	32.94
380.158	139.43
380.369	24.75
380.579	100.52
380.789	51.37
380.999	75.95
381.21	2.22
381.42	100.52
381.63	45.23
381.84	63.66
382.05	82.09
382.261	73.9
382.471	77.99
382.681	41.13
382.891	98.47
383.101	67.75
383.311	49.32
383.521	51.37
383.731	41.13
383.941	65.71
384.151	41.13
384.361	82.09
384.571	49.32
384.781	43.18
384.991	47.27
385.201	147.62
385.411	116.9
385.621	32.94
385.831	100.52
386.041	49.32
386.251	43.18
386.461	172.2
386.671	41.13
386.881	32.94
387.091	0.17
387.301	82.09
387.511	106.67
387.72	82.09
387.93	98.47
388.14	65.71
388.35	82.09
388.56	202.92
388.769	73.9
388.979	123.05
389.189	32.94
389.399	77.99
389.609	98.47
389.818	106.67
390.028	90.28
390.238	67.75
390.447	14.51
390.657	71.85
390.867	53.42
391.076	8.36
391.286	96.43
391.496	151.72
391.705	92.33
391.915	82.09
392.125	24.75
392.334	69.8
392.544	116.9
392.753	41.13
392.963	32.94
393.172	59.56
393.382	65.71
393.591	67.75
393.801	112.81
394.01	131.24
394.22	135.34
394.429	125.1
394.639	110.76
394.848	37.03
395.058	10.41
395.267	57.51
395.477	139.43
395.686	67.75
395.895	180.39
396.105	147.62
396.314	98.47
396.524	139.43
396.733	77.99
396.942	108.71
397.152	102.57
397.361	164.01
397.57	57.51
397.78	86.19
397.989	123.05
398.198	196.78
398.407	110.76
398.617	98.47
398.826	75.95
399.035	141.48
399.244	129.19
399.453	30.89
399.663	88.23
399.872	123.05
400.081	84.14
400.29	180.39
400.499	96.43
400.708	159.91
400.917	65.71
401.127	114.86
401.336	90.28
401.545	213.16
401.754	131.24
401.963	147.62
402.172	139.43
402.381	102.57
402.59	108.71
402.799	149.67
403.008	118.95
403.217	141.48
403.426	192.68
403.635	41.13
403.844	131.24
404.053	98.47
404.262	147.62
404.471	139.43
404.68	141.48
404.888	131.24
405.097	108.71
405.306	178.34
405.515	123.05
405.724	90.28
405.933	168.1
406.142	98.47
406.35	215.21
406.559	256.17
406.768	180.39
406.977	237.74
407.185	198.82
407.394	243.88
407.603	143.53
407.812	241.83
408.02	213.16
408.229	303.27
408.438	180.39
408.646	192.68
408.855	227.5
409.064	288.93
409.272	168.1
409.481	354.47
409.69	270.5
409.898	276.65
410.107	315.56
410.315	344.23
410.524	282.79
410.733	336.04
410.941	290.98
411.15	360.61
411.358	360.61
411.567	424.1
411.775	385.19
411.984	368.81
412.192	401.57
412.401	422.05
412.609	442.53
412.818	458.92
413.026	561.31
413.234	458.92
413.443	506.02
413.651	426.15
413.86	469.16
414.068	600.23
414.276	581.79
414.485	557.22
414.693	690.34
414.901	651.42
415.11	647.33
415.318	676
415.526	704.67
415.734	610.47
415.943	692.38
416.151	782.49
416.359	725.15
416.567	735.39
416.776	782.49
416.984	903.32
417.192	956.57
417.4	911.52
417.608	876.7
417.817	927.9
418.025	929.95
418.233	1114.27
418.441	1020.06
418.649	1056.92
418.857	1130.65
419.065	1083.55
419.273	1294.49
419.481	1099.93
419.689	1253.53
419.897	1276.06
420.105	1280.15
420.313	1376.41
420.521	1435.8
420.729	1476.76
420.937	1493.14
421.145	1601.68
421.353	1573.01
421.561	1704.08
421.769	1683.6
421.977	1855.63
422.185	1786
422.393	1958.03
422.601	2031.76
422.809	1978.51
423.017	1990.8
423.224	2082.95
423.432	2162.83
423.64	2166.92
423.848	2347.14
424.056	2324.62
424.263	2601.09
424.471	2375.81
424.679	2496.64
424.887	2621.57
425.094	2746.5
425.302	2893.95
425.51	2900.09
425.718	3014.78
425.925	3080.32
426.133	3129.47
426.341	3301.5
426.548	3369.08
426.756	3367.03
426.964	3502.2
427.171	3604.6
427.379	3623.03
427.586	3885.17
427.794	3819.63
428.001	4137.07
428.209	4190.31
428.417	4210.79
428.624	4544.61
428.832	4474.98
429.039	4444.26
429.247	4464.74
429.454	4991.07
429.662	5124.19
429.869	4956.26
430.076	5263.45
430.284	5050.46
430.491	5257.31
430.699	5615.7
430.906	5632.08
431.114	5736.53
431.321	5961.81
431.528	6017.1
431.736	6275.15
431.943	6645.83
432.15	6463.56
432.358	6694.98
432.565	6993.98
432.772	6914.11
432.979	7200.83
433.187	7290.94
433.394	7381.05
433.601	7804.98
433.808	7852.08
434.016	8054.83
434.223	8128.56
434.43	8644.65
434.637	8382.51
434.844	8912.93
435.052	9267.23
435.259	9166.88
435.466	9218.08
435.673	9019.43
435.88	9809.94
436.087	10182.67
436.294	10117.14
436.501	10076.18
436.708	10215.44
436.915	10571.79
437.122	10864.64
437.329	11257.85
437.537	11227.14
437.743	11651.06
437.95	11489.28
438.157	11993.08
438.364	12220.4
438.571	12263.41
438.778	12492.78
438.985	13721.56
439.192	13086.69
439.399	13512.67
439.606	13109.22
439.813	14032.85
440.02	14858.18
440.227	14286.8
440.433	14182.35
440.64	15075.27
440.847	14567.37
441.054	15138.76
441.261	16037.81
441.467	15757.24
441.674	16101.3
441.881	16578.48
442.088	16474.03
442.294	16306.1
442.501	16902.06
442.708	17276.84
442.914	17825.69
443.121	18900.87
443.328	18239.38
443.534	19406.72
443.741	19173.25
443.948	18806.67
444.154	20174.71
444.361	19853.18
444.568	20010.87
444.774	19931
444.981	20533.11
445.187	20801.39
445.394	21907.29
445.6	21448.55
445.807	23455.56
446.013	22552.4
446.22	22640.47
446.426	23977.79
446.633	24368.95
446.839	25132.84
447.046	24004.41
447.252	25241.39
447.459	25278.25
447.665	25464.61
447.871	26140.44
448.078	27281.16
448.284	26296.09
448.491	26773.27
448.697	27963.14
448.903	28385.02
449.11	28454.65
449.316	27997.95
449.522	28430.07
449.728	29097.71
449.935	29544.17
450.141	29517.54
450.347	30015.2
450.553	29226.73
450.76	29564.65
450.966	30662.36
451.172	30172.89
451.378	31309.52
451.584	30549.72
451.791	31334.09
451.997	31123.15
452.203	31405.77
452.409	31569.61
452.615	31555.27
452.821	30392.03
453.027	29988.58
453.233	31960.77
453.44	30480.09
453.646	30850.77
453.852	30949.07
454.058	31598.28
454.264	30596.82
454.47	31434.44
454.676	30527.19
454.882	31465.16
455.088	28972.78
455.294	29187.82
455.5	29464.3
455.705	30027.49
455.911	28794.61
456.117	28002.05
456.323	27799.3
456.529	26345.24
456.735	27739.91
456.941	27158.28
457.147	26603.28
457.352	25749.28
457.558	25337.64
457.764	25663.27
457.97	25458.47
458.176	24647.47
458.381	24680.24
458.587	23357.25
458.793	23406.41
458.999	22110.04
459.204	23873.34
459.41	22964.04
459.616	21593.95
459.821	21608.29
460.027	21632.86
460.233	21055.34
460.438	20381.56
460.644	20436.85
460.85	19304.32
461.055	19109.77
461.261	19216.26
461.466	17743.77
461.672	17350.56
461.878	18268.05
462.083	17055.65
462.289	16988.07
462.494	16779.18
462.7	15966.14
462.905	15294.4
463.111	16107.44
463.316	16003
463.522	15540.16
463.727	15753.15
463.932	15798.2
464.138	15384.51
464.343	15728.57
464.549	14948.29
464.754	15624.12
464.959	15278.02
465.165	15136.71
465.37	14665.67
465.575	14299.09
465.781	15151.04
465.986	14688.2
466.191	14569.42
466.397	14254.03
466.602	13357.02
466.807	14036.95
467.012	13991.89
467.218	13846.49
467.423	13651.93
