Data from USB4F104151__279__14-46-20-315.txt Node

Date: Thu Mar 13 14:46:20 EDT 2025
User: louis
Spectrometer: USB4F10415
Trigger mode: 4
Integration Time (sec): 2.000000E-2
Scans to average: 1
Electric dark correction enabled: true
Nonlinearity correction enabled: false
Boxcar width: 0
XAxis mode: Wavelengths
Number of Pixels in Spectrum: 3648
>>>>>Begin Spectral Data<<<<<
178.204	-56.83
178.424	-56.83
178.644	-56.83
178.864	-83.45
179.084	-48.64
179.304	23.04
179.524	2.56
179.744	-9.73
179.964	96.77
180.184	-7.68
180.404	0.51
180.624	2.56
180.844	72.19
181.064	-19.97
181.283	-34.3
181.503	-67.07
181.723	-58.88
181.943	-40.45
182.163	57.86
182.383	-13.82
182.602	31.23
182.822	68.09
183.042	8.7
183.262	27.14
183.482	31.23
183.701	20.99
183.921	43.52
184.141	-67.07
184.361	31.23
184.58	4.61
184.8	-1.54
185.02	96.77
185.239	47.62
185.459	-17.92
185.679	59.9
185.898	31.23
186.118	41.47
186.338	-32.26
186.557	35.33
186.777	6.66
186.997	-48.64
187.216	59.9
187.436	107.01
187.655	43.52
187.875	70.14
188.095	0.51
188.314	43.52
188.534	27.14
188.753	6.66
188.973	10.75
189.192	76.29
189.412	59.9
189.631	39.42
189.851	64
190.07	113.15
190.29	6.66
190.509	10.75
190.729	6.66
190.948	64
191.168	145.92
191.387	64
191.607	23.04
191.826	82.43
192.045	35.33
192.265	72.19
192.484	33.28
192.704	16.9
192.923	-56.83
193.142	164.35
193.362	8.7
193.581	80.38
193.8	41.47
194.02	49.66
194.239	4.61
194.458	39.42
194.678	-24.06
194.897	23.04
195.116	25.09
195.335	43.52
195.555	14.85
195.774	47.62
195.993	47.62
196.212	25.09
196.432	27.14
196.651	-1.54
196.87	23.04
197.089	98.81
197.308	98.81
197.528	49.66
197.747	-15.87
197.966	51.71
198.185	88.57
198.404	-30.21
198.623	82.43
198.842	47.62
199.062	80.38
199.281	84.48
199.5	31.23
199.719	64
199.938	-13.82
200.157	49.66
200.376	49.66
200.595	-30.21
200.814	31.23
201.033	25.09
201.252	135.68
201.471	4.61
201.69	43.52
201.909	72.19
202.128	117.25
202.347	84.48
202.566	16.9
202.785	12.8
203.004	-5.63
203.223	49.66
203.442	-9.73
203.661	-5.63
203.879	0.51
204.098	31.23
204.317	6.66
204.536	57.86
204.755	-24.06
204.974	2.56
205.193	23.04
205.411	51.71
205.63	57.86
205.849	-11.78
206.068	45.57
206.287	18.94
206.505	25.09
206.724	80.38
206.943	-7.68
207.162	-26.11
207.381	23.04
207.599	74.24
207.818	31.23
208.037	-9.73
208.255	39.42
208.474	104.96
208.693	0.51
208.911	-32.26
209.13	78.33
209.349	121.34
209.567	-9.73
209.786	14.85
210.005	-22.02
210.223	-26.11
210.442	27.14
210.661	39.42
210.879	31.23
211.098	68.09
211.316	-5.63
211.535	29.18
211.753	6.66
211.972	66.05
212.191	27.14
212.409	29.18
212.628	23.04
212.846	98.81
213.065	-22.02
213.283	57.86
213.502	29.18
213.72	-34.3
213.938	14.85
214.157	-46.59
214.375	88.57
214.594	-48.64
214.812	31.23
215.031	23.04
215.249	39.42
215.467	41.47
215.686	23.04
215.904	43.52
216.122	-7.68
216.341	55.81
216.559	31.23
216.778	96.77
216.996	18.94
217.214	55.81
217.432	49.66
217.651	-15.87
217.869	-13.82
218.087	31.23
218.306	-19.97
218.524	115.2
218.742	31.23
218.96	53.76
219.179	72.19
219.397	115.2
219.615	74.24
219.833	16.9
220.051	33.28
220.27	6.66
220.488	20.99
220.706	6.66
220.924	66.05
221.142	53.76
221.36	-5.63
221.578	78.33
221.796	16.9
222.015	0.51
222.233	123.39
222.451	68.09
222.669	-36.35
222.887	80.38
223.105	6.66
223.323	23.04
223.541	-5.63
223.759	-17.92
223.977	84.48
224.195	49.66
224.413	49.66
224.631	35.33
224.849	94.72
225.067	59.9
225.285	80.38
225.503	27.14
225.721	66.05
225.939	55.81
226.157	64
226.375	94.72
226.592	-42.5
226.81	16.9
227.028	88.57
227.246	23.04
227.464	4.61
227.682	59.9
227.9	25.09
228.117	23.04
228.335	68.09
228.553	-1.54
228.771	-1.54
228.989	74.24
229.206	4.61
229.424	23.04
229.642	64
229.86	45.57
230.077	64
230.295	31.23
230.513	55.81
230.731	35.33
230.948	82.43
231.166	76.29
231.384	-15.87
231.601	55.81
231.819	55.81
232.037	6.66
232.254	-30.21
232.472	47.62
232.689	96.77
232.907	53.76
233.125	31.23
233.342	96.77
233.56	23.04
233.777	-5.63
233.995	14.85
234.213	33.28
234.43	72.19
234.648	80.38
234.865	0.51
235.083	57.86
235.3	57.86
235.518	-17.92
235.735	82.43
235.953	88.57
236.17	-7.68
236.388	8.7
236.605	76.29
236.822	74.24
237.04	37.38
237.257	39.42
237.475	25.09
237.692	2.56
237.909	49.66
238.127	-13.82
238.344	6.66
238.562	59.9
238.779	-17.92
238.996	25.09
239.214	-15.87
239.431	-9.73
239.648	31.23
239.865	61.95
240.083	64
240.3	143.87
240.517	43.52
240.735	70.14
240.952	76.29
241.169	100.86
241.386	4.61
241.603	72.19
241.821	59.9
242.038	55.81
242.255	31.23
242.472	59.9
242.689	35.33
242.907	80.38
243.124	64
243.341	47.62
243.558	49.66
243.775	-22.02
243.992	-19.97
244.209	35.33
244.426	43.52
244.643	55.81
244.86	-50.69
245.078	66.05
245.295	43.52
245.512	78.33
245.729	68.09
245.946	100.86
246.163	70.14
246.38	14.85
246.597	39.42
246.814	74.24
247.031	66.05
247.248	41.47
247.464	41.47
247.681	64
247.898	45.57
248.115	31.23
248.332	4.61
248.549	25.09
248.766	-13.82
248.983	94.72
249.2	68.09
249.417	31.23
249.633	-32.26
249.85	27.14
250.067	29.18
250.284	59.9
250.501	59.9
250.717	66.05
250.934	86.53
251.151	0.51
251.368	92.67
251.585	80.38
251.801	57.86
252.018	57.86
252.235	129.53
252.451	4.61
252.668	-19.97
252.885	64
253.102	4.61
253.318	14.85
253.535	74.24
253.752	14.85
253.968	-17.92
254.185	-26.11
254.401	27.14
254.618	43.52
254.835	-3.58
255.051	55.81
255.268	-30.21
255.484	-26.11
255.701	64
255.917	27.14
256.134	-28.16
256.351	51.71
256.567	70.14
256.784	43.52
257	39.42
257.217	33.28
257.433	72.19
257.65	-1.54
257.866	10.75
258.082	55.81
258.299	-50.69
258.515	14.85
258.732	6.66
258.948	33.28
259.165	66.05
259.381	33.28
259.597	-32.26
259.814	47.62
260.03	10.75
260.246	31.23
260.463	23.04
260.679	92.67
260.895	66.05
261.112	64
261.328	80.38
261.544	18.94
261.761	121.34
261.977	41.47
262.193	-11.78
262.409	92.67
262.626	98.81
262.842	31.23
263.058	-56.83
263.274	-9.73
263.49	-38.4
263.707	23.04
263.923	68.09
264.139	-11.78
264.355	66.05
264.571	31.23
264.787	33.28
265.004	96.77
265.22	47.62
265.436	53.76
265.652	61.95
265.868	31.23
266.084	59.9
266.3	51.71
266.516	-24.06
266.732	-42.5
266.948	25.09
267.164	8.7
267.38	35.33
267.596	6.66
267.812	80.38
268.028	41.47
268.244	-1.54
268.46	-30.21
268.676	23.04
268.892	49.66
269.108	2.56
269.324	14.85
269.54	45.57
269.756	72.19
269.972	-40.45
270.188	55.81
270.403	41.47
270.619	49.66
270.835	115.2
271.051	2.56
271.267	59.9
271.483	125.44
271.698	104.96
271.914	59.9
272.13	-13.82
272.346	51.71
272.562	33.28
272.777	59.9
272.993	0.51
273.209	109.05
273.425	125.44
273.64	74.24
273.856	59.9
274.072	59.9
274.287	39.42
274.503	76.29
274.719	64
274.934	31.23
275.15	-46.59
275.366	-17.92
275.581	-46.59
275.797	4.61
276.012	47.62
276.228	82.43
276.444	64
276.659	96.77
276.875	47.62
277.09	23.04
277.306	-67.07
277.521	129.53
277.737	51.71
277.952	55.81
278.168	72.19
278.383	70.14
278.599	39.42
278.814	23.04
279.03	-5.63
279.245	80.38
279.461	104.96
279.676	80.38
279.892	16.9
280.107	31.23
280.322	-17.92
280.538	-9.73
280.753	-1.54
280.969	31.23
281.184	4.61
281.399	41.47
281.615	72.19
281.83	-5.63
282.045	-15.87
282.26	64
282.476	80.38
282.691	39.42
282.906	45.57
283.122	70.14
283.337	-15.87
283.552	84.48
283.767	-15.87
283.983	133.63
284.198	10.75
284.413	68.09
284.628	57.86
284.843	8.7
285.058	-62.98
285.274	23.04
285.489	4.61
285.704	-58.88
285.919	33.28
286.134	57.86
286.349	39.42
286.564	47.62
286.779	31.23
286.995	47.62
287.21	16.9
287.425	51.71
287.64	35.33
287.855	23.04
288.07	-9.73
288.285	51.71
288.5	74.24
288.715	74.24
288.93	53.76
289.145	37.38
289.36	64
289.575	0.51
289.79	59.9
290.004	16.9
290.219	47.62
290.434	61.95
290.649	2.56
290.864	51.71
291.079	121.34
291.294	27.14
291.509	23.04
291.724	31.23
291.938	64
292.153	47.62
292.368	-38.4
292.583	20.99
292.798	12.8
293.012	23.04
293.227	-13.82
293.442	66.05
293.657	35.33
293.871	14.85
294.086	51.71
294.301	80.38
294.516	47.62
294.73	43.52
294.945	-3.58
295.16	96.77
295.374	76.29
295.589	121.34
295.804	29.18
296.018	64
296.233	96.77
296.447	92.67
296.662	31.23
296.877	107.01
297.091	23.04
297.306	49.66
297.52	14.85
297.735	-7.68
297.949	49.66
298.164	76.29
298.378	64
298.593	35.33
298.807	-1.54
299.022	84.48
299.236	115.2
299.451	39.42
299.665	-1.54
299.88	10.75
300.094	12.8
300.309	47.62
300.523	64
300.737	59.9
300.952	121.34
301.166	82.43
301.381	0.51
301.595	-11.78
301.809	31.23
302.024	33.28
302.238	25.09
302.452	35.33
302.667	-17.92
302.881	141.82
303.095	123.39
303.309	64
303.524	10.75
303.738	68.09
303.952	45.57
304.166	18.94
304.381	-26.11
304.595	53.76
304.809	14.85
305.023	31.23
305.237	-1.54
305.452	33.28
305.666	88.57
305.88	16.9
306.094	100.86
306.308	64
306.522	-17.92
306.736	104.96
306.95	96.77
307.164	-24.06
307.379	2.56
307.593	82.43
307.807	104.96
308.021	92.67
308.235	88.57
308.449	6.66
308.663	84.48
308.877	94.72
309.091	109.05
309.305	47.62
309.519	-15.87
309.733	51.71
309.947	-13.82
310.161	100.86
310.374	23.04
310.588	29.18
310.802	92.67
311.016	47.62
311.23	72.19
311.444	-26.11
311.658	39.42
311.872	20.99
312.085	-1.54
312.299	27.14
312.513	2.56
312.727	104.96
312.941	23.04
313.154	47.62
313.368	23.04
313.582	72.19
313.796	-7.68
314.009	84.48
314.223	113.15
314.437	74.24
314.651	64
314.864	72.19
315.078	-1.54
315.292	47.62
315.505	6.66
315.719	123.39
315.933	59.9
316.146	-32.26
316.36	-3.58
316.573	186.88
316.787	14.85
317.001	64
317.214	47.62
317.428	53.76
317.641	-1.54
317.855	113.15
318.068	96.77
318.282	-34.3
318.495	117.25
318.709	119.29
318.922	23.04
319.136	57.86
319.349	0.51
319.563	8.7
319.776	47.62
319.99	66.05
320.203	47.62
320.417	64
320.63	104.96
320.843	66.05
321.057	72.19
321.27	14.85
321.483	145.92
321.697	143.87
321.91	18.94
322.124	6.66
322.337	49.66
322.55	-17.92
322.763	2.56
322.977	82.43
323.19	23.04
323.403	23.04
323.617	-5.63
323.83	74.24
324.043	68.09
324.256	-1.54
324.469	115.2
324.683	47.62
324.896	-42.5
325.109	70.14
325.322	23.04
325.535	107.01
325.748	100.86
325.962	14.85
326.175	64
326.388	12.8
326.601	82.43
326.814	31.23
327.027	76.29
327.24	53.76
327.453	66.05
327.666	39.42
327.879	31.23
328.092	51.71
328.305	25.09
328.518	39.42
328.731	6.66
328.944	35.33
329.157	-22.02
329.37	0.51
329.583	76.29
329.796	100.86
330.009	-30.21
330.222	84.48
330.435	64
330.648	-5.63
330.861	64
331.073	88.57
331.286	27.14
331.499	16.9
331.712	0.51
331.925	-5.63
332.138	-9.73
332.35	96.77
332.563	35.33
332.776	6.66
332.989	-42.5
333.202	164.35
333.414	-38.4
333.627	8.7
333.84	78.33
334.053	80.38
334.265	-1.54
334.478	20.99
334.691	113.15
334.903	76.29
335.116	43.52
335.329	12.8
335.541	-17.92
335.754	133.63
335.966	-15.87
336.179	43.52
336.392	25.09
336.604	117.25
336.817	64
337.029	72.19
337.242	98.81
337.454	33.28
337.667	43.52
337.88	47.62
338.092	-7.68
338.305	88.57
338.517	-24.06
338.729	70.14
338.942	170.49
339.154	4.61
339.367	35.33
339.579	33.28
339.792	57.86
340.004	117.25
340.217	14.85
340.429	-24.06
340.641	55.81
340.854	16.9
341.066	39.42
341.278	72.19
341.491	45.57
341.703	72.19
341.915	41.47
342.128	25.09
342.34	23.04
342.552	-89.6
342.764	-26.11
342.977	-11.78
343.189	43.52
343.401	31.23
343.613	2.56
343.826	39.42
344.038	49.66
344.25	68.09
344.462	39.42
344.674	47.62
344.886	14.85
345.099	18.94
345.311	25.09
345.523	57.86
345.735	39.42
345.947	55.81
346.159	33.28
346.371	-34.3
346.583	43.52
346.795	82.43
347.007	53.76
347.219	4.61
347.431	35.33
347.643	98.81
347.855	10.75
348.067	74.24
348.279	-11.78
348.491	61.95
348.703	57.86
348.915	80.38
349.127	-46.59
349.339	39.42
349.551	18.94
349.763	98.81
349.975	2.56
350.187	39.42
350.399	31.23
350.61	16.9
350.822	-30.21
351.034	80.38
351.246	43.52
351.458	55.81
351.669	47.62
351.881	64
352.093	25.09
352.305	92.67
352.517	6.66
352.728	64
352.94	6.66
353.152	18.94
353.363	31.23
353.575	39.42
353.787	88.57
353.999	6.66
354.21	49.66
354.422	16.9
354.633	55.81
354.845	55.81
355.057	-42.5
355.268	33.28
355.48	31.23
355.692	35.33
355.903	-38.4
356.115	-38.4
356.326	2.56
356.538	100.86
356.749	49.66
356.961	57.86
357.172	53.76
357.384	66.05
357.595	109.05
357.807	55.81
358.018	31.23
358.23	55.81
358.441	53.76
358.653	74.24
358.864	8.7
359.075	39.42
359.287	23.04
359.498	27.14
359.709	49.66
359.921	72.19
360.132	164.35
360.344	33.28
360.555	-1.54
360.766	90.62
360.977	14.85
361.189	80.38
361.4	10.75
361.611	94.72
361.823	102.91
362.034	-1.54
362.245	96.77
362.456	66.05
362.667	80.38
362.879	14.85
363.09	6.66
363.301	-26.11
363.512	72.19
363.723	90.62
363.935	14.85
364.146	78.33
364.357	96.77
364.568	35.33
364.779	10.75
364.99	113.15
365.201	8.7
365.412	96.77
365.623	55.81
365.834	104.96
366.045	92.67
366.256	64
366.467	43.52
366.678	23.04
366.889	74.24
367.1	55.81
367.311	86.53
367.522	14.85
367.733	45.57
367.944	84.48
368.155	29.18
368.366	55.81
368.577	51.71
368.788	33.28
368.999	2.56
369.209	47.62
369.42	137.73
369.631	135.68
369.842	8.7
370.053	29.18
370.264	41.47
370.474	104.96
370.685	121.34
370.896	39.42
371.107	109.05
371.317	55.81
371.528	39.42
371.739	104.96
371.95	86.53
372.16	123.39
372.371	-32.26
372.582	31.23
372.792	66.05
373.003	100.86
373.214	107.01
373.424	27.14
373.635	53.76
373.846	20.99
374.056	18.94
374.267	31.23
374.477	64
374.688	33.28
374.898	55.81
375.109	43.52
375.319	23.04
375.53	96.77
375.74	-5.63
375.951	59.9
376.161	49.66
376.372	76.29
376.582	-42.5
376.793	39.42
377.003	31.23
377.214	88.57
377.424	-3.58
377.635	84.48
377.845	96.77
378.055	23.04
378.266	-7.68
378.476	100.86
378.686	84.48
378.897	16.9
379.107	49.66
379.317	49.66
379.528	-34.3
379.738	23.04
379.948	18.94
380.158	0.51
380.369	86.53
380.579	125.44
380.789	61.95
380.999	145.92
381.21	109.05
381.42	104.96
381.63	51.71
381.84	-1.54
382.05	109.05
382.261	72.19
382.471	78.33
382.681	33.28
382.891	0.51
383.101	80.38
383.311	47.62
383.521	61.95
383.731	66.05
383.941	6.66
384.151	14.85
384.361	90.62
384.571	64
384.781	113.15
384.991	49.66
385.201	90.62
385.411	41.47
385.621	-42.5
385.831	68.09
386.041	31.23
386.251	90.62
386.461	96.77
386.671	127.49
386.881	-46.59
387.091	123.39
387.301	33.28
387.511	39.42
387.72	98.81
387.93	160.25
388.14	-32.26
388.35	6.66
388.56	88.57
388.769	64
388.979	45.57
389.189	16.9
389.399	72.19
389.609	92.67
389.818	107.01
390.028	66.05
390.238	72.19
390.447	76.29
390.657	64
390.867	86.53
391.076	23.04
391.286	123.39
391.496	154.11
391.705	86.53
391.915	23.04
392.125	51.71
392.334	-11.78
392.544	41.47
392.753	14.85
392.963	20.99
393.172	88.57
393.382	27.14
393.591	115.2
393.801	8.7
394.01	88.57
394.22	49.66
394.429	88.57
394.639	70.14
394.848	84.48
395.058	78.33
395.267	125.44
395.477	74.24
395.686	88.57
395.895	72.19
396.105	119.29
396.314	39.42
396.524	90.62
396.733	98.81
396.942	90.62
397.152	137.73
397.361	102.91
397.57	68.09
397.78	164.35
397.989	133.63
398.198	160.25
398.407	84.48
398.617	61.95
398.826	88.57
399.035	123.39
399.244	131.58
399.453	90.62
399.663	66.05
399.872	27.14
400.081	174.59
400.29	141.82
400.499	135.68
400.708	72.19
400.917	88.57
401.127	16.9
401.336	88.57
401.545	137.73
401.754	80.38
401.963	156.16
402.172	117.25
402.381	158.21
402.59	111.1
402.799	131.58
403.008	121.34
403.217	113.15
403.426	109.05
403.635	104.96
403.844	143.87
404.053	162.3
404.262	88.57
404.471	143.87
404.68	184.83
404.888	111.1
405.097	55.81
405.306	82.43
405.515	166.4
405.724	80.38
405.933	156.16
406.142	119.29
406.35	137.73
406.559	150.01
406.768	178.69
406.977	162.3
407.185	96.77
407.394	180.73
407.603	195.07
407.812	193.02
408.02	244.22
408.229	225.79
408.438	233.98
408.646	250.36
408.855	229.88
409.064	272.89
409.272	211.45
409.481	252.41
409.69	256.51
409.898	262.65
410.107	215.55
410.315	305.66
410.524	301.56
410.733	199.16
410.941	301.56
411.15	279.04
411.358	303.61
411.567	326.14
411.775	391.67
411.984	334.33
412.192	358.91
412.401	346.62
412.609	346.62
412.818	403.96
413.026	514.55
413.234	489.98
413.443	424.44
413.651	444.92
413.86	461.3
414.068	453.11
414.276	479.74
414.485	539.13
414.693	580.09
414.901	600.57
415.11	535.03
415.318	563.7
415.526	623.09
415.734	653.81
415.943	619
416.151	729.59
416.359	678.39
416.567	621.05
416.776	682.49
416.984	745.97
417.192	827.89
417.4	735.73
417.608	834.04
417.817	854.51
418.025	924.15
418.233	893.43
418.441	831.99
418.649	952.82
418.857	997.87
419.065	997.87
419.273	981.49
419.481	1114.61
419.689	1124.85
419.897	1276.4
420.105	1116.65
420.313	1169.9
420.521	1296.88
420.729	1280.49
420.937	1280.49
421.145	1358.32
421.353	1473
421.561	1522.15
421.769	1532.39
421.977	1573.35
422.185	1677.8
422.393	1714.66
422.601	1702.37
422.809	1866.21
423.017	1853.92
423.224	1858.02
423.432	2023.91
423.64	1907.17
423.848	2081.25
424.056	2185.69
424.263	2103.78
424.471	2238.94
424.679	2253.28
424.887	2406.88
425.094	2300.38
425.302	2544.09
425.51	2619.86
425.718	2705.88
425.925	2810.33
426.133	2834.9
426.341	2978.26
426.548	3015.12
426.756	3150.29
426.964	3138
427.171	3246.54
427.379	3385.8
427.586	3463.63
427.794	3684.81
428.001	3713.48
428.209	3811.78
428.417	3840.45
428.624	4121.03
428.832	3981.76
429.039	3949
429.247	4030.91
429.454	4364.73
429.662	4641.21
429.869	4315.58
430.076	4811.19
430.284	4561.34
430.491	4757.94
430.699	5157.3
430.906	5167.54
431.114	5190.06
431.321	5308.85
431.528	5478.83
431.736	5702.06
431.943	5937.57
432.15	5814.7
432.358	5876.13
432.565	6310.3
432.772	6330.78
432.979	6381.98
433.187	6543.77
433.394	6674.84
433.601	7012.76
433.808	7180.69
434.016	7113.11
434.223	7307.66
434.43	7780.75
434.637	7649.68
434.844	8118.66
435.052	8245.63
435.259	8120.71
435.466	8268.16
435.673	8272.26
435.88	8812.92
436.087	9212.28
436.294	9351.54
436.501	9107.83
436.708	9255.28
436.915	9396.59
437.122	10094.95
437.329	9929.06
437.537	10295.65
437.743	10375.52
437.95	10463.58
438.157	10887.51
438.364	11213.14
438.571	11256.15
438.778	11264.34
438.985	12290.37
439.192	11807.05
439.399	12241.22
439.606	11979.08
439.813	12740.93
440.02	13228.34
440.227	13064.5
440.433	13015.35
440.64	13367.6
440.847	13404.47
441.054	13621.55
441.261	14385.44
441.467	14367.01
441.674	14678.3
441.881	15268.12
442.088	15276.31
442.294	15159.58
442.501	15292.69
442.708	15620.37
442.914	16480.52
443.121	17043.71
443.328	16816.38
443.534	17692.91
443.741	17357.05
443.948	17127.67
444.154	18292.97
444.361	17975.53
444.568	18247.91
444.774	18442.47
444.981	18323.69
445.187	19206.36
445.394	19773.65
445.6	19491.03
445.807	21262.52
446.013	20572.36
446.22	21129.41
446.426	21737.65
446.633	22110.38
446.839	23007.39
447.046	21993.65
447.252	22896.8
447.459	23445.66
447.665	23036.06
447.871	24078.48
448.078	25196.67
448.284	23832.72
448.491	24553.61
448.697	25489.53
448.903	25925.75
449.11	26122.35
449.316	25655.42
449.522	26493.04
449.728	27201.63
449.935	27283.55
450.141	27320.42
450.347	27994.2
450.553	26841.19
450.76	27568.22
450.966	28387.41
451.172	28102.74
451.378	28819.53
451.584	28477.52
451.791	29134.92
451.997	28930.12
452.203	29378.62
452.409	29462.59
452.615	29087.81
452.821	28190.8
453.027	27725.91
453.233	29696.06
453.44	28317.78
453.646	28620.88
453.852	28995.65
454.058	29122.63
454.264	28379.21
454.47	28889.16
454.676	28248.14
454.882	29442.11
455.088	26888.29
455.294	27240.54
455.5	27463.77
455.705	27678.81
455.911	26769.51
456.117	26120.31
456.323	25962.61
456.529	24799.37
456.735	25743.48
456.941	25108.61
457.147	24864.9
457.352	23912.6
457.558	23724.18
457.764	23728.28
457.97	23427.23
458.176	23105.7
458.381	22841.51
458.587	21872.82
458.793	22028.46
458.999	20545.73
459.204	22249.64
459.41	21495.99
459.616	20273.35
459.821	20342.99
460.027	20043.98
460.233	19742.93
460.438	18917.6
460.644	19046.62
460.85	18032.88
461.055	17733.87
461.261	18127.08
461.466	16552.2
461.672	16128.27
461.878	17203.45
462.083	16261.38
462.289	15730.96
462.494	15708.43
462.7	14844.19
462.905	14518.56
463.111	15165.72
463.316	15081.75
463.522	14754.08
463.727	14975.26
463.932	14668.06
464.138	14797.09
464.343	14872.86
464.549	14459.17
464.754	14747.93
464.959	14674.21
465.165	14512.42
465.37	14020.91
465.575	13682.99
465.781	14291.24
465.986	14330.15
466.191	13762.86
466.397	13574.45
466.602	12681.53
466.807	13347.12
467.012	13498.67
467.218	13254.97
467.423	13072.7
467.628	13033.79
467.833	13637.94
468.038	13111.61
468.244	12822.84
468.449	13316.4
468.654	12908.86
468.859	12872
469.064	12751.17
