Data from USB4F104151__259__14-45-59-280.txt Node

Date: Thu Mar 13 14:45:59 EDT 2025
User: louis
Spectrometer: USB4F10415
Trigger mode: 4
Integration Time (sec): 2.000000E-2
Scans to average: 1
Electric dark correction enabled: true
Nonlinearity correction enabled: false
Boxcar width: 0
XAxis mode: Wavelengths
Number of Pixels in Spectrum: 3648
>>>>>Begin Spectral Data<<<<<
178.204	-100.86
178.424	-100.86
178.644	-100.86
178.864	-158.21
179.084	-158.21
179.304	5.63
179.524	-51.71
179.744	-59.9
179.964	73.21
180.184	73.21
180.404	32.26
180.624	-23.04
180.844	22.02
181.064	-39.42
181.283	-20.99
181.503	-2.56
181.723	-8.7
181.943	-0.51
182.163	95.74
182.383	1.54
182.602	-45.57
182.822	40.45
183.042	-16.9
183.262	-12.8
183.482	44.54
183.701	42.5
183.921	-2.56
184.141	-37.38
184.361	42.5
184.58	-45.57
184.8	3.58
185.02	44.54
185.239	69.12
185.459	93.69
185.679	71.17
185.898	-18.94
186.118	36.35
186.338	-18.94
186.557	24.06
186.777	67.07
186.997	32.26
187.216	-2.56
187.436	79.36
187.655	28.16
187.875	-33.28
188.095	-37.38
188.314	101.89
188.534	-0.51
188.753	-111.1
188.973	30.21
189.192	54.78
189.412	52.74
189.631	62.98
189.851	-2.56
190.07	5.63
190.29	50.69
190.509	-94.72
190.729	-16.9
190.948	71.17
191.168	159.23
191.387	54.78
191.607	19.97
191.826	32.26
192.045	44.54
192.265	11.78
192.484	-2.56
192.704	-6.66
192.923	77.31
193.142	155.13
193.362	7.68
193.581	93.69
193.8	36.35
194.02	3.58
194.239	-39.42
194.458	17.92
194.678	44.54
194.897	-18.94
195.116	85.5
195.335	-20.99
195.555	-4.61
195.774	77.31
195.993	89.6
196.212	-43.52
196.432	60.93
196.651	3.58
196.87	-12.8
197.089	69.12
197.308	-4.61
197.528	89.6
197.747	-82.43
197.966	-45.57
198.185	22.02
198.404	28.16
198.623	-2.56
198.842	-43.52
199.062	3.58
199.281	24.06
199.5	-8.7
199.719	15.87
199.938	44.54
200.157	-4.61
200.376	-12.8
200.595	54.78
200.814	-20.99
201.033	3.58
201.252	48.64
201.471	7.68
201.69	75.26
201.909	-2.56
202.128	44.54
202.347	79.36
202.566	-18.94
202.785	-61.95
203.004	7.68
203.223	95.74
203.442	-18.94
203.661	56.83
203.879	54.78
204.098	62.98
204.317	-0.51
204.536	54.78
204.755	15.87
204.974	-29.18
205.193	48.64
205.411	50.69
205.63	56.83
205.849	9.73
206.068	46.59
206.287	3.58
206.505	24.06
206.724	-4.61
206.943	-0.51
207.162	-68.09
207.381	-10.75
207.599	13.82
207.818	15.87
208.037	11.78
208.255	60.93
208.474	-2.56
208.693	54.78
208.911	13.82
209.13	-20.99
209.349	56.83
209.567	32.26
209.786	52.74
210.005	15.87
210.223	-10.75
210.442	5.63
210.661	24.06
210.879	32.26
211.098	3.58
211.316	24.06
211.535	-0.51
211.753	-16.9
211.972	101.89
212.191	65.02
212.409	22.02
212.628	38.4
212.846	77.31
213.065	54.78
213.283	36.35
213.502	-20.99
213.72	77.31
213.938	-6.66
214.157	-4.61
214.375	-59.9
214.594	-25.09
214.812	22.02
215.031	32.26
215.249	44.54
215.467	44.54
215.686	24.06
215.904	19.97
216.122	-4.61
216.341	77.31
216.559	24.06
216.778	93.69
216.996	30.21
217.214	-57.86
217.432	56.83
217.651	26.11
217.869	-25.09
218.087	54.78
218.306	-20.99
218.524	-8.7
218.742	32.26
218.96	5.63
219.179	-37.38
219.397	38.4
219.615	99.84
219.833	54.78
220.051	11.78
220.27	71.17
220.488	81.41
220.706	83.45
220.924	40.45
221.142	-16.9
221.36	5.63
221.578	19.97
221.796	7.68
222.015	52.74
222.233	11.78
222.451	93.69
222.669	-27.14
222.887	93.69
223.105	-20.99
223.323	42.5
223.541	-20.99
223.759	87.55
223.977	-4.61
224.195	52.74
224.413	26.11
224.631	77.31
224.849	46.59
225.067	69.12
225.285	44.54
225.503	48.64
225.721	-27.14
225.939	-41.47
226.157	3.58
226.375	151.04
226.592	-70.14
226.81	-20.99
227.028	7.68
227.246	52.74
227.464	99.84
227.682	87.55
227.9	11.78
228.117	5.63
228.335	-12.8
228.553	44.54
228.771	-20.99
228.989	-6.66
229.206	22.02
229.424	24.06
229.642	-88.57
229.86	11.78
230.077	5.63
230.295	36.35
230.513	32.26
230.731	26.11
230.948	52.74
231.166	65.02
231.384	-53.76
231.601	13.82
231.819	56.83
232.037	11.78
232.254	3.58
232.472	11.78
232.689	9.73
232.907	73.21
233.125	44.54
233.342	22.02
233.56	-72.19
233.777	97.79
233.995	36.35
234.213	97.79
234.43	-29.18
234.648	71.17
234.865	110.08
235.083	89.6
235.3	36.35
235.518	22.02
235.735	-18.94
235.953	79.36
236.17	-35.33
236.388	24.06
236.605	13.82
236.822	3.58
237.04	67.07
237.257	54.78
237.475	13.82
237.692	-12.8
237.909	48.64
238.127	34.3
238.344	30.21
238.562	28.16
238.779	-115.2
238.996	36.35
239.214	1.54
239.431	52.74
239.648	-43.52
239.865	60.93
240.083	5.63
240.3	3.58
240.517	-18.94
240.735	30.21
240.952	52.74
241.169	52.74
241.386	36.35
241.603	11.78
241.821	-23.04
242.038	15.87
242.255	81.41
242.472	-12.8
242.689	87.55
242.907	-20.99
243.124	44.54
243.341	-27.14
243.558	7.68
243.775	-29.18
243.992	-25.09
244.209	5.63
244.426	65.02
244.643	44.54
244.86	13.82
245.078	5.63
245.295	3.58
245.512	15.87
245.729	19.97
245.946	-12.8
246.163	34.3
246.38	52.74
246.597	48.64
246.814	-14.85
247.031	7.68
247.248	11.78
247.464	40.45
247.681	1.54
247.898	1.54
248.115	19.97
248.332	28.16
248.549	101.89
248.766	-4.61
248.983	81.41
249.2	15.87
249.417	28.16
249.633	-16.9
249.85	62.98
250.067	13.82
250.284	36.35
250.501	-20.99
250.717	42.5
250.934	-68.09
251.151	36.35
251.368	-29.18
251.585	81.41
251.801	71.17
252.018	-12.8
252.235	28.16
252.451	-4.61
252.668	28.16
252.885	11.78
253.102	40.45
253.318	46.59
253.535	-8.7
253.752	-2.56
253.968	-55.81
254.185	-4.61
254.401	13.82
254.618	-4.61
254.835	46.59
255.051	3.58
255.268	56.83
255.484	-4.61
255.701	34.3
255.917	28.16
256.134	44.54
256.351	65.02
256.567	-29.18
256.784	36.35
257	-31.23
257.217	67.07
257.433	44.54
257.65	-10.75
257.866	91.65
258.082	-18.94
258.299	-10.75
258.515	87.55
258.732	-27.14
258.948	32.26
259.165	69.12
259.381	-20.99
259.597	52.74
259.814	-4.61
260.03	-14.85
260.246	19.97
260.463	28.16
260.679	-2.56
260.895	36.35
261.112	32.26
261.328	-20.99
261.544	5.63
261.761	95.74
261.977	48.64
262.193	52.74
262.409	19.97
262.626	-16.9
262.842	34.3
263.058	56.83
263.274	30.21
263.49	-20.99
263.707	32.26
263.923	19.97
264.139	-53.76
264.355	36.35
264.571	85.5
264.787	-45.57
265.004	28.16
265.22	13.82
265.436	26.11
265.652	3.58
265.868	13.82
266.084	-51.71
266.3	-4.61
266.516	-20.99
266.732	46.59
266.948	44.54
267.164	36.35
267.38	5.63
267.596	13.82
267.812	122.37
268.028	-49.66
268.244	3.58
268.46	40.45
268.676	40.45
268.892	60.93
269.108	11.78
269.324	-47.62
269.54	48.64
269.756	40.45
269.972	-2.56
270.188	44.54
270.403	-78.33
270.619	13.82
270.835	-59.9
271.051	9.73
271.267	-37.38
271.483	28.16
271.698	7.68
271.914	19.97
272.13	44.54
272.346	19.97
272.562	-45.57
272.777	42.5
272.993	30.21
273.209	30.21
273.425	19.97
273.64	13.82
273.856	118.27
274.072	19.97
274.287	-12.8
274.503	-10.75
274.719	73.21
274.934	-20.99
275.15	-10.75
275.366	19.97
275.581	28.16
275.797	-4.61
276.012	24.06
276.228	-4.61
276.444	-43.52
276.659	85.5
276.875	-41.47
277.09	60.93
277.306	19.97
277.521	69.12
277.737	-61.95
277.952	-29.18
278.168	-16.9
278.383	69.12
278.599	11.78
278.814	85.5
279.03	22.02
279.245	24.06
279.461	-0.51
279.676	-10.75
279.892	-0.51
280.107	19.97
280.322	22.02
280.538	-23.04
280.753	-16.9
280.969	13.82
281.184	54.78
281.399	81.41
281.615	11.78
281.83	11.78
282.045	22.02
282.26	19.97
282.476	-8.7
282.691	34.3
282.906	17.92
283.122	24.06
283.337	-53.76
283.552	54.78
283.767	44.54
283.983	48.64
284.198	40.45
284.413	26.11
284.628	-92.67
284.843	54.78
285.058	60.93
285.274	11.78
285.489	60.93
285.704	79.36
285.919	-4.61
286.134	32.26
286.349	65.02
286.564	38.4
286.779	3.58
286.995	19.97
287.21	-53.76
287.425	54.78
287.64	62.98
287.855	69.12
288.07	-10.75
288.285	73.21
288.5	77.31
288.715	28.16
288.93	7.68
289.145	-12.8
289.36	110.08
289.575	56.83
289.79	44.54
290.004	-37.38
290.219	44.54
290.434	44.54
290.649	26.11
290.864	48.64
291.079	-10.75
291.294	50.69
291.509	-51.71
291.724	54.78
291.938	19.97
292.153	-23.04
292.368	77.31
292.583	56.83
292.798	28.16
293.012	26.11
293.227	38.4
293.442	-8.7
293.657	36.35
293.871	11.78
294.086	-76.29
294.301	-8.7
294.516	3.58
294.73	-33.28
294.945	3.58
295.16	40.45
295.374	32.26
295.589	69.12
295.804	-35.33
296.018	15.87
296.233	40.45
296.447	11.78
296.662	-35.33
296.877	58.88
297.091	3.58
297.306	26.11
297.52	-12.8
297.735	5.63
297.949	-45.57
298.164	93.69
298.378	19.97
298.593	-78.33
298.807	5.63
299.022	36.35
299.236	69.12
299.451	48.64
299.665	77.31
299.88	85.5
300.094	128.51
300.309	36.35
300.523	19.97
300.737	-10.75
300.952	69.12
301.166	32.26
301.381	19.97
301.595	-14.85
301.809	-16.9
302.024	-49.66
302.238	1.54
302.452	65.02
302.667	11.78
302.881	65.02
303.095	101.89
303.309	7.68
303.524	32.26
303.738	48.64
303.952	28.16
304.166	60.93
304.381	1.54
304.595	3.58
304.809	-76.29
305.023	42.5
305.237	48.64
305.452	-8.7
305.666	-18.94
305.88	48.64
306.094	13.82
306.308	114.17
306.522	5.63
306.736	28.16
306.95	65.02
307.164	11.78
307.379	19.97
307.593	77.31
307.807	65.02
308.021	36.35
308.235	44.54
308.449	-10.75
308.663	11.78
308.877	56.83
309.091	3.58
309.305	9.73
309.519	38.4
309.733	101.89
309.947	3.58
310.161	9.73
310.374	28.16
310.588	46.59
310.802	19.97
311.016	32.26
311.23	101.89
311.444	-43.52
311.658	-12.8
311.872	11.78
312.085	77.31
312.299	38.4
312.513	54.78
312.727	38.4
312.941	40.45
313.154	17.92
313.368	5.63
313.582	116.22
313.796	1.54
314.009	83.45
314.223	71.17
314.437	40.45
314.651	13.82
314.864	-14.85
315.078	97.79
315.292	24.06
315.505	13.82
315.719	-14.85
315.933	44.54
316.146	-31.23
316.36	89.6
316.573	95.74
316.787	11.78
317.001	30.21
317.214	-14.85
317.428	-2.56
317.641	-35.33
317.855	60.93
318.068	32.26
318.282	87.55
318.495	91.65
318.709	34.3
318.922	44.54
319.136	11.78
319.349	65.02
319.563	-10.75
319.776	101.89
319.99	69.12
320.203	-0.51
320.417	38.4
320.63	60.93
320.843	97.79
321.057	71.17
321.27	15.87
321.483	65.02
321.697	-27.14
321.91	-0.51
322.124	52.74
322.337	52.74
322.55	19.97
322.763	-23.04
322.977	-0.51
323.19	-49.66
323.403	54.78
323.617	44.54
323.83	28.16
324.043	32.26
324.256	44.54
324.469	-18.94
324.683	44.54
324.896	19.97
325.109	28.16
325.322	3.58
325.535	44.54
325.748	24.06
325.962	7.68
326.175	3.58
326.388	-12.8
326.601	38.4
326.814	-2.56
327.027	85.5
327.24	11.78
327.453	38.4
327.666	17.92
327.879	24.06
328.092	-2.56
328.305	116.22
328.518	3.58
328.731	60.93
328.944	54.78
329.157	77.31
329.37	28.16
329.583	11.78
329.796	114.17
330.009	-51.71
330.222	24.06
330.435	26.11
330.648	24.06
330.861	-39.42
331.073	46.59
331.286	69.12
331.499	95.74
331.712	-0.51
331.925	99.84
332.138	52.74
332.35	50.69
332.563	-29.18
332.776	118.27
332.989	38.4
333.202	38.4
333.414	-8.7
333.627	11.78
333.84	62.98
334.053	9.73
334.265	28.16
334.478	-25.09
334.691	124.41
334.903	7.68
335.116	52.74
335.329	48.64
335.541	52.74
335.754	28.16
335.966	36.35
336.179	19.97
336.392	65.02
336.604	22.02
336.817	15.87
337.029	85.5
337.242	67.07
337.454	22.02
337.667	13.82
337.88	79.36
338.092	19.97
338.305	-12.8
338.517	-10.75
338.729	26.11
338.942	60.93
339.154	28.16
339.367	15.87
339.579	30.21
339.792	36.35
340.004	28.16
340.217	36.35
340.429	1.54
340.641	-0.51
340.854	11.78
341.066	62.98
341.278	101.89
341.491	105.98
341.703	101.89
341.915	-53.76
342.128	67.07
342.34	69.12
342.552	85.5
342.764	-23.04
342.977	-10.75
343.189	79.36
343.401	32.26
343.613	32.26
343.826	15.87
344.038	7.68
344.25	36.35
344.462	-4.61
344.674	11.78
344.886	-10.75
345.099	89.6
345.311	62.98
345.523	52.74
345.735	-37.38
345.947	36.35
346.159	69.12
346.371	3.58
346.583	114.17
346.795	11.78
347.007	28.16
347.219	44.54
347.431	54.78
347.643	151.04
347.855	19.97
348.067	58.88
348.279	-45.57
348.491	60.93
348.703	67.07
348.915	62.98
349.127	7.68
349.339	-4.61
349.551	1.54
349.763	60.93
349.975	36.35
350.187	7.68
350.399	-0.51
350.61	15.87
350.822	13.82
351.034	77.31
351.246	105.98
351.458	85.5
351.669	11.78
351.881	38.4
352.093	110.08
352.305	30.21
352.517	17.92
352.728	136.7
352.94	110.08
353.152	73.21
353.363	30.21
353.575	40.45
353.787	-35.33
353.999	-2.56
354.21	40.45
354.422	52.74
354.633	17.92
354.845	-27.14
355.057	36.35
355.268	15.87
355.48	-0.51
355.692	-4.61
355.903	73.21
356.115	-10.75
356.326	13.82
356.538	36.35
356.749	42.5
356.961	17.92
357.172	38.4
357.384	28.16
357.595	50.69
357.807	101.89
358.018	85.5
358.23	46.59
358.441	40.45
358.653	44.54
358.864	-4.61
359.075	5.63
359.287	-10.75
359.498	120.32
359.709	7.68
359.921	46.59
360.132	110.08
360.344	40.45
360.555	-49.66
360.766	65.02
360.977	30.21
361.189	7.68
361.4	32.26
361.611	60.93
361.823	110.08
362.034	5.63
362.245	30.21
362.456	-18.94
362.667	22.02
362.879	120.32
363.09	-49.66
363.301	13.82
363.512	38.4
363.723	42.5
363.935	-0.51
364.146	95.74
364.357	87.55
364.568	22.02
364.779	-16.9
364.99	62.98
365.201	-27.14
365.412	77.31
365.623	-8.7
365.834	85.5
366.045	36.35
366.256	101.89
366.467	-14.85
366.678	46.59
366.889	69.12
367.1	50.69
367.311	38.4
367.522	5.63
367.733	19.97
367.944	46.59
368.155	-18.94
368.366	77.31
368.577	36.35
368.788	24.06
368.999	52.74
369.209	36.35
369.42	126.46
369.631	97.79
369.842	-0.51
370.053	11.78
370.264	79.36
370.474	30.21
370.685	-10.75
370.896	85.5
371.107	60.93
371.317	93.69
371.528	-76.29
371.739	114.17
371.95	75.26
372.16	101.89
372.371	9.73
372.582	9.73
372.792	97.79
373.003	30.21
373.214	-76.29
373.424	46.59
373.635	13.82
373.846	60.93
374.056	52.74
374.267	3.58
374.477	15.87
374.688	83.45
374.898	112.13
375.109	110.08
375.319	30.21
375.53	101.89
375.74	60.93
375.951	52.74
376.161	-0.51
376.372	69.12
376.582	11.78
376.793	62.98
377.003	-49.66
377.214	-20.99
377.424	93.69
377.635	36.35
377.845	-43.52
378.055	54.78
378.266	-4.61
378.476	34.3
378.686	13.82
378.897	69.12
379.107	93.69
379.317	48.64
379.528	46.59
379.738	60.93
379.948	-12.8
380.158	30.21
380.369	5.63
380.579	110.08
380.789	101.89
380.999	60.93
381.21	93.69
381.42	93.69
381.63	-12.8
381.84	52.74
382.05	71.17
382.261	26.11
382.471	122.37
382.681	13.82
382.891	28.16
383.101	73.21
383.311	-12.8
383.521	54.78
383.731	7.68
383.941	67.07
384.151	15.87
384.361	7.68
384.571	97.79
384.781	15.87
384.991	134.65
385.201	112.13
385.411	5.63
385.621	38.4
385.831	81.41
386.041	-4.61
386.251	9.73
386.461	103.93
386.671	65.02
386.881	81.41
387.091	54.78
387.301	36.35
387.511	-8.7
387.72	40.45
387.93	40.45
388.14	89.6
388.35	-0.51
388.56	93.69
388.769	30.21
388.979	99.84
389.189	-29.18
389.399	-29.18
389.609	30.21
389.818	93.69
390.028	24.06
390.238	9.73
390.447	26.11
390.657	56.83
390.867	75.26
391.076	-0.51
391.286	93.69
391.496	52.74
391.705	-20.99
391.915	28.16
392.125	54.78
392.334	93.69
392.544	62.98
392.753	-33.28
392.963	17.92
393.172	69.12
393.382	114.17
393.591	120.32
393.801	28.16
394.01	52.74
394.22	81.41
394.429	40.45
394.639	62.98
394.848	93.69
395.058	28.16
395.267	32.26
395.477	69.12
395.686	151.04
395.895	85.5
396.105	136.7
396.314	60.93
396.524	73.21
396.733	85.5
396.942	103.93
397.152	52.74
397.361	93.69
397.57	114.17
397.78	79.36
397.989	52.74
398.198	93.69
398.407	85.5
398.617	32.26
398.826	128.51
399.035	71.17
399.244	97.79
399.453	62.98
399.663	93.69
399.872	140.8
400.081	34.3
400.29	54.78
400.499	77.31
400.708	101.89
400.917	67.07
401.127	118.27
401.336	85.5
401.545	73.21
401.754	97.79
401.963	118.27
402.172	93.69
402.381	79.36
402.59	54.78
402.799	60.93
403.008	36.35
403.217	103.93
403.426	22.02
403.635	151.04
403.844	118.27
404.053	122.37
404.262	52.74
404.471	144.89
404.68	69.12
404.888	46.59
405.097	151.04
405.306	167.42
405.515	110.08
405.724	134.65
405.933	175.61
406.142	169.47
406.35	151.04
406.559	128.51
406.768	73.21
406.977	134.65
407.185	212.48
407.394	267.77
407.603	71.17
407.812	183.81
408.02	224.76
408.229	155.13
408.438	204.28
408.646	189.95
408.855	192
409.064	85.5
409.272	220.67
409.481	257.53
409.69	220.67
409.898	216.57
410.107	298.49
410.315	218.62
410.524	273.92
410.733	282.11
410.941	241.15
411.15	237.05
411.358	310.78
411.567	335.35
411.775	249.34
411.984	378.36
412.192	355.83
412.401	259.58
412.609	445.95
412.818	392.7
413.026	388.6
413.234	474.62
413.443	407.03
413.651	374.27
413.86	429.56
414.068	495.1
414.276	507.38
414.485	445.95
414.693	495.1
414.901	591.35
415.11	562.68
415.318	482.81
415.526	577.02
415.734	603.64
415.943	658.93
416.151	650.74
416.359	611.83
416.567	726.52
416.776	716.28
416.984	658.93
417.192	744.95
417.4	794.1
417.608	708.09
417.817	757.24
418.025	873.97
418.233	878.07
418.441	822.77
418.649	921.07
418.857	939.51
419.065	1027.57
419.273	929.27
419.481	994.8
419.689	1052.14
419.897	1179.12
420.105	1148.4
420.313	1224.17
420.521	1279.47
420.729	1215.98
420.937	1263.08
421.145	1371.63
421.353	1455.59
421.561	1488.36
421.769	1453.55
421.977	1637.86
422.185	1480.17
422.393	1510.89
422.601	1707.49
422.809	1760.74
423.017	1723.88
423.224	1871.33
423.432	1848.8
423.64	1971.68
423.848	2129.38
424.056	1963.49
424.263	2256.35
424.471	2252.25
424.679	2182.62
424.887	2342.36
425.094	2450.91
425.302	2338.27
425.51	2645.46
425.718	2600.41
425.925	2495.96
426.133	2700.76
426.341	2776.53
426.548	2960.85
426.756	2913.75
426.964	3018.19
427.171	3118.54
427.379	3263.95
427.586	3431.88
427.794	3370.44
428.001	3448.27
428.209	3739.08
428.417	3646.92
428.624	3943.88
428.832	3960.26
429.039	3882.44
429.247	3821
429.454	4173.25
429.662	4505.02
429.869	4140.48
430.076	4634.04
430.284	4427.2
430.491	4550.07
430.699	4861.37
430.906	4789.69
431.114	5029.3
431.321	5109.17
431.528	5078.45
431.736	5619.11
431.943	5895.59
432.15	5598.63
432.358	5764.52
432.565	6030.76
432.772	5930.41
432.979	6348.19
433.187	6417.82
433.394	6534.56
433.601	6798.74
433.808	6927.77
434.016	6802.84
434.223	7194
434.43	7503.25
434.637	7269.78
434.844	7826.82
435.052	8009.09
435.259	7904.65
435.466	8166.79
435.673	8027.53
435.88	8504.7
436.087	8924.54
436.294	9018.74
436.501	8779.13
436.708	9004.41
436.915	9213.3
437.122	9518.45
437.329	9639.28
437.537	10155.37
437.743	10001.77
437.95	10001.77
438.157	10497.38
438.364	10868.06
438.571	10954.07
438.778	10939.74
438.985	11793.74
439.192	11464.02
439.399	11803.98
439.606	11664.72
439.813	12332.36
440.02	12809.53
440.227	12547.39
440.433	12606.78
440.64	13073.72
440.847	12805.44
441.054	13108.54
441.261	13948.2
441.467	13978.92
441.674	14261.54
441.881	14497.06
442.088	14552.35
442.294	14654.75
442.501	15084.83
442.708	15050.01
442.914	15891.73
443.121	16379.14
443.328	15942.92
443.534	17044.73
443.741	16477.44
443.948	16338.18
444.154	17356.02
444.361	17583.35
444.568	17808.62
444.774	17558.77
444.981	17849.58
445.187	18408.68
445.394	19096.8
445.6	18662.63
445.807	20649.16
446.013	19557.59
446.22	20143.31
446.426	20978.88
446.633	21337.27
446.839	22314.16
447.046	21089.47
447.252	22150.32
447.459	22160.56
447.665	22330.54
447.871	23194.78
448.078	24036.5
448.284	23084.19
448.491	23768.21
448.697	24394.89
448.903	25171.07
449.11	25273.47
449.316	24745.09
449.522	25224.32
449.728	25488.51
449.935	26203.25
450.141	25891.96
450.347	26725.48
450.553	26023.03
450.76	26201.2
450.966	27139.17
451.172	26784.87
451.378	27593.82
451.584	27165.79
451.791	27544.67
451.997	28116.05
452.203	28071
452.409	28275.79
452.615	28154.96
452.821	26979.43
453.027	26762.34
453.233	27984.98
453.44	26764.39
453.646	27548.76
453.852	27657.31
454.058	27640.92
454.264	27028.58
454.47	27626.59
454.676	26811.49
454.882	28253.26
455.088	25828.47
455.294	26332.27
455.5	26498.16
455.705	26997.86
455.911	25873.53
456.117	25445.5
456.323	24927.36
456.529	23757.97
456.735	24935.56
456.941	24001.68
457.147	23989.39
457.352	22731.94
457.558	22766.76
457.764	22860.96
457.97	22508.71
458.176	22111.41
458.381	22197.42
458.587	21255.36
458.793	21062.85
458.999	19967.18
459.204	21572.79
459.41	20831.43
459.616	19373.27
459.821	19383.51
460.027	19635.41
460.233	19107.04
460.438	18246.89
460.644	18177.26
460.85	17644.79
461.055	17026.3
461.261	17173.75
461.466	16024.84
461.672	15572.24
461.878	16612.61
462.083	15568.15
462.289	15133.98
462.494	15252.76
462.7	14357.8
462.905	14161.19
463.111	14568.74
463.316	14613.79
463.522	14259.49
463.727	14150.95
463.932	14310.69
464.138	14279.97
464.343	13903.15
464.549	13815.09
464.754	14036.27
464.959	13940.01
465.165	14021.93
465.37	13362.48
465.575	13147.45
465.781	13538.61
465.986	13610.29
466.191	13172.02
466.397	12705.09
466.602	12303.68
466.807	12590.4
467.012	12774.72
467.218	12524.86
467.423	12301.64
467.628	12508.48
