Data from USB4F104151__67__14-43-18-238.txt Node

Date: Thu Mar 13 14:43:18 EDT 2025
User: louis
Spectrometer: USB4F10415
Trigger mode: 4
Integration Time (sec): 2.000000E-2
Scans to average: 1
Electric dark correction enabled: true
Nonlinearity correction enabled: false
Boxcar width: 0
XAxis mode: Wavelengths
Number of Pixels in Spectrum: 3648
>>>>>Begin Spectral Data<<<<<
178.204	-55.81
178.424	-55.81
178.644	-55.81
178.864	-127.49
179.084	-135.68
179.304	-14.85
179.524	36.35
179.744	28.16
179.964	13.82
180.184	36.35
180.404	-4.61
180.624	-55.81
180.844	34.3
181.064	-78.33
181.283	-47.62
181.503	-23.04
181.723	75.26
181.943	-2.56
182.163	58.88
182.383	-37.38
182.602	-4.61
182.822	62.98
183.042	38.4
183.262	-29.18
183.482	19.97
183.701	-43.52
183.921	-6.66
184.141	-72.19
184.361	77.31
184.58	9.73
184.8	75.26
185.02	52.74
185.239	13.82
185.459	-27.14
185.679	28.16
185.898	-70.14
186.118	40.45
186.338	5.63
186.557	34.3
186.777	-41.47
186.997	1.54
187.216	-10.75
187.436	26.11
187.655	17.92
187.875	58.88
188.095	-31.23
188.314	1.54
188.534	17.92
188.753	-39.42
188.973	-10.75
189.192	-2.56
189.412	44.54
189.631	34.3
189.851	-43.52
190.07	75.26
190.29	-2.56
190.509	-12.8
190.729	13.82
190.948	19.97
191.168	52.74
191.387	67.07
191.607	-2.56
191.826	3.58
192.045	-14.85
192.265	-29.18
192.484	30.21
192.704	75.26
192.923	-20.99
193.142	44.54
193.362	15.87
193.581	36.35
193.8	1.54
194.02	46.59
194.239	-57.86
194.458	-31.23
194.678	-43.52
194.897	30.21
195.116	83.45
195.335	22.02
195.555	60.93
195.774	91.65
195.993	15.87
196.212	-2.56
196.432	11.78
196.651	38.4
196.87	58.88
197.089	42.5
197.308	26.11
197.528	62.98
197.747	-0.51
197.966	71.17
198.185	103.93
198.404	-10.75
198.623	87.55
198.842	38.4
199.062	-18.94
199.281	108.03
199.5	5.63
199.719	-14.85
199.938	5.63
200.157	58.88
200.376	-25.09
200.595	-10.75
200.814	1.54
201.033	69.12
201.252	9.73
201.471	50.69
201.69	30.21
201.909	50.69
202.128	79.36
202.347	-6.66
202.566	1.54
202.785	-20.99
203.004	-61.95
203.223	69.12
203.442	-25.09
203.661	-39.42
203.879	42.5
204.098	36.35
204.317	-31.23
204.536	28.16
204.755	-49.66
204.974	75.26
205.193	13.82
205.411	11.78
205.63	69.12
205.849	81.41
206.068	-0.51
206.287	-23.04
206.505	-8.7
206.724	50.69
206.943	17.92
207.162	19.97
207.381	83.45
207.599	-88.57
207.818	17.92
208.037	9.73
208.255	3.58
208.474	11.78
208.693	19.97
208.911	-47.62
209.13	26.11
209.349	-10.75
209.567	-14.85
209.786	91.65
210.005	116.22
210.223	36.35
210.442	-12.8
210.661	38.4
210.879	75.26
211.098	34.3
211.316	81.41
211.535	38.4
211.753	-20.99
211.972	-2.56
212.191	17.92
212.409	46.59
212.628	54.78
212.846	-4.61
213.065	58.88
213.283	75.26
213.502	9.73
213.72	-14.85
213.938	-53.76
214.157	28.16
214.375	15.87
214.594	-16.9
214.812	110.08
215.031	52.74
215.249	26.11
215.467	1.54
215.686	-29.18
215.904	-47.62
216.122	-4.61
216.341	42.5
216.559	28.16
216.778	50.69
216.996	99.84
217.214	38.4
217.432	-10.75
217.651	-29.18
217.869	75.26
218.087	-4.61
218.306	-10.75
218.524	26.11
218.742	1.54
218.96	108.03
219.179	11.78
219.397	9.73
219.615	58.88
219.833	34.3
220.051	-37.38
220.27	32.26
220.488	9.73
220.706	83.45
220.924	-10.75
221.142	13.82
221.36	71.17
221.578	-2.56
221.796	87.55
222.015	50.69
222.233	46.59
222.451	153.09
222.669	-23.04
222.887	108.03
223.105	83.45
223.323	1.54
223.541	-23.04
223.759	17.92
223.977	9.73
224.195	77.31
224.413	22.02
224.631	50.69
224.849	-2.56
225.067	179.71
225.285	34.3
225.503	-14.85
225.721	-29.18
225.939	42.5
226.157	-8.7
226.375	44.54
226.592	93.69
226.81	75.26
227.028	48.64
227.246	85.5
227.464	22.02
227.682	26.11
227.9	-12.8
228.117	-43.52
228.335	42.5
228.553	-12.8
228.771	79.36
228.989	-37.38
229.206	-20.99
229.424	-43.52
229.642	3.58
229.86	9.73
230.077	60.93
230.295	17.92
230.513	65.02
230.731	11.78
230.948	22.02
231.166	9.73
231.384	-4.61
231.601	3.58
231.819	69.12
232.037	-10.75
232.254	58.88
232.472	22.02
232.689	-43.52
232.907	91.65
233.125	26.11
233.342	-47.62
233.56	-53.76
233.777	-12.8
233.995	65.02
234.213	91.65
234.43	-8.7
234.648	46.59
234.865	-74.24
235.083	54.78
235.3	-20.99
235.518	-2.56
235.735	77.31
235.953	30.21
236.17	46.59
236.388	87.55
236.605	58.88
236.822	38.4
237.04	69.12
237.257	-39.42
237.475	38.4
237.692	26.11
237.909	34.3
238.127	38.4
238.344	69.12
238.562	15.87
238.779	-14.85
238.996	-55.81
239.214	5.63
239.431	54.78
239.648	-10.75
239.865	1.54
240.083	-41.47
240.3	-37.38
240.517	-12.8
240.735	3.58
240.952	56.83
241.169	95.74
241.386	26.11
241.603	11.78
241.821	13.82
242.038	58.88
242.255	58.88
242.472	-14.85
242.689	-12.8
242.907	50.69
243.124	13.82
243.341	32.26
243.558	-12.8
243.775	9.73
243.992	-31.23
244.209	17.92
244.426	54.78
244.643	36.35
244.86	-10.75
245.078	42.5
245.295	-14.85
245.512	13.82
245.729	-6.66
245.946	69.12
246.163	77.31
246.38	42.5
246.597	50.69
246.814	24.06
247.031	11.78
247.248	58.88
247.464	58.88
247.681	36.35
247.898	99.84
248.115	9.73
248.332	7.68
248.549	17.92
248.766	58.88
248.983	91.65
249.2	71.17
249.417	34.3
249.633	11.78
249.85	75.26
250.067	-18.94
250.284	-14.85
250.501	50.69
250.717	79.36
250.934	-6.66
251.151	-43.52
251.368	-0.51
251.585	26.11
251.801	44.54
252.018	17.92
252.235	32.26
252.451	-0.51
252.668	42.5
252.885	38.4
253.102	1.54
253.318	77.31
253.535	50.69
253.752	17.92
253.968	-20.99
254.185	-23.04
254.401	3.58
254.618	38.4
254.835	-68.09
255.051	46.59
255.268	3.58
255.484	-20.99
255.701	42.5
255.917	52.74
256.134	38.4
256.351	67.07
256.567	5.63
256.784	50.69
257	-14.85
257.217	58.88
257.433	34.3
257.65	34.3
257.866	17.92
258.082	58.88
258.299	-4.61
258.515	34.3
258.732	-39.42
258.948	-4.61
259.165	-31.23
259.381	50.69
259.597	46.59
259.814	-4.61
260.03	-4.61
260.246	19.97
260.463	36.35
260.679	50.69
260.895	-29.18
261.112	46.59
261.328	-12.8
261.544	-39.42
261.761	144.89
261.977	34.3
262.193	13.82
262.409	-14.85
262.626	22.02
262.842	24.06
263.058	-47.62
263.274	-53.76
263.49	-47.62
263.707	52.74
263.923	1.54
264.139	50.69
264.355	28.16
264.571	112.13
264.787	-2.56
265.004	38.4
265.22	-72.19
265.436	-4.61
265.652	-0.51
265.868	-6.66
266.084	-31.23
266.3	-53.76
266.516	1.54
266.732	50.69
266.948	56.83
267.164	17.92
267.38	-6.66
267.596	-10.75
267.812	122.37
268.028	54.78
268.244	44.54
268.46	-6.66
268.676	-31.23
268.892	83.45
269.108	22.02
269.324	-12.8
269.54	-72.19
269.756	19.97
269.972	50.69
270.188	58.88
270.403	-47.62
270.619	50.69
270.835	58.88
271.051	93.69
271.267	79.36
271.483	-6.66
271.698	26.11
271.914	54.78
272.13	3.58
272.346	5.63
272.562	52.74
272.777	-12.8
272.993	54.78
273.209	38.4
273.425	11.78
273.64	50.69
273.856	77.31
274.072	13.82
274.287	-14.85
274.503	-6.66
274.719	24.06
274.934	1.54
275.15	-12.8
275.366	9.73
275.581	13.82
275.797	-14.85
276.012	46.59
276.228	11.78
276.444	3.58
276.659	134.65
276.875	75.26
277.09	-12.8
277.306	1.54
277.521	58.88
277.737	44.54
277.952	44.54
278.168	28.16
278.383	30.21
278.599	-23.04
278.814	1.54
279.03	26.11
279.245	-14.85
279.461	-18.94
279.676	67.07
279.892	32.26
280.107	-4.61
280.322	44.54
280.538	67.07
280.753	71.17
280.969	34.3
281.184	79.36
281.399	60.93
281.615	-23.04
281.83	83.45
282.045	3.58
282.26	58.88
282.476	-14.85
282.691	85.5
282.906	30.21
283.122	22.02
283.337	7.68
283.552	1.54
283.767	11.78
283.983	58.88
284.198	17.92
284.413	9.73
284.628	-20.99
284.843	-23.04
285.058	58.88
285.274	-12.8
285.489	-6.66
285.704	34.3
285.919	-12.8
286.134	-14.85
286.349	42.5
286.564	42.5
286.779	103.93
286.995	30.21
287.21	-10.75
287.425	13.82
287.64	11.78
287.855	71.17
288.07	-16.9
288.285	42.5
288.5	13.82
288.715	15.87
288.93	52.74
289.145	1.54
289.36	40.45
289.575	-12.8
289.79	116.22
290.004	-6.66
290.219	69.12
290.434	-27.14
290.649	13.82
290.864	30.21
291.079	38.4
291.294	38.4
291.509	-4.61
291.724	75.26
291.938	11.78
292.153	-45.57
292.368	-10.75
292.583	13.82
292.798	26.11
293.012	5.63
293.227	56.83
293.442	52.74
293.657	-31.23
293.871	-10.75
294.086	1.54
294.301	81.41
294.516	36.35
294.73	1.54
294.945	-20.99
295.16	3.58
295.374	83.45
295.589	62.98
295.804	17.92
296.018	69.12
296.233	69.12
296.447	83.45
296.662	-20.99
296.877	-29.18
297.091	28.16
297.306	69.12
297.52	9.73
297.735	9.73
297.949	120.32
298.164	91.65
298.378	-33.28
298.593	42.5
298.807	-61.95
299.022	56.83
299.236	-23.04
299.451	-14.85
299.665	-4.61
299.88	54.78
300.094	54.78
300.309	5.63
300.523	38.4
300.737	30.21
300.952	38.4
301.166	-16.9
301.381	3.58
301.595	95.74
301.809	48.64
302.024	11.78
302.238	-51.71
302.452	42.5
302.667	17.92
302.881	67.07
303.095	73.21
303.309	30.21
303.524	22.02
303.738	-8.7
303.952	36.35
304.166	11.78
304.381	-47.62
304.595	38.4
304.809	11.78
305.023	3.58
305.237	26.11
305.452	11.78
305.666	9.73
305.88	46.59
306.094	85.5
306.308	36.35
306.522	22.02
306.736	103.93
306.95	38.4
307.164	71.17
307.379	28.16
307.593	46.59
307.807	28.16
308.021	58.88
308.235	-12.8
308.449	-23.04
308.663	-12.8
308.877	67.07
309.091	5.63
309.305	44.54
309.519	36.35
309.733	93.69
309.947	-64
310.161	28.16
310.374	75.26
310.588	-8.7
310.802	-29.18
311.016	73.21
311.23	34.3
311.444	-14.85
311.658	34.3
311.872	83.45
312.085	19.97
312.299	91.65
312.513	9.73
312.727	30.21
312.941	30.21
313.154	75.26
313.368	-59.9
313.582	120.32
313.796	19.97
314.009	-12.8
314.223	-6.66
314.437	38.4
314.651	93.69
314.864	-18.94
315.078	-31.23
315.292	60.93
315.505	26.11
315.719	34.3
315.933	67.07
316.146	87.55
316.36	-39.42
316.573	56.83
316.787	34.3
317.001	17.92
317.214	-39.42
317.428	-4.61
317.641	-23.04
317.855	17.92
318.068	-18.94
318.282	62.98
318.495	36.35
318.709	-18.94
318.922	15.87
319.136	118.27
319.349	38.4
319.563	52.74
319.776	1.54
319.99	9.73
320.203	19.97
320.417	83.45
320.63	-14.85
320.843	-31.23
321.057	75.26
321.27	22.02
321.483	-31.23
321.697	52.74
321.91	44.54
322.124	-29.18
322.337	91.65
322.55	34.3
322.763	28.16
322.977	-29.18
323.19	5.63
323.403	19.97
323.617	1.54
323.83	26.11
324.043	46.59
324.256	89.6
324.469	-2.56
324.683	85.5
324.896	9.73
325.109	9.73
325.322	17.92
325.535	62.98
325.748	50.69
325.962	-12.8
326.175	44.54
326.388	48.64
326.601	-12.8
326.814	-35.33
327.027	50.69
327.24	50.69
327.453	-4.61
327.666	128.51
327.879	11.78
328.092	11.78
328.305	-18.94
328.518	5.63
328.731	28.16
328.944	-20.99
329.157	58.88
329.37	50.69
329.583	77.31
329.796	120.32
330.009	-14.85
330.222	34.3
330.435	34.3
330.648	42.5
330.861	67.07
331.073	93.69
331.286	99.84
331.499	65.02
331.712	13.82
331.925	42.5
332.138	22.02
332.35	50.69
332.563	9.73
332.776	58.88
332.989	40.45
333.202	36.35
333.414	-35.33
333.627	22.02
333.84	13.82
334.053	58.88
334.265	11.78
334.478	67.07
334.691	11.78
334.903	38.4
335.116	9.73
335.329	62.98
335.541	26.11
335.754	60.93
335.966	-14.85
336.179	-10.75
336.392	-27.14
336.604	148.99
336.817	52.74
337.029	75.26
337.242	71.17
337.454	-6.66
337.667	-18.94
337.88	-16.9
338.092	9.73
338.305	24.06
338.517	19.97
338.729	75.26
338.942	79.36
339.154	50.69
339.367	28.16
339.579	89.6
339.792	-18.94
340.004	11.78
340.217	-10.75
340.429	69.12
340.641	67.07
340.854	17.92
341.066	19.97
341.278	124.41
341.491	73.21
341.703	30.21
341.915	40.45
342.128	50.69
342.34	-23.04
342.552	36.35
342.764	36.35
342.977	-6.66
343.189	22.02
343.401	54.78
343.613	3.58
343.826	40.45
344.038	58.88
344.25	93.69
344.462	28.16
344.674	60.93
344.886	19.97
345.099	28.16
345.311	58.88
345.523	9.73
345.735	52.74
345.947	50.69
346.159	24.06
346.371	46.59
346.583	-31.23
346.795	124.41
347.007	60.93
347.219	71.17
347.431	1.54
347.643	30.21
347.855	89.6
348.067	77.31
348.279	19.97
348.491	24.06
348.703	58.88
348.915	38.4
349.127	9.73
349.339	17.92
349.551	-25.09
349.763	44.54
349.975	-16.9
350.187	44.54
350.399	87.55
350.61	30.21
350.822	-47.62
351.034	58.88
351.246	67.07
351.458	91.65
351.669	99.84
351.881	54.78
352.093	-18.94
352.305	69.12
352.517	-4.61
352.728	85.5
352.94	9.73
353.152	67.07
353.363	-51.71
353.575	48.64
353.787	60.93
353.999	26.11
354.21	124.41
354.422	-47.62
354.633	-4.61
354.845	-4.61
355.057	87.55
355.268	69.12
355.48	85.5
355.692	34.3
355.903	-29.18
356.115	60.93
356.326	67.07
356.538	83.45
356.749	5.63
356.961	5.63
357.172	50.69
357.384	-31.23
357.595	60.93
357.807	-6.66
358.018	-2.56
358.23	101.89
358.441	69.12
358.653	9.73
358.864	75.26
359.075	26.11
359.287	9.73
359.498	71.17
359.709	77.31
359.921	44.54
360.132	-29.18
360.344	26.11
360.555	67.07
360.766	28.16
360.977	11.78
361.189	26.11
361.4	-27.14
361.611	67.07
361.823	28.16
362.034	44.54
362.245	-10.75
362.456	-39.42
362.667	19.97
362.879	-14.85
363.09	22.02
363.301	11.78
363.512	17.92
363.723	1.54
363.935	62.98
364.146	60.93
364.357	48.64
364.568	110.08
364.779	-6.66
364.99	17.92
365.201	-6.66
365.412	87.55
365.623	-47.62
365.834	28.16
366.045	-39.42
366.256	-31.23
366.467	13.82
366.678	42.5
366.889	58.88
367.1	-31.23
367.311	44.54
367.522	-4.61
367.733	13.82
367.944	67.07
368.155	15.87
368.366	71.17
368.577	65.02
368.788	54.78
368.999	17.92
369.209	50.69
369.42	132.61
369.631	124.41
369.842	-18.94
370.053	58.88
370.264	3.58
370.474	44.54
370.685	-57.86
370.896	85.5
371.107	85.5
371.317	-23.04
371.528	15.87
371.739	17.92
371.95	34.3
372.16	77.31
372.371	-14.85
372.582	48.64
372.792	15.87
373.003	77.31
373.214	34.3
373.424	83.45
373.635	-12.8
373.846	58.88
374.056	36.35
374.267	-20.99
374.477	42.5
374.688	-33.28
374.898	108.03
375.109	9.73
375.319	3.58
375.53	87.55
375.74	87.55
375.951	17.92
376.161	15.87
376.372	50.69
376.582	44.54
376.793	60.93
377.003	17.92
377.214	83.45
377.424	5.63
377.635	103.93
377.845	24.06
378.055	69.12
378.266	-47.62
378.476	34.3
378.686	42.5
378.897	112.13
379.107	26.11
379.317	17.92
379.528	58.88
379.738	56.83
379.948	-70.14
380.158	79.36
380.369	75.26
380.579	50.69
380.789	-2.56
380.999	67.07
381.21	-14.85
381.42	67.07
381.63	-33.28
381.84	9.73
382.05	101.89
382.261	-2.56
382.471	110.08
382.681	44.54
382.891	105.98
383.101	67.07
383.311	13.82
383.521	17.92
383.731	79.36
383.941	54.78
384.151	58.88
384.361	28.16
384.571	32.26
384.781	71.17
384.991	75.26
385.201	101.89
385.411	34.3
385.621	48.64
385.831	112.13
386.041	42.5
386.251	36.35
386.461	50.69
386.671	48.64
386.881	26.11
387.091	17.92
387.301	50.69
387.511	-41.47
387.72	-4.61
387.93	132.61
388.14	-14.85
388.35	-4.61
388.56	75.26
388.769	44.54
388.979	54.78
389.189	28.16
389.399	-10.75
389.609	73.21
389.818	85.5
390.028	71.17
390.238	122.37
390.447	118.27
390.657	132.61
390.867	60.93
391.076	34.3
391.286	62.98
391.496	83.45
391.705	30.21
391.915	108.03
392.125	56.83
392.334	30.21
392.544	75.26
392.753	1.54
392.963	22.02
393.172	15.87
393.382	9.73
393.591	136.7
393.801	13.82
394.01	42.5
394.22	52.74
394.429	7.68
394.639	-4.61
394.848	58.88
395.058	99.84
395.267	42.5
395.477	95.74
395.686	19.97
395.895	71.17
396.105	75.26
396.314	101.89
396.524	26.11
396.733	95.74
396.942	124.41
397.152	110.08
397.361	69.12
397.57	34.3
397.78	62.98
397.989	91.65
398.198	130.56
398.407	69.12
398.617	52.74
398.826	83.45
399.035	54.78
399.244	19.97
399.453	95.74
399.663	103.93
399.872	77.31
400.081	26.11
400.29	93.69
400.499	60.93
400.708	99.84
400.917	-23.04
401.127	22.02
401.336	26.11
401.545	165.37
401.754	71.17
401.963	83.45
402.172	28.16
402.381	75.26
402.59	173.57
402.799	58.88
403.008	124.41
403.217	163.33
403.426	167.42
403.635	46.59
403.844	165.37
404.053	34.3
404.262	159.23
404.471	161.28
404.68	124.41
404.888	142.85
405.097	101.89
405.306	179.71
405.515	95.74
405.724	116.22
405.933	108.03
406.142	196.09
406.35	77.31
406.559	169.47
406.768	153.09
406.977	142.85
407.185	116.22
407.394	189.95
407.603	159.23
407.812	183.81
408.02	232.96
408.229	181.76
408.438	222.72
408.646	151.04
408.855	167.42
409.064	189.95
409.272	148.99
409.481	249.34
409.69	282.11
409.898	161.28
410.107	192
410.315	247.29
410.524	284.16
410.733	284.16
410.941	247.29
411.15	339.45
411.358	257.53
411.567	390.65
411.775	300.54
411.984	235
412.192	394.75
412.401	218.62
412.609	415.23
412.818	349.69
413.026	378.36
413.234	402.94
413.443	370.17
413.651	409.08
413.86	366.07
414.068	476.66
414.276	466.42
414.485	476.66
414.693	474.62
414.901	548.34
415.11	552.44
415.318	501.24
415.526	501.24
415.734	579.06
415.943	620.02
416.151	591.35
416.359	591.35
416.567	595.45
416.776	697.85
416.984	755.19
417.192	830.96
417.4	648.69
417.608	747
417.817	773.62
418.025	837.11
418.233	994.8
418.441	902.64
418.649	837.11
418.857	1037.81
419.065	984.56
419.273	976.37
419.481	1009.14
419.689	1074.67
419.897	1095.15
420.105	1123.82
420.313	1144.3
420.521	1340.91
420.729	1187.31
420.937	1258.99
421.145	1271.28
421.353	1385.96
421.561	1394.15
421.769	1418.73
421.977	1541.61
422.185	1445.35
422.393	1644.01
422.601	1693.16
422.809	1672.68
423.017	1656.29
423.224	1658.34
423.432	1824.23
423.64	1902.05
423.848	1986.02
424.056	2002.4
424.263	2102.75
424.471	2115.04
424.679	2139.62
424.887	2328.03
425.094	2215.39
425.302	2278.88
425.51	2500.06
425.718	2561.5
425.925	2627.03
426.133	2600.41
426.341	2819.54
426.548	2819.54
426.756	2854.36
426.964	2887.12
427.171	3057.11
427.379	3200.46
427.586	3290.57
427.794	3286.48
428.001	3474.89
428.209	3622.34
428.417	3614.15
428.624	3851.72
428.832	3933.64
429.039	3837.38
429.247	3775.94
429.454	4232.64
429.662	4572.6
429.869	4171.2
430.076	4443.58
430.284	4386.24
430.491	4556.22
430.699	4697.53
430.906	4758.97
431.114	4828.6
431.321	5215.66
431.528	5113.27
431.736	5455.28
431.943	5911.97
432.15	5395.89
432.358	5637.55
432.565	6014.37
432.772	5739.94
432.979	6188.45
433.187	6245.79
433.394	6301.09
433.601	6604.19
433.808	6854.04
434.016	6776.22
434.223	7003.54
434.43	7331.22
434.637	7269.78
434.844	7736.71
435.052	7927.18
435.259	7927.18
435.466	7767.43
435.673	7744.91
435.88	8281.47
436.087	8725.88
436.294	8766.84
436.501	8549.76
436.708	8684.92
436.915	9024.89
437.122	9381.23
437.329	9467.25
437.537	9520.49
437.743	9856.36
437.95	9964.9
438.157	10296.67
438.364	10650.97
438.571	10505.57
438.778	10710.36
438.985	11912.52
439.192	11347.28
439.399	11519.31
439.606	11322.71
439.813	12113.22
440.02	12764.48
440.227	12512.58
440.433	12256.58
440.64	12744
440.847	12633.41
441.054	12879.16
441.261	13575.47
441.467	13737.26
441.674	13901.1
441.881	14365.99
442.088	14447.91
442.294	14216.49
442.501	14486.82
442.708	14824.73
442.914	15308.05
443.121	16168.2
443.328	15519
443.534	16815.36
443.741	16192.78
443.948	16006.41
444.154	17204.47
444.361	17349.88
444.568	16991.48
444.774	17052.92
444.981	17507.57
445.187	18066.67
445.394	18646.24
445.6	18273.51
445.807	20286.67
446.013	19309.79
446.22	19780.82
446.426	20266.19
446.633	20786.37
446.839	21601.46
447.046	20511.94
447.252	21707.96
447.459	21619.89
447.665	21621.94
447.871	22609.06
448.078	23575.7
448.284	22584.49
448.491	22955.17
448.697	23872.66
448.903	24636.55
449.11	24659.08
449.316	23956.63
449.522	24515.72
449.728	25312.38
449.935	25470.08
450.141	25250.94
450.347	26039.41
450.553	25287.81
450.76	25586.81
450.966	26281.07
451.172	26180.72
451.378	26973.28
451.584	26401.9
451.791	27042.92
451.997	27096.16
452.203	27262.05
452.409	27405.41
452.615	27079.78
452.821	26197.1
453.027	25715.83
453.233	27298.91
453.44	26535.02
453.646	26397.81
453.852	27038.82
454.058	27206.75
454.264	26344.56
454.47	27305.06
454.676	26291.31
454.882	27292.77
455.088	25023.62
455.294	25490.56
455.5	25875.57
455.705	26332.27
455.911	24880.26
456.117	24489.1
456.323	24378.51
456.529	23149.73
456.735	23987.35
456.941	23663.77
457.147	23207.07
457.352	22723.75
457.558	22127.79
457.764	22545.58
457.97	22021.3
458.176	21542.07
458.381	21464.25
458.587	20235.47
458.793	20489.42
458.999	19137.76
459.204	21128.38
459.41	20090.06
459.616	18920.67
459.821	19016.93
460.027	18896.1
460.233	18394.34
460.438	17620.21
460.644	17724.66
460.85	16805.12
461.055	16925.95
461.261	16620.8
461.466	15650.07
461.672	15222.04
461.878	16205.06
462.083	14955.8
462.289	14652.7
462.494	14779.68
462.7	13921.58
462.905	13663.54
463.111	13899.05
463.316	14030.12
463.522	13747.5
463.727	13677.87
463.932	13849.9
464.138	13514.03
464.343	13569.33
464.549	13638.96
464.754	13739.31
464.959	13661.49
465.165	13235.51
465.37	12862.78
465.575	12453.19
465.781	12981.56
465.986	12916.03
466.191	12590.4
466.397	12182.85
466.602	11818.32
466.807	12068.17
467.012	12166.47
467.218	12145.99
467.423	11871.56
467.628	12035.4
467.833	12610.88
