Data from USB4F104151__283__14-46-22-615.txt Node

Date: Thu Mar 13 14:46:22 EDT 2025
User: louis
Spectrometer: USB4F10415
Trigger mode: 4
Integration Time (sec): 2.000000E-2
Scans to average: 1
Electric dark correction enabled: true
Nonlinearity correction enabled: false
Boxcar width: 0
XAxis mode: Wavelengths
Number of Pixels in Spectrum: 3648
>>>>>Begin Spectral Data<<<<<
178.204	-149.5
178.424	-149.5
178.644	-149.5
178.864	-110.59
179.084	-102.4
179.304	-67.58
179.524	-30.72
179.744	-6.14
179.964	28.67
180.184	88.06
180.404	38.91
180.624	38.91
180.844	-18.43
181.064	-47.1
181.283	-63.49
181.503	12.29
181.723	26.62
181.943	-63.49
182.163	-18.43
182.383	-22.53
182.602	38.91
182.822	65.53
183.042	59.39
183.262	-28.67
183.482	51.2
183.701	-18.43
183.921	51.2
184.141	-30.72
184.361	6.14
184.58	43.01
184.8	36.86
185.02	-12.29
185.239	4.1
185.459	36.86
185.679	10.24
185.898	-14.34
186.118	63.49
186.338	-18.43
186.557	-4.1
186.777	-2.05
186.997	-10.24
187.216	40.96
187.436	63.49
187.655	20.48
187.875	26.62
188.095	-14.34
188.314	67.58
188.534	-0
188.753	43.01
188.973	26.62
189.192	79.87
189.412	20.48
189.631	83.97
189.851	10.24
190.07	47.1
190.29	-12.29
190.509	-6.14
190.729	18.43
190.948	10.24
191.168	137.21
191.387	-4.1
191.607	-51.2
191.826	83.97
192.045	45.06
192.265	-2.05
192.484	26.62
192.704	61.44
192.923	-38.91
193.142	90.11
193.362	28.67
193.581	90.11
193.8	96.25
194.02	40.96
194.239	92.16
194.458	28.67
194.678	26.62
194.897	71.68
195.116	-26.62
195.335	36.86
195.555	63.49
195.774	-38.91
195.993	-10.24
196.212	-6.14
196.432	-6.14
196.651	2.05
196.87	26.62
197.089	83.97
197.308	-28.67
197.528	10.24
197.747	67.58
197.966	-30.72
198.185	2.05
198.404	-4.1
198.623	8.19
198.842	43.01
199.062	18.43
199.281	38.91
199.5	-10.24
199.719	26.62
199.938	-6.14
200.157	43.01
200.376	67.58
200.595	30.72
200.814	34.82
201.033	-20.48
201.252	96.25
201.471	-10.24
201.69	-16.38
201.909	47.1
202.128	30.72
202.347	59.39
202.566	34.82
202.785	-2.05
203.004	20.48
203.223	135.17
203.442	51.2
203.661	-2.05
203.879	126.97
204.098	20.48
204.317	-26.62
204.536	47.1
204.755	-57.34
204.974	49.15
205.193	-0
205.411	16.38
205.63	83.97
205.849	59.39
206.068	18.43
206.287	28.67
206.505	75.77
206.724	-22.53
206.943	-34.82
207.162	-10.24
207.381	45.06
207.599	-30.72
207.818	-30.72
208.037	6.14
208.255	38.91
208.474	34.82
208.693	67.58
208.911	2.05
209.13	38.91
209.349	-14.34
209.567	43.01
209.786	26.62
210.005	32.77
210.223	55.3
210.442	34.82
210.661	57.34
210.879	-36.86
211.098	-20.48
211.316	30.72
211.535	10.24
211.753	-12.29
211.972	-34.82
212.191	-18.43
212.409	51.2
212.628	79.87
212.846	-94.21
213.065	22.53
213.283	65.53
213.502	-34.82
213.72	14.34
213.938	2.05
214.157	69.63
214.375	26.62
214.594	10.24
214.812	-6.14
215.031	-30.72
215.249	-36.86
215.467	10.24
215.686	-6.14
215.904	43.01
216.122	34.82
216.341	94.21
216.559	-10.24
216.778	61.44
216.996	2.05
217.214	14.34
217.432	-51.2
217.651	-12.29
217.869	-4.1
218.087	26.62
218.306	71.68
218.524	98.3
218.742	-36.86
218.96	2.05
219.179	20.48
219.397	18.43
219.615	51.2
219.833	-43.01
220.051	4.1
220.27	18.43
220.488	83.97
220.706	2.05
220.924	4.1
221.142	-10.24
221.36	-55.3
221.578	51.2
221.796	34.82
222.015	18.43
222.233	-47.1
222.451	69.63
222.669	12.29
222.887	79.87
223.105	45.06
223.323	12.29
223.541	2.05
223.759	65.53
223.977	-71.68
224.195	73.73
224.413	-6.14
224.631	51.2
224.849	-96.25
225.067	38.91
225.285	-98.3
225.503	45.06
225.721	-34.82
225.939	-2.05
226.157	10.24
226.375	100.35
226.592	2.05
226.81	28.67
227.028	73.73
227.246	47.1
227.464	-6.14
227.682	69.63
227.9	-14.34
228.117	10.24
228.335	61.44
228.553	-10.24
228.771	18.43
228.989	12.29
229.206	4.1
229.424	14.34
229.642	59.39
229.86	2.05
230.077	67.58
230.295	67.58
230.513	43.01
230.731	4.1
230.948	14.34
231.166	83.97
231.384	-18.43
231.601	59.39
231.819	75.77
232.037	-34.82
232.254	8.19
232.472	14.34
232.689	-18.43
232.907	10.24
233.125	-6.14
233.342	55.3
233.56	-22.53
233.777	51.2
233.995	59.39
234.213	55.3
234.43	-2.05
234.648	28.67
234.865	61.44
235.083	22.53
235.3	-30.72
235.518	61.44
235.735	18.43
235.953	71.68
236.17	51.2
236.388	36.86
236.605	65.53
236.822	129.02
237.04	34.82
237.257	51.2
237.475	-47.1
237.692	-6.14
237.909	-4.1
238.127	30.72
238.344	6.14
238.562	-28.67
238.779	-45.06
238.996	-18.43
239.214	47.1
239.431	22.53
239.648	4.1
239.865	51.2
240.083	38.91
240.3	59.39
240.517	-14.34
240.735	-0
240.952	2.05
241.169	12.29
241.386	-2.05
241.603	47.1
241.821	-36.86
242.038	59.39
242.255	36.86
242.472	10.24
242.689	77.82
242.907	26.62
243.124	-63.49
243.341	49.15
243.558	-18.43
243.775	100.35
243.992	-43.01
244.209	75.77
244.426	26.62
244.643	43.01
244.86	-34.82
245.078	47.1
245.295	51.2
245.512	38.91
245.729	-51.2
245.946	28.67
246.163	30.72
246.38	-22.53
246.597	-71.68
246.814	26.62
247.031	16.38
247.248	-61.44
247.464	81.92
247.681	63.49
247.898	63.49
248.115	86.01
248.332	22.53
248.549	45.06
248.766	43.01
248.983	92.16
249.2	45.06
249.417	4.1
249.633	98.3
249.85	20.48
250.067	-47.1
250.284	59.39
250.501	59.39
250.717	30.72
250.934	-32.77
251.151	75.77
251.368	83.97
251.585	51.2
251.801	69.63
252.018	2.05
252.235	55.3
252.451	-2.05
252.668	12.29
252.885	2.05
253.102	2.05
253.318	24.58
253.535	12.29
253.752	-47.1
253.968	-6.14
254.185	-10.24
254.401	-2.05
254.618	53.25
254.835	92.16
255.051	6.14
255.268	47.1
255.484	36.86
255.701	30.72
255.917	75.77
256.134	-22.53
256.351	61.44
256.567	10.24
256.784	43.01
257	2.05
257.217	10.24
257.433	28.67
257.65	67.58
257.866	32.77
258.082	43.01
258.299	61.44
258.515	-14.34
258.732	-18.43
258.948	-10.24
259.165	-14.34
259.381	26.62
259.597	-10.24
259.814	34.82
260.03	47.1
260.246	10.24
260.463	65.53
260.679	38.91
260.895	-0
261.112	71.68
261.328	20.48
261.544	4.1
261.761	6.14
261.977	-18.43
262.193	-4.1
262.409	43.01
262.626	67.58
262.842	67.58
263.058	20.48
263.274	28.67
263.49	34.82
263.707	-96.25
263.923	59.39
264.139	-71.68
264.355	38.91
264.571	71.68
264.787	10.24
265.004	59.39
265.22	6.14
265.436	51.2
265.652	22.53
265.868	55.3
266.084	6.14
266.3	2.05
266.516	51.2
266.732	18.43
266.948	16.38
267.164	10.24
267.38	-6.14
267.596	63.49
267.812	112.64
268.028	16.38
268.244	12.29
268.46	86.01
268.676	12.29
268.892	69.63
269.108	-2.05
269.324	-18.43
269.54	-22.53
269.756	83.97
269.972	43.01
270.188	114.69
270.403	-20.48
270.619	12.29
270.835	8.19
271.051	-22.53
271.267	-16.38
271.483	75.77
271.698	47.1
271.914	24.58
272.13	-6.14
272.346	26.62
272.562	26.62
272.777	98.3
272.993	20.48
273.209	-14.34
273.425	-6.14
273.64	-59.39
273.856	38.91
274.072	10.24
274.287	36.86
274.503	28.67
274.719	69.63
274.934	-6.14
275.15	-57.34
275.366	26.62
275.581	-2.05
275.797	26.62
276.012	51.2
276.228	77.82
276.444	51.2
276.659	45.06
276.875	49.15
277.09	28.67
277.306	32.77
277.521	-38.91
277.737	79.87
277.952	100.35
278.168	30.72
278.383	83.97
278.599	-6.14
278.814	61.44
279.03	86.01
279.245	43.01
279.461	-2.05
279.676	22.53
279.892	-34.82
280.107	49.15
280.322	10.24
280.538	-16.38
280.753	83.97
280.969	51.2
281.184	104.45
281.399	69.63
281.615	-4.1
281.83	8.19
282.045	-79.87
282.26	-34.82
282.476	69.63
282.691	28.67
282.906	12.29
283.122	-14.34
283.337	34.82
283.552	2.05
283.767	12.29
283.983	75.77
284.198	53.25
284.413	71.68
284.628	-43.01
284.843	-2.05
285.058	32.77
285.274	-26.62
285.489	-30.72
285.704	18.43
285.919	63.49
286.134	59.39
286.349	-18.43
286.564	-0
286.779	83.97
286.995	-2.05
287.21	6.14
287.425	51.2
287.64	2.05
287.855	-32.77
288.07	-47.1
288.285	59.39
288.5	32.77
288.715	12.29
288.93	59.39
289.145	14.34
289.36	43.01
289.575	-2.05
289.79	141.31
290.004	75.77
290.219	106.49
290.434	-6.14
290.649	55.3
290.864	40.96
291.079	45.06
291.294	43.01
291.509	14.34
291.724	-4.1
291.938	-2.05
292.153	-4.1
292.368	18.43
292.583	26.62
292.798	45.06
293.012	6.14
293.227	75.77
293.442	4.1
293.657	43.01
293.871	12.29
294.086	38.91
294.301	26.62
294.516	20.48
294.73	55.3
294.945	18.43
295.16	6.14
295.374	38.91
295.589	59.39
295.804	-14.34
296.018	18.43
296.233	55.3
296.447	26.62
296.662	59.39
296.877	34.82
297.091	100.35
297.306	24.58
297.52	26.62
297.735	-0
297.949	10.24
298.164	43.01
298.378	22.53
298.593	26.62
298.807	88.06
299.022	10.24
299.236	4.1
299.451	28.67
299.665	-59.39
299.88	-12.29
300.094	18.43
300.309	45.06
300.523	2.05
300.737	34.82
300.952	59.39
301.166	63.49
301.381	32.77
301.595	55.3
301.809	30.72
302.024	32.77
302.238	-14.34
302.452	30.72
302.667	49.15
302.881	73.73
303.095	30.72
303.309	53.25
303.524	-10.24
303.738	-63.49
303.952	-49.15
304.166	-22.53
304.381	18.43
304.595	51.2
304.809	34.82
305.023	96.25
305.237	6.14
305.452	51.2
305.666	51.2
305.88	26.62
306.094	67.58
306.308	-14.34
306.522	36.86
306.736	67.58
306.95	118.78
307.164	92.16
307.379	-53.25
307.593	-4.1
307.807	40.96
308.021	65.53
308.235	63.49
308.449	26.62
308.663	38.91
308.877	90.11
309.091	34.82
309.305	32.77
309.519	-12.29
309.733	51.2
309.947	-47.1
310.161	43.01
310.374	100.35
310.588	100.35
310.802	4.1
311.016	12.29
311.23	2.05
311.444	10.24
311.658	53.25
311.872	6.14
312.085	96.25
312.299	36.86
312.513	4.1
312.727	32.77
312.941	-47.1
313.154	16.38
313.368	28.67
313.582	71.68
313.796	-61.44
314.009	-18.43
314.223	75.77
314.437	40.96
314.651	4.1
314.864	-30.72
315.078	-45.06
315.292	4.1
315.505	-14.34
315.719	-14.34
315.933	45.06
316.146	-71.68
316.36	-24.58
316.573	55.3
316.787	55.3
317.001	30.72
317.214	-8.19
317.428	67.58
317.641	-30.72
317.855	40.96
318.068	53.25
318.282	98.3
318.495	143.36
318.709	86.01
318.922	22.53
319.136	90.11
319.349	-14.34
319.563	34.82
319.776	18.43
319.99	6.14
320.203	81.92
320.417	69.63
320.63	26.62
320.843	43.01
321.057	12.29
321.27	59.39
321.483	-43.01
321.697	59.39
321.91	40.96
322.124	6.14
322.337	36.86
322.55	28.67
322.763	14.34
322.977	-14.34
323.19	-45.06
323.403	69.63
323.617	55.3
323.83	43.01
324.043	2.05
324.256	-8.19
324.469	92.16
324.683	94.21
324.896	18.43
325.109	47.1
325.322	2.05
325.535	67.58
325.748	28.67
325.962	63.49
326.175	43.01
326.388	34.82
326.601	53.25
326.814	14.34
327.027	16.38
327.24	67.58
327.453	10.24
327.666	59.39
327.879	143.36
328.092	75.77
328.305	-4.1
328.518	34.82
328.731	-22.53
328.944	26.62
329.157	47.1
329.37	-28.67
329.583	77.82
329.796	51.2
330.009	18.43
330.222	26.62
330.435	-6.14
330.648	34.82
330.861	14.34
331.073	12.29
331.286	-14.34
331.499	26.62
331.712	10.24
331.925	18.43
332.138	63.49
332.35	-22.53
332.563	10.24
332.776	26.62
332.989	14.34
333.202	69.63
333.414	-2.05
333.627	38.91
333.84	-6.14
334.053	104.45
334.265	-53.25
334.478	65.53
334.691	86.01
334.903	-59.39
335.116	-32.77
335.329	-6.14
335.541	10.24
335.754	108.54
335.966	26.62
336.179	-14.34
336.392	-51.2
336.604	14.34
336.817	96.25
337.029	-6.14
337.242	63.49
337.454	83.97
337.667	14.34
337.88	32.77
338.092	81.92
338.305	65.53
338.517	77.82
338.729	55.3
338.942	59.39
339.154	-10.24
339.367	8.19
339.579	57.34
339.792	-20.48
340.004	110.59
340.217	108.54
340.429	88.06
340.641	24.58
340.854	4.1
341.066	36.86
341.278	67.58
341.491	73.73
341.703	10.24
341.915	-22.53
342.128	45.06
342.34	53.25
342.552	75.77
342.764	-2.05
342.977	2.05
343.189	45.06
343.401	-30.72
343.613	2.05
343.826	116.73
344.038	63.49
344.25	-6.14
344.462	57.34
344.674	45.06
344.886	22.53
345.099	92.16
345.311	4.1
345.523	-6.14
345.735	-36.86
345.947	67.58
346.159	-53.25
346.371	12.29
346.583	18.43
346.795	61.44
347.007	8.19
347.219	75.77
347.431	47.1
347.643	118.78
347.855	88.06
348.067	86.01
348.279	10.24
348.491	47.1
348.703	141.31
348.915	71.68
349.127	-2.05
349.339	129.02
349.551	4.1
349.763	18.43
349.975	108.54
350.187	67.58
350.399	18.43
350.61	-6.14
350.822	53.25
351.034	-12.29
351.246	-22.53
351.458	-4.1
351.669	67.58
351.881	22.53
352.093	98.3
352.305	112.64
352.517	53.25
352.728	14.34
352.94	4.1
353.152	10.24
353.363	30.72
353.575	53.25
353.787	135.17
353.999	-53.25
354.21	43.01
354.422	2.05
354.633	18.43
354.845	59.39
355.057	-12.29
355.268	26.62
355.48	4.1
355.692	-45.06
355.903	79.87
356.115	59.39
356.326	-12.29
356.538	75.77
356.749	57.34
356.961	63.49
357.172	18.43
357.384	-6.14
357.595	67.58
357.807	24.58
358.018	18.43
358.23	-47.1
358.441	67.58
358.653	20.48
358.864	43.01
359.075	20.48
359.287	55.3
359.498	59.39
359.709	-16.38
359.921	83.97
360.132	51.2
360.344	51.2
360.555	-16.38
360.766	110.59
360.977	-30.72
361.189	34.82
361.4	59.39
361.611	69.63
361.823	94.21
362.034	22.53
362.245	-4.1
362.456	43.01
362.667	38.91
362.879	79.87
363.09	36.86
363.301	45.06
363.512	75.77
363.723	108.54
363.935	40.96
364.146	8.19
364.357	38.91
364.568	116.73
364.779	8.19
364.99	45.06
365.201	6.14
365.412	59.39
365.623	88.06
365.834	24.58
366.045	-22.53
366.256	79.87
366.467	14.34
366.678	116.73
366.889	-28.67
367.1	18.43
367.311	18.43
367.522	8.19
367.733	59.39
367.944	43.01
368.155	69.63
368.366	45.06
368.577	47.1
368.788	-2.05
368.999	4.1
369.209	55.3
369.42	75.77
369.631	77.82
369.842	-2.05
370.053	45.06
370.264	67.58
370.474	30.72
370.685	18.43
370.896	77.82
371.107	184.32
371.317	45.06
371.528	-40.96
371.739	137.21
371.95	14.34
372.16	-4.1
372.371	-18.43
372.582	18.43
372.792	30.72
373.003	16.38
373.214	22.53
373.424	32.77
373.635	45.06
373.846	86.01
374.056	18.43
374.267	69.63
374.477	172.03
374.688	110.59
374.898	32.77
375.109	67.58
375.319	75.77
375.53	30.72
375.74	38.91
375.951	18.43
376.161	22.53
376.372	94.21
376.582	10.24
376.793	86.01
377.003	-30.72
377.214	26.62
377.424	67.58
377.635	83.97
377.845	14.34
378.055	71.68
378.266	59.39
378.476	22.53
378.686	18.43
378.897	61.44
379.107	83.97
379.317	53.25
379.528	28.67
379.738	69.63
379.948	-10.24
380.158	45.06
380.369	59.39
380.579	45.06
380.789	77.82
380.999	47.1
381.21	34.82
381.42	145.41
381.63	43.01
381.84	51.2
382.05	88.06
382.261	43.01
382.471	75.77
382.681	83.97
382.891	51.2
383.101	14.34
383.311	-12.29
383.521	-6.14
383.731	63.49
383.941	92.16
384.151	36.86
384.361	20.48
384.571	98.3
384.781	141.31
384.991	71.68
385.201	59.39
385.411	18.43
385.621	18.43
385.831	10.24
386.041	73.73
386.251	45.06
386.461	75.77
386.671	55.3
386.881	24.58
387.091	-6.14
387.301	108.54
387.511	81.92
387.72	28.67
387.93	-12.29
388.14	-12.29
388.35	59.39
388.56	43.01
388.769	34.82
388.979	-30.72
389.189	20.48
389.399	8.19
389.609	147.45
389.818	61.44
390.028	86.01
390.238	34.82
390.447	77.82
390.657	67.58
390.867	67.58
391.076	34.82
391.286	43.01
391.496	51.2
391.705	-10.24
391.915	79.87
392.125	2.05
392.334	45.06
392.544	47.1
392.753	47.1
392.963	102.4
393.172	65.53
393.382	45.06
393.591	69.63
393.801	-12.29
394.01	83.97
394.22	77.82
394.429	71.68
394.639	57.34
394.848	49.15
395.058	38.91
395.267	-24.58
395.477	47.1
395.686	77.82
395.895	57.34
396.105	108.54
396.314	151.55
396.524	53.25
396.733	2.05
396.942	174.08
397.152	75.77
397.361	61.44
397.57	79.87
397.78	26.62
397.989	71.68
398.198	122.88
398.407	178.17
398.617	96.25
398.826	59.39
399.035	108.54
399.244	194.56
399.453	133.12
399.663	118.78
399.872	137.21
400.081	26.62
400.29	141.31
400.499	65.53
400.708	135.17
400.917	88.06
401.127	126.97
401.336	45.06
401.545	159.74
401.754	169.98
401.963	59.39
402.172	98.3
402.381	77.82
402.59	20.48
402.799	120.83
403.008	135.17
403.217	120.83
403.426	110.59
403.635	69.63
403.844	116.73
404.053	100.35
404.262	159.74
404.471	145.41
404.68	79.87
404.888	212.99
405.097	169.98
405.306	190.46
405.515	92.16
405.724	206.84
405.933	188.41
406.142	194.56
406.35	186.37
406.559	126.97
406.768	233.47
406.977	190.46
407.185	106.49
407.394	225.28
407.603	133.12
407.812	159.74
408.02	196.6
408.229	190.46
408.438	174.08
408.646	147.45
408.855	167.93
409.064	223.23
409.272	174.08
409.481	290.81
409.69	215.04
409.898	92.16
410.107	315.39
410.315	296.96
410.524	299
410.733	223.23
410.941	296.96
411.15	323.58
411.358	272.38
411.567	333.82
411.775	350.2
411.984	342.01
412.192	354.3
412.401	374.78
412.609	425.98
412.818	462.84
413.026	374.78
413.234	456.7
413.443	366.59
413.651	387.07
413.86	374.78
414.068	491.51
414.276	536.57
414.485	440.31
414.693	479.22
414.901	632.82
415.11	540.66
415.318	591.86
415.526	534.52
415.734	565.24
415.943	624.63
416.151	686.07
416.359	704.5
416.567	694.26
416.776	755.7
416.984	763.89
417.192	829.43
417.4	880.63
417.608	737.27
417.817	919.54
418.025	804.85
418.233	935.92
418.441	937.97
418.649	927.73
418.857	1134.57
419.065	1009.65
419.273	1001.46
419.481	1116.14
419.689	1218.54
419.897	1320.94
420.105	1226.73
420.313	1232.88
420.521	1288.17
420.729	1396.71
420.937	1253.36
421.145	1521.64
421.353	1546.22
421.561	1652.71
421.769	1642.47
421.977	1673.19
422.185	1767.4
422.393	1781.73
422.601	1947.62
422.809	1939.43
423.017	1851.36
423.224	1986.53
423.432	2082.78
423.64	2025.44
423.848	2338.78
424.056	2209.76
424.263	2359.26
424.471	2353.12
424.679	2570.2
424.887	2648.02
425.094	2627.54
425.302	2557.91
425.51	2697.17
425.718	2826.2
425.925	2772.95
426.133	3008.47
426.341	3188.69
426.548	3385.29
426.756	3237.84
426.964	3254.22
427.171	3440.59
427.379	3737.54
427.586	3688.39
427.794	3827.65
428.001	3860.42
428.209	4313.02
428.417	4089.79
428.624	4442.04
428.832	4192.19
429.039	4251.58
429.247	4435.9
429.454	4872.12
429.662	5101.49
429.869	4888.5
430.076	4984.76
430.284	4962.23
430.491	4995
430.699	5408.69
430.906	5504.94
431.114	5498.8
431.321	5670.83
431.528	5736.36
431.736	6104.99
431.943	6522.78
432.15	6367.13
432.358	6295.46
432.565	6645.66
432.772	6606.75
432.979	7075.73
433.187	7081.88
433.394	7151.51
433.601	7645.07
433.808	7788.43
434.016	7655.31
434.223	7837.58
434.43	8447.87
434.637	8241.03
434.844	8644.48
435.052	8904.57
435.259	8937.34
435.466	9041.78
435.673	8812.41
435.88	9287.54
436.087	10121.06
436.294	10030.95
436.501	9875.31
436.708	9940.84
436.915	10366.82
437.122	10610.53
437.329	10704.73
437.537	11282.26
437.743	11482.96
437.95	11288.4
438.157	11763.53
438.364	12068.68
438.571	12283.72
438.778	12302.15
438.985	13324.08
439.192	12867.39
439.399	13336.37
439.606	12947.26
439.813	13764.4
440.02	14421.8
440.227	14280.49
440.433	14141.22
440.64	14614.31
440.847	14393.12
441.054	14743.33
441.261	15730.45
441.467	15451.92
441.674	15697.68
441.881	16314.12
442.088	16453.38
442.294	16385.8
442.501	16908.03
442.708	17155.83
442.914	17633.01
443.121	18493.16
443.328	18147.05
443.534	19576.53
443.741	18851.55
443.948	18564.84
444.154	19889.87
444.361	19701.46
444.568	19904.21
444.774	19857.1
444.981	20313.8
445.187	20756.16
445.394	21495.48
445.6	21161.66
445.807	23525.02
446.013	22349.48
446.22	22548.14
446.426	23809.68
446.633	23953.04
446.839	24891.01
447.046	23608.98
447.252	25142.91
447.459	25169.54
447.665	24968.83
447.871	26381.93
448.078	27272.8
448.284	26011.25
448.491	26893.93
448.697	27575.9
448.903	28350.03
449.11	28255.82
449.316	28020.31
449.522	28497.49
449.728	29189.7
449.935	28999.24
450.141	29447.74
450.347	30387.76
450.553	29404.74
450.76	29783.61
450.966	30666.28
451.172	30398
451.378	31082.02
451.584	30572.08
451.791	31198.76
451.997	31284.77
452.203	31880.73
452.409	31938.07
452.615	31694.36
452.821	30989.86
453.027	30514.73
453.233	32185.88
453.44	30959.14
453.646	30971.43
453.852	31413.79
454.058	31893.02
454.264	30752.3
454.47	31833.63
454.676	30776.87
454.882	31864.35
455.088	29050.44
455.294	29902.39
455.5	30055.99
455.705	30641.71
455.911	29077.06
456.117	28612.17
456.323	28309.07
456.529	27186.79
456.735	28137.04
456.941	27403.87
457.147	26859.11
457.352	26226.29
457.558	25915
457.764	26162.8
457.97	25534.07
458.176	24948.36
458.381	25083.52
458.587	23565.98
458.793	23813.78
458.999	22498.98
459.204	24321.68
459.41	23447.19
459.616	21923.51
459.821	22228.65
460.027	21857.97
460.233	21370.55
460.438	20383.43
460.644	20799.17
460.85	19982.03
461.055	19719.89
461.261	19527.38
461.466	17934.06
461.672	17557.24
461.878	18849.5
462.083	17587.96
462.289	17186.55
462.494	17256.18
462.7	16301.83
462.905	15812.37
463.111	16445.19
463.316	16463.62
463.522	16322.31
463.727	16320.26
463.932	16279.3
464.138	15699.73
464.343	16074.51
464.549	15755.02
464.754	16039.69
464.959	15992.59
465.165	15963.92
465.37	15134.49
465.575	14681.89
465.781	15552.27
465.986	15511.32
466.191	14804.77
466.397	14708.51
466.602	14180.14
466.807	14432.04
467.012	14440.23
467.218	14448.42
467.423	14096.17
467.628	14329.64
467.833	15191.83
468.038	14473
