Data from USB4F104151__292__14-46-28-893.txt Node

Date: Thu Mar 13 14:46:28 EDT 2025
User: louis
Spectrometer: USB4F10415
Trigger mode: 4
Integration Time (sec): 2.000000E-2
Scans to average: 1
Electric dark correction enabled: true
Nonlinearity correction enabled: false
Boxcar width: 0
XAxis mode: Wavelengths
Number of Pixels in Spectrum: 3648
>>>>>Begin Spectral Data<<<<<
178.204	-165.54
178.424	-165.54
178.644	-165.54
178.864	-97.96
179.084	-165.54
179.304	8.53
179.524	8.53
179.744	-73.39
179.964	43.35
180.184	24.92
180.404	-36.52
180.624	-20.14
180.844	6.49
181.064	-26.28
181.283	14.68
181.503	-36.52
181.723	86.36
181.943	18.77
182.163	41.3
182.383	26.96
182.602	-3.75
182.822	26.96
183.042	-81.58
183.262	43.35
183.482	45.4
183.701	-5.8
183.921	26.96
184.141	-22.19
184.361	112.98
184.58	10.58
184.8	-1.71
185.02	8.53
185.239	22.87
185.459	-1.71
185.679	14.68
185.898	-20.14
186.118	-30.38
186.338	49.49
186.557	10.58
186.777	-34.47
186.997	65.88
187.216	-16.04
187.436	8.53
187.655	-5.8
187.875	65.88
188.095	72.02
188.314	41.3
188.534	47.44
188.753	53.59
188.973	18.77
189.192	18.77
189.412	39.25
189.631	55.64
189.851	24.92
190.07	43.35
190.29	-32.43
190.509	18.77
190.729	-11.95
190.948	-1.71
191.168	82.26
191.387	69.97
191.607	0.34
191.826	-87.72
192.045	0.34
192.265	-16.04
192.484	-5.8
192.704	-7.85
192.923	-22.19
193.142	16.73
193.362	33.11
193.581	76.12
193.8	57.68
194.02	10.58
194.239	74.07
194.458	-3.75
194.678	-65.19
194.897	26.96
195.116	22.87
195.335	-9.9
195.555	43.35
195.774	-26.28
195.993	35.16
196.212	14.68
196.432	-5.8
196.651	37.2
196.87	-22.19
197.089	39.25
197.308	47.44
197.528	43.35
197.747	2.39
197.966	-34.47
198.185	14.68
198.404	18.77
198.623	-30.38
198.842	10.58
199.062	29.01
199.281	35.16
199.5	-38.57
199.719	108.88
199.938	-42.67
200.157	-1.71
200.376	2.39
200.595	55.64
200.814	43.35
201.033	-7.85
201.252	39.25
201.471	2.39
201.69	57.68
201.909	-24.23
202.128	63.83
202.347	14.68
202.566	-1.71
202.785	-26.28
203.004	18.77
203.223	61.78
203.442	35.16
203.661	26.96
203.879	57.68
204.098	41.3
204.317	67.92
204.536	63.83
204.755	57.68
204.974	-44.71
205.193	55.64
205.411	141.65
205.63	-34.47
205.849	63.83
206.068	-16.04
206.287	-16.04
206.505	43.35
206.724	-32.43
206.943	-5.8
207.162	14.68
207.381	74.07
207.599	33.11
207.818	96.6
208.037	-9.9
208.255	55.64
208.474	31.06
208.693	49.49
208.911	14.68
209.13	31.06
209.349	63.83
209.567	-18.09
209.786	-1.71
210.005	41.3
210.223	61.78
210.442	14.68
210.661	110.93
210.879	-89.77
211.098	72.02
211.316	14.68
211.535	51.54
211.753	-22.19
211.972	57.68
212.191	-42.67
212.409	63.83
212.628	14.68
212.846	24.92
213.065	61.78
213.283	57.68
213.502	-36.52
213.72	-1.71
213.938	10.58
214.157	24.92
214.375	86.36
214.594	-18.09
214.812	16.73
215.031	35.16
215.249	-34.47
215.467	45.4
215.686	-46.76
215.904	-13.99
216.122	63.83
216.341	10.58
216.559	43.35
216.778	72.02
216.996	51.54
217.214	57.68
217.432	-1.71
217.651	-9.9
217.869	47.44
218.087	-26.28
218.306	-34.47
218.524	26.96
218.742	26.96
218.96	0.34
219.179	22.87
219.397	22.87
219.615	-1.71
219.833	86.36
220.051	-34.47
220.27	53.59
220.488	-1.71
220.706	39.25
220.924	-34.47
221.142	-40.62
221.36	51.54
221.578	92.5
221.796	22.87
222.015	-1.71
222.233	26.96
222.451	51.54
222.669	-28.33
222.887	-1.71
223.105	-13.99
223.323	26.96
223.541	-59.05
223.759	47.44
223.977	-1.71
224.195	20.82
224.413	88.4
224.631	8.53
224.849	-1.71
225.067	10.58
225.285	31.06
225.503	67.92
225.721	-9.9
225.939	96.6
226.157	-65.19
226.375	129.36
226.592	18.77
226.81	63.83
227.028	102.74
227.246	2.39
227.464	39.25
227.682	14.68
227.9	-22.19
228.117	55.64
228.335	2.39
228.553	67.92
228.771	-7.85
228.989	-26.28
229.206	59.73
229.424	6.49
229.642	-11.95
229.86	-13.99
230.077	72.02
230.295	16.73
230.513	12.63
230.731	94.55
230.948	49.49
231.166	22.87
231.384	-26.28
231.601	-57
231.819	-7.85
232.037	49.49
232.254	-95.91
232.472	16.73
232.689	-34.47
232.907	31.06
233.125	2.39
233.342	96.6
233.56	-46.76
233.777	18.77
233.995	22.87
234.213	80.21
234.43	14.68
234.648	16.73
234.865	72.02
235.083	-24.23
235.3	57.68
235.518	24.92
235.735	57.68
235.953	63.83
236.17	-48.81
236.388	-34.47
236.605	41.3
236.822	-30.38
237.04	-46.76
237.257	47.44
237.475	6.49
237.692	63.83
237.909	10.58
238.127	26.96
238.344	0.34
238.562	49.49
238.779	-1.71
238.996	-5.8
239.214	-24.23
239.431	115.03
239.648	-22.19
239.865	22.87
240.083	31.06
240.3	8.53
240.517	6.49
240.735	6.49
240.952	94.55
241.169	31.06
241.386	22.87
241.603	49.49
241.821	10.58
242.038	43.35
242.255	104.79
242.472	14.68
242.689	80.21
242.907	-3.75
243.124	47.44
243.341	37.2
243.558	47.44
243.775	-7.85
243.992	-36.52
244.209	69.97
244.426	49.49
244.643	-54.95
244.86	31.06
245.078	24.92
245.295	-18.09
245.512	57.68
245.729	24.92
245.946	-5.8
246.163	55.64
246.38	18.77
246.597	-26.28
246.814	39.25
247.031	-26.28
247.248	16.73
247.464	72.02
247.681	24.92
247.898	74.07
248.115	39.25
248.332	-59.05
248.549	49.49
248.766	59.73
248.983	63.83
249.2	88.4
249.417	49.49
249.633	-36.52
249.85	-24.23
250.067	-57
250.284	24.92
250.501	-34.47
250.717	2.39
250.934	-16.04
251.151	8.53
251.368	29.01
251.585	6.49
251.801	33.11
252.018	-71.34
252.235	-24.23
252.451	-42.67
252.668	31.06
252.885	59.73
253.102	-54.95
253.318	-7.85
253.535	22.87
253.752	4.44
253.968	49.49
254.185	-24.23
254.401	10.58
254.618	63.83
254.835	2.39
255.051	16.73
255.268	-9.9
255.484	14.68
255.701	24.92
255.917	55.64
256.134	-24.23
256.351	55.64
256.567	-67.24
256.784	31.06
257	-50.86
257.217	14.68
257.433	14.68
257.65	-42.67
257.866	6.49
258.082	14.68
258.299	-13.99
258.515	51.54
258.732	22.87
258.948	18.77
259.165	16.73
259.381	-20.14
259.597	26.96
259.814	39.25
260.03	-18.09
260.246	-52.91
260.463	8.53
260.679	-20.14
260.895	16.73
261.112	33.11
261.328	24.92
261.544	10.58
261.761	14.68
261.977	-50.86
262.193	-75.43
262.409	14.68
262.626	31.06
262.842	-1.71
263.058	-22.19
263.274	49.49
263.49	39.25
263.707	69.97
263.923	57.68
264.139	-65.19
264.355	-16.04
264.571	102.74
264.787	8.53
265.004	-1.71
265.22	57.68
265.436	26.96
265.652	8.53
265.868	22.87
266.084	-38.57
266.3	8.53
266.516	6.49
266.732	22.87
266.948	-3.75
267.164	90.45
267.38	8.53
267.596	41.3
267.812	90.45
268.028	-18.09
268.244	108.88
268.46	63.83
268.676	31.06
268.892	39.25
269.108	-9.9
269.324	-30.38
269.54	43.35
269.756	31.06
269.972	-106.15
270.188	-42.67
270.403	39.25
270.619	55.64
270.835	63.83
271.051	22.87
271.267	2.39
271.483	-65.19
271.698	76.12
271.914	-18.09
272.13	-20.14
272.346	6.49
272.562	-54.95
272.777	-7.85
272.993	26.96
273.209	16.73
273.425	41.3
273.64	47.44
273.856	59.73
274.072	37.2
274.287	41.3
274.503	6.49
274.719	-22.19
274.934	-22.19
275.15	-24.23
275.366	41.3
275.581	-42.67
275.797	55.64
276.012	10.58
276.228	31.06
276.444	35.16
276.659	14.68
276.875	-57
277.09	55.64
277.306	29.01
277.521	43.35
277.737	49.49
277.952	76.12
278.168	-34.47
278.383	-46.76
278.599	88.4
278.814	18.77
279.03	57.68
279.245	88.4
279.461	-11.95
279.676	-5.8
279.892	-48.81
280.107	-32.43
280.322	22.87
280.538	106.84
280.753	-18.09
280.969	31.06
281.184	-9.9
281.399	-42.67
281.615	33.11
281.83	-11.95
282.045	8.53
282.26	6.49
282.476	-32.43
282.691	33.11
282.906	-13.99
283.122	82.26
283.337	14.68
283.552	10.58
283.767	-13.99
283.983	72.02
284.198	-73.39
284.413	-40.62
284.628	-16.04
284.843	6.49
285.058	16.73
285.274	61.78
285.489	6.49
285.704	121.17
285.919	-1.71
286.134	-54.95
286.349	6.49
286.564	24.92
286.779	33.11
286.995	31.06
287.21	-18.09
287.425	33.11
287.64	8.53
287.855	-9.9
288.07	-93.87
288.285	-32.43
288.5	43.35
288.715	43.35
288.93	-18.09
289.145	35.16
289.36	45.4
289.575	-32.43
289.79	-9.9
290.004	4.44
290.219	72.02
290.434	33.11
290.649	-5.8
290.864	-75.43
291.079	-59.05
291.294	-34.47
291.509	2.39
291.724	18.77
291.938	-1.71
292.153	-34.47
292.368	-32.43
292.583	-1.71
292.798	22.87
293.012	20.82
293.227	31.06
293.442	22.87
293.657	55.64
293.871	2.39
294.086	61.78
294.301	67.92
294.516	67.92
294.73	8.53
294.945	-48.81
295.16	-28.33
295.374	14.68
295.589	4.44
295.804	80.21
296.018	-16.04
296.233	104.79
296.447	-20.14
296.662	-18.09
296.877	24.92
297.091	-1.71
297.306	-7.85
297.52	-1.71
297.735	14.68
297.949	63.83
298.164	39.25
298.378	18.77
298.593	20.82
298.807	69.97
299.022	57.68
299.236	80.21
299.451	-16.04
299.665	22.87
299.88	-65.19
300.094	-30.38
300.309	-7.85
300.523	-32.43
300.737	-24.23
300.952	4.44
301.166	-1.71
301.381	2.39
301.595	-9.9
301.809	8.53
302.024	-30.38
302.238	-16.04
302.452	26.96
302.667	-7.85
302.881	16.73
303.095	10.58
303.309	-54.95
303.524	20.82
303.738	31.06
303.952	-11.95
304.166	22.87
304.381	-63.15
304.595	82.26
304.809	55.64
305.023	55.64
305.237	0.34
305.452	35.16
305.666	104.79
305.88	98.64
306.094	-67.24
306.308	47.44
306.522	29.01
306.736	41.3
306.95	-40.62
307.164	-9.9
307.379	22.87
307.593	-1.71
307.807	43.35
308.021	47.44
308.235	-30.38
308.449	-50.86
308.663	45.4
308.877	74.07
309.091	-50.86
309.305	2.39
309.519	-1.71
309.733	33.11
309.947	-50.86
310.161	-71.34
310.374	39.25
310.588	4.44
310.802	0.34
311.016	22.87
311.23	-34.47
311.444	-9.9
311.658	14.68
311.872	74.07
312.085	74.07
312.299	24.92
312.513	88.4
312.727	67.92
312.941	-13.99
313.154	49.49
313.368	10.58
313.582	-22.19
313.796	0.34
314.009	14.68
314.223	26.96
314.437	-34.47
314.651	10.58
314.864	-42.67
315.078	-50.86
315.292	-1.71
315.505	41.3
315.719	14.68
315.933	55.64
316.146	55.64
316.36	-18.09
316.573	84.31
316.787	84.31
317.001	39.25
317.214	-11.95
317.428	72.02
317.641	69.97
317.855	31.06
318.068	59.73
318.282	24.92
318.495	94.55
318.709	0.34
318.922	-5.8
319.136	39.25
319.349	-5.8
319.563	57.68
319.776	31.06
319.99	-7.85
320.203	-1.71
320.417	-18.09
320.63	96.6
320.843	90.45
321.057	33.11
321.27	-9.9
321.483	-18.09
321.697	22.87
321.91	6.49
322.124	72.02
322.337	39.25
322.55	10.58
322.763	10.58
322.977	-5.8
323.19	-75.43
323.403	-7.85
323.617	10.58
323.83	47.44
324.043	22.87
324.256	14.68
324.469	-67.24
324.683	106.84
324.896	0.34
325.109	-1.71
325.322	-71.34
325.535	4.44
325.748	33.11
325.962	-22.19
326.175	43.35
326.388	-16.04
326.601	67.92
326.814	31.06
327.027	57.68
327.24	63.83
327.453	22.87
327.666	-1.71
327.879	-1.71
328.092	43.35
328.305	-24.23
328.518	14.68
328.731	31.06
328.944	55.64
329.157	24.92
329.37	14.68
329.583	67.92
329.796	76.12
330.009	-18.09
330.222	39.25
330.435	74.07
330.648	-30.38
330.861	-24.23
331.073	80.21
331.286	57.68
331.499	6.49
331.712	22.87
331.925	78.16
332.138	82.26
332.35	72.02
332.563	-73.39
332.776	0.34
332.989	55.64
333.202	69.97
333.414	-11.95
333.627	-26.28
333.84	-36.52
334.053	-18.09
334.265	35.16
334.478	22.87
334.691	10.58
334.903	35.16
335.116	-22.19
335.329	37.2
335.541	104.79
335.754	6.49
335.966	39.25
336.179	26.96
336.392	-40.62
336.604	-20.14
336.817	94.55
337.029	-9.9
337.242	63.83
337.454	37.2
337.667	20.82
337.88	72.02
338.092	24.92
338.305	29.01
338.517	6.49
338.729	43.35
338.942	-13.99
339.154	31.06
339.367	2.39
339.579	112.98
339.792	-46.76
340.004	55.64
340.217	-34.47
340.429	80.21
340.641	-44.71
340.854	14.68
341.066	-22.19
341.278	53.59
341.491	31.06
341.703	65.88
341.915	-24.23
342.128	41.3
342.34	-9.9
342.552	57.68
342.764	33.11
342.977	45.4
343.189	-44.71
343.401	31.06
343.613	14.68
343.826	-1.71
344.038	-13.99
344.25	22.87
344.462	22.87
344.674	26.96
344.886	41.3
345.099	61.78
345.311	24.92
345.523	-5.8
345.735	43.35
345.947	67.92
346.159	-5.8
346.371	29.01
346.583	-9.9
346.795	72.02
347.007	18.77
347.219	18.77
347.431	51.54
347.643	35.16
347.855	6.49
348.067	31.06
348.279	-46.76
348.491	33.11
348.703	72.02
348.915	-26.28
349.127	6.49
349.339	-16.04
349.551	-40.62
349.763	0.34
349.975	51.54
350.187	55.64
350.399	49.49
350.61	129.36
350.822	33.11
351.034	80.21
351.246	8.53
351.458	24.92
351.669	35.16
351.881	121.17
352.093	22.87
352.305	35.16
352.517	20.82
352.728	39.25
352.94	-97.96
353.152	43.35
353.363	-110.25
353.575	6.49
353.787	82.26
353.999	33.11
354.21	8.53
354.422	10.58
354.633	-1.71
354.845	72.02
355.057	-26.28
355.268	31.06
355.48	63.83
355.692	43.35
355.903	-9.9
356.115	24.92
356.326	-7.85
356.538	104.79
356.749	24.92
356.961	-5.8
357.172	-18.09
357.384	22.87
357.595	51.54
357.807	39.25
358.018	18.77
358.23	33.11
358.441	106.84
358.653	33.11
358.864	20.82
359.075	39.25
359.287	-18.09
359.498	-5.8
359.709	6.49
359.921	41.3
360.132	-16.04
360.344	65.88
360.555	-46.76
360.766	47.44
360.977	33.11
361.189	16.73
361.4	51.54
361.611	-3.75
361.823	22.87
362.034	72.02
362.245	10.58
362.456	43.35
362.667	10.58
362.879	72.02
363.09	63.83
363.301	65.88
363.512	16.73
363.723	-46.76
363.935	-30.38
364.146	0.34
364.357	74.07
364.568	117.08
364.779	-5.8
364.99	53.59
365.201	10.58
365.412	14.68
365.623	14.68
365.834	35.16
366.045	-13.99
366.256	108.88
366.467	41.3
366.678	26.96
366.889	-30.38
367.1	43.35
367.311	18.77
367.522	31.06
367.733	65.88
367.944	63.83
368.155	8.53
368.366	57.68
368.577	16.73
368.788	110.93
368.999	-40.62
369.209	0.34
369.42	98.64
369.631	22.87
369.842	47.44
370.053	-67.24
370.264	29.01
370.474	-34.47
370.685	-26.28
370.896	39.25
371.107	51.54
371.317	49.49
371.528	35.16
371.739	26.96
371.95	67.92
372.16	51.54
372.371	18.77
372.582	55.64
372.792	117.08
373.003	78.16
373.214	39.25
373.424	2.39
373.635	6.49
373.846	0.34
374.056	6.49
374.267	18.77
374.477	100.69
374.688	6.49
374.898	6.49
375.109	18.77
375.319	24.92
375.53	-28.33
375.74	51.54
375.951	-9.9
376.161	55.64
376.372	141.65
376.582	-1.71
376.793	41.3
377.003	14.68
377.214	-5.8
377.424	14.68
377.635	47.44
377.845	12.63
378.055	39.25
378.266	0.34
378.476	2.39
378.686	39.25
378.897	84.31
379.107	2.39
379.317	0.34
379.528	-13.99
379.738	43.35
379.948	22.87
380.158	39.25
380.369	14.68
380.579	-24.23
380.789	49.49
380.999	6.49
381.21	72.02
381.42	117.08
381.63	-9.9
381.84	31.06
382.05	22.87
382.261	39.25
382.471	31.06
382.681	14.68
382.891	63.83
383.101	39.25
383.311	-16.04
383.521	-7.85
383.731	43.35
383.941	57.68
384.151	2.39
384.361	12.63
384.571	14.68
384.781	61.78
384.991	43.35
385.201	117.08
385.411	-20.14
385.621	88.4
385.831	8.53
386.041	55.64
386.251	-71.34
386.461	22.87
386.671	41.3
386.881	74.07
387.091	8.53
387.301	51.54
387.511	-16.04
387.72	35.16
387.93	57.68
388.14	8.53
388.35	-1.71
388.56	35.16
388.769	-34.47
388.979	59.73
389.189	-16.04
389.399	39.25
389.609	26.96
389.818	96.6
390.028	14.68
390.238	20.82
390.447	-1.71
390.657	-7.85
390.867	22.87
391.076	10.58
391.286	10.58
391.496	65.88
391.705	59.73
391.915	57.68
392.125	74.07
392.334	74.07
392.544	65.88
392.753	-18.09
392.963	33.11
393.172	63.83
393.382	-34.47
393.591	76.12
393.801	14.68
394.01	82.26
394.22	59.73
394.429	47.44
394.639	-63.15
394.848	90.45
395.058	8.53
395.267	61.78
395.477	100.69
395.686	33.11
395.895	65.88
396.105	16.73
396.314	-9.9
396.524	14.68
396.733	-18.09
396.942	67.92
397.152	26.96
397.361	78.16
397.57	2.39
397.78	20.82
397.989	41.3
398.198	121.17
398.407	8.53
398.617	84.31
398.826	41.3
399.035	88.4
399.244	72.02
399.453	31.06
399.663	65.88
399.872	121.17
400.081	57.68
400.29	76.12
400.499	-1.71
400.708	88.4
400.917	-1.71
401.127	90.45
401.336	-7.85
401.545	55.64
401.754	84.31
401.963	106.84
402.172	100.69
402.381	26.96
402.59	74.07
402.799	41.3
403.008	98.64
403.217	129.36
403.426	129.36
403.635	35.16
403.844	129.36
404.053	35.16
404.262	14.68
404.471	168.27
404.68	72.02
404.888	6.49
405.097	31.06
405.306	86.36
405.515	67.92
405.724	80.21
405.933	121.17
406.142	125.27
406.35	121.17
406.559	24.92
406.768	104.79
406.977	198.99
407.185	123.22
407.394	117.08
407.603	67.92
407.812	53.59
408.02	139.6
408.229	186.71
408.438	82.26
408.646	96.6
408.855	166.23
409.064	76.12
409.272	121.17
409.481	147.8
409.69	104.79
409.898	188.75
410.107	166.23
410.315	166.23
410.524	129.36
410.733	198.99
410.941	244.05
411.15	153.94
411.358	178.51
411.567	211.28
411.775	180.56
411.984	219.47
412.192	260.43
412.401	237.91
412.609	276.82
412.818	301.39
413.026	285.01
413.234	246.1
413.443	309.58
413.651	235.86
413.86	237.91
414.068	295.25
414.276	336.21
414.485	282.96
414.693	295.25
414.901	323.92
415.11	325.97
415.318	393.55
415.526	366.93
415.734	424.27
415.943	346.45
416.151	399.7
416.359	342.35
416.567	393.55
416.776	467.28
416.984	508.24
417.192	475.47
417.4	522.57
417.608	516.43
417.817	500.05
418.025	573.77
418.233	641.36
418.441	473.42
418.649	538.96
418.857	596.3
419.065	653.64
419.273	631.12
419.481	645.45
419.689	756.04
419.897	827.72
420.105	747.85
420.313	729.42
420.521	729.42
420.729	794.95
420.937	860.49
421.145	876.87
421.353	975.17
421.561	1026.37
421.769	1038.66
421.977	938.31
422.185	950.6
422.393	1030.47
422.601	1161.54
422.809	1063.24
423.017	1169.73
423.224	1177.92
423.432	1161.54
423.64	1182.02
423.848	1392.96
424.056	1374.53
424.263	1515.84
424.471	1327.43
424.679	1440.06
424.887	1605.95
425.094	1630.52
425.302	1556.8
425.51	1622.33
425.718	1524.03
425.925	1694.01
426.133	1761.59
426.341	1859.9
426.548	1886.52
426.756	1917.24
426.964	1972.54
427.171	1970.49
427.379	2122.04
427.586	2222.39
427.794	2191.67
428.001	2167.09
428.209	2570.54
428.417	2433.33
428.624	2568.49
428.832	2511.15
429.039	2431.28
429.247	2535.73
429.454	2750.76
429.662	2894.12
429.869	2750.76
430.076	2801.96
430.284	2873.64
430.491	2969.9
430.699	3184.93
430.906	3266.85
431.114	3141.93
431.321	3397.92
431.528	3258.66
431.736	3447.07
431.943	3840.28
432.15	3664.16
432.358	3721.5
432.565	3817.76
432.772	3827.99
432.979	3940.63
433.187	4184.34
433.394	3981.59
433.601	4495.63
433.808	4442.39
434.016	4358.42
434.223	4528.4
434.43	4872.46
434.637	4708.62
434.844	5122.31
435.052	5175.56
435.259	5118.22
435.466	5370.12
435.673	5169.41
435.88	5523.71
436.087	5775.61
436.294	5765.37
436.501	5601.54
436.708	5789.95
436.915	6031.61
437.122	6287.61
437.329	6338.8
437.537	6416.63
437.743	6461.68
437.95	6299.89
438.157	6748.4
438.364	6891.76
438.571	6887.66
438.778	6949.1
438.985	7756
439.192	7323.88
439.399	7629.02
439.606	7395.56
439.813	7882.97
440.02	8202.46
440.227	8075.48
440.433	7999.71
440.64	8145.11
440.847	8290.52
441.054	8394.97
441.261	8870.09
441.467	8986.83
441.674	9029.84
441.881	9554.12
442.088	9556.16
442.294	9511.11
442.501	9545.92
442.708	9744.58
442.914	9976
443.121	10330.3
443.328	10303.67
443.534	11057.32
443.741	10614.96
443.948	10496.18
444.154	11278.51
444.361	11077.8
444.568	11253.93
444.774	11210.92
444.981	11294.89
445.187	11696.29
445.394	12396.7
445.6	11970.72
445.807	13236.36
446.013	12660.88
446.22	13041.81
446.426	13545.61
446.633	13518.98
446.839	14004.35
447.046	13494.41
447.252	14157.95
447.459	14289.02
447.665	14071.93
447.871	14704.76
448.078	15251.56
448.284	14723.19
448.491	15190.13
448.697	15636.58
448.903	15812.71
449.11	16103.52
449.316	15902.82
449.522	15812.71
449.728	16601.18
449.935	16754.77
450.141	16844.88
450.347	17217.61
450.553	16402.52
450.76	16693.33
450.966	17311.82
451.172	17057.87
451.378	17301.58
451.584	17225.81
451.791	17752.13
451.997	17567.82
452.203	18034.75
452.409	17655.88
452.615	17784.9
452.821	17037.39
453.027	16961.62
453.233	18071.62
453.44	17336.4
453.646	17184.85
453.852	17438.8
454.058	17825.86
454.264	17279.05
454.47	17528.91
454.676	16910.42
454.882	17848.39
455.088	16091.23
455.294	16406.62
455.5	16787.54
455.705	16961.62
455.911	16224.35
456.117	16099.42
456.323	15775.84
456.529	14747.76
456.735	15874.15
456.941	15304.81
457.147	14989.42
457.352	14846.07
457.558	14450.81
457.764	14334.07
457.97	14278.78
458.176	13920.38
458.381	13969.54
458.587	13228.17
458.793	13197.45
458.999	12468.38
459.204	13518.98
459.41	13097.1
459.616	12191.9
459.821	12355.74
460.027	11999.39
460.233	12052.64
460.438	11495.59
460.644	11659.43
460.85	10926.25
461.055	10850.48
461.261	10590.39
461.466	10027.2
461.672	9597.12
461.878	10266.81
462.083	9748.67
462.289	9482.44
462.494	9408.71
462.7	8999.12
462.905	8782.03
463.111	9025.74
463.316	9105.61
463.522	9050.32
463.727	8906.96
463.932	8886.48
464.138	8880.33
464.343	8927.44
464.549	8583.38
464.754	8939.72
464.959	8861.9
465.165	8657.11
465.37	8382.68
465.575	8251.61
465.781	8573.14
465.986	8454.36
466.191	8272.09
466.397	7964.89
466.602	7706.85
466.807	7971.04
467.012	8067.29
467.218	7676.13
467.423	7739.62
467.628	7661.79
467.833	8147.16
468.038	7913.69
468.244	7743.71
468.449	8098.01
