Data from USB4F104151__72__14-43-22-097.txt Node

Date: Thu Mar 13 14:43:22 EDT 2025
User: louis
Spectrometer: USB4F10415
Trigger mode: 4
Integration Time (sec): 2.000000E-2
Scans to average: 1
Electric dark correction enabled: true
Nonlinearity correction enabled: false
Boxcar width: 0
XAxis mode: Wavelengths
Number of Pixels in Spectrum: 3648
>>>>>Begin Spectral Data<<<<<
178.204	-37.72
178.424	-37.72
178.644	-37.72
178.864	-37.72
179.084	-113.49
179.304	15.53
179.524	58.54
179.744	27.82
179.964	74.92
180.184	-17.24
180.404	-0.85
180.624	-39.76
180.844	-29.52
181.064	-7
181.283	-2.9
181.503	-62.29
181.723	-17.24
181.943	-31.57
182.163	64.68
182.383	48.3
182.602	42.15
182.822	60.59
183.042	46.25
183.262	-19.29
183.482	-45.91
183.701	-39.76
183.921	25.77
184.141	-47.96
184.361	52.39
184.58	62.63
184.8	17.58
185.02	21.67
185.239	-9.05
185.459	36.01
185.679	160.94
185.898	7.34
186.118	91.31
186.338	-7
186.557	113.83
186.777	91.31
186.997	56.49
187.216	15.53
187.436	62.63
187.655	25.77
187.875	85.16
188.095	11.43
188.314	25.77
188.534	103.59
188.753	58.54
188.973	29.87
189.192	107.69
189.412	128.17
189.631	58.54
189.851	33.96
190.07	165.03
190.29	-15.19
190.509	-4.95
190.729	3.24
190.948	-4.95
191.168	210.09
191.387	76.97
191.607	-29.52
191.826	111.78
192.045	38.06
192.265	44.2
192.484	9.39
192.704	38.06
192.923	60.59
193.142	93.35
193.362	23.72
193.581	66.73
193.8	95.4
194.02	74.92
194.239	60.59
194.458	-39.76
194.678	-45.91
194.897	76.97
195.116	42.15
195.335	33.96
195.555	25.77
195.774	38.06
195.993	50.35
196.212	27.82
196.432	19.63
196.651	44.2
196.87	-31.57
197.089	66.73
197.308	42.15
197.528	-23.38
197.747	87.21
197.966	-15.19
198.185	74.92
198.404	-23.38
198.623	140.46
198.842	3.24
199.062	66.73
199.281	52.39
199.5	17.58
199.719	38.06
199.938	11.43
200.157	132.26
200.376	62.63
200.595	79.02
200.814	52.39
201.033	13.48
201.252	115.88
201.471	44.2
201.69	-9.05
201.909	91.31
202.128	-25.43
202.347	50.35
202.566	66.73
202.785	40.11
203.004	44.2
203.223	132.26
203.442	19.63
203.661	83.11
203.879	-35.67
204.098	91.31
204.317	21.67
204.536	83.11
204.755	-15.19
204.974	1.19
205.193	-31.57
205.411	126.12
205.63	25.77
205.849	-27.48
206.068	124.07
206.287	-29.52
206.505	-52.05
206.724	-23.38
206.943	13.48
207.162	31.91
207.381	46.25
207.599	23.72
207.818	17.58
208.037	9.39
208.255	5.29
208.474	-17.24
208.693	15.53
208.911	-7
209.13	36.01
209.349	-15.19
209.567	52.39
209.786	111.78
210.005	-7
210.223	9.39
210.442	15.53
210.661	95.4
210.879	42.15
211.098	62.63
211.316	44.2
211.535	44.2
211.753	50.35
211.972	76.97
212.191	83.11
212.409	-0.85
212.628	60.59
212.846	85.16
213.065	117.93
213.283	85.16
213.502	124.07
213.72	19.63
213.938	58.54
214.157	29.87
214.375	9.39
214.594	46.25
214.812	15.53
215.031	11.43
215.249	68.78
215.467	40.11
215.686	21.67
215.904	83.11
216.122	40.11
216.341	64.68
216.559	29.87
216.778	115.88
216.996	33.96
217.214	58.54
217.432	-23.38
217.651	76.97
217.869	99.5
218.087	115.88
218.306	74.92
218.524	46.25
218.742	-31.57
218.96	107.69
219.179	23.72
219.397	11.43
219.615	199.85
219.833	142.5
220.051	46.25
220.27	50.35
220.488	5.29
220.706	62.63
220.924	-21.33
221.142	66.73
221.36	115.88
221.578	91.31
221.796	27.82
222.015	42.15
222.233	11.43
222.451	117.93
222.669	1.19
222.887	95.4
223.105	42.15
223.323	85.16
223.541	42.15
223.759	103.59
223.977	66.73
224.195	107.69
224.413	40.11
224.631	17.58
224.849	27.82
225.067	132.26
225.285	91.31
225.503	-45.91
225.721	19.63
225.939	99.5
226.157	31.91
226.375	66.73
226.592	42.15
226.81	36.01
227.028	72.87
227.246	101.55
227.464	3.24
227.682	40.11
227.9	17.58
228.117	136.36
228.335	66.73
228.553	-43.86
228.771	87.21
228.989	-13.14
229.206	11.43
229.424	87.21
229.642	79.02
229.86	15.53
230.077	79.02
230.295	-33.62
230.513	66.73
230.731	48.3
230.948	136.36
231.166	107.69
231.384	17.58
231.601	-7
231.819	66.73
232.037	56.49
232.254	-9.05
232.472	113.83
232.689	17.58
232.907	33.96
233.125	42.15
233.342	17.58
233.56	25.77
233.777	36.01
233.995	17.58
234.213	17.58
234.43	29.87
234.648	117.93
234.865	50.35
235.083	93.35
235.3	107.69
235.518	-23.38
235.735	128.17
235.953	124.07
236.17	46.25
236.388	29.87
236.605	33.96
236.822	50.35
237.04	107.69
237.257	124.07
237.475	21.67
237.692	54.44
237.909	17.58
238.127	19.63
238.344	109.74
238.562	29.87
238.779	-7
238.996	13.48
239.214	66.73
239.431	3.24
239.648	46.25
239.865	91.31
240.083	74.92
240.3	1.19
240.517	50.35
240.735	3.24
240.952	58.54
241.169	113.83
241.386	21.67
241.603	42.15
241.821	50.35
242.038	58.54
242.255	117.93
242.472	17.58
242.689	58.54
242.907	68.78
243.124	56.49
243.341	46.25
243.558	-29.52
243.775	60.59
243.992	-7
244.209	-13.14
244.426	25.77
244.643	44.2
244.86	29.87
245.078	111.78
245.295	11.43
245.512	42.15
245.729	25.77
245.946	-52.05
246.163	9.39
246.38	27.82
246.597	99.5
246.814	74.92
247.031	85.16
247.248	93.35
247.464	40.11
247.681	58.54
247.898	46.25
248.115	95.4
248.332	-0.85
248.549	66.73
248.766	81.07
248.983	44.2
249.2	9.39
249.417	103.59
249.633	-60.24
249.85	68.78
250.067	44.2
250.284	99.5
250.501	101.55
250.717	44.2
250.934	25.77
251.151	1.19
251.368	29.87
251.585	5.29
251.801	29.87
252.018	68.78
252.235	74.92
252.451	-7
252.668	33.96
252.885	58.54
253.102	52.39
253.318	9.39
253.535	119.98
253.752	50.35
253.968	52.39
254.185	50.35
254.401	42.15
254.618	50.35
254.835	25.77
255.051	142.5
255.268	56.49
255.484	85.16
255.701	27.82
255.917	60.59
256.134	13.48
256.351	15.53
256.567	60.59
256.784	107.69
257	33.96
257.217	126.12
257.433	58.54
257.65	74.92
257.866	19.63
258.082	25.77
258.299	19.63
258.515	46.25
258.732	1.19
258.948	42.15
259.165	48.3
259.381	91.31
259.597	85.16
259.814	66.73
260.03	60.59
260.246	23.72
260.463	33.96
260.679	134.31
260.895	38.06
261.112	101.55
261.328	36.01
261.544	83.11
261.761	99.5
261.977	-4.95
262.193	7.34
262.409	42.15
262.626	33.96
262.842	17.58
263.058	-19.29
263.274	74.92
263.49	107.69
263.707	115.88
263.923	74.92
264.139	27.82
264.355	52.39
264.571	79.02
264.787	17.58
265.004	17.58
265.22	23.72
265.436	33.96
265.652	3.24
265.868	50.35
266.084	15.53
266.3	62.63
266.516	31.91
266.732	83.11
266.948	85.16
267.164	36.01
267.38	7.34
267.596	13.48
267.812	48.3
268.028	52.39
268.244	3.24
268.46	109.74
268.676	-2.9
268.892	42.15
269.108	-31.57
269.324	66.73
269.54	-31.57
269.756	-47.96
269.972	99.5
270.188	60.59
270.403	-7
270.619	54.44
270.835	36.01
271.051	54.44
271.267	-15.19
271.483	50.35
271.698	119.98
271.914	52.39
272.13	33.96
272.346	76.97
272.562	13.48
272.777	58.54
272.993	7.34
273.209	54.44
273.425	19.63
273.64	-29.52
273.856	40.11
274.072	87.21
274.287	-0.85
274.503	19.63
274.719	15.53
274.934	-15.19
275.15	-39.76
275.366	-2.9
275.581	21.67
275.797	95.4
276.012	50.35
276.228	52.39
276.444	-31.57
276.659	62.63
276.875	68.78
277.09	15.53
277.306	-4.95
277.521	85.16
277.737	-15.19
277.952	50.35
278.168	60.59
278.383	95.4
278.599	21.67
278.814	3.24
279.03	-17.24
279.245	89.26
279.461	-43.86
279.676	17.58
279.892	42.15
280.107	56.49
280.322	33.96
280.538	99.5
280.753	56.49
280.969	52.39
281.184	74.92
281.399	50.35
281.615	-54.1
281.83	42.15
282.045	25.77
282.26	38.06
282.476	44.2
282.691	60.59
282.906	52.39
283.122	3.24
283.337	-13.14
283.552	50.35
283.767	29.87
283.983	74.92
284.198	15.53
284.413	23.72
284.628	-29.52
284.843	70.83
285.058	62.63
285.274	11.43
285.489	46.25
285.704	33.96
285.919	42.15
286.134	58.54
286.349	13.48
286.564	-2.9
286.779	33.96
286.995	56.49
287.21	36.01
287.425	5.29
287.64	25.77
287.855	50.35
288.07	-31.57
288.285	36.01
288.5	79.02
288.715	130.22
288.93	17.58
289.145	56.49
289.36	95.4
289.575	-60.24
289.79	68.78
290.004	29.87
290.219	130.22
290.434	68.78
290.649	-2.9
290.864	119.98
291.079	-52.05
291.294	64.68
291.509	58.54
291.724	25.77
291.938	58.54
292.153	83.11
292.368	25.77
292.583	58.54
292.798	74.92
293.012	50.35
293.227	27.82
293.442	17.58
293.657	66.73
293.871	62.63
294.086	-17.24
294.301	101.55
294.516	29.87
294.73	9.39
294.945	-4.95
295.16	115.88
295.374	99.5
295.589	46.25
295.804	42.15
296.018	23.72
296.233	58.54
296.447	25.77
296.662	29.87
296.877	83.11
297.091	103.59
297.306	70.83
297.52	27.82
297.735	-13.14
297.949	50.35
298.164	68.78
298.378	115.88
298.593	42.15
298.807	91.31
299.022	17.58
299.236	83.11
299.451	95.4
299.665	38.06
299.88	38.06
300.094	-7
300.309	9.39
300.523	81.07
300.737	66.73
300.952	7.34
301.166	76.97
301.381	-2.9
301.595	-19.29
301.809	19.63
302.024	83.11
302.238	52.39
302.452	91.31
302.667	17.58
302.881	87.21
303.095	70.83
303.309	115.88
303.524	58.54
303.738	11.43
303.952	42.15
304.166	85.16
304.381	3.24
304.595	93.35
304.809	74.92
305.023	68.78
305.237	-52.05
305.452	25.77
305.666	-9.05
305.88	52.39
306.094	107.69
306.308	91.31
306.522	115.88
306.736	17.58
306.95	36.01
307.164	50.35
307.379	-11.09
307.593	58.54
307.807	13.48
308.021	93.35
308.235	54.44
308.449	33.96
308.663	33.96
308.877	124.07
309.091	50.35
309.305	46.25
309.519	-21.33
309.733	25.77
309.947	13.48
310.161	42.15
310.374	11.43
310.588	62.63
310.802	-29.52
311.016	19.63
311.23	87.21
311.444	46.25
311.658	13.48
311.872	103.59
312.085	66.73
312.299	19.63
312.513	-13.14
312.727	66.73
312.941	11.43
313.154	81.07
313.368	70.83
313.582	66.73
313.796	50.35
314.009	91.31
314.223	42.15
314.437	95.4
314.651	54.44
314.864	17.58
315.078	9.39
315.292	107.69
315.505	33.96
315.719	83.11
315.933	107.69
316.146	83.11
316.36	-39.76
316.573	40.11
316.787	85.16
317.001	44.2
317.214	17.58
317.428	17.58
317.641	-29.52
317.855	50.35
318.068	87.21
318.282	64.68
318.495	17.58
318.709	74.92
318.922	66.73
319.136	136.36
319.349	-19.29
319.563	46.25
319.776	62.63
319.99	-21.33
320.203	-4.95
320.417	44.2
320.63	76.97
320.843	146.6
321.057	21.67
321.27	5.29
321.483	68.78
321.697	89.26
321.91	89.26
322.124	60.59
322.337	33.96
322.55	42.15
322.763	68.78
322.977	107.69
323.19	-15.19
323.403	103.59
323.617	36.01
323.83	38.06
324.043	50.35
324.256	68.78
324.469	54.44
324.683	62.63
324.896	11.43
325.109	13.48
325.322	66.73
325.535	66.73
325.748	130.22
325.962	17.58
326.175	50.35
326.388	103.59
326.601	54.44
326.814	25.77
327.027	101.55
327.24	111.78
327.453	-7
327.666	1.19
327.879	42.15
328.092	66.73
328.305	115.88
328.518	-2.9
328.731	46.25
328.944	-31.57
329.157	54.44
329.37	42.15
329.583	72.87
329.796	70.83
330.009	13.48
330.222	68.78
330.435	79.02
330.648	44.2
330.861	60.59
331.073	142.5
331.286	68.78
331.499	87.21
331.712	60.59
331.925	-9.05
332.138	83.11
332.35	115.88
332.563	13.48
332.776	91.31
332.989	17.58
333.202	38.06
333.414	5.29
333.627	19.63
333.84	33.96
334.053	66.73
334.265	70.83
334.478	58.54
334.691	38.06
334.903	-72.53
335.116	46.25
335.329	33.96
335.541	83.11
335.754	60.59
335.966	50.35
336.179	13.48
336.392	60.59
336.604	38.06
336.817	19.63
337.029	76.97
337.242	33.96
337.454	5.29
337.667	76.97
337.88	9.39
338.092	38.06
338.305	83.11
338.517	117.93
338.729	66.73
338.942	126.12
339.154	46.25
339.367	23.72
339.579	-9.05
339.792	3.24
340.004	74.92
340.217	17.58
340.429	25.77
340.641	21.67
340.854	-2.9
341.066	31.91
341.278	44.2
341.491	99.5
341.703	56.49
341.915	-31.57
342.128	66.73
342.34	58.54
342.552	44.2
342.764	33.96
342.977	31.91
343.189	74.92
343.401	60.59
343.613	42.15
343.826	25.77
344.038	40.11
344.25	68.78
344.462	64.68
344.674	-7
344.886	1.19
345.099	56.49
345.311	95.4
345.523	66.73
345.735	17.58
345.947	25.77
346.159	117.93
346.371	58.54
346.583	38.06
346.795	52.39
347.007	42.15
347.219	83.11
347.431	38.06
347.643	66.73
347.855	21.67
348.067	87.21
348.279	-21.33
348.491	68.78
348.703	58.54
348.915	81.07
349.127	11.43
349.339	-64.34
349.551	1.19
349.763	5.29
349.975	105.64
350.187	50.35
350.399	91.31
350.61	83.11
350.822	5.29
351.034	99.5
351.246	25.77
351.458	74.92
351.669	17.58
351.881	58.54
352.093	68.78
352.305	83.11
352.517	50.35
352.728	66.73
352.94	68.78
353.152	-7
353.363	74.92
353.575	66.73
353.787	44.2
353.999	81.07
354.21	111.78
354.422	9.39
354.633	111.78
354.845	58.54
355.057	40.11
355.268	23.72
355.48	29.87
355.692	-15.19
355.903	29.87
356.115	36.01
356.326	58.54
356.538	142.5
356.749	17.58
356.961	50.35
357.172	17.58
357.384	68.78
357.595	89.26
357.807	38.06
358.018	54.44
358.23	72.87
358.441	81.07
358.653	11.43
358.864	103.59
359.075	48.3
359.287	5.29
359.498	33.96
359.709	-33.62
359.921	1.19
360.132	83.11
360.344	40.11
360.555	58.54
360.766	95.4
360.977	76.97
361.189	68.78
361.4	64.68
361.611	58.54
361.823	76.97
362.034	54.44
362.245	74.92
362.456	9.39
362.667	74.92
362.879	-19.29
363.09	124.07
363.301	113.83
363.512	42.15
363.723	74.92
363.935	91.31
364.146	68.78
364.357	33.96
364.568	109.74
364.779	46.25
364.99	99.5
365.201	-29.52
365.412	74.92
365.623	48.3
365.834	33.96
366.045	103.59
366.256	62.63
366.467	99.5
366.678	27.82
366.889	1.19
367.1	46.25
367.311	3.24
367.522	33.96
367.733	3.24
367.944	142.5
368.155	-7
368.366	99.5
368.577	144.55
368.788	83.11
368.999	17.58
369.209	91.31
369.42	36.01
369.631	66.73
369.842	-19.29
370.053	72.87
370.264	5.29
370.474	-19.29
370.685	17.58
370.896	-9.05
371.107	105.64
371.317	70.83
371.528	70.83
371.739	25.77
371.95	66.73
372.16	83.11
372.371	-41.81
372.582	66.73
372.792	107.69
373.003	25.77
373.214	50.35
373.424	74.92
373.635	9.39
373.846	-15.19
374.056	23.72
374.267	68.78
374.477	42.15
374.688	11.43
374.898	58.54
375.109	25.77
375.319	-7
375.53	52.39
375.74	-4.95
375.951	17.58
376.161	19.63
376.372	103.59
376.582	44.2
376.793	44.2
377.003	85.16
377.214	-4.95
377.424	91.31
377.635	66.73
377.845	25.77
378.055	25.77
378.266	38.06
378.476	11.43
378.686	1.19
378.897	81.07
379.107	44.2
379.317	46.25
379.528	58.54
379.738	107.69
379.948	74.92
380.158	115.88
380.369	62.63
380.579	58.54
380.789	44.2
380.999	25.77
381.21	156.84
381.42	58.54
381.63	68.78
381.84	46.25
382.05	40.11
382.261	60.59
382.471	165.03
382.681	42.15
382.891	60.59
383.101	74.92
383.311	58.54
383.521	29.87
383.731	5.29
383.941	79.02
384.151	13.48
384.361	52.39
384.571	38.06
384.781	29.87
384.991	79.02
385.201	175.27
385.411	81.07
385.621	19.63
385.831	11.43
386.041	72.87
386.251	58.54
386.461	33.96
386.671	107.69
386.881	95.4
387.091	9.39
387.301	58.54
387.511	52.39
387.72	-11.09
387.93	117.93
388.14	29.87
388.35	70.83
388.56	-0.85
388.769	58.54
388.979	105.64
389.189	13.48
389.399	1.19
389.609	89.26
389.818	191.66
390.028	-25.43
390.238	91.31
390.447	-47.96
390.657	-2.9
390.867	-19.29
391.076	-7
391.286	46.25
391.496	46.25
391.705	19.63
391.915	97.45
392.125	42.15
392.334	103.59
392.544	66.73
392.753	44.2
392.963	50.35
393.172	64.68
393.382	-25.43
393.591	111.78
393.801	36.01
394.01	99.5
394.22	87.21
394.429	25.77
394.639	-0.85
394.848	76.97
395.058	60.59
395.267	85.16
395.477	13.48
395.686	91.31
395.895	107.69
396.105	144.55
396.314	87.21
396.524	54.44
396.733	29.87
396.942	33.96
397.152	79.02
397.361	74.92
397.57	68.78
397.78	83.11
397.989	46.25
398.198	175.27
398.407	19.63
398.617	103.59
398.826	95.4
399.035	42.15
399.244	115.88
399.453	85.16
399.663	124.07
399.872	58.54
400.081	81.07
400.29	122.02
400.499	68.78
400.708	58.54
400.917	169.13
401.127	74.92
401.336	62.63
401.545	56.49
401.754	146.6
401.963	101.55
402.172	111.78
402.381	50.35
402.59	42.15
402.799	140.46
403.008	38.06
403.217	27.82
403.426	132.26
403.635	76.97
403.844	142.5
404.053	87.21
404.262	68.78
404.471	117.93
404.68	25.77
404.888	117.93
405.097	48.3
405.306	134.31
405.515	74.92
405.724	79.02
405.933	117.93
406.142	175.27
406.35	95.4
406.559	115.88
406.768	111.78
406.977	128.17
407.185	160.94
407.394	158.89
407.603	60.59
407.812	117.93
408.02	216.23
408.229	156.84
408.438	124.07
408.646	132.26
408.855	134.31
409.064	152.74
409.272	119.98
409.481	150.7
409.69	101.55
409.898	181.42
410.107	144.55
410.315	103.59
410.524	175.27
410.733	148.65
410.941	107.69
411.15	150.7
411.358	119.98
411.567	181.42
411.775	169.13
411.984	162.98
412.192	197.8
412.401	193.7
412.609	199.85
412.818	246.95
413.026	197.8
413.234	181.42
413.443	249
413.651	191.66
413.86	257.19
414.068	228.52
414.276	251.05
414.485	197.8
414.693	269.48
414.901	332.97
415.11	255.14
415.318	226.47
415.526	246.95
415.734	232.62
415.943	281.77
416.151	238.76
416.359	263.33
416.567	236.71
416.776	226.47
416.984	330.92
417.192	255.14
417.4	230.57
417.608	242.85
417.817	240.81
418.025	222.38
418.233	341.16
418.441	279.72
418.649	324.77
418.857	242.85
419.065	320.68
419.273	292.01
419.481	304.29
419.689	355.49
419.897	304.29
420.105	294.05
420.313	308.39
420.521	324.77
420.729	380.07
420.937	324.77
421.145	298.15
421.353	378.02
421.561	369.83
421.769	375.97
421.977	404.64
422.185	373.92
422.393	279.72
422.601	396.45
422.809	402.6
423.017	390.31
423.224	388.26
423.432	416.93
423.64	406.69
423.848	439.46
424.056	486.56
424.263	445.6
424.471	451.75
424.679	410.79
424.887	427.17
425.094	433.32
425.302	478.37
425.51	474.28
425.718	535.71
425.925	527.52
426.133	543.91
426.341	535.71
426.548	591.01
426.756	511.14
426.964	548
427.171	468.13
427.379	509.09
427.586	560.29
427.794	607.39
428.001	605.35
428.209	623.78
428.417	601.25
428.624	623.78
428.832	599.2
429.039	572.58
429.247	609.44
429.454	722.08
429.662	677.02
429.869	658.59
430.076	648.35
430.284	625.83
430.491	720.03
430.699	726.18
430.906	742.56
431.114	703.65
431.321	625.83
431.528	746.66
431.736	734.37
431.943	783.52
432.15	763.04
432.358	787.61
432.565	818.33
432.772	763.04
432.979	791.71
433.187	836.77
433.394	892.06
433.601	789.66
433.808	861.34
434.016	918.68
434.223	810.14
434.43	904.35
434.637	918.68
434.844	976.03
435.052	912.54
435.259	928.92
435.466	945.31
435.673	986.27
435.88	943.26
436.087	1074.33
436.294	1008.8
436.501	926.88
436.708	980.12
436.915	1066.14
437.122	1008.8
437.329	1115.29
437.537	1111.19
437.743	1135.77
437.95	1148.06
438.157	1166.49
438.364	1285.27
438.571	1215.64
438.778	1270.94
438.985	1221.78
439.192	1285.27
439.399	1336.47
439.606	1270.94
439.813	1373.33
440.02	1361.05
440.227	1295.51
440.433	1289.37
440.64	1352.85
440.847	1348.76
441.054	1365.14
441.261	1420.44
441.467	1461.4
441.674	1539.22
441.881	1549.46
442.088	1426.58
442.294	1463.44
442.501	1537.17
442.708	1541.27
442.914	1545.36
443.121	1758.35
443.328	1457.3
443.534	1660.05
443.741	1557.65
443.948	1627.28
444.154	1731.73
444.361	1778.83
444.568	1709.2
444.774	1614.99
444.981	1797.26
445.187	1735.82
445.394	1744.02
445.6	1746.06
445.807	1940.62
446.013	1928.33
446.22	1889.42
446.426	1985.68
446.633	2020.49
446.839	2143.37
447.046	2034.83
447.252	2118.79
447.459	2086.03
447.665	2067.6
447.871	2243.72
448.078	2401.41
448.284	2219.14
448.491	2129.03
448.697	2331.78
448.903	2262.15
449.11	2450.57
449.316	2243.72
449.522	2299.02
449.728	2380.93
449.935	2405.51
450.141	2370.69
450.347	2477.19
450.553	2395.27
450.76	2253.96
450.966	2477.19
451.172	2364.55
451.378	2499.72
451.584	2522.24
451.791	2567.3
451.997	2440.33
452.203	2657.41
452.409	2526.34
452.615	2606.21
452.821	2577.54
453.027	2389.13
453.233	2569.35
453.44	2462.85
453.646	2503.81
453.852	2385.03
454.058	2501.76
454.264	2466.95
454.47	2532.48
454.676	2534.53
454.882	2585.73
455.088	2313.35
455.294	2401.41
455.5	2458.76
455.705	2350.21
455.911	2419.85
456.117	2292.87
456.323	2303.11
456.529	2151.56
456.735	2270.34
456.941	2215.05
457.147	2106.51
457.352	2079.88
457.558	2040.97
457.764	2118.79
457.97	2122.89
458.176	2008.2
458.381	2057.36
458.587	1903.76
458.793	1924.24
458.999	1795.22
459.204	1995.92
459.41	1901.71
459.616	1856.65
459.821	1897.61
460.027	1721.49
460.233	1795.22
460.438	1688.72
460.644	1770.64
460.85	1623.19
461.055	1789.07
461.261	1627.28
461.466	1459.35
461.672	1516.69
461.878	1569.94
462.083	1379.48
462.289	1406.1
462.494	1510.55
462.7	1442.96
462.905	1363.09
463.111	1344.66
463.316	1438.87
463.522	1395.86
463.727	1414.29
463.932	1402.01
464.138	1418.39
464.343	1369.24
464.549	1356.95
464.754	1373.33
464.959	1418.39
465.165	1293.46
465.37	1361.05
465.575	1264.79
465.781	1361.05
465.986	1283.22
466.191	1213.59
466.397	1258.65
466.602	1369.24
466.807	1148.06
467.012	1369.24
467.218	1299.61
467.423	1377.43
467.628	1301.65
467.833	1217.69
468.038	1295.51
468.244	1254.55
468.449	1168.54
468.654	1250.46
468.859	1227.93
469.064	1135.77
469.269	1156.25
469.474	1301.65
469.679	1242.26
469.885	1164.44
470.09	1262.74
470.295	1225.88
470.5	1180.82
470.705	1223.83
470.91	1168.54
471.115	1131.67
