Data from USB4F104151__220__14-45-31-087.txt Node

Date: Thu Mar 13 14:45:31 EDT 2025
User: louis
Spectrometer: USB4F10415
Trigger mode: 4
Integration Time (sec): 2.000000E-2
Scans to average: 1
Electric dark correction enabled: true
Nonlinearity correction enabled: false
Boxcar width: 0
XAxis mode: Wavelengths
Number of Pixels in Spectrum: 3648
>>>>>Begin Spectral Data<<<<<
178.204	-80.04
178.424	-80.04
178.644	-80.04
178.864	-166.06
179.084	-26.79
179.304	20.31
179.524	-49.32
179.744	-92.33
179.964	20.31
180.184	48.98
180.404	28.5
180.624	-28.84
180.844	-24.75
181.064	-14.51
181.283	3.93
181.503	-51.37
181.723	139.09
181.943	-24.75
182.163	42.84
182.383	-57.51
182.602	44.88
182.822	36.69
183.042	38.74
183.262	96.08
183.482	10.07
183.701	3.93
183.921	-4.27
184.141	-8.36
184.361	53.08
184.58	77.65
184.8	-6.31
185.02	36.69
185.239	12.12
185.459	-18.6
185.679	102.23
185.898	-41.13
186.118	87.89
186.338	1.88
186.557	-2.22
186.777	-0.17
186.997	-12.46
187.216	-45.23
187.436	77.65
187.655	114.52
187.875	145.24
188.095	24.4
188.314	20.31
188.534	12.12
188.753	57.17
188.973	91.99
189.192	5.97
189.412	53.08
189.631	59.22
189.851	36.69
190.07	61.27
190.29	-24.75
190.509	3.93
190.729	-0.17
190.948	30.55
191.168	169.81
191.387	94.04
191.607	22.36
191.826	24.4
192.045	61.27
192.265	5.97
192.484	-32.94
192.704	44.88
192.923	20.31
193.142	128.85
193.362	28.5
193.581	110.42
193.8	-12.46
194.02	-71.85
194.239	89.94
194.458	69.46
194.678	104.28
194.897	-12.46
195.116	55.12
195.335	98.13
195.555	116.56
195.774	8.02
195.993	-49.32
196.212	26.45
196.432	1.88
196.651	1.88
196.87	14.17
197.089	108.37
197.308	165.71
197.528	53.08
197.747	-26.79
197.966	16.21
198.185	94.04
198.404	3.93
198.623	69.46
198.842	40.79
199.062	28.5
199.281	20.31
199.5	22.36
199.719	32.6
199.938	85.84
200.157	77.65
200.376	-20.65
200.595	12.12
200.814	12.12
201.033	-12.46
201.252	20.31
201.471	57.17
201.69	38.74
201.909	79.7
202.128	104.28
202.347	46.93
202.566	38.74
202.785	-12.46
203.004	3.93
203.223	38.74
203.442	59.22
203.661	-10.41
203.879	14.17
204.098	12.12
204.317	-16.55
204.536	26.45
204.755	14.17
204.974	53.08
205.193	55.12
205.411	112.47
205.63	-20.65
205.849	55.12
206.068	28.5
206.287	53.08
206.505	81.75
206.724	-41.13
206.943	46.93
207.162	-20.65
207.381	44.88
207.599	14.17
207.818	81.75
208.037	48.98
208.255	48.98
208.474	-32.94
208.693	20.31
208.911	-45.23
209.13	-6.31
209.349	46.93
209.567	145.24
209.786	3.93
210.005	16.21
210.223	61.27
210.442	75.6
210.661	-26.79
210.879	-4.27
211.098	20.31
211.316	85.84
211.535	102.23
211.753	26.45
211.972	53.08
212.191	3.93
212.409	89.94
212.628	57.17
212.846	12.12
213.065	28.5
213.283	22.36
213.502	77.65
213.72	48.98
213.938	3.93
214.157	-24.75
214.375	75.6
214.594	22.36
214.812	18.26
215.031	51.03
215.249	8.02
215.467	16.21
215.686	-4.27
215.904	71.51
216.122	32.6
216.341	71.51
216.559	42.84
216.778	87.89
216.996	40.79
217.214	3.93
217.432	-2.22
217.651	69.46
217.869	36.69
218.087	-10.41
218.306	-34.99
218.524	20.31
218.742	-26.79
218.96	71.51
219.179	20.31
219.397	-30.89
219.615	28.5
219.833	-18.6
220.051	-12.46
220.27	14.17
220.488	36.69
220.706	18.26
220.924	5.97
221.142	24.4
221.36	22.36
221.578	44.88
221.796	44.88
222.015	81.75
222.233	53.08
222.451	85.84
222.669	14.17
222.887	40.79
223.105	48.98
223.323	63.32
223.541	18.26
223.759	57.17
223.977	32.6
224.195	20.31
224.413	34.64
224.631	-43.18
224.849	26.45
225.067	44.88
225.285	36.69
225.503	81.75
225.721	-53.42
225.939	12.12
226.157	26.45
226.375	83.8
226.592	26.45
226.81	36.69
227.028	48.98
227.246	102.23
227.464	-24.75
227.682	-32.94
227.9	57.17
228.117	69.46
228.335	38.74
228.553	20.31
228.771	77.65
228.989	32.6
229.206	53.08
229.424	36.69
229.642	24.4
229.86	-22.7
230.077	-4.27
230.295	-10.41
230.513	65.36
230.731	-4.27
230.948	38.74
231.166	8.02
231.384	-51.37
231.601	12.12
231.819	48.98
232.037	77.65
232.254	3.93
232.472	-18.6
232.689	3.93
232.907	91.99
233.125	30.55
233.342	1.88
233.56	55.12
233.777	46.93
233.995	53.08
234.213	85.84
234.43	77.65
234.648	-53.42
234.865	-22.7
235.083	8.02
235.3	12.12
235.518	81.75
235.735	44.88
235.953	38.74
236.17	5.97
236.388	18.26
236.605	75.6
236.822	30.55
237.04	1.88
237.257	-24.75
237.475	-0.17
237.692	40.79
237.909	-0.17
238.127	32.6
238.344	-34.99
238.562	94.04
238.779	-10.41
238.996	-51.37
239.214	-8.36
239.431	104.28
239.648	-4.27
239.865	3.93
240.083	38.74
240.3	106.32
240.517	-12.46
240.735	-37.03
240.952	61.27
241.169	102.23
241.386	71.51
241.603	8.02
241.821	16.21
242.038	46.93
242.255	106.32
242.472	102.23
242.689	-26.79
242.907	69.46
243.124	36.69
243.341	46.93
243.558	38.74
243.775	36.69
243.992	-53.42
244.209	55.12
244.426	106.32
244.643	-2.22
244.86	-20.65
245.078	61.27
245.295	-8.36
245.512	-18.6
245.729	55.12
245.946	40.79
246.163	53.08
246.38	-16.55
246.597	55.12
246.814	36.69
247.031	-4.27
247.248	-8.36
247.464	24.4
247.681	18.26
247.898	-8.36
248.115	94.04
248.332	12.12
248.549	40.79
248.766	77.65
248.983	53.08
249.2	-45.23
249.417	63.32
249.633	53.08
249.85	38.74
250.067	-4.27
250.284	83.8
250.501	71.51
250.717	53.08
250.934	12.12
251.151	12.12
251.368	14.17
251.585	61.27
251.801	-18.6
252.018	-2.22
252.235	20.31
252.451	30.55
252.668	38.74
252.885	-2.22
253.102	94.04
253.318	34.64
253.535	12.12
253.752	38.74
253.968	85.84
254.185	69.46
254.401	53.08
254.618	38.74
254.835	8.02
255.051	73.56
255.268	65.36
255.484	46.93
255.701	46.93
255.917	16.21
256.134	-28.84
256.351	8.02
256.567	-8.36
256.784	14.17
257	48.98
257.217	77.65
257.433	61.27
257.65	38.74
257.866	22.36
258.082	-63.66
258.299	38.74
258.515	57.17
258.732	-6.31
258.948	-10.41
259.165	36.69
259.381	-65.71
259.597	3.93
259.814	18.26
260.03	-0.17
260.246	5.97
260.463	79.7
260.679	57.17
260.895	30.55
261.112	24.4
261.328	87.89
261.544	-45.23
261.761	44.88
261.977	96.08
262.193	-59.56
262.409	28.5
262.626	40.79
262.842	12.12
263.058	28.5
263.274	14.17
263.49	-59.56
263.707	22.36
263.923	69.46
264.139	-4.27
264.355	44.88
264.571	126.8
264.787	-20.65
265.004	61.27
265.22	14.17
265.436	65.36
265.652	-4.27
265.868	3.93
266.084	30.55
266.3	-4.27
266.516	24.4
266.732	30.55
266.948	44.88
267.164	-10.41
267.38	22.36
267.596	-8.36
267.812	-12.46
268.028	-8.36
268.244	44.88
268.46	12.12
268.676	-4.27
268.892	-10.41
269.108	63.32
269.324	-4.27
269.54	-43.18
269.756	44.88
269.972	1.88
270.188	-20.65
270.403	44.88
270.619	63.32
270.835	40.79
271.051	18.26
271.267	-53.42
271.483	36.69
271.698	10.07
271.914	30.55
272.13	55.12
272.346	3.93
272.562	12.12
272.777	48.98
272.993	-0.17
273.209	36.69
273.425	38.74
273.64	-41.13
273.856	-24.75
274.072	-47.27
274.287	102.23
274.503	-4.27
274.719	-0.17
274.934	-10.41
275.15	-0.17
275.366	-12.46
275.581	5.97
275.797	46.93
276.012	26.45
276.228	-20.65
276.444	14.17
276.659	28.5
276.875	48.98
277.09	28.5
277.306	30.55
277.521	-2.22
277.737	-12.46
277.952	-10.41
278.168	-34.99
278.383	71.51
278.599	22.36
278.814	-8.36
279.03	53.08
279.245	40.79
279.461	38.74
279.676	108.37
279.892	12.12
280.107	40.79
280.322	36.69
280.538	46.93
280.753	28.5
280.969	12.12
281.184	-0.17
281.399	18.26
281.615	20.31
281.83	67.41
282.045	-43.18
282.26	40.79
282.476	5.97
282.691	46.93
282.906	89.94
283.122	26.45
283.337	57.17
283.552	46.93
283.767	-32.94
283.983	44.88
284.198	36.69
284.413	40.79
284.628	3.93
284.843	20.31
285.058	12.12
285.274	61.27
285.489	3.93
285.704	28.5
285.919	12.12
286.134	57.17
286.349	-4.27
286.564	-37.03
286.779	3.93
286.995	-43.18
287.21	-55.47
287.425	38.74
287.64	-14.51
287.855	-0.17
288.07	14.17
288.285	-26.79
288.5	20.31
288.715	22.36
288.93	77.65
289.145	-4.27
289.36	53.08
289.575	22.36
289.79	-6.31
290.004	30.55
290.219	89.94
290.434	-39.08
290.649	22.36
290.864	94.04
291.079	69.46
291.294	38.74
291.509	-45.23
291.724	26.45
291.938	24.4
292.153	106.32
292.368	12.12
292.583	20.31
292.798	53.08
293.012	36.69
293.227	20.31
293.442	-2.22
293.657	40.79
293.871	137.04
294.086	3.93
294.301	-10.41
294.516	36.69
294.73	-20.65
294.945	-26.79
295.16	-16.55
295.374	63.32
295.589	10.07
295.804	34.64
296.018	38.74
296.233	65.36
296.447	-0.17
296.662	-24.75
296.877	63.32
297.091	53.08
297.306	120.66
297.52	59.22
297.735	36.69
297.949	36.69
298.164	28.5
298.378	36.69
298.593	20.31
298.807	20.31
299.022	51.03
299.236	38.74
299.451	61.27
299.665	28.5
299.88	20.31
300.094	24.4
300.309	12.12
300.523	38.74
300.737	53.08
300.952	53.08
301.166	53.08
301.381	65.36
301.595	12.12
301.809	12.12
302.024	-41.13
302.238	40.79
302.452	110.42
302.667	36.69
302.881	85.84
303.095	61.27
303.309	87.89
303.524	28.5
303.738	73.56
303.952	71.51
304.166	48.98
304.381	-82.09
304.595	55.12
304.809	-4.27
305.023	22.36
305.237	-8.36
305.452	-12.46
305.666	89.94
305.88	55.12
306.094	-4.27
306.308	85.84
306.522	14.17
306.736	-26.79
306.95	5.97
307.164	75.6
307.379	59.22
307.593	118.61
307.807	-12.46
308.021	-6.31
308.235	26.45
308.449	8.02
308.663	12.12
308.877	-14.51
309.091	-37.03
309.305	96.08
309.519	-82.09
309.733	75.6
309.947	48.98
310.161	-51.37
310.374	65.36
310.588	61.27
310.802	-4.27
311.016	36.69
311.23	-0.17
311.444	87.89
311.658	-18.6
311.872	30.55
312.085	5.97
312.299	79.7
312.513	42.84
312.727	36.69
312.941	77.65
313.154	38.74
313.368	30.55
313.582	53.08
313.796	24.4
314.009	20.31
314.223	14.17
314.437	44.88
314.651	94.04
314.864	3.93
315.078	-47.27
315.292	73.56
315.505	12.12
315.719	16.21
315.933	-2.22
316.146	-32.94
316.36	-0.17
316.573	94.04
316.787	20.31
317.001	8.02
317.214	69.46
317.428	48.98
317.641	-67.75
317.855	44.88
318.068	20.31
318.282	48.98
318.495	57.17
318.709	-18.6
318.922	32.6
319.136	28.5
319.349	32.6
319.563	57.17
319.776	81.75
319.99	38.74
320.203	30.55
320.417	5.97
320.63	12.12
320.843	85.84
321.057	-2.22
321.27	106.32
321.483	12.12
321.697	55.12
321.91	32.6
322.124	-12.46
322.337	32.6
322.55	28.5
322.763	14.17
322.977	-34.99
323.19	-4.27
323.403	-4.27
323.617	1.88
323.83	110.42
324.043	-28.84
324.256	46.93
324.469	-41.13
324.683	104.28
324.896	-8.36
325.109	28.5
325.322	3.93
325.535	-4.27
325.748	14.17
325.962	16.21
326.175	14.17
326.388	53.08
326.601	44.88
326.814	42.84
327.027	40.79
327.24	8.02
327.453	-51.37
327.666	32.6
327.879	57.17
328.092	-53.42
328.305	42.84
328.518	-2.22
328.731	20.31
328.944	44.88
329.157	126.8
329.37	57.17
329.583	55.12
329.796	53.08
330.009	-14.51
330.222	104.28
330.435	32.6
330.648	71.51
330.861	18.26
331.073	-4.27
331.286	44.88
331.499	53.08
331.712	-22.7
331.925	28.5
332.138	5.97
332.35	102.23
332.563	36.69
332.776	53.08
332.989	-77.99
333.202	87.89
333.414	94.04
333.627	28.5
333.84	-53.42
334.053	77.65
334.265	-14.51
334.478	28.5
334.691	85.84
334.903	30.55
335.116	-77.99
335.329	-37.03
335.541	34.64
335.754	114.52
335.966	-12.46
336.179	69.46
336.392	16.21
336.604	63.32
336.817	81.75
337.029	100.18
337.242	34.64
337.454	53.08
337.667	-61.61
337.88	71.51
338.092	-26.79
338.305	32.6
338.517	30.55
338.729	44.88
338.942	12.12
339.154	-37.03
339.367	16.21
339.579	-43.18
339.792	30.55
340.004	48.98
340.217	-8.36
340.429	118.61
340.641	-43.18
340.854	5.97
341.066	3.93
341.278	79.7
341.491	38.74
341.703	69.46
341.915	-32.94
342.128	24.4
342.34	34.64
342.552	22.36
342.764	51.03
342.977	14.17
343.189	44.88
343.401	24.4
343.613	-28.84
343.826	65.36
344.038	3.93
344.25	-14.51
344.462	55.12
344.674	12.12
344.886	20.31
345.099	104.28
345.311	36.69
345.523	42.84
345.735	-26.79
345.947	85.84
346.159	12.12
346.371	44.88
346.583	-37.03
346.795	110.42
347.007	-71.85
347.219	28.5
347.431	-6.31
347.643	116.56
347.855	-12.46
348.067	40.79
348.279	-43.18
348.491	-2.22
348.703	69.46
348.915	24.4
349.127	26.45
349.339	61.27
349.551	48.98
349.763	-26.79
349.975	98.13
350.187	69.46
350.399	73.56
350.61	57.17
350.822	8.02
351.034	65.36
351.246	96.08
351.458	3.93
351.669	79.7
351.881	75.6
352.093	100.18
352.305	63.32
352.517	51.03
352.728	110.42
352.94	69.46
353.152	3.93
353.363	8.02
353.575	12.12
353.787	-37.03
353.999	24.4
354.21	38.74
354.422	57.17
354.633	-45.23
354.845	48.98
355.057	73.56
355.268	14.17
355.48	126.8
355.692	-2.22
355.903	-30.89
356.115	30.55
356.326	-37.03
356.538	14.17
356.749	51.03
356.961	71.51
357.172	61.27
357.384	77.65
357.595	28.5
357.807	-37.03
358.018	67.41
358.23	73.56
358.441	40.79
358.653	55.12
358.864	30.55
359.075	57.17
359.287	-41.13
359.498	118.61
359.709	73.56
359.921	-6.31
360.132	-2.22
360.344	69.46
360.555	57.17
360.766	75.6
360.977	-0.17
361.189	71.51
361.4	102.23
361.611	106.32
361.823	61.27
362.034	48.98
362.245	-94.38
362.456	24.4
362.667	44.88
362.879	-12.46
363.09	69.46
363.301	16.21
363.512	87.89
363.723	69.46
363.935	5.97
364.146	-14.51
364.357	10.07
364.568	122.71
364.779	-51.37
364.99	8.02
365.201	44.88
365.412	1.88
365.623	30.55
365.834	32.6
366.045	24.4
366.256	69.46
366.467	53.08
366.678	22.36
366.889	5.97
367.1	-51.37
367.311	61.27
367.522	20.31
367.733	12.12
367.944	12.12
368.155	-22.7
368.366	63.32
368.577	38.74
368.788	102.23
368.999	20.31
369.209	-16.55
369.42	65.36
369.631	132.95
369.842	3.93
370.053	55.12
370.264	16.21
370.474	3.93
370.685	18.26
370.896	-24.75
371.107	3.93
371.317	44.88
371.528	32.6
371.739	94.04
371.95	30.55
372.16	-12.46
372.371	-0.17
372.582	63.32
372.792	85.84
373.003	61.27
373.214	14.17
373.424	-16.55
373.635	-24.75
373.846	63.32
374.056	46.93
374.267	-4.27
374.477	44.88
374.688	73.56
374.898	55.12
375.109	38.74
375.319	124.76
375.53	38.74
375.74	61.27
375.951	83.8
376.161	106.32
376.372	77.65
376.582	8.02
376.793	51.03
377.003	-20.65
377.214	73.56
377.424	46.93
377.635	57.17
377.845	5.97
378.055	59.22
378.266	16.21
378.476	12.12
378.686	8.02
378.897	118.61
379.107	28.5
379.317	143.19
379.528	40.79
379.738	53.08
379.948	8.02
380.158	46.93
380.369	10.07
380.579	65.36
380.789	8.02
380.999	118.61
381.21	71.51
381.42	36.69
381.63	28.5
381.84	53.08
382.05	26.45
382.261	28.5
382.471	61.27
382.681	79.7
382.891	77.65
383.101	87.89
383.311	-45.23
383.521	20.31
383.731	32.6
383.941	81.75
384.151	20.31
384.361	-28.84
384.571	-26.79
384.781	65.36
384.991	20.31
385.201	38.74
385.411	96.08
385.621	159.57
385.831	65.36
386.041	53.08
386.251	59.22
386.461	85.84
386.671	32.6
386.881	40.79
387.091	59.22
387.301	120.66
387.511	-37.03
387.72	44.88
387.93	77.65
388.14	48.98
388.35	48.98
388.56	53.08
388.769	77.65
388.979	24.4
389.189	-16.55
389.399	32.6
389.609	28.5
389.818	61.27
390.028	61.27
390.238	110.42
390.447	63.32
390.657	-32.94
390.867	65.36
391.076	5.97
391.286	14.17
391.496	73.56
391.705	79.7
391.915	57.17
392.125	126.8
392.334	3.93
392.544	67.41
392.753	32.6
392.963	-59.56
393.172	14.17
393.382	16.21
393.591	137.04
393.801	12.12
394.01	8.02
394.22	44.88
394.429	73.56
394.639	16.21
394.848	153.43
395.058	28.5
395.267	46.93
395.477	57.17
395.686	34.64
395.895	77.65
396.105	135
396.314	81.75
396.524	77.65
396.733	128.85
396.942	81.75
397.152	61.27
397.361	102.23
397.57	69.46
397.78	-16.55
397.989	69.46
398.198	163.67
398.407	71.51
398.617	98.13
398.826	20.31
399.035	28.5
399.244	114.52
399.453	178
399.663	63.32
399.872	102.23
400.081	102.23
400.29	126.8
400.499	73.56
400.708	-16.55
400.917	73.56
401.127	118.61
401.336	20.31
401.545	130.9
401.754	118.61
401.963	69.46
402.172	16.21
402.381	-12.46
402.59	42.84
402.799	178
403.008	94.04
403.217	110.42
403.426	73.56
403.635	161.62
403.844	73.56
404.053	180.05
404.262	167.76
404.471	186.19
404.68	137.04
404.888	169.81
405.097	63.32
405.306	112.47
405.515	184.15
405.724	153.43
405.933	135
406.142	167.76
406.35	137.04
406.559	200.53
406.768	225.11
406.977	202.58
407.185	135
407.394	167.76
407.603	196.43
407.812	151.38
408.02	208.72
408.229	167.76
408.438	85.84
408.646	167.76
408.855	184.15
409.064	143.19
409.272	239.44
409.481	233.3
409.69	241.49
409.898	235.35
410.107	243.54
410.315	223.06
410.524	319.31
410.733	278.35
410.941	251.73
411.15	290.64
411.358	364.37
411.567	440.14
411.775	370.51
411.984	323.41
412.192	407.38
412.401	350.03
412.609	376.66
412.818	446.29
413.026	429.9
413.234	431.95
413.443	520.01
413.651	481.1
413.86	481.1
414.068	487.25
414.276	556.88
414.485	536.4
414.693	560.97
414.901	548.68
415.11	583.5
415.318	577.36
415.526	544.59
415.734	661.32
415.943	663.37
416.151	741.19
416.359	724.81
416.567	808.78
416.776	724.81
416.984	751.43
417.192	851.78
417.4	773.96
417.608	751.43
417.817	880.46
418.025	943.94
418.233	978.76
418.441	939.85
418.649	962.37
418.857	1124.16
419.065	1118.02
419.273	1101.64
419.481	1091.4
419.689	1154.88
419.897	1290.05
420.105	1308.48
420.313	1306.43
420.521	1335.1
420.729	1351.49
420.937	1349.44
421.145	1437.5
421.353	1447.74
421.561	1666.88
421.769	1625.92
421.977	1718.08
422.185	1736.51
422.393	1740.6
422.601	1906.49
422.809	1920.82
423.017	1953.59
423.224	2002.74
423.432	2035.51
423.64	2125.62
423.848	2297.65
424.056	2162.48
424.263	2432.82
424.471	2477.87
424.679	2408.24
424.887	2502.45
425.094	2641.71
425.302	2666.28
425.51	2834.22
425.718	2869.03
425.925	2936.62
426.133	3053.35
426.341	3143.46
426.548	3278.63
426.756	3264.29
426.964	3280.68
427.171	3542.82
427.379	3510.05
427.586	3659.55
427.794	3720.99
428.001	3764
428.209	3993.37
428.417	4007.7
428.624	4284.18
428.832	4243.22
429.039	4116.25
429.247	4261.65
429.454	4665.1
429.662	4972.3
429.869	4564.75
430.076	4962.06
430.284	4787.98
430.491	4949.77
430.699	5426.95
430.906	5340.93
431.114	5365.51
431.321	5820.16
431.528	5799.68
431.736	6072.06
431.943	6428.4
432.15	6139.64
432.358	6237.94
432.565	6512.37
432.772	6590.19
432.979	6838
433.187	7067.37
433.394	7089.9
433.601	7483.11
433.808	7462.63
434.016	7452.39
434.223	7696.1
434.43	8265.43
434.637	8214.23
434.844	8685.26
435.052	8693.46
435.259	8679.12
435.466	8703.7
435.673	8652.5
435.88	9205.45
436.087	9737.92
436.294	9574.08
436.501	9387.72
436.708	9557.7
436.915	10178.23
437.122	10700.47
437.329	10423.99
437.537	10919.6
437.743	10968.75
437.95	10962.61
438.157	11398.82
438.364	11853.47
438.571	11884.19
438.778	12168.86
438.985	13069.97
439.192	12455.58
439.399	12756.63
439.606	12463.77
439.813	13301.39
440.02	13971.07
440.227	13745.8
440.433	13651.59
440.64	14175.87
440.847	13999.74
441.054	14544.5
441.261	15355.5
441.467	15273.58
441.674	15539.82
441.881	15947.36
442.088	16062.05
442.294	16086.62
442.501	16152.16
442.708	16686.68
442.914	17141.33
443.121	17991.23
443.328	17292.88
443.534	18617.91
443.741	18296.38
443.948	17942.08
444.154	19246.64
444.361	18849.33
444.568	19240.5
444.774	19090.99
444.981	19543.6
445.187	19953.19
445.394	20565.53
445.6	20799
445.807	22605.31
446.013	21671.43
446.22	21859.85
446.426	22994.42
446.633	23014.9
446.839	23637.48
447.046	22613.5
447.252	24163.81
447.459	23993.83
447.665	23985.64
447.871	24946.14
448.078	26125.77
448.284	24817.11
448.491	25718.22
448.697	26729.92
448.903	27016.63
449.11	26897.85
449.316	26641.85
449.522	27264.44
449.728	28200.36
449.935	28302.76
450.141	27970.99
450.347	28849.57
450.553	27661.74
450.76	28134.82
450.966	29005.21
451.172	28800.41
451.378	29537.68
451.584	29152.66
451.791	29851.02
451.997	29865.36
452.203	30223.75
452.409	30391.69
452.615	29945.23
452.821	28673.44
453.027	28743.07
453.233	30377.35
453.44	28927.39
453.646	29324.69
453.852	29578.64
454.058	29713.81
454.264	28962.2
454.47	29978
454.676	28941.72
454.882	30178.7
455.088	27551.15
455.294	27801.01
455.5	28650.91
455.705	28548.51
455.911	27289.01
456.117	26801.6
456.323	26838.46
456.529	25241.04
456.735	26203.59
456.941	25744.84
457.147	25427.41
457.352	24716.76
457.558	24376.8
457.764	24167.91
457.97	23963.11
458.176	23582.19
458.381	23508.46
458.587	22418.94
458.793	22451.71
458.999	21204.5
459.204	22842.87
459.41	21792.26
459.616	20510.24
459.821	20688.41
460.027	20678.17
460.233	20033.06
460.438	19195.44
460.644	19521.07
460.85	18540.09
461.055	18277.95
461.261	18054.72
461.466	16930.39
461.672	16291.42
461.878	17237.58
462.083	16375.39
462.289	15797.86
462.494	15707.75
462.7	15017.58
462.905	14775.92
463.111	15412.84
463.316	15351.4
463.522	15046.26
463.727	15025.78
463.932	15136.37
464.138	14646.9
464.343	14906.99
464.549	14487.16
464.754	15027.82
464.959	14800.5
465.165	14409.34
465.37	14022.27
465.575	13840
465.781	14239.36
465.986	14212.73
466.191	13686.4
466.397	13541
466.602	12822.16
466.807	13383.31
467.012	13567.62
467.218	13184.65
467.423	13135.5
467.628	13119.12
467.833	13766.28
