Data from USB4F104151__308__14-46-42-550.txt Node

Date: Thu Mar 13 14:46:42 EDT 2025
User: louis
Spectrometer: USB4F10415
Trigger mode: 4
Integration Time (sec): 2.000000E-2
Scans to average: 1
Electric dark correction enabled: true
Nonlinearity correction enabled: false
Boxcar width: 0
XAxis mode: Wavelengths
Number of Pixels in Spectrum: 3648
>>>>>Begin Spectral Data<<<<<
178.204	-165.89
178.424	-165.89
178.644	-165.89
178.864	-86.01
179.084	-122.88
179.304	-20.48
179.524	-24.58
179.744	-10.24
179.964	36.86
180.184	43.01
180.404	10.24
180.624	-22.53
180.844	-14.34
181.064	-12.29
181.283	34.82
181.503	-71.68
181.723	51.2
181.943	-73.73
182.163	43.01
182.383	22.53
182.602	12.29
182.822	36.86
183.042	2.05
183.262	-28.67
183.482	26.62
183.701	-45.06
183.921	4.1
184.141	-14.34
184.361	16.38
184.58	10.24
184.8	24.58
185.02	-22.53
185.239	59.39
185.459	53.25
185.679	-6.14
185.898	49.15
186.118	63.49
186.338	51.2
186.557	43.01
186.777	-47.1
186.997	6.14
187.216	6.14
187.436	90.11
187.655	34.82
187.875	45.06
188.095	18.43
188.314	92.16
188.534	34.82
188.753	4.1
188.973	30.72
189.192	67.58
189.412	55.3
189.631	59.39
189.851	-69.63
190.07	75.77
190.29	14.34
190.509	26.62
190.729	12.29
190.948	45.06
191.168	124.93
191.387	10.24
191.607	34.82
191.826	-4.1
192.045	-0
192.265	-38.91
192.484	10.24
192.704	90.11
192.923	40.96
193.142	120.83
193.362	43.01
193.581	-0
193.8	6.14
194.02	88.06
194.239	4.1
194.458	12.29
194.678	-18.43
194.897	-6.14
195.116	-43.01
195.335	61.44
195.555	22.53
195.774	14.34
195.993	45.06
196.212	-18.43
196.432	24.58
196.651	-26.62
196.87	18.43
197.089	100.35
197.308	-20.48
197.528	65.53
197.747	6.14
197.966	-6.14
198.185	36.86
198.404	45.06
198.623	-10.24
198.842	22.53
199.062	36.86
199.281	36.86
199.5	-30.72
199.719	79.87
199.938	79.87
200.157	59.39
200.376	51.2
200.595	51.2
200.814	30.72
201.033	69.63
201.252	79.87
201.471	22.53
201.69	-22.53
201.909	45.06
202.128	-2.05
202.347	-6.14
202.566	-10.24
202.785	-20.48
203.004	-43.01
203.223	112.64
203.442	-6.14
203.661	-18.43
203.879	43.01
204.098	53.25
204.317	14.34
204.536	30.72
204.755	2.05
204.974	-2.05
205.193	-38.91
205.411	36.86
205.63	90.11
205.849	-38.91
206.068	14.34
206.287	18.43
206.505	26.62
206.724	-47.1
206.943	10.24
207.162	-8.19
207.381	-51.2
207.599	47.1
207.818	-14.34
208.037	34.82
208.255	18.43
208.474	34.82
208.693	6.14
208.911	34.82
209.13	28.67
209.349	20.48
209.567	16.38
209.786	100.35
210.005	4.1
210.223	53.25
210.442	-26.62
210.661	-2.05
210.879	-4.1
211.098	-20.48
211.316	-34.82
211.535	51.2
211.753	-2.05
211.972	67.58
212.191	30.72
212.409	36.86
212.628	-38.91
212.846	8.19
213.065	20.48
213.283	4.1
213.502	59.39
213.72	-6.14
213.938	-6.14
214.157	6.14
214.375	26.62
214.594	67.58
214.812	45.06
215.031	-22.53
215.249	30.72
215.467	32.77
215.686	30.72
215.904	51.2
216.122	51.2
216.341	53.25
216.559	26.62
216.778	-22.53
216.996	18.43
217.214	28.67
217.432	22.53
217.651	45.06
217.869	12.29
218.087	40.96
218.306	-14.34
218.524	20.48
218.742	43.01
218.96	-14.34
219.179	-2.05
219.397	38.91
219.615	104.45
219.833	22.53
220.051	2.05
220.27	34.82
220.488	26.62
220.706	-14.34
220.924	-47.1
221.142	16.38
221.36	-24.58
221.578	75.77
221.796	12.29
222.015	20.48
222.233	10.24
222.451	120.83
222.669	30.72
222.887	83.97
223.105	-6.14
223.323	-71.68
223.541	10.24
223.759	34.82
223.977	20.48
224.195	92.16
224.413	53.25
224.631	96.25
224.849	34.82
225.067	-28.67
225.285	10.24
225.503	75.77
225.721	-4.1
225.939	88.06
226.157	28.67
226.375	126.97
226.592	-30.72
226.81	-30.72
227.028	-10.24
227.246	75.77
227.464	-8.19
227.682	47.1
227.9	36.86
228.117	28.67
228.335	26.62
228.553	-38.91
228.771	12.29
228.989	100.35
229.206	-30.72
229.424	34.82
229.642	-12.29
229.86	47.1
230.077	38.91
230.295	-55.3
230.513	51.2
230.731	51.2
230.948	112.64
231.166	14.34
231.384	-10.24
231.601	-24.58
231.819	43.01
232.037	-6.14
232.254	-28.67
232.472	18.43
232.689	-20.48
232.907	92.16
233.125	2.05
233.342	-38.91
233.56	18.43
233.777	88.06
233.995	14.34
234.213	75.77
234.43	75.77
234.648	28.67
234.865	-16.38
235.083	133.12
235.3	67.58
235.518	-6.14
235.735	10.24
235.953	83.97
236.17	55.3
236.388	20.48
236.605	-6.14
236.822	47.1
237.04	43.01
237.257	43.01
237.475	-14.34
237.692	75.77
237.909	71.68
238.127	10.24
238.344	4.1
238.562	-30.72
238.779	30.72
238.996	-4.1
239.214	43.01
239.431	22.53
239.648	40.96
239.865	51.2
240.083	61.44
240.3	-6.14
240.517	-30.72
240.735	63.49
240.952	32.77
241.169	45.06
241.386	75.77
241.603	20.48
241.821	-28.67
242.038	104.45
242.255	69.63
242.472	55.3
242.689	59.39
242.907	6.14
243.124	59.39
243.341	71.68
243.558	26.62
243.775	-65.54
243.992	-51.2
244.209	20.48
244.426	77.82
244.643	18.43
244.86	-8.19
245.078	65.53
245.295	-6.14
245.512	55.3
245.729	-47.1
245.946	12.29
246.163	51.2
246.38	12.29
246.597	-102.4
246.814	10.24
247.031	-18.43
247.248	59.39
247.464	88.06
247.681	-34.82
247.898	63.49
248.115	71.68
248.332	55.3
248.549	94.21
248.766	6.14
248.983	69.63
249.2	-14.34
249.417	-14.34
249.633	75.77
249.85	2.05
250.067	-12.29
250.284	43.01
250.501	14.34
250.717	36.86
250.934	8.19
251.151	57.34
251.368	18.43
251.585	30.72
251.801	-22.53
252.018	-43.01
252.235	51.2
252.451	61.44
252.668	59.39
252.885	43.01
253.102	10.24
253.318	4.1
253.535	18.43
253.752	-16.38
253.968	-14.34
254.185	-10.24
254.401	43.01
254.618	59.39
254.835	-28.67
255.051	45.06
255.268	59.39
255.484	86.01
255.701	24.58
255.917	-2.05
256.134	32.77
256.351	26.62
256.567	47.1
256.784	120.83
257	-20.48
257.217	-22.53
257.433	51.2
257.65	51.2
257.866	30.72
258.082	2.05
258.299	71.68
258.515	51.2
258.732	43.01
258.948	-28.67
259.165	-4.1
259.381	47.1
259.597	-61.44
259.814	20.48
260.03	-63.49
260.246	47.1
260.463	69.63
260.679	28.67
260.895	77.82
261.112	-20.48
261.328	18.43
261.544	67.58
261.761	55.3
261.977	-14.34
262.193	-14.34
262.409	96.25
262.626	71.68
262.842	34.82
263.058	-57.34
263.274	-14.34
263.49	77.82
263.707	30.72
263.923	-14.34
264.139	30.72
264.355	43.01
264.571	24.58
264.787	-4.1
265.004	-14.34
265.22	43.01
265.436	51.2
265.652	67.58
265.868	67.58
266.084	43.01
266.3	24.58
266.516	43.01
266.732	30.72
266.948	73.73
267.164	45.06
267.38	110.59
267.596	53.25
267.812	12.29
268.028	73.73
268.244	4.1
268.46	18.43
268.676	6.14
268.892	26.62
269.108	-49.15
269.324	-14.34
269.54	-45.06
269.756	26.62
269.972	-63.49
270.188	26.62
270.403	-65.54
270.619	51.2
270.835	34.82
271.051	-51.2
271.267	-51.2
271.483	28.67
271.698	43.01
271.914	20.48
272.13	2.05
272.346	22.53
272.562	22.53
272.777	45.06
272.993	53.25
273.209	-36.86
273.425	-55.3
273.64	18.43
273.856	43.01
274.072	18.43
274.287	-40.96
274.503	43.01
274.719	34.82
274.934	-6.14
275.15	-4.1
275.366	-2.05
275.581	28.67
275.797	43.01
276.012	-63.49
276.228	38.91
276.444	-32.77
276.659	110.59
276.875	2.05
277.09	10.24
277.306	18.43
277.521	43.01
277.737	-10.24
277.952	45.06
278.168	-26.62
278.383	81.92
278.599	-43.01
278.814	18.43
279.03	38.91
279.245	118.78
279.461	53.25
279.676	6.14
279.892	-4.1
280.107	-4.1
280.322	51.2
280.538	4.1
280.753	-28.67
280.969	71.68
281.184	22.53
281.399	67.58
281.615	6.14
281.83	79.87
282.045	20.48
282.26	18.43
282.476	-26.62
282.691	53.25
282.906	34.82
283.122	43.01
283.337	-6.14
283.552	67.58
283.767	6.14
283.983	-79.87
284.198	-6.14
284.413	53.25
284.628	-14.34
284.843	61.44
285.058	34.82
285.274	38.91
285.489	65.53
285.704	10.24
285.919	-100.35
286.134	-30.72
286.349	-40.96
286.564	34.82
286.779	4.1
286.995	28.67
287.21	-47.1
287.425	57.34
287.64	24.58
287.855	47.1
288.07	-20.48
288.285	43.01
288.5	92.16
288.715	-10.24
288.93	-47.1
289.145	-10.24
289.36	26.62
289.575	-38.91
289.79	16.38
290.004	10.24
290.219	59.39
290.434	6.14
290.649	-26.62
290.864	2.05
291.079	26.62
291.294	83.97
291.509	8.19
291.724	4.1
291.938	-40.96
292.153	12.29
292.368	71.68
292.583	18.43
292.798	20.48
293.012	10.24
293.227	-14.34
293.442	-14.34
293.657	47.1
293.871	94.21
294.086	-0
294.301	36.86
294.516	51.2
294.73	102.4
294.945	-30.72
295.16	-30.72
295.374	28.67
295.589	67.58
295.804	77.82
296.018	18.43
296.233	53.25
296.447	34.82
296.662	47.1
296.877	63.49
297.091	77.82
297.306	51.2
297.52	-43.01
297.735	67.58
297.949	38.91
298.164	10.24
298.378	40.96
298.593	53.25
298.807	-10.24
299.022	69.63
299.236	-26.62
299.451	26.62
299.665	-22.53
299.88	10.24
300.094	71.68
300.309	51.2
300.523	40.96
300.737	12.29
300.952	34.82
301.166	-36.86
301.381	-26.62
301.595	34.82
301.809	-38.91
302.024	34.82
302.238	14.34
302.452	49.15
302.667	10.24
302.881	38.91
303.095	94.21
303.309	71.68
303.524	-43.01
303.738	30.72
303.952	-34.82
304.166	36.86
304.381	-43.01
304.595	61.44
304.809	34.82
305.023	51.2
305.237	-6.14
305.452	14.34
305.666	-22.53
305.88	18.43
306.094	57.34
306.308	67.58
306.522	20.48
306.736	38.91
306.95	104.45
307.164	28.67
307.379	67.58
307.593	83.97
307.807	59.39
308.021	88.06
308.235	-2.05
308.449	-6.14
308.663	-20.48
308.877	102.4
309.091	-6.14
309.305	69.63
309.519	-47.1
309.733	34.82
309.947	-79.87
310.161	45.06
310.374	14.34
310.588	63.49
310.802	-45.06
311.016	22.53
311.23	-14.34
311.444	67.58
311.658	36.86
311.872	34.82
312.085	28.67
312.299	149.5
312.513	6.14
312.727	59.39
312.941	20.48
313.154	40.96
313.368	100.35
313.582	43.01
313.796	30.72
314.009	43.01
314.223	38.91
314.437	145.41
314.651	12.29
314.864	18.43
315.078	-24.58
315.292	-16.38
315.505	65.53
315.719	43.01
315.933	26.62
316.146	34.82
316.36	67.58
316.573	55.3
316.787	10.24
317.001	-8.19
317.214	20.48
317.428	45.06
317.641	6.14
317.855	45.06
318.068	-18.43
318.282	73.73
318.495	26.62
318.709	53.25
318.922	79.87
319.136	120.83
319.349	45.06
319.563	59.39
319.776	24.58
319.99	-38.91
320.203	26.62
320.417	-2.05
320.63	65.53
320.843	149.5
321.057	57.34
321.27	59.39
321.483	10.24
321.697	69.63
321.91	67.58
322.124	38.91
322.337	-22.53
322.55	-8.19
322.763	38.91
322.977	-20.48
323.19	79.87
323.403	14.34
323.617	18.43
323.83	100.35
324.043	63.49
324.256	71.68
324.469	71.68
324.683	53.25
324.896	26.62
325.109	28.67
325.322	24.58
325.535	61.44
325.748	-4.1
325.962	30.72
326.175	88.06
326.388	6.14
326.601	59.39
326.814	57.34
327.027	67.58
327.24	81.92
327.453	-6.14
327.666	75.77
327.879	14.34
328.092	51.2
328.305	-30.72
328.518	2.05
328.731	43.01
328.944	26.62
329.157	53.25
329.37	75.77
329.583	57.34
329.796	137.21
330.009	-34.82
330.222	92.16
330.435	10.24
330.648	38.91
330.861	67.58
331.073	-30.72
331.286	4.1
331.499	69.63
331.712	61.44
331.925	59.39
332.138	43.01
332.35	2.05
332.563	51.2
332.776	40.96
332.989	4.1
333.202	6.14
333.414	26.62
333.627	6.14
333.84	12.29
334.053	-16.38
334.265	-6.14
334.478	45.06
334.691	67.58
334.903	100.35
335.116	59.39
335.329	43.01
335.541	-26.62
335.754	98.3
335.966	57.34
336.179	20.48
336.392	108.54
336.604	67.58
336.817	67.58
337.029	22.53
337.242	77.82
337.454	43.01
337.667	63.49
337.88	-12.29
338.092	57.34
338.305	75.77
338.517	-45.06
338.729	51.2
338.942	51.2
339.154	51.2
339.367	18.43
339.579	43.01
339.792	4.1
340.004	2.05
340.217	67.58
340.429	30.72
340.641	-36.86
340.854	55.3
341.066	12.29
341.278	83.97
341.491	59.39
341.703	34.82
341.915	-77.82
342.128	92.16
342.34	69.63
342.552	75.77
342.764	-40.96
342.977	-14.34
343.189	92.16
343.401	147.45
343.613	43.01
343.826	14.34
344.038	36.86
344.25	-14.34
344.462	61.44
344.674	12.29
344.886	98.3
345.099	49.15
345.311	75.77
345.523	-22.53
345.735	14.34
345.947	14.34
346.159	14.34
346.371	86.01
346.583	-32.77
346.795	94.21
347.007	124.93
347.219	63.49
347.431	-2.05
347.643	83.97
347.855	-26.62
348.067	94.21
348.279	22.53
348.491	45.06
348.703	38.91
348.915	30.72
349.127	-16.38
349.339	34.82
349.551	59.39
349.763	71.68
349.975	4.1
350.187	124.93
350.399	110.59
350.61	-22.53
350.822	55.3
351.034	4.1
351.246	14.34
351.458	26.62
351.669	75.77
351.881	92.16
352.093	-20.48
352.305	83.97
352.517	90.11
352.728	124.93
352.94	88.06
353.152	98.3
353.363	-18.43
353.575	30.72
353.787	69.63
353.999	34.82
354.21	92.16
354.422	2.05
354.633	4.1
354.845	92.16
355.057	100.35
355.268	51.2
355.48	-45.06
355.692	59.39
355.903	-16.38
356.115	55.3
356.326	-12.29
356.538	71.68
356.749	38.91
356.961	53.25
357.172	-14.34
357.384	38.91
357.595	67.58
357.807	26.62
358.018	36.86
358.23	-2.05
358.441	32.77
358.653	83.97
358.864	-26.62
359.075	34.82
359.287	34.82
359.498	100.35
359.709	8.19
359.921	30.72
360.132	-14.34
360.344	34.82
360.555	26.62
360.766	18.43
360.977	28.67
361.189	61.44
361.4	38.91
361.611	-0
361.823	43.01
362.034	57.34
362.245	-36.86
362.456	-30.72
362.667	45.06
362.879	124.93
363.09	81.92
363.301	6.14
363.512	10.24
363.723	-28.67
363.935	16.38
364.146	67.58
364.357	43.01
364.568	-10.24
364.779	20.48
364.99	108.54
365.201	26.62
365.412	120.83
365.623	2.05
365.834	22.53
366.045	51.2
366.256	75.77
366.467	6.14
366.678	63.49
366.889	-36.86
367.1	-10.24
367.311	53.25
367.522	43.01
367.733	53.25
367.944	92.16
368.155	-22.53
368.366	67.58
368.577	20.48
368.788	77.82
368.999	-4.1
369.209	10.24
369.42	67.58
369.631	67.58
369.842	94.21
370.053	100.35
370.264	100.35
370.474	40.96
370.685	83.97
370.896	61.44
371.107	67.58
371.317	94.21
371.528	-18.43
371.739	88.06
371.95	51.2
372.16	67.58
372.371	-83.97
372.582	-20.48
372.792	49.15
373.003	20.48
373.214	24.58
373.424	122.88
373.635	47.1
373.846	135.17
374.056	14.34
374.267	14.34
374.477	49.15
374.688	4.1
374.898	16.38
375.109	18.43
375.319	65.53
375.53	92.16
375.74	28.67
375.951	94.21
376.161	79.87
376.372	110.59
376.582	12.29
376.793	8.19
377.003	108.54
377.214	-26.62
377.424	51.2
377.635	83.97
377.845	59.39
378.055	67.58
378.266	-63.49
378.476	16.38
378.686	-6.14
378.897	104.45
379.107	45.06
379.317	14.34
379.528	-28.67
379.738	73.73
379.948	4.1
380.158	51.2
380.369	28.67
380.579	43.01
380.789	63.49
380.999	102.4
381.21	2.05
381.42	26.62
381.63	77.82
381.84	61.44
382.05	47.1
382.261	92.16
382.471	18.43
382.681	10.24
382.891	2.05
383.101	86.01
383.311	4.1
383.521	59.39
383.731	2.05
383.941	40.96
384.151	22.53
384.361	79.87
384.571	24.58
384.781	28.67
384.991	-18.43
385.201	38.91
385.411	92.16
385.621	71.68
385.831	69.63
386.041	79.87
386.251	26.62
386.461	43.01
386.671	71.68
386.881	16.38
387.091	22.53
387.301	90.11
387.511	49.15
387.72	10.24
387.93	36.86
388.14	-28.67
388.35	45.06
388.56	88.06
388.769	75.77
388.979	43.01
389.189	2.05
389.399	61.44
389.609	69.63
389.818	67.58
390.028	34.82
390.238	26.62
390.447	-47.1
390.657	110.59
390.867	20.48
391.076	51.2
391.286	88.06
391.496	83.97
391.705	120.83
391.915	26.62
392.125	92.16
392.334	79.87
392.544	135.17
392.753	34.82
392.963	47.1
393.172	86.01
393.382	-8.19
393.591	165.89
393.801	100.35
394.01	126.97
394.22	38.91
394.429	75.77
394.639	67.58
394.848	20.48
395.058	51.2
395.267	16.38
395.477	32.77
395.686	141.31
395.895	116.73
396.105	165.89
396.314	73.73
396.524	24.58
396.733	94.21
396.942	75.77
397.152	2.05
397.361	75.77
397.57	57.34
397.78	141.31
397.989	135.17
398.198	141.31
398.407	69.63
398.617	137.21
398.826	79.87
399.035	106.49
399.244	100.35
399.453	75.77
399.663	124.93
399.872	100.35
400.081	110.59
400.29	116.73
400.499	55.3
400.708	100.35
400.917	96.25
401.127	149.5
401.336	36.86
401.545	151.55
401.754	57.34
401.963	157.69
402.172	77.82
402.381	6.14
402.59	184.32
402.799	94.21
403.008	157.69
403.217	116.73
403.426	106.49
403.635	157.69
403.844	90.11
404.053	198.65
404.262	83.97
404.471	92.16
404.68	182.27
404.888	155.65
405.097	92.16
405.306	133.12
405.515	137.21
405.724	174.08
405.933	225.28
406.142	100.35
406.35	165.89
406.559	45.06
406.768	161.79
406.977	196.6
407.185	186.37
407.394	174.08
407.603	151.55
407.812	167.93
408.02	231.42
408.229	159.74
408.438	200.7
408.646	258.04
408.855	247.8
409.064	260.09
409.272	169.98
409.481	231.42
409.69	256
409.898	260.09
410.107	274.43
410.315	280.57
410.524	305.15
410.733	292.86
410.941	315.39
411.15	301.05
411.358	249.85
411.567	329.72
411.775	364.54
411.984	358.39
412.192	387.07
412.401	323.58
412.609	454.65
412.818	489.46
413.026	460.79
413.234	544.76
413.443	460.79
413.651	428.03
413.86	440.31
414.068	524.28
414.276	534.52
414.485	563.19
414.693	638.97
414.901	550.9
415.11	563.19
415.318	567.29
415.526	673.78
415.734	745.46
415.943	628.73
416.151	700.41
416.359	710.65
416.567	796.66
416.776	770.04
416.984	821.24
417.192	837.62
417.4	784.37
417.608	886.77
417.817	831.48
418.025	897.01
418.233	1005.55
418.441	946.16
418.649	1017.84
418.857	1107.95
419.065	1173.49
419.273	1050.61
419.481	1181.68
419.689	1298.41
419.897	1357.8
420.105	1320.94
420.313	1345.52
420.521	1406.95
420.729	1505.26
420.937	1468.39
421.145	1478.63
421.353	1581.03
421.561	1665
421.769	1683.43
421.977	1877.99
422.185	1820.64
422.393	1877.99
422.601	2013.15
422.809	1892.32
423.017	2082.78
423.224	2017.25
423.432	2125.79
423.64	2142.18
423.848	2404.32
424.056	2271.2
424.263	2467.8
424.471	2467.8
424.679	2541.53
424.887	2709.46
425.094	2803.67
425.302	2791.38
425.51	2826.2
425.718	2977.75
425.925	2942.93
426.133	3141.58
426.341	3315.66
426.548	3469.26
426.756	3436.49
426.964	3499.98
427.171	3618.76
427.379	3653.58
427.586	3698.63
427.794	3958.72
428.001	4153.28
428.209	4087.75
428.417	4132.8
428.624	4517.82
428.832	4458.43
429.039	4476.86
429.247	4405.18
429.454	4900.79
429.662	5246.9
429.869	4943.8
430.076	5091.25
430.284	5070.77
430.491	5367.73
430.699	5547.95
430.906	5638.06
431.114	5730.22
431.321	5875.62
431.528	5973.92
431.736	6301.6
431.943	6911.89
432.15	6365.09
432.358	6379.42
432.565	7020.44
432.772	6825.88
432.979	7350.16
433.187	7194.51
433.394	7255.95
433.601	7982.98
433.808	7876.49
434.016	7677.83
434.223	8155.01
434.43	8624
434.637	8466.3
434.844	9045.88
435.052	9217.91
435.259	9019.25
435.466	9154.42
435.673	9068.41
435.88	9740.14
436.087	10215.27
436.294	10086.25
436.501	9975.66
436.708	10176.36
436.915	10598.24
437.122	10934.11
437.329	10796.89
437.537	11274.07
437.743	11515.73
437.95	11292.5
438.157	11773.77
438.364	12242.76
438.571	12228.42
438.778	12388.16
438.985	13545.27
439.192	13031.23
439.399	13522.74
439.606	13090.62
439.813	13709.1
440.02	14749.47
440.227	14147.37
440.433	14192.42
440.64	14634.78
440.847	14694.18
441.054	15126.3
441.261	15918.86
441.467	15779.6
441.674	16074.51
441.881	16725.76
442.088	16643.84
442.294	16527.11
442.501	17053.44
442.708	17168.12
442.914	17628.91
443.121	18513.64
443.328	18089.71
443.534	19371.74
443.741	18818.78
443.948	18261.74
444.154	19648.21
444.361	19551.96
444.568	20092.62
444.774	19969.74
444.981	19928.78
445.187	20668.1
445.394	21483.19
445.6	21184.19
445.807	23264.92
446.013	22023.86
446.22	22683.3
446.426	23416.47
446.633	23750.29
446.839	24786.57
447.046	23205.53
447.252	24888.96
447.459	24841.86
447.665	24821.38
447.871	25779.83
448.078	26953.32
448.284	25615.99
448.491	26510.96
448.697	27166.31
448.903	28165.71
449.11	28180.05
449.316	27741.78
449.522	27950.68
449.728	28929.61
449.935	28913.22
450.141	28948.04
450.347	29554.24
450.553	28722.76
450.76	29109.83
450.966	30494.25
451.172	29750.84
451.378	30467.63
451.584	30504.49
451.791	30813.74
451.997	30590.51
452.203	31262.24
452.409	31229.48
452.615	31143.46
452.821	29998.65
453.027	29582.91
453.233	31249.96
453.44	30121.52
453.646	30328.37
453.852	30563.89
454.058	31483.42
454.264	30101.04
454.47	30727.72
454.676	29969.97
454.882	30950.95
455.088	28321.36
455.294	28939.85
455.5	29525.57
455.705	29511.23
455.911	28503.63
456.117	28020.31
456.323	27412.06
456.529	26433.13
456.735	27313.76
456.941	26752.62
457.147	26289.77
457.352	25632.38
457.558	25345.66
457.764	25357.95
457.97	25017.99
458.176	24460.94
458.381	24471.18
458.587	23336.6
458.793	23201.44
458.999	21948.08
459.204	23529.11
459.41	22994.59
459.616	21589.69
459.821	21386.94
460.027	21395.13
460.233	21145.28
460.438	19824.34
460.644	20106.96
460.85	19111.64
461.055	18953.95
461.261	19011.29
461.466	17467.13
461.672	17008.38
461.878	18011.89
462.083	17047.29
462.289	16969.47
462.494	16596.74
462.7	15783.7
462.905	15189.78
463.111	15855.37
463.316	15765.26
463.522	15509.27
463.727	15740.69
463.932	15447.83
464.138	15476.5
464.343	15558.42
464.549	15128.35
464.754	15341.33
464.959	15206.17
465.165	15238.94
465.37	14851.87
465.575	14130.98
465.781	14753.57
465.986	14958.36
466.191	14087.98
466.397	14020.39
466.602	13487.92
466.807	14008.11
467.012	13870.89
467.218	13686.58
467.423	13520.69
