Data from USB4F104151__236__14-45-44-084.txt Node

Date: Thu Mar 13 14:45:44 EDT 2025
User: louis
Spectrometer: USB4F10415
Trigger mode: 4
Integration Time (sec): 2.000000E-2
Scans to average: 1
Electric dark correction enabled: true
Nonlinearity correction enabled: false
Boxcar width: 0
XAxis mode: Wavelengths
Number of Pixels in Spectrum: 3648
>>>>>Begin Spectral Data<<<<<
178.204	-188.75
178.424	-188.75
178.644	-188.75
178.864	-133.46
179.084	-108.88
179.304	-59.73
179.524	11.95
179.744	-37.2
179.964	46.76
180.184	46.76
180.404	-26.96
180.624	-10.58
180.844	7.85
181.064	-6.49
181.283	-2.39
181.503	-18.77
181.723	48.81
181.943	-16.73
182.163	30.38
182.383	13.99
182.602	67.24
182.822	50.86
183.042	38.57
183.262	-33.11
183.482	5.8
183.701	-22.87
183.921	-26.96
184.141	46.76
184.361	42.67
184.58	-2.39
184.8	7.85
185.02	-49.49
185.239	63.15
185.459	-8.53
185.679	75.43
185.898	13.99
186.118	24.23
186.338	13.99
186.557	-26.96
186.777	13.99
186.997	-10.58
187.216	-16.73
187.436	65.19
187.655	54.95
187.875	63.15
188.095	-37.2
188.314	16.04
188.534	83.63
188.753	26.28
188.973	54.95
189.192	87.72
189.412	3.75
189.631	16.04
189.851	-33.11
190.07	48.81
190.29	-2.39
190.509	5.8
190.729	7.85
190.948	-35.16
191.168	93.87
191.387	97.96
191.607	38.57
191.826	59.05
192.045	-26.96
192.265	95.91
192.484	5.8
192.704	-2.39
192.923	38.57
193.142	79.53
193.362	-51.54
193.581	-10.58
193.8	-0.34
194.02	20.14
194.239	52.91
194.458	36.52
194.678	5.8
194.897	7.85
195.116	46.76
195.335	128.68
195.555	104.11
195.774	-57.68
195.993	91.82
196.212	54.95
196.432	-6.49
196.651	-57.68
196.87	-59.73
197.089	54.95
197.308	81.58
197.528	57
197.747	-39.25
197.966	11.95
198.185	24.23
198.404	7.85
198.623	16.04
198.842	-24.92
199.062	79.53
199.281	108.2
199.5	-6.49
199.719	79.53
199.938	22.19
200.157	13.99
200.376	18.09
200.595	104.11
200.814	104.11
201.033	9.9
201.252	48.81
201.471	-0.34
201.69	38.57
201.909	42.67
202.128	54.95
202.347	22.19
202.566	-24.92
202.785	-18.77
203.004	-16.73
203.223	52.91
203.442	-2.39
203.661	-2.39
203.879	-20.82
204.098	16.04
204.317	-51.54
204.536	104.11
204.755	22.19
204.974	71.34
205.193	67.24
205.411	57
205.63	38.57
205.849	18.09
206.068	22.19
206.287	-10.58
206.505	44.71
206.724	-18.77
206.943	18.09
207.162	59.05
207.381	7.85
207.599	-4.44
207.818	54.95
208.037	28.33
208.255	-49.49
208.474	77.48
208.693	-14.68
208.911	13.99
209.13	-18.77
209.349	9.9
209.567	-41.3
209.786	5.8
210.005	75.43
210.223	5.8
210.442	22.19
210.661	57
210.879	13.99
211.098	46.76
211.316	18.09
211.535	38.57
211.753	46.76
211.972	36.52
212.191	9.9
212.409	16.04
212.628	7.85
212.846	30.38
213.065	42.67
213.283	48.81
213.502	-22.87
213.72	-2.39
213.938	59.05
214.157	38.57
214.375	87.72
214.594	-18.77
214.812	13.99
215.031	26.28
215.249	40.62
215.467	24.23
215.686	50.86
215.904	63.15
216.122	-2.39
216.341	54.95
216.559	79.53
216.778	38.57
216.996	-8.53
217.214	120.49
217.432	-76.12
217.651	-35.16
217.869	30.38
218.087	54.95
218.306	9.9
218.524	42.67
218.742	-41.3
218.96	-29.01
219.179	-33.11
219.397	5.8
219.615	63.15
219.833	59.05
220.051	16.04
220.27	75.43
220.488	38.57
220.706	5.8
220.924	-31.06
221.142	-26.96
221.36	22.19
221.578	9.9
221.796	38.57
222.015	81.58
222.233	40.62
222.451	13.99
222.669	26.28
222.887	42.67
223.105	-2.39
223.323	32.43
223.541	13.99
223.759	46.76
223.977	18.09
224.195	57
224.413	122.54
224.631	-10.58
224.849	81.58
225.067	65.19
225.285	-29.01
225.503	38.57
225.721	-47.44
225.939	1.71
226.157	75.43
226.375	95.91
226.592	-35.16
226.81	-65.88
227.028	30.38
227.246	40.62
227.464	63.15
227.682	106.15
227.9	81.58
228.117	3.75
228.335	-84.31
228.553	46.76
228.771	38.57
228.989	46.76
229.206	61.1
229.424	-82.26
229.642	-43.35
229.86	-47.44
230.077	-2.39
230.295	-2.39
230.513	-12.63
230.731	-33.11
230.948	38.57
231.166	104.11
231.384	59.05
231.601	38.57
231.819	46.76
232.037	65.19
232.254	-2.39
232.472	42.67
232.689	-16.73
232.907	50.86
233.125	1.71
233.342	-8.53
233.56	77.48
233.777	42.67
233.995	30.38
234.213	-0.34
234.43	59.05
234.648	71.34
234.865	-10.58
235.083	9.9
235.3	-2.39
235.518	1.71
235.735	67.24
235.953	5.8
236.17	5.8
236.388	24.23
236.605	-0.34
236.822	-6.49
237.04	42.67
237.257	24.23
237.475	38.57
237.692	106.15
237.909	71.34
238.127	46.76
238.344	-10.58
238.562	95.91
238.779	5.8
238.996	-69.97
239.214	79.53
239.431	38.57
239.648	-26.96
239.865	59.05
240.083	13.99
240.3	36.52
240.517	95.91
240.735	71.34
240.952	-0.34
241.169	106.15
241.386	71.34
241.603	-8.53
241.821	-18.77
242.038	95.91
242.255	-24.92
242.472	-47.44
242.689	38.57
242.907	-8.53
243.124	1.71
243.341	71.34
243.558	-59.73
243.775	11.95
243.992	-55.64
244.209	-10.58
244.426	54.95
244.643	38.57
244.86	46.76
245.078	48.81
245.295	44.71
245.512	65.19
245.729	28.33
245.946	34.47
246.163	22.19
246.38	32.43
246.597	52.91
246.814	-2.39
247.031	3.75
247.248	-18.77
247.464	63.15
247.681	34.47
247.898	13.99
248.115	24.23
248.332	36.52
248.549	75.43
248.766	54.95
248.983	16.04
249.2	73.39
249.417	-18.77
249.633	108.2
249.85	54.95
250.067	28.33
250.284	122.54
250.501	54.95
250.717	46.76
250.934	-41.3
251.151	18.09
251.368	79.53
251.585	46.76
251.801	38.57
252.018	-33.11
252.235	79.53
252.451	54.95
252.668	-6.49
252.885	59.05
253.102	13.99
253.318	-41.3
253.535	40.62
253.752	73.39
253.968	34.47
254.185	-26.96
254.401	26.28
254.618	30.38
254.835	42.67
255.051	73.39
255.268	104.11
255.484	52.91
255.701	-18.77
255.917	11.95
256.134	-49.49
256.351	57
256.567	-8.53
256.784	38.57
257	-35.16
257.217	48.81
257.433	1.71
257.65	106.15
257.866	30.38
258.082	28.33
258.299	-80.21
258.515	65.19
258.732	89.77
258.948	7.85
259.165	7.85
259.381	-2.39
259.597	5.8
259.814	91.82
260.03	22.19
260.246	32.43
260.463	97.96
260.679	44.71
260.895	-6.49
261.112	71.34
261.328	54.95
261.544	-2.39
261.761	100.01
261.977	75.43
262.193	-24.92
262.409	40.62
262.626	73.39
262.842	38.57
263.058	50.86
263.274	22.19
263.49	-18.77
263.707	11.95
263.923	-2.39
264.139	16.04
264.355	-0.34
264.571	63.15
264.787	59.05
265.004	13.99
265.22	38.57
265.436	-10.58
265.652	18.09
265.868	54.95
266.084	-63.83
266.3	-8.53
266.516	46.76
266.732	-33.11
266.948	24.23
267.164	26.28
267.38	75.43
267.596	38.57
267.812	63.15
268.028	36.52
268.244	13.99
268.46	48.81
268.676	38.57
268.892	59.05
269.108	7.85
269.324	1.71
269.54	54.95
269.756	24.23
269.972	-18.77
270.188	24.23
270.403	28.33
270.619	30.38
270.835	26.28
271.051	73.39
271.267	38.57
271.483	13.99
271.698	5.8
271.914	59.05
272.13	22.19
272.346	32.43
272.562	-47.44
272.777	7.85
272.993	104.11
273.209	13.99
273.425	26.28
273.64	-67.92
273.856	-26.96
274.072	13.99
274.287	7.85
274.503	1.71
274.719	30.38
274.934	-35.16
275.15	59.05
275.366	46.76
275.581	7.85
275.797	57
276.012	46.76
276.228	26.28
276.444	-20.82
276.659	50.86
276.875	38.57
277.09	81.58
277.306	-10.58
277.521	54.95
277.737	5.8
277.952	50.86
278.168	-29.01
278.383	59.05
278.599	34.47
278.814	40.62
279.03	24.23
279.245	-8.53
279.461	7.85
279.676	50.86
279.892	1.71
280.107	22.19
280.322	-0.34
280.538	-37.2
280.753	16.04
280.969	3.75
281.184	40.62
281.399	83.63
281.615	5.8
281.83	59.05
282.045	-35.16
282.26	-16.73
282.476	13.99
282.691	50.86
282.906	69.29
283.122	73.39
283.337	-12.63
283.552	63.15
283.767	1.71
283.983	-16.73
284.198	-43.35
284.413	93.87
284.628	-22.87
284.843	-0.34
285.058	40.62
285.274	26.28
285.489	-18.77
285.704	40.62
285.919	22.19
286.134	-6.49
286.349	-43.35
286.564	-10.58
286.779	20.14
286.995	69.29
287.21	-72.02
287.425	32.43
287.64	-51.54
287.855	-24.92
288.07	-31.06
288.285	57
288.5	57
288.715	-2.39
288.93	-10.58
289.145	40.62
289.36	-47.44
289.575	-8.53
289.79	7.85
290.004	46.76
290.219	18.09
290.434	46.76
290.649	81.58
290.864	32.43
291.079	-33.11
291.294	32.43
291.509	81.58
291.724	38.57
291.938	5.8
292.153	46.76
292.368	46.76
292.583	50.86
292.798	-4.44
293.012	46.76
293.227	7.85
293.442	20.14
293.657	57
293.871	-14.68
294.086	5.8
294.301	73.39
294.516	89.77
294.73	13.99
294.945	-51.54
295.16	18.09
295.374	48.81
295.589	34.47
295.804	-33.11
296.018	28.33
296.233	13.99
296.447	30.38
296.662	93.87
296.877	93.87
297.091	-24.92
297.306	18.09
297.52	79.53
297.735	-2.39
297.949	34.47
298.164	71.34
298.378	22.19
298.593	-20.82
298.807	30.38
299.022	16.04
299.236	40.62
299.451	-29.01
299.665	54.95
299.88	79.53
300.094	18.09
300.309	24.23
300.523	-80.21
300.737	7.85
300.952	-8.53
301.166	54.95
301.381	-37.2
301.595	-24.92
301.809	-12.63
302.024	63.15
302.238	22.19
302.452	32.43
302.667	5.8
302.881	114.34
303.095	-6.49
303.309	5.8
303.524	67.24
303.738	22.19
303.952	36.52
304.166	67.24
304.381	22.19
304.595	67.24
304.809	42.67
305.023	48.81
305.237	-18.77
305.452	79.53
305.666	52.91
305.88	46.76
306.094	54.95
306.308	40.62
306.522	149.16
306.736	7.85
306.95	79.53
307.164	-8.53
307.379	-0.34
307.593	97.96
307.807	46.76
308.021	5.8
308.235	54.95
308.449	-63.83
308.663	5.8
308.877	5.8
309.091	-6.49
309.305	24.23
309.519	28.33
309.733	42.67
309.947	-10.58
310.161	87.72
310.374	79.53
310.588	67.24
310.802	-18.77
311.016	7.85
311.23	83.63
311.444	-18.77
311.658	24.23
311.872	24.23
312.085	140.97
312.299	52.91
312.513	26.28
312.727	22.19
312.941	30.38
313.154	18.09
313.368	22.19
313.582	13.99
313.796	34.47
314.009	-2.39
314.223	71.34
314.437	-12.63
314.651	-2.39
314.864	22.19
315.078	38.57
315.292	-12.63
315.505	54.95
315.719	87.72
315.933	71.34
316.146	30.38
316.36	46.76
316.573	-2.39
316.787	108.2
317.001	87.72
317.214	30.38
317.428	38.57
317.641	46.76
317.855	91.82
318.068	-10.58
318.282	54.95
318.495	30.38
318.709	-12.63
318.922	-74.07
319.136	100.01
319.349	87.72
319.563	-35.16
319.776	-41.3
319.99	-10.58
320.203	28.33
320.417	63.15
320.63	-10.58
320.843	48.81
321.057	77.48
321.27	-57.68
321.483	61.1
321.697	63.15
321.91	59.05
322.124	71.34
322.337	28.33
322.55	87.72
322.763	-22.87
322.977	-14.68
323.19	59.05
323.403	40.62
323.617	34.47
323.83	32.43
324.043	1.71
324.256	73.39
324.469	-2.39
324.683	61.1
324.896	42.67
325.109	42.67
325.322	-29.01
325.535	-6.49
325.748	34.47
325.962	38.57
326.175	5.8
326.388	-2.39
326.601	22.19
326.814	65.19
327.027	-16.73
327.24	145.06
327.453	50.86
327.666	30.38
327.879	-10.58
328.092	1.71
328.305	-2.39
328.518	-2.39
328.731	65.19
328.944	73.39
329.157	-20.82
329.37	91.82
329.583	93.87
329.796	-0.34
330.009	54.95
330.222	16.04
330.435	59.05
330.648	30.38
330.861	67.24
331.073	7.85
331.286	16.04
331.499	38.57
331.712	-35.16
331.925	-6.49
332.138	46.76
332.35	38.57
332.563	-6.49
332.776	46.76
332.989	-8.53
333.202	71.34
333.414	-6.49
333.627	48.81
333.84	18.09
334.053	24.23
334.265	-4.44
334.478	32.43
334.691	7.85
334.903	34.47
335.116	24.23
335.329	26.28
335.541	54.95
335.754	93.87
335.966	9.9
336.179	-16.73
336.392	63.15
336.604	40.62
336.817	40.62
337.029	5.8
337.242	42.67
337.454	7.85
337.667	38.57
337.88	22.19
338.092	24.23
338.305	13.99
338.517	20.14
338.729	38.57
338.942	83.63
339.154	-37.2
339.367	-41.3
339.579	-2.39
339.792	-31.06
340.004	48.81
340.217	-41.3
340.429	20.14
340.641	-31.06
340.854	-55.64
341.066	-8.53
341.278	91.82
341.491	112.3
341.703	77.48
341.915	57
342.128	50.86
342.34	50.86
342.552	1.71
342.764	75.43
342.977	30.38
343.189	63.15
343.401	-6.49
343.613	-16.73
343.826	-16.73
344.038	73.39
344.25	71.34
344.462	52.91
344.674	16.04
344.886	63.15
345.099	67.24
345.311	34.47
345.523	63.15
345.735	42.67
345.947	77.48
346.159	50.86
346.371	48.81
346.583	-0.34
346.795	145.06
347.007	-18.77
347.219	-35.16
347.431	22.19
347.643	-6.49
347.855	34.47
348.067	79.53
348.279	18.09
348.491	42.67
348.703	54.95
348.915	63.15
349.127	1.71
349.339	79.53
349.551	30.38
349.763	44.71
349.975	38.57
350.187	87.72
350.399	67.24
350.61	30.38
350.822	54.95
351.034	54.95
351.246	-26.96
351.458	63.15
351.669	-0.34
351.881	-33.11
352.093	30.38
352.305	63.15
352.517	40.62
352.728	50.86
352.94	59.05
353.152	13.99
353.363	1.71
353.575	18.09
353.787	120.49
353.999	100.01
354.21	-0.34
354.422	5.8
354.633	32.43
354.845	20.14
355.057	5.8
355.268	38.57
355.48	30.38
355.692	-10.58
355.903	61.1
356.115	-2.39
356.326	-63.83
356.538	132.78
356.749	91.82
356.961	75.43
357.172	-8.53
357.384	-18.77
357.595	-10.58
357.807	-14.68
358.018	73.39
358.23	112.3
358.441	22.19
358.653	79.53
358.864	32.43
359.075	-18.77
359.287	85.67
359.498	-6.49
359.709	32.43
359.921	22.19
360.132	106.15
360.344	24.23
360.555	24.23
360.766	5.8
360.977	-2.39
361.189	122.54
361.4	30.38
361.611	120.49
361.823	91.82
362.034	85.67
362.245	-47.44
362.456	-10.58
362.667	46.76
362.879	-16.73
363.09	89.77
363.301	122.54
363.512	20.14
363.723	1.71
363.935	83.63
364.146	57
364.357	7.85
364.568	40.62
364.779	1.71
364.99	67.24
365.201	-20.82
365.412	79.53
365.623	1.71
365.834	-2.39
366.045	34.47
366.256	-0.34
366.467	42.67
366.678	46.76
366.889	38.57
367.1	-51.54
367.311	5.8
367.522	22.19
367.733	9.9
367.944	104.11
368.155	46.76
368.366	59.05
368.577	48.81
368.788	89.77
368.999	-10.58
369.209	-35.16
369.42	81.58
369.631	42.67
369.842	63.15
370.053	-55.64
370.264	126.63
370.474	38.57
370.685	20.14
370.896	73.39
371.107	79.53
371.317	116.39
371.528	13.99
371.739	95.91
371.95	-31.06
372.16	59.05
372.371	-8.53
372.582	13.99
372.792	69.29
373.003	22.19
373.214	61.1
373.424	9.9
373.635	-51.54
373.846	104.11
374.056	16.04
374.267	128.68
374.477	22.19
374.688	18.09
374.898	38.57
375.109	46.76
375.319	-22.87
375.53	59.05
375.74	50.86
375.951	-4.44
376.161	-6.49
376.372	-26.96
376.582	16.04
376.793	26.28
377.003	-10.58
377.214	-24.92
377.424	63.15
377.635	-14.68
377.845	46.76
378.055	89.77
378.266	26.28
378.476	-47.44
378.686	100.01
378.897	63.15
379.107	24.23
379.317	89.77
379.528	40.62
379.738	77.48
379.948	32.43
380.158	54.95
380.369	-18.77
380.579	54.95
380.789	32.43
380.999	59.05
381.21	85.67
381.42	-0.34
381.63	-4.44
381.84	42.67
382.05	100.01
382.261	89.77
382.471	24.23
382.681	36.52
382.891	83.63
383.101	79.53
383.311	57
383.521	32.43
383.731	42.67
383.941	48.81
384.151	112.3
384.361	75.43
384.571	140.97
384.781	52.91
384.991	16.04
385.201	81.58
385.411	22.19
385.621	95.91
385.831	30.38
386.041	7.85
386.251	95.91
386.461	136.87
386.671	30.38
386.881	69.29
387.091	-26.96
387.301	106.15
387.511	-86.36
387.72	63.15
387.93	40.62
388.14	46.76
388.35	57
388.56	140.97
388.769	106.15
388.979	46.76
389.189	-41.3
389.399	-2.39
389.609	104.11
389.818	5.8
390.028	67.24
390.238	26.28
390.447	42.67
390.657	3.75
390.867	34.47
391.076	71.34
391.286	28.33
391.496	-2.39
391.705	-63.83
391.915	63.15
392.125	63.15
392.334	32.43
392.544	34.47
392.753	73.39
392.963	57
393.172	42.67
393.382	46.76
393.591	120.49
393.801	63.15
394.01	114.34
394.22	-51.54
394.429	79.53
394.639	116.39
394.848	22.19
395.058	147.11
395.267	-18.77
395.477	67.24
395.686	40.62
395.895	134.82
396.105	169.64
396.314	75.43
396.524	7.85
396.733	65.19
396.942	100.01
397.152	104.11
397.361	100.01
397.57	57
397.78	79.53
397.989	134.82
398.198	186.02
398.407	128.68
398.617	71.34
398.826	46.76
399.035	13.99
399.244	1.71
399.453	100.01
399.663	89.77
399.872	138.92
400.081	13.99
400.29	208.55
400.499	3.75
400.708	138.92
400.917	46.76
401.127	40.62
401.336	5.8
401.545	91.82
401.754	71.34
401.963	-45.4
402.172	102.06
402.381	40.62
402.59	71.34
402.799	46.76
403.008	128.68
403.217	130.73
403.426	128.68
403.635	44.71
403.844	100.01
404.053	153.26
404.262	116.39
404.471	136.87
404.68	93.87
404.888	145.06
405.097	112.3
405.306	235.18
405.515	87.72
405.724	83.63
405.933	95.91
406.142	145.06
406.35	202.41
406.559	97.96
406.768	95.91
406.977	218.79
407.185	126.63
407.394	181.93
407.603	95.91
407.812	171.69
408.02	210.6
408.229	202.41
408.438	204.46
408.646	161.45
408.855	181.93
409.064	251.56
409.272	222.89
409.481	194.22
409.69	243.37
409.898	220.84
410.107	288.42
410.315	251.56
410.524	214.7
410.733	284.33
410.941	351.91
411.15	337.57
411.358	310.95
411.567	325.29
411.775	265.89
411.984	253.61
412.192	310.95
412.401	321.19
412.609	411.3
412.818	394.92
413.026	435.88
413.234	411.3
413.443	378.53
413.651	401.06
413.86	401.06
414.068	534.18
414.276	480.93
414.485	431.78
414.693	464.55
414.901	671.39
415.11	638.62
415.318	534.18
415.526	605.86
415.734	599.71
415.943	562.85
416.151	720.54
416.359	644.77
416.567	669.34
416.776	704.16
416.984	859.81
417.192	835.23
417.4	814.75
417.608	833.18
417.817	822.94
418.025	923.29
418.233	974.49
418.441	908.96
418.649	882.33
418.857	1035.93
419.065	1134.23
419.273	1025.69
419.481	1150.62
419.689	1074.84
419.897	1095.32
420.105	1148.57
420.313	1263.26
420.521	1349.27
420.729	1324.69
420.937	1406.61
421.145	1339.03
421.353	1445.52
421.561	1603.22
421.769	1445.52
421.977	1580.69
422.185	1535.64
422.393	1760.91
422.601	1742.48
422.809	1701.52
423.017	1779.34
423.224	1857.17
423.432	1996.43
423.64	1957.52
423.848	2205.32
424.056	2107.02
424.263	2246.28
424.471	2299.53
424.679	2383.49
424.887	2457.22
425.094	2631.3
425.302	2514.56
425.51	2545.28
425.718	2700.93
425.925	2711.17
426.133	2799.23
426.341	2979.45
426.548	3135.1
426.756	3120.76
426.964	3092.09
427.171	3307.13
427.379	3462.77
427.586	3440.25
427.794	3569.27
428.001	3761.78
428.209	3880.56
428.417	3864.18
428.624	4083.31
428.832	4095.6
429.039	4068.97
429.247	4060.78
429.454	4476.52
429.662	4699.75
429.869	4494.95
430.076	4785.76
430.284	4494.95
430.491	4931.17
430.699	5135.96
430.906	5088.86
431.114	5355.1
431.321	5588.57
431.528	5588.57
431.736	5910.1
431.943	6235.72
432.15	6051.41
432.358	6102.61
432.565	6381.13
432.772	6317.64
432.979	6676.04
433.187	6825.54
433.394	6690.37
433.601	7239.23
433.808	7370.3
434.016	7370.3
434.223	7519.8
434.43	7966.26
434.637	7847.47
434.844	8281.64
435.052	8549.93
435.259	8508.97
435.466	8332.84
435.673	8320.56
435.88	9047.58
436.087	9258.53
436.294	9483.8
436.501	9111.07
436.708	9377.31
436.915	9766.42
437.122	10057.23
437.329	10065.43
437.537	10534.41
437.743	10544.65
437.95	10604.04
438.157	11019.78
438.364	11306.49
438.571	11527.67
438.778	11539.96
438.985	12565.99
439.192	12150.26
439.399	12314.09
439.606	12199.41
439.813	13016.55
440.02	13778.39
440.227	13290.98
440.433	13114.85
440.64	13833.69
440.847	13577.69
441.054	13940.18
441.261	14855.62
441.467	14802.38
441.674	15152.58
441.881	15463.87
442.088	15558.08
442.294	15175.11
442.501	15619.52
442.708	16090.55
442.914	16672.17
443.121	17538.46
443.328	17005.99
443.534	17956.25
443.741	17671.58
443.948	17538.46
444.154	18306.45
444.361	18529.68
444.568	18709.9
444.774	18718.09
444.981	18642.32
445.187	19271.04
445.394	20149.62
445.6	19723.65
445.807	22084.95
446.013	20915.56
446.22	21312.87
446.426	22113.63
446.633	22455.64
446.839	23029.07
447.046	22115.67
447.252	23588.16
447.459	23375.17
447.665	23037.26
447.871	24450.36
448.078	25435.43
448.284	24268.09
448.491	25115.95
448.697	25990.43
448.903	26301.72
449.11	26436.89
449.316	25955.61
449.522	26600.72
449.728	27010.32
449.935	27196.68
450.141	27346.19
450.347	28103.93
450.553	27575.56
450.76	27731.2
450.966	28286.2
451.172	28220.67
451.378	28900.59
451.584	28310.78
451.791	28902.64
451.997	28802.29
452.203	29592.81
452.409	29334.76
452.615	29265.13
452.821	28259.58
453.027	28118.27
453.233	29426.92
453.44	28329.21
453.646	28697.84
453.852	28583.16
454.058	29275.37
454.264	28462.33
454.47	29093.1
454.676	28378.36
454.882	29256.94
455.088	26742.03
455.294	27399.43
455.5	27313.42
455.705	27589.89
455.911	26725.65
456.117	26453.27
456.323	26191.13
456.529	24507.7
456.735	26064.16
456.941	24948.01
457.147	24821.04
457.352	23919.93
457.558	23817.54
457.764	23725.38
457.97	23113.03
458.176	23354.69
458.381	22904.14
458.587	21601.63
458.793	21841.25
458.999	20682.1
459.204	22074.71
459.41	21607.78
459.616	20391.28
459.821	20135.29
460.027	20067.7
460.233	19705.21
460.438	18791.82
460.644	19301.76
460.85	17792.41
461.055	17911.19
461.261	17667.49
461.466	16565.68
461.672	15961.53
461.878	17092.01
462.083	16016.82
462.289	15685.05
462.494	15629.76
462.7	14740.94
462.905	14515.66
463.111	15103.43
463.316	15144.39
463.522	14765.51
463.727	14603.72
463.932	14996.93
464.138	14618.06
464.343	14599.63
464.549	14005.72
464.754	14876.1
464.959	14368.21
465.165	14515.66
465.37	13895.13
465.575	13506.01
465.781	13903.32
465.986	14138.83
466.191	13426.14
466.397	13301.22
466.602	12809.7
466.807	13278.69
467.012	13147.62
467.218	12944.87
467.423	12717.54
467.628	12955.11
