Data from USB4F104151__94__14-43-36-474.txt Node

Date: Thu Mar 13 14:43:36 EDT 2025
User: louis
Spectrometer: USB4F10415
Trigger mode: 4
Integration Time (sec): 2.000000E-2
Scans to average: 1
Electric dark correction enabled: true
Nonlinearity correction enabled: false
Boxcar width: 0
XAxis mode: Wavelengths
Number of Pixels in Spectrum: 3648
>>>>>Begin Spectral Data<<<<<
178.204	-135.34
178.424	-135.34
178.644	-135.34
178.864	-151.72
179.084	-145.58
179.304	30.55
179.524	-2.22
179.744	-20.65
179.964	85.84
180.184	32.6
180.404	26.45
180.624	-20.65
180.844	-26.79
181.064	-51.37
181.283	-20.65
181.503	-4.27
181.723	-28.84
181.943	-147.62
182.163	106.32
182.383	-2.22
182.602	-4.27
182.822	3.93
183.042	81.75
183.262	-34.99
183.482	53.08
183.701	-73.9
183.921	28.5
184.141	-55.47
184.361	16.21
184.58	-12.46
184.8	-2.22
185.02	-37.03
185.239	38.74
185.459	44.88
185.679	85.84
185.898	-2.22
186.118	-0.17
186.338	-84.14
186.557	85.84
186.777	3.93
186.997	3.93
187.216	44.88
187.436	32.6
187.655	-12.46
187.875	-45.23
188.095	16.21
188.314	28.5
188.534	71.51
188.753	3.93
188.973	100.18
189.192	69.46
189.412	-12.46
189.631	-0.17
189.851	-16.55
190.07	71.51
190.29	1.88
190.509	44.88
190.729	8.02
190.948	71.51
191.168	159.57
191.387	-20.65
191.607	14.17
191.826	20.31
192.045	5.97
192.265	10.07
192.484	77.65
192.704	63.32
192.923	-61.61
193.142	40.79
193.362	3.93
193.581	110.42
193.8	-51.37
194.02	28.5
194.239	8.02
194.458	-4.27
194.678	-4.27
194.897	22.36
195.116	8.02
195.335	65.36
195.555	69.46
195.774	53.08
195.993	77.65
196.212	-18.6
196.432	42.84
196.651	10.07
196.87	30.55
197.089	94.04
197.308	-0.17
197.528	30.55
197.747	18.26
197.966	-16.55
198.185	40.79
198.404	20.31
198.623	38.74
198.842	-2.22
199.062	36.69
199.281	79.7
199.5	22.36
199.719	-32.94
199.938	40.79
200.157	48.98
200.376	20.31
200.595	16.21
200.814	-10.41
201.033	-6.31
201.252	38.74
201.471	55.12
201.69	-4.27
201.909	102.23
202.128	-104.62
202.347	48.98
202.566	-16.55
202.785	-10.41
203.004	-32.94
203.223	110.42
203.442	63.32
203.661	-4.27
203.879	-41.13
204.098	38.74
204.317	42.84
204.536	28.5
204.755	87.89
204.974	73.56
205.193	3.93
205.411	69.46
205.63	-0.17
205.849	81.75
206.068	5.97
206.287	32.6
206.505	20.31
206.724	-0.17
206.943	-16.55
207.162	5.97
207.381	10.07
207.599	-4.27
207.818	-6.31
208.037	12.12
208.255	-10.41
208.474	61.27
208.693	36.69
208.911	-28.84
209.13	96.08
209.349	85.84
209.567	22.36
209.786	-26.79
210.005	59.22
210.223	83.8
210.442	-22.7
210.661	16.21
210.879	-32.94
211.098	63.32
211.316	59.22
211.535	-12.46
211.753	20.31
211.972	-20.65
212.191	34.64
212.409	91.99
212.628	-39.08
212.846	16.21
213.065	30.55
213.283	44.88
213.502	-73.9
213.72	38.74
213.938	-0.17
214.157	57.17
214.375	20.31
214.594	-45.23
214.812	67.41
215.031	-4.27
215.249	-18.6
215.467	12.12
215.686	79.7
215.904	94.04
216.122	-67.75
216.341	77.65
216.559	-16.55
216.778	-6.31
216.996	63.32
217.214	14.17
217.432	38.74
217.651	53.08
217.869	44.88
218.087	-73.9
218.306	-24.75
218.524	44.88
218.742	36.69
218.96	-34.99
219.179	-8.36
219.397	1.88
219.615	5.97
219.833	77.65
220.051	-4.27
220.27	89.94
220.488	16.21
220.706	91.99
220.924	40.79
221.142	36.69
221.36	46.93
221.578	44.88
221.796	-20.65
222.015	-90.28
222.233	-4.27
222.451	48.98
222.669	-108.71
222.887	44.88
223.105	-20.65
223.323	14.17
223.541	-0.17
223.759	5.97
223.977	-34.99
224.195	44.88
224.413	-37.03
224.631	44.88
224.849	87.89
225.067	36.69
225.285	-10.41
225.503	32.6
225.721	-49.32
225.939	-12.46
226.157	28.5
226.375	100.18
226.592	69.46
226.81	32.6
227.028	26.45
227.246	24.4
227.464	12.12
227.682	28.5
227.9	10.07
228.117	28.5
228.335	-32.94
228.553	73.56
228.771	-8.36
228.989	-4.27
229.206	-16.55
229.424	-10.41
229.642	-14.51
229.86	44.88
230.077	30.55
230.295	94.04
230.513	55.12
230.731	69.46
230.948	85.84
231.166	61.27
231.384	3.93
231.601	-12.46
231.819	3.93
232.037	42.84
232.254	-26.79
232.472	-16.55
232.689	10.07
232.907	3.93
233.125	-20.65
233.342	69.46
233.56	-67.75
233.777	5.97
233.995	53.08
234.213	57.17
234.43	36.69
234.648	-67.75
234.865	3.93
235.083	18.26
235.3	-8.36
235.518	-8.36
235.735	8.02
235.953	30.55
236.17	34.64
236.388	44.88
236.605	89.94
236.822	46.93
237.04	46.93
237.257	12.12
237.475	-32.94
237.692	69.46
237.909	12.12
238.127	89.94
238.344	12.12
238.562	-12.46
238.779	-8.36
238.996	-30.89
239.214	28.5
239.431	46.93
239.648	26.45
239.865	3.93
240.083	28.5
240.3	-20.65
240.517	-39.08
240.735	44.88
240.952	51.03
241.169	73.56
241.386	44.88
241.603	48.98
241.821	-8.36
242.038	69.46
242.255	61.27
242.472	5.97
242.689	-8.36
242.907	63.32
243.124	-16.55
243.341	-41.13
243.558	24.4
243.775	-37.03
243.992	-20.65
244.209	46.93
244.426	55.12
244.643	46.93
244.86	71.51
245.078	-24.75
245.295	94.04
245.512	-4.27
245.729	12.12
245.946	55.12
246.163	8.02
246.38	14.17
246.597	57.17
246.814	51.03
247.031	3.93
247.248	63.32
247.464	69.46
247.681	53.08
247.898	24.4
248.115	-45.23
248.332	44.88
248.549	-28.84
248.766	55.12
248.983	-4.27
249.2	-2.22
249.417	61.27
249.633	3.93
249.85	8.02
250.067	44.88
250.284	94.04
250.501	-12.46
250.717	53.08
250.934	-26.79
251.151	38.74
251.368	-8.36
251.585	110.42
251.801	-37.03
252.018	46.93
252.235	5.97
252.451	-20.65
252.668	10.07
252.885	-28.84
253.102	3.93
253.318	44.88
253.535	28.5
253.752	-28.84
253.968	16.21
254.185	-10.41
254.401	44.88
254.618	-4.27
254.835	26.45
255.051	-6.31
255.268	75.6
255.484	-59.56
255.701	-4.27
255.917	44.88
256.134	-39.08
256.351	-22.7
256.567	-12.46
256.784	14.17
257	-67.75
257.217	36.69
257.433	-10.41
257.65	57.17
257.866	-4.27
258.082	3.93
258.299	44.88
258.515	44.88
258.732	-26.79
258.948	-43.18
259.165	61.27
259.381	28.5
259.597	26.45
259.814	3.93
260.03	-0.17
260.246	-26.79
260.463	-16.55
260.679	77.65
260.895	14.17
261.112	57.17
261.328	-26.79
261.544	-10.41
261.761	155.47
261.977	-10.41
262.193	3.93
262.409	28.5
262.626	67.41
262.842	51.03
263.058	-32.94
263.274	12.12
263.49	20.31
263.707	77.65
263.923	20.31
264.139	-73.9
264.355	36.69
264.571	38.74
264.787	44.88
265.004	94.04
265.22	-14.51
265.436	26.45
265.652	14.17
265.868	28.5
266.084	-53.42
266.3	73.56
266.516	-4.27
266.732	-12.46
266.948	12.12
267.164	30.55
267.38	-6.31
267.596	10.07
267.812	20.31
268.028	57.17
268.244	-39.08
268.46	-80.04
268.676	83.8
268.892	-28.84
269.108	-41.13
269.324	-2.22
269.54	-69.8
269.756	61.27
269.972	-12.46
270.188	77.65
270.403	-59.56
270.619	34.64
270.835	36.69
271.051	-10.41
271.267	77.65
271.483	61.27
271.698	30.55
271.914	63.32
272.13	-39.08
272.346	28.5
272.562	53.08
272.777	46.93
272.993	36.69
273.209	46.93
273.425	14.17
273.64	-20.65
273.856	14.17
274.072	8.02
274.287	-0.17
274.503	28.5
274.719	24.4
274.934	22.36
275.15	22.36
275.366	46.93
275.581	-98.47
275.797	18.26
276.012	-32.94
276.228	1.88
276.444	71.51
276.659	5.97
276.875	3.93
277.09	-26.79
277.306	3.93
277.521	5.97
277.737	28.5
277.952	85.84
278.168	-45.23
278.383	69.46
278.599	28.5
278.814	40.79
279.03	5.97
279.245	85.84
279.461	63.32
279.676	77.65
279.892	-61.61
280.107	8.02
280.322	-55.47
280.538	5.97
280.753	-53.42
280.969	53.08
281.184	12.12
281.399	55.12
281.615	40.79
281.83	-8.36
282.045	-53.42
282.26	-67.75
282.476	44.88
282.691	71.51
282.906	57.17
283.122	-0.17
283.337	38.74
283.552	-14.51
283.767	79.7
283.983	5.97
284.198	-45.23
284.413	3.93
284.628	-53.42
284.843	-20.65
285.058	69.46
285.274	-26.79
285.489	20.31
285.704	67.41
285.919	-41.13
286.134	-53.42
286.349	-71.85
286.564	-0.17
286.779	8.02
286.995	5.97
287.21	40.79
287.425	12.12
287.64	57.17
287.855	-45.23
288.07	34.64
288.285	71.51
288.5	81.75
288.715	20.31
288.93	8.02
289.145	-49.32
289.36	65.36
289.575	65.36
289.79	85.84
290.004	44.88
290.219	51.03
290.434	-10.41
290.649	-75.95
290.864	65.36
291.079	14.17
291.294	36.69
291.509	30.55
291.724	18.26
291.938	81.75
292.153	12.12
292.368	10.07
292.583	110.42
292.798	28.5
293.012	-12.46
293.227	-10.41
293.442	65.36
293.657	94.04
293.871	79.7
294.086	20.31
294.301	71.51
294.516	94.04
294.73	44.88
294.945	-41.13
295.16	38.74
295.374	53.08
295.589	96.08
295.804	-37.03
296.018	28.5
296.233	34.64
296.447	-0.17
296.662	-20.65
296.877	8.02
297.091	44.88
297.306	3.93
297.52	-34.99
297.735	42.84
297.949	30.55
298.164	38.74
298.378	-10.41
298.593	-37.03
298.807	102.23
299.022	-37.03
299.236	16.21
299.451	12.12
299.665	3.93
299.88	57.17
300.094	-37.03
300.309	-47.27
300.523	20.31
300.737	32.6
300.952	53.08
301.166	59.22
301.381	-0.17
301.595	48.98
301.809	38.74
302.024	-0.17
302.238	-18.6
302.452	57.17
302.667	24.4
302.881	3.93
303.095	81.75
303.309	104.28
303.524	36.69
303.738	77.65
303.952	-10.41
304.166	-0.17
304.381	-57.51
304.595	126.8
304.809	-32.94
305.023	-53.42
305.237	24.4
305.452	73.56
305.666	34.64
305.88	46.93
306.094	-20.65
306.308	8.02
306.522	85.84
306.736	24.4
306.95	36.69
307.164	-12.46
307.379	42.84
307.593	-12.46
307.807	22.36
308.021	20.31
308.235	-8.36
308.449	69.46
308.663	-43.18
308.877	102.23
309.091	-16.55
309.305	36.69
309.519	-82.09
309.733	28.5
309.947	-10.41
310.161	36.69
310.374	69.46
310.588	87.89
310.802	-20.65
311.016	65.36
311.23	-28.84
311.444	22.36
311.658	26.45
311.872	-59.56
312.085	85.84
312.299	-2.22
312.513	55.12
312.727	-20.65
312.941	77.65
313.154	16.21
313.368	-65.71
313.582	38.74
313.796	3.93
314.009	3.93
314.223	44.88
314.437	22.36
314.651	-65.71
314.864	-26.79
315.078	-4.27
315.292	22.36
315.505	20.31
315.719	71.51
315.933	-0.17
316.146	12.12
316.36	44.88
316.573	106.32
316.787	20.31
317.001	53.08
317.214	22.36
317.428	73.56
317.641	-96.43
317.855	12.12
318.068	46.93
318.282	16.21
318.495	-0.17
318.709	59.22
318.922	3.93
319.136	3.93
319.349	65.36
319.563	36.69
319.776	40.79
319.99	-12.46
320.203	10.07
320.417	46.93
320.63	51.03
320.843	38.74
321.057	44.88
321.27	28.5
321.483	26.45
321.697	14.17
321.91	38.74
322.124	20.31
322.337	16.21
322.55	22.36
322.763	-30.89
322.977	48.98
323.19	-28.84
323.403	75.6
323.617	22.36
323.83	44.88
324.043	55.12
324.256	-4.27
324.469	-18.6
324.683	26.45
324.896	-14.51
325.109	10.07
325.322	-20.65
325.535	20.31
325.748	102.23
325.962	1.88
326.175	55.12
326.388	-2.22
326.601	-16.55
326.814	18.26
327.027	-10.41
327.24	79.7
327.453	44.88
327.666	30.55
327.879	-20.65
328.092	38.74
328.305	-53.42
328.518	77.65
328.731	20.31
328.944	28.5
329.157	61.27
329.37	22.36
329.583	100.18
329.796	-4.27
330.009	-114.86
330.222	10.07
330.435	71.51
330.648	20.31
330.861	32.6
331.073	14.17
331.286	36.69
331.499	-24.75
331.712	8.02
331.925	-43.18
332.138	61.27
332.35	18.26
332.563	-16.55
332.776	91.99
332.989	-2.22
333.202	48.98
333.414	61.27
333.627	87.89
333.84	32.6
334.053	87.89
334.265	20.31
334.478	14.17
334.691	-57.51
334.903	28.5
335.116	-59.56
335.329	69.46
335.541	73.56
335.754	55.12
335.966	-2.22
336.179	5.97
336.392	12.12
336.604	-10.41
336.817	51.03
337.029	-8.36
337.242	1.88
337.454	-61.61
337.667	-65.71
337.88	83.8
338.092	48.98
338.305	32.6
338.517	3.93
338.729	36.69
338.942	28.5
339.154	8.02
339.367	16.21
339.579	118.61
339.792	-4.27
340.004	53.08
340.217	32.6
340.429	5.97
340.641	1.88
340.854	-45.23
341.066	-10.41
341.278	40.79
341.491	63.32
341.703	26.45
341.915	-41.13
342.128	114.52
342.34	-57.51
342.552	20.31
342.764	12.12
342.977	-6.31
343.189	79.7
343.401	22.36
343.613	-32.94
343.826	36.69
344.038	28.5
344.25	34.64
344.462	3.93
344.674	-4.27
344.886	22.36
345.099	55.12
345.311	53.08
345.523	12.12
345.735	38.74
345.947	26.45
346.159	-39.08
346.371	53.08
346.583	48.98
346.795	65.36
347.007	-28.84
347.219	-0.17
347.431	-16.55
347.643	44.88
347.855	51.03
348.067	36.69
348.279	32.6
348.491	22.36
348.703	-12.46
348.915	-30.89
349.127	5.97
349.339	46.93
349.551	-26.79
349.763	44.88
349.975	-12.46
350.187	36.69
350.399	118.61
350.61	94.04
350.822	-2.22
351.034	-32.94
351.246	36.69
351.458	36.69
351.669	38.74
351.881	94.04
352.093	61.27
352.305	85.84
352.517	61.27
352.728	-10.41
352.94	63.32
353.152	61.27
353.363	46.93
353.575	94.04
353.787	91.99
353.999	102.23
354.21	36.69
354.422	-59.56
354.633	-4.27
354.845	12.12
355.057	40.79
355.268	55.12
355.48	12.12
355.692	38.74
355.903	30.55
356.115	-59.56
356.326	-12.46
356.538	87.89
356.749	20.31
356.961	53.08
357.172	12.12
357.384	-26.79
357.595	75.6
357.807	65.36
358.018	44.88
358.23	44.88
358.441	79.7
358.653	53.08
358.864	28.5
359.075	53.08
359.287	59.22
359.498	28.5
359.709	16.21
359.921	28.5
360.132	38.74
360.344	-61.61
360.555	-32.94
360.766	22.36
360.977	26.45
361.189	61.27
361.4	30.55
361.611	106.32
361.823	24.4
362.034	44.88
362.245	-10.41
362.456	61.27
362.667	28.5
362.879	3.93
363.09	28.5
363.301	12.12
363.512	-12.46
363.723	-4.27
363.935	30.55
364.146	38.74
364.357	-20.65
364.568	28.5
364.779	-82.09
364.99	55.12
365.201	20.31
365.412	79.7
365.623	-102.57
365.834	44.88
366.045	16.21
366.256	46.93
366.467	104.28
366.678	77.65
366.889	63.32
367.1	28.5
367.311	48.98
367.522	-34.99
367.733	30.55
367.944	44.88
368.155	28.5
368.366	-10.41
368.577	5.97
368.788	48.98
368.999	77.65
369.209	1.88
369.42	-20.65
369.631	94.04
369.842	77.65
370.053	69.46
370.264	77.65
370.474	-32.94
370.685	20.31
370.896	102.23
371.107	114.52
371.317	69.46
371.528	-20.65
371.739	57.17
371.95	104.28
372.16	55.12
372.371	69.46
372.582	-51.37
372.792	24.4
373.003	71.51
373.214	-16.55
373.424	55.12
373.635	12.12
373.846	79.7
374.056	36.69
374.267	94.04
374.477	61.27
374.688	-26.79
374.898	69.46
375.109	-18.6
375.319	63.32
375.53	126.8
375.74	28.5
375.951	12.12
376.161	-45.23
376.372	-10.41
376.582	61.27
376.793	5.97
377.003	36.69
377.214	-20.65
377.424	-41.13
377.635	63.32
377.845	8.02
378.055	69.46
378.266	3.93
378.476	26.45
378.686	36.69
378.897	36.69
379.107	-51.37
379.317	67.41
379.528	77.65
379.738	-12.46
379.948	5.97
380.158	40.79
380.369	5.97
380.579	24.4
380.789	46.93
380.999	85.84
381.21	38.74
381.42	126.8
381.63	-8.36
381.84	44.88
382.05	12.12
382.261	44.88
382.471	46.93
382.681	-32.94
382.891	122.71
383.101	30.55
383.311	-57.51
383.521	20.31
383.731	40.79
383.941	75.6
384.151	61.27
384.361	12.12
384.571	73.56
384.781	118.61
384.991	40.79
385.201	44.88
385.411	102.23
385.621	96.08
385.831	12.12
386.041	-4.27
386.251	20.31
386.461	57.17
386.671	61.27
386.881	3.93
387.091	44.88
387.301	-16.55
387.511	51.03
387.72	32.6
387.93	53.08
388.14	-28.84
388.35	57.17
388.56	85.84
388.769	48.98
388.979	53.08
389.189	3.93
389.399	57.17
389.609	71.51
389.818	32.6
390.028	81.75
390.238	30.55
390.447	1.88
390.657	51.03
390.867	-0.17
391.076	71.51
391.286	55.12
391.496	48.98
391.705	32.6
391.915	57.17
392.125	79.7
392.334	10.07
392.544	71.51
392.753	53.08
392.963	94.04
393.172	63.32
393.382	-45.23
393.591	200.53
393.801	12.12
394.01	14.17
394.22	91.99
394.429	-37.03
394.639	55.12
394.848	102.23
395.058	59.22
395.267	128.85
395.477	139.09
395.686	89.94
395.895	85.84
396.105	155.47
396.314	69.46
396.524	32.6
396.733	-6.31
396.942	61.27
397.152	122.71
397.361	83.8
397.57	71.51
397.78	10.07
397.989	48.98
398.198	182.1
398.407	16.21
398.617	36.69
398.826	22.36
399.035	77.65
399.244	73.56
399.453	139.09
399.663	94.04
399.872	135
400.081	-37.03
400.29	104.28
400.499	38.74
400.708	81.75
400.917	63.32
401.127	79.7
401.336	42.84
401.545	192.34
401.754	85.84
401.963	81.75
402.172	147.28
402.381	75.6
402.59	102.23
402.799	100.18
403.008	163.67
403.217	104.28
403.426	69.46
403.635	102.23
403.844	128.85
404.053	73.56
404.262	104.28
404.471	130.9
404.68	171.86
404.888	85.84
405.097	161.62
405.306	167.76
405.515	178
405.724	135
405.933	163.67
406.142	143.19
406.35	169.81
406.559	135
406.768	165.71
406.977	94.04
407.185	202.58
407.394	214.87
407.603	104.28
407.812	192.34
408.02	145.24
408.229	124.76
408.438	204.63
408.646	218.96
408.855	229.2
409.064	202.58
409.272	208.72
409.481	286.54
409.69	223.06
409.898	261.97
410.107	315.22
410.315	358.22
410.524	245.59
410.733	253.78
410.941	358.22
411.15	374.61
411.358	315.22
411.567	417.61
411.775	368.46
411.984	413.52
412.192	425.81
412.401	397.14
412.609	397.14
412.818	462.67
413.026	522.06
413.234	378.7
413.443	446.29
413.651	446.29
413.86	489.29
414.068	530.25
414.276	524.11
414.485	587.6
414.693	544.59
414.901	597.84
415.11	724.81
415.318	585.55
415.526	661.32
415.734	659.28
415.943	669.52
416.151	646.99
416.359	790.35
416.567	747.34
416.776	757.58
416.984	896.84
417.192	876.36
417.4	814.92
417.608	808.78
417.817	857.93
418.025	982.85
418.233	982.85
418.441	931.66
418.649	1032.01
418.857	1118.02
419.065	1163.08
419.273	1136.45
419.481	1185.6
419.689	1142.6
419.897	1335.1
420.105	1259.33
420.313	1384.26
420.521	1445.7
420.729	1335.1
420.937	1519.42
421.145	1523.52
421.353	1601.34
421.561	1677.12
421.769	1673.02
421.977	1697.6
422.185	1756.99
422.393	1802.04
422.601	1972.02
422.809	2006.84
423.017	1879.86
423.224	2002.74
423.432	2150.2
423.64	2232.12
423.848	2336.56
424.056	2287.41
424.263	2508.59
424.471	2385.71
424.679	2676.52
424.887	2594.61
425.094	2719.53
425.302	2860.84
425.51	2860.84
425.718	2846.51
425.925	2936.62
426.133	2979.62
426.341	3286.82
426.548	3333.92
426.756	3227.43
426.964	3532.58
427.171	3649.31
427.379	3653.41
427.586	3809.05
427.794	3847.96
428.001	4108.05
428.209	4224.79
428.417	4075.29
428.624	4450.07
428.832	4362
429.039	4337.43
429.247	4374.29
429.454	4894.47
429.662	5201.67
429.869	4818.7
430.076	5134.09
430.284	4998.92
430.491	5216.01
430.699	5541.63
430.906	5517.06
431.114	5641.98
431.321	5805.82
431.528	5807.87
431.736	6266.61
431.943	6520.56
432.15	6412.02
432.358	6512.37
432.565	6766.32
432.772	6606.58
432.979	7175.91
433.187	7231.21
433.394	7411.43
433.601	7728.86
433.808	7857.89
434.016	7829.21
434.223	7935.71
434.43	8589.01
434.637	8543.95
434.844	8898.25
435.052	9105.1
435.259	9139.91
435.466	9213.64
435.673	8933.07
435.88	9703.11
436.087	10038.97
436.294	10170.04
436.501	9787.07
436.708	10114.75
436.915	10559.16
437.122	10845.87
437.329	10862.26
437.537	11234.99
437.743	11447.97
437.95	11325.1
438.157	12011.17
438.364	12218.01
438.571	12244.63
438.778	12418.71
438.985	13356.68
439.192	12820.11
439.399	13352.59
439.606	13014.67
439.813	13760.13
440.02	14675.57
440.227	14136.96
440.433	14055.04
440.64	14630.52
440.847	14421.63
441.054	15005.3
441.261	15973.99
441.467	15822.44
441.674	16039.52
441.881	16346.72
442.088	16541.27
442.294	16461.4
442.501	17018.45
442.708	17137.23
442.914	17958.47
443.121	18533.95
443.328	18177.6
443.534	19269.17
443.741	18972.21
443.948	18409.02
444.154	20114.98
444.361	19723.82
444.568	20063.78
444.774	19949.09
444.981	19912.23
445.187	20473.37
445.394	21483.02
445.6	21280.27
445.807	23354.86
446.013	22205.95
446.22	22877.69
446.426	23508.46
446.633	23723.5
446.839	24954.33
447.046	23487.98
447.252	24819.16
447.459	24929.75
447.665	24892.89
447.871	26015.18
448.078	27284.92
448.284	25832.91
448.491	26578.37
448.697	27669.94
448.903	27702.7
449.11	28016.04
449.316	27844.01
449.522	28210.6
449.728	29097.37
449.935	29035.93
450.141	28863.9
450.347	29859.21
450.553	28892.57
450.76	29099.42
450.966	30326.15
451.172	29990.28
451.378	30811.52
451.584	30193.03
451.791	31155.58
451.997	30870.91
452.203	31358.33
452.409	31300.98
452.615	31055.23
452.821	30125.45
453.027	29812.11
453.233	31444.34
453.44	30326.15
453.646	30715.26
453.852	30709.12
454.058	31225.21
454.264	29937.04
454.47	31100.28
454.676	30328.2
454.882	30752.13
455.088	28241.32
455.294	29216.15
455.5	29496.72
455.705	29842.83
455.911	28661.15
456.117	28179.88
456.323	27772.33
456.529	26459.59
456.735	27463.09
456.941	27088.31
457.147	26262.98
457.352	25664.97
457.558	25609.68
457.764	25470.42
457.97	25144.79
458.176	24460.77
458.381	24622.56
458.587	23158.26
458.793	23350.77
458.999	21868.04
459.204	23723.5
459.41	23098.87
459.616	21464.59
459.821	21802.5
460.027	21505.55
460.233	20862.49
460.438	20074.02
460.644	20362.78
460.85	19437.1
461.055	18918.96
461.261	18955.83
461.466	17647.18
461.672	17088.08
461.878	18411.07
462.083	17225.29
462.289	16844.37
462.494	16582.23
462.7	15652.45
462.905	15568.49
463.111	15869.54
463.316	15851.11
463.522	15566.44
463.727	15879.78
463.932	15724.13
464.138	15482.47
464.343	15511.14
464.549	15021.68
464.754	15828.58
464.959	15605.35
465.165	15140.46
465.37	14712.44
465.575	14202.49
465.781	14962.29
465.986	14978.67
466.191	14341.75
466.397	13883.01
466.602	13291.15
466.807	13907.59
467.012	14042.75
