Data from USB4F104151__11__14-42-34-989.txt Node

Date: Thu Mar 13 14:42:34 EDT 2025
User: louis
Spectrometer: USB4F10415
Trigger mode: 4
Integration Time (sec): 2.000000E-2
Scans to average: 1
Electric dark correction enabled: true
Nonlinearity correction enabled: false
Boxcar width: 0
XAxis mode: Wavelengths
Number of Pixels in Spectrum: 3648
>>>>>Begin Spectral Data<<<<<
178.204	-85.16
178.424	-85.16
178.644	-85.16
178.864	-128.17
179.084	-130.22
179.304	-31.91
179.524	17.24
179.744	21.33
179.964	2.9
180.184	0.85
180.404	-17.58
180.624	52.05
180.844	0.85
181.064	-25.77
181.283	-13.48
181.503	-3.24
181.723	-3.24
181.943	-15.53
182.163	74.58
182.383	0.85
182.602	-3.24
182.822	-5.29
183.042	93.01
183.262	-31.91
183.482	72.53
183.701	21.33
183.921	-7.34
184.141	80.72
184.361	58.2
184.58	35.67
184.8	21.33
185.02	68.44
185.239	13.14
185.459	9.05
185.679	27.48
185.898	45.91
186.118	47.96
186.338	29.52
186.557	101.2
186.777	43.86
186.997	43.86
187.216	21.33
187.436	115.54
187.655	64.34
187.875	13.14
188.095	54.1
188.314	13.14
188.534	80.72
188.753	9.05
188.973	4.95
189.192	90.96
189.412	115.54
189.631	23.38
189.851	-3.24
190.07	52.05
190.29	-36.01
190.509	-5.29
190.729	-25.77
190.948	58.2
191.168	66.39
191.387	99.16
191.607	-48.3
191.826	9.05
192.045	121.68
192.265	33.62
192.484	-13.48
192.704	21.33
192.923	-38.06
193.142	152.4
193.362	37.72
193.581	84.82
193.8	19.29
194.02	111.44
194.239	17.24
194.458	66.39
194.678	41.81
194.897	66.39
195.116	-19.63
195.335	109.4
195.555	58.2
195.774	9.05
195.993	54.1
196.212	17.24
196.432	60.24
196.651	27.48
196.87	47.96
197.089	86.87
197.308	35.67
197.528	17.24
197.747	41.81
197.966	58.2
198.185	109.4
198.404	29.52
198.623	66.39
198.842	2.9
199.062	88.92
199.281	99.16
199.5	117.59
199.719	35.67
199.938	58.2
200.157	95.06
200.376	90.96
200.595	9.05
200.814	54.1
201.033	13.14
201.252	82.77
201.471	17.24
201.69	95.06
201.909	74.58
202.128	86.87
202.347	127.83
202.566	82.77
202.785	35.67
203.004	-70.83
203.223	84.82
203.442	74.58
203.661	19.29
203.879	-27.82
204.098	90.96
204.317	-11.43
204.536	84.82
204.755	95.06
204.974	52.05
205.193	107.35
205.411	78.68
205.63	41.81
205.849	9.05
206.068	15.19
206.287	56.15
206.505	-23.72
206.724	-11.43
206.943	43.86
207.162	25.43
207.381	17.24
207.599	-36.01
207.818	58.2
208.037	62.29
208.255	-33.96
208.474	9.05
208.693	95.06
208.911	41.81
209.13	156.5
209.349	43.86
209.567	41.81
209.786	78.68
210.005	15.19
210.223	-29.87
210.442	37.72
210.661	17.24
210.879	52.05
211.098	107.35
211.316	41.81
211.535	103.25
211.753	-23.72
211.972	50
212.191	13.14
212.409	19.29
212.628	19.29
212.846	31.57
213.065	117.59
213.283	86.87
213.502	52.05
213.72	50
213.938	4.95
214.157	109.4
214.375	97.11
214.594	-5.29
214.812	78.68
215.031	86.87
215.249	78.68
215.467	68.44
215.686	41.81
215.904	95.06
216.122	13.14
216.341	78.68
216.559	25.43
216.778	84.82
216.996	50
217.214	-5.29
217.432	115.54
217.651	-70.83
217.869	-11.43
218.087	33.62
218.306	62.29
218.524	101.2
218.742	54.1
218.96	37.72
219.179	37.72
219.397	25.43
219.615	90.96
219.833	-19.63
220.051	17.24
220.27	41.81
220.488	131.92
220.706	54.1
220.924	4.95
221.142	74.58
221.36	90.96
221.578	68.44
221.796	33.62
222.015	52.05
222.233	27.48
222.451	129.88
222.669	-31.91
222.887	70.48
223.105	11.09
223.323	31.57
223.541	-15.53
223.759	43.86
223.977	-36.01
224.195	111.44
224.413	138.07
224.631	19.29
224.849	82.77
225.067	105.3
225.285	15.19
225.503	37.72
225.721	23.38
225.939	37.72
226.157	45.91
226.375	82.77
226.592	43.86
226.81	-3.24
227.028	33.62
227.246	123.73
227.464	-9.39
227.682	86.87
227.9	74.58
228.117	103.25
228.335	93.01
228.553	33.62
228.771	74.58
228.989	25.43
229.206	-5.29
229.424	105.3
229.642	33.62
229.86	-19.63
230.077	74.58
230.295	-31.91
230.513	115.54
230.731	84.82
230.948	41.81
231.166	103.25
231.384	-1.19
231.601	-48.3
231.819	99.16
232.037	76.63
232.254	25.43
232.472	60.24
232.689	39.76
232.907	95.06
233.125	29.52
233.342	-44.2
233.56	19.29
233.777	58.2
233.995	37.72
234.213	160.59
234.43	60.24
234.648	33.62
234.865	21.33
235.083	56.15
235.3	-7.34
235.518	164.69
235.735	41.81
235.953	133.97
236.17	50
236.388	25.43
236.605	-79.02
236.822	113.49
237.04	58.2
237.257	68.44
237.475	13.14
237.692	43.86
237.909	31.57
238.127	-3.24
238.344	58.2
238.562	25.43
238.779	84.82
238.996	74.58
239.214	37.72
239.431	109.4
239.648	-3.24
239.865	84.82
240.083	50
240.3	27.48
240.517	13.14
240.735	25.43
240.952	93.01
241.169	2.9
241.386	-5.29
241.603	0.85
241.821	54.1
242.038	90.96
242.255	86.87
242.472	-36.01
242.689	82.77
242.907	93.01
243.124	58.2
243.341	78.68
243.558	25.43
243.775	107.35
243.992	54.1
244.209	74.58
244.426	146.26
244.643	62.29
244.86	-19.63
245.078	78.68
245.295	90.96
245.512	33.62
245.729	9.05
245.946	86.87
246.163	54.1
246.38	25.43
246.597	0.85
246.814	-11.43
247.031	-23.72
247.248	23.38
247.464	29.52
247.681	27.48
247.898	41.81
248.115	33.62
248.332	-13.48
248.549	88.92
248.766	80.72
248.983	31.57
249.2	66.39
249.417	35.67
249.633	-7.34
249.85	72.53
250.067	-38.06
250.284	101.2
250.501	43.86
250.717	82.77
250.934	27.48
251.151	2.9
251.368	-11.43
251.585	78.68
251.801	76.63
252.018	-15.53
252.235	125.78
252.451	97.11
252.668	60.24
252.885	23.38
253.102	82.77
253.318	-5.29
253.535	-17.58
253.752	-54.44
253.968	-56.49
254.185	-29.87
254.401	54.1
254.618	82.77
254.835	-19.63
255.051	39.76
255.268	21.33
255.484	50
255.701	-36.01
255.917	117.59
256.134	-31.91
256.351	35.67
256.567	15.19
256.784	25.43
257	74.58
257.217	43.86
257.433	50
257.65	82.77
257.866	21.33
258.082	25.43
258.299	123.73
258.515	58.2
258.732	-52.39
258.948	-36.01
259.165	50
259.381	-42.15
259.597	-31.91
259.814	-23.72
260.03	68.44
260.246	-1.19
260.463	86.87
260.679	33.62
260.895	19.29
261.112	70.48
261.328	74.58
261.544	0.85
261.761	127.83
261.977	13.14
262.193	4.95
262.409	25.43
262.626	64.34
262.842	19.29
263.058	33.62
263.274	23.38
263.49	-7.34
263.707	50
263.923	41.81
264.139	62.29
264.355	95.06
264.571	17.24
264.787	17.24
265.004	82.77
265.22	103.25
265.436	109.4
265.652	62.29
265.868	58.2
266.084	33.62
266.3	29.52
266.516	-9.39
266.732	29.52
266.948	21.33
267.164	62.29
267.38	64.34
267.596	41.81
267.812	29.52
268.028	23.38
268.244	0.85
268.46	21.33
268.676	115.54
268.892	68.44
269.108	29.52
269.324	74.58
269.54	-40.11
269.756	68.44
269.972	58.2
270.188	43.86
270.403	95.06
270.619	35.67
270.835	37.72
271.051	50
271.267	-27.82
271.483	-11.43
271.698	86.87
271.914	41.81
272.13	-38.06
272.346	72.53
272.562	9.05
272.777	97.11
272.993	31.57
273.209	0.85
273.425	4.95
273.64	29.52
273.856	66.39
274.072	41.81
274.287	17.24
274.503	33.62
274.719	15.19
274.934	47.96
275.15	9.05
275.366	25.43
275.581	52.05
275.797	76.63
276.012	-19.63
276.228	74.58
276.444	50
276.659	50
276.875	66.39
277.09	15.19
277.306	47.96
277.521	-36.01
277.737	39.76
277.952	50
278.168	60.24
278.383	47.96
278.599	66.39
278.814	23.38
279.03	88.92
279.245	86.87
279.461	82.77
279.676	54.1
279.892	-64.68
280.107	9.05
280.322	66.39
280.538	66.39
280.753	60.24
280.969	76.63
281.184	9.05
281.399	144.21
281.615	66.39
281.83	58.2
282.045	33.62
282.26	29.52
282.476	70.48
282.691	33.62
282.906	29.52
283.122	13.14
283.337	43.86
283.552	50
283.767	13.14
283.983	82.77
284.198	45.91
284.413	82.77
284.628	19.29
284.843	58.2
285.058	52.05
285.274	25.43
285.489	33.62
285.704	95.06
285.919	-9.39
286.134	58.2
286.349	68.44
286.564	-21.67
286.779	101.2
286.995	-1.19
287.21	13.14
287.425	78.68
287.64	39.76
287.855	-50.35
288.07	9.05
288.285	68.44
288.5	95.06
288.715	109.4
288.93	66.39
289.145	68.44
289.36	66.39
289.575	-23.72
289.79	-3.24
290.004	43.86
290.219	58.2
290.434	82.77
290.649	11.09
290.864	17.24
291.079	31.57
291.294	68.44
291.509	43.86
291.724	78.68
291.938	-60.59
292.153	9.05
292.368	4.95
292.583	62.29
292.798	31.57
293.012	37.72
293.227	19.29
293.442	50
293.657	125.78
293.871	90.96
294.086	66.39
294.301	74.58
294.516	82.77
294.73	66.39
294.945	19.29
295.16	-5.29
295.374	45.91
295.589	66.39
295.804	35.67
296.018	43.86
296.233	50
296.447	60.24
296.662	76.63
296.877	117.59
297.091	93.01
297.306	-60.59
297.52	82.77
297.735	88.92
297.949	72.53
298.164	105.3
298.378	9.05
298.593	11.09
298.807	35.67
299.022	45.91
299.236	11.09
299.451	47.96
299.665	41.81
299.88	66.39
300.094	31.57
300.309	43.86
300.523	-15.53
300.737	66.39
300.952	45.91
301.166	27.48
301.381	-17.58
301.595	0.85
301.809	11.09
302.024	-19.63
302.238	33.62
302.452	41.81
302.667	-29.87
302.881	9.05
303.095	50
303.309	52.05
303.524	7
303.738	99.16
303.952	25.43
304.166	54.1
304.381	2.9
304.595	84.82
304.809	27.48
305.023	68.44
305.237	35.67
305.452	41.81
305.666	60.24
305.88	66.39
306.094	86.87
306.308	19.29
306.522	33.62
306.736	23.38
306.95	41.81
307.164	45.91
307.379	39.76
307.593	90.96
307.807	127.83
308.021	43.86
308.235	-38.06
308.449	19.29
308.663	54.1
308.877	37.72
309.091	41.81
309.305	56.15
309.519	-9.39
309.733	29.52
309.947	-36.01
310.161	117.59
310.374	66.39
310.588	84.82
310.802	-5.29
311.016	37.72
311.23	142.16
311.444	54.1
311.658	76.63
311.872	74.58
312.085	27.48
312.299	109.4
312.513	35.67
312.727	50
312.941	-23.72
313.154	45.91
313.368	-31.91
313.582	62.29
313.796	41.81
314.009	54.1
314.223	41.81
314.437	58.2
314.651	66.39
314.864	17.24
315.078	-13.48
315.292	-5.29
315.505	74.58
315.719	111.44
315.933	39.76
316.146	74.58
316.36	95.06
316.573	125.78
316.787	86.87
317.001	72.53
317.214	52.05
317.428	35.67
317.641	58.2
317.855	50
318.068	95.06
318.282	66.39
318.495	111.44
318.709	50
318.922	-29.87
319.136	107.35
319.349	45.91
319.563	17.24
319.776	60.24
319.99	31.57
320.203	95.06
320.417	25.43
320.63	107.35
320.843	150.36
321.057	23.38
321.27	21.33
321.483	68.44
321.697	50
321.91	58.2
322.124	93.01
322.337	23.38
322.55	-38.06
322.763	-3.24
322.977	58.2
323.19	17.24
323.403	43.86
323.617	-40.11
323.83	107.35
324.043	56.15
324.256	9.05
324.469	13.14
324.683	62.29
324.896	33.62
325.109	29.52
325.322	13.14
325.535	66.39
325.748	80.72
325.962	58.2
326.175	62.29
326.388	17.24
326.601	84.82
326.814	7
327.027	27.48
327.24	99.16
327.453	17.24
327.666	136.02
327.879	25.43
328.092	64.34
328.305	58.2
328.518	68.44
328.731	9.05
328.944	101.2
329.157	88.92
329.37	56.15
329.583	39.76
329.796	119.64
330.009	0.85
330.222	70.48
330.435	54.1
330.648	45.91
330.861	74.58
331.073	45.91
331.286	37.72
331.499	-13.48
331.712	17.24
331.925	33.62
332.138	107.35
332.35	86.87
332.563	62.29
332.776	62.29
332.989	11.09
333.202	68.44
333.414	131.92
333.627	0.85
333.84	82.77
334.053	17.24
334.265	35.67
334.478	29.52
334.691	37.72
334.903	29.52
335.116	9.05
335.329	19.29
335.541	84.82
335.754	80.72
335.966	25.43
336.179	62.29
336.392	17.24
336.604	50
336.817	50
337.029	125.78
337.242	9.05
337.454	90.96
337.667	88.92
337.88	41.81
338.092	25.43
338.305	33.62
338.517	37.72
338.729	33.62
338.942	25.43
339.154	50
339.367	9.05
339.579	29.52
339.792	-23.72
340.004	47.96
340.217	43.86
340.429	37.72
340.641	-11.43
340.854	70.48
341.066	54.1
341.278	11.09
341.491	62.29
341.703	25.43
341.915	-76.97
342.128	82.77
342.34	25.43
342.552	74.58
342.764	70.48
342.977	-1.19
343.189	4.95
343.401	99.16
343.613	-5.29
343.826	45.91
344.038	50
344.25	115.54
344.462	-29.87
344.674	74.58
344.886	9.05
345.099	54.1
345.311	72.53
345.523	29.52
345.735	-5.29
345.947	45.91
346.159	60.24
346.371	70.48
346.583	-15.53
346.795	107.35
347.007	25.43
347.219	45.91
347.431	-7.34
347.643	58.2
347.855	-62.63
348.067	123.73
348.279	0.85
348.491	82.77
348.703	45.91
348.915	50
349.127	82.77
349.339	60.24
349.551	17.24
349.763	25.43
349.975	50
350.187	90.96
350.399	119.64
350.61	64.34
350.822	35.67
351.034	66.39
351.246	50
351.458	58.2
351.669	107.35
351.881	133.97
352.093	115.54
352.305	88.92
352.517	66.39
352.728	68.44
352.94	27.48
353.152	35.67
353.363	66.39
353.575	76.63
353.787	78.68
353.999	58.2
354.21	76.63
354.422	50
354.633	41.81
354.845	117.59
355.057	21.33
355.268	66.39
355.48	140.12
355.692	2.9
355.903	52.05
356.115	-11.43
356.326	-5.29
356.538	33.62
356.749	35.67
356.961	140.12
357.172	17.24
357.384	76.63
357.595	133.97
357.807	74.58
358.018	82.77
358.23	90.96
358.441	150.36
358.653	58.2
358.864	105.3
359.075	56.15
359.287	9.05
359.498	156.5
359.709	-5.29
359.921	78.68
360.132	105.3
360.344	33.62
360.555	62.29
360.766	35.67
360.977	17.24
361.189	119.64
361.4	29.52
361.611	111.44
361.823	174.93
362.034	9.05
362.245	15.19
362.456	90.96
362.667	88.92
362.879	84.82
363.09	60.24
363.301	68.44
363.512	107.35
363.723	-11.43
363.935	19.29
364.146	50
364.357	-5.29
364.568	62.29
364.779	-19.63
364.99	101.2
365.201	19.29
365.412	107.35
365.623	74.58
365.834	-11.43
366.045	50
366.256	70.48
366.467	7
366.678	37.72
366.889	23.38
367.1	33.62
367.311	-54.44
367.522	19.29
367.733	107.35
367.944	68.44
368.155	39.76
368.366	86.87
368.577	60.24
368.788	-13.48
368.999	-15.53
369.209	68.44
369.42	121.68
369.631	133.97
369.842	60.24
370.053	86.87
370.264	82.77
370.474	41.81
370.685	35.67
370.896	105.3
371.107	115.54
371.317	80.72
371.528	99.16
371.739	140.12
371.95	93.01
372.16	119.64
372.371	-13.48
372.582	90.96
372.792	99.16
373.003	93.01
373.214	84.82
373.424	119.64
373.635	50
373.846	29.52
374.056	68.44
374.267	62.29
374.477	95.06
374.688	54.1
374.898	101.2
375.109	90.96
375.319	50
375.53	99.16
375.74	-25.77
375.951	25.43
376.161	86.87
376.372	179.03
376.582	82.77
376.793	50
377.003	45.91
377.214	-23.72
377.424	90.96
377.635	78.68
377.845	0.85
378.055	64.34
378.266	54.1
378.476	33.62
378.686	45.91
378.897	93.01
379.107	50
379.317	123.73
379.528	56.15
379.738	25.43
379.948	27.48
380.158	54.1
380.369	66.39
380.579	74.58
380.789	64.34
380.999	74.58
381.21	0.85
381.42	115.54
381.63	-15.53
381.84	123.73
382.05	68.44
382.261	19.29
382.471	90.96
382.681	76.63
382.891	74.58
383.101	27.48
383.311	90.96
383.521	29.52
383.731	35.67
383.941	121.68
384.151	76.63
384.361	54.1
384.571	-5.29
384.781	78.68
384.991	-3.24
385.201	158.55
385.411	27.48
385.621	17.24
385.831	17.24
386.041	88.92
386.251	45.91
386.461	93.01
386.671	50
386.881	117.59
387.091	25.43
387.301	58.2
387.511	52.05
387.72	74.58
387.93	-7.34
388.14	33.62
388.35	43.86
388.56	60.24
388.769	60.24
388.979	50
389.189	-15.53
389.399	29.52
389.609	125.78
389.818	131.92
390.028	27.48
390.238	25.43
390.447	97.11
390.657	58.2
390.867	11.09
391.076	43.86
391.286	35.67
391.496	35.67
391.705	101.2
391.915	17.24
392.125	78.68
392.334	90.96
392.544	99.16
392.753	74.58
392.963	86.87
393.172	148.31
393.382	-52.39
393.591	156.5
393.801	45.91
394.01	150.36
394.22	60.24
394.429	101.2
394.639	119.64
394.848	54.1
395.058	103.25
395.267	54.1
395.477	90.96
395.686	103.25
395.895	148.31
396.105	76.63
396.314	86.87
396.524	-52.39
396.733	76.63
396.942	133.97
397.152	105.3
397.361	74.58
397.57	93.01
397.78	25.43
397.989	133.97
398.198	107.35
398.407	60.24
398.617	43.86
398.826	41.81
399.035	64.34
399.244	82.77
399.453	84.82
399.663	121.68
399.872	107.35
400.081	0.85
400.29	99.16
400.499	58.2
400.708	133.97
400.917	99.16
401.127	76.63
401.336	95.06
401.545	111.44
401.754	62.29
401.963	174.93
402.172	35.67
402.381	43.86
402.59	78.68
402.799	90.96
403.008	43.86
403.217	121.68
403.426	144.21
403.635	117.59
403.844	72.53
404.053	125.78
404.262	148.31
404.471	140.12
404.68	86.87
404.888	74.58
405.097	136.02
405.306	82.77
405.515	101.2
405.724	166.74
405.933	150.36
406.142	95.06
406.35	103.25
406.559	66.39
406.768	90.96
406.977	205.65
407.185	183.12
407.394	131.92
407.603	37.72
407.812	158.55
408.02	176.98
408.229	265.04
408.438	197.46
408.646	103.25
408.855	164.69
409.064	207.7
409.272	172.88
409.481	172.88
409.69	181.07
409.898	136.02
410.107	195.41
410.315	279.38
410.524	123.73
410.733	230.23
410.941	205.65
411.15	342.86
411.358	279.38
411.567	297.81
411.775	156.5
411.984	338.77
412.192	279.38
412.401	242.51
412.609	369.49
412.818	320.34
413.026	328.53
413.234	258.9
413.443	283.47
413.651	336.72
413.86	402.26
414.068	344.91
414.276	389.97
414.485	377.68
414.693	437.07
414.901	465.74
415.11	465.74
415.318	467.79
415.526	443.21
415.734	500.56
415.943	537.42
416.151	516.94
416.359	533.33
416.567	527.18
416.776	576.33
416.984	562
417.192	658.25
417.4	598.86
417.608	625.48
417.817	566.09
418.025	721.74
418.233	697.16
418.441	680.78
418.649	682.83
418.857	920.39
419.065	840.52
419.273	713.55
419.481	828.23
419.689	869.19
419.897	840.52
420.105	881.48
420.313	1004.36
420.521	975.69
420.729	918.34
420.937	1004.36
421.145	1063.75
421.353	1114.95
421.561	1219.39
421.769	1088.32
421.977	1258.31
422.185	1225.54
422.393	1237.83
422.601	1411.9
422.809	1385.28
423.017	1315.65
423.224	1407.81
423.432	1450.82
423.64	1622.84
423.848	1639.23
424.056	1575.74
424.263	1614.65
424.471	1663.8
424.679	1803.07
424.887	1856.31
425.094	1876.79
425.302	1962.81
425.51	2069.3
425.718	2140.98
425.925	2003.77
426.133	2140.98
426.341	2239.28
426.548	2370.35
426.756	2319.15
426.964	2345.78
427.171	2534.19
427.379	2485.04
427.586	2622.25
427.794	2714.41
428.001	2837.29
428.209	3031.85
428.417	2906.92
428.624	2978.6
428.832	3023.66
429.039	3142.44
429.247	3048.23
429.454	3304.23
429.662	3498.78
429.869	3420.96
430.076	3609.37
430.284	3494.69
430.491	3658.53
430.699	3746.59
430.906	3760.92
431.114	3877.66
431.321	4119.32
431.528	4033.3
431.736	4199.19
431.943	4524.82
432.15	4449.04
432.358	4401.94
432.565	4715.28
432.772	4547.34
432.979	4885.26
433.187	4977.42
433.394	5030.66
433.601	5432.07
433.808	5393.16
434.016	5288.71
434.223	5538.56
434.43	5899
434.637	5622.53
434.844	6023.93
435.052	6173.43
435.259	6161.14
435.466	6359.8
435.673	6118.14
435.88	6587.12
436.087	6922.99
436.294	7000.81
436.501	6869.74
436.708	6867.69
436.915	7170.79
437.122	7389.92
437.329	7449.32
437.537	7586.53
437.743	7555.81
437.95	7725.79
438.157	8121.05
438.364	8213.21
438.571	8456.92
438.778	8225.5
438.985	9378.5
439.192	8950.48
439.399	9013.96
439.606	9196.23
439.813	9396.93
440.02	9972.41
440.227	9949.89
440.433	9724.61
440.64	10035.9
440.847	9890.49
441.054	10011.32
441.261	10711.73
441.467	10506.93
441.674	10640.05
441.881	11264.68
442.088	11661.99
442.294	11076.27
442.501	11307.69
442.708	11774.63
442.914	12165.79
443.121	12847.76
443.328	12255.9
443.534	13060.75
443.741	12812.95
443.948	12710.55
444.154	13453.96
444.361	13580.93
444.568	13714.05
444.774	13505.16
444.981	13961.86
445.187	14144.13
445.394	14695.03
445.6	14623.35
445.807	16058.98
446.013	15503.98
446.22	15657.57
446.426	16415.32
446.633	16400.99
446.839	16970.32
447.046	16155.23
447.252	17179.22
447.459	17216.08
447.665	17105.49
447.871	18143.81
448.078	18747.96
448.284	17654.34
448.491	18082.37
448.697	19057.2
448.903	19216.94
449.11	19577.39
449.316	18993.72
449.522	19276.34
449.728	19868.2
449.935	20077.09
450.141	20001.32
450.347	20445.73
450.553	19921.45
450.76	20107.81
450.966	21154.32
451.172	20415.01
451.378	21076.5
451.584	20578.84
451.791	21402.13
451.997	21041.68
452.203	21475.85
452.409	21613.07
452.615	21367.31
452.821	20820.5
453.027	20312.61
453.233	21778.95
453.44	20558.36
453.646	20853.27
453.852	20881.94
454.058	21518.86
454.264	20910.61
454.47	21498.38
454.676	20707.87
454.882	21373.46
455.088	19522.09
455.294	20185.63
455.5	20572.7
455.705	20242.98
455.911	19483.18
456.117	18928.18
456.323	18954.8
456.529	17951.3
456.735	18704.95
456.941	18301.5
457.147	18156.1
457.352	17504.84
457.558	17091.15
457.764	17181.26
457.97	17044.05
458.176	16708.18
458.381	16771.67
458.587	15714.92
458.793	15878.76
458.999	15034.99
459.204	16142.94
459.41	15688.29
459.616	14566.01
459.821	14795.38
460.027	14846.58
460.233	14385.79
460.438	13757.06
460.644	13726.34
460.85	13200.01
461.055	13140.62
461.261	13089.42
461.466	11920.03
461.672	11711.14
461.878	12403.35
462.083	11526.82
462.289	11410.09
462.494	11371.18
462.7	10850.99
462.905	10603.19
463.111	10896.05
463.316	10713.78
463.522	10660.53
463.727	10519.22
463.932	10736.31
464.138	10517.17
464.343	10545.84
464.549	10392.25
464.754	10705.59
464.959	10453.69
465.165	10363.58
465.37	10048.19
465.575	9677.51
465.781	10365.62
465.986	10255.03
466.191	9880.25
466.397	9505.48
466.602	9339.59
466.807	9427.65
467.012	9661.12
467.218	9495.24
467.423	9171.66
467.628	9464.52
467.833	9814.72
468.038	9644.74
468.244	9155.27
468.449	9603.78
468.654	9173.71
468.859	9048.78
469.064	9040.59
469.269	8835.79
469.474	8979.15
