Data from USB4F104151__28__14-42-46-586.txt Node

Date: Thu Mar 13 14:42:46 EDT 2025
User: louis
Spectrometer: USB4F10415
Trigger mode: 4
Integration Time (sec): 2.000000E-2
Scans to average: 1
Electric dark correction enabled: true
Nonlinearity correction enabled: false
Boxcar width: 0
XAxis mode: Wavelengths
Number of Pixels in Spectrum: 3648
>>>>>Begin Spectral Data<<<<<
178.204	-182.95
178.424	-182.95
178.644	-182.95
178.864	-105.13
179.084	-176.81
179.304	-12.97
179.524	42.32
179.744	-47.79
179.964	58.71
180.184	-37.55
180.404	-15.02
180.624	21.84
180.844	-37.55
181.064	17.75
181.283	7.51
181.503	-15.02
181.723	17.75
181.943	-8.87
182.163	36.18
182.383	5.46
182.602	97.62
182.822	32.08
183.042	25.94
183.262	-4.78
183.482	-17.07
183.701	-70.31
183.921	58.71
184.141	-2.73
184.361	-29.35
184.58	11.61
184.8	97.62
185.02	40.28
185.239	-8.87
185.459	68.95
185.679	38.23
185.898	30.04
186.118	60.76
186.338	-78.51
186.557	1.37
186.777	23.89
186.997	-6.83
187.216	-0.68
187.436	48.47
187.655	7.51
187.875	-17.07
188.095	46.42
188.314	-0.68
188.534	-0.68
188.753	-33.45
188.973	-12.97
189.192	89.43
189.412	40.28
189.631	30.04
189.851	-2.73
190.07	50.52
190.29	19.8
190.509	-15.02
190.729	7.51
190.948	-12.97
191.168	173.39
191.387	-21.16
191.607	40.28
191.826	-60.07
192.045	32.08
192.265	11.61
192.484	-47.79
192.704	58.71
192.923	44.37
193.142	122.2
193.362	23.89
193.581	-8.87
193.8	58.71
194.02	68.95
194.239	32.08
194.458	48.47
194.678	1.37
194.897	30.04
195.116	-37.55
195.335	1.37
195.555	40.28
195.774	40.28
195.993	3.41
196.212	15.7
196.432	3.41
196.651	19.8
196.87	-8.87
197.089	116.05
197.308	89.43
197.528	81.24
197.747	9.56
197.966	66.9
198.185	73.04
198.404	-49.83
198.623	-0.68
198.842	48.47
199.062	138.58
199.281	73.04
199.5	40.28
199.719	50.52
199.938	-17.07
200.157	40.28
200.376	81.24
200.595	40.28
200.814	-17.07
201.033	15.7
201.252	52.56
201.471	-43.69
201.69	105.81
201.909	42.32
202.128	75.09
202.347	44.37
202.566	21.84
202.785	44.37
203.004	-0.68
203.223	58.71
203.442	-25.26
203.661	-49.83
203.879	40.28
204.098	83.28
204.317	-51.88
204.536	40.28
204.755	11.61
204.974	44.37
205.193	79.19
205.411	138.58
205.63	7.51
205.849	-10.92
206.068	42.32
206.287	40.28
206.505	25.94
206.724	32.08
206.943	44.37
207.162	-0.68
207.381	21.84
207.599	17.75
207.818	-74.41
208.037	25.94
208.255	-39.59
208.474	66.9
208.693	9.56
208.911	-10.92
209.13	73.04
209.349	30.04
209.567	23.89
209.786	48.47
210.005	50.52
210.223	15.7
210.442	64.85
210.661	36.18
210.879	25.94
211.098	38.23
211.316	23.89
211.535	-6.83
211.753	23.89
211.972	85.33
212.191	-47.79
212.409	40.28
212.628	25.94
212.846	73.04
213.065	17.75
213.283	21.84
213.502	42.32
213.72	36.18
213.938	36.18
214.157	36.18
214.375	42.32
214.594	40.28
214.812	36.18
215.031	23.89
215.249	-55.98
215.467	-64.17
215.686	-23.21
215.904	32.08
216.122	7.51
216.341	99.67
216.559	25.94
216.778	83.28
216.996	73.04
217.214	42.32
217.432	-0.68
217.651	44.37
217.869	40.28
218.087	-0.68
218.306	32.08
218.524	77.14
218.742	36.18
218.96	73.04
219.179	42.32
219.397	-31.4
219.615	75.09
219.833	40.28
220.051	66.9
220.27	32.08
220.488	9.56
220.706	11.61
220.924	-10.92
221.142	-17.07
221.36	42.32
221.578	-33.45
221.796	81.24
222.015	32.08
222.233	-10.92
222.451	95.57
222.669	5.46
222.887	64.85
223.105	7.51
223.323	-8.87
223.541	-10.92
223.759	77.14
223.977	25.94
224.195	19.8
224.413	48.47
224.631	56.66
224.849	-45.74
225.067	77.14
225.285	-37.55
225.503	58.71
225.721	-25.26
225.939	23.89
226.157	32.08
226.375	66.9
226.592	66.9
226.81	-0.68
227.028	34.13
227.246	64.85
227.464	56.66
227.682	81.24
227.9	1.37
228.117	11.61
228.335	5.46
228.553	48.47
228.771	19.8
228.989	64.85
229.206	-10.92
229.424	40.28
229.642	-25.26
229.86	40.28
230.077	1.37
230.295	40.28
230.513	85.33
230.731	34.13
230.948	15.7
231.166	32.08
231.384	11.61
231.601	44.37
231.819	15.7
232.037	40.28
232.254	32.08
232.472	3.41
232.689	-2.73
232.907	48.47
233.125	3.41
233.342	81.24
233.56	-35.5
233.777	-15.02
233.995	17.75
234.213	71
234.43	-39.59
234.648	58.71
234.865	46.42
235.083	75.09
235.3	-17.07
235.518	15.7
235.735	-33.45
235.953	15.7
236.17	36.18
236.388	40.28
236.605	-15.02
236.822	1.37
237.04	40.28
237.257	58.71
237.475	-23.21
237.692	-58.03
237.909	85.33
238.127	-10.92
238.344	114
238.562	32.08
238.779	-49.83
238.996	-0.68
239.214	-12.97
239.431	75.09
239.648	66.9
239.865	64.85
240.083	48.47
240.3	-43.69
240.517	-12.97
240.735	-29.35
240.952	-12.97
241.169	85.33
241.386	48.47
241.603	48.47
241.821	-39.59
242.038	34.13
242.255	1.37
242.472	-0.68
242.689	21.84
242.907	87.38
243.124	23.89
243.341	-0.68
243.558	-17.07
243.775	-4.78
243.992	-41.64
244.209	21.84
244.426	97.62
244.643	73.04
244.86	23.89
245.078	44.37
245.295	83.28
245.512	23.89
245.729	-17.07
245.946	42.32
246.163	54.61
246.38	23.89
246.597	23.89
246.814	9.56
247.031	56.66
247.248	-15.02
247.464	68.95
247.681	97.62
247.898	40.28
248.115	64.85
248.332	40.28
248.549	-35.5
248.766	105.81
248.983	68.95
249.2	23.89
249.417	120.15
249.633	52.56
249.85	34.13
250.067	48.47
250.284	9.56
250.501	79.19
250.717	93.52
250.934	3.41
251.151	64.85
251.368	21.84
251.585	116.05
251.801	54.61
252.018	-0.68
252.235	66.9
252.451	-0.68
252.668	9.56
252.885	-17.07
253.102	46.42
253.318	50.52
253.535	15.7
253.752	81.24
253.968	-41.64
254.185	97.62
254.401	64.85
254.618	32.08
254.835	36.18
255.051	40.28
255.268	36.18
255.484	-0.68
255.701	-23.21
255.917	48.47
256.134	-0.68
256.351	-0.68
256.567	-39.59
256.784	19.8
257	-21.16
257.217	19.8
257.433	64.85
257.65	52.56
257.866	-41.64
258.082	23.89
258.299	48.47
258.515	11.61
258.732	34.13
258.948	11.61
259.165	62.8
259.381	-6.83
259.597	11.61
259.814	66.9
260.03	50.52
260.246	-33.45
260.463	52.56
260.679	9.56
260.895	50.52
261.112	32.08
261.328	44.37
261.544	-12.97
261.761	175.44
261.977	11.61
262.193	-35.5
262.409	64.85
262.626	81.24
262.842	-17.07
263.058	-43.69
263.274	7.51
263.49	15.7
263.707	73.04
263.923	58.71
264.139	-25.26
264.355	36.18
264.571	122.2
264.787	91.48
265.004	23.89
265.22	1.37
265.436	-2.73
265.652	56.66
265.868	40.28
266.084	15.7
266.3	81.24
266.516	19.8
266.732	52.56
266.948	54.61
267.164	19.8
267.38	42.32
267.596	27.99
267.812	138.58
268.028	66.9
268.244	-0.68
268.46	23.89
268.676	40.28
268.892	-15.02
269.108	-33.45
269.324	15.7
269.54	40.28
269.756	93.52
269.972	-4.78
270.188	-8.87
270.403	-2.73
270.619	-4.78
270.835	40.28
271.051	23.89
271.267	42.32
271.483	-4.78
271.698	56.66
271.914	1.37
272.13	15.7
272.346	62.8
272.562	-33.45
272.777	19.8
272.993	7.51
273.209	34.13
273.425	23.89
273.64	-37.55
273.856	44.37
274.072	32.08
274.287	-0.68
274.503	52.56
274.719	58.71
274.934	-21.16
275.15	11.61
275.366	17.75
275.581	60.76
275.797	60.76
276.012	17.75
276.228	-62.12
276.444	25.94
276.659	68.95
276.875	-8.87
277.09	81.24
277.306	-8.87
277.521	42.32
277.737	7.51
277.952	87.38
278.168	-10.92
278.383	-53.93
278.599	42.32
278.814	89.43
279.03	23.89
279.245	179.54
279.461	5.46
279.676	40.28
279.892	-17.07
280.107	-2.73
280.322	9.56
280.538	99.67
280.753	-4.78
280.969	48.47
281.184	-6.83
281.399	1.37
281.615	-41.64
281.83	48.47
282.045	32.08
282.26	36.18
282.476	77.14
282.691	23.89
282.906	64.85
283.122	27.99
283.337	42.32
283.552	-17.07
283.767	3.41
283.983	-25.26
284.198	50.52
284.413	56.66
284.628	-4.78
284.843	-0.68
285.058	-17.07
285.274	27.99
285.489	-4.78
285.704	99.67
285.919	-12.97
286.134	-0.68
286.349	44.37
286.564	27.99
286.779	23.89
286.995	56.66
287.21	-31.4
287.425	83.28
287.64	-17.07
287.855	19.8
288.07	42.32
288.285	23.89
288.5	109.91
288.715	79.19
288.93	42.32
289.145	-33.45
289.36	71
289.575	-15.02
289.79	77.14
290.004	-31.4
290.219	11.61
290.434	-4.78
290.649	60.76
290.864	105.81
291.079	5.46
291.294	32.08
291.509	64.85
291.724	23.89
291.938	9.56
292.153	13.65
292.368	27.99
292.583	44.37
292.798	34.13
293.012	60.76
293.227	-41.64
293.442	-6.83
293.657	105.81
293.871	85.33
294.086	73.04
294.301	68.95
294.516	-4.78
294.73	-47.79
294.945	50.52
295.16	42.32
295.374	107.86
295.589	7.51
295.804	44.37
296.018	42.32
296.233	52.56
296.447	23.89
296.662	73.04
296.877	11.61
297.091	-15.02
297.306	32.08
297.52	-25.26
297.735	7.51
297.949	83.28
298.164	-12.97
298.378	81.24
298.593	-62.12
298.807	40.28
299.022	56.66
299.236	23.89
299.451	50.52
299.665	17.75
299.88	44.37
300.094	19.8
300.309	58.71
300.523	42.32
300.737	-21.16
300.952	-25.26
301.166	46.42
301.381	-17.07
301.595	-0.68
301.809	-10.92
302.024	7.51
302.238	3.41
302.452	15.7
302.667	48.47
302.881	83.28
303.095	85.33
303.309	50.52
303.524	81.24
303.738	25.94
303.952	17.75
304.166	17.75
304.381	-55.98
304.595	124.24
304.809	-8.87
305.023	48.47
305.237	-15.02
305.452	85.33
305.666	58.71
305.88	17.75
306.094	56.66
306.308	19.8
306.522	83.28
306.736	68.95
306.95	-8.87
307.164	25.94
307.379	-80.55
307.593	56.66
307.807	23.89
308.021	11.61
308.235	19.8
308.449	38.23
308.663	58.71
308.877	89.43
309.091	25.94
309.305	-8.87
309.519	-10.92
309.733	42.32
309.947	23.89
310.161	58.71
310.374	36.18
310.588	87.38
310.802	-53.93
311.016	36.18
311.23	1.37
311.444	64.85
311.658	27.99
311.872	40.28
312.085	134.48
312.299	66.9
312.513	130.39
312.727	116.05
312.941	-37.55
313.154	66.9
313.368	-6.83
313.582	101.72
313.796	77.14
314.009	7.51
314.223	93.52
314.437	-33.45
314.651	32.08
314.864	50.52
315.078	64.85
315.292	52.56
315.505	7.51
315.719	3.41
315.933	11.61
316.146	25.94
316.36	-6.83
316.573	85.33
316.787	48.47
317.001	56.66
317.214	34.13
317.428	95.57
317.641	23.89
317.855	44.37
318.068	21.84
318.282	40.28
318.495	126.29
318.709	27.99
318.922	15.7
319.136	81.24
319.349	56.66
319.563	56.66
319.776	-4.78
319.99	25.94
320.203	-49.83
320.417	122.2
320.63	-4.78
320.843	77.14
321.057	38.23
321.27	50.52
321.483	85.33
321.697	40.28
321.91	109.91
322.124	64.85
322.337	-17.07
322.55	-29.35
322.763	25.94
322.977	34.13
323.19	68.95
323.403	-23.21
323.617	77.14
323.83	107.86
324.043	23.89
324.256	-0.68
324.469	-35.5
324.683	38.23
324.896	7.51
325.109	52.56
325.322	56.66
325.535	23.89
325.748	44.37
325.962	13.65
326.175	60.76
326.388	97.62
326.601	95.57
326.814	36.18
327.027	-6.83
327.24	50.52
327.453	-25.26
327.666	-21.16
327.879	75.09
328.092	-2.73
328.305	-55.98
328.518	-29.35
328.731	-8.87
328.944	56.66
329.157	56.66
329.37	-2.73
329.583	99.67
329.796	146.77
330.009	3.41
330.222	27.99
330.435	77.14
330.648	32.08
330.861	60.76
331.073	11.61
331.286	64.85
331.499	77.14
331.712	52.56
331.925	27.99
332.138	-4.78
332.35	64.85
332.563	40.28
332.776	124.24
332.989	27.99
333.202	1.37
333.414	5.46
333.627	-37.55
333.84	81.24
334.053	52.56
334.265	62.8
334.478	-49.83
334.691	40.28
334.903	27.99
335.116	128.34
335.329	40.28
335.541	-2.73
335.754	103.76
335.966	40.28
336.179	38.23
336.392	54.61
336.604	-6.83
336.817	9.56
337.029	75.09
337.242	1.37
337.454	3.41
337.667	-33.45
337.88	60.76
338.092	83.28
338.305	40.28
338.517	-53.93
338.729	138.58
338.942	140.63
339.154	-107.18
339.367	-37.55
339.579	89.43
339.792	-15.02
340.004	56.66
340.217	97.62
340.429	11.61
340.641	-0.68
340.854	-2.73
341.066	27.99
341.278	56.66
341.491	50.52
341.703	-15.02
341.915	30.04
342.128	-12.97
342.34	34.13
342.552	13.65
342.764	-23.21
342.977	7.51
343.189	19.8
343.401	32.08
343.613	19.8
343.826	40.28
344.038	60.76
344.25	-4.78
344.462	85.33
344.674	64.85
344.886	-0.68
345.099	71
345.311	36.18
345.523	71
345.735	-17.07
345.947	13.65
346.159	44.37
346.371	-58.03
346.583	32.08
346.795	77.14
347.007	1.37
347.219	19.8
347.431	-29.35
347.643	48.47
347.855	-17.07
348.067	56.66
348.279	9.56
348.491	50.52
348.703	144.72
348.915	54.61
349.127	9.56
349.339	-4.78
349.551	-0.68
349.763	167.25
349.975	85.33
350.187	56.66
350.399	-0.68
350.61	40.28
350.822	1.37
351.034	97.62
351.246	15.7
351.458	50.52
351.669	34.13
351.881	60.76
352.093	-0.68
352.305	73.04
352.517	34.13
352.728	73.04
352.94	9.56
353.152	73.04
353.363	-2.73
353.575	64.85
353.787	50.52
353.999	27.99
354.21	83.28
354.422	-15.02
354.633	-8.87
354.845	23.89
355.057	-8.87
355.268	-12.97
355.48	32.08
355.692	11.61
355.903	25.94
356.115	23.89
356.326	21.84
356.538	130.39
356.749	68.95
356.961	93.52
357.172	58.71
357.384	64.85
357.595	130.39
357.807	56.66
358.018	-8.87
358.23	68.95
358.441	50.52
358.653	83.28
358.864	7.51
359.075	-6.83
359.287	-17.07
359.498	27.99
359.709	-8.87
359.921	64.85
360.132	15.7
360.344	-29.35
360.555	-17.07
360.766	83.28
360.977	93.52
361.189	-8.87
361.4	44.37
361.611	103.76
361.823	46.42
362.034	17.75
362.245	-17.07
362.456	23.89
362.667	3.41
362.879	32.08
363.09	77.14
363.301	83.28
363.512	17.75
363.723	19.8
363.935	15.7
364.146	11.61
364.357	48.47
364.568	56.66
364.779	34.13
364.99	-15.02
365.201	-17.07
365.412	19.8
365.623	23.89
365.834	-21.16
366.045	23.89
366.256	52.56
366.467	-25.26
366.678	116.05
366.889	40.28
367.1	-0.68
367.311	27.99
367.522	15.7
367.733	27.99
367.944	89.43
368.155	44.37
368.366	19.8
368.577	107.86
368.788	144.72
368.999	27.99
369.209	-6.83
369.42	122.2
369.631	163.15
369.842	-8.87
370.053	32.08
370.264	64.85
370.474	30.04
370.685	122.2
370.896	-8.87
371.107	89.43
371.317	114
371.528	3.41
371.739	97.62
371.95	83.28
372.16	52.56
372.371	-17.07
372.582	-8.87
372.792	27.99
373.003	42.32
373.214	56.66
373.424	56.66
373.635	13.65
373.846	73.04
374.056	54.61
374.267	64.85
374.477	48.47
374.688	-6.83
374.898	48.47
375.109	42.32
375.319	9.56
375.53	93.52
375.74	101.72
375.951	87.38
376.161	91.48
376.372	48.47
376.582	23.89
376.793	58.71
377.003	23.89
377.214	9.56
377.424	163.15
377.635	1.37
377.845	46.42
378.055	99.67
378.266	32.08
378.476	-58.03
378.686	23.89
378.897	77.14
379.107	46.42
379.317	77.14
379.528	-17.07
379.738	77.14
379.948	19.8
380.158	124.24
380.369	36.18
380.579	54.61
380.789	44.37
380.999	73.04
381.21	23.89
381.42	109.91
381.63	-6.83
381.84	93.52
382.05	32.08
382.261	91.48
382.471	-8.87
382.681	-0.68
382.891	91.48
383.101	105.81
383.311	83.28
383.521	-0.68
383.731	1.37
383.941	85.33
384.151	44.37
384.361	40.28
384.571	60.76
384.781	105.81
384.991	126.29
385.201	34.13
385.411	109.91
385.621	-12.97
385.831	60.76
386.041	93.52
386.251	97.62
386.461	99.67
386.671	-15.02
386.881	58.71
387.091	9.56
387.301	30.04
387.511	42.32
387.72	58.71
387.93	81.24
388.14	-2.73
388.35	161.11
388.56	40.28
388.769	40.28
388.979	52.56
389.189	-0.68
389.399	25.94
389.609	154.96
389.818	58.71
390.028	66.9
390.238	91.48
390.447	60.76
390.657	36.18
390.867	58.71
391.076	79.19
391.286	89.43
391.496	91.48
391.705	64.85
391.915	52.56
392.125	114
392.334	17.75
392.544	36.18
392.753	50.52
392.963	-10.92
393.172	89.43
393.382	34.13
393.591	97.62
393.801	-0.68
394.01	130.39
394.22	81.24
394.429	44.37
394.639	1.37
394.848	48.47
395.058	64.85
395.267	-23.21
395.477	66.9
395.686	132.44
395.895	105.81
396.105	132.44
396.314	32.08
396.524	91.48
396.733	9.56
396.942	81.24
397.152	91.48
397.361	109.91
397.57	93.52
397.78	66.9
397.989	87.38
398.198	48.47
398.407	103.76
398.617	48.47
398.826	120.15
399.035	85.33
399.244	103.76
399.453	50.52
399.663	9.56
399.872	77.14
400.081	64.85
400.29	124.24
400.499	19.8
400.708	68.95
400.917	75.09
401.127	73.04
401.336	32.08
401.545	116.05
401.754	122.2
401.963	132.44
402.172	83.28
402.381	89.43
402.59	122.2
402.799	171.35
403.008	75.09
403.217	23.89
403.426	64.85
403.635	52.56
403.844	93.52
404.053	146.77
404.262	136.53
404.471	222.55
404.68	114
404.888	95.57
405.097	91.48
405.306	118.1
405.515	109.91
405.724	124.24
405.933	154.96
406.142	85.33
406.35	148.82
406.559	114
406.768	64.85
406.977	122.2
407.185	146.77
407.394	130.39
407.603	114
407.812	161.11
408.02	228.69
408.229	187.73
408.438	179.54
408.646	154.96
408.855	105.81
409.064	154.96
409.272	218.45
409.481	261.46
409.69	195.92
409.898	187.73
410.107	257.36
410.315	236.88
410.524	292.18
410.733	245.07
410.941	234.83
411.15	245.07
411.358	343.38
411.567	363.86
411.775	259.41
411.984	255.31
412.192	337.23
412.401	353.62
412.609	343.38
412.818	382.29
413.026	355.66
413.234	413.01
413.443	441.68
413.651	380.24
413.86	372.05
414.068	458.06
414.276	490.83
414.485	380.24
414.693	470.35
414.901	572.75
415.11	484.69
415.318	447.82
415.526	462.16
415.734	554.32
415.943	499.02
416.151	511.31
416.359	660.81
416.567	568.65
416.776	705.87
416.984	675.15
417.192	712.01
417.4	677.19
417.608	656.72
417.817	705.87
418.025	871.75
418.233	851.27
418.441	785.74
418.649	841.03
418.857	916.81
419.065	925
419.273	890.18
419.481	1006.92
419.689	1109.32
419.897	1076.55
420.105	1129.8
420.313	994.63
420.521	1156.42
420.729	1131.84
420.937	1129.8
421.145	1244.48
421.353	1252.67
421.561	1414.46
421.769	1318.21
421.977	1404.22
422.185	1312.07
422.393	1432.9
422.601	1574.21
422.809	1549.63
423.017	1557.82
423.224	1725.75
423.432	1627.45
423.64	1703.23
423.848	1826.11
424.056	1801.53
424.263	1967.42
424.471	1918.26
424.679	1985.85
424.887	2096.44
425.094	2133.3
425.302	2202.93
425.51	2293.04
425.718	2401.58
425.925	2342.19
426.133	2401.58
426.341	2612.53
426.548	2628.91
426.756	2594.09
426.964	2723.12
427.171	2874.67
427.379	2999.59
427.586	3050.79
427.794	3151.14
428.001	3349.79
428.209	3345.7
428.417	3341.6
428.624	3534.11
428.832	3509.54
429.039	3474.72
429.247	3656.99
429.454	3847.45
429.662	4005.14
429.869	3771.68
430.076	4179.22
430.284	4056.34
430.491	4140.31
430.699	4545.81
430.906	4463.89
431.114	4472.08
431.321	4740.36
431.528	4709.65
431.736	5012.74
431.943	5365
432.15	5053.7
432.358	5041.42
432.565	5442.82
432.772	5408
432.979	5700.86
433.187	5903.61
433.394	5795.07
433.601	5766.4
433.808	6147.32
434.016	6200.57
434.223	6444.27
434.43	6778.09
434.637	6692.08
434.844	7048.43
435.052	7191.78
435.259	7257.32
435.466	7310.57
435.673	7081.19
435.88	7769.31
436.087	8256.73
436.294	8041.69
436.501	7888.09
436.708	8094.94
436.915	8285.4
437.122	8654.03
437.329	8592.59
437.537	9014.48
437.743	8809.68
437.95	8867.02
438.157	9538.76
438.364	9923.77
438.571	9837.76
438.778	9794.75
438.985	10634.42
439.192	10118.33
439.399	10470.58
439.606	10335.42
439.813	10996.91
440.02	11488.42
440.227	11402.41
440.433	11228.33
440.64	11484.33
440.847	11789.47
441.054	11867.3
441.261	12743.83
441.467	12412.06
441.674	12872.85
441.881	13341.83
442.088	12977.3
442.294	12854.42
442.501	13419.66
442.708	13780.1
442.914	14199.93
443.121	14929.01
443.328	14472.31
443.534	15391.85
443.741	14875.76
443.948	14619.77
444.154	15946.85
444.361	15993.95
444.568	15991.91
444.774	16006.24
444.981	15914.08
445.187	16573.53
445.394	17204.3
445.6	16942.16
445.807	18512.95
446.013	17574.99
446.22	18150.46
446.426	18957.36
446.633	19160.11
446.839	19807.27
447.046	18846.77
447.252	19975.2
447.459	20200.48
447.665	20177.95
447.871	20605.98
448.078	21500.94
448.284	20792.34
448.491	21218.32
448.697	21783.56
448.903	22469.63
449.11	22699
449.316	22109.19
449.522	22690.81
449.728	23553.01
449.935	23299.06
450.141	23047.16
450.347	23968.74
450.553	23077.88
450.76	23778.28
450.966	24411.1
451.172	24140.77
451.378	24531.93
451.584	24050.66
451.791	24697.82
451.997	24660.96
452.203	25324.5
452.409	25144.28
452.615	25078.74
452.821	24054.76
453.027	24021.99
453.233	25226.2
453.44	23954.41
453.646	24558.56
453.852	24683.48
454.058	25191.38
454.264	24019.94
454.47	24816.6
454.676	23962.6
454.882	24937.43
455.088	22715.39
455.294	23147.51
455.5	23331.83
455.705	23897.06
455.911	22815.74
456.117	22381.57
456.323	22176.77
456.529	21144.59
456.735	21986.31
456.941	21437.45
457.147	20970.52
457.352	20417.57
457.558	20177.95
457.764	20364.32
457.97	19969.06
458.176	19516.46
458.381	19561.51
458.587	18572.35
458.793	18488.38
458.999	17591.37
459.204	18926.64
459.41	18119.74
459.616	16948.31
459.821	17263.69
460.027	16991.31
460.233	16628.82
460.438	16108.64
460.644	16084.06
460.85	15522.92
461.055	15076.46
461.261	15062.13
461.466	14183.55
461.672	13552.77
461.878	14533.75
462.083	13544.58
462.289	13266.06
462.494	12870.8
462.7	12485.78
462.905	12291.23
463.111	12559.51
463.316	12803.22
463.522	12385.43
463.727	12369.05
463.932	12252.31
464.138	12412.06
464.343	12270.75
464.549	12115.1
464.754	12348.57
464.959	12459.16
465.165	12121.24
465.37	11746.47
465.575	11275.43
465.781	11840.67
465.986	12018.85
466.191	11199.66
466.397	11099.31
466.602	10831.02
466.807	11236.52
467.012	10974.38
467.218	11328.68
467.423	10970.29
467.628	11115.69
467.833	11637.92
