Data from USB4F104151__200__14-45-17-730.txt Node

Date: Thu Mar 13 14:45:17 EDT 2025
User: louis
Spectrometer: USB4F10415
Trigger mode: 4
Integration Time (sec): 2.000000E-2
Scans to average: 1
Electric dark correction enabled: true
Nonlinearity correction enabled: false
Boxcar width: 0
XAxis mode: Wavelengths
Number of Pixels in Spectrum: 3648
>>>>>Begin Spectral Data<<<<<
178.204	-104.96
178.424	-104.96
178.644	-104.96
178.864	-90.62
179.084	-70.14
179.304	-16.9
179.524	-25.09
179.744	-41.47
179.964	-8.7
180.184	15.87
180.404	15.87
180.624	60.93
180.844	42.5
181.064	-98.81
181.283	-45.57
181.503	44.54
181.723	56.83
181.943	-86.53
182.163	42.5
182.383	13.82
182.602	-31.23
182.822	52.74
183.042	69.12
183.262	-18.94
183.482	-47.62
183.701	17.92
183.921	44.54
184.141	-70.14
184.361	-0.51
184.58	-23.04
184.8	5.63
185.02	-25.09
185.239	28.16
185.459	30.21
185.679	67.07
185.898	9.73
186.118	105.98
186.338	13.82
186.557	56.83
186.777	-16.9
186.997	-10.75
187.216	-8.7
187.436	56.83
187.655	38.4
187.875	105.98
188.095	69.12
188.314	50.69
188.534	50.69
188.753	-0.51
188.973	-47.62
189.192	62.98
189.412	-0.51
189.631	-25.09
189.851	7.68
190.07	50.69
190.29	-8.7
190.509	24.06
190.729	-25.09
190.948	9.73
191.168	112.13
191.387	130.56
191.607	58.88
191.826	9.73
192.045	40.45
192.265	17.92
192.484	-4.61
192.704	36.35
192.923	11.78
193.142	108.03
193.362	15.87
193.581	83.45
193.8	48.64
194.02	19.97
194.239	19.97
194.458	7.68
194.678	19.97
194.897	9.73
195.116	89.6
195.335	48.64
195.555	-18.94
195.774	65.02
195.993	65.02
196.212	3.58
196.432	75.26
196.651	7.68
196.87	36.35
197.089	73.21
197.308	52.74
197.528	13.82
197.747	-64
197.966	-20.99
198.185	50.69
198.404	-45.57
198.623	99.84
198.842	101.89
199.062	-14.85
199.281	48.64
199.5	-6.66
199.719	65.02
199.938	15.87
200.157	11.78
200.376	93.69
200.595	-0.51
200.814	97.79
201.033	-31.23
201.252	73.21
201.471	40.45
201.69	81.41
201.909	17.92
202.128	48.64
202.347	32.26
202.566	32.26
202.785	-64
203.004	-16.9
203.223	126.46
203.442	48.64
203.661	11.78
203.879	38.4
204.098	163.33
204.317	-18.94
204.536	1.54
204.755	-0.51
204.974	65.02
205.193	60.93
205.411	52.74
205.63	32.26
205.849	42.5
206.068	36.35
206.287	97.79
206.505	36.35
206.724	-12.8
206.943	48.64
207.162	7.68
207.381	-8.7
207.599	11.78
207.818	1.54
208.037	19.97
208.255	-23.04
208.474	34.3
208.693	15.87
208.911	40.45
209.13	22.02
209.349	-6.66
209.567	-20.99
209.786	73.21
210.005	114.17
210.223	-0.51
210.442	-29.18
210.661	48.64
210.879	-18.94
211.098	-25.09
211.316	3.58
211.535	44.54
211.753	-33.28
211.972	-0.51
212.191	48.64
212.409	-20.99
212.628	42.5
212.846	9.73
213.065	108.03
213.283	99.84
213.502	65.02
213.72	-25.09
213.938	11.78
214.157	50.69
214.375	9.73
214.594	13.82
214.812	-10.75
215.031	1.54
215.249	17.92
215.467	34.3
215.686	-14.85
215.904	32.26
216.122	52.74
216.341	7.68
216.559	22.02
216.778	58.88
216.996	71.17
217.214	-29.18
217.432	36.35
217.651	15.87
217.869	34.3
218.087	22.02
218.306	1.54
218.524	40.45
218.742	3.58
218.96	24.06
219.179	-47.62
219.397	19.97
219.615	110.08
219.833	19.97
220.051	34.3
220.27	-27.14
220.488	28.16
220.706	34.3
220.924	32.26
221.142	73.21
221.36	56.83
221.578	52.74
221.796	3.58
222.015	1.54
222.233	3.58
222.451	58.88
222.669	-121.34
222.887	36.35
223.105	-0.51
223.323	-2.56
223.541	-4.61
223.759	9.73
223.977	17.92
224.195	58.88
224.413	67.07
224.631	77.31
224.849	-49.66
225.067	114.17
225.285	56.83
225.503	9.73
225.721	-25.09
225.939	13.82
226.157	-49.66
226.375	30.21
226.592	1.54
226.81	67.07
227.028	77.31
227.246	1.54
227.464	-6.66
227.682	62.98
227.9	28.16
228.117	79.36
228.335	67.07
228.553	-4.61
228.771	69.12
228.989	46.59
229.206	89.6
229.424	-4.61
229.642	42.5
229.86	-16.9
230.077	48.64
230.295	56.83
230.513	34.3
230.731	42.5
230.948	81.41
231.166	42.5
231.384	-0.51
231.601	34.3
231.819	60.93
232.037	32.26
232.254	44.54
232.472	77.31
232.689	1.54
232.907	32.26
233.125	-41.47
233.342	38.4
233.56	91.65
233.777	-0.51
233.995	34.3
234.213	97.79
234.43	7.68
234.648	22.02
234.865	-4.61
235.083	-8.7
235.3	-33.28
235.518	42.5
235.735	114.17
235.953	44.54
236.17	3.58
236.388	-49.66
236.605	-20.99
236.822	15.87
237.04	17.92
237.257	32.26
237.475	15.87
237.692	-16.9
237.909	38.4
238.127	-29.18
238.344	40.45
238.562	28.16
238.779	-8.7
238.996	26.11
239.214	71.17
239.431	60.93
239.648	65.02
239.865	65.02
240.083	36.35
240.3	26.11
240.517	-20.99
240.735	67.07
240.952	42.5
241.169	22.02
241.386	7.68
241.603	19.97
241.821	-45.57
242.038	50.69
242.255	44.54
242.472	65.02
242.689	99.84
242.907	24.06
243.124	7.68
243.341	81.41
243.558	36.35
243.775	26.11
243.992	-88.57
244.209	17.92
244.426	40.45
244.643	58.88
244.86	-41.47
245.078	-8.7
245.295	52.74
245.512	56.83
245.729	-8.7
245.946	32.26
246.163	-8.7
246.38	48.64
246.597	7.68
246.814	91.65
247.031	-6.66
247.248	26.11
247.464	-37.38
247.681	44.54
247.898	42.5
248.115	130.56
248.332	-113.15
248.549	91.65
248.766	24.06
248.983	73.21
249.2	73.21
249.417	73.21
249.633	-0.51
249.85	7.68
250.067	11.78
250.284	19.97
250.501	50.69
250.717	26.11
250.934	-4.61
251.151	-16.9
251.368	60.93
251.585	67.07
251.801	56.83
252.018	3.58
252.235	24.06
252.451	15.87
252.668	-2.56
252.885	-0.51
253.102	3.58
253.318	15.87
253.535	-23.04
253.752	48.64
253.968	56.83
254.185	9.73
254.401	5.63
254.618	77.31
254.835	-51.71
255.051	163.33
255.268	60.93
255.484	46.59
255.701	9.73
255.917	15.87
256.134	-8.7
256.351	73.21
256.567	17.92
256.784	-16.9
257	-20.99
257.217	77.31
257.433	19.97
257.65	73.21
257.866	56.83
258.082	-0.51
258.299	-57.86
258.515	17.92
258.732	-12.8
258.948	-8.7
259.165	15.87
259.381	30.21
259.597	116.22
259.814	17.92
260.03	28.16
260.246	-4.61
260.463	11.78
260.679	114.17
260.895	-74.24
261.112	19.97
261.328	34.3
261.544	7.68
261.761	48.64
261.977	26.11
262.193	-41.47
262.409	44.54
262.626	-16.9
262.842	28.16
263.058	-39.42
263.274	32.26
263.49	50.69
263.707	9.73
263.923	13.82
264.139	11.78
264.355	-8.7
264.571	114.17
264.787	34.3
265.004	7.68
265.22	7.68
265.436	36.35
265.652	-6.66
265.868	1.54
266.084	-2.56
266.3	40.45
266.516	-41.47
266.732	48.64
266.948	26.11
267.164	89.6
267.38	85.5
267.596	56.83
267.812	116.22
268.028	36.35
268.244	54.78
268.46	19.97
268.676	32.26
268.892	44.54
269.108	26.11
269.324	9.73
269.54	58.88
269.756	-8.7
269.972	-16.9
270.188	40.45
270.403	-4.61
270.619	44.54
270.835	-4.61
271.051	-16.9
271.267	-12.8
271.483	19.97
271.698	17.92
271.914	60.93
272.13	56.83
272.346	24.06
272.562	-16.9
272.777	9.73
272.993	9.73
273.209	36.35
273.425	79.36
273.64	46.59
273.856	-25.09
274.072	30.21
274.287	32.26
274.503	50.69
274.719	110.08
274.934	56.83
275.15	32.26
275.366	-20.99
275.581	-47.62
275.797	5.63
276.012	26.11
276.228	81.41
276.444	44.54
276.659	101.89
276.875	97.79
277.09	34.3
277.306	-49.66
277.521	-51.71
277.737	56.83
277.952	77.31
278.168	-14.85
278.383	30.21
278.599	30.21
278.814	32.26
279.03	-25.09
279.245	97.79
279.461	-0.51
279.676	79.36
279.892	-8.7
280.107	11.78
280.322	9.73
280.538	19.97
280.753	-23.04
280.969	73.21
281.184	7.68
281.399	69.12
281.615	105.98
281.83	58.88
282.045	24.06
282.26	15.87
282.476	-8.7
282.691	36.35
282.906	73.21
283.122	34.3
283.337	110.08
283.552	48.64
283.767	5.63
283.983	48.64
284.198	-61.95
284.413	50.69
284.628	-14.85
284.843	81.41
285.058	34.3
285.274	1.54
285.489	-0.51
285.704	69.12
285.919	24.06
286.134	-16.9
286.349	48.64
286.564	26.11
286.779	110.08
286.995	-31.23
287.21	-18.94
287.425	24.06
287.64	9.73
287.855	17.92
288.07	-31.23
288.285	-2.56
288.5	7.68
288.715	44.54
288.93	32.26
289.145	81.41
289.36	15.87
289.575	13.82
289.79	75.26
290.004	-0.51
290.219	83.45
290.434	-59.9
290.649	17.92
290.864	-0.51
291.079	38.4
291.294	-23.04
291.509	130.56
291.724	65.02
291.938	48.64
292.153	44.54
292.368	-2.56
292.583	-0.51
292.798	28.16
293.012	-0.51
293.227	9.73
293.442	-14.85
293.657	40.45
293.871	17.92
294.086	75.26
294.301	95.74
294.516	89.6
294.73	26.11
294.945	17.92
295.16	36.35
295.374	73.21
295.589	7.68
295.804	-16.9
296.018	15.87
296.233	99.84
296.447	81.41
296.662	56.83
296.877	22.02
297.091	24.06
297.306	56.83
297.52	40.45
297.735	44.54
297.949	151.04
298.164	83.45
298.378	3.58
298.593	-0.51
298.807	3.58
299.022	79.36
299.236	79.36
299.451	-29.18
299.665	56.83
299.88	69.12
300.094	-25.09
300.309	42.5
300.523	81.41
300.737	110.08
300.952	108.03
301.166	-29.18
301.381	28.16
301.595	-12.8
301.809	65.02
302.024	38.4
302.238	-25.09
302.452	89.6
302.667	3.58
302.881	114.17
303.095	15.87
303.309	-57.86
303.524	15.87
303.738	-33.28
303.952	24.06
304.166	97.79
304.381	1.54
304.595	99.84
304.809	24.06
305.023	-14.85
305.237	-8.7
305.452	91.65
305.666	5.63
305.88	32.26
306.094	58.88
306.308	7.68
306.522	50.69
306.736	89.6
306.95	7.68
307.164	19.97
307.379	-6.66
307.593	91.65
307.807	11.78
308.021	19.97
308.235	40.45
308.449	-4.61
308.663	56.83
308.877	71.17
309.091	77.31
309.305	24.06
309.519	32.26
309.733	81.41
309.947	-31.23
310.161	97.79
310.374	122.37
310.588	73.21
310.802	-78.33
311.016	13.82
311.23	-0.51
311.444	-23.04
311.658	26.11
311.872	-0.51
312.085	73.21
312.299	-0.51
312.513	69.12
312.727	97.79
312.941	-0.51
313.154	42.5
313.368	-33.28
313.582	65.02
313.796	81.41
314.009	67.07
314.223	56.83
314.437	34.3
314.651	5.63
314.864	52.74
315.078	-20.99
315.292	89.6
315.505	-4.61
315.719	13.82
315.933	67.07
316.146	32.26
316.36	48.64
316.573	85.5
316.787	7.68
317.001	85.5
317.214	15.87
317.428	46.59
317.641	-57.86
317.855	40.45
318.068	24.06
318.282	28.16
318.495	7.68
318.709	36.35
318.922	3.58
319.136	87.55
319.349	56.83
319.563	11.78
319.776	36.35
319.99	40.45
320.203	42.5
320.417	75.26
320.63	56.83
320.843	73.21
321.057	9.73
321.27	19.97
321.483	81.41
321.697	116.22
321.91	-8.7
322.124	58.88
322.337	7.68
322.55	9.73
322.763	17.92
322.977	24.06
323.19	-39.42
323.403	7.68
323.617	44.54
323.83	40.45
324.043	91.65
324.256	24.06
324.469	-23.04
324.683	32.26
324.896	-33.28
325.109	81.41
325.322	9.73
325.535	85.5
325.748	85.5
325.962	1.54
326.175	32.26
326.388	9.73
326.601	93.69
326.814	52.74
327.027	-39.42
327.24	89.6
327.453	26.11
327.666	67.07
327.879	95.74
328.092	36.35
328.305	24.06
328.518	26.11
328.731	-10.75
328.944	24.06
329.157	48.64
329.37	48.64
329.583	52.74
329.796	110.08
330.009	36.35
330.222	22.02
330.435	50.69
330.648	34.3
330.861	48.64
331.073	7.68
331.286	32.26
331.499	7.68
331.712	-31.23
331.925	77.31
332.138	-23.04
332.35	11.78
332.563	48.64
332.776	42.5
332.989	-66.05
333.202	26.11
333.414	54.78
333.627	114.17
333.84	19.97
334.053	44.54
334.265	62.98
334.478	52.74
334.691	30.21
334.903	71.17
335.116	99.84
335.329	-16.9
335.541	65.02
335.754	120.32
335.966	-12.8
336.179	-6.66
336.392	26.11
336.604	85.5
336.817	13.82
337.029	40.45
337.242	42.5
337.454	81.41
337.667	58.88
337.88	48.64
338.092	34.3
338.305	75.26
338.517	83.45
338.729	44.54
338.942	81.41
339.154	24.06
339.367	-25.09
339.579	142.85
339.792	-0.51
340.004	40.45
340.217	-4.61
340.429	7.68
340.641	40.45
340.854	26.11
341.066	-29.18
341.278	19.97
341.491	173.57
341.703	-8.7
341.915	15.87
342.128	89.6
342.34	73.21
342.552	-27.14
342.764	65.02
342.977	44.54
343.189	62.98
343.401	87.55
343.613	-35.33
343.826	-16.9
344.038	26.11
344.25	91.65
344.462	52.74
344.674	15.87
344.886	97.79
345.099	75.26
345.311	-16.9
345.523	32.26
345.735	9.73
345.947	48.64
346.159	40.45
346.371	42.5
346.583	24.06
346.795	67.07
347.007	-31.23
347.219	19.97
347.431	54.78
347.643	-6.66
347.855	56.83
348.067	99.84
348.279	-27.14
348.491	36.35
348.703	83.45
348.915	13.82
349.127	83.45
349.339	42.5
349.551	52.74
349.763	26.11
349.975	-4.61
350.187	26.11
350.399	73.21
350.61	81.41
350.822	54.78
351.034	11.78
351.246	36.35
351.458	40.45
351.669	1.54
351.881	65.02
352.093	69.12
352.305	69.12
352.517	108.03
352.728	67.07
352.94	-8.7
353.152	97.79
353.363	19.97
353.575	97.79
353.787	32.26
353.999	15.87
354.21	69.12
354.422	60.93
354.633	32.26
354.845	69.12
355.057	77.31
355.268	17.92
355.48	-14.85
355.692	-35.33
355.903	56.83
356.115	97.79
356.326	5.63
356.538	50.69
356.749	73.21
356.961	52.74
357.172	-23.04
357.384	11.78
357.595	105.98
357.807	34.3
358.018	-25.09
358.23	40.45
358.441	105.98
358.653	32.26
358.864	73.21
359.075	-14.85
359.287	-4.61
359.498	110.08
359.709	54.78
359.921	-39.42
360.132	54.78
360.344	56.83
360.555	-16.9
360.766	110.08
360.977	22.02
361.189	85.5
361.4	60.93
361.611	-14.85
361.823	28.16
362.034	32.26
362.245	36.35
362.456	69.12
362.667	62.98
362.879	-37.38
363.09	73.21
363.301	11.78
363.512	69.12
363.723	32.26
363.935	19.97
364.146	58.88
364.357	26.11
364.568	-37.38
364.779	5.63
364.99	40.45
365.201	-8.7
365.412	83.45
365.623	28.16
365.834	77.31
366.045	69.12
366.256	17.92
366.467	97.79
366.678	17.92
366.889	81.41
367.1	26.11
367.311	46.59
367.522	56.83
367.733	54.78
367.944	-25.09
368.155	-16.9
368.366	105.98
368.577	60.93
368.788	122.37
368.999	-10.75
369.209	40.45
369.42	99.84
369.631	73.21
369.842	69.12
370.053	42.5
370.264	116.22
370.474	-33.28
370.685	124.41
370.896	56.83
371.107	71.17
371.317	17.92
371.528	112.13
371.739	73.21
371.95	103.93
372.16	44.54
372.371	28.16
372.582	50.69
372.792	108.03
373.003	67.07
373.214	48.64
373.424	91.65
373.635	42.5
373.846	26.11
374.056	-64
374.267	-8.7
374.477	75.26
374.688	40.45
374.898	81.41
375.109	1.54
375.319	73.21
375.53	30.21
375.74	-2.56
375.951	42.5
376.161	24.06
376.372	22.02
376.582	60.93
376.793	-16.9
377.003	9.73
377.214	32.26
377.424	52.74
377.635	-45.57
377.845	40.45
378.055	142.85
378.266	36.35
378.476	-23.04
378.686	26.11
378.897	91.65
379.107	85.5
379.317	32.26
379.528	-14.85
379.738	101.89
379.948	1.54
380.158	95.74
380.369	91.65
380.579	81.41
380.789	52.74
380.999	83.45
381.21	28.16
381.42	128.51
381.63	-4.61
381.84	32.26
382.05	7.68
382.261	71.17
382.471	81.41
382.681	38.4
382.891	48.64
383.101	56.83
383.311	17.92
383.521	105.98
383.731	120.32
383.941	48.64
384.151	73.21
384.361	40.45
384.571	-8.7
384.781	101.89
384.991	30.21
385.201	77.31
385.411	65.02
385.621	93.69
385.831	116.22
386.041	122.37
386.251	81.41
386.461	183.81
386.671	159.23
386.881	142.85
387.091	22.02
387.301	99.84
387.511	-0.51
387.72	97.79
387.93	101.89
388.14	-90.62
388.35	83.45
388.56	7.68
388.769	132.61
388.979	42.5
389.189	-35.33
389.399	58.88
389.609	95.74
389.818	116.22
390.028	44.54
390.238	17.92
390.447	54.78
390.657	54.78
390.867	50.69
391.076	52.74
391.286	17.92
391.496	7.68
391.705	44.54
391.915	97.79
392.125	32.26
392.334	56.83
392.544	95.74
392.753	99.84
392.963	17.92
393.172	85.5
393.382	52.74
393.591	114.17
393.801	58.88
394.01	122.37
394.22	-20.99
394.429	142.85
394.639	101.89
394.848	58.88
395.058	93.69
395.267	65.02
395.477	171.52
395.686	93.69
395.895	93.69
396.105	140.8
396.314	95.74
396.524	97.79
396.733	36.35
396.942	198.14
397.152	19.97
397.361	58.88
397.57	153.09
397.78	75.26
397.989	52.74
398.198	134.65
398.407	126.46
398.617	134.65
398.826	81.41
399.035	69.12
399.244	116.22
399.453	58.88
399.663	122.37
399.872	112.13
400.081	110.08
400.29	148.99
400.499	87.55
400.708	148.99
400.917	130.56
401.127	93.69
401.336	91.65
401.545	105.98
401.754	81.41
401.963	48.64
402.172	140.8
402.381	130.56
402.59	101.89
402.799	85.5
403.008	159.23
403.217	81.41
403.426	89.6
403.635	62.98
403.844	198.14
404.053	85.5
404.262	155.13
404.471	189.95
404.68	118.27
404.888	148.99
405.097	81.41
405.306	85.5
405.515	169.47
405.724	222.72
405.933	171.52
406.142	161.28
406.35	241.15
406.559	165.37
406.768	62.98
406.977	130.56
407.185	187.9
407.394	179.71
407.603	214.52
407.812	220.67
408.02	220.67
408.229	192
408.438	165.37
408.646	222.72
408.855	202.24
409.064	218.62
409.272	282.11
409.481	294.4
409.69	253.44
409.898	310.78
410.107	359.93
410.315	267.77
410.524	298.49
410.733	404.99
410.941	376.31
411.15	398.84
411.358	382.46
411.567	419.32
411.775	302.59
411.984	396.79
412.192	400.89
412.401	388.6
412.609	458.23
412.818	499.19
413.026	435.71
413.234	433.66
413.443	466.42
413.651	458.23
413.86	476.66
414.068	597.49
414.276	677.37
414.485	607.73
414.693	648.69
414.901	755.19
415.11	691.7
415.318	636.41
415.526	763.38
415.734	714.23
415.943	763.38
416.151	790
416.359	708.09
416.567	808.44
416.776	828.92
416.984	867.83
417.192	990.7
417.4	941.55
417.608	878.07
417.817	1011.18
418.025	1015.28
418.233	1089.01
418.441	1043.95
418.649	1228.27
418.857	1228.27
419.065	1277.42
419.273	1228.27
419.481	1328.62
419.689	1353.2
419.897	1424.87
420.105	1506.79
420.313	1566.18
420.521	1596.9
420.729	1590.76
420.937	1517.03
421.145	1744.36
421.353	1758.69
421.561	1826.28
421.769	2002.4
421.977	1957.35
422.185	1981.92
422.393	2115.04
422.601	2088.42
422.809	2178.53
423.017	2184.67
423.224	2203.1
423.432	2366.94
423.64	2461.15
423.848	2678.23
424.056	2571.74
424.263	2704.85
424.471	2743.77
424.679	2901.46
424.887	2921.94
425.094	2981.33
425.302	3081.68
425.51	3276.24
425.718	3395.02
425.925	3216.85
426.133	3315.15
426.341	3538.38
426.548	3700.17
426.756	3802.57
426.964	3890.63
427.171	4072.9
427.379	4195.78
427.586	4398.52
427.794	4296.13
428.001	4601.27
428.209	4689.34
428.417	4638.14
428.624	5060.02
428.832	5021.11
429.039	5113.27
429.247	5117.36
429.454	5481.9
429.662	5819.82
429.869	5627.31
430.076	5774.76
430.284	5721.51
430.491	5983.65
430.699	6204.83
430.906	6129.06
431.114	6354.34
431.321	6495.64
431.528	6585.76
431.736	7097.75
431.943	7644.56
432.15	7183.76
432.358	7413.13
432.565	7761.29
432.772	7835.02
432.979	8234.37
433.187	8396.16
433.394	8297.86
433.601	8996.21
433.808	8926.58
434.016	8918.39
434.223	9231.73
434.43	9844.07
434.637	9608.56
434.844	10171.75
435.052	10173.8
435.259	10186.08
435.466	10345.83
435.673	10245.48
435.88	10851.67
436.087	11527.5
436.294	11468.11
436.501	11435.35
436.708	11517.26
436.915	11779.4
437.122	12457.28
437.329	12533.06
437.537	12756.29
437.743	12811.58
437.95	12696.89
438.157	13671.73
438.364	13890.86
438.571	14132.52
438.778	13958.44
438.985	15361.3
439.192	14820.64
439.399	15015.19
439.606	15027.48
439.813	15922.45
440.02	16637.19
440.227	16364.81
440.433	16026.89
440.64	17102.08
440.847	16674.05
441.054	17100.03
441.261	18277.61
441.467	18193.64
441.674	18087.15
441.881	19047.65
442.088	19152.09
442.294	19072.22
442.501	19096.8
442.708	19856.59
442.914	20618.44
443.121	21345.47
443.328	20530.37
443.534	22199.47
443.741	21765.3
443.948	21544.12
444.154	23094.43
444.361	23014.56
444.568	22822.05
444.774	22742.18
444.981	23217.31
445.187	24095.89
445.394	24601.74
445.6	24480.91
445.807	26905.7
446.013	25814.13
446.22	26436.72
446.426	27282.53
446.633	27735.13
446.839	28597.32
447.046	27343.97
447.252	28814.41
447.459	29049.92
447.665	28570.7
447.871	29914.17
448.078	31429.66
448.284	29561.92
448.491	30770.22
448.697	31812.63
448.903	32355.35
449.11	32777.23
449.316	32240.66
449.522	32529.42
449.728	33104.9
449.935	33711.1
450.141	33858.56
450.347	34802.67
450.553	33199.11
450.76	34010.11
450.966	35167.21
451.172	34989.03
451.378	35593.18
451.584	34937.83
451.791	36074.46
451.997	35824.61
452.203	36197.34
452.409	36543.44
452.615	36369.37
452.821	34952.17
453.027	34331.64
453.233	36412.37
453.44	34976.75
453.646	35511.27
453.852	35398.63
454.058	36393.94
454.264	35116.01
454.47	36049.88
454.676	34872.3
454.882	36047.83
455.088	33139.72
455.294	33747.97
455.5	34499.57
455.705	34448.37
455.911	33278.98
456.117	32572.43
456.323	32017.43
456.529	30467.12
456.735	32019.48
456.941	31118.37
457.147	30798.89
457.352	29723.71
457.558	29748.28
457.764	29230.15
457.97	29004.87
458.176	28214.35
458.381	28216.4
458.587	26954.85
458.793	26903.65
458.999	25980.02
459.204	27540.57
459.41	26741.86
459.616	25042.05
459.821	25214.08
460.027	24927.36
460.233	24689.8
460.438	23319.71
460.644	23598.23
460.85	22240.43
461.055	22101.17
461.261	21957.81
461.466	20534.47
461.672	19889.36
461.878	21177.53
462.083	20030.67
462.289	19619.03
462.494	19389.66
462.7	18382.06
462.905	17808.62
463.111	18500.84
463.316	18779.36
463.522	18355.43
463.727	18257.13
463.932	18238.7
464.138	18132.2
464.343	18207.98
464.549	17616.12
464.754	18195.69
464.959	17958.13
465.165	17939.69
465.37	17323.26
465.575	16866.56
465.781	17380.6
465.986	17476.85
466.191	16815.36
466.397	16739.58
466.602	15846.67
466.807	16358.66
467.012	16440.58
467.218	16383.24
467.423	16094.47
467.628	16393.48
467.833	17032.44
