Data from USB4F104151__251__14-45-54-641.txt Node

Date: Thu Mar 13 14:45:54 EDT 2025
User: louis
Spectrometer: USB4F10415
Trigger mode: 4
Integration Time (sec): 2.000000E-2
Scans to average: 1
Electric dark correction enabled: true
Nonlinearity correction enabled: false
Boxcar width: 0
XAxis mode: Wavelengths
Number of Pixels in Spectrum: 3648
>>>>>Begin Spectral Data<<<<<
178.204	-106.84
178.424	-106.84
178.644	-106.84
178.864	-47.44
179.084	-115.03
179.304	44.71
179.524	-33.11
179.744	-2.39
179.964	24.23
180.184	5.8
180.404	-16.73
180.624	-14.68
180.844	40.62
181.064	-80.21
181.283	7.85
181.503	-6.49
181.723	30.38
181.943	18.09
182.163	7.85
182.383	54.95
182.602	28.33
182.822	48.81
183.042	46.76
183.262	46.76
183.482	38.57
183.701	46.76
183.921	3.75
184.141	18.09
184.361	104.11
184.58	-35.16
184.8	22.19
185.02	16.04
185.239	13.99
185.459	77.48
185.679	54.95
185.898	-51.54
186.118	30.38
186.338	11.95
186.557	28.33
186.777	-2.39
186.997	22.19
187.216	-2.39
187.436	42.67
187.655	7.85
187.875	-31.06
188.095	16.04
188.314	63.15
188.534	67.24
188.753	-8.53
188.973	1.71
189.192	22.19
189.412	85.67
189.631	-24.92
189.851	7.85
190.07	130.73
190.29	-6.49
190.509	79.53
190.729	1.71
190.948	71.34
191.168	73.39
191.387	57
191.607	46.76
191.826	26.28
192.045	-37.2
192.265	-10.58
192.484	38.57
192.704	24.23
192.923	-26.96
193.142	18.09
193.362	3.75
193.581	28.33
193.8	67.24
194.02	71.34
194.239	81.58
194.458	73.39
194.678	-31.06
194.897	-31.06
195.116	-18.77
195.335	20.14
195.555	30.38
195.774	1.71
195.993	20.14
196.212	42.67
196.432	24.23
196.651	-35.16
196.87	3.75
197.089	57
197.308	112.3
197.528	-0.34
197.747	-0.34
197.966	63.15
198.185	-26.96
198.404	38.57
198.623	24.23
198.842	46.76
199.062	16.04
199.281	38.57
199.5	-10.58
199.719	57
199.938	38.57
200.157	-14.68
200.376	46.76
200.595	71.34
200.814	18.09
201.033	16.04
201.252	38.57
201.471	38.57
201.69	112.3
201.909	36.52
202.128	91.82
202.347	18.09
202.566	-16.73
202.785	20.14
203.004	13.99
203.223	63.15
203.442	69.29
203.661	5.8
203.879	16.04
204.098	-24.92
204.317	-10.58
204.536	-6.49
204.755	-0.34
204.974	59.05
205.193	71.34
205.411	61.1
205.63	28.33
205.849	71.34
206.068	5.8
206.287	16.04
206.505	40.62
206.724	-22.87
206.943	40.62
207.162	28.33
207.381	24.23
207.599	13.99
207.818	11.95
208.037	1.71
208.255	5.8
208.474	22.19
208.693	22.19
208.911	3.75
209.13	18.09
209.349	32.43
209.567	22.19
209.786	46.76
210.005	38.57
210.223	-45.4
210.442	30.38
210.661	63.15
210.879	-43.35
211.098	48.81
211.316	24.23
211.535	63.15
211.753	30.38
211.972	65.19
212.191	5.8
212.409	-8.53
212.628	-10.58
212.846	-76.12
213.065	71.34
213.283	34.47
213.502	24.23
213.72	57
213.938	71.34
214.157	36.52
214.375	5.8
214.594	46.76
214.812	106.15
215.031	36.52
215.249	-20.82
215.467	75.43
215.686	46.76
215.904	71.34
216.122	16.04
216.341	32.43
216.559	46.76
216.778	95.91
216.996	69.29
217.214	42.67
217.432	-47.44
217.651	38.57
217.869	30.38
218.087	67.24
218.306	22.19
218.524	24.23
218.742	-6.49
218.96	54.95
219.179	5.8
219.397	-18.77
219.615	61.1
219.833	22.19
220.051	16.04
220.27	11.95
220.488	20.14
220.706	38.57
220.924	3.75
221.142	-31.06
221.36	-33.11
221.578	-18.77
221.796	-39.25
222.015	104.11
222.233	67.24
222.451	57
222.669	40.62
222.887	50.86
223.105	13.99
223.323	-26.96
223.541	-16.73
223.759	32.43
223.977	42.67
224.195	5.8
224.413	79.53
224.631	106.15
224.849	3.75
225.067	32.43
225.285	13.99
225.503	13.99
225.721	-29.01
225.939	63.15
226.157	-16.73
226.375	32.43
226.592	-26.96
226.81	11.95
227.028	13.99
227.246	38.57
227.464	30.38
227.682	97.96
227.9	-18.77
228.117	71.34
228.335	5.8
228.553	3.75
228.771	-8.53
228.989	38.57
229.206	-12.63
229.424	-10.58
229.642	-2.39
229.86	-45.4
230.077	48.81
230.295	46.76
230.513	46.76
230.731	9.9
230.948	95.91
231.166	38.57
231.384	26.28
231.601	32.43
231.819	122.54
232.037	38.57
232.254	-59.73
232.472	28.33
232.689	-10.58
232.907	-2.39
233.125	-2.39
233.342	16.04
233.56	-29.01
233.777	7.85
233.995	38.57
234.213	38.57
234.43	42.67
234.648	63.15
234.865	30.38
235.083	24.23
235.3	57
235.518	79.53
235.735	9.9
235.953	71.34
236.17	50.86
236.388	26.28
236.605	13.99
236.822	59.05
237.04	40.62
237.257	54.95
237.475	-22.87
237.692	81.58
237.909	30.38
238.127	48.81
238.344	13.99
238.562	26.28
238.779	-26.96
238.996	30.38
239.214	34.47
239.431	77.48
239.648	24.23
239.865	5.8
240.083	38.57
240.3	18.09
240.517	-39.25
240.735	38.57
240.952	81.58
241.169	71.34
241.386	26.28
241.603	-31.06
241.821	-59.73
242.038	48.81
242.255	1.71
242.472	-0.34
242.689	50.86
242.907	97.96
243.124	34.47
243.341	48.81
243.558	-16.73
243.775	-14.68
243.992	-43.35
244.209	-10.58
244.426	81.58
244.643	38.57
244.86	-2.39
245.078	106.15
245.295	22.19
245.512	46.76
245.729	-33.11
245.946	40.62
246.163	1.71
246.38	13.99
246.597	48.81
246.814	-33.11
247.031	22.19
247.248	32.43
247.464	34.47
247.681	-6.49
247.898	11.95
248.115	-6.49
248.332	18.09
248.549	63.15
248.766	30.38
248.983	138.92
249.2	63.15
249.417	30.38
249.633	42.67
249.85	87.72
250.067	-47.44
250.284	-82.26
250.501	57
250.717	104.11
250.934	-51.54
251.151	-37.2
251.368	26.28
251.585	120.49
251.801	1.71
252.018	18.09
252.235	44.71
252.451	1.71
252.668	26.28
252.885	13.99
253.102	-26.96
253.318	-14.68
253.535	-6.49
253.752	122.54
253.968	-4.44
254.185	7.85
254.401	5.8
254.618	-16.73
254.835	75.43
255.051	69.29
255.268	40.62
255.484	-0.34
255.701	7.85
255.917	79.53
256.134	-6.49
256.351	54.95
256.567	52.91
256.784	-2.39
257	26.28
257.217	18.09
257.433	26.28
257.65	24.23
257.866	-22.87
258.082	30.38
258.299	16.04
258.515	32.43
258.732	30.38
258.948	79.53
259.165	26.28
259.381	7.85
259.597	32.43
259.814	-4.44
260.03	54.95
260.246	-8.53
260.463	-10.58
260.679	1.71
260.895	38.57
261.112	20.14
261.328	-37.2
261.544	67.24
261.761	57
261.977	81.58
262.193	-8.53
262.409	89.77
262.626	57
262.842	75.43
263.058	16.04
263.274	26.28
263.49	54.95
263.707	65.19
263.923	104.11
264.139	-18.77
264.355	13.99
264.571	-10.58
264.787	1.71
265.004	28.33
265.22	40.62
265.436	7.85
265.652	-18.77
265.868	34.47
266.084	3.75
266.3	-10.58
266.516	-8.53
266.732	93.87
266.948	-4.44
267.164	11.95
267.38	-35.16
267.596	54.95
267.812	83.63
268.028	-6.49
268.244	57
268.46	71.34
268.676	-92.5
268.892	95.91
269.108	9.9
269.324	63.15
269.54	63.15
269.756	30.38
269.972	50.86
270.188	13.99
270.403	54.95
270.619	30.38
270.835	46.76
271.051	34.47
271.267	34.47
271.483	-0.34
271.698	1.71
271.914	85.67
272.13	1.71
272.346	7.85
272.562	81.58
272.777	46.76
272.993	-10.58
273.209	-31.06
273.425	32.43
273.64	-47.44
273.856	18.09
274.072	-35.16
274.287	40.62
274.503	57
274.719	18.09
274.934	7.85
275.15	48.81
275.366	104.11
275.581	-10.58
275.797	7.85
276.012	1.71
276.228	38.57
276.444	54.95
276.659	54.95
276.875	-10.58
277.09	24.23
277.306	-18.77
277.521	104.11
277.737	57
277.952	5.8
278.168	40.62
278.383	-69.97
278.599	3.75
278.814	-16.73
279.03	38.57
279.245	67.24
279.461	-14.68
279.676	34.47
279.892	16.04
280.107	-59.73
280.322	79.53
280.538	63.15
280.753	-8.53
280.969	24.23
281.184	9.9
281.399	44.71
281.615	-35.16
281.83	73.39
282.045	24.23
282.26	22.19
282.476	20.14
282.691	52.91
282.906	32.43
283.122	63.15
283.337	46.76
283.552	48.81
283.767	-18.77
283.983	112.3
284.198	-10.58
284.413	-14.68
284.628	3.75
284.843	54.95
285.058	26.28
285.274	-37.2
285.489	50.86
285.704	95.91
285.919	9.9
286.134	79.53
286.349	-10.58
286.564	32.43
286.779	22.19
286.995	-24.92
287.21	77.48
287.425	30.38
287.64	50.86
287.855	63.15
288.07	24.23
288.285	-31.06
288.5	30.38
288.715	54.95
288.93	73.39
289.145	71.34
289.36	30.38
289.575	83.63
289.79	77.48
290.004	54.95
290.219	71.34
290.434	-8.53
290.649	24.23
290.864	13.99
291.079	-37.2
291.294	-41.3
291.509	5.8
291.724	-0.34
291.938	-26.96
292.153	30.38
292.368	38.57
292.583	65.19
292.798	97.96
293.012	38.57
293.227	-41.3
293.442	63.15
293.657	38.57
293.871	130.73
294.086	-8.53
294.301	67.24
294.516	13.99
294.73	32.43
294.945	91.82
295.16	-8.53
295.374	32.43
295.589	110.25
295.804	48.81
296.018	71.34
296.233	-16.73
296.447	46.76
296.662	7.85
296.877	69.29
297.091	16.04
297.306	40.62
297.52	87.72
297.735	54.95
297.949	24.23
298.164	24.23
298.378	48.81
298.593	20.14
298.807	30.38
299.022	136.87
299.236	-0.34
299.451	-8.53
299.665	-6.49
299.88	-31.06
300.094	63.15
300.309	-10.58
300.523	32.43
300.737	36.52
300.952	-6.49
301.166	30.38
301.381	5.8
301.595	-10.58
301.809	-22.87
302.024	26.28
302.238	7.85
302.452	104.11
302.667	34.47
302.881	-10.58
303.095	38.57
303.309	7.85
303.524	52.91
303.738	54.95
303.952	28.33
304.166	54.95
304.381	11.95
304.595	83.63
304.809	-8.53
305.023	-2.39
305.237	-8.53
305.452	40.62
305.666	5.8
305.88	3.75
306.094	13.99
306.308	95.91
306.522	16.04
306.736	52.91
306.95	-6.49
307.164	16.04
307.379	-0.34
307.593	79.53
307.807	13.99
308.021	102.06
308.235	5.8
308.449	81.58
308.663	54.95
308.877	106.15
309.091	13.99
309.305	-8.53
309.519	-2.39
309.733	71.34
309.947	26.28
310.161	63.15
310.374	50.86
310.588	54.95
310.802	50.86
311.016	67.24
311.23	-29.01
311.444	-10.58
311.658	95.91
311.872	87.72
312.085	46.76
312.299	95.91
312.513	-33.11
312.727	22.19
312.941	-39.25
313.154	73.39
313.368	-37.2
313.582	20.14
313.796	7.85
314.009	46.76
314.223	5.8
314.437	9.9
314.651	-2.39
314.864	95.91
315.078	3.75
315.292	9.9
315.505	-18.77
315.719	1.71
315.933	26.28
316.146	30.38
316.36	63.15
316.573	73.39
316.787	-29.01
317.001	50.86
317.214	-12.63
317.428	63.15
317.641	-14.68
317.855	46.76
318.068	-24.92
318.282	24.23
318.495	28.33
318.709	57
318.922	16.04
319.136	95.91
319.349	16.04
319.563	46.76
319.776	-10.58
319.99	65.19
320.203	61.1
320.417	79.53
320.63	-16.73
320.843	83.63
321.057	110.25
321.27	9.9
321.483	30.38
321.697	32.43
321.91	-35.16
322.124	11.95
322.337	75.43
322.55	16.04
322.763	11.95
322.977	24.23
323.19	22.19
323.403	42.67
323.617	54.95
323.83	38.57
324.043	83.63
324.256	-10.58
324.469	-18.77
324.683	112.3
324.896	46.76
325.109	16.04
325.322	-8.53
325.535	5.8
325.748	34.47
325.962	-10.58
326.175	24.23
326.388	36.52
326.601	1.71
326.814	30.38
327.027	65.19
327.24	11.95
327.453	22.19
327.666	-18.77
327.879	112.3
328.092	83.63
328.305	30.38
328.518	-59.73
328.731	69.29
328.944	44.71
329.157	71.34
329.37	24.23
329.583	50.86
329.796	16.04
330.009	24.23
330.222	34.47
330.435	22.19
330.648	91.82
330.861	-20.82
331.073	46.76
331.286	61.1
331.499	44.71
331.712	16.04
331.925	-8.53
332.138	106.15
332.35	50.86
332.563	-22.87
332.776	73.39
332.989	-41.3
333.202	34.47
333.414	77.48
333.627	48.81
333.84	16.04
334.053	36.52
334.265	59.05
334.478	63.15
334.691	63.15
334.903	63.15
335.116	46.76
335.329	7.85
335.541	63.15
335.754	75.43
335.966	22.19
336.179	7.85
336.392	11.95
336.604	-4.44
336.817	87.72
337.029	-20.82
337.242	52.91
337.454	104.11
337.667	-2.39
337.88	77.48
338.092	95.91
338.305	71.34
338.517	30.38
338.729	63.15
338.942	67.24
339.154	-0.34
339.367	16.04
339.579	38.57
339.792	34.47
340.004	69.29
340.217	48.81
340.429	13.99
340.641	-10.58
340.854	-6.49
341.066	54.95
341.278	75.43
341.491	85.67
341.703	7.85
341.915	-51.54
342.128	73.39
342.34	48.81
342.552	46.76
342.764	-65.88
342.977	30.38
343.189	-10.58
343.401	87.72
343.613	32.43
343.826	42.67
344.038	22.19
344.25	50.86
344.462	-41.3
344.674	16.04
344.886	50.86
345.099	59.05
345.311	91.82
345.523	-18.77
345.735	-39.25
345.947	44.71
346.159	42.67
346.371	79.53
346.583	-2.39
346.795	22.19
347.007	38.57
347.219	106.15
347.431	122.54
347.643	1.71
347.855	26.28
348.067	165.54
348.279	34.47
348.491	38.57
348.703	63.15
348.915	57
349.127	-35.16
349.339	52.91
349.551	-6.49
349.763	38.57
349.975	81.58
350.187	-2.39
350.399	46.76
350.61	73.39
350.822	-55.64
351.034	13.99
351.246	26.28
351.458	5.8
351.669	63.15
351.881	128.68
352.093	67.24
352.305	24.23
352.517	16.04
352.728	13.99
352.94	73.39
353.152	-41.3
353.363	-8.53
353.575	63.15
353.787	77.48
353.999	81.58
354.21	48.81
354.422	7.85
354.633	26.28
354.845	40.62
355.057	24.23
355.268	57
355.48	79.53
355.692	54.95
355.903	9.9
356.115	-35.16
356.326	-8.53
356.538	65.19
356.749	38.57
356.961	30.38
357.172	46.76
357.384	57
357.595	155.3
357.807	16.04
358.018	16.04
358.23	22.19
358.441	67.24
358.653	46.76
358.864	22.19
359.075	7.85
359.287	75.43
359.498	59.05
359.709	89.77
359.921	-0.34
360.132	36.52
360.344	46.76
360.555	5.8
360.766	-0.34
360.977	42.67
361.189	114.34
361.4	75.43
361.611	9.9
361.823	106.15
362.034	63.15
362.245	5.8
362.456	71.34
362.667	81.58
362.879	5.8
363.09	-6.49
363.301	54.95
363.512	95.91
363.723	-35.16
363.935	26.28
364.146	24.23
364.357	38.57
364.568	32.43
364.779	-26.96
364.99	81.58
365.201	54.95
365.412	46.76
365.623	89.77
365.834	46.76
366.045	59.05
366.256	46.76
366.467	79.53
366.678	24.23
366.889	85.67
367.1	7.85
367.311	71.34
367.522	36.52
367.733	59.05
367.944	38.57
368.155	-24.92
368.366	116.39
368.577	87.72
368.788	63.15
368.999	5.8
369.209	71.34
369.42	79.53
369.631	100.01
369.842	54.95
370.053	-14.68
370.264	59.05
370.474	-14.68
370.685	34.47
370.896	34.47
371.107	89.77
371.317	61.1
371.528	-10.58
371.739	46.76
371.95	65.19
372.16	75.43
372.371	18.09
372.582	44.71
372.792	34.47
373.003	69.29
373.214	106.15
373.424	87.72
373.635	63.15
373.846	85.67
374.056	46.76
374.267	18.09
374.477	112.3
374.688	-2.39
374.898	9.9
375.109	13.99
375.319	87.72
375.53	42.67
375.74	106.15
375.951	5.8
376.161	50.86
376.372	97.96
376.582	63.15
376.793	-2.39
377.003	54.95
377.214	-31.06
377.424	93.87
377.635	69.29
377.845	102.06
378.055	95.91
378.266	-8.53
378.476	-0.34
378.686	40.62
378.897	91.82
379.107	20.14
379.317	52.91
379.528	57
379.738	63.15
379.948	26.28
380.158	77.48
380.369	93.87
380.579	112.3
380.789	-51.54
380.999	-10.58
381.21	24.23
381.42	91.82
381.63	50.86
381.84	87.72
382.05	65.19
382.261	97.96
382.471	91.82
382.681	77.48
382.891	79.53
383.101	-0.34
383.311	-2.39
383.521	83.63
383.731	108.2
383.941	63.15
384.151	71.34
384.361	26.28
384.571	138.92
384.781	54.95
384.991	73.39
385.201	81.58
385.411	26.28
385.621	28.33
385.831	13.99
386.041	83.63
386.251	63.15
386.461	24.23
386.671	-10.58
386.881	50.86
387.091	73.39
387.301	13.99
387.511	71.34
387.72	104.11
387.93	22.19
388.14	5.8
388.35	46.76
388.56	-2.39
388.769	79.53
388.979	120.49
389.189	40.62
389.399	79.53
389.609	116.39
389.818	91.82
390.028	5.8
390.238	52.91
390.447	-2.39
390.657	54.95
390.867	104.11
391.076	42.67
391.286	87.72
391.496	-10.58
391.705	40.62
391.915	65.19
392.125	48.81
392.334	50.86
392.544	13.99
392.753	32.43
392.963	32.43
393.172	69.29
393.382	87.72
393.591	81.58
393.801	38.57
394.01	128.68
394.22	87.72
394.429	30.38
394.639	16.04
394.848	114.34
395.058	3.75
395.267	73.39
395.477	128.68
395.686	112.3
395.895	13.99
396.105	143.02
396.314	120.49
396.524	46.76
396.733	79.53
396.942	128.68
397.152	67.24
397.361	138.92
397.57	128.68
397.78	38.57
397.989	112.3
398.198	106.15
398.407	87.72
398.617	83.63
398.826	112.3
399.035	87.72
399.244	120.49
399.453	95.91
399.663	153.26
399.872	153.26
400.081	87.72
400.29	30.38
400.499	-18.77
400.708	138.92
400.917	40.62
401.127	108.2
401.336	128.68
401.545	169.64
401.754	83.63
401.963	116.39
402.172	32.43
402.381	89.77
402.59	67.24
402.799	108.2
403.008	91.82
403.217	114.34
403.426	97.96
403.635	50.86
403.844	204.46
404.053	157.35
404.262	104.11
404.471	136.87
404.68	173.74
404.888	183.98
405.097	79.53
405.306	122.54
405.515	57
405.724	190.12
405.933	149.16
406.142	153.26
406.35	165.54
406.559	171.69
406.768	194.22
406.977	155.3
407.185	186.02
407.394	175.78
407.603	173.74
407.812	149.16
408.02	226.98
408.229	177.83
408.438	251.56
408.646	120.49
408.855	212.65
409.064	243.37
409.272	204.46
409.481	251.56
409.69	233.13
409.898	226.98
410.107	163.5
410.315	317.09
410.524	243.37
410.733	280.23
410.941	263.85
411.15	276.13
411.358	384.68
411.567	313
411.775	323.24
411.984	401.06
412.192	280.23
412.401	358.05
412.609	399.01
412.818	442.02
413.026	378.53
413.234	480.93
413.443	425.64
413.651	380.58
413.86	409.25
414.068	495.27
414.276	519.84
414.485	523.94
414.693	513.7
414.901	636.58
415.11	554.66
415.318	521.89
415.526	636.58
415.734	622.24
415.943	673.44
416.151	630.43
416.359	702.11
416.567	734.88
416.776	718.5
416.984	771.74
417.192	853.66
417.4	843.42
417.608	906.91
417.817	898.72
418.025	890.53
418.233	990.88
418.441	917.15
418.649	935.58
418.857	1035.93
419.065	1070.75
419.273	1042.07
419.481	1154.71
419.689	1253.02
419.897	1218.2
420.105	1222.3
420.313	1167
420.521	1328.79
420.729	1367.7
420.937	1425.04
421.145	1492.63
421.353	1517.2
421.561	1580.69
421.769	1611.41
421.977	1685.14
422.185	1662.61
422.393	1758.86
422.601	1859.21
422.809	1969.8
423.017	1916.56
423.224	2027.15
423.432	2111.11
423.64	2012.81
423.848	2238.09
424.056	2131.59
424.263	2365.06
424.471	2465.41
424.679	2262.66
424.887	2516.61
425.094	2561.67
425.302	2666.11
425.51	2676.35
425.718	2791.04
425.925	2795.14
426.133	2909.82
426.341	3192.44
426.548	3118.72
426.756	3180.15
426.964	3268.22
427.171	3440.25
427.379	3499.64
427.586	3565.17
427.794	3628.66
428.001	3851.89
428.209	4032.11
428.417	4077.16
428.624	4306.54
428.832	4204.14
429.039	4249.19
429.247	4300.39
429.454	4638.31
429.662	4961.89
429.869	4675.17
430.076	4896.35
430.284	4718.18
430.491	4994.65
430.699	5359.19
430.906	5305.95
431.114	5396.06
431.321	5480.02
431.528	5633.62
431.736	6051.41
431.943	6350.41
432.15	6207.05
432.358	6239.82
432.565	6350.41
432.772	6485.58
432.979	6798.91
433.187	6962.75
433.394	7009.86
433.601	7484.98
433.808	7448.12
434.016	7530.04
434.223	7724.6
434.43	8345.13
434.637	7820.85
434.844	8650.28
435.052	8734.25
435.259	8752.68
435.466	8689.19
435.673	8644.13
435.88	9162.27
436.087	9704.98
436.294	9692.69
436.501	9578.01
436.708	9614.87
436.915	10173.97
437.122	10503.69
437.329	10409.48
437.537	10767.88
437.743	11015.68
437.95	10835.46
438.157	11376.13
438.364	11828.73
438.571	11785.72
438.778	11802.1
438.985	13182.43
439.192	12424.69
439.399	12697.06
439.606	12735.98
439.813	13315.55
440.02	14153.17
440.227	13694.43
440.433	13798.87
440.64	14247.38
440.847	14177.75
441.054	14601.68
441.261	15373.76
441.467	15168.96
441.674	15457.73
441.881	15885.75
442.088	16074.17
442.294	15840.7
442.501	16213.43
442.708	16842.15
442.914	17257.89
443.121	18132.37
443.328	17651.1
443.534	18869.64
443.741	18068.89
443.948	17896.86
444.154	19101.06
444.361	19178.89
444.568	19461.51
444.774	19330.44
444.981	19504.51
445.187	20127.1
445.394	20890.99
445.6	20770.16
445.807	22959.44
446.013	21697.89
446.22	22283.61
446.426	22820.17
446.633	23166.28
446.839	24233.27
447.046	23074.12
447.252	24413.49
447.459	24407.35
447.665	24460.6
447.871	25107.76
448.078	26414.36
448.284	25199.91
448.491	26223.9
448.697	27127.05
448.903	27362.57
449.11	28030.21
449.316	27237.64
449.522	27755.78
449.728	28689.65
449.935	28790
450.141	28718.32
450.347	29699.3
450.553	28507.38
450.76	28777.72
450.966	29756.64
451.172	29568.23
451.378	30584.02
451.584	29789.41
451.791	30586.07
451.997	30301.4
452.203	30991.57
452.409	31003.86
452.615	30682.33
452.821	29646.05
453.027	29426.92
453.233	30891.22
453.44	29601
453.646	30067.94
453.852	30184.67
454.058	30989.52
454.264	30110.94
454.47	30588.12
454.676	29709.54
454.882	30883.03
455.088	27938.05
455.294	28982.51
455.5	29320.43
455.705	29529.32
455.911	28241.15
456.117	27892.99
456.323	27503.88
456.529	26156.32
456.735	27114.76
456.941	26381.59
457.147	26131.74
457.352	25318.7
457.558	25115.95
457.764	25025.84
457.97	24632.63
458.176	24145.21
458.381	24499.51
458.587	23090.51
458.793	23135.56
458.999	21824.86
459.204	23377.22
459.41	22828.37
459.616	21378.4
459.821	21362.02
460.027	21288.29
460.233	20639.09
460.438	20129.14
460.644	20018.55
460.85	18969.99
461.055	18947.47
461.261	19148.17
461.466	17554.85
461.672	16876.97
461.878	18333.07
462.083	17259.94
462.289	16836.01
462.494	16528.81
462.7	15748.54
462.905	15209.92
463.111	16182.71
463.316	16084.41
463.522	15711.67
463.727	15758.78
463.932	15793.59
464.138	15644.09
464.343	15513.02
464.549	15388.1
464.754	15621.56
464.959	15412.67
465.165	15357.38
465.37	14702.03
465.575	14214.61
465.781	14904.78
465.986	15048.13
466.191	14317.01
466.397	14175.7
466.602	13714.91
466.807	13958.61
467.012	14095.83
467.218	13872.6
467.423	13784.54
467.628	13923.8
467.833	14669.26
468.038	14044.63
468.244	13661.66
