Data from USB4F104151__230__14-45-37-506.txt Node

Date: Thu Mar 13 14:45:37 EDT 2025
User: louis
Spectrometer: USB4F10415
Trigger mode: 4
Integration Time (sec): 2.000000E-2
Scans to average: 1
Electric dark correction enabled: true
Nonlinearity correction enabled: false
Boxcar width: 0
XAxis mode: Wavelengths
Number of Pixels in Spectrum: 3648
>>>>>Begin Spectral Data<<<<<
178.204	-105.3
178.424	-105.3
178.644	-105.3
178.864	-107.35
179.084	-90.96
179.304	15.53
179.524	23.72
179.744	-23.38
179.964	31.91
180.184	-41.81
180.404	-0.85
180.624	-35.67
180.844	13.48
181.064	-0.85
181.283	40.11
181.503	-62.29
181.723	40.11
181.943	-37.72
182.163	76.97
182.383	-13.14
182.602	85.16
182.822	38.06
183.042	105.64
183.262	29.87
183.482	56.49
183.701	-50
183.921	33.96
184.141	25.77
184.361	40.11
184.58	-29.52
184.8	85.16
185.02	-4.95
185.239	60.59
185.459	56.49
185.679	40.11
185.898	-2.9
186.118	89.26
186.338	64.68
186.557	31.91
186.777	-4.95
186.997	42.15
187.216	23.72
187.436	50.35
187.655	52.39
187.875	-9.05
188.095	-60.24
188.314	3.24
188.534	66.73
188.753	68.78
188.973	21.67
189.192	70.83
189.412	7.34
189.631	7.34
189.851	-0.85
190.07	38.06
190.29	25.77
190.509	-15.19
190.729	36.01
190.948	33.96
191.168	107.69
191.387	31.91
191.607	-43.86
191.826	48.3
192.045	44.2
192.265	46.25
192.484	62.63
192.704	74.92
192.923	11.43
193.142	105.64
193.362	117.93
193.581	105.64
193.8	23.72
194.02	91.31
194.239	17.58
194.458	33.96
194.678	27.82
194.897	52.39
195.116	-19.29
195.335	113.83
195.555	83.11
195.774	7.34
195.993	50.35
196.212	9.39
196.432	33.96
196.651	-19.29
196.87	-35.67
197.089	81.07
197.308	70.83
197.528	72.87
197.747	-66.39
197.966	-31.57
198.185	81.07
198.404	81.07
198.623	79.02
198.842	-0.85
199.062	23.72
199.281	83.11
199.5	7.34
199.719	103.59
199.938	128.17
200.157	23.72
200.376	3.24
200.595	17.58
200.814	11.43
201.033	60.59
201.252	56.49
201.471	27.82
201.69	70.83
201.909	-4.95
202.128	105.64
202.347	74.92
202.566	15.53
202.785	-33.62
203.004	25.77
203.223	25.77
203.442	5.29
203.661	-15.19
203.879	-9.05
204.098	64.68
204.317	-7
204.536	89.26
204.755	-41.81
204.974	97.45
205.193	-13.14
205.411	64.68
205.63	74.92
205.849	-4.95
206.068	64.68
206.287	60.59
206.505	15.53
206.724	60.59
206.943	33.96
207.162	-29.52
207.381	81.07
207.599	-4.95
207.818	33.96
208.037	72.87
208.255	-7
208.474	101.55
208.693	130.22
208.911	-13.14
209.13	42.15
209.349	76.97
209.567	44.2
209.786	81.07
210.005	1.19
210.223	87.21
210.442	33.96
210.661	113.83
210.879	-0.85
211.098	17.58
211.316	-17.24
211.535	76.97
211.753	89.26
211.972	48.3
212.191	3.24
212.409	25.77
212.628	-0.85
212.846	33.96
213.065	85.16
213.283	66.73
213.502	72.87
213.72	42.15
213.938	56.49
214.157	115.88
214.375	97.45
214.594	23.72
214.812	15.53
215.031	97.45
215.249	1.19
215.467	-0.85
215.686	31.91
215.904	72.87
216.122	-9.05
216.341	17.58
216.559	50.35
216.778	52.39
216.996	62.63
217.214	1.19
217.432	17.58
217.651	19.63
217.869	60.59
218.087	-23.38
218.306	130.22
218.524	107.69
218.742	-54.1
218.96	31.91
219.179	27.82
219.397	89.26
219.615	93.35
219.833	66.73
220.051	-33.62
220.27	-4.95
220.488	97.45
220.706	-13.14
220.924	-23.38
221.142	44.2
221.36	25.77
221.578	33.96
221.796	-43.86
222.015	9.39
222.233	-25.43
222.451	13.48
222.669	79.02
222.887	89.26
223.105	23.72
223.323	33.96
223.541	1.19
223.759	103.59
223.977	44.2
224.195	40.11
224.413	56.49
224.631	15.53
224.849	31.91
225.067	103.59
225.285	-7
225.503	56.49
225.721	-9.05
225.939	60.59
226.157	58.54
226.375	64.68
226.592	-4.95
226.81	79.02
227.028	50.35
227.246	15.53
227.464	3.24
227.682	31.91
227.9	-74.58
228.117	56.49
228.335	-9.05
228.553	23.72
228.771	17.58
228.989	56.49
229.206	62.63
229.424	-17.24
229.642	48.3
229.86	23.72
230.077	-4.95
230.295	64.68
230.513	70.83
230.731	58.54
230.948	162.98
231.166	19.63
231.384	-13.14
231.601	68.78
231.819	72.87
232.037	15.53
232.254	-27.48
232.472	89.26
232.689	-74.58
232.907	19.63
233.125	11.43
233.342	29.87
233.56	-54.1
233.777	85.16
233.995	-7
234.213	52.39
234.43	81.07
234.648	-23.38
234.865	23.72
235.083	40.11
235.3	-9.05
235.518	64.68
235.735	11.43
235.953	70.83
236.17	7.34
236.388	40.11
236.605	81.07
236.822	72.87
237.04	1.19
237.257	-0.85
237.475	5.29
237.692	-21.33
237.909	60.59
238.127	36.01
238.344	3.24
238.562	3.24
238.779	-50
238.996	64.68
239.214	64.68
239.431	64.68
239.648	44.2
239.865	40.11
240.083	105.64
240.3	42.15
240.517	23.72
240.735	-23.38
240.952	15.53
241.169	109.74
241.386	48.3
241.603	72.87
241.821	-21.33
242.038	38.06
242.255	25.77
242.472	17.58
242.689	50.35
242.907	9.39
243.124	27.82
243.341	-9.05
243.558	7.34
243.775	-0.85
243.992	-9.05
244.209	48.3
244.426	81.07
244.643	64.68
244.86	19.63
245.078	36.01
245.295	-25.43
245.512	70.83
245.729	25.77
245.946	50.35
246.163	83.11
246.38	60.59
246.597	40.11
246.814	64.68
247.031	62.63
247.248	38.06
247.464	3.24
247.681	52.39
247.898	-17.24
248.115	23.72
248.332	-15.19
248.549	15.53
248.766	83.11
248.983	31.91
249.2	58.54
249.417	23.72
249.633	64.68
249.85	-27.48
250.067	-54.1
250.284	42.15
250.501	15.53
250.717	9.39
250.934	-99.16
251.151	36.01
251.368	25.77
251.585	64.68
251.801	9.39
252.018	-33.62
252.235	56.49
252.451	40.11
252.668	52.39
252.885	115.88
253.102	15.53
253.318	33.96
253.535	44.2
253.752	-9.05
253.968	9.39
254.185	-7
254.401	44.2
254.618	40.11
254.835	21.67
255.051	48.3
255.268	7.34
255.484	15.53
255.701	7.34
255.917	48.3
256.134	-86.87
256.351	52.39
256.567	72.87
256.784	42.15
257	-33.62
257.217	48.3
257.433	7.34
257.65	81.07
257.866	81.07
258.082	58.54
258.299	-39.76
258.515	-25.43
258.732	-21.33
258.948	15.53
259.165	1.19
259.381	17.58
259.597	31.91
259.814	-17.24
260.03	-9.05
260.246	40.11
260.463	62.63
260.679	76.97
260.895	44.2
261.112	64.68
261.328	31.91
261.544	-29.52
261.761	81.07
261.977	13.48
262.193	23.72
262.409	48.3
262.626	97.45
262.842	48.3
263.058	56.49
263.274	42.15
263.49	44.2
263.707	23.72
263.923	66.73
264.139	64.68
264.355	-17.24
264.571	99.5
264.787	81.07
265.004	76.97
265.22	60.59
265.436	3.24
265.652	-45.91
265.868	-13.14
266.084	40.11
266.3	66.73
266.516	91.31
266.732	72.87
266.948	66.73
267.164	58.54
267.38	52.39
267.596	81.07
267.812	31.91
268.028	40.11
268.244	-15.19
268.46	46.25
268.676	-25.43
268.892	107.69
269.108	-31.57
269.324	-25.43
269.54	-47.96
269.756	33.96
269.972	42.15
270.188	-47.96
270.403	-17.24
270.619	93.35
270.835	-17.24
271.051	36.01
271.267	31.91
271.483	25.77
271.698	74.92
271.914	-23.38
272.13	42.15
272.346	9.39
272.562	-23.38
272.777	27.82
272.993	-39.76
273.209	15.53
273.425	52.39
273.64	1.19
273.856	1.19
274.072	-9.05
274.287	40.11
274.503	-50
274.719	70.83
274.934	105.64
275.15	-21.33
275.366	29.87
275.581	7.34
275.797	48.3
276.012	23.72
276.228	19.63
276.444	-41.81
276.659	83.11
276.875	-64.34
277.09	27.82
277.306	15.53
277.521	72.87
277.737	23.72
277.952	62.63
278.168	7.34
278.383	-0.85
278.599	-41.81
278.814	66.73
279.03	81.07
279.245	56.49
279.461	42.15
279.676	97.45
279.892	-17.24
280.107	11.43
280.322	7.34
280.538	87.21
280.753	-50
280.969	40.11
281.184	-15.19
281.399	50.35
281.615	-13.14
281.83	36.01
282.045	-47.96
282.26	5.29
282.476	60.59
282.691	97.45
282.906	11.43
283.122	76.97
283.337	-0.85
283.552	68.78
283.767	-31.57
283.983	91.31
284.198	3.24
284.413	72.87
284.628	31.91
284.843	64.68
285.058	31.91
285.274	44.2
285.489	23.72
285.704	25.77
285.919	-17.24
286.134	15.53
286.349	56.49
286.564	-56.15
286.779	113.83
286.995	17.58
287.21	7.34
287.425	62.63
287.64	9.39
287.855	93.35
288.07	31.91
288.285	-21.33
288.5	27.82
288.715	76.97
288.93	74.92
289.145	-0.85
289.36	29.87
289.575	-66.39
289.79	89.26
290.004	11.43
290.219	21.67
290.434	19.63
290.649	-7
290.864	48.3
291.079	-54.1
291.294	40.11
291.509	-23.38
291.724	3.24
291.938	40.11
292.153	72.87
292.368	-7
292.583	17.58
292.798	-9.05
293.012	81.07
293.227	42.15
293.442	33.96
293.657	9.39
293.871	54.44
294.086	-37.72
294.301	87.21
294.516	27.82
294.73	-13.14
294.945	-31.57
295.16	64.68
295.374	42.15
295.589	99.5
295.804	25.77
296.018	19.63
296.233	113.83
296.447	5.29
296.662	-0.85
296.877	3.24
297.091	105.64
297.306	31.91
297.52	13.48
297.735	31.91
297.949	40.11
298.164	11.43
298.378	81.07
298.593	1.19
298.807	11.43
299.022	42.15
299.236	36.01
299.451	-39.76
299.665	21.67
299.88	52.39
300.094	46.25
300.309	56.49
300.523	17.58
300.737	3.24
300.952	64.68
301.166	50.35
301.381	29.87
301.595	-17.24
301.809	29.87
302.024	9.39
302.238	-29.52
302.452	11.43
302.667	7.34
302.881	81.07
303.095	64.68
303.309	81.07
303.524	72.87
303.738	40.11
303.952	-37.72
304.166	15.53
304.381	-90.96
304.595	-13.14
304.809	-0.85
305.023	44.2
305.237	-9.05
305.452	81.07
305.666	11.43
305.88	33.96
306.094	42.15
306.308	-29.52
306.522	48.3
306.736	48.3
306.95	36.01
307.164	-17.24
307.379	11.43
307.593	97.45
307.807	-17.24
308.021	70.83
308.235	31.91
308.449	-29.52
308.663	89.26
308.877	91.31
309.091	46.25
309.305	64.68
309.519	-54.1
309.733	-23.38
309.947	-50
310.161	72.87
310.374	44.2
310.588	56.49
310.802	68.78
311.016	1.19
311.23	25.77
311.444	60.59
311.658	17.58
311.872	-4.95
312.085	25.77
312.299	70.83
312.513	62.63
312.727	76.97
312.941	-0.85
313.154	42.15
313.368	27.82
313.582	-4.95
313.796	29.87
314.009	23.72
314.223	31.91
314.437	42.15
314.651	72.87
314.864	-9.05
315.078	-37.72
315.292	-9.05
315.505	-23.38
315.719	-25.43
315.933	1.19
316.146	105.64
316.36	83.11
316.573	19.63
316.787	44.2
317.001	-0.85
317.214	23.72
317.428	54.44
317.641	31.91
317.855	42.15
318.068	7.34
318.282	40.11
318.495	93.35
318.709	44.2
318.922	9.39
319.136	56.49
319.349	33.96
319.563	72.87
319.776	25.77
319.99	48.3
320.203	-19.29
320.417	-39.76
320.63	72.87
320.843	72.87
321.057	17.58
321.27	74.92
321.483	17.58
321.697	44.2
321.91	27.82
322.124	56.49
322.337	27.82
322.55	11.43
322.763	-17.24
322.977	29.87
323.19	15.53
323.403	19.63
323.617	15.53
323.83	89.26
324.043	7.34
324.256	31.91
324.469	-25.43
324.683	48.3
324.896	-11.09
325.109	48.3
325.322	48.3
325.535	15.53
325.748	-45.91
325.962	-9.05
326.175	36.01
326.388	89.26
326.601	52.39
326.814	38.06
327.027	5.29
327.24	44.2
327.453	-17.24
327.666	64.68
327.879	23.72
328.092	23.72
328.305	-56.15
328.518	-68.44
328.731	31.91
328.944	-66.39
329.157	81.07
329.37	48.3
329.583	85.16
329.796	89.26
330.009	60.59
330.222	29.87
330.435	50.35
330.648	23.72
330.861	99.5
331.073	9.39
331.286	48.3
331.499	33.96
331.712	38.06
331.925	17.58
332.138	-2.9
332.35	44.2
332.563	52.39
332.776	109.74
332.989	85.16
333.202	17.58
333.414	40.11
333.627	44.2
333.84	64.68
334.053	23.72
334.265	15.53
334.478	23.72
334.691	-0.85
334.903	33.96
335.116	-7
335.329	91.31
335.541	17.58
335.754	40.11
335.966	-25.43
336.179	85.16
336.392	52.39
336.604	7.34
336.817	23.72
337.029	111.78
337.242	46.25
337.454	-31.57
337.667	40.11
337.88	33.96
338.092	-17.24
338.305	19.63
338.517	1.19
338.729	68.78
338.942	105.64
339.154	9.39
339.367	-25.43
339.579	115.88
339.792	-74.58
340.004	72.87
340.217	-7
340.429	66.73
340.641	-43.86
340.854	27.82
341.066	27.82
341.278	58.54
341.491	58.54
341.703	56.49
341.915	-27.48
342.128	54.44
342.34	-0.85
342.552	56.49
342.764	40.11
342.977	-54.1
343.189	-29.52
343.401	91.31
343.613	15.53
343.826	19.63
344.038	72.87
344.25	40.11
344.462	9.39
344.674	93.35
344.886	74.92
345.099	27.82
345.311	56.49
345.523	-62.29
345.735	-9.05
345.947	93.35
346.159	-9.05
346.371	72.87
346.583	25.77
346.795	83.11
347.007	66.73
347.219	40.11
347.431	17.58
347.643	31.91
347.855	-58.2
348.067	93.35
348.279	17.58
348.491	76.97
348.703	58.54
348.915	23.72
349.127	48.3
349.339	48.3
349.551	-0.85
349.763	70.83
349.975	97.45
350.187	66.73
350.399	81.07
350.61	50.35
350.822	-23.38
351.034	58.54
351.246	-19.29
351.458	64.68
351.669	40.11
351.881	64.68
352.093	122.02
352.305	66.73
352.517	-17.24
352.728	42.15
352.94	44.2
353.152	44.2
353.363	54.44
353.575	58.54
353.787	33.96
353.999	31.91
354.21	72.87
354.422	48.3
354.633	72.87
354.845	66.73
355.057	38.06
355.268	-2.9
355.48	87.21
355.692	50.35
355.903	42.15
356.115	-15.19
356.326	15.53
356.538	60.59
356.749	1.19
356.961	15.53
357.172	15.53
357.384	33.96
357.595	109.74
357.807	31.91
358.018	-25.43
358.23	74.92
358.441	105.64
358.653	-15.19
358.864	-21.33
359.075	50.35
359.287	15.53
359.498	107.69
359.709	60.59
359.921	38.06
360.132	23.72
360.344	3.24
360.555	17.58
360.766	56.49
360.977	31.91
361.189	109.74
361.4	119.98
361.611	36.01
361.823	76.97
362.034	52.39
362.245	7.34
362.456	81.07
362.667	33.96
362.879	-4.95
363.09	17.58
363.301	89.26
363.512	-41.81
363.723	101.55
363.935	15.53
364.146	107.69
364.357	1.19
364.568	48.3
364.779	-15.19
364.99	54.44
365.201	-2.9
365.412	23.72
365.623	56.49
365.834	74.92
366.045	-13.14
366.256	42.15
366.467	115.88
366.678	9.39
366.889	-0.85
367.1	46.25
367.311	7.34
367.522	36.01
367.733	58.54
367.944	27.82
368.155	56.49
368.366	56.49
368.577	97.45
368.788	19.63
368.999	15.53
369.209	17.58
369.42	83.11
369.631	72.87
369.842	44.2
370.053	72.87
370.264	15.53
370.474	56.49
370.685	23.72
370.896	72.87
371.107	7.34
371.317	44.2
371.528	58.54
371.739	48.3
371.95	83.11
372.16	7.34
372.371	31.91
372.582	74.92
372.792	-7
373.003	27.82
373.214	25.77
373.424	83.11
373.635	79.02
373.846	42.15
374.056	-23.38
374.267	50.35
374.477	64.68
374.688	44.2
374.898	21.67
375.109	113.83
375.319	11.43
375.53	68.78
375.74	38.06
375.951	62.63
376.161	76.97
376.372	68.78
376.582	17.58
376.793	95.4
377.003	64.68
377.214	-43.86
377.424	15.53
377.635	122.02
377.845	29.87
378.055	64.68
378.266	-64.34
378.476	64.68
378.686	81.07
378.897	58.54
379.107	23.72
379.317	31.91
379.528	-0.85
379.738	48.3
379.948	89.26
380.158	19.63
380.369	9.39
380.579	93.35
380.789	36.01
380.999	64.68
381.21	68.78
381.42	109.74
381.63	52.39
381.84	66.73
382.05	-50
382.261	93.35
382.471	79.02
382.681	93.35
382.891	25.77
383.101	68.78
383.311	40.11
383.521	23.72
383.731	68.78
383.941	81.07
384.151	113.83
384.361	5.29
384.571	-13.14
384.781	132.26
384.991	40.11
385.201	25.77
385.411	105.64
385.621	64.68
385.831	27.82
386.041	-0.85
386.251	1.19
386.461	103.59
386.671	52.39
386.881	50.35
387.091	31.91
387.301	87.21
387.511	-11.09
387.72	58.54
387.93	48.3
388.14	15.53
388.35	17.58
388.56	179.37
388.769	50.35
388.979	56.49
389.189	9.39
389.399	81.07
389.609	27.82
389.818	25.77
390.028	81.07
390.238	83.11
390.447	40.11
390.657	66.73
390.867	31.91
391.076	62.63
391.286	89.26
391.496	44.2
391.705	54.44
391.915	134.31
392.125	58.54
392.334	99.5
392.544	89.26
392.753	64.68
392.963	46.25
393.172	132.26
393.382	23.72
393.591	142.5
393.801	-13.14
394.01	89.26
394.22	66.73
394.429	25.77
394.639	48.3
394.848	99.5
395.058	42.15
395.267	72.87
395.477	83.11
395.686	93.35
395.895	72.87
396.105	162.98
396.314	72.87
396.524	70.83
396.733	3.24
396.942	85.16
397.152	83.11
397.361	48.3
397.57	31.91
397.78	52.39
397.989	115.88
398.198	105.64
398.407	79.02
398.617	83.11
398.826	99.5
399.035	42.15
399.244	97.45
399.453	107.69
399.663	-13.14
399.872	52.39
400.081	105.64
400.29	72.87
400.499	25.77
400.708	138.41
400.917	40.11
401.127	105.64
401.336	83.11
401.545	138.41
401.754	99.5
401.963	72.87
402.172	91.31
402.381	11.43
402.59	15.53
402.799	46.25
403.008	154.79
403.217	72.87
403.426	56.49
403.635	89.26
403.844	7.34
404.053	122.02
404.262	48.3
404.471	148.65
404.68	134.31
404.888	154.79
405.097	97.45
405.306	162.98
405.515	148.65
405.724	68.78
405.933	152.74
406.142	144.55
406.35	101.55
406.559	89.26
406.768	111.78
406.977	162.98
407.185	185.51
407.394	167.08
407.603	113.83
407.812	183.46
408.02	255.14
408.229	199.85
408.438	212.14
408.646	115.88
408.855	210.09
409.064	238.76
409.272	205.99
409.481	224.42
409.69	179.37
409.898	205.99
410.107	173.22
410.315	228.52
410.524	271.53
410.733	214.18
410.941	273.57
411.15	308.39
411.358	251.05
411.567	294.05
411.775	222.38
411.984	294.05
412.192	279.72
412.401	277.67
412.609	328.87
412.818	302.25
413.026	367.78
413.234	343.21
413.443	398.5
413.651	378.02
413.86	392.36
414.068	474.28
414.276	365.73
414.485	416.93
414.693	445.6
414.901	548
415.11	509.09
415.318	457.89
415.526	443.56
415.734	482.47
415.943	474.28
416.151	525.47
416.359	515.23
416.567	494.76
416.776	539.81
416.984	617.63
417.192	662.69
417.4	580.77
417.608	621.73
417.817	650.4
418.025	654.5
418.233	709.79
418.441	670.88
418.649	851.1
418.857	767.13
419.065	806.05
419.273	763.04
419.481	855.2
419.689	830.62
419.897	959.64
420.105	951.45
420.313	957.6
420.521	1057.95
420.729	1035.42
420.937	1019.04
421.145	1064.09
421.353	1139.87
421.561	1146.01
421.769	1352.85
421.977	1293.46
422.185	1279.13
422.393	1383.57
422.601	1406.1
422.809	1492.12
423.017	1465.49
423.224	1479.83
423.432	1617.04
423.64	1555.6
423.848	1784.98
424.056	1670.29
424.263	1787.02
424.471	1752.21
424.679	1909.9
424.887	1928.33
425.094	1838.22
425.302	1997.96
425.51	1948.81
425.718	2202.76
425.925	2208.9
426.133	2262.15
426.341	2391.17
426.548	2493.57
426.756	2409.61
426.964	2466.95
427.171	2636.93
427.379	2636.93
427.586	2679.94
427.794	2761.86
428.001	2974.85
428.209	3091.58
428.417	3062.91
428.624	3277.94
428.832	3300.47
429.039	3202.17
429.247	3040.38
429.454	3525.75
429.662	3863.66
429.869	3464.31
430.076	3779.7
430.284	3781.74
430.491	3703.92
430.699	4078.7
430.906	4152.43
431.114	4201.58
431.321	4263.02
431.528	4269.16
431.736	4555.88
431.943	4752.48
432.15	4676.71
432.358	4678.76
432.565	4914.27
432.772	4949.09
432.979	5276.76
433.187	5188.7
433.394	5346.39
433.601	5702.74
433.808	5669.97
434.016	5858.39
434.223	5995.6
434.43	6237.26
434.637	6245.45
434.844	6442.06
435.052	6603.85
435.259	6542.41
435.466	6519.88
435.673	6591.56
435.88	6874.18
436.087	7308.35
436.294	7396.41
436.501	7177.28
436.708	7320.63
436.915	7531.58
437.122	7900.21
437.329	7920.69
437.537	8158.25
437.743	8285.23
437.95	8301.61
438.157	8600.62
438.364	8815.65
438.571	8952.87
438.778	8909.86
438.985	9559.06
439.192	9276.45
439.399	9763.86
439.606	9387.04
439.813	10054.67
440.02	10494.99
440.227	10388.49
440.433	10308.62
440.64	10638.34
440.847	10675.21
441.054	10935.3
441.261	11410.43
441.467	11277.31
441.674	11387.9
441.881	12108.79
442.088	11860.98
442.294	12026.87
442.501	12153.84
442.708	12448.75
442.914	12897.25
443.121	13611.99
443.328	13386.72
443.534	13958.1
443.741	13525.98
443.948	13288.42
444.154	14257.11
444.361	14453.71
444.568	14386.13
444.774	14369.74
444.981	14410.7
445.187	14789.58
445.394	15549.37
445.6	15432.64
445.807	16692.14
446.013	16106.42
446.22	16251.83
446.426	17265.57
446.633	17435.55
446.839	17922.97
447.046	17212.32
447.252	18160.53
447.459	17984.41
447.665	18086.81
447.871	18803.6
448.078	19678.08
448.284	18594.7
448.491	19272.58
448.697	20122.49
448.903	20194.17
449.11	20366.2
449.316	20114.3
449.522	20427.63
449.728	20947.82
449.935	21125.99
450.141	21324.65
450.347	21650.27
450.553	20921.2
450.76	21670.75
450.966	22125.4
451.172	21646.18
451.378	22289.24
451.584	21810.01
451.791	22661.97
451.997	22534.99
452.203	22463.32
452.409	22721.36
452.615	22514.52
452.821	21918.56
453.027	21699.42
453.233	23114.57
453.44	22104.92
453.646	21922.65
453.852	22432.6
454.058	22737.74
454.264	21965.66
454.47	22721.36
454.676	22074.2
454.882	22774.61
455.088	20640.62
455.294	21175.14
455.5	21435.24
455.705	21699.42
455.911	20917.1
456.117	20614
456.323	20024.19
456.529	19381.12
456.735	19823.48
456.941	19186.57
457.147	19073.93
457.352	18324.37
457.558	18504.59
457.764	18531.22
457.97	18113.43
458.176	17462.18
458.381	17630.11
458.587	16894.89
458.793	16808.87
458.999	16047.03
459.204	17066.92
459.41	16380.85
459.616	15524.8
459.821	15561.66
460.027	15428.54
460.233	15592.38
460.438	14275.54
460.644	14515.15
460.85	14148.56
461.055	13853.66
461.261	13652.95
461.466	12643.31
461.672	12389.36
461.878	13087.71
462.083	12473.32
462.289	12133.36
462.494	12094.45
462.7	11371.52
462.905	11013.12
463.111	11672.57
463.316	11688.95
463.522	11398.14
463.727	11361.28
463.932	11381.76
464.138	11195.39
464.343	11500.54
464.549	10923.01
464.754	11416.57
464.959	11234.3
465.165	11062.27
465.37	10578.95
465.575	10562.57
465.781	10865.67
465.986	10984.45
466.191	10429.45
466.397	10134.54
466.602	9751.57
466.807	10183.7
467.012	9948.18
467.218	9987.09
467.423	9733.14
467.628	9919.51
467.833	10355.72
468.038	9862.16
468.244	9698.33
468.449	10234.89
468.654	9841.68
