Data from USB4F104151__289__14-46-26-834.txt Node

Date: Thu Mar 13 14:46:26 EDT 2025
User: louis
Spectrometer: USB4F10415
Trigger mode: 4
Integration Time (sec): 2.000000E-2
Scans to average: 1
Electric dark correction enabled: true
Nonlinearity correction enabled: false
Boxcar width: 0
XAxis mode: Wavelengths
Number of Pixels in Spectrum: 3648
>>>>>Begin Spectral Data<<<<<
178.204	-116.9
178.424	-116.9
178.644	-116.9
178.864	-100.52
179.084	-137.38
179.304	-26.79
179.524	-18.6
179.744	-30.89
179.964	-2.22
180.184	14.17
180.404	8.02
180.624	89.94
180.844	24.4
181.064	20.31
181.283	-57.51
181.503	5.97
181.723	-26.79
181.943	-45.23
182.163	38.74
182.383	-28.84
182.602	22.36
182.822	-4.27
183.042	38.74
183.262	14.17
183.482	63.32
183.701	-26.79
183.921	-47.27
184.141	-32.94
184.361	-49.32
184.58	12.12
184.8	16.21
185.02	-2.22
185.239	106.32
185.459	24.4
185.679	55.12
185.898	12.12
186.118	139.09
186.338	-100.52
186.557	69.46
186.777	46.93
186.997	5.97
187.216	69.46
187.436	91.99
187.655	-22.7
187.875	16.21
188.095	67.41
188.314	30.55
188.534	75.6
188.753	18.26
188.973	71.51
189.192	34.64
189.412	42.84
189.631	-2.22
189.851	1.88
190.07	26.45
190.29	10.07
190.509	5.97
190.729	-12.46
190.948	42.84
191.168	192.34
191.387	120.66
191.607	28.5
191.826	46.93
192.045	-32.94
192.265	1.88
192.484	14.17
192.704	-2.22
192.923	-57.51
193.142	96.08
193.362	75.6
193.581	42.84
193.8	87.89
194.02	-2.22
194.239	-59.56
194.458	10.07
194.678	79.7
194.897	-10.41
195.116	59.22
195.335	-4.27
195.555	-6.31
195.774	-34.99
195.993	71.51
196.212	77.65
196.432	65.36
196.651	38.74
196.87	26.45
197.089	98.13
197.308	30.55
197.528	38.74
197.747	32.6
197.966	-2.22
198.185	-14.51
198.404	48.98
198.623	-2.22
198.842	34.64
199.062	5.97
199.281	-18.6
199.5	30.55
199.719	46.93
199.938	16.21
200.157	34.64
200.376	53.08
200.595	65.36
200.814	69.46
201.033	30.55
201.252	40.79
201.471	-18.6
201.69	100.18
201.909	57.17
202.128	22.36
202.347	22.36
202.566	48.98
202.785	-43.18
203.004	1.88
203.223	120.66
203.442	3.93
203.661	-37.03
203.879	16.21
204.098	32.6
204.317	22.36
204.536	65.36
204.755	57.17
204.974	10.07
205.193	46.93
205.411	55.12
205.63	81.75
205.849	30.55
206.068	30.55
206.287	24.4
206.505	85.84
206.724	59.22
206.943	-18.6
207.162	1.88
207.381	38.74
207.599	30.55
207.818	-26.79
208.037	57.17
208.255	-0.17
208.474	5.97
208.693	38.74
208.911	22.36
209.13	26.45
209.349	30.55
209.567	38.74
209.786	67.41
210.005	-0.17
210.223	57.17
210.442	-26.79
210.661	-2.22
210.879	8.02
211.098	89.94
211.316	98.13
211.535	14.17
211.753	51.03
211.972	-4.27
212.191	-0.17
212.409	-10.41
212.628	55.12
212.846	3.93
213.065	48.98
213.283	118.61
213.502	34.64
213.72	8.02
213.938	77.65
214.157	-39.08
214.375	14.17
214.594	18.26
214.812	63.32
215.031	14.17
215.249	75.6
215.467	77.65
215.686	28.5
215.904	73.56
216.122	3.93
216.341	10.07
216.559	63.32
216.778	104.28
216.996	-10.41
217.214	40.79
217.432	34.64
217.651	-77.99
217.869	22.36
218.087	10.07
218.306	55.12
218.524	98.13
218.742	38.74
218.96	71.51
219.179	-18.6
219.397	-8.36
219.615	-34.99
219.833	32.6
220.051	16.21
220.27	112.47
220.488	18.26
220.706	87.89
220.924	-30.89
221.142	10.07
221.36	-30.89
221.578	63.32
221.796	16.21
222.015	51.03
222.233	-26.79
222.451	67.41
222.669	5.97
222.887	71.51
223.105	34.64
223.323	30.55
223.541	34.64
223.759	18.26
223.977	79.7
224.195	104.28
224.413	26.45
224.631	40.79
224.849	79.7
225.067	46.93
225.285	69.46
225.503	55.12
225.721	51.03
225.939	14.17
226.157	20.31
226.375	139.09
226.592	-32.94
226.81	87.89
227.028	106.32
227.246	46.93
227.464	28.5
227.682	87.89
227.9	24.4
228.117	-2.22
228.335	-55.47
228.553	-47.27
228.771	-6.31
228.989	75.6
229.206	98.13
229.424	71.51
229.642	-8.36
229.86	34.64
230.077	-28.84
230.295	-43.18
230.513	81.75
230.731	81.75
230.948	-20.65
231.166	71.51
231.384	5.97
231.601	67.41
231.819	65.36
232.037	46.93
232.254	59.22
232.472	104.28
232.689	73.56
232.907	30.55
233.125	36.69
233.342	-22.7
233.56	-16.55
233.777	73.56
233.995	22.36
234.213	89.94
234.43	44.88
234.648	24.4
234.865	46.93
235.083	22.36
235.3	-32.94
235.518	16.21
235.735	-18.6
235.953	98.13
236.17	-0.17
236.388	5.97
236.605	63.32
236.822	46.93
237.04	63.32
237.257	-51.37
237.475	32.6
237.692	67.41
237.909	-12.46
238.127	-24.75
238.344	14.17
238.562	63.32
238.779	-73.9
238.996	-18.6
239.214	71.51
239.431	48.98
239.648	-34.99
239.865	8.02
240.083	10.07
240.3	-16.55
240.517	18.26
240.735	32.6
240.952	94.04
241.169	42.84
241.386	104.28
241.603	85.84
241.821	26.45
242.038	22.36
242.255	40.79
242.472	46.93
242.689	83.8
242.907	46.93
243.124	44.88
243.341	-51.37
243.558	5.97
243.775	-37.03
243.992	-24.75
244.209	63.32
244.426	104.28
244.643	79.7
244.86	-14.51
245.078	-10.41
245.295	-4.27
245.512	55.12
245.729	-34.99
245.946	71.51
246.163	-12.46
246.38	8.02
246.597	16.21
246.814	81.75
247.031	40.79
247.248	16.21
247.464	-8.36
247.681	75.6
247.898	40.79
248.115	5.97
248.332	-32.94
248.549	100.18
248.766	98.13
248.983	69.46
249.2	3.93
249.417	38.74
249.633	-16.55
249.85	67.41
250.067	38.74
250.284	-24.75
250.501	-24.75
250.717	79.7
250.934	-4.27
251.151	65.36
251.368	-24.75
251.585	28.5
251.801	10.07
252.018	1.88
252.235	1.88
252.451	14.17
252.668	-12.46
252.885	155.47
253.102	22.36
253.318	-24.75
253.535	-20.65
253.752	-82.09
253.968	75.6
254.185	10.07
254.401	55.12
254.618	-10.41
254.835	-63.66
255.051	73.56
255.268	-10.41
255.484	100.18
255.701	-6.31
255.917	38.74
256.134	-6.31
256.351	18.26
256.567	67.41
256.784	-2.22
257	-18.6
257.217	38.74
257.433	55.12
257.65	79.7
257.866	1.88
258.082	30.55
258.299	-18.6
258.515	53.08
258.732	-10.41
258.948	18.26
259.165	42.84
259.381	-18.6
259.597	59.22
259.814	36.69
260.03	26.45
260.246	81.75
260.463	51.03
260.679	81.75
260.895	20.31
261.112	75.6
261.328	48.98
261.544	-32.94
261.761	143.19
261.977	38.74
262.193	-63.66
262.409	75.6
262.626	-32.94
262.842	48.98
263.058	-49.32
263.274	14.17
263.49	42.84
263.707	-8.36
263.923	40.79
264.139	-10.41
264.355	22.36
264.571	96.08
264.787	26.45
265.004	16.21
265.22	16.21
265.436	-32.94
265.652	38.74
265.868	57.17
266.084	-26.79
266.3	75.6
266.516	26.45
266.732	81.75
266.948	1.88
267.164	-20.65
267.38	16.21
267.596	-18.6
267.812	67.41
268.028	32.6
268.244	51.03
268.46	55.12
268.676	24.4
268.892	30.55
269.108	22.36
269.324	10.07
269.54	38.74
269.756	28.5
269.972	-24.75
270.188	63.32
270.403	-39.08
270.619	65.36
270.835	46.93
271.051	22.36
271.267	16.21
271.483	53.08
271.698	32.6
271.914	42.84
272.13	-8.36
272.346	-2.22
272.562	63.32
272.777	46.93
272.993	-32.94
273.209	18.26
273.425	14.17
273.64	14.17
273.856	-10.41
274.072	38.74
274.287	32.6
274.503	38.74
274.719	3.93
274.934	106.32
275.15	10.07
275.366	34.64
275.581	48.98
275.797	71.51
276.012	38.74
276.228	16.21
276.444	16.21
276.659	30.55
276.875	-0.17
277.09	-16.55
277.306	89.94
277.521	14.17
277.737	-47.27
277.952	100.18
278.168	57.17
278.383	16.21
278.599	-22.7
278.814	46.93
279.03	8.02
279.245	139.09
279.461	-0.17
279.676	87.89
279.892	-18.6
280.107	-34.99
280.322	18.26
280.538	55.12
280.753	14.17
280.969	46.93
281.184	51.03
281.399	65.36
281.615	24.4
281.83	153.43
282.045	-24.75
282.26	-4.27
282.476	38.74
282.691	-10.41
282.906	104.28
283.122	46.93
283.337	22.36
283.552	59.22
283.767	-6.31
283.983	-14.51
284.198	46.93
284.413	55.12
284.628	-47.27
284.843	34.64
285.058	102.23
285.274	-73.9
285.489	-41.13
285.704	71.51
285.919	-20.65
286.134	38.74
286.349	48.98
286.564	34.64
286.779	67.41
286.995	-18.6
287.21	-16.55
287.425	100.18
287.64	20.31
287.855	-10.41
288.07	-16.55
288.285	5.97
288.5	96.08
288.715	5.97
288.93	89.94
289.145	22.36
289.36	46.93
289.575	34.64
289.79	69.46
290.004	71.51
290.219	48.98
290.434	-51.37
290.649	22.36
290.864	16.21
291.079	-43.18
291.294	96.08
291.509	48.98
291.724	-32.94
291.938	-49.32
292.153	40.79
292.368	-0.17
292.583	-16.55
292.798	59.22
293.012	14.17
293.227	-22.7
293.442	91.99
293.657	3.93
293.871	22.36
294.086	-51.37
294.301	102.23
294.516	46.93
294.73	40.79
294.945	-2.22
295.16	5.97
295.374	10.07
295.589	73.56
295.804	-39.08
296.018	79.7
296.233	46.93
296.447	-28.84
296.662	46.93
296.877	1.88
297.091	-45.23
297.306	-39.08
297.52	69.46
297.735	106.32
297.949	-10.41
298.164	30.55
298.378	32.6
298.593	53.08
298.807	-10.41
299.022	65.36
299.236	16.21
299.451	38.74
299.665	10.07
299.88	48.98
300.094	40.79
300.309	63.32
300.523	22.36
300.737	81.75
300.952	-8.36
301.166	-20.65
301.381	-55.47
301.595	24.4
301.809	67.41
302.024	87.89
302.238	28.5
302.452	71.51
302.667	87.89
302.881	30.55
303.095	61.27
303.309	18.26
303.524	22.36
303.738	-18.6
303.952	-0.17
304.166	96.08
304.381	-43.18
304.595	32.6
304.809	42.84
305.023	16.21
305.237	38.74
305.452	-2.22
305.666	122.71
305.88	46.93
306.094	26.45
306.308	48.98
306.522	104.28
306.736	83.8
306.95	75.6
307.164	-26.79
307.379	32.6
307.593	87.89
307.807	1.88
308.021	46.93
308.235	32.6
308.449	28.5
308.663	-8.36
308.877	57.17
309.091	32.6
309.305	104.28
309.519	-20.65
309.733	22.36
309.947	-2.22
310.161	104.28
310.374	32.6
310.588	32.6
310.802	18.26
311.016	65.36
311.23	34.64
311.444	46.93
311.658	40.79
311.872	85.84
312.085	81.75
312.299	34.64
312.513	71.51
312.727	38.74
312.941	8.02
313.154	30.55
313.368	48.98
313.582	28.5
313.796	63.32
314.009	14.17
314.223	55.12
314.437	-18.6
314.651	16.21
314.864	10.07
315.078	-34.99
315.292	32.6
315.505	8.02
315.719	38.74
315.933	55.12
316.146	-0.17
316.36	-6.31
316.573	5.97
316.787	38.74
317.001	67.41
317.214	-10.41
317.428	40.79
317.641	89.94
317.855	71.51
318.068	-18.6
318.282	65.36
318.495	32.6
318.709	73.56
318.922	14.17
319.136	141.14
319.349	30.55
319.563	16.21
319.776	1.88
319.99	46.93
320.203	-10.41
320.417	91.99
320.63	57.17
320.843	61.27
321.057	91.99
321.27	55.12
321.483	10.07
321.697	30.55
321.91	46.93
322.124	48.98
322.337	106.32
322.55	24.4
322.763	48.98
322.977	22.36
323.19	57.17
323.403	32.6
323.617	55.12
323.83	40.79
324.043	-20.65
324.256	75.6
324.469	-0.17
324.683	32.6
324.896	-10.41
325.109	5.97
325.322	46.93
325.535	135
325.748	116.56
325.962	32.6
326.175	5.97
326.388	91.99
326.601	71.51
326.814	8.02
327.027	53.08
327.24	-24.75
327.453	-116.9
327.666	32.6
327.879	65.36
328.092	-26.79
328.305	30.55
328.518	8.02
328.731	22.36
328.944	46.93
329.157	53.08
329.37	59.22
329.583	24.4
329.796	96.08
330.009	-51.37
330.222	55.12
330.435	1.88
330.648	-51.37
330.861	-8.36
331.073	-43.18
331.286	-16.55
331.499	-49.32
331.712	-55.47
331.925	75.6
332.138	-16.55
332.35	14.17
332.563	14.17
332.776	48.98
332.989	10.07
333.202	5.97
333.414	48.98
333.627	-10.41
333.84	36.69
334.053	69.46
334.265	26.45
334.478	100.18
334.691	-26.79
334.903	46.93
335.116	-2.22
335.329	38.74
335.541	55.12
335.754	63.32
335.966	-0.17
336.179	16.21
336.392	-18.6
336.604	-12.46
336.817	24.4
337.029	22.36
337.242	22.36
337.454	91.99
337.667	83.8
337.88	5.97
338.092	100.18
338.305	22.36
338.517	102.23
338.729	102.23
338.942	26.45
339.154	51.03
339.367	26.45
339.579	132.95
339.792	28.5
340.004	38.74
340.217	-6.31
340.429	46.93
340.641	16.21
340.854	-16.55
341.066	-10.41
341.278	98.13
341.491	38.74
341.703	116.56
341.915	24.4
342.128	55.12
342.34	67.41
342.552	5.97
342.764	-80.04
342.977	28.5
343.189	30.55
343.401	18.26
343.613	63.32
343.826	71.51
344.038	-55.47
344.25	73.56
344.462	-10.41
344.674	8.02
344.886	12.12
345.099	65.36
345.311	1.88
345.523	46.93
345.735	5.97
345.947	28.5
346.159	34.64
346.371	3.93
346.583	22.36
346.795	65.36
347.007	20.31
347.219	30.55
347.431	112.47
347.643	114.52
347.855	-41.13
348.067	120.66
348.279	28.5
348.491	-10.41
348.703	73.56
348.915	22.36
349.127	16.21
349.339	32.6
349.551	10.07
349.763	14.17
349.975	-67.75
350.187	-10.41
350.399	69.46
350.61	38.74
350.822	-16.55
351.034	96.08
351.246	-41.13
351.458	-53.42
351.669	-0.17
351.881	16.21
352.093	112.47
352.305	51.03
352.517	63.32
352.728	102.23
352.94	46.93
353.152	14.17
353.363	42.84
353.575	96.08
353.787	14.17
353.999	155.47
354.21	71.51
354.422	24.4
354.633	73.56
354.845	40.79
355.057	32.6
355.268	91.99
355.48	40.79
355.692	48.98
355.903	55.12
356.115	48.98
356.326	26.45
356.538	40.79
356.749	-43.18
356.961	89.94
357.172	-26.79
357.384	36.69
357.595	124.76
357.807	24.4
358.018	55.12
358.23	26.45
358.441	14.17
358.653	98.13
358.864	16.21
359.075	104.28
359.287	55.12
359.498	81.75
359.709	8.02
359.921	-2.22
360.132	22.36
360.344	55.12
360.555	46.93
360.766	-26.79
360.977	51.03
361.189	42.84
361.4	1.88
361.611	65.36
361.823	75.6
362.034	-2.22
362.245	-14.51
362.456	46.93
362.667	73.56
362.879	18.26
363.09	63.32
363.301	161.62
363.512	-12.46
363.723	-59.56
363.935	59.22
364.146	63.32
364.357	12.12
364.568	79.7
364.779	48.98
364.99	63.32
365.201	14.17
365.412	34.64
365.623	22.36
365.834	83.8
366.045	96.08
366.256	57.17
366.467	-8.36
366.678	-82.09
366.889	34.64
367.1	55.12
367.311	55.12
367.522	14.17
367.733	16.21
367.944	67.41
368.155	51.03
368.366	48.98
368.577	89.94
368.788	106.32
368.999	32.6
369.209	79.7
369.42	79.7
369.631	100.18
369.842	26.45
370.053	1.88
370.264	14.17
370.474	28.5
370.685	-10.41
370.896	75.6
371.107	32.6
371.317	87.89
371.528	79.7
371.739	104.28
371.95	-14.51
372.16	81.75
372.371	-20.65
372.582	-34.99
372.792	30.55
373.003	-30.89
373.214	42.84
373.424	38.74
373.635	22.36
373.846	26.45
374.056	57.17
374.267	51.03
374.477	63.32
374.688	59.22
374.898	65.36
375.109	5.97
375.319	110.42
375.53	106.32
375.74	22.36
375.951	22.36
376.161	67.41
376.372	130.9
376.582	81.75
376.793	18.26
377.003	38.74
377.214	-2.22
377.424	34.64
377.635	1.88
377.845	22.36
378.055	110.42
378.266	65.36
378.476	18.26
378.686	38.74
378.897	57.17
379.107	14.17
379.317	51.03
379.528	59.22
379.738	51.03
379.948	-34.99
380.158	77.65
380.369	46.93
380.579	18.26
380.789	10.07
380.999	32.6
381.21	71.51
381.42	161.62
381.63	51.03
381.84	38.74
382.05	51.03
382.261	51.03
382.471	8.02
382.681	87.89
382.891	22.36
383.101	26.45
383.311	59.22
383.521	102.23
383.731	34.64
383.941	42.84
384.151	55.12
384.361	-30.89
384.571	-2.22
384.781	48.98
384.991	67.41
385.201	139.09
385.411	69.46
385.621	42.84
385.831	63.32
386.041	32.6
386.251	22.36
386.461	79.7
386.671	3.93
386.881	104.28
387.091	-32.94
387.301	63.32
387.511	104.28
387.72	104.28
387.93	-10.41
388.14	-65.71
388.35	-4.27
388.56	81.75
388.769	14.17
388.979	145.24
389.189	32.6
389.399	46.93
389.609	28.5
389.818	63.32
390.028	79.7
390.238	26.45
390.447	30.55
390.657	96.08
390.867	32.6
391.076	51.03
391.286	30.55
391.496	48.98
391.705	57.17
391.915	147.28
392.125	-2.22
392.334	5.97
392.544	75.6
392.753	112.47
392.963	24.4
393.172	91.99
393.382	30.55
393.591	98.13
393.801	98.13
394.01	79.7
394.22	91.99
394.429	73.56
394.639	3.93
394.848	87.89
395.058	51.03
395.267	81.75
395.477	65.36
395.686	108.37
395.895	116.56
396.105	212.82
396.314	71.51
396.524	79.7
396.733	73.56
396.942	48.98
397.152	63.32
397.361	169.81
397.57	132.95
397.78	65.36
397.989	81.75
398.198	108.37
398.407	81.75
398.617	14.17
398.826	132.95
399.035	22.36
399.244	106.32
399.453	135
399.663	126.8
399.872	46.93
400.081	14.17
400.29	147.28
400.499	83.8
400.708	79.7
400.917	67.41
401.127	55.12
401.336	14.17
401.545	110.42
401.754	42.84
401.963	71.51
402.172	75.6
402.381	32.6
402.59	112.47
402.799	57.17
403.008	87.89
403.217	30.55
403.426	96.08
403.635	79.7
403.844	114.52
404.053	87.89
404.262	130.9
404.471	186.19
404.68	110.42
404.888	104.28
405.097	59.22
405.306	130.9
405.515	10.07
405.724	141.14
405.933	141.14
406.142	104.28
406.35	143.19
406.559	145.24
406.768	202.58
406.977	202.58
407.185	165.71
407.394	163.67
407.603	145.24
407.812	112.47
408.02	175.95
408.229	139.09
408.438	155.47
408.646	153.43
408.855	135
409.064	98.13
409.272	153.43
409.481	163.67
409.69	196.43
409.898	204.63
410.107	210.77
410.315	208.72
410.524	229.2
410.733	309.07
410.941	237.39
411.15	218.96
411.358	300.88
411.567	317.26
411.775	276.31
411.984	309.07
412.192	268.11
412.401	352.08
412.609	327.5
412.818	272.21
413.026	280.4
413.234	343.89
413.443	350.03
413.651	288.59
413.86	313.17
414.068	474.96
414.276	448.33
414.485	436.05
414.693	436.05
414.901	452.43
415.11	515.92
415.318	472.91
415.526	501.58
415.734	450.38
415.943	575.31
416.151	610.12
416.359	548.68
416.567	530.25
416.776	513.87
416.984	638.8
417.192	644.94
417.4	653.13
417.608	626.51
417.817	653.13
418.025	685.9
418.233	681.8
418.441	747.34
418.649	816.97
418.857	902.98
419.065	923.46
419.273	907.08
419.481	900.94
419.689	907.08
419.897	1003.33
420.105	1070.92
420.313	984.9
420.521	1105.73
420.729	1060.68
420.937	1034.05
421.145	1212.23
421.353	1179.46
421.561	1251.14
421.769	1349.44
421.977	1369.92
422.185	1455.94
422.393	1365.82
422.601	1412.93
422.809	1531.71
423.017	1490.75
423.224	1496.89
423.432	1630.01
423.64	1607.48
423.848	1857.34
424.056	1648.44
424.263	1918.78
424.471	1789.75
424.679	1951.54
424.887	1972.02
425.094	1957.69
425.302	2152.24
425.51	2144.05
425.718	2320.18
425.925	2127.67
426.133	2236.21
426.341	2471.73
426.548	2496.3
426.756	2563.89
426.964	2627.37
427.171	2660.14
427.379	2770.73
427.586	2856.75
427.794	2742.06
428.001	3200.8
428.209	3239.72
428.417	3221.28
428.624	3383.07
428.832	3284.77
429.039	3473.18
429.247	3299.11
429.454	3641.12
429.662	3813.15
429.869	3639.07
430.076	3839.77
430.284	3749.66
430.491	3872.54
430.699	4120.34
430.906	4228.88
431.114	4224.79
431.321	4333.33
431.528	4554.51
431.736	4742.92
431.943	4896.52
432.15	4720.4
432.358	4820.75
432.565	5256.97
432.772	5003.02
432.979	5119.75
433.187	5472
433.394	5490.43
433.601	5797.63
433.808	5877.5
434.016	5742.33
434.223	6059.77
434.43	6432.5
434.637	6426.36
434.844	6655.73
435.052	6850.28
435.259	6686.45
435.466	6862.57
435.673	6807.28
435.88	7091.95
436.087	7597.79
436.294	7474.92
436.501	7202.54
436.708	7429.86
436.915	7898.84
437.122	8077.02
437.329	8062.68
437.537	8345.3
437.743	8427.22
437.95	8410.84
438.157	8824.53
438.364	9101
438.571	9053.9
438.778	9205.45
438.985	10032.83
439.192	9608.9
439.399	9993.92
439.606	9703.11
439.813	10378.93
440.02	10892.98
440.227	10792.62
440.433	10647.22
440.64	10942.13
440.847	10897.07
441.054	11091.63
441.261	12105.37
441.467	11736.74
441.674	12023.45
441.881	12297.88
442.088	12021.41
442.294	12197.53
442.501	12676.76
442.708	12951.18
442.914	13141.64
443.121	13971.07
443.328	13489.8
443.534	14468.73
443.741	13751.94
443.948	13790.85
444.154	14763.64
444.361	14962.29
444.568	14782.07
444.774	14763.64
444.981	14904.95
445.187	15367.79
445.394	15908.45
445.6	15935.07
445.807	17495.63
446.013	16451.16
446.22	16860.76
446.426	17546.83
446.633	17825.35
446.839	18511.42
447.046	17387.08
447.252	18554.43
447.459	18406.97
447.665	18443.84
447.871	19441.2
448.078	19928.61
448.284	19025.46
448.491	19852.84
448.697	20778.52
448.903	20651.55
449.11	21169.68
449.316	20610.59
449.522	21147.15
449.728	21296.66
449.935	21413.39
450.141	21669.39
450.347	22285.83
450.553	21310.99
450.76	21843.46
450.966	22640.12
451.172	22390.27
451.378	23006.71
451.584	22457.85
451.791	22810.11
451.997	22978.04
452.203	23346.67
452.409	23647.72
452.615	23340.53
452.821	22304.26
453.027	21939.72
453.233	23471.6
453.44	22210.05
453.646	22535.68
453.852	22816.25
454.058	23119.35
454.264	22771.19
454.47	23252.47
454.676	22121.99
454.882	23242.23
455.088	21433.87
455.294	21341.71
455.5	21997.06
455.705	22095.36
455.911	21208.59
456.117	20616.73
456.323	20598.3
456.529	19605.03
456.735	20483.61
456.941	19824.17
457.147	19568.17
457.352	18992.69
457.558	18904.63
457.764	19066.42
457.97	18505.27
458.176	18243.13
458.381	18064.96
458.587	17245.77
458.793	17251.92
458.999	16580.18
459.204	17626.7
459.41	17192.53
459.616	15951.46
459.821	16035.42
460.027	15871.59
460.233	15509.1
460.438	14900.85
460.644	14884.47
460.85	14349.95
461.055	14165.63
461.261	14014.08
461.466	12961.42
461.672	12613.27
461.878	13524.61
462.083	12809.87
462.289	12314.27
462.494	12301.98
462.7	11712.16
462.905	11507.37
463.111	11730.59
463.316	11796.13
463.522	11601.57
463.727	11404.97
463.932	11533.99
464.138	11390.63
464.343	11634.34
464.549	11271.85
464.754	11468.45
464.959	11490.98
465.165	11177.64
465.37	10847.92
465.575	10659.51
465.781	11073.2
465.986	11065
466.191	10618.55
466.397	10647.22
466.602	9795.26
466.807	10436.28
467.012	10428.09
467.218	9967.29
467.423	10229.43
467.628	10200.76
467.833	10794.67
