Data from USB4F104151__30__14-42-49-105.txt Node

Date: Thu Mar 13 14:42:49 EDT 2025
User: louis
Spectrometer: USB4F10415
Trigger mode: 4
Integration Time (sec): 2.000000E-2
Scans to average: 1
Electric dark correction enabled: true
Nonlinearity correction enabled: false
Boxcar width: 0
XAxis mode: Wavelengths
Number of Pixels in Spectrum: 3648
>>>>>Begin Spectral Data<<<<<
178.204	-80.55
178.424	-80.55
178.644	-80.55
178.864	-98.99
179.084	-125.61
179.304	38.23
179.524	44.37
179.744	-45.74
179.964	13.65
180.184	3.41
180.404	19.8
180.624	-10.92
180.844	-2.73
181.064	-4.78
181.283	5.46
181.503	-27.31
181.723	-33.45
181.943	-72.36
182.163	85.33
182.383	77.14
182.602	-10.92
182.822	-12.97
183.042	32.08
183.262	3.41
183.482	68.95
183.701	-29.35
183.921	77.14
184.141	-45.74
184.361	81.24
184.58	25.94
184.8	27.99
185.02	23.89
185.239	27.99
185.459	38.23
185.679	44.37
185.898	13.65
186.118	30.04
186.338	27.99
186.557	93.52
186.777	-45.74
186.997	-12.97
187.216	36.18
187.436	81.24
187.655	7.51
187.875	-43.69
188.095	56.66
188.314	77.14
188.534	93.52
188.753	17.75
188.973	3.41
189.192	60.76
189.412	27.99
189.631	60.76
189.851	15.7
190.07	77.14
190.29	23.89
190.509	56.66
190.729	-0.68
190.948	44.37
191.168	97.62
191.387	44.37
191.607	-2.73
191.826	-8.87
192.045	19.8
192.265	-17.07
192.484	32.08
192.704	3.41
192.923	36.18
193.142	17.75
193.362	3.41
193.581	34.13
193.8	-8.87
194.02	36.18
194.239	-8.87
194.458	48.47
194.678	3.41
194.897	21.85
195.116	-45.74
195.335	-15.02
195.555	54.61
195.774	30.04
195.993	21.85
196.212	-60.07
196.432	19.8
196.651	52.56
196.87	-8.87
197.089	109.91
197.308	-12.97
197.528	38.23
197.747	-8.87
197.966	64.85
198.185	152.92
198.404	-2.73
198.623	-2.73
198.842	46.42
199.062	79.19
199.281	52.56
199.5	15.7
199.719	-35.5
199.938	34.13
200.157	54.61
200.376	30.04
200.595	73.04
200.814	-12.97
201.033	11.61
201.252	-6.83
201.471	15.7
201.69	95.57
201.909	13.65
202.128	-23.21
202.347	32.08
202.566	60.76
202.785	64.85
203.004	-15.02
203.223	75.09
203.442	46.42
203.661	-2.73
203.879	-25.26
204.098	-2.73
204.317	36.18
204.536	56.66
204.755	-0.68
204.974	-2.73
205.193	77.14
205.411	40.28
205.63	30.04
205.849	23.89
206.068	44.37
206.287	-2.73
206.505	77.14
206.724	-12.97
206.943	44.37
207.162	19.8
207.381	13.65
207.599	44.37
207.818	42.32
208.037	68.95
208.255	-4.78
208.474	52.56
208.693	-21.16
208.911	66.9
209.13	5.46
209.349	27.99
209.567	40.28
209.786	-8.87
210.005	89.43
210.223	-25.26
210.442	32.08
210.661	85.33
210.879	36.18
211.098	32.08
211.316	27.99
211.535	-4.78
211.753	11.61
211.972	58.71
212.191	-19.11
212.409	46.42
212.628	75.09
212.846	19.8
213.065	-12.97
213.283	44.37
213.502	3.41
213.72	13.65
213.938	44.37
214.157	38.23
214.375	81.24
214.594	66.9
214.812	36.18
215.031	11.61
215.249	21.85
215.467	3.41
215.686	-51.88
215.904	105.81
216.122	46.42
216.341	5.46
216.559	32.08
216.778	134.48
216.996	40.28
217.214	79.19
217.432	-23.21
217.651	27.99
217.869	-21.16
218.087	50.52
218.306	-8.87
218.524	56.66
218.742	23.89
218.96	91.48
219.179	-4.78
219.397	-45.74
219.615	77.14
219.833	32.08
220.051	3.41
220.27	58.71
220.488	58.71
220.706	71
220.924	-29.35
221.142	36.18
221.36	19.8
221.578	71
221.796	77.14
222.015	44.37
222.233	25.94
222.451	79.19
222.669	52.56
222.887	54.61
223.105	60.76
223.323	11.61
223.541	11.61
223.759	75.09
223.977	19.8
224.195	-0.68
224.413	-8.87
224.631	32.08
224.849	1.37
225.067	-37.55
225.285	13.65
225.503	13.65
225.721	-41.64
225.939	-4.78
226.157	30.04
226.375	136.53
226.592	19.8
226.81	38.23
227.028	11.61
227.246	38.23
227.464	32.08
227.682	46.42
227.9	36.18
228.117	79.19
228.335	73.04
228.553	62.8
228.771	44.37
228.989	-41.64
229.206	36.18
229.424	44.37
229.642	-29.35
229.86	-0.68
230.077	36.18
230.295	9.56
230.513	126.29
230.731	19.8
230.948	40.28
231.166	52.56
231.384	-0.68
231.601	-21.16
231.819	97.62
232.037	-45.74
232.254	1.37
232.472	-4.78
232.689	-37.55
232.907	87.38
233.125	87.38
233.342	3.41
233.56	23.89
233.777	27.99
233.995	7.51
234.213	38.23
234.43	-21.16
234.648	-58.03
234.865	-25.26
235.083	-45.74
235.3	27.99
235.518	52.56
235.735	75.09
235.953	44.37
236.17	-35.5
236.388	11.61
236.605	-0.68
236.822	-41.64
237.04	44.37
237.257	-6.83
237.475	-43.69
237.692	68.95
237.909	60.76
238.127	19.8
238.344	56.66
238.562	19.8
238.779	-37.55
238.996	-2.73
239.214	-49.83
239.431	93.52
239.648	83.28
239.865	-37.55
240.083	93.52
240.3	-4.78
240.517	-19.11
240.735	75.09
240.952	95.57
241.169	60.76
241.386	46.42
241.603	23.89
241.821	-92.84
242.038	36.18
242.255	27.99
242.472	-21.16
242.689	11.61
242.907	-8.87
243.124	23.89
243.341	48.47
243.558	85.33
243.775	-45.74
243.992	-37.55
244.209	46.42
244.426	58.71
244.643	68.95
244.86	9.56
245.078	-12.97
245.295	-51.88
245.512	-62.12
245.729	-4.78
245.946	19.8
246.163	-23.21
246.38	3.41
246.597	19.8
246.814	40.28
247.031	-21.16
247.248	52.56
247.464	56.66
247.681	-0.68
247.898	44.37
248.115	-45.74
248.332	36.18
248.549	87.38
248.766	27.99
248.983	56.66
249.2	11.61
249.417	11.61
249.633	-0.68
249.85	52.56
250.067	-12.97
250.284	11.61
250.501	50.52
250.717	62.8
250.934	-0.68
251.151	38.23
251.368	11.61
251.585	46.42
251.801	9.56
252.018	71
252.235	103.76
252.451	44.37
252.668	-21.16
252.885	-4.78
253.102	-12.97
253.318	44.37
253.535	-17.07
253.752	-6.83
253.968	48.47
254.185	44.37
254.401	3.41
254.618	40.28
254.835	73.04
255.051	109.91
255.268	64.85
255.484	36.18
255.701	-17.07
255.917	77.14
256.134	-51.88
256.351	52.56
256.567	15.7
256.784	60.76
257	-33.45
257.217	56.66
257.433	85.33
257.65	19.8
257.866	66.9
258.082	46.42
258.299	36.18
258.515	13.65
258.732	-4.78
258.948	73.04
259.165	38.23
259.381	19.8
259.597	60.76
259.814	-31.4
260.03	-0.68
260.246	-25.26
260.463	3.41
260.679	99.67
260.895	13.65
261.112	54.61
261.328	15.7
261.544	-45.74
261.761	87.38
261.977	-8.87
262.193	-37.55
262.409	54.61
262.626	50.52
262.842	38.23
263.058	25.94
263.274	11.61
263.49	-19.11
263.707	21.85
263.923	15.7
264.139	5.46
264.355	-4.78
264.571	146.77
264.787	23.89
265.004	27.99
265.22	1.37
265.436	11.61
265.652	32.08
265.868	40.28
266.084	107.86
266.3	87.38
266.516	-0.68
266.732	-21.16
266.948	13.65
267.164	-4.78
267.38	30.04
267.596	73.04
267.812	-47.79
268.028	44.37
268.244	5.46
268.46	44.37
268.676	-21.16
268.892	7.51
269.108	19.8
269.324	77.14
269.54	-2.73
269.756	9.56
269.972	-51.88
270.188	62.8
270.403	-23.21
270.619	17.75
270.835	-29.35
271.051	97.62
271.267	-58.03
271.483	62.8
271.698	101.72
271.914	52.56
272.13	-21.16
272.346	21.85
272.562	15.7
272.777	36.18
272.993	46.42
273.209	-19.11
273.425	15.7
273.64	34.13
273.856	27.99
274.072	-2.73
274.287	-4.78
274.503	77.14
274.719	13.65
274.934	9.56
275.15	-21.16
275.366	38.23
275.581	52.56
275.797	46.42
276.012	-21.16
276.228	-4.78
276.444	19.8
276.659	44.37
276.875	44.37
277.09	-25.26
277.306	-19.11
277.521	-33.45
277.737	52.56
277.952	-4.78
278.168	50.52
278.383	27.99
278.599	15.7
278.814	23.89
279.03	-19.11
279.245	116.05
279.461	-10.92
279.676	46.42
279.892	-68.27
280.107	50.52
280.322	68.95
280.538	46.42
280.753	64.85
280.969	46.42
281.184	27.99
281.399	19.8
281.615	62.8
281.83	46.42
282.045	44.37
282.26	30.04
282.476	-4.78
282.691	40.28
282.906	32.08
283.122	27.99
283.337	-0.68
283.552	56.66
283.767	-27.31
283.983	52.56
284.198	-33.45
284.413	68.95
284.628	-17.07
284.843	87.38
285.058	68.95
285.274	36.18
285.489	13.65
285.704	58.71
285.919	52.56
286.134	52.56
286.349	44.37
286.564	-0.68
286.779	40.28
286.995	40.28
287.21	-10.92
287.425	62.8
287.64	-23.21
287.855	60.76
288.07	-19.11
288.285	71
288.5	27.99
288.715	36.18
288.93	-2.73
289.145	3.41
289.36	19.8
289.575	11.61
289.79	23.89
290.004	15.7
290.219	48.47
290.434	-12.97
290.649	21.85
290.864	23.89
291.079	19.8
291.294	44.37
291.509	-8.87
291.724	54.61
291.938	3.41
292.153	68.95
292.368	7.51
292.583	11.61
292.798	81.24
293.012	77.14
293.227	48.47
293.442	5.46
293.657	44.37
293.871	56.66
294.086	60.76
294.301	85.33
294.516	5.46
294.73	44.37
294.945	87.38
295.16	42.32
295.374	38.23
295.589	52.56
295.804	27.99
296.018	7.51
296.233	48.47
296.447	46.42
296.662	5.46
296.877	1.37
297.091	60.76
297.306	52.56
297.52	-45.74
297.735	-10.92
297.949	60.76
298.164	44.37
298.378	54.61
298.593	40.28
298.807	9.56
299.022	52.56
299.236	81.24
299.451	11.61
299.665	44.37
299.88	66.9
300.094	60.76
300.309	-12.97
300.523	54.61
300.737	7.51
300.952	23.89
301.166	17.75
301.381	11.61
301.595	64.85
301.809	-17.07
302.024	50.52
302.238	40.28
302.452	62.8
302.667	-4.78
302.881	58.71
303.095	60.76
303.309	95.57
303.524	27.99
303.738	19.8
303.952	11.61
304.166	27.99
304.381	-12.97
304.595	11.61
304.809	52.56
305.023	68.95
305.237	-74.41
305.452	68.95
305.666	32.08
305.88	77.14
306.094	3.41
306.308	34.13
306.522	-4.78
306.736	-2.73
306.95	27.99
307.164	19.8
307.379	-2.73
307.593	15.7
307.807	15.7
308.021	-4.78
308.235	15.7
308.449	3.41
308.663	62.8
308.877	91.48
309.091	54.61
309.305	71
309.519	-4.78
309.733	42.32
309.947	-35.5
310.161	27.99
310.374	126.29
310.588	68.95
310.802	-12.97
311.016	30.04
311.23	44.37
311.444	62.8
311.658	-21.16
311.872	93.52
312.085	95.57
312.299	56.66
312.513	-4.78
312.727	27.99
312.941	27.99
313.154	23.89
313.368	9.56
313.582	52.56
313.796	46.42
314.009	36.18
314.223	-31.4
314.437	-12.97
314.651	30.04
314.864	15.7
315.078	-12.97
315.292	38.23
315.505	-4.78
315.719	38.23
315.933	-17.07
316.146	32.08
316.36	-62.12
316.573	42.32
316.787	34.13
317.001	60.76
317.214	19.8
317.428	64.85
317.641	-19.11
317.855	-4.78
318.068	101.72
318.282	-17.07
318.495	87.38
318.709	85.33
318.922	-15.02
319.136	40.28
319.349	34.13
319.563	60.76
319.776	109.91
319.99	13.65
320.203	17.75
320.417	19.8
320.63	23.89
320.843	71
321.057	40.28
321.27	38.23
321.483	34.13
321.697	109.91
321.91	46.42
322.124	15.7
322.337	46.42
322.55	13.65
322.763	-12.97
322.977	-17.07
323.19	48.47
323.403	-4.78
323.617	103.76
323.83	95.57
324.043	-10.92
324.256	107.86
324.469	11.61
324.683	118.1
324.896	-58.03
325.109	60.76
325.322	15.7
325.535	95.57
325.748	11.61
325.962	46.42
326.175	62.8
326.388	46.42
326.601	83.28
326.814	75.09
327.027	5.46
327.24	103.76
327.453	-23.21
327.666	79.19
327.879	58.71
328.092	-27.31
328.305	73.04
328.518	36.18
328.731	-0.68
328.944	34.13
329.157	48.47
329.37	-49.83
329.583	-4.78
329.796	77.14
330.009	-37.55
330.222	21.85
330.435	79.19
330.648	44.37
330.861	21.85
331.073	77.14
331.286	25.94
331.499	38.23
331.712	19.8
331.925	-31.4
332.138	-51.88
332.35	60.76
332.563	-19.11
332.776	73.04
332.989	-2.73
333.202	3.41
333.414	3.41
333.627	19.8
333.84	93.52
334.053	46.42
334.265	60.76
334.478	-37.55
334.691	32.08
334.903	19.8
335.116	32.08
335.329	38.23
335.541	-21.16
335.754	87.38
335.966	89.43
336.179	3.41
336.392	3.41
336.604	-51.88
336.817	50.52
337.029	68.95
337.242	27.99
337.454	95.57
337.667	-31.4
337.88	68.95
338.092	97.62
338.305	62.8
338.517	68.95
338.729	73.04
338.942	77.14
339.154	-2.73
339.367	15.7
339.579	38.23
339.792	13.65
340.004	85.33
340.217	3.41
340.429	54.61
340.641	-37.55
340.854	25.94
341.066	44.37
341.278	79.19
341.491	36.18
341.703	30.04
341.915	-25.26
342.128	95.57
342.34	40.28
342.552	23.89
342.764	36.18
342.977	44.37
343.189	19.8
343.401	64.85
343.613	-2.73
343.826	40.28
344.038	-29.35
344.25	36.18
344.462	34.13
344.674	-68.27
344.886	58.71
345.099	60.76
345.311	58.71
345.523	36.18
345.735	-6.83
345.947	81.24
346.159	11.61
346.371	62.8
346.583	23.89
346.795	44.37
347.007	62.8
347.219	-12.97
347.431	19.8
347.643	60.76
347.855	-10.92
348.067	52.56
348.279	21.85
348.491	5.46
348.703	68.95
348.915	-21.16
349.127	48.47
349.339	-6.83
349.551	15.7
349.763	71
349.975	-6.83
350.187	36.18
350.399	101.72
350.61	-4.78
350.822	-0.68
351.034	3.41
351.246	-12.97
351.458	38.23
351.669	68.95
351.881	11.61
352.093	150.87
352.305	136.53
352.517	73.04
352.728	60.76
352.94	77.14
353.152	30.04
353.363	3.41
353.575	73.04
353.787	30.04
353.999	52.56
354.21	52.56
354.422	68.95
354.633	5.46
354.845	19.8
355.057	54.61
355.268	19.8
355.48	36.18
355.692	7.51
355.903	-17.07
356.115	105.81
356.326	17.75
356.538	56.66
356.749	44.37
356.961	-19.11
357.172	68.95
357.384	68.95
357.595	7.51
357.807	-35.5
358.018	11.61
358.23	-37.55
358.441	46.42
358.653	60.76
358.864	-0.68
359.075	7.51
359.287	81.24
359.498	42.32
359.709	71
359.921	-23.21
360.132	60.76
360.344	62.8
360.555	27.99
360.766	64.85
360.977	-49.83
361.189	40.28
361.4	32.08
361.611	118.1
361.823	44.37
362.034	-33.45
362.245	-39.59
362.456	27.99
362.667	109.91
362.879	62.8
363.09	9.56
363.301	93.52
363.512	73.04
363.723	30.04
363.935	77.14
364.146	101.72
364.357	46.42
364.568	-10.92
364.779	-25.26
364.99	-2.73
365.201	32.08
365.412	114
365.623	-21.16
365.834	27.99
366.045	52.56
366.256	97.62
366.467	48.47
366.678	27.99
366.889	-8.87
367.1	-33.45
367.311	77.14
367.522	77.14
367.733	52.56
367.944	64.85
368.155	-37.55
368.366	38.23
368.577	15.7
368.788	64.85
368.999	48.47
369.209	44.37
369.42	87.38
369.631	167.25
369.842	9.56
370.053	21.85
370.264	19.8
370.474	23.89
370.685	101.72
370.896	130.39
371.107	101.72
371.317	54.61
371.528	15.7
371.739	68.95
371.95	-41.64
372.16	66.9
372.371	21.85
372.582	15.7
372.792	52.56
373.003	21.85
373.214	5.46
373.424	56.66
373.635	-37.55
373.846	95.57
374.056	54.61
374.267	64.85
374.477	44.37
374.688	11.61
374.898	50.52
375.109	36.18
375.319	126.29
375.53	68.95
375.74	40.28
375.951	93.52
376.161	46.42
376.372	60.76
376.582	23.89
376.793	32.08
377.003	11.61
377.214	-6.83
377.424	21.85
377.635	44.37
377.845	36.18
378.055	32.08
378.266	56.66
378.476	62.8
378.686	-2.73
378.897	71
379.107	89.43
379.317	124.24
379.528	-10.92
379.738	120.15
379.948	95.57
380.158	105.81
380.369	3.41
380.579	97.62
380.789	89.43
380.999	64.85
381.21	44.37
381.42	118.1
381.63	23.89
381.84	52.56
382.05	11.61
382.261	77.14
382.471	109.91
382.681	30.04
382.891	34.13
383.101	44.37
383.311	19.8
383.521	21.85
383.731	79.19
383.941	89.43
384.151	44.37
384.361	68.95
384.571	71
384.781	60.76
384.991	54.61
385.201	56.66
385.411	46.42
385.621	52.56
385.831	44.37
386.041	134.48
386.251	40.28
386.461	122.2
386.671	68.95
386.881	99.67
387.091	-4.78
387.301	44.37
387.511	38.23
387.72	-10.92
387.93	38.23
388.14	5.46
388.35	-0.68
388.56	105.81
388.769	46.42
388.979	97.62
389.189	44.37
389.399	-2.73
389.609	-12.97
389.818	79.19
390.028	23.89
390.238	97.62
390.447	3.41
390.657	71
390.867	85.33
391.076	99.67
391.286	79.19
391.496	19.8
391.705	-31.4
391.915	5.46
392.125	103.76
392.334	3.41
392.544	38.23
392.753	93.52
392.963	-0.68
393.172	95.57
393.382	13.65
393.591	183.63
393.801	19.8
394.01	134.48
394.22	144.72
394.429	68.95
394.639	-6.83
394.848	60.76
395.058	21.85
395.267	150.87
395.477	85.33
395.686	60.76
395.895	30.04
396.105	179.54
396.314	36.18
396.524	64.85
396.733	11.61
396.942	134.48
397.152	81.24
397.361	152.92
397.57	114
397.78	42.32
397.989	93.52
398.198	183.63
398.407	75.09
398.617	144.72
398.826	130.39
399.035	77.14
399.244	77.14
399.453	93.52
399.663	134.48
399.872	77.14
400.081	-10.92
400.29	122.2
400.499	126.29
400.708	111.96
400.917	87.38
401.127	122.2
401.336	-17.07
401.545	236.88
401.754	107.86
401.963	77.14
402.172	85.33
402.381	150.87
402.59	66.9
402.799	148.82
403.008	118.1
403.217	73.04
403.426	64.85
403.635	52.56
403.844	118.1
404.053	136.53
404.262	85.33
404.471	208.21
404.68	85.33
404.888	77.14
405.097	91.48
405.306	109.91
405.515	136.53
405.724	191.83
405.933	138.58
406.142	111.96
406.35	193.87
406.559	103.76
406.768	171.35
406.977	236.88
407.185	218.45
407.394	62.8
407.603	109.91
407.812	236.88
408.02	171.35
408.229	191.83
408.438	183.63
408.646	226.64
408.855	263.51
409.064	212.31
409.272	220.5
409.481	183.63
409.69	169.3
409.898	226.64
410.107	265.55
410.315	232.79
410.524	245.07
410.733	339.28
410.941	294.22
411.15	355.66
411.358	265.55
411.567	361.81
411.775	363.86
411.984	324.94
412.192	322.9
412.401	351.57
412.609	447.82
412.818	429.39
413.026	392.53
413.234	449.87
413.443	439.63
413.651	466.25
413.86	468.3
414.068	501.07
414.276	478.54
414.485	533.84
414.693	560.46
414.901	642.38
415.11	669
415.318	564.56
415.526	546.13
415.734	701.77
415.943	644.43
416.151	699.72
416.359	699.72
416.567	642.38
416.776	748.87
416.984	740.68
417.192	785.74
417.4	709.96
417.608	769.35
417.817	845.13
418.025	970.05
418.233	957.77
418.441	879.94
418.649	931.14
418.857	1066.31
419.065	1111.36
419.273	1037.64
419.481	1090.88
419.689	1234.24
419.897	1176.9
420.105	1207.62
420.313	1307.97
420.521	1350.98
420.729	1281.35
420.937	1398.08
421.145	1400.13
421.353	1461.57
421.561	1559.87
421.769	1629.5
421.977	1719.61
422.185	1645.88
422.393	1768.76
422.601	1785.15
422.809	1799.48
423.017	1826.11
423.224	1953.08
423.432	2092.34
423.64	2059.57
423.848	2272.56
424.056	2125.11
424.263	2260.27
424.471	2315.57
424.679	2348.34
424.887	2477.36
425.094	2563.37
425.302	2604.33
425.51	2567.47
425.718	2747.69
425.925	2743.6
426.133	2831.66
426.341	3104.04
426.548	3099.94
426.756	3210.53
426.964	3165.48
427.171	3480.86
427.379	3497.25
427.586	3726.62
427.794	3591.45
428.001	3779.87
428.209	4035.86
428.417	3816.73
428.624	4144.41
428.832	4148.5
429.039	4107.54
429.247	4222.23
429.454	4537.62
429.662	4803.85
429.869	4592.91
430.076	4844.81
430.284	4746.51
430.491	4904.2
430.699	5295.36
430.906	5240.07
431.114	5242.12
431.321	5514.5
431.528	5655.81
431.736	6065.4
431.943	6294.77
432.15	6067.45
432.358	6145.27
432.565	6386.93
432.772	6370.55
432.979	6839.53
433.187	6817.01
433.394	6929.64
433.601	7451.88
433.808	7417.06
434.016	7460.07
434.223	7474.4
434.43	8236.25
434.637	7967.96
434.844	8385.75
435.052	8553.68
435.259	8596.69
435.466	8680.66
435.673	8563.92
435.88	9082.06
436.087	9280.71
436.294	9489.6
436.501	9186.51
436.708	9528.52
436.915	9934.01
437.122	10218.68
437.329	10366.14
437.537	10532.02
437.743	10824.88
437.95	10542.26
438.157	11089.07
438.364	11535.53
438.571	11582.63
438.778	11469.99
438.985	12692.63
439.192	12149.92
439.399	12635.28
439.606	12244.12
439.813	13173.9
440.02	13925.5
440.227	13380.75
440.433	13366.41
440.64	13823.11
440.847	13782.15
441.054	14206.08
441.261	15033.46
441.467	14974.06
441.674	15324.27
441.881	15850.6
442.088	15670.37
442.294	15445.1
442.501	16108.64
442.708	16358.49
442.914	17001.55
443.121	18003.01
443.328	17044.56
443.534	18478.14
443.741	17749.06
443.948	17564.75
444.154	18959.41
444.361	18900.02
444.568	19147.83
444.774	19016.76
444.981	18981.94
445.187	19829.8
445.394	20788.25
445.6	20542.49
445.807	22346.75
446.013	21482.51
446.22	21603.34
446.426	22402.05
446.633	22801.4
446.839	23856.11
447.046	22703.1
447.252	23915.5
447.459	23897.06
447.665	24058.85
447.871	24814.55
448.078	26063.82
448.284	24943.58
448.491	25627.6
448.697	26239.94
448.903	27067.32
449.11	27231.16
449.316	26573.76
449.522	26954.68
449.728	27882.41
449.935	28380.07
450.141	28060.59
450.347	29170.58
450.553	27837.36
450.76	28445.6
450.966	29602.71
451.172	28717.98
451.378	29606.8
451.584	29121.43
451.791	30004.11
451.997	29762.45
452.203	30239.62
452.409	30329.73
452.615	30282.63
452.821	29279.13
453.027	28988.31
453.233	30428.04
453.44	29199.26
453.646	29520.79
453.852	29901.71
454.058	30114.7
454.264	29139.86
454.47	29842.32
454.676	29107.1
454.882	30229.38
455.088	27560.88
455.294	28105.64
455.5	28642.21
455.705	28998.55
455.911	27638.7
456.117	27048.89
456.323	26895.29
456.529	25269.2
456.735	26559.42
456.941	25785.29
457.147	25519.06
457.352	24849.37
457.558	24552.41
457.764	24628.19
457.97	24171.49
458.176	23596.01
458.381	23720.94
458.587	22350.85
458.793	22406.14
458.999	21527.56
459.204	22834.17
459.41	22211.59
459.616	20800.54
459.821	20700.19
460.027	20716.57
460.233	20304.93
460.438	19266.61
460.644	19438.64
460.85	18693.18
461.055	18388.03
461.261	18312.25
461.466	17157.2
461.672	16440.41
461.878	17689.67
462.083	16510.04
462.289	16469.08
462.494	16225.37
462.7	15443.05
462.905	14746.74
463.111	15320.17
463.316	15283.31
463.522	15225.97
463.727	15240.3
463.932	15211.63
464.138	15266.92
464.343	15314.03
464.549	14589.05
464.754	15164.53
464.959	15027.31
465.165	15096.94
465.37	14308.47
465.575	13950.08
465.781	14722.16
465.986	14535.8
466.191	14021.76
466.397	13794.43
466.602	13022.35
466.807	13585.54
467.012	13601.93
467.218	13472.9
467.423	13261.96
467.628	13708.42
467.833	13878.4
468.038	13477
468.244	13147.28
