Data from USB4F104151__182__14-45-07-432.txt Node

Date: Thu Mar 13 14:45:07 EDT 2025
User: louis
Spectrometer: USB4F10415
Trigger mode: 4
Integration Time (sec): 2.000000E-2
Scans to average: 1
Electric dark correction enabled: true
Nonlinearity correction enabled: false
Boxcar width: 0
XAxis mode: Wavelengths
Number of Pixels in Spectrum: 3648
>>>>>Begin Spectral Data<<<<<
178.204	-122.54
178.424	-122.54
178.644	-122.54
178.864	-190.12
179.084	-161.45
179.304	-48.81
179.524	-67.24
179.744	-38.57
179.964	-16.04
180.184	2.39
180.404	57.68
180.624	6.49
180.844	57.68
181.064	-16.04
181.283	33.11
181.503	-9.9
181.723	39.25
181.943	-52.91
182.163	47.44
182.383	-1.71
182.602	24.92
182.822	10.58
183.042	-9.9
183.262	-34.47
183.482	6.49
183.701	-40.62
183.921	-26.28
184.141	-79.53
184.361	72.02
184.58	8.53
184.8	10.58
185.02	41.3
185.239	55.64
185.459	6.49
185.679	82.26
185.898	-69.29
186.118	80.21
186.338	0.34
186.557	10.58
186.777	45.4
186.997	86.36
187.216	22.87
187.436	0.34
187.655	-3.75
187.875	35.16
188.095	-30.38
188.314	22.87
188.534	90.45
188.753	6.49
188.973	37.2
189.192	51.54
189.412	-5.8
189.631	72.02
189.851	47.44
190.07	65.88
190.29	8.53
190.509	-18.09
190.729	2.39
190.948	88.4
191.168	117.08
191.387	55.64
191.607	-9.9
191.826	90.45
192.045	0.34
192.265	16.73
192.484	47.44
192.704	16.73
192.923	18.77
193.142	96.6
193.362	55.64
193.581	100.69
193.8	76.12
194.02	24.92
194.239	24.92
194.458	20.82
194.678	-24.23
194.897	-11.95
195.116	-34.47
195.335	6.49
195.555	112.98
195.774	24.92
195.993	98.64
196.212	22.87
196.432	2.39
196.651	31.06
196.87	-54.95
197.089	78.16
197.308	51.54
197.528	80.21
197.747	22.87
197.966	-34.47
198.185	-9.9
198.404	45.4
198.623	14.68
198.842	24.92
199.062	35.16
199.281	80.21
199.5	-5.8
199.719	2.39
199.938	57.68
200.157	35.16
200.376	49.49
200.595	-54.95
200.814	37.2
201.033	43.35
201.252	57.68
201.471	-50.86
201.69	74.07
201.909	80.21
202.128	76.12
202.347	65.88
202.566	47.44
202.785	0.34
203.004	59.73
203.223	115.03
203.442	10.58
203.661	-26.28
203.879	35.16
204.098	24.92
204.317	37.2
204.536	67.92
204.755	-9.9
204.974	-7.85
205.193	-5.8
205.411	137.56
205.63	-50.86
205.849	20.82
206.068	49.49
206.287	-1.71
206.505	80.21
206.724	55.64
206.943	100.69
207.162	59.73
207.381	-42.67
207.599	39.25
207.818	-38.57
208.037	-1.71
208.255	6.49
208.474	55.64
208.693	0.34
208.911	6.49
209.13	49.49
209.349	10.58
209.567	4.44
209.786	49.49
210.005	0.34
210.223	-9.9
210.442	6.49
210.661	39.25
210.879	-22.19
211.098	55.64
211.316	16.73
211.535	-9.9
211.753	33.11
211.972	-26.28
212.191	39.25
212.409	55.64
212.628	26.96
212.846	43.35
213.065	121.17
213.283	67.92
213.502	86.36
213.72	-5.8
213.938	4.44
214.157	22.87
214.375	106.84
214.594	-1.71
214.812	76.12
215.031	0.34
215.249	18.77
215.467	6.49
215.686	41.3
215.904	63.83
216.122	26.96
216.341	121.17
216.559	63.83
216.778	98.64
216.996	112.98
217.214	-40.62
217.432	6.49
217.651	-9.9
217.869	-1.71
218.087	-3.75
218.306	22.87
218.524	55.64
218.742	-18.09
218.96	88.4
219.179	94.55
219.397	39.25
219.615	129.36
219.833	8.53
220.051	22.87
220.27	63.83
220.488	-16.04
220.706	0.34
220.924	8.53
221.142	-9.9
221.36	24.92
221.578	39.25
221.796	20.82
222.015	26.96
222.233	72.02
222.451	45.4
222.669	6.49
222.887	47.44
223.105	16.73
223.323	-7.85
223.541	31.06
223.759	57.68
223.977	-20.14
224.195	-9.9
224.413	6.49
224.631	-1.71
224.849	-30.38
225.067	26.96
225.285	-3.75
225.503	6.49
225.721	-26.28
225.939	8.53
226.157	51.54
226.375	96.6
226.592	-9.9
226.81	-34.47
227.028	55.64
227.246	131.41
227.464	65.88
227.682	67.92
227.9	98.64
228.117	-18.09
228.335	59.73
228.553	59.73
228.771	72.02
228.989	6.49
229.206	65.88
229.424	-32.43
229.642	-9.9
229.86	14.68
230.077	35.16
230.295	-7.85
230.513	80.21
230.731	31.06
230.948	80.21
231.166	67.92
231.384	24.92
231.601	80.21
231.819	84.31
232.037	-40.62
232.254	10.58
232.472	100.69
232.689	-42.67
232.907	74.07
233.125	80.21
233.342	39.25
233.56	8.53
233.777	-30.38
233.995	8.53
234.213	69.97
234.43	12.63
234.648	16.73
234.865	-16.04
235.083	31.06
235.3	57.68
235.518	63.83
235.735	82.26
235.953	55.64
236.17	90.45
236.388	65.88
236.605	14.68
236.822	39.25
237.04	2.39
237.257	18.77
237.475	55.64
237.692	41.3
237.909	26.96
238.127	67.92
238.344	139.6
238.562	10.58
238.779	-42.67
238.996	14.68
239.214	74.07
239.431	112.98
239.648	67.92
239.865	67.92
240.083	49.49
240.3	47.44
240.517	14.68
240.735	29.01
240.952	39.25
241.169	-1.71
241.386	49.49
241.603	-5.8
241.821	10.58
242.038	80.21
242.255	16.73
242.472	74.07
242.689	80.21
242.907	-9.9
243.124	0.34
243.341	-13.99
243.558	57.68
243.775	33.11
243.992	6.49
244.209	47.44
244.426	10.58
244.643	35.16
244.86	-26.28
245.078	35.16
245.295	90.45
245.512	29.01
245.729	-9.9
245.946	63.83
246.163	59.73
246.38	-75.43
246.597	43.35
246.814	51.54
247.031	74.07
247.248	22.87
247.464	88.4
247.681	63.83
247.898	47.44
248.115	63.83
248.332	31.06
248.549	41.3
248.766	26.96
248.983	16.73
249.2	59.73
249.417	39.25
249.633	72.02
249.85	63.83
250.067	4.44
250.284	31.06
250.501	31.06
250.717	55.64
250.934	22.87
251.151	18.77
251.368	-13.99
251.585	35.16
251.801	49.49
252.018	26.96
252.235	-7.85
252.451	82.26
252.668	-1.71
252.885	74.07
253.102	96.6
253.318	-48.81
253.535	-7.85
253.752	31.06
253.968	33.11
254.185	-40.62
254.401	22.87
254.618	43.35
254.835	51.54
255.051	14.68
255.268	-75.43
255.484	43.35
255.701	67.92
255.917	2.39
256.134	47.44
256.351	88.4
256.567	-87.72
256.784	59.73
257	55.64
257.217	-16.04
257.433	18.77
257.65	72.02
257.866	37.2
258.082	-22.19
258.299	39.25
258.515	49.49
258.732	-11.95
258.948	43.35
259.165	55.64
259.381	67.92
259.597	24.92
259.814	108.88
260.03	-9.9
260.246	35.16
260.463	123.22
260.679	-26.28
260.895	-42.67
261.112	-9.9
261.328	18.77
261.544	43.35
261.761	49.49
261.977	74.07
262.193	22.87
262.409	55.64
262.626	16.73
262.842	65.88
263.058	20.82
263.274	31.06
263.49	2.39
263.707	49.49
263.923	8.53
264.139	31.06
264.355	41.3
264.571	57.68
264.787	47.44
265.004	84.31
265.22	-5.8
265.436	63.83
265.652	-9.9
265.868	-13.99
266.084	2.39
266.3	33.11
266.516	69.97
266.732	31.06
266.948	22.87
267.164	18.77
267.38	49.49
267.596	59.73
267.812	112.98
268.028	-9.9
268.244	18.77
268.46	22.87
268.676	37.2
268.892	-16.04
269.108	-9.9
269.324	41.3
269.54	41.3
269.756	149.84
269.972	4.44
270.188	6.49
270.403	6.49
270.619	6.49
270.835	72.02
271.051	6.49
271.267	-57
271.483	49.49
271.698	-7.85
271.914	57.68
272.13	55.64
272.346	39.25
272.562	26.96
272.777	33.11
272.993	-24.23
273.209	51.54
273.425	47.44
273.64	-18.09
273.856	67.92
274.072	72.02
274.287	0.34
274.503	33.11
274.719	112.98
274.934	35.16
275.15	39.25
275.366	10.58
275.581	88.4
275.797	41.3
276.012	24.92
276.228	18.77
276.444	-61.1
276.659	82.26
276.875	22.87
277.09	55.64
277.306	-22.19
277.521	84.31
277.737	6.49
277.952	51.54
278.168	22.87
278.383	-9.9
278.599	41.3
278.814	82.26
279.03	26.96
279.245	43.35
279.461	26.96
279.676	90.45
279.892	-75.43
280.107	-67.24
280.322	67.92
280.538	-26.28
280.753	-26.28
280.969	76.12
281.184	-1.71
281.399	88.4
281.615	31.06
281.83	84.31
282.045	-59.05
282.26	-24.23
282.476	14.68
282.691	86.36
282.906	80.21
283.122	69.97
283.337	-5.8
283.552	117.08
283.767	47.44
283.983	-1.71
284.198	80.21
284.413	106.84
284.628	55.64
284.843	6.49
285.058	35.16
285.274	63.83
285.489	0.34
285.704	84.31
285.919	55.64
286.134	108.88
286.349	72.02
286.564	6.49
286.779	57.68
286.995	84.31
287.21	-1.71
287.425	29.01
287.64	-34.47
287.855	-26.28
288.07	6.49
288.285	51.54
288.5	63.83
288.715	123.22
288.93	35.16
289.145	2.39
289.36	55.64
289.575	63.83
289.79	72.02
290.004	22.87
290.219	115.03
290.434	82.26
290.649	18.77
290.864	39.25
291.079	96.6
291.294	80.21
291.509	22.87
291.724	82.26
291.938	22.87
292.153	14.68
292.368	-32.43
292.583	51.54
292.798	41.3
293.012	135.51
293.227	29.01
293.442	-7.85
293.657	155.99
293.871	-9.9
294.086	57.68
294.301	69.97
294.516	67.92
294.73	47.44
294.945	18.77
295.16	55.64
295.374	80.21
295.589	102.74
295.804	-38.57
296.018	55.64
296.233	63.83
296.447	63.83
296.662	43.35
296.877	-40.62
297.091	84.31
297.306	100.69
297.52	6.49
297.735	29.01
297.949	16.73
298.164	-9.9
298.378	-67.24
298.593	-9.9
298.807	-24.23
299.022	47.44
299.236	47.44
299.451	26.96
299.665	49.49
299.88	55.64
300.094	20.82
300.309	-9.9
300.523	47.44
300.737	-5.8
300.952	-30.38
301.166	72.02
301.381	-34.47
301.595	49.49
301.809	22.87
302.024	82.26
302.238	33.11
302.452	76.12
302.667	-22.19
302.881	76.12
303.095	100.69
303.309	100.69
303.524	39.25
303.738	47.44
303.952	-38.57
304.166	72.02
304.381	26.96
304.595	37.2
304.809	74.07
305.023	24.92
305.237	67.92
305.452	-5.8
305.666	63.83
305.88	4.44
306.094	57.68
306.308	86.36
306.522	80.21
306.736	12.63
306.95	41.3
307.164	31.06
307.379	6.49
307.593	90.45
307.807	43.35
308.021	-48.81
308.235	125.27
308.449	14.68
308.663	69.97
308.877	74.07
309.091	88.4
309.305	88.4
309.519	-7.85
309.733	20.82
309.947	49.49
310.161	98.64
310.374	76.12
310.588	106.84
310.802	43.35
311.016	-106.15
311.23	24.92
311.444	39.25
311.658	47.44
311.872	76.12
312.085	22.87
312.299	41.3
312.513	59.73
312.727	29.01
312.941	-26.28
313.154	117.08
313.368	135.51
313.582	14.68
313.796	35.16
314.009	53.59
314.223	137.56
314.437	-87.72
314.651	0.34
314.864	14.68
315.078	61.78
315.292	12.63
315.505	4.44
315.719	76.12
315.933	37.2
316.146	39.25
316.36	26.96
316.573	125.27
316.787	37.2
317.001	45.4
317.214	-46.76
317.428	92.5
317.641	35.16
317.855	53.59
318.068	0.34
318.282	39.25
318.495	123.22
318.709	84.31
318.922	-7.85
319.136	63.83
319.349	14.68
319.563	-13.99
319.776	6.49
319.99	35.16
320.203	121.17
320.417	24.92
320.63	59.73
320.843	90.45
321.057	80.21
321.27	51.54
321.483	72.02
321.697	96.6
321.91	96.6
322.124	72.02
322.337	67.92
322.55	-1.71
322.763	-20.14
322.977	-5.8
323.19	22.87
323.403	33.11
323.617	55.64
323.83	82.26
324.043	31.06
324.256	53.59
324.469	49.49
324.683	51.54
324.896	10.58
325.109	121.17
325.322	59.73
325.535	162.13
325.748	112.98
325.962	-1.71
326.175	47.44
326.388	133.46
326.601	33.11
326.814	16.73
327.027	74.07
327.24	74.07
327.453	39.25
327.666	51.54
327.879	39.25
328.092	115.03
328.305	45.4
328.518	-36.52
328.731	65.88
328.944	6.49
329.157	35.16
329.37	18.77
329.583	106.84
329.796	131.41
330.009	35.16
330.222	67.92
330.435	-5.8
330.648	57.68
330.861	82.26
331.073	110.93
331.286	104.79
331.499	33.11
331.712	74.07
331.925	-26.28
332.138	-7.85
332.35	90.45
332.563	-18.09
332.776	31.06
332.989	72.02
333.202	80.21
333.414	65.88
333.627	41.3
333.84	57.68
334.053	76.12
334.265	63.83
334.478	41.3
334.691	-7.85
334.903	22.87
335.116	39.25
335.329	43.35
335.541	80.21
335.754	24.92
335.966	43.35
336.179	-13.99
336.392	33.11
336.604	51.54
336.817	74.07
337.029	20.82
337.242	63.83
337.454	88.4
337.667	47.44
337.88	106.84
338.092	22.87
338.305	67.92
338.517	8.53
338.729	18.77
338.942	47.44
339.154	45.4
339.367	26.96
339.579	67.92
339.792	33.11
340.004	59.73
340.217	-40.62
340.429	61.78
340.641	20.82
340.854	55.64
341.066	-26.28
341.278	31.06
341.491	39.25
341.703	31.06
341.915	10.58
342.128	55.64
342.34	115.03
342.552	18.77
342.764	35.16
342.977	63.83
343.189	8.53
343.401	-18.09
343.613	35.16
343.826	72.02
344.038	29.01
344.25	39.25
344.462	88.4
344.674	49.49
344.886	72.02
345.099	63.83
345.311	6.49
345.523	12.63
345.735	-30.38
345.947	94.55
346.159	-16.04
346.371	100.69
346.583	49.49
346.795	24.92
347.007	24.92
347.219	47.44
347.431	-1.71
347.643	90.45
347.855	29.01
348.067	117.08
348.279	-3.75
348.491	57.68
348.703	22.87
348.915	49.49
349.127	24.92
349.339	53.59
349.551	39.25
349.763	22.87
349.975	106.84
350.187	45.4
350.399	92.5
350.61	29.01
350.822	6.49
351.034	24.92
351.246	47.44
351.458	67.92
351.669	35.16
351.881	57.68
352.093	39.25
352.305	80.21
352.517	90.45
352.728	80.21
352.94	80.21
353.152	72.02
353.363	22.87
353.575	8.53
353.787	98.64
353.999	51.54
354.21	47.44
354.422	-30.38
354.633	2.39
354.845	26.96
355.057	6.49
355.268	26.96
355.48	121.17
355.692	-1.71
355.903	55.64
356.115	47.44
356.326	41.3
356.538	43.35
356.749	35.16
356.961	102.74
357.172	26.96
357.384	14.68
357.595	104.79
357.807	57.68
358.018	31.06
358.23	49.49
358.441	88.4
358.653	76.12
358.864	141.65
359.075	2.39
359.287	100.69
359.498	51.54
359.709	69.97
359.921	41.3
360.132	41.3
360.344	39.25
360.555	12.63
360.766	16.73
360.977	2.39
361.189	123.22
361.4	29.01
361.611	78.16
361.823	39.25
362.034	51.54
362.245	-30.38
362.456	63.83
362.667	55.64
362.879	20.82
363.09	6.49
363.301	72.02
363.512	63.83
363.723	-7.85
363.935	49.49
364.146	84.31
364.357	-3.75
364.568	55.64
364.779	-16.04
364.99	117.08
365.201	-9.9
365.412	145.75
365.623	26.96
365.834	55.64
366.045	47.44
366.256	59.73
366.467	24.92
366.678	26.96
366.889	82.26
367.1	84.31
367.311	26.96
367.522	43.35
367.733	47.44
367.944	26.96
368.155	55.64
368.366	74.07
368.577	108.88
368.788	100.69
368.999	-108.2
369.209	4.44
369.42	129.36
369.631	41.3
369.842	6.49
370.053	22.87
370.264	57.68
370.474	16.73
370.685	-18.09
370.896	-28.33
371.107	67.92
371.317	80.21
371.528	12.63
371.739	100.69
371.95	67.92
372.16	74.07
372.371	-48.81
372.582	22.87
372.792	0.34
373.003	117.08
373.214	26.96
373.424	33.11
373.635	88.4
373.846	80.21
374.056	47.44
374.267	51.54
374.477	74.07
374.688	84.31
374.898	129.36
375.109	22.87
375.319	96.6
375.53	63.83
375.74	-13.99
375.951	65.88
376.161	39.25
376.372	104.79
376.582	47.44
376.793	72.02
377.003	20.82
377.214	0.34
377.424	-9.9
377.635	57.68
377.845	65.88
378.055	55.64
378.266	-24.23
378.476	57.68
378.686	-50.86
378.897	45.4
379.107	39.25
379.317	82.26
379.528	51.54
379.738	121.17
379.948	31.06
380.158	155.99
380.369	18.77
380.579	88.4
380.789	67.92
380.999	63.83
381.21	96.6
381.42	112.98
381.63	39.25
381.84	55.64
382.05	55.64
382.261	49.49
382.471	35.16
382.681	39.25
382.891	35.16
383.101	78.16
383.311	-65.19
383.521	74.07
383.731	74.07
383.941	76.12
384.151	98.64
384.361	55.64
384.571	72.02
384.781	92.5
384.991	106.84
385.201	43.35
385.411	72.02
385.621	41.3
385.831	112.98
386.041	112.98
386.251	76.12
386.461	10.58
386.671	104.79
386.881	117.08
387.091	18.77
387.301	72.02
387.511	117.08
387.72	59.73
387.93	63.83
388.14	47.44
388.35	55.64
388.56	76.12
388.769	119.12
388.979	51.54
389.189	55.64
389.399	82.26
389.609	82.26
389.818	31.06
390.028	92.5
390.238	72.02
390.447	88.4
390.657	174.42
390.867	-13.99
391.076	41.3
391.286	39.25
391.496	-16.04
391.705	63.83
391.915	129.36
392.125	155.99
392.334	43.35
392.544	137.56
392.753	74.07
392.963	6.49
393.172	92.5
393.382	51.54
393.591	98.64
393.801	88.4
394.01	145.75
394.22	88.4
394.429	123.22
394.639	18.77
394.848	98.64
395.058	153.94
395.267	55.64
395.477	162.13
395.686	90.45
395.895	153.94
396.105	182.61
396.314	55.64
396.524	98.64
396.733	112.98
396.942	98.64
397.152	131.41
397.361	96.6
397.57	119.12
397.78	139.6
397.989	112.98
398.198	141.65
398.407	100.69
398.617	115.03
398.826	84.31
399.035	108.88
399.244	16.73
399.453	104.79
399.663	12.63
399.872	31.06
400.081	147.8
400.29	88.4
400.499	117.08
400.708	84.31
400.917	125.27
401.127	117.08
401.336	88.4
401.545	168.27
401.754	145.75
401.963	141.65
402.172	145.75
402.381	82.26
402.59	82.26
402.799	133.46
403.008	129.36
403.217	162.13
403.426	80.21
403.635	149.84
403.844	164.18
404.053	160.08
404.262	133.46
404.471	186.71
404.68	151.89
404.888	133.46
405.097	117.08
405.306	164.18
405.515	186.71
405.724	227.67
405.933	158.03
406.142	137.56
406.35	205.14
406.559	266.58
406.768	237.91
406.977	307.54
407.185	244.05
407.394	186.71
407.603	211.28
407.812	248.15
408.02	276.82
408.229	268.63
408.438	211.28
408.646	141.65
408.855	254.29
409.064	309.58
409.272	260.43
409.481	303.44
409.69	301.39
409.898	276.82
410.107	371.02
410.315	385.36
410.524	266.58
410.733	317.78
410.941	342.35
411.15	418.13
411.358	403.79
411.567	469.33
411.775	418.13
411.984	479.57
412.192	479.57
412.401	407.89
412.609	637.26
412.818	534.86
413.026	538.96
413.234	547.15
413.443	551.24
413.651	481.61
413.86	571.72
414.068	676.17
414.276	600.4
414.485	645.45
414.693	729.42
414.901	768.33
415.11	768.33
415.318	792.91
415.526	719.18
415.734	817.48
415.943	870.73
416.151	926.02
416.359	801.1
416.567	940.36
416.776	991.56
416.984	973.13
417.192	1110.34
417.4	1030.47
417.608	1034.57
417.817	1110.34
418.025	1175.88
418.233	1208.64
418.441	1214.79
418.649	1179.97
418.857	1343.81
419.065	1392.96
419.273	1300.8
419.481	1542.46
419.689	1403.2
419.897	1511.74
420.105	1536.32
420.313	1640.76
420.521	1638.72
420.729	1646.91
420.937	1788.22
421.145	1827.13
421.353	1990.97
421.561	2050.36
421.769	2023.73
421.977	2113.85
422.185	2193.72
422.393	2228.53
422.601	2304.31
422.809	2375.99
423.017	2341.17
423.224	2425.14
423.432	2480.43
423.64	2527.53
423.848	2816.3
424.056	2808.11
424.263	2849.07
424.471	3004.71
424.679	3039.53
424.887	3119.4
425.094	3236.13
425.302	3330.34
425.51	3459.36
425.718	3502.37
425.925	3373.35
426.133	3586.33
426.341	3961.11
426.548	4129.05
426.756	3987.74
426.964	4049.18
427.171	4288.79
427.379	4380.95
427.586	4458.77
427.794	4774.16
428.001	4921.61
428.209	5157.13
428.417	4927.75
428.624	5339.4
428.832	5318.92
429.039	5376.26
429.247	5376.26
429.454	5927.16
429.662	6076.66
429.869	5796.09
430.076	6400.24
430.284	6105.34
430.491	6281.46
430.699	6588.66
430.906	6691.06
431.114	6738.16
431.321	7033.07
431.528	7106.79
431.736	7626.98
431.943	7825.63
432.15	7743.71
432.358	7739.62
432.565	8151.26
432.772	8212.7
432.979	8599.76
433.187	8544.47
433.394	8708.3
433.601	9367.75
433.808	9375.94
434.016	9406.66
434.223	9744.58
434.43	10264.76
434.637	10209.47
434.844	10737.84
435.052	10959.02
435.259	10893.49
435.466	10758.32
435.673	10821.81
435.88	11747.49
436.087	12269.72
436.294	12124.32
436.501	11870.37
436.708	12298.39
436.915	12679.32
437.122	13148.3
437.329	13037.71
437.537	13586.57
437.743	13547.65
437.95	13670.53
438.157	14178.43
438.364	14858.35
438.571	14518.39
438.778	14837.87
438.985	16238.69
439.192	15906.91
439.399	16203.87
439.606	15507.56
439.813	16687.19
440.02	17428.56
440.227	17227.85
440.433	17186.9
440.64	17715.27
440.847	17586.25
441.054	18067.52
441.261	19206.19
441.467	18759.74
441.674	19367.98
441.881	20033.57
442.088	19927.08
442.294	20052
442.501	20205.6
442.708	20719.64
442.914	21585.93
443.121	22507.52
443.328	21819.4
443.534	23283.7
443.741	22691.84
443.948	22315.01
444.154	23969.77
444.361	23836.65
444.568	24031.21
444.774	23810.03
444.981	24244.2
445.187	24979.42
445.394	26159.05
445.6	25855.95
445.807	28254.12
446.013	27006.91
446.22	27496.37
446.426	28481.44
446.633	28704.67
446.839	29908.88
447.046	28809.12
447.252	30279.56
447.459	30326.66
447.665	29947.79
447.871	31250.3
448.078	32739.17
448.284	31532.92
448.491	31969.13
448.697	33380.18
448.903	34047.82
449.11	34053.97
449.316	33488.73
449.522	34064.21
449.728	34856.77
449.935	35080
450.141	35297.08
450.347	36347.69
450.553	35186.49
450.76	35645.24
450.966	36534.06
451.172	36224.81
451.378	37377.82
451.584	36597.54
451.791	37222.17
451.997	37271.32
452.203	37943.06
452.409	38211.34
452.615	38031.12
452.821	36476.71
453.027	36386.6
453.233	38563.59
453.44	36654.89
453.646	36771.62
453.852	37199.65
454.058	37586.71
454.264	36835.11
454.47	37609.24
454.676	36435.75
454.882	37586.71
455.088	34283.34
455.294	35434.3
455.5	35800.88
455.705	36130.61
455.911	34590.53
456.117	33986.38
456.323	33560.41
456.529	32032.62
456.735	33410.9
456.941	32665.44
457.147	32245.61
457.352	31229.82
457.558	31016.83
457.764	31018.88
457.97	30568.32
458.176	29732.75
458.381	29841.29
458.587	28266.41
458.793	28159.91
458.999	27142.07
459.204	28723.1
459.41	28127.14
459.616	26372.03
459.821	26146.76
460.027	26283.97
460.233	25759.69
460.438	24434.66
460.644	24764.38
460.85	23488.49
461.055	22996.98
461.261	23021.56
461.466	21633.04
461.672	20684.83
461.878	22312.96
462.083	20652.06
462.289	20391.97
462.494	19984.42
462.7	19251.25
462.905	18694.2
463.111	19478.57
463.316	19421.23
463.522	18933.81
463.727	19210.29
463.932	19185.71
464.138	18769.97
464.343	19013.68
464.549	18315.33
464.754	18966.58
464.959	18794.55
465.165	18669.62
465.37	17903.68
465.575	17403.98
465.781	18319.42
465.986	18346.05
466.191	17670.22
466.397	16984.15
466.602	16414.81
466.807	16914.52
467.012	16793.69
467.218	16918.61
467.423	16664.66
467.628	16998.48
