Data from USB4F104151__153__14-44-37-660.txt Node

Date: Thu Mar 13 14:44:37 EDT 2025
User: louis
Spectrometer: USB4F10415
Trigger mode: 4
Integration Time (sec): 2.000000E-2
Scans to average: 1
Electric dark correction enabled: true
Nonlinearity correction enabled: false
Boxcar width: 0
XAxis mode: Wavelengths
Number of Pixels in Spectrum: 3648
>>>>>Begin Spectral Data<<<<<
178.204	-117.59
178.424	-117.59
178.644	-117.59
178.864	-76.63
179.084	-125.78
179.304	-11.09
179.524	5.29
179.744	-19.29
179.964	56.49
180.184	62.63
180.404	11.43
180.624	-23.38
180.844	3.24
181.064	-93.01
181.283	-25.43
181.503	-25.43
181.723	58.54
181.943	-21.33
182.163	46.25
182.383	74.92
182.602	-7
182.822	-2.9
183.042	91.31
183.262	66.73
183.482	-27.48
183.701	7.34
183.921	33.96
184.141	38.06
184.361	56.49
184.58	85.16
184.8	7.34
185.02	29.87
185.239	91.31
185.459	-15.19
185.679	36.01
185.898	-39.76
186.118	62.63
186.338	23.72
186.557	54.44
186.777	-35.67
186.997	58.54
187.216	33.96
187.436	85.16
187.655	29.87
187.875	50.35
188.095	-2.9
188.314	-56.15
188.534	160.94
188.753	-29.52
188.973	7.34
189.192	81.07
189.412	50.35
189.631	3.24
189.851	-66.39
190.07	95.4
190.29	-76.63
190.509	-9.05
190.729	3.24
190.948	-19.29
191.168	128.17
191.387	44.2
191.607	-17.24
191.826	46.25
192.045	50.35
192.265	29.87
192.484	89.26
192.704	-0.85
192.923	21.67
193.142	103.59
193.362	54.44
193.581	95.4
193.8	56.49
194.02	62.63
194.239	7.34
194.458	21.67
194.678	-9.05
194.897	13.48
195.116	19.63
195.335	3.24
195.555	62.63
195.774	-4.95
195.993	97.45
196.212	29.87
196.432	-17.24
196.651	29.87
196.87	1.19
197.089	87.21
197.308	33.96
197.528	79.02
197.747	50.35
197.966	21.67
198.185	-17.24
198.404	48.3
198.623	-19.29
198.842	-11.09
199.062	15.53
199.281	68.78
199.5	40.11
199.719	3.24
199.938	79.02
200.157	54.44
200.376	70.83
200.595	97.45
200.814	25.77
201.033	17.58
201.252	64.68
201.471	1.19
201.69	-11.09
201.909	99.5
202.128	38.06
202.347	95.4
202.566	21.67
202.785	-11.09
203.004	40.11
203.223	38.06
203.442	58.54
203.661	13.48
203.879	7.34
204.098	54.44
204.317	62.63
204.536	62.63
204.755	7.34
204.974	70.83
205.193	74.92
205.411	42.15
205.63	-0.85
205.849	29.87
206.068	-27.48
206.287	13.48
206.505	7.34
206.724	42.15
206.943	-21.33
207.162	-0.85
207.381	46.25
207.599	-25.43
207.818	-11.09
208.037	64.68
208.255	3.24
208.474	48.3
208.693	-27.48
208.911	56.49
209.13	13.48
209.349	-37.72
209.567	31.91
209.786	56.49
210.005	-27.48
210.223	79.02
210.442	-19.29
210.661	46.25
210.879	-97.11
211.098	31.91
211.316	38.06
211.535	70.83
211.753	33.96
211.972	42.15
212.191	38.06
212.409	-19.29
212.628	-0.85
212.846	-41.81
213.065	38.06
213.283	76.97
213.502	-9.05
213.72	3.24
213.938	62.63
214.157	107.69
214.375	7.34
214.594	38.06
214.812	-31.57
215.031	-7
215.249	79.02
215.467	5.29
215.686	50.35
215.904	130.22
216.122	38.06
216.341	27.82
216.559	44.2
216.778	101.55
216.996	46.25
217.214	7.34
217.432	40.11
217.651	38.06
217.869	15.53
218.087	13.48
218.306	46.25
218.524	23.72
218.742	-7
218.96	-17.24
219.179	9.39
219.397	-9.05
219.615	85.16
219.833	54.44
220.051	13.48
220.27	54.44
220.488	-17.24
220.706	7.34
220.924	72.87
221.142	79.02
221.36	54.44
221.578	-11.09
221.796	-33.62
222.015	23.72
222.233	56.49
222.451	56.49
222.669	-33.62
222.887	29.87
223.105	5.29
223.323	64.68
223.541	-17.24
223.759	21.67
223.977	17.58
224.195	5.29
224.413	19.63
224.631	17.58
224.849	-9.05
225.067	136.36
225.285	-11.09
225.503	13.48
225.721	56.49
225.939	-25.43
226.157	3.24
226.375	81.07
226.592	81.07
226.81	-11.09
227.028	-0.85
227.246	64.68
227.464	40.11
227.682	-0.85
227.9	-52.05
228.117	42.15
228.335	68.78
228.553	-9.05
228.771	-19.29
228.989	81.07
229.206	72.87
229.424	-2.9
229.642	-0.85
229.86	46.25
230.077	33.96
230.295	31.91
230.513	74.92
230.731	7.34
230.948	91.31
231.166	83.11
231.384	-25.43
231.601	-19.29
231.819	9.39
232.037	31.91
232.254	38.06
232.472	13.48
232.689	87.21
232.907	42.15
233.125	25.77
233.342	13.48
233.56	21.67
233.777	83.11
233.995	29.87
234.213	70.83
234.43	83.11
234.648	-2.9
234.865	-56.15
235.083	15.53
235.3	-31.57
235.518	25.77
235.735	83.11
235.953	79.02
236.17	17.58
236.388	81.07
236.605	70.83
236.822	85.16
237.04	46.25
237.257	72.87
237.475	-31.57
237.692	-0.85
237.909	13.48
238.127	48.3
238.344	89.26
238.562	66.73
238.779	-25.43
238.996	-47.96
239.214	44.2
239.431	13.48
239.648	38.06
239.865	56.49
240.083	13.48
240.3	9.39
240.517	-35.67
240.735	11.43
240.952	64.68
241.169	33.96
241.386	-9.05
241.603	-19.29
241.821	-56.15
242.038	54.44
242.255	74.92
242.472	5.29
242.689	17.58
242.907	54.44
243.124	25.77
243.341	89.26
243.558	-25.43
243.775	58.54
243.992	25.77
244.209	74.92
244.426	107.69
244.643	5.29
244.86	-11.09
245.078	38.06
245.295	17.58
245.512	29.87
245.729	9.39
245.946	42.15
246.163	15.53
246.38	70.83
246.597	31.91
246.814	79.02
247.031	85.16
247.248	40.11
247.464	103.59
247.681	54.44
247.898	9.39
248.115	54.44
248.332	46.25
248.549	-29.52
248.766	105.64
248.983	56.49
249.2	21.67
249.417	48.3
249.633	50.35
249.85	42.15
250.067	1.19
250.284	40.11
250.501	-33.62
250.717	62.63
250.934	-84.82
251.151	-11.09
251.368	-27.48
251.585	44.2
251.801	13.48
252.018	13.48
252.235	5.29
252.451	-17.24
252.668	-31.57
252.885	95.4
253.102	58.54
253.318	33.96
253.535	-2.9
253.752	72.87
253.968	29.87
254.185	-45.91
254.401	23.72
254.618	70.83
254.835	70.83
255.051	128.17
255.268	46.25
255.484	83.11
255.701	-11.09
255.917	72.87
256.134	60.59
256.351	38.06
256.567	70.83
256.784	79.02
257	-25.43
257.217	13.48
257.433	21.67
257.65	25.77
257.866	5.29
258.082	17.58
258.299	23.72
258.515	72.87
258.732	66.73
258.948	1.19
259.165	130.22
259.381	56.49
259.597	44.2
259.814	62.63
260.03	54.44
260.246	29.87
260.463	83.11
260.679	48.3
260.895	42.15
261.112	70.83
261.328	-15.19
261.544	50.35
261.761	44.2
261.977	5.29
262.193	89.26
262.409	91.31
262.626	36.01
262.842	-0.85
263.058	-0.85
263.274	66.73
263.49	36.01
263.707	-15.19
263.923	56.49
264.139	-47.96
264.355	60.59
264.571	17.58
264.787	40.11
265.004	91.31
265.22	81.07
265.436	-64.34
265.652	33.96
265.868	83.11
266.084	21.67
266.3	7.34
266.516	-41.81
266.732	5.29
266.948	56.49
267.164	-41.81
267.38	29.87
267.596	9.39
267.812	-19.29
268.028	83.11
268.244	58.54
268.46	38.06
268.676	-11.09
268.892	42.15
269.108	13.48
269.324	-7
269.54	-35.67
269.756	107.69
269.972	9.39
270.188	-0.85
270.403	9.39
270.619	62.63
270.835	-35.67
271.051	21.67
271.267	-7
271.483	-47.96
271.698	-2.9
271.914	17.58
272.13	-9.05
272.346	-11.09
272.562	33.96
272.777	97.45
272.993	111.78
273.209	13.48
273.425	13.48
273.64	38.06
273.856	9.39
274.072	13.48
274.287	27.82
274.503	48.3
274.719	91.31
274.934	113.83
275.15	9.39
275.366	-15.19
275.581	-17.24
275.797	5.29
276.012	-2.9
276.228	29.87
276.444	23.72
276.659	21.67
276.875	-52.05
277.09	38.06
277.306	5.29
277.521	23.72
277.737	3.24
277.952	23.72
278.168	13.48
278.383	21.67
278.599	40.11
278.814	38.06
279.03	62.63
279.245	19.63
279.461	23.72
279.676	72.87
279.892	-2.9
280.107	40.11
280.322	-33.62
280.538	-2.9
280.753	36.01
280.969	-11.09
281.184	21.67
281.399	103.59
281.615	46.25
281.83	103.59
282.045	-35.67
282.26	29.87
282.476	68.78
282.691	13.48
282.906	-2.9
283.122	42.15
283.337	50.35
283.552	160.94
283.767	13.48
283.983	23.72
284.198	25.77
284.413	95.4
284.628	33.96
284.843	50.35
285.058	21.67
285.274	29.87
285.489	13.48
285.704	113.83
285.919	-13.14
286.134	-15.19
286.349	15.53
286.564	9.39
286.779	48.3
286.995	66.73
287.21	-41.81
287.425	128.17
287.64	-23.38
287.855	42.15
288.07	-56.15
288.285	97.45
288.5	11.43
288.715	33.96
288.93	23.72
289.145	56.49
289.36	56.49
289.575	21.67
289.79	54.44
290.004	7.34
290.219	-13.14
290.434	17.58
290.649	27.82
290.864	-2.9
291.079	-9.05
291.294	5.29
291.509	-2.9
291.724	23.72
291.938	29.87
292.153	46.25
292.368	15.53
292.583	48.3
292.798	74.92
293.012	-19.29
293.227	1.19
293.442	83.11
293.657	89.26
293.871	42.15
294.086	7.34
294.301	-19.29
294.516	21.67
294.73	46.25
294.945	15.53
295.16	58.54
295.374	56.49
295.589	-47.96
295.804	54.44
296.018	-19.29
296.233	23.72
296.447	23.72
296.662	54.44
296.877	-7
297.091	107.69
297.306	-58.2
297.52	44.2
297.735	97.45
297.949	42.15
298.164	29.87
298.378	-11.09
298.593	-37.72
298.807	-17.24
299.022	23.72
299.236	33.96
299.451	72.87
299.665	40.11
299.88	-41.81
300.094	-11.09
300.309	56.49
300.523	11.43
300.737	38.06
300.952	62.63
301.166	15.53
301.381	76.97
301.595	-58.2
301.809	70.83
302.024	13.48
302.238	-54.1
302.452	-17.24
302.667	19.63
302.881	95.4
303.095	74.92
303.309	72.87
303.524	50.35
303.738	3.24
303.952	29.87
304.166	79.02
304.381	-0.85
304.595	9.39
304.809	-19.29
305.023	70.83
305.237	36.01
305.452	-19.29
305.666	95.4
305.88	38.06
306.094	50.35
306.308	5.29
306.522	5.29
306.736	21.67
306.95	9.39
307.164	5.29
307.379	29.87
307.593	83.11
307.807	62.63
308.021	23.72
308.235	13.48
308.449	-25.43
308.663	-25.43
308.877	64.68
309.091	15.53
309.305	5.29
309.519	-15.19
309.733	70.83
309.947	-9.05
310.161	-17.24
310.374	87.21
310.588	66.73
310.802	91.31
311.016	13.48
311.23	21.67
311.444	-56.15
311.658	-2.9
311.872	36.01
312.085	33.96
312.299	5.29
312.513	66.73
312.727	46.25
312.941	13.48
313.154	48.3
313.368	15.53
313.582	50.35
313.796	38.06
314.009	-2.9
314.223	111.78
314.437	-9.05
314.651	40.11
314.864	68.78
315.078	79.02
315.292	54.44
315.505	42.15
315.719	25.77
315.933	46.25
316.146	64.68
316.36	31.91
316.573	25.77
316.787	-35.67
317.001	17.58
317.214	-25.43
317.428	25.77
317.641	38.06
317.855	87.21
318.068	-58.2
318.282	31.91
318.495	23.72
318.709	83.11
318.922	7.34
319.136	66.73
319.349	-82.77
319.563	-2.9
319.776	23.72
319.99	-66.39
320.203	74.92
320.417	113.83
320.63	31.91
320.843	5.29
321.057	101.55
321.27	21.67
321.483	15.53
321.697	99.5
321.91	21.67
322.124	29.87
322.337	42.15
322.55	79.02
322.763	-15.19
322.977	33.96
323.19	13.48
323.403	-19.29
323.617	40.11
323.83	56.49
324.043	-15.19
324.256	5.29
324.469	-0.85
324.683	134.31
324.896	38.06
325.109	-25.43
325.322	25.77
325.535	-23.38
325.748	76.97
325.962	62.63
326.175	54.44
326.388	38.06
326.601	89.26
326.814	79.02
327.027	128.17
327.24	74.92
327.453	-27.48
327.666	-15.19
327.879	87.21
328.092	-25.43
328.305	56.49
328.518	46.25
328.731	79.02
328.944	38.06
329.157	62.63
329.37	5.29
329.583	74.92
329.796	15.53
330.009	-21.33
330.222	40.11
330.435	29.87
330.648	76.97
330.861	-2.9
331.073	72.87
331.286	62.63
331.499	29.87
331.712	5.29
331.925	-41.81
332.138	46.25
332.35	109.74
332.563	7.34
332.776	40.11
332.989	46.25
333.202	70.83
333.414	42.15
333.627	-11.09
333.84	29.87
334.053	29.87
334.265	-7
334.478	50.35
334.691	-9.05
334.903	-19.29
335.116	44.2
335.329	-4.95
335.541	46.25
335.754	68.78
335.966	-2.9
336.179	-33.62
336.392	-29.52
336.604	-17.24
336.817	60.59
337.029	64.68
337.242	56.49
337.454	64.68
337.667	-27.48
337.88	62.63
338.092	74.92
338.305	115.88
338.517	9.39
338.729	105.64
338.942	66.73
339.154	-27.48
339.367	1.19
339.579	5.29
339.792	46.25
340.004	89.26
340.217	-15.19
340.429	124.07
340.641	-19.29
340.854	15.53
341.066	17.58
341.278	74.92
341.491	46.25
341.703	-0.85
341.915	-68.44
342.128	111.78
342.34	48.3
342.552	19.63
342.764	21.67
342.977	50.35
343.189	115.88
343.401	81.07
343.613	-93.01
343.826	58.54
344.038	21.67
344.25	23.72
344.462	1.19
344.674	62.63
344.886	70.83
345.099	70.83
345.311	62.63
345.523	-66.39
345.735	42.15
345.947	46.25
346.159	38.06
346.371	-9.05
346.583	29.87
346.795	48.3
347.007	21.67
347.219	54.44
347.431	33.96
347.643	48.3
347.855	-4.95
348.067	83.11
348.279	62.63
348.491	44.2
348.703	23.72
348.915	-11.09
349.127	50.35
349.339	58.54
349.551	46.25
349.763	46.25
349.975	70.83
350.187	54.44
350.399	48.3
350.61	13.48
350.822	-4.95
351.034	64.68
351.246	42.15
351.458	56.49
351.669	91.31
351.881	107.69
352.093	29.87
352.305	76.97
352.517	1.19
352.728	23.72
352.94	33.96
353.152	169.13
353.363	25.77
353.575	-9.05
353.787	58.54
353.999	79.02
354.21	103.59
354.422	48.3
354.633	-7
354.845	21.67
355.057	44.2
355.268	31.91
355.48	95.4
355.692	23.72
355.903	72.87
356.115	44.2
356.326	-19.29
356.538	31.91
356.749	68.78
356.961	87.21
357.172	74.92
357.384	21.67
357.595	64.68
357.807	-15.19
358.018	103.59
358.23	36.01
358.441	46.25
358.653	17.58
358.864	21.67
359.075	29.87
359.287	50.35
359.498	81.07
359.709	56.49
359.921	62.63
360.132	-43.86
360.344	9.39
360.555	-88.92
360.766	-0.85
360.977	54.44
361.189	46.25
361.4	46.25
361.611	-52.05
361.823	46.25
362.034	50.35
362.245	42.15
362.456	-33.62
362.667	13.48
362.879	40.11
363.09	1.19
363.301	144.55
363.512	33.96
363.723	62.63
363.935	9.39
364.146	42.15
364.357	64.68
364.568	52.39
364.779	115.88
364.99	95.4
365.201	87.21
365.412	-11.09
365.623	23.72
365.834	97.45
366.045	79.02
366.256	146.6
366.467	128.17
366.678	5.29
366.889	122.02
367.1	-0.85
367.311	70.83
367.522	21.67
367.733	83.11
367.944	74.92
368.155	46.25
368.366	81.07
368.577	83.11
368.788	154.79
368.999	38.06
369.209	1.19
369.42	113.83
369.631	113.83
369.842	5.29
370.053	54.44
370.264	165.03
370.474	31.91
370.685	5.29
370.896	79.02
371.107	83.11
371.317	48.3
371.528	5.29
371.739	83.11
371.95	-60.24
372.16	1.19
372.371	9.39
372.582	64.68
372.792	50.35
373.003	54.44
373.214	85.16
373.424	83.11
373.635	38.06
373.846	81.07
374.056	85.16
374.267	52.39
374.477	9.39
374.688	38.06
374.898	21.67
375.109	21.67
375.319	48.3
375.53	62.63
375.74	66.73
375.951	33.96
376.161	33.96
376.372	122.02
376.582	79.02
376.793	17.58
377.003	56.49
377.214	19.63
377.424	62.63
377.635	48.3
377.845	-15.19
378.055	70.83
378.266	-15.19
378.476	17.58
378.686	7.34
378.897	54.44
379.107	81.07
379.317	29.87
379.528	46.25
379.738	95.4
379.948	-43.86
380.158	48.3
380.369	54.44
380.579	70.83
380.789	-4.95
380.999	-9.05
381.21	79.02
381.42	85.16
381.63	23.72
381.84	68.78
382.05	50.35
382.261	13.48
382.471	74.92
382.681	-11.09
382.891	42.15
383.101	42.15
383.311	29.87
383.521	-7
383.731	66.73
383.941	99.5
384.151	140.46
384.361	21.67
384.571	17.58
384.781	-2.9
384.991	122.02
385.201	54.44
385.411	29.87
385.621	91.31
385.831	40.11
386.041	15.53
386.251	5.29
386.461	144.55
386.671	46.25
386.881	72.87
387.091	33.96
387.301	76.97
387.511	-2.9
387.72	70.83
387.93	70.83
388.14	40.11
388.35	29.87
388.56	42.15
388.769	93.35
388.979	54.44
389.189	-23.38
389.399	-9.05
389.609	27.82
389.818	40.11
390.028	3.24
390.238	17.58
390.447	54.44
390.657	15.53
390.867	97.45
391.076	-11.09
391.286	7.34
391.496	29.87
391.705	85.16
391.915	72.87
392.125	99.5
392.334	70.83
392.544	15.53
392.753	54.44
392.963	79.02
393.172	48.3
393.382	72.87
393.591	89.26
393.801	52.39
394.01	81.07
394.22	17.58
394.429	136.36
394.639	66.73
394.848	85.16
395.058	79.02
395.267	83.11
395.477	117.93
395.686	50.35
395.895	64.68
396.105	136.36
396.314	17.58
396.524	56.49
396.733	27.82
396.942	103.59
397.152	89.26
397.361	87.21
397.57	99.5
397.78	-15.19
397.989	56.49
398.198	130.22
398.407	72.87
398.617	46.25
398.826	5.29
399.035	79.02
399.244	111.78
399.453	185.51
399.663	101.55
399.872	148.65
400.081	38.06
400.29	79.02
400.499	89.26
400.708	107.69
400.917	83.11
401.127	128.17
401.336	150.7
401.545	154.79
401.754	138.41
401.963	101.55
402.172	99.5
402.381	1.19
402.59	128.17
402.799	97.45
403.008	101.55
403.217	54.44
403.426	140.46
403.635	93.35
403.844	101.55
404.053	91.31
404.262	124.07
404.471	203.94
404.68	62.63
404.888	146.6
405.097	136.36
405.306	130.22
405.515	195.75
405.724	140.46
405.933	117.93
406.142	154.79
406.35	224.42
406.559	152.74
406.768	156.84
406.977	212.14
407.185	177.32
407.394	179.37
407.603	150.7
407.812	222.38
408.02	169.13
408.229	185.51
408.438	193.7
408.646	105.64
408.855	144.55
409.064	201.9
409.272	236.71
409.481	296.1
409.69	222.38
409.898	261.29
410.107	226.47
410.315	246.95
410.524	279.72
410.733	216.23
410.941	287.91
411.15	255.14
411.358	343.21
411.567	255.14
411.775	279.72
411.984	277.67
412.192	324.77
412.401	318.63
412.609	406.69
412.818	378.02
413.026	408.74
413.234	408.74
413.443	308.39
413.651	431.27
413.86	402.6
414.068	562.34
414.276	519.33
414.485	472.23
414.693	545.95
414.901	636.06
415.11	545.95
415.318	523.43
415.526	570.53
415.734	650.4
415.943	636.06
416.151	611.49
416.359	627.87
416.567	717.98
416.776	769.18
416.984	703.65
417.192	744.61
417.4	720.03
417.608	754.85
417.817	799.9
418.025	865.44
418.233	957.6
418.441	922.78
418.649	842.91
418.857	1088.67
419.065	1006.75
419.273	1039.51
419.481	1094.81
419.689	1055.9
419.897	1119.39
420.105	1217.69
420.313	1227.93
420.521	1328.28
420.729	1326.23
420.937	1332.37
421.145	1324.18
421.353	1373.33
421.561	1592.47
421.769	1479.83
421.977	1588.37
422.185	1571.99
422.393	1680.53
422.601	1825.93
422.809	1817.74
423.017	1803.41
423.224	1807.5
423.432	1907.85
423.64	1926.29
423.848	2090.12
424.056	1995.92
424.263	2131.08
424.471	2141.32
424.679	2339.97
424.887	2405.51
425.094	2448.52
425.302	2536.58
425.51	2458.76
425.718	2671.75
425.925	2669.7
426.133	2669.7
426.341	2942.08
426.548	2897.02
426.756	3050.62
426.964	3124.35
427.171	3298.42
427.379	3347.58
427.586	3267.7
427.794	3417.21
428.001	3638.39
428.209	3691.63
428.417	3626.1
428.624	3998.83
428.832	3974.25
429.039	3968.11
429.247	4031.6
429.454	4459.62
429.662	4478.05
429.869	4076.65
430.076	4568.16
430.284	4523.11
430.491	4629.6
430.699	4936.8
430.906	4965.47
431.114	5067.87
431.321	5327.96
431.528	5413.98
431.736	5602.39
431.943	5944.4
432.15	5563.48
432.358	5698.64
432.565	6044.75
432.772	6091.85
432.979	6407.24
433.187	6583.37
433.394	6634.57
433.601	6882.37
433.808	7064.64
434.016	7044.16
434.223	7238.72
434.43	7767.09
434.637	7517.24
434.844	7963.7
435.052	8131.63
435.259	7914.55
435.466	8303.66
435.673	8041.52
435.88	8573.99
436.087	9038.88
436.294	8963.11
436.501	8846.37
436.708	8942.63
436.915	9282.59
437.122	9759.77
437.329	9645.08
437.537	9823.25
437.743	10206.22
437.95	9978.9
438.157	10619.91
438.364	10875.91
438.571	11039.75
438.778	11131.9
438.985	12207.09
439.192	11561.98
439.399	11811.83
439.606	11426.81
439.813	12159.99
440.02	13083.62
440.227	12909.54
440.433	12809.19
440.64	13235.17
440.847	13063.14
441.054	13349.85
441.261	14205.91
441.467	13947.86
441.674	14447.57
441.881	14818.25
442.088	14820.3
442.294	14611.4
442.501	15000.52
442.708	15432.64
442.914	15811.51
443.121	16735.15
443.328	16225.2
443.534	17124.26
443.741	16794.54
443.948	16581.55
444.154	17988.5
444.361	17798.04
444.568	17822.62
444.774	18095
444.981	18080.66
445.187	18635.66
445.394	19329.92
445.6	19075.98
445.807	21070.7
446.013	19905.4
446.22	20392.82
446.426	21148.52
446.633	21730.14
446.839	22229.85
447.046	21240.68
447.252	22702.93
447.459	22590.29
447.665	22246.23
447.871	23237.45
448.078	24556.34
448.284	22963.02
448.491	24134.46
448.697	24429.37
448.903	25580.32
449.11	25410.34
449.316	25174.83
449.522	25527.08
449.728	26170.14
449.935	26219.29
450.141	26702.61
450.347	27142.92
450.553	26110.75
450.76	26540.82
450.966	27622.15
451.172	26884.88
451.378	27859.71
451.584	27259.66
451.791	27601.67
451.997	27747.08
452.203	28510.97
452.409	28275.45
452.615	28308.22
452.821	27161.36
453.027	26788.63
453.233	28349.18
453.44	27024.14
453.646	27489.03
453.852	27597.57
454.058	27886.34
454.264	27210.51
454.47	27814.66
454.676	27362.06
454.882	28109.57
455.088	25705.25
455.294	26147.61
455.5	26448.66
455.705	26680.08
455.911	25520.93
456.117	25187.11
456.323	24998.7
456.529	23511.88
456.735	24830.77
456.941	24103.74
457.147	23802.69
457.352	22836.05
457.558	22520.66
457.764	22975.31
457.97	22518.61
458.176	21984.09
458.381	21842.78
458.587	20747.12
458.793	20927.34
458.999	20052.86
459.204	21439.33
459.41	20661.1
459.616	19454.85
459.821	19338.12
460.027	19225.48
460.233	19041.16
460.438	17980.31
460.644	18262.93
460.85	17161.12
461.055	16890.79
461.261	16966.57
461.466	15981.49
461.672	15256.51
461.878	16210.87
462.083	15315.9
462.289	15053.76
462.494	14902.22
462.7	14244.82
462.905	13890.52
463.111	14449.61
463.316	14431.18
463.522	14160.85
463.727	14056.4
463.932	14072.79
464.138	13849.56
464.343	13798.36
464.549	13587.42
464.754	14148.56
464.959	13804.5
465.165	13796.31
465.37	13186.02
465.575	12831.72
465.781	13485.02
465.986	13298.66
466.191	12674.03
466.397	12622.83
466.602	12059.63
466.807	12413.93
467.012	12397.55
467.218	12573.67
467.423	12338.16
467.628	12522.48
467.833	12950.5
468.038	12475.37
