Data from USB4F104151__288__14-46-26-474.txt Node

Date: Thu Mar 13 14:46:26 EDT 2025
User: louis
Spectrometer: USB4F10415
Trigger mode: 4
Integration Time (sec): 2.000000E-2
Scans to average: 1
Electric dark correction enabled: true
Nonlinearity correction enabled: false
Boxcar width: 0
XAxis mode: Wavelengths
Number of Pixels in Spectrum: 3648
>>>>>Begin Spectral Data<<<<<
178.204	-46.76
178.424	-46.76
178.644	-46.76
178.864	-138.92
179.084	-22.19
179.304	-13.99
179.524	-7.85
179.744	-57
179.964	98.64
180.184	-9.9
180.404	-3.75
180.624	51.54
180.844	-50.86
181.064	-11.95
181.283	-38.57
181.503	-24.23
181.723	67.92
181.943	0.34
182.163	92.5
182.383	-34.47
182.602	16.73
182.822	96.6
183.042	82.26
183.262	41.3
183.482	16.73
183.701	88.4
183.921	33.11
184.141	-1.71
184.361	80.21
184.58	63.83
184.8	18.77
185.02	-38.57
185.239	72.02
185.459	47.44
185.679	57.68
185.898	-1.71
186.118	72.02
186.338	41.3
186.557	96.6
186.777	41.3
186.997	-7.85
187.216	0.34
187.436	121.17
187.655	-22.19
187.875	61.78
188.095	59.73
188.314	88.4
188.534	67.92
188.753	8.53
188.973	24.92
189.192	41.3
189.412	55.64
189.631	41.3
189.851	82.26
190.07	80.21
190.29	37.2
190.509	47.44
190.729	39.25
190.948	129.36
191.168	141.65
191.387	59.73
191.607	43.35
191.826	39.25
192.045	-26.28
192.265	41.3
192.484	108.88
192.704	49.49
192.923	6.49
193.142	96.6
193.362	31.06
193.581	98.64
193.8	63.83
194.02	31.06
194.239	51.54
194.458	76.12
194.678	59.73
194.897	59.73
195.116	6.49
195.335	6.49
195.555	57.68
195.774	4.44
195.993	22.87
196.212	33.11
196.432	-26.28
196.651	14.68
196.87	0.34
197.089	121.17
197.308	49.49
197.528	112.98
197.747	16.73
197.966	104.79
198.185	82.26
198.404	37.2
198.623	74.07
198.842	35.16
199.062	84.31
199.281	92.5
199.5	55.64
199.719	26.96
199.938	33.11
200.157	98.64
200.376	59.73
200.595	57.68
200.814	35.16
201.033	-9.9
201.252	102.74
201.471	63.83
201.69	94.55
201.909	72.02
202.128	49.49
202.347	84.31
202.566	29.01
202.785	63.83
203.004	16.73
203.223	74.07
203.442	31.06
203.661	43.35
203.879	22.87
204.098	74.07
204.317	51.54
204.536	74.07
204.755	20.82
204.974	129.36
205.193	63.83
205.411	104.79
205.63	78.16
205.849	31.06
206.068	63.83
206.287	31.06
206.505	49.49
206.724	72.02
206.943	35.16
207.162	61.78
207.381	55.64
207.599	24.92
207.818	-18.09
208.037	104.79
208.255	10.58
208.474	-7.85
208.693	41.3
208.911	8.53
209.13	59.73
209.349	22.87
209.567	80.21
209.786	190.8
210.005	22.87
210.223	55.64
210.442	-18.09
210.661	153.94
210.879	22.87
211.098	61.78
211.316	55.64
211.535	39.25
211.753	33.11
211.972	0.34
212.191	115.03
212.409	-9.9
212.628	-1.71
212.846	39.25
213.065	63.83
213.283	121.17
213.502	-50.86
213.72	47.44
213.938	12.63
214.157	39.25
214.375	31.06
214.594	55.64
214.812	129.36
215.031	26.96
215.249	63.83
215.467	-1.71
215.686	102.74
215.904	96.6
216.122	63.83
216.341	80.21
216.559	74.07
216.778	127.32
216.996	82.26
217.214	72.02
217.432	-16.04
217.651	18.77
217.869	12.63
218.087	72.02
218.306	112.98
218.524	35.16
218.742	22.87
218.96	49.49
219.179	49.49
219.397	33.11
219.615	92.5
219.833	6.49
220.051	61.78
220.27	78.16
220.488	18.77
220.706	82.26
220.924	18.77
221.142	43.35
221.36	18.77
221.578	63.83
221.796	16.73
222.015	98.64
222.233	14.68
222.451	67.92
222.669	20.82
222.887	-5.8
223.105	12.63
223.323	-5.8
223.541	-1.71
223.759	84.31
223.977	51.54
224.195	131.41
224.413	47.44
224.631	80.21
224.849	10.58
225.067	10.58
225.285	10.58
225.503	14.68
225.721	2.39
225.939	4.44
226.157	98.64
226.375	145.75
226.592	22.87
226.81	72.02
227.028	8.53
227.246	90.45
227.464	82.26
227.682	47.44
227.9	10.58
228.117	63.83
228.335	10.58
228.553	74.07
228.771	65.88
228.989	-13.99
229.206	-13.99
229.424	16.73
229.642	16.73
229.86	63.83
230.077	96.6
230.295	59.73
230.513	22.87
230.731	78.16
230.948	41.3
231.166	35.16
231.384	57.68
231.601	16.73
231.819	76.12
232.037	8.53
232.254	-13.99
232.472	63.83
232.689	0.34
232.907	37.2
233.125	18.77
233.342	59.73
233.56	80.21
233.777	35.16
233.995	26.96
234.213	112.98
234.43	24.92
234.648	22.87
234.865	33.11
235.083	39.25
235.3	31.06
235.518	96.6
235.735	72.02
235.953	137.56
236.17	72.02
236.388	-9.9
236.605	-32.43
236.822	137.56
237.04	45.4
237.257	24.92
237.475	69.97
237.692	24.92
237.909	41.3
238.127	31.06
238.344	72.02
238.562	-7.85
238.779	-42.67
238.996	2.39
239.214	35.16
239.431	31.06
239.648	65.88
239.865	104.79
240.083	92.5
240.3	10.58
240.517	14.68
240.735	33.11
240.952	47.44
241.169	137.56
241.386	39.25
241.603	49.49
241.821	26.96
242.038	125.27
242.255	24.92
242.472	41.3
242.689	47.44
242.907	82.26
243.124	-20.14
243.341	57.68
243.558	-32.43
243.775	82.26
243.992	0.34
244.209	39.25
244.426	158.03
244.643	67.92
244.86	74.07
245.078	49.49
245.295	51.54
245.512	-26.28
245.729	31.06
245.946	45.4
246.163	43.35
246.38	96.6
246.597	-5.8
246.814	59.73
247.031	31.06
247.248	43.35
247.464	47.44
247.681	104.79
247.898	59.73
248.115	6.49
248.332	0.34
248.549	20.82
248.766	88.4
248.983	-7.85
249.2	-18.09
249.417	104.79
249.633	53.59
249.85	55.64
250.067	-13.99
250.284	106.84
250.501	72.02
250.717	80.21
250.934	-3.75
251.151	47.44
251.368	57.68
251.585	55.64
251.801	74.07
252.018	72.02
252.235	59.73
252.451	63.83
252.668	-97.96
252.885	20.82
253.102	59.73
253.318	65.88
253.535	2.39
253.752	16.73
253.968	104.79
254.185	31.06
254.401	-13.99
254.618	47.44
254.835	-1.71
255.051	57.68
255.268	24.92
255.484	2.39
255.701	69.97
255.917	49.49
256.134	-1.71
256.351	16.73
256.567	31.06
256.784	88.4
257	-1.71
257.217	80.21
257.433	51.54
257.65	18.77
257.866	92.5
258.082	26.96
258.299	72.02
258.515	84.31
258.732	26.96
258.948	55.64
259.165	129.36
259.381	18.77
259.597	-9.9
259.814	14.68
260.03	22.87
260.246	-24.23
260.463	80.21
260.679	115.03
260.895	67.92
261.112	59.73
261.328	6.49
261.544	55.64
261.761	137.56
261.977	53.59
262.193	8.53
262.409	65.88
262.626	35.16
262.842	31.06
263.058	98.64
263.274	94.55
263.49	51.54
263.707	51.54
263.923	6.49
264.139	57.68
264.355	16.73
264.571	82.26
264.787	67.92
265.004	24.92
265.22	43.35
265.436	-1.71
265.652	47.44
265.868	53.59
266.084	80.21
266.3	22.87
266.516	14.68
266.732	14.68
266.948	43.35
267.164	33.11
267.38	92.5
267.596	151.89
267.812	59.73
268.028	33.11
268.244	29.01
268.46	53.59
268.676	69.97
268.892	39.25
269.108	31.06
269.324	74.07
269.54	45.4
269.756	-24.23
269.972	33.11
270.188	80.21
270.403	69.97
270.619	90.45
270.835	96.6
271.051	47.44
271.267	98.64
271.483	59.73
271.698	74.07
271.914	24.92
272.13	98.64
272.346	-42.67
272.562	53.59
272.777	92.5
272.993	76.12
273.209	51.54
273.425	2.39
273.64	18.77
273.856	37.2
274.072	98.64
274.287	-32.43
274.503	-1.71
274.719	94.55
274.934	63.83
275.15	35.16
275.366	-34.47
275.581	10.58
275.797	22.87
276.012	-22.19
276.228	-7.85
276.444	-1.71
276.659	94.55
276.875	88.4
277.09	63.83
277.306	-11.95
277.521	26.96
277.737	53.59
277.952	61.78
278.168	80.21
278.383	51.54
278.599	94.55
278.814	63.83
279.03	72.02
279.245	84.31
279.461	88.4
279.676	115.03
279.892	-18.09
280.107	65.88
280.322	49.49
280.538	82.26
280.753	59.73
280.969	47.44
281.184	84.31
281.399	55.64
281.615	74.07
281.83	49.49
282.045	-9.9
282.26	37.2
282.476	35.16
282.691	90.45
282.906	49.49
283.122	76.12
283.337	22.87
283.552	80.21
283.767	-24.23
283.983	80.21
284.198	33.11
284.413	74.07
284.628	-22.19
284.843	16.73
285.058	112.98
285.274	88.4
285.489	8.53
285.704	14.68
285.919	-5.8
286.134	0.34
286.349	-16.04
286.564	31.06
286.779	72.02
286.995	92.5
287.21	55.64
287.425	80.21
287.64	-32.43
287.855	90.45
288.07	26.96
288.285	129.36
288.5	63.83
288.715	82.26
288.93	96.6
289.145	63.83
289.36	57.68
289.575	80.21
289.79	117.08
290.004	47.44
290.219	51.54
290.434	-18.09
290.649	31.06
290.864	0.34
291.079	39.25
291.294	43.35
291.509	74.07
291.724	43.35
291.938	45.4
292.153	106.84
292.368	31.06
292.583	119.12
292.798	67.92
293.012	47.44
293.227	84.31
293.442	119.12
293.657	88.4
293.871	18.77
294.086	-3.75
294.301	88.4
294.516	110.93
294.73	43.35
294.945	123.22
295.16	35.16
295.374	55.64
295.589	55.64
295.804	-22.19
296.018	112.98
296.233	51.54
296.447	57.68
296.662	84.31
296.877	129.36
297.091	26.96
297.306	98.64
297.52	82.26
297.735	63.83
297.949	82.26
298.164	65.88
298.378	72.02
298.593	67.92
298.807	0.34
299.022	100.69
299.236	63.83
299.451	47.44
299.665	8.53
299.88	51.54
300.094	127.32
300.309	26.96
300.523	55.64
300.737	65.88
300.952	104.79
301.166	104.79
301.381	6.49
301.595	-1.71
301.809	6.49
302.024	14.68
302.238	26.96
302.452	6.49
302.667	72.02
302.881	76.12
303.095	86.36
303.309	110.93
303.524	22.87
303.738	74.07
303.952	18.77
304.166	78.16
304.381	-9.9
304.595	63.83
304.809	-50.86
305.023	121.17
305.237	35.16
305.452	49.49
305.666	72.02
305.88	14.68
306.094	20.82
306.308	53.59
306.522	96.6
306.736	20.82
306.95	74.07
307.164	-28.33
307.379	65.88
307.593	80.21
307.807	115.03
308.021	31.06
308.235	20.82
308.449	59.73
308.663	-24.23
308.877	141.65
309.091	92.5
309.305	-16.04
309.519	2.39
309.733	-9.9
309.947	55.64
310.161	55.64
310.374	43.35
310.588	33.11
310.802	-9.9
311.016	47.44
311.23	76.12
311.444	74.07
311.658	12.63
311.872	-1.71
312.085	31.06
312.299	53.59
312.513	80.21
312.727	39.25
312.941	24.92
313.154	98.64
313.368	29.01
313.582	-16.04
313.796	2.39
314.009	76.12
314.223	94.55
314.437	26.96
314.651	63.83
314.864	8.53
315.078	67.92
315.292	6.49
315.505	65.88
315.719	43.35
315.933	78.16
316.146	59.73
316.36	22.87
316.573	39.25
316.787	178.51
317.001	55.64
317.214	26.96
317.428	67.92
317.641	67.92
317.855	72.02
318.068	96.6
318.282	69.97
318.495	39.25
318.709	82.26
318.922	121.17
319.136	121.17
319.349	51.54
319.563	33.11
319.776	31.06
319.99	39.25
320.203	84.31
320.417	41.3
320.63	63.83
320.843	76.12
321.057	133.46
321.27	0.34
321.483	39.25
321.697	104.79
321.91	82.26
322.124	14.68
322.337	0.34
322.55	39.25
322.763	104.79
322.977	49.49
323.19	24.92
323.403	98.64
323.617	96.6
323.83	57.68
324.043	88.4
324.256	80.21
324.469	-18.09
324.683	137.56
324.896	33.11
325.109	41.3
325.322	6.49
325.535	35.16
325.748	74.07
325.962	104.79
326.175	104.79
326.388	51.54
326.601	31.06
326.814	10.58
327.027	55.64
327.24	112.98
327.453	-1.71
327.666	2.39
327.879	57.68
328.092	115.03
328.305	72.02
328.518	67.92
328.731	18.77
328.944	-13.99
329.157	24.92
329.37	61.78
329.583	80.21
329.796	92.5
330.009	14.68
330.222	67.92
330.435	59.73
330.648	61.78
330.861	-9.9
331.073	104.79
331.286	59.73
331.499	-7.85
331.712	-22.19
331.925	39.25
332.138	-7.85
332.35	67.92
332.563	-9.9
332.776	121.17
332.989	108.88
333.202	18.77
333.414	51.54
333.627	100.69
333.84	24.92
334.053	121.17
334.265	0.34
334.478	31.06
334.691	59.73
334.903	88.4
335.116	6.49
335.329	63.83
335.541	115.03
335.754	96.6
335.966	84.31
336.179	49.49
336.392	112.98
336.604	14.68
336.817	80.21
337.029	0.34
337.242	76.12
337.454	35.16
337.667	4.44
337.88	104.79
338.092	39.25
338.305	57.68
338.517	-7.85
338.729	76.12
338.942	96.6
339.154	31.06
339.367	39.25
339.579	98.64
339.792	53.59
340.004	-13.99
340.217	10.58
340.429	55.64
340.641	-40.62
340.854	72.02
341.066	88.4
341.278	39.25
341.491	72.02
341.703	131.41
341.915	2.39
342.128	63.83
342.34	39.25
342.552	-1.71
342.764	90.45
342.977	-32.43
343.189	24.92
343.401	16.73
343.613	106.84
343.826	47.44
344.038	37.2
344.25	67.92
344.462	65.88
344.674	67.92
344.886	61.78
345.099	47.44
345.311	14.68
345.523	59.73
345.735	90.45
345.947	41.3
346.159	39.25
346.371	72.02
346.583	82.26
346.795	110.93
347.007	39.25
347.219	158.03
347.431	76.12
347.643	6.49
347.855	55.64
348.067	112.98
348.279	35.16
348.491	57.68
348.703	31.06
348.915	88.4
349.127	26.96
349.339	22.87
349.551	2.39
349.763	22.87
349.975	39.25
350.187	145.75
350.399	74.07
350.61	72.02
350.822	-48.81
351.034	-5.8
351.246	-46.76
351.458	31.06
351.669	16.73
351.881	80.21
352.093	63.83
352.305	141.65
352.517	82.26
352.728	69.97
352.94	57.68
353.152	33.11
353.363	84.31
353.575	82.26
353.787	94.55
353.999	72.02
354.21	131.41
354.422	18.77
354.633	22.87
354.845	72.02
355.057	61.78
355.268	47.44
355.48	55.64
355.692	14.68
355.903	43.35
356.115	39.25
356.326	65.88
356.538	39.25
356.749	80.21
356.961	98.64
357.172	78.16
357.384	65.88
357.595	108.88
357.807	65.88
358.018	47.44
358.23	31.06
358.441	98.64
358.653	18.77
358.864	98.64
359.075	43.35
359.287	74.07
359.498	33.11
359.709	51.54
359.921	16.73
360.132	90.45
360.344	94.55
360.555	82.26
360.766	121.17
360.977	-26.28
361.189	100.69
361.4	119.12
361.611	74.07
361.823	63.83
362.034	131.41
362.245	10.58
362.456	26.96
362.667	143.7
362.879	92.5
363.09	92.5
363.301	76.12
363.512	104.79
363.723	67.92
363.935	43.35
364.146	72.02
364.357	43.35
364.568	65.88
364.779	14.68
364.99	-18.09
365.201	22.87
365.412	14.68
365.623	26.96
365.834	49.49
366.045	129.36
366.256	88.4
366.467	108.88
366.678	47.44
366.889	39.25
367.1	43.35
367.311	31.06
367.522	-3.75
367.733	43.35
367.944	106.84
368.155	41.3
368.366	55.64
368.577	33.11
368.788	96.6
368.999	14.68
369.209	31.06
369.42	133.46
369.631	100.69
369.842	55.64
370.053	-16.04
370.264	96.6
370.474	-7.85
370.685	74.07
370.896	63.83
371.107	24.92
371.317	137.56
371.528	92.5
371.739	137.56
371.95	43.35
372.16	57.68
372.371	39.25
372.582	31.06
372.792	55.64
373.003	121.17
373.214	84.31
373.424	49.49
373.635	26.96
373.846	76.12
374.056	39.25
374.267	117.08
374.477	41.3
374.688	41.3
374.898	31.06
375.109	16.73
375.319	65.88
375.53	102.74
375.74	72.02
375.951	33.11
376.161	88.4
376.372	121.17
376.582	100.69
376.793	65.88
377.003	104.79
377.214	14.68
377.424	92.5
377.635	102.74
377.845	31.06
378.055	104.79
378.266	26.96
378.476	55.64
378.686	45.4
378.897	108.88
379.107	-5.8
379.317	92.5
379.528	131.41
379.738	78.16
379.948	72.02
380.158	31.06
380.369	33.11
380.579	76.12
380.789	14.68
380.999	24.92
381.21	26.96
381.42	100.69
381.63	55.64
381.84	55.64
382.05	51.54
382.261	92.5
382.471	96.6
382.681	63.83
382.891	98.64
383.101	110.93
383.311	24.92
383.521	47.44
383.731	47.44
383.941	82.26
384.151	76.12
384.361	41.3
384.571	41.3
384.781	63.83
384.991	96.6
385.201	80.21
385.411	61.78
385.621	-16.04
385.831	43.35
386.041	39.25
386.251	67.92
386.461	2.39
386.671	102.74
386.881	59.73
387.091	29.01
387.301	112.98
387.511	96.6
387.72	104.79
387.93	76.12
388.14	-13.99
388.35	55.64
388.56	80.21
388.769	88.4
388.979	82.26
389.189	88.4
389.399	100.69
389.609	-11.95
389.818	131.41
390.028	112.98
390.238	39.25
390.447	47.44
390.657	115.03
390.867	112.98
391.076	39.25
391.286	20.82
391.496	-24.23
391.705	29.01
391.915	82.26
392.125	53.59
392.334	-5.8
392.544	76.12
392.753	43.35
392.963	76.12
393.172	96.6
393.382	35.16
393.591	67.92
393.801	6.49
394.01	125.27
394.22	129.36
394.429	43.35
394.639	67.92
394.848	80.21
395.058	117.08
395.267	102.74
395.477	100.69
395.686	153.94
395.895	158.03
396.105	143.7
396.314	112.98
396.524	22.87
396.733	98.64
396.942	82.26
397.152	129.36
397.361	82.26
397.57	84.31
397.78	-9.9
397.989	35.16
398.198	190.8
398.407	22.87
398.617	133.46
398.826	92.5
399.035	123.22
399.244	31.06
399.453	88.4
399.663	57.68
399.872	24.92
400.081	98.64
400.29	137.56
400.499	41.3
400.708	96.6
400.917	168.27
401.127	131.41
401.336	37.2
401.545	194.9
401.754	72.02
401.963	100.69
402.172	63.83
402.381	92.5
402.59	121.17
402.799	53.59
403.008	162.13
403.217	137.56
403.426	151.89
403.635	55.64
403.844	131.41
404.053	82.26
404.262	74.07
404.471	112.98
404.68	170.32
404.888	72.02
405.097	155.99
405.306	166.23
405.515	147.8
405.724	153.94
405.933	178.51
406.142	100.69
406.35	149.84
406.559	207.19
406.768	145.75
406.977	160.08
407.185	170.32
407.394	188.75
407.603	153.94
407.812	172.37
408.02	188.75
408.229	147.8
408.438	149.84
408.646	198.99
408.855	219.47
409.064	258.39
409.272	223.57
409.481	182.61
409.69	153.94
409.898	221.52
410.107	215.38
410.315	229.71
410.524	158.03
410.733	244.05
410.941	235.86
411.15	280.91
411.358	260.43
411.567	325.97
411.775	328.02
411.984	297.3
412.192	358.74
412.401	399.7
412.609	407.89
412.818	391.5
413.026	338.26
413.234	276.82
413.443	393.55
413.651	418.13
413.86	434.51
414.068	450.89
414.276	495.95
414.485	420.17
414.693	500.05
414.901	516.43
415.11	614.73
415.318	522.57
415.526	530.77
415.734	502.09
415.943	547.15
416.151	657.74
416.359	616.78
416.567	620.88
416.776	530.77
416.984	737.61
417.192	735.56
417.4	645.45
417.608	743.75
417.817	706.89
418.025	735.56
418.233	876.87
418.441	891.21
418.649	850.25
418.857	850.25
419.065	876.87
419.273	868.68
419.481	966.98
419.689	1042.76
419.897	975.17
420.105	1057.09
420.313	1053
420.521	1100.1
420.729	1120.58
420.937	1110.34
421.145	1153.35
421.353	1288.51
421.561	1360.19
421.769	1335.62
421.977	1382.72
422.185	1349.95
422.393	1579.33
422.601	1630.52
422.809	1587.52
423.017	1530.17
423.224	1685.82
423.432	1622.33
423.64	1657.15
423.848	1855.8
424.056	1853.75
424.263	1853.75
424.471	1849.66
424.679	1970.49
424.887	2130.23
425.094	2152.76
425.302	2154.8
425.51	2210.1
425.718	2312.5
425.925	2341.17
426.133	2402.61
426.341	2548.01
426.548	2652.46
426.756	2736.43
426.964	2537.77
427.171	2896.17
427.379	2963.75
427.586	2988.33
427.794	2988.33
428.001	3186.98
428.209	3258.66
428.417	3189.03
428.624	3447.07
428.832	3526.94
429.039	3471.65
429.247	3414.31
429.454	3883.29
429.662	4143.38
429.869	3772.7
430.076	3922.2
430.284	3860.76
430.491	4135.19
430.699	4380.95
430.906	4335.89
431.114	4397.33
431.321	4649.23
431.528	4675.85
431.736	4823.31
431.943	5193.99
432.15	4972.81
432.358	5060.87
432.565	5273.86
432.772	5249.29
432.979	5660.93
433.187	5650.69
433.394	5726.46
433.601	5988.6
433.808	6150.39
434.016	6074.62
434.223	6168.82
434.43	6789.36
434.637	6617.33
434.844	6826.22
435.052	7016.68
435.259	6881.52
435.466	7053.55
435.673	6922.48
435.88	7440.61
436.087	7753.95
436.294	7848.16
436.501	7735.52
436.708	7991.52
436.915	8173.78
437.122	8585.43
437.329	8460.5
437.537	8736.98
437.743	8802.51
437.95	8919.25
438.157	9134.28
438.364	9552.07
438.571	9560.26
438.778	9636.03
438.985	10453.17
439.192	10049.72
439.399	10352.82
439.606	10045.63
439.813	10778.8
440.02	11567.27
440.227	11034.8
440.433	10950.83
440.64	11511.97
440.847	11319.46
441.054	11491.49
441.261	12284.06
441.467	12286.11
441.674	12361.88
441.881	12959.89
442.088	13000.85
442.294	12617.88
442.501	12974.22
442.708	13332.62
442.914	13809.79
443.121	14350.46
443.328	14055.55
443.534	14942.32
443.741	14606.45
443.948	14229.63
444.154	15550.57
444.361	15390.83
444.568	15261.8
444.774	15446.12
444.981	15556.71
445.187	15777.89
445.394	16683.09
445.6	16539.74
445.807	18341.95
446.013	17385.55
446.22	17580.11
446.426	18073.67
446.633	18284.61
446.839	19017.78
447.046	18231.36
447.252	19372.08
447.459	19324.97
447.665	19091.51
447.871	19927.08
448.078	20754.46
448.284	20039.72
448.491	20678.68
448.697	21278.74
448.903	21680.14
449.11	22022.15
449.316	21336.08
449.522	21878.79
449.728	22495.23
449.935	22673.4
450.141	22476.8
450.347	23126
450.553	22495.23
450.76	22759.42
450.966	23193.59
451.172	23269.36
451.378	23672.81
451.584	23361.52
451.791	24076.26
451.997	23764.97
452.203	24262.63
452.409	24381.41
452.615	24018.92
452.821	23039.99
453.027	22937.59
453.233	24117.22
453.44	23488.49
453.646	23580.65
453.852	23758.83
454.058	24184.8
454.264	23336.95
454.47	23887.85
454.676	23058.42
454.882	24158.18
455.088	22183.94
455.294	22237.19
455.5	22886.39
455.705	23074.81
455.911	22263.81
456.117	21673.99
456.323	21487.63
456.529	20590.62
456.735	21239.83
456.941	20647.96
457.147	20256.8
457.352	19908.65
457.558	19611.69
457.764	19546.16
457.97	19288.11
458.176	19021.88
458.381	18700.34
458.587	18055.23
458.793	18022.47
458.999	16836.69
459.204	18491.45
459.41	17754.18
459.616	16816.21
459.821	16605.27
460.027	16367.71
460.233	16275.55
460.438	15390.83
460.644	15573.1
460.85	14966.9
461.055	14901.36
461.261	14588.02
461.466	13527.17
461.672	13109.39
461.878	14073.98
462.083	13103.25
462.289	12957.84
462.494	12982.42
462.7	12234.91
462.905	11786.4
463.111	12415.13
463.316	12400.79
463.522	12056.73
463.727	12255.39
463.932	12075.17
464.138	12091.55
464.343	11956.38
464.549	11565.22
464.754	11886.75
464.959	11968.67
465.165	11720.87
465.37	11212.97
465.575	11163.82
465.781	11464.87
465.986	11331.75
466.191	10901.68
466.397	10930.35
466.602	10432.69
466.807	10784.94
467.012	10842.29
467.218	10649.78
467.423	10393.78
467.628	10641.59
467.833	10852.53
468.038	10705.07
