Data from USB4F104151__100__14-43-40-573.txt Node

Date: Thu Mar 13 14:43:40 EDT 2025
User: louis
Spectrometer: USB4F10415
Trigger mode: 4
Integration Time (sec): 2.000000E-2
Scans to average: 1
Electric dark correction enabled: true
Nonlinearity correction enabled: false
Boxcar width: 0
XAxis mode: Wavelengths
Number of Pixels in Spectrum: 3648
>>>>>Begin Spectral Data<<<<<
178.204	-77.14
178.424	-77.14
178.644	-77.14
178.864	-159.06
179.084	-103.76
179.304	-38.23
179.524	-21.85
179.744	-13.65
179.964	92.84
180.184	-42.32
180.404	35.5
180.624	10.92
180.844	37.55
181.064	37.55
181.283	-36.18
181.503	-46.42
181.723	-15.7
181.943	-66.9
182.163	35.5
182.383	62.12
182.602	15.02
182.822	51.88
183.042	98.99
183.262	-13.65
183.482	-38.23
183.701	60.07
183.921	25.26
184.141	-13.65
184.361	2.73
184.58	-25.94
184.8	-5.46
185.02	-42.32
185.239	27.31
185.459	41.64
185.679	29.35
185.898	-21.85
186.118	2.73
186.338	76.46
186.557	43.69
186.777	-1.37
186.997	15.02
187.216	-44.37
187.436	31.4
187.655	-17.75
187.875	29.35
188.095	-13.65
188.314	117.42
188.534	84.65
188.753	10.92
188.973	-7.51
189.192	68.27
189.412	29.35
189.631	74.41
189.851	-27.99
190.07	64.17
190.29	21.16
190.509	68.27
190.729	4.78
190.948	29.35
191.168	105.13
191.387	41.64
191.607	25.26
191.826	27.31
192.045	2.73
192.265	139.94
192.484	41.64
192.704	45.74
192.923	-34.13
193.142	60.07
193.362	41.64
193.581	10.92
193.8	-30.04
194.02	4.78
194.239	12.97
194.458	-52.56
194.678	-34.13
194.897	19.11
195.116	-52.56
195.335	72.36
195.555	33.45
195.774	43.69
195.993	-13.65
196.212	-5.46
196.432	23.21
196.651	60.07
196.87	23.21
197.089	27.31
197.308	19.11
197.528	35.5
197.747	-3.41
197.966	60.07
198.185	27.31
198.404	-5.46
198.623	8.87
198.842	70.31
199.062	43.69
199.281	84.65
199.5	43.69
199.719	27.31
199.938	37.55
200.157	43.69
200.376	35.5
200.595	68.27
200.814	21.16
201.033	-21.85
201.252	68.27
201.471	27.31
201.69	15.02
201.909	4.78
202.128	12.97
202.347	62.12
202.566	-38.23
202.785	-44.37
203.004	70.31
203.223	98.99
203.442	53.93
203.661	6.83
203.879	115.37
204.098	4.78
204.317	60.07
204.536	45.74
204.755	-3.41
204.974	-5.46
205.193	-3.41
205.411	119.46
205.63	27.31
205.849	43.69
206.068	15.02
206.287	10.92
206.505	51.88
206.724	82.6
206.943	-9.56
207.162	55.98
207.381	35.5
207.599	33.45
207.818	4.78
208.037	21.16
208.255	-13.65
208.474	-13.65
208.693	55.98
208.911	23.21
209.13	23.21
209.349	51.88
209.567	96.94
209.786	12.97
210.005	43.69
210.223	35.5
210.442	8.87
210.661	39.59
210.879	-27.99
211.098	19.11
211.316	10.92
211.535	94.89
211.753	-60.76
211.972	43.69
212.191	12.97
212.409	23.21
212.628	62.12
212.846	39.59
213.065	60.07
213.283	53.93
213.502	-34.13
213.72	45.74
213.938	35.5
214.157	43.69
214.375	101.03
214.594	-60.76
214.812	35.5
215.031	43.69
215.249	88.75
215.467	43.69
215.686	-48.47
215.904	58.03
216.122	-17.75
216.341	23.21
216.559	-46.42
216.778	70.31
216.996	29.35
217.214	-54.61
217.432	-30.04
217.651	25.26
217.869	2.73
218.087	2.73
218.306	27.31
218.524	27.31
218.742	55.98
218.96	53.93
219.179	43.69
219.397	68.27
219.615	137.9
219.833	35.5
220.051	72.36
220.27	43.69
220.488	107.18
220.706	47.79
220.924	-79.19
221.142	15.02
221.36	-27.99
221.578	15.02
221.796	21.16
222.015	64.17
222.233	-5.46
222.451	103.08
222.669	-54.61
222.887	58.03
223.105	-9.56
223.323	8.87
223.541	2.73
223.759	43.69
223.977	6.83
224.195	84.65
224.413	43.69
224.631	33.45
224.849	29.35
225.067	70.31
225.285	10.92
225.503	23.21
225.721	-3.41
225.939	-3.41
226.157	90.79
226.375	111.27
226.592	-40.28
226.81	45.74
227.028	45.74
227.246	94.89
227.464	125.61
227.682	-9.56
227.9	-3.41
228.117	0.68
228.335	41.64
228.553	2.73
228.771	19.11
228.989	39.59
229.206	4.78
229.424	-54.61
229.642	31.4
229.86	41.64
230.077	41.64
230.295	27.31
230.513	35.5
230.731	27.31
230.948	39.59
231.166	45.74
231.384	-15.7
231.601	70.31
231.819	101.03
232.037	-17.75
232.254	-13.65
232.472	35.5
232.689	19.11
232.907	66.22
233.125	96.94
233.342	6.83
233.56	27.31
233.777	2.73
233.995	72.36
234.213	80.55
234.43	37.55
234.648	-54.61
234.865	-5.46
235.083	-5.46
235.3	35.5
235.518	-25.94
235.735	121.51
235.953	92.84
236.17	-38.23
236.388	27.31
236.605	2.73
236.822	68.27
237.04	-1.37
237.257	29.35
237.475	51.88
237.692	29.35
237.909	64.17
238.127	12.97
238.344	78.51
238.562	35.5
238.779	-17.75
238.996	19.11
239.214	-5.46
239.431	2.73
239.648	37.55
239.865	66.22
240.083	19.11
240.3	78.51
240.517	-60.76
240.735	-5.46
240.952	92.84
241.169	58.03
241.386	47.79
241.603	27.31
241.821	45.74
242.038	68.27
242.255	-5.46
242.472	-9.56
242.689	-19.8
242.907	96.94
243.124	17.07
243.341	2.73
243.558	43.69
243.775	47.79
243.992	-9.56
244.209	96.94
244.426	70.31
244.643	47.79
244.86	53.93
245.078	-17.75
245.295	27.31
245.512	21.16
245.729	-60.76
245.946	2.73
246.163	58.03
246.38	19.11
246.597	39.59
246.814	-3.41
247.031	-68.95
247.248	4.78
247.464	10.92
247.681	60.07
247.898	23.21
248.115	39.59
248.332	-85.33
248.549	25.26
248.766	35.5
248.983	-50.52
249.2	19.11
249.417	45.74
249.633	-36.18
249.85	60.07
250.067	27.31
250.284	41.64
250.501	19.11
250.717	29.35
250.934	70.31
251.151	-21.85
251.368	4.78
251.585	60.07
251.801	64.17
252.018	64.17
252.235	68.27
252.451	10.92
252.668	55.98
252.885	21.16
253.102	10.92
253.318	35.5
253.535	53.93
253.752	21.16
253.968	64.17
254.185	-30.04
254.401	45.74
254.618	-5.46
254.835	-46.42
255.051	76.46
255.268	92.84
255.484	58.03
255.701	68.27
255.917	111.27
256.134	-44.37
256.351	62.12
256.567	-1.37
256.784	60.07
257	19.11
257.217	19.11
257.433	4.78
257.65	43.69
257.866	60.07
258.082	-17.75
258.299	31.4
258.515	35.5
258.732	-36.18
258.948	-11.61
259.165	19.11
259.381	6.83
259.597	-9.56
259.814	-13.65
260.03	51.88
260.246	0.68
260.463	62.12
260.679	33.45
260.895	-19.8
261.112	31.4
261.328	35.5
261.544	10.92
261.761	125.61
261.977	-42.32
262.193	-7.51
262.409	-25.94
262.626	27.31
262.842	-40.28
263.058	78.51
263.274	12.97
263.49	-3.41
263.707	2.73
263.923	19.11
264.139	2.73
264.355	51.88
264.571	15.02
264.787	-42.32
265.004	137.9
265.22	25.26
265.436	27.31
265.652	39.59
265.868	19.11
266.084	27.31
266.3	10.92
266.516	-25.94
266.732	84.65
266.948	-3.41
267.164	47.79
267.38	55.98
267.596	10.92
267.812	92.84
268.028	92.84
268.244	29.35
268.46	27.31
268.676	43.69
268.892	-19.8
269.108	-15.7
269.324	23.21
269.54	-25.94
269.756	43.69
269.972	-23.89
270.188	43.69
270.403	-13.65
270.619	0.68
270.835	37.55
271.051	45.74
271.267	-27.99
271.483	8.87
271.698	12.97
271.914	-77.14
272.13	4.78
272.346	10.92
272.562	55.98
272.777	43.69
272.993	-21.85
273.209	-46.42
273.425	137.9
273.64	19.11
273.856	37.55
274.072	62.12
274.287	15.02
274.503	76.46
274.719	53.93
274.934	-3.41
275.15	-5.46
275.366	6.83
275.581	-1.37
275.797	-60.76
276.012	-95.57
276.228	-23.89
276.444	53.93
276.659	33.45
276.875	2.73
277.09	43.69
277.306	2.73
277.521	-79.19
277.737	-19.8
277.952	31.4
278.168	-21.85
278.383	129.7
278.599	17.07
278.814	-5.46
279.03	43.69
279.245	29.35
279.461	25.26
279.676	45.74
279.892	43.69
280.107	-3.41
280.322	21.16
280.538	68.27
280.753	10.92
280.969	-30.04
281.184	15.02
281.399	51.88
281.615	-21.85
281.83	72.36
282.045	-11.61
282.26	-30.04
282.476	-21.85
282.691	88.75
282.906	27.31
283.122	39.59
283.337	-19.8
283.552	-21.85
283.767	55.98
283.983	41.64
284.198	27.31
284.413	68.27
284.628	-52.56
284.843	78.51
285.058	66.22
285.274	4.78
285.489	8.87
285.704	45.74
285.919	31.4
286.134	-30.04
286.349	60.07
286.564	55.98
286.779	80.55
286.995	55.98
287.21	31.4
287.425	60.07
287.64	-3.41
287.855	-36.18
288.07	19.11
288.285	62.12
288.5	-19.8
288.715	86.7
288.93	58.03
289.145	2.73
289.36	86.7
289.575	51.88
289.79	-1.37
290.004	2.73
290.219	68.27
290.434	-5.46
290.649	-9.56
290.864	39.59
291.079	-25.94
291.294	-9.56
291.509	31.4
291.724	35.5
291.938	33.45
292.153	84.65
292.368	64.17
292.583	33.45
292.798	-1.37
293.012	-3.41
293.227	12.97
293.442	-30.04
293.657	72.36
293.871	76.46
294.086	33.45
294.301	35.5
294.516	68.27
294.73	-11.61
294.945	19.11
295.16	-3.41
295.374	2.73
295.589	-15.7
295.804	-93.52
296.018	8.87
296.233	39.59
296.447	94.89
296.662	68.27
296.877	86.7
297.091	21.16
297.306	39.59
297.52	4.78
297.735	53.93
297.949	15.02
298.164	10.92
298.378	68.27
298.593	19.11
298.807	-13.65
299.022	19.11
299.236	21.16
299.451	31.4
299.665	4.78
299.88	-3.41
300.094	82.6
300.309	15.02
300.523	66.22
300.737	-3.41
300.952	74.41
301.166	76.46
301.381	-40.28
301.595	-17.75
301.809	68.27
302.024	-5.46
302.238	-48.47
302.452	82.6
302.667	-21.85
302.881	53.93
303.095	19.11
303.309	37.55
303.524	6.83
303.738	76.46
303.952	2.73
304.166	96.94
304.381	-17.75
304.595	51.88
304.809	-5.46
305.023	62.12
305.237	-1.37
305.452	27.31
305.666	-3.41
305.88	6.83
306.094	141.99
306.308	27.31
306.522	15.02
306.736	68.27
306.95	51.88
307.164	19.11
307.379	35.5
307.593	92.84
307.807	111.27
308.021	96.94
308.235	55.98
308.449	-46.42
308.663	2.73
308.877	45.74
309.091	-62.8
309.305	76.46
309.519	-75.09
309.733	96.94
309.947	0.68
310.161	86.7
310.374	53.93
310.588	53.93
310.802	-36.18
311.016	-23.89
311.23	117.42
311.444	45.74
311.658	-54.61
311.872	62.12
312.085	47.79
312.299	125.61
312.513	62.12
312.727	62.12
312.941	33.45
313.154	-30.04
313.368	101.03
313.582	-21.85
313.796	2.73
314.009	10.92
314.223	27.31
314.437	6.83
314.651	31.4
314.864	15.02
315.078	-9.56
315.292	12.97
315.505	-11.61
315.719	12.97
315.933	10.92
316.146	27.31
316.36	-34.13
316.573	76.46
316.787	41.64
317.001	49.83
317.214	25.26
317.428	37.55
317.641	115.37
317.855	21.16
318.068	25.26
318.282	19.11
318.495	92.84
318.709	84.65
318.922	60.07
319.136	43.69
319.349	55.98
319.563	76.46
319.776	-30.04
319.99	23.21
320.203	55.98
320.417	45.74
320.63	53.93
320.843	64.17
321.057	103.08
321.27	45.74
321.483	39.59
321.697	60.07
321.91	88.75
322.124	55.98
322.337	23.21
322.55	-5.46
322.763	76.46
322.977	39.59
323.19	23.21
323.403	27.31
323.617	43.69
323.83	58.03
324.043	-50.52
324.256	2.73
324.469	-13.65
324.683	135.85
324.896	15.02
325.109	125.61
325.322	-30.04
325.535	60.07
325.748	29.35
325.962	-9.56
326.175	47.79
326.388	2.73
326.601	23.21
326.814	55.98
327.027	10.92
327.24	109.22
327.453	-21.85
327.666	96.94
327.879	0.68
328.092	103.08
328.305	17.07
328.518	117.42
328.731	21.16
328.944	62.12
329.157	29.35
329.37	8.87
329.583	70.31
329.796	86.7
330.009	-52.56
330.222	55.98
330.435	27.31
330.648	109.22
330.861	35.5
331.073	84.65
331.286	6.83
331.499	82.6
331.712	64.17
331.925	-38.23
332.138	35.5
332.35	103.08
332.563	6.83
332.776	94.89
332.989	23.21
333.202	6.83
333.414	12.97
333.627	-9.56
333.84	51.88
334.053	-5.46
334.265	76.46
334.478	-7.51
334.691	39.59
334.903	-1.37
335.116	4.78
335.329	43.69
335.541	43.69
335.754	53.93
335.966	-36.18
336.179	19.11
336.392	70.31
336.604	68.27
336.817	10.92
337.029	41.64
337.242	15.02
337.454	53.93
337.667	37.55
337.88	23.21
338.092	55.98
338.305	-5.46
338.517	-75.09
338.729	78.51
338.942	-25.94
339.154	12.97
339.367	-17.75
339.579	39.59
339.792	23.21
340.004	96.94
340.217	39.59
340.429	60.07
340.641	35.5
340.854	4.78
341.066	-5.46
341.278	-11.61
341.491	117.42
341.703	51.88
341.915	-1.37
342.128	60.07
342.34	25.26
342.552	-71
342.764	37.55
342.977	-5.46
343.189	119.46
343.401	82.6
343.613	-11.61
343.826	35.5
344.038	-17.75
344.25	12.97
344.462	0.68
344.674	47.79
344.886	-17.75
345.099	27.31
345.311	-66.9
345.523	-25.94
345.735	-38.23
345.947	-11.61
346.159	72.36
346.371	-34.13
346.583	47.79
346.795	105.13
347.007	84.65
347.219	76.46
347.431	-34.13
347.643	86.7
347.855	39.59
348.067	74.41
348.279	2.73
348.491	21.16
348.703	58.03
348.915	-11.61
349.127	60.07
349.339	51.88
349.551	-5.46
349.763	12.97
349.975	41.64
350.187	2.73
350.399	84.65
350.61	47.79
350.822	-32.08
351.034	2.73
351.246	6.83
351.458	45.74
351.669	60.07
351.881	68.27
352.093	17.07
352.305	68.27
352.517	47.79
352.728	27.31
352.94	35.5
353.152	-73.04
353.363	-38.23
353.575	76.46
353.787	78.51
353.999	55.98
354.21	64.17
354.422	-83.28
354.633	78.51
354.845	23.21
355.057	-17.75
355.268	60.07
355.48	84.65
355.692	41.64
355.903	43.69
356.115	-5.46
356.326	-46.42
356.538	72.36
356.749	70.31
356.961	39.59
357.172	-5.46
357.384	35.5
357.595	84.65
357.807	10.92
358.018	-1.37
358.23	-3.41
358.441	51.88
358.653	-3.41
358.864	92.84
359.075	35.5
359.287	60.07
359.498	2.73
359.709	19.11
359.921	51.88
360.132	15.02
360.344	19.11
360.555	-46.42
360.766	74.41
360.977	51.88
361.189	84.65
361.4	-21.85
361.611	27.31
361.823	27.31
362.034	45.74
362.245	-9.56
362.456	37.55
362.667	41.64
362.879	-1.37
363.09	113.32
363.301	74.41
363.512	49.83
363.723	19.11
363.935	-3.41
364.146	-52.56
364.357	45.74
364.568	105.13
364.779	-19.8
364.99	45.74
365.201	12.97
365.412	55.98
365.623	43.69
365.834	21.16
366.045	-3.41
366.256	62.12
366.467	84.65
366.678	27.31
366.889	-38.23
367.1	17.07
367.311	76.46
367.522	-11.61
367.733	78.51
367.944	25.26
368.155	33.45
368.366	27.31
368.577	45.74
368.788	125.61
368.999	-21.85
369.209	35.5
369.42	53.93
369.631	60.07
369.842	31.4
370.053	2.73
370.264	53.93
370.474	6.83
370.685	-5.46
370.896	60.07
371.107	64.17
371.317	33.45
371.528	47.79
371.739	92.84
371.95	-36.18
372.16	94.89
372.371	-30.04
372.582	66.22
372.792	86.7
373.003	137.9
373.214	80.55
373.424	105.13
373.635	15.02
373.846	105.13
374.056	51.88
374.267	90.79
374.477	4.78
374.688	43.69
374.898	43.69
375.109	-9.56
375.319	101.03
375.53	35.5
375.74	68.27
375.951	23.21
376.161	62.12
376.372	129.7
376.582	-54.61
376.793	78.51
377.003	-40.28
377.214	-13.65
377.424	-25.94
377.635	51.88
377.845	6.83
378.055	62.12
378.266	-38.23
378.476	-23.89
378.686	70.31
378.897	51.88
379.107	35.5
379.317	121.51
379.528	27.31
379.738	17.07
379.948	51.88
380.158	94.89
380.369	53.93
380.579	12.97
380.789	35.5
380.999	76.46
381.21	21.16
381.42	29.35
381.63	70.31
381.84	29.35
382.05	10.92
382.261	21.16
382.471	86.7
382.681	43.69
382.891	76.46
383.101	19.11
383.311	43.69
383.521	55.98
383.731	101.03
383.941	43.69
384.151	21.16
384.361	-1.37
384.571	31.4
384.781	117.42
384.991	31.4
385.201	37.55
385.411	47.79
385.621	60.07
385.831	0.68
386.041	39.59
386.251	19.11
386.461	55.98
386.671	-34.13
386.881	78.51
387.091	78.51
387.301	101.03
387.511	4.78
387.72	51.88
387.93	72.36
388.14	6.83
388.35	55.98
388.56	62.12
388.769	45.74
388.979	78.51
389.189	2.73
389.399	80.55
389.609	80.55
389.818	111.27
390.028	55.98
390.238	-44.37
390.447	68.27
390.657	84.65
390.867	60.07
391.076	31.4
391.286	23.21
391.496	72.36
391.705	17.07
391.915	86.7
392.125	53.93
392.334	-38.23
392.544	33.45
392.753	-5.46
392.963	-21.85
393.172	68.27
393.382	43.69
393.591	101.03
393.801	55.98
394.01	105.13
394.22	60.07
394.429	21.16
394.639	84.65
394.848	84.65
395.058	19.11
395.267	78.51
395.477	23.21
395.686	19.11
395.895	135.85
396.105	29.35
396.314	113.32
396.524	119.46
396.733	66.22
396.942	53.93
397.152	19.11
397.361	66.22
397.57	72.36
397.78	43.69
397.989	80.55
398.198	119.46
398.407	92.84
398.617	51.88
398.826	29.35
399.035	74.41
399.244	109.22
399.453	133.8
399.663	19.11
399.872	125.61
400.081	82.6
400.29	141.99
400.499	92.84
400.708	86.7
400.917	37.55
401.127	115.37
401.336	31.4
401.545	111.27
401.754	127.66
401.963	180.9
402.172	78.51
402.381	80.55
402.59	49.83
402.799	88.75
403.008	119.46
403.217	74.41
403.426	125.61
403.635	58.03
403.844	121.51
404.053	64.17
404.262	125.61
404.471	211.62
404.68	164.52
404.888	129.7
405.097	154.28
405.306	129.7
405.515	166.57
405.724	174.76
405.933	160.42
406.142	166.57
406.35	154.28
406.559	187.05
406.768	133.8
406.977	191.14
407.185	133.8
407.394	166.57
407.603	141.99
407.812	144.04
408.02	193.19
408.229	193.19
408.438	150.18
408.646	109.22
408.855	215.72
409.064	248.49
409.272	211.62
409.481	258.73
409.69	291.49
409.898	256.68
410.107	301.73
410.315	258.73
410.524	260.77
410.733	271.01
410.941	250.53
411.15	248.49
411.358	322.21
411.567	354.98
411.775	307.88
411.984	264.87
412.192	318.12
412.401	334.5
412.609	354.98
412.818	510.63
413.026	416.42
413.234	420.52
413.443	430.76
413.651	449.19
413.86	463.52
414.068	559.78
414.276	527.01
414.485	510.63
414.693	559.78
414.901	529.06
415.11	477.86
415.318	553.63
415.526	578.21
415.734	627.36
415.943	649.89
416.151	682.66
416.359	670.37
416.567	723.62
416.776	758.43
416.984	764.57
417.192	871.07
417.4	805.53
417.608	740
417.817	883.36
418.025	844.45
418.233	920.22
418.441	846.49
418.649	946.84
418.857	1043.1
419.065	1061.53
419.273	1010.33
419.481	1131.16
419.689	1213.08
419.897	1200.79
420.105	1192.6
420.313	1295
420.521	1411.73
420.729	1309.33
420.937	1383.06
421.145	1485.46
421.353	1510.04
421.561	1585.81
421.769	1591.95
421.977	1550.99
422.185	1653.39
422.393	1694.35
422.601	1835.66
422.809	1911.44
423.017	1845.9
423.224	1979.02
423.432	1987.21
423.64	2077.32
423.848	2194.06
424.056	2157.19
424.263	2173.58
424.471	2284.17
424.679	2421.38
424.887	2484.87
425.094	2540.16
425.302	2622.08
425.51	2669.19
425.718	2740.86
425.925	2732.67
426.133	2880.13
426.341	3140.22
426.548	3168.89
426.756	3179.13
426.964	3156.6
427.171	3445.37
427.379	3525.24
427.586	3641.97
427.794	3674.74
428.001	3789.42
428.209	3920.49
428.417	3914.35
428.624	4250.22
428.832	4113
429.039	4168.3
429.247	4137.58
429.454	4442.73
429.662	4696.68
429.869	4498.02
430.076	4876.9
430.284	4663.91
430.491	4967.01
430.699	5188.19
430.906	5302.87
431.114	5274.2
431.321	5266.01
431.528	5401.18
431.736	5784.15
431.943	6242.89
432.15	5864.02
432.358	6134.35
432.565	6310.47
432.772	6296.14
432.979	6584.9
433.187	6933.06
433.394	6756.93
433.601	7203.39
433.808	7305.79
434.016	7227.96
434.223	7696.95
434.43	7989.81
434.637	7944.75
434.844	8395.31
435.052	8673.83
435.259	8479.27
435.466	8555.05
435.673	8399.4
435.88	9095.71
436.087	9589.27
436.294	9630.23
436.501	9284.12
436.708	9468.44
436.915	9759.25
437.122	10347.02
437.329	10177.04
437.537	10469.9
437.743	10619.4
437.95	10643.98
438.157	11057.67
438.364	11434.49
438.571	11510.27
438.778	11735.54
438.985	12851.69
439.192	12145.14
439.399	12487.15
439.606	12095.99
439.813	12900.84
440.02	13677.02
440.227	13332.96
440.433	13234.66
440.64	13660.63
440.847	13576.67
441.054	14150.1
441.261	14889.42
441.467	14655.95
441.674	15008.2
441.881	15382.98
442.088	15497.66
442.294	15182.27
442.501	15839.67
442.708	16134.58
442.914	16765.35
443.121	17488.29
443.328	17246.63
443.534	18354.58
443.741	17574.3
443.948	17652.13
444.154	18608.53
444.361	18594.19
444.568	18561.42
444.774	18712.97
444.981	18885
445.187	19214.73
445.394	20207.99
445.6	19779.96
445.807	21963.1
446.013	20943.21
446.22	20920.68
446.426	22204.76
446.633	22548.82
446.839	22909.26
447.046	22024.54
447.252	23527.75
447.459	23445.83
447.665	23316.81
447.871	24512.82
448.078	25338.15
448.284	24512.82
448.491	25119.02
448.697	25966.88
448.903	26267.93
449.11	26700.05
449.316	25950.49
449.522	26747.15
449.728	27296.01
449.935	27408.65
450.141	27678.98
450.347	27963.65
450.553	26943.76
450.76	27631.88
450.966	28619
451.172	28217.6
451.378	28786.93
451.584	28365.05
451.791	29014.26
451.997	29143.28
452.203	29264.11
452.409	29708.52
452.615	29264.11
452.821	28119.29
453.027	28186.88
453.233	29804.77
453.44	28348.67
453.646	29128.94
453.852	28831.99
454.058	29651.17
454.264	28549.37
454.47	29239.53
454.676	28365.05
454.882	29454.57
455.088	27220.24
455.294	27214.09
455.5	27623.69
455.705	28117.25
455.911	27003.15
456.117	26765.59
456.323	26167.58
456.529	24869.17
456.735	26075.42
456.941	25319.72
457.147	24875.31
457.352	24127.8
457.558	24039.74
457.764	23998.78
457.97	23732.54
458.176	23286.09
458.381	22909.26
458.587	21817.69
458.793	22081.88
458.999	20851.05
459.204	22370.65
459.41	21516.64
459.616	20382.07
459.821	20083.06
460.027	20287.86
460.233	19958.14
460.438	19083.66
460.644	19224.97
460.85	18239.89
461.055	18004.38
461.261	17895.83
461.466	16556.46
461.672	16148.92
461.878	17209.76
462.083	16353.71
462.289	15911.35
462.494	15604.16
462.7	14932.42
462.905	14371.28
463.111	14991.81
463.316	15059.4
463.522	14830.02
463.727	15000.01
463.932	14703.05
464.138	14571.98
464.343	14684.62
464.549	14232.02
464.754	14879.18
464.959	14545.36
465.165	14336.46
465.37	13711.83
465.575	13353.44
465.781	13994.45
465.986	13963.73
466.191	13525.47
466.397	13289.95
466.602	12472.81
466.807	13228.51
467.012	13146.59
467.218	13122.02
467.423	12773.86
467.628	12945.89
