Data from USB4F104151__302__14-46-39-174.txt Node

Date: Thu Mar 13 14:46:39 EDT 2025
User: louis
Spectrometer: USB4F10415
Trigger mode: 4
Integration Time (sec): 2.000000E-2
Scans to average: 1
Electric dark correction enabled: true
Nonlinearity correction enabled: false
Boxcar width: 0
XAxis mode: Wavelengths
Number of Pixels in Spectrum: 3648
>>>>>Begin Spectral Data<<<<<
178.204	-97.45
178.424	-97.45
178.644	-97.45
178.864	-93.35
179.084	-60.59
179.304	-5.29
179.524	-11.43
179.744	2.9
179.964	35.67
180.184	-52.39
180.404	54.1
180.624	-44.2
180.844	37.72
181.064	9.05
181.283	4.95
181.503	-48.3
181.723	17.24
181.943	0.85
182.163	21.33
182.383	21.33
182.602	78.68
182.822	86.87
183.042	7
183.262	60.24
183.482	21.33
183.701	54.1
183.921	-27.82
184.141	50
184.361	21.33
184.58	45.91
184.8	78.68
185.02	4.95
185.239	4.95
185.459	25.43
185.679	84.82
185.898	41.81
186.118	43.86
186.338	70.48
186.557	45.91
186.777	-81.07
186.997	133.97
187.216	-52.39
187.436	39.76
187.655	31.57
187.875	7
188.095	-3.24
188.314	62.29
188.534	52.05
188.753	0.85
188.973	31.57
189.192	121.68
189.412	7
189.631	-17.58
189.851	-19.63
190.07	29.52
190.29	23.38
190.509	41.81
190.729	58.2
190.948	99.16
191.168	125.78
191.387	86.87
191.607	-52.39
191.826	23.38
192.045	11.09
192.265	17.24
192.484	25.43
192.704	23.38
192.923	7
193.142	45.91
193.362	21.33
193.581	103.25
193.8	45.91
194.02	56.15
194.239	62.29
194.458	-19.63
194.678	-21.67
194.897	-11.43
195.116	-25.77
195.335	97.11
195.555	31.57
195.774	15.19
195.993	29.52
196.212	21.33
196.432	70.48
196.651	15.19
196.87	54.1
197.089	47.96
197.308	29.52
197.528	39.76
197.747	23.38
197.966	23.38
198.185	95.06
198.404	70.48
198.623	9.05
198.842	80.72
199.062	47.96
199.281	52.05
199.5	-13.48
199.719	11.09
199.938	54.1
200.157	54.1
200.376	47.96
200.595	21.33
200.814	97.11
201.033	-42.15
201.252	80.72
201.471	-21.67
201.69	103.25
201.909	37.72
202.128	41.81
202.347	95.06
202.566	56.15
202.785	45.91
203.004	-13.48
203.223	58.2
203.442	-48.3
203.661	31.57
203.879	47.96
204.098	-40.11
204.317	35.67
204.536	70.48
204.755	54.1
204.974	72.53
205.193	-27.82
205.411	111.44
205.63	144.21
205.849	-36.01
206.068	21.33
206.287	27.48
206.505	7
206.724	29.52
206.943	107.35
207.162	-11.43
207.381	45.91
207.599	7
207.818	-3.24
208.037	35.67
208.255	52.05
208.474	7
208.693	72.53
208.911	54.1
209.13	23.38
209.349	62.29
209.567	33.62
209.786	80.72
210.005	52.05
210.223	0.85
210.442	23.38
210.661	62.29
210.879	62.29
211.098	62.29
211.316	50
211.535	86.87
211.753	23.38
211.972	105.3
212.191	21.33
212.409	50
212.628	4.95
212.846	15.19
213.065	95.06
213.283	129.88
213.502	56.15
213.72	4.95
213.938	7
214.157	27.48
214.375	-1.19
214.594	58.2
214.812	41.81
215.031	37.72
215.249	41.81
215.467	72.53
215.686	86.87
215.904	56.15
216.122	-52.39
216.341	74.58
216.559	39.76
216.778	7
216.996	43.86
217.214	35.67
217.432	15.19
217.651	11.09
217.869	-11.43
218.087	25.43
218.306	39.76
218.524	33.62
218.742	37.72
218.96	33.62
219.179	58.2
219.397	103.25
219.615	129.88
219.833	76.63
220.051	-48.3
220.27	111.44
220.488	43.86
220.706	4.95
220.924	-21.67
221.142	50
221.36	-11.43
221.578	97.11
221.796	-27.82
222.015	31.57
222.233	0.85
222.451	72.53
222.669	56.15
222.887	78.68
223.105	45.91
223.323	23.38
223.541	45.91
223.759	66.39
223.977	54.1
224.195	119.64
224.413	54.1
224.631	54.1
224.849	23.38
225.067	88.92
225.285	78.68
225.503	-9.39
225.721	7
225.939	0.85
226.157	15.19
226.375	107.35
226.592	-7.34
226.81	45.91
227.028	33.62
227.246	39.76
227.464	-36.01
227.682	-11.43
227.9	13.14
228.117	-19.63
228.335	50
228.553	-17.58
228.771	45.91
228.989	70.48
229.206	80.72
229.424	29.52
229.642	35.67
229.86	33.62
230.077	66.39
230.295	-48.3
230.513	39.76
230.731	11.09
230.948	78.68
231.166	47.96
231.384	54.1
231.601	21.33
231.819	60.24
232.037	17.24
232.254	37.72
232.472	23.38
232.689	13.14
232.907	-3.24
233.125	-56.49
233.342	-36.01
233.56	-36.01
233.777	31.57
233.995	62.29
234.213	47.96
234.43	31.57
234.648	50
234.865	115.54
235.083	-7.34
235.3	-42.15
235.518	105.3
235.735	37.72
235.953	160.59
236.17	58.2
236.388	29.52
236.605	66.39
236.822	90.96
237.04	115.54
237.257	7
237.475	70.48
237.692	7
237.909	60.24
238.127	19.29
238.344	37.72
238.562	45.91
238.779	-19.63
238.996	-44.2
239.214	13.14
239.431	29.52
239.648	41.81
239.865	101.2
240.083	66.39
240.3	78.68
240.517	-50.35
240.735	9.05
240.952	166.74
241.169	45.91
241.386	54.1
241.603	7
241.821	-33.96
242.038	37.72
242.255	37.72
242.472	-3.24
242.689	78.68
242.907	13.14
243.124	7
243.341	-27.82
243.558	33.62
243.775	29.52
243.992	41.81
244.209	54.1
244.426	88.92
244.643	-3.24
244.86	-3.24
245.078	47.96
245.295	54.1
245.512	33.62
245.729	101.2
245.946	64.34
246.163	95.06
246.38	33.62
246.597	-27.82
246.814	31.57
247.031	29.52
247.248	-17.58
247.464	15.19
247.681	56.15
247.898	37.72
248.115	9.05
248.332	7
248.549	70.48
248.766	115.54
248.983	15.19
249.2	-27.82
249.417	70.48
249.633	0.85
249.85	64.34
250.067	50
250.284	86.87
250.501	17.24
250.717	29.52
250.934	-42.15
251.151	62.29
251.368	-17.58
251.585	84.82
251.801	37.72
252.018	-72.87
252.235	95.06
252.451	7
252.668	47.96
252.885	70.48
253.102	99.16
253.318	-15.53
253.535	-13.48
253.752	13.14
253.968	54.1
254.185	52.05
254.401	11.09
254.618	7
254.835	7
255.051	107.35
255.268	47.96
255.484	-27.82
255.701	31.57
255.917	13.14
256.134	21.33
256.351	25.43
256.567	15.19
256.784	62.29
257	-15.53
257.217	103.25
257.433	68.44
257.65	70.48
257.866	-3.24
258.082	-46.25
258.299	54.1
258.515	-11.43
258.732	43.86
258.948	29.52
259.165	47.96
259.381	-7.34
259.597	-50.35
259.814	78.68
260.03	21.33
260.246	37.72
260.463	113.49
260.679	86.87
260.895	56.15
261.112	4.95
261.328	47.96
261.544	-29.87
261.761	95.06
261.977	45.91
262.193	50
262.409	39.76
262.626	41.81
262.842	-5.29
263.058	17.24
263.274	62.29
263.49	-1.19
263.707	70.48
263.923	-64.68
264.139	27.48
264.355	27.48
264.571	103.25
264.787	88.92
265.004	88.92
265.22	-9.39
265.436	45.91
265.652	-11.43
265.868	21.33
266.084	62.29
266.3	50
266.516	25.43
266.732	119.64
266.948	-9.39
267.164	2.9
267.38	41.81
267.596	105.3
267.812	101.2
268.028	-31.91
268.244	45.91
268.46	78.68
268.676	-58.54
268.892	76.63
269.108	35.67
269.324	70.48
269.54	-25.77
269.756	111.44
269.972	39.76
270.188	-3.24
270.403	-1.19
270.619	23.38
270.835	-25.77
271.051	39.76
271.267	-52.39
271.483	70.48
271.698	72.53
271.914	33.62
272.13	7
272.346	54.1
272.562	78.68
272.777	-27.82
272.993	-36.01
273.209	62.29
273.425	15.19
273.64	62.29
273.856	33.62
274.072	95.06
274.287	-31.91
274.503	37.72
274.719	37.72
274.934	-81.07
275.15	-29.87
275.366	90.96
275.581	-23.72
275.797	43.86
276.012	13.14
276.228	74.58
276.444	76.63
276.659	50
276.875	4.95
277.09	45.91
277.306	58.2
277.521	62.29
277.737	17.24
277.952	13.14
278.168	-19.63
278.383	17.24
278.599	45.91
278.814	37.72
279.03	17.24
279.245	21.33
279.461	17.24
279.676	29.52
279.892	15.19
280.107	-13.48
280.322	-17.58
280.538	74.58
280.753	13.14
280.969	50
281.184	-60.59
281.399	31.57
281.615	-9.39
281.83	4.95
282.045	-23.72
282.26	78.68
282.476	152.4
282.691	56.15
282.906	-33.96
283.122	52.05
283.337	17.24
283.552	86.87
283.767	-42.15
283.983	78.68
284.198	74.58
284.413	47.96
284.628	29.52
284.843	97.11
285.058	90.96
285.274	13.14
285.489	56.15
285.704	97.11
285.919	-7.34
286.134	11.09
286.349	78.68
286.564	-36.01
286.779	-3.24
286.995	35.67
287.21	7
287.425	109.4
287.64	37.72
287.855	41.81
288.07	78.68
288.285	-1.19
288.5	115.54
288.715	52.05
288.93	47.96
289.145	97.11
289.36	29.52
289.575	-38.06
289.79	103.25
290.004	80.72
290.219	72.53
290.434	-91.31
290.649	70.48
290.864	-5.29
291.079	78.68
291.294	72.53
291.509	-1.19
291.724	47.96
291.938	17.24
292.153	50
292.368	37.72
292.583	41.81
292.798	68.44
293.012	0.85
293.227	84.82
293.442	-3.24
293.657	58.2
293.871	80.72
294.086	62.29
294.301	54.1
294.516	115.54
294.73	-74.92
294.945	45.91
295.16	47.96
295.374	54.1
295.589	25.43
295.804	60.24
296.018	31.57
296.233	11.09
296.447	64.34
296.662	-1.19
296.877	50
297.091	78.68
297.306	50
297.52	27.48
297.735	39.76
297.949	23.38
298.164	72.53
298.378	21.33
298.593	-19.63
298.807	72.53
299.022	-25.77
299.236	70.48
299.451	-15.53
299.665	33.62
299.88	39.76
300.094	23.38
300.309	7
300.523	111.44
300.737	4.95
300.952	82.77
301.166	127.83
301.381	7
301.595	62.29
301.809	9.05
302.024	0.85
302.238	45.91
302.452	31.57
302.667	95.06
302.881	78.68
303.095	25.43
303.309	105.3
303.524	4.95
303.738	23.38
303.952	-33.96
304.166	82.77
304.381	-23.72
304.595	119.64
304.809	70.48
305.023	29.52
305.237	29.52
305.452	37.72
305.666	101.2
305.88	62.29
306.094	84.82
306.308	13.14
306.522	37.72
306.736	-48.3
306.95	-3.24
307.164	47.96
307.379	43.86
307.593	113.49
307.807	56.15
308.021	74.58
308.235	78.68
308.449	-15.53
308.663	-33.96
308.877	86.87
309.091	13.14
309.305	45.91
309.519	70.48
309.733	25.43
309.947	19.29
310.161	45.91
310.374	17.24
310.588	-15.53
310.802	-48.3
311.016	80.72
311.23	60.24
311.444	29.52
311.658	72.53
311.872	62.29
312.085	37.72
312.299	136.02
312.513	111.44
312.727	-7.34
312.941	-25.77
313.154	31.57
313.368	64.34
313.582	21.33
313.796	31.57
314.009	-19.63
314.223	115.54
314.437	37.72
314.651	70.48
314.864	103.25
315.078	-15.53
315.292	0.85
315.505	13.14
315.719	15.19
315.933	58.2
316.146	97.11
316.36	-23.72
316.573	62.29
316.787	47.96
317.001	93.01
317.214	23.38
317.428	4.95
317.641	29.52
317.855	-3.24
318.068	62.29
318.282	78.68
318.495	52.05
318.709	95.06
318.922	37.72
319.136	17.24
319.349	-5.29
319.563	50
319.776	74.58
319.99	27.48
320.203	25.43
320.417	125.78
320.63	70.48
320.843	103.25
321.057	23.38
321.27	-1.19
321.483	107.35
321.697	78.68
321.91	17.24
322.124	103.25
322.337	-9.39
322.55	60.24
322.763	47.96
322.977	7
323.19	23.38
323.403	4.95
323.617	-17.58
323.83	119.64
324.043	7
324.256	-15.53
324.469	-19.63
324.683	78.68
324.896	17.24
325.109	78.68
325.322	-17.58
325.535	113.49
325.748	25.43
325.962	21.33
326.175	76.63
326.388	4.95
326.601	-17.58
326.814	64.34
327.027	50
327.24	78.68
327.453	-76.97
327.666	47.96
327.879	103.25
328.092	56.15
328.305	-3.24
328.518	47.96
328.731	33.62
328.944	0.85
329.157	33.62
329.37	64.34
329.583	101.2
329.796	58.2
330.009	78.68
330.222	37.72
330.435	64.34
330.648	107.35
330.861	88.92
331.073	23.38
331.286	37.72
331.499	-27.82
331.712	21.33
331.925	9.05
332.138	0.85
332.35	64.34
332.563	144.21
332.776	125.78
332.989	41.81
333.202	117.59
333.414	54.1
333.627	95.06
333.84	-1.19
334.053	54.1
334.265	29.52
334.478	41.81
334.691	37.72
334.903	54.1
335.116	23.38
335.329	4.95
335.541	115.54
335.754	64.34
335.966	58.2
336.179	82.77
336.392	37.72
336.604	52.05
336.817	4.95
337.029	19.29
337.242	107.35
337.454	54.1
337.667	-5.29
337.88	80.72
338.092	39.76
338.305	70.48
338.517	-13.48
338.729	31.57
338.942	56.15
339.154	7
339.367	-50.35
339.579	62.29
339.792	31.57
340.004	82.77
340.217	70.48
340.429	-21.67
340.641	23.38
340.854	54.1
341.066	119.64
341.278	127.83
341.491	103.25
341.703	17.24
341.915	4.95
342.128	45.91
342.34	13.14
342.552	97.11
342.764	4.95
342.977	45.91
343.189	45.91
343.401	68.44
343.613	-40.11
343.826	21.33
344.038	-38.06
344.25	37.72
344.462	13.14
344.674	123.73
344.886	66.39
345.099	86.87
345.311	60.24
345.523	-7.34
345.735	-19.63
345.947	29.52
346.159	-3.24
346.371	66.39
346.583	74.58
346.795	136.02
347.007	-1.19
347.219	54.1
347.431	21.33
347.643	56.15
347.855	47.96
348.067	80.72
348.279	54.1
348.491	21.33
348.703	47.96
348.915	86.87
349.127	78.68
349.339	41.81
349.551	31.57
349.763	78.68
349.975	21.33
350.187	97.11
350.399	86.87
350.61	66.39
350.822	33.62
351.034	78.68
351.246	41.81
351.458	47.96
351.669	17.24
351.881	25.43
352.093	95.06
352.305	111.44
352.517	56.15
352.728	103.25
352.94	45.91
353.152	68.44
353.363	9.05
353.575	88.92
353.787	41.81
353.999	15.19
354.21	78.68
354.422	35.67
354.633	17.24
354.845	37.72
355.057	82.77
355.268	58.2
355.48	70.48
355.692	-74.92
355.903	90.96
356.115	90.96
356.326	0.85
356.538	31.57
356.749	23.38
356.961	95.06
357.172	58.2
357.384	39.76
357.595	97.11
357.807	123.73
358.018	-3.24
358.23	-3.24
358.441	4.95
358.653	70.48
358.864	0.85
359.075	-1.19
359.287	60.24
359.498	64.34
359.709	78.68
359.921	78.68
360.132	72.53
360.344	111.44
360.555	31.57
360.766	111.44
360.977	29.52
361.189	58.2
361.4	-15.53
361.611	127.83
361.823	70.48
362.034	97.11
362.245	-27.82
362.456	19.29
362.667	84.82
362.879	50
363.09	-31.91
363.301	95.06
363.512	76.63
363.723	50
363.935	-19.63
364.146	58.2
364.357	17.24
364.568	45.91
364.779	15.19
364.99	56.15
365.201	103.25
365.412	156.5
365.623	21.33
365.834	66.39
366.045	41.81
366.256	54.1
366.467	17.24
366.678	60.24
366.889	25.43
367.1	78.68
367.311	95.06
367.522	86.87
367.733	103.25
367.944	45.91
368.155	35.67
368.366	111.44
368.577	21.33
368.788	52.05
368.999	-60.59
369.209	86.87
369.42	111.44
369.631	111.44
369.842	47.96
370.053	47.96
370.264	29.52
370.474	50
370.685	70.48
370.896	123.73
371.107	39.76
371.317	17.24
371.528	45.91
371.739	78.68
371.95	0.85
372.16	129.88
372.371	25.43
372.582	15.19
372.792	35.67
373.003	54.1
373.214	70.48
373.424	105.3
373.635	56.15
373.846	21.33
374.056	29.52
374.267	86.87
374.477	-15.53
374.688	52.05
374.898	13.14
375.109	86.87
375.319	-11.43
375.53	7
375.74	121.68
375.951	78.68
376.161	76.63
376.372	21.33
376.582	-3.24
376.793	39.76
377.003	60.24
377.214	78.68
377.424	27.48
377.635	50
377.845	-33.96
378.055	74.58
378.266	50
378.476	95.06
378.686	7
378.897	78.68
379.107	23.38
379.317	119.64
379.528	72.53
379.738	74.58
379.948	72.53
380.158	74.58
380.369	82.77
380.579	25.43
380.789	125.78
380.999	27.48
381.21	99.16
381.42	101.2
381.63	62.29
381.84	66.39
382.05	41.81
382.261	82.77
382.471	50
382.681	62.29
382.891	86.87
383.101	-19.63
383.311	7
383.521	-3.24
383.731	64.34
383.941	21.33
384.151	25.43
384.361	86.87
384.571	56.15
384.781	60.24
384.991	88.92
385.201	95.06
385.411	72.53
385.621	95.06
385.831	4.95
386.041	97.11
386.251	62.29
386.461	62.29
386.671	-21.67
386.881	78.68
387.091	-3.24
387.301	19.29
387.511	50
387.72	50
387.93	21.33
388.14	45.91
388.35	78.68
388.56	37.72
388.769	66.39
388.979	23.38
389.189	74.58
389.399	13.14
389.609	-7.34
389.818	70.48
390.028	93.01
390.238	105.3
390.447	29.52
390.657	95.06
390.867	29.52
391.076	-21.67
391.286	39.76
391.496	107.35
391.705	129.88
391.915	121.68
392.125	103.25
392.334	88.92
392.544	66.39
392.753	109.4
392.963	90.96
393.172	25.43
393.382	-7.34
393.591	70.48
393.801	27.48
394.01	103.25
394.22	70.48
394.429	80.72
394.639	82.77
394.848	181.07
395.058	93.01
395.267	39.76
395.477	99.16
395.686	136.02
395.895	82.77
396.105	146.26
396.314	58.2
396.524	127.83
396.733	133.97
396.942	115.54
397.152	74.58
397.361	82.77
397.57	93.01
397.78	86.87
397.989	119.64
398.198	193.36
398.407	19.29
398.617	29.52
398.826	50
399.035	131.92
399.244	138.07
399.453	113.49
399.663	62.29
399.872	121.68
400.081	152.4
400.29	72.53
400.499	140.12
400.708	142.16
400.917	162.64
401.127	117.59
401.336	95.06
401.545	121.68
401.754	174.93
401.963	187.22
402.172	119.64
402.381	90.96
402.59	107.35
402.799	-5.29
403.008	211.79
403.217	179.03
403.426	140.12
403.635	117.59
403.844	88.92
404.053	160.59
404.262	43.86
404.471	236.37
404.68	111.44
404.888	207.7
405.097	156.5
405.306	140.12
405.515	222.03
405.724	156.5
405.933	164.69
406.142	166.74
406.35	105.3
406.559	189.27
406.768	232.27
406.977	172.88
407.185	203.6
407.394	256.85
407.603	162.64
407.812	205.65
408.02	219.99
408.229	244.56
408.438	340.82
408.646	193.36
408.855	217.94
409.064	277.33
409.272	334.67
409.481	332.62
409.69	303.95
409.898	340.82
410.107	334.67
410.315	404.3
410.524	355.15
410.733	336.72
410.941	363.34
411.15	340.82
411.358	349.01
411.567	478.03
411.775	422.73
411.984	392.02
412.192	435.02
412.401	496.46
412.609	533.33
412.818	504.65
413.026	598.86
413.234	549.71
413.443	492.37
413.651	598.86
413.86	521.04
414.068	654.16
414.276	582.48
414.485	684.87
414.693	654.16
414.901	758.6
415.11	758.6
415.318	777.03
415.526	715.59
415.734	830.28
415.943	824.14
416.151	852.81
416.359	889.67
416.567	850.76
416.776	897.86
416.984	940.87
417.192	1084.23
417.4	1080.13
417.608	1053.51
417.817	1094.47
418.025	1141.57
418.233	1233.73
418.441	1143.62
418.649	1219.39
418.857	1348.42
419.065	1383.23
419.273	1366.85
419.481	1289.03
419.689	1424.19
419.897	1532.73
420.105	1561.41
420.313	1579.84
420.521	1647.42
420.729	1725.24
420.937	1712.96
421.145	1786.68
421.353	1938.23
421.561	1987.38
421.769	1971
421.977	2114.36
422.185	2143.03
422.393	2308.91
422.601	2392.88
422.809	2282.29
423.017	2298.67
423.224	2454.32
423.432	2609.97
423.64	2595.63
423.848	2816.81
424.056	2650.92
424.263	2880.3
424.471	2962.22
424.679	3068.71
424.887	3099.43
425.094	3255.08
425.302	3283.75
425.51	3390.24
425.718	3490.59
425.925	3511.07
426.133	3433.25
426.341	3941.15
426.548	3961.62
426.756	3953.43
426.964	4045.59
427.171	4412.18
427.379	4393.75
427.586	4530.96
427.794	4567.82
428.001	4807.44
428.209	5174.02
428.417	4813.58
428.624	5229.32
428.832	5366.53
429.039	5178.12
429.247	5313.28
429.454	5829.37
429.662	6152.95
429.869	5706.49
430.076	5851.9
430.284	5841.66
430.491	6241.01
430.699	6484.72
430.906	6669.04
431.114	6587.12
431.321	7199.46
431.528	6886.12
431.736	7572.19
431.943	7842.53
432.15	7553.76
432.358	7654.11
432.565	8278.74
432.772	8176.34
432.979	8852.17
433.187	8569.55
433.394	8641.23
433.601	9229
433.808	9386.69
434.016	9222.86
434.223	9599.68
434.43	10242.75
434.637	9949.89
434.844	10590.9
435.052	10920.62
435.259	10703.54
435.466	10934.96
435.673	10703.54
435.88	11590.31
436.087	12055.2
436.294	11969.18
436.501	11731.62
436.708	11870.88
436.915	12337.82
437.122	13005.45
437.329	13087.37
437.537	13369.99
437.743	13398.66
437.95	13083.28
438.157	13929.09
438.364	14432.89
438.571	14353.02
438.778	14547.58
438.985	16054.88
439.192	15372.91
439.399	15678.05
439.606	15311.47
439.813	16261.73
440.02	17248.85
440.227	16874.07
440.433	16869.97
440.64	17332.81
440.847	17207.89
441.054	17652.3
441.261	18596.41
441.467	18436.67
441.674	19010.1
441.881	19735.08
442.088	19436.08
442.294	19280.43
442.501	19999.27
442.708	20054.56
442.914	21101.08
443.121	21965.32
443.328	21617.16
443.534	22729.21
443.741	22221.31
443.948	21580.3
444.154	23519.73
444.361	23331.31
444.568	23501.29
444.774	23474.67
444.981	23785.96
445.187	24312.29
445.394	25616.85
445.6	24981.98
445.807	27703.73
446.013	26022.34
446.22	26862.01
446.426	27371.96
446.633	28203.43
446.839	29223.32
447.046	27785.65
447.252	29358.49
447.459	29139.35
447.665	29127.06
447.871	30364.04
448.078	31431.03
448.284	30323.08
448.491	31285.62
448.697	32485.73
448.903	33096.03
449.11	33304.92
449.316	32711.01
449.522	33284.44
449.728	33919.31
449.935	34691.4
450.141	34396.49
450.347	34851.14
450.553	33876.3
450.76	34640.2
450.966	35594.55
451.172	35137.85
451.378	35574.07
451.584	35232.06
451.791	36239.66
451.997	36417.83
452.203	36712.74
452.409	36561.19
452.615	36575.53
452.821	35164.48
453.027	34834.75
453.233	37046.56
453.44	35326.27
453.646	35793.2
453.852	35756.34
454.058	36661.54
454.264	35823.92
454.47	36241.71
454.676	35162.43
454.882	36684.07
455.088	33522.01
455.294	34251.08
455.5	34435.4
455.705	34799.94
455.911	33421.66
456.117	32860.51
456.323	32665.95
456.529	31003
456.735	32067.95
456.941	31555.96
457.147	30812.54
457.352	29931.92
457.558	29675.92
457.764	29737.36
457.97	29301.14
458.176	28486.05
458.381	28946.84
458.587	27169.21
458.793	27234.74
458.999	25862.6
459.204	27875.76
459.41	27130.3
459.616	25559.5
459.821	25291.22
460.027	24953.3
460.233	24680.92
460.438	23505.39
460.644	23661.04
460.85	22876.66
461.055	22276.61
461.261	22348.29
461.466	20855.32
461.672	20189.73
461.878	21565.96
462.083	20075.04
462.289	19556.91
462.494	19462.7
462.7	18659.9
462.905	17920.58
463.111	18633.27
463.316	19182.13
463.522	18440.76
463.727	18475.58
463.932	18336.32
464.138	18057.79
464.343	18211.39
464.549	17617.48
464.754	18457.15
464.959	18217.54
465.165	17947.2
465.37	17543.75
465.575	16808.53
465.781	17533.51
465.986	17351.24
466.191	16726.61
466.397	16577.11
466.602	15448.68
466.807	16216.67
467.012	16155.23
467.218	16409.18
467.423	15948.39
467.628	16190.05
467.833	17132.11
468.038	16163.42
468.244	16024.16
468.449	16552.54
468.654	15895.14
468.859	15772.26
