Data from USB4F104151__240__14-45-45-584.txt Node

Date: Thu Mar 13 14:45:45 EDT 2025
User: louis
Spectrometer: USB4F10415
Trigger mode: 4
Integration Time (sec): 2.000000E-2
Scans to average: 1
Electric dark correction enabled: true
Nonlinearity correction enabled: false
Boxcar width: 0
XAxis mode: Wavelengths
Number of Pixels in Spectrum: 3648
>>>>>Begin Spectral Data<<<<<
178.204	-106.84
178.424	-106.84
178.644	-106.84
178.864	-155.99
179.084	-90.45
179.304	1.71
179.524	-49.49
179.744	-33.11
179.964	3.75
180.184	20.14
180.404	52.91
180.624	83.63
180.844	-18.77
181.064	-57.68
181.283	34.47
181.503	-39.25
181.723	1.71
181.943	-59.73
182.163	42.67
182.383	-88.4
182.602	93.87
182.822	20.14
183.042	16.04
183.262	-29.01
183.482	36.52
183.701	-0.34
183.921	-24.92
184.141	32.43
184.361	-41.3
184.58	48.81
184.8	-2.39
185.02	-29.01
185.239	-2.39
185.459	65.19
185.679	-8.53
185.898	-115.03
186.118	40.62
186.338	7.85
186.557	9.9
186.777	46.76
186.997	24.23
187.216	9.9
187.436	7.85
187.655	110.25
187.875	89.77
188.095	9.9
188.314	40.62
188.534	50.86
188.753	16.04
188.973	34.47
189.192	69.29
189.412	46.76
189.631	71.34
189.851	-8.53
190.07	85.67
190.29	-29.01
190.509	1.71
190.729	30.38
190.948	91.82
191.168	91.82
191.387	16.04
191.607	-33.11
191.826	40.62
192.045	50.86
192.265	24.23
192.484	36.52
192.704	9.9
192.923	26.28
193.142	40.62
193.362	100.01
193.581	-2.39
193.8	32.43
194.02	32.43
194.239	-39.25
194.458	116.39
194.678	9.9
194.897	77.48
195.116	50.86
195.335	118.44
195.555	46.76
195.774	18.09
195.993	38.57
196.212	59.05
196.432	-33.11
196.651	-14.68
196.87	3.75
197.089	61.1
197.308	52.91
197.528	100.01
197.747	-33.11
197.966	-74.07
198.185	44.71
198.404	-24.92
198.623	1.71
198.842	32.43
199.062	52.91
199.281	-8.53
199.5	3.75
199.719	-16.73
199.938	54.95
200.157	22.19
200.376	11.95
200.595	26.28
200.814	54.95
201.033	5.8
201.252	-0.34
201.471	24.23
201.69	52.91
201.909	57
202.128	79.53
202.347	50.86
202.566	-6.49
202.785	-0.34
203.004	30.38
203.223	91.82
203.442	-57.68
203.661	-37.2
203.879	57
204.098	9.9
204.317	52.91
204.536	-10.58
204.755	24.23
204.974	91.82
205.193	46.76
205.411	138.92
205.63	32.43
205.849	40.62
206.068	48.81
206.287	32.43
206.505	69.29
206.724	50.86
206.943	32.43
207.162	20.14
207.381	28.33
207.599	24.23
207.818	42.67
208.037	48.81
208.255	24.23
208.474	42.67
208.693	73.39
208.911	16.04
209.13	24.23
209.349	52.91
209.567	34.47
209.786	32.43
210.005	-6.49
210.223	-4.44
210.442	-84.31
210.661	36.52
210.879	20.14
211.098	16.04
211.316	65.19
211.535	32.43
211.753	11.95
211.972	28.33
212.191	9.9
212.409	3.75
212.628	75.43
212.846	26.28
213.065	32.43
213.283	3.75
213.502	-2.39
213.72	7.85
213.938	20.14
214.157	20.14
214.375	9.9
214.594	1.71
214.812	-6.49
215.031	30.38
215.249	18.09
215.467	36.52
215.686	-2.39
215.904	108.2
216.122	-14.68
216.341	59.05
216.559	-20.82
216.778	24.23
216.996	48.81
217.214	9.9
217.432	24.23
217.651	48.81
217.869	-16.73
218.087	65.19
218.306	-43.35
218.524	40.62
218.742	5.8
218.96	-14.68
219.179	46.76
219.397	63.15
219.615	38.57
219.833	24.23
220.051	52.91
220.27	24.23
220.488	71.34
220.706	-12.63
220.924	1.71
221.142	48.81
221.36	65.19
221.578	32.43
221.796	59.05
222.015	89.77
222.233	100.01
222.451	63.15
222.669	1.71
222.887	1.71
223.105	-31.06
223.323	40.62
223.541	-0.34
223.759	32.43
223.977	-18.77
224.195	57
224.413	26.28
224.631	22.19
224.849	-8.53
225.067	126.63
225.285	20.14
225.503	-2.39
225.721	-53.59
225.939	32.43
226.157	54.95
226.375	95.91
226.592	7.85
226.81	-33.11
227.028	-4.44
227.246	28.33
227.464	26.28
227.682	32.43
227.9	24.23
228.117	9.9
228.335	-16.73
228.553	22.19
228.771	46.76
228.989	44.71
229.206	32.43
229.424	-6.49
229.642	42.67
229.86	-33.11
230.077	-49.49
230.295	16.04
230.513	65.19
230.731	77.48
230.948	46.76
231.166	57
231.384	-31.06
231.601	-63.83
231.819	9.9
232.037	-20.82
232.254	-45.4
232.472	36.52
232.689	-0.34
232.907	89.77
233.125	20.14
233.342	-37.2
233.56	3.75
233.777	-29.01
233.995	48.81
234.213	26.28
234.43	36.52
234.648	75.43
234.865	28.33
235.083	24.23
235.3	42.67
235.518	26.28
235.735	69.29
235.953	44.71
236.17	63.15
236.388	9.9
236.605	61.1
236.822	40.62
237.04	89.77
237.257	-4.44
237.475	-49.49
237.692	77.48
237.909	24.23
238.127	67.24
238.344	48.81
238.562	-14.68
238.779	-10.58
238.996	-51.54
239.214	-18.77
239.431	57
239.648	-12.63
239.865	61.1
240.083	3.75
240.3	42.67
240.517	-33.11
240.735	44.71
240.952	36.52
241.169	87.72
241.386	50.86
241.603	-24.92
241.821	3.75
242.038	40.62
242.255	112.3
242.472	-31.06
242.689	28.33
242.907	32.43
243.124	-18.77
243.341	7.85
243.558	28.33
243.775	69.29
243.992	24.23
244.209	61.1
244.426	61.1
244.643	40.62
244.86	22.19
245.078	-12.63
245.295	57
245.512	32.43
245.729	-0.34
245.946	-90.45
246.163	11.95
246.38	40.62
246.597	18.09
246.814	-4.44
247.031	48.81
247.248	73.39
247.464	-0.34
247.681	89.77
247.898	3.75
248.115	16.04
248.332	38.57
248.549	65.19
248.766	36.52
248.983	57
249.2	-12.63
249.417	89.77
249.633	-8.53
249.85	26.28
250.067	75.43
250.284	40.62
250.501	16.04
250.717	-12.63
250.934	-31.06
251.151	44.71
251.368	32.43
251.585	36.52
251.801	38.57
252.018	9.9
252.235	9.9
252.451	-0.34
252.668	-39.25
252.885	34.47
253.102	61.1
253.318	16.04
253.535	16.04
253.752	22.19
253.968	-41.3
254.185	32.43
254.401	-0.34
254.618	40.62
254.835	16.04
255.051	57
255.268	50.86
255.484	48.81
255.701	34.47
255.917	16.04
256.134	3.75
256.351	-57.68
256.567	-47.44
256.784	61.1
257	-0.34
257.217	57
257.433	46.76
257.65	104.11
257.866	50.86
258.082	-37.2
258.299	13.99
258.515	57
258.732	108.2
258.948	61.1
259.165	7.85
259.381	7.85
259.597	54.95
259.814	50.86
260.03	20.14
260.246	24.23
260.463	67.24
260.679	16.04
260.895	-2.39
261.112	32.43
261.328	-29.01
261.544	40.62
261.761	26.28
261.977	24.23
262.193	26.28
262.409	100.01
262.626	7.85
262.842	24.23
263.058	-33.11
263.274	7.85
263.49	36.52
263.707	108.2
263.923	26.28
264.139	-14.68
264.355	26.28
264.571	79.53
264.787	16.04
265.004	9.9
265.22	-35.16
265.436	1.71
265.652	-22.87
265.868	114.34
266.084	-45.4
266.3	7.85
266.516	32.43
266.732	20.14
266.948	48.81
267.164	9.9
267.38	40.62
267.596	40.62
267.812	16.04
268.028	3.75
268.244	-20.82
268.46	65.19
268.676	22.19
268.892	118.44
269.108	-63.83
269.324	-57.68
269.54	-8.53
269.756	73.39
269.972	-14.68
270.188	-6.49
270.403	-6.49
270.619	-8.53
270.835	40.62
271.051	24.23
271.267	-39.25
271.483	1.71
271.698	34.47
271.914	28.33
272.13	52.91
272.346	9.9
272.562	5.8
272.777	54.95
272.993	26.28
273.209	48.81
273.425	97.96
273.64	-39.25
273.856	65.19
274.072	44.71
274.287	44.71
274.503	1.71
274.719	34.47
274.934	71.34
275.15	32.43
275.366	32.43
275.581	-8.53
275.797	9.9
276.012	16.04
276.228	52.91
276.444	46.76
276.659	83.63
276.875	16.04
277.09	75.43
277.306	32.43
277.521	89.77
277.737	67.24
277.952	-63.83
278.168	106.15
278.383	-22.87
278.599	-16.73
278.814	-31.06
279.03	3.75
279.245	97.96
279.461	-16.73
279.676	89.77
279.892	-33.11
280.107	26.28
280.322	3.75
280.538	7.85
280.753	-4.44
280.969	-16.73
281.184	-18.77
281.399	11.95
281.615	106.15
281.83	-16.73
282.045	-96.6
282.26	-14.68
282.476	-14.68
282.691	-26.96
282.906	89.77
283.122	36.52
283.337	24.23
283.552	52.91
283.767	9.9
283.983	36.52
284.198	28.33
284.413	48.81
284.628	-2.39
284.843	85.67
285.058	89.77
285.274	75.43
285.489	-72.02
285.704	-0.34
285.919	7.85
286.134	5.8
286.349	-55.64
286.564	32.43
286.779	-0.34
286.995	-8.53
287.21	18.09
287.425	16.04
287.64	16.04
287.855	7.85
288.07	69.29
288.285	54.95
288.5	34.47
288.715	-2.39
288.93	-55.64
289.145	26.28
289.36	57
289.575	-16.73
289.79	-29.01
290.004	30.38
290.219	97.96
290.434	-33.11
290.649	46.76
290.864	-57.68
291.079	75.43
291.294	32.43
291.509	26.28
291.724	73.39
291.938	75.43
292.153	-8.53
292.368	24.23
292.583	59.05
292.798	73.39
293.012	91.82
293.227	-14.68
293.442	50.86
293.657	114.34
293.871	102.06
294.086	-8.53
294.301	34.47
294.516	44.71
294.73	28.33
294.945	-18.77
295.16	-0.34
295.374	69.29
295.589	151.21
295.804	9.9
296.018	61.1
296.233	73.39
296.447	42.67
296.662	36.52
296.877	69.29
297.091	26.28
297.306	42.67
297.52	-24.92
297.735	30.38
297.949	40.62
298.164	26.28
298.378	61.1
298.593	20.14
298.807	30.38
299.022	32.43
299.236	30.38
299.451	-12.63
299.665	42.67
299.88	13.99
300.094	48.81
300.309	42.67
300.523	-57.68
300.737	65.19
300.952	48.81
301.166	134.82
301.381	-41.3
301.595	-31.06
301.809	50.86
302.024	-0.34
302.238	-24.92
302.452	97.96
302.667	67.24
302.881	59.05
303.095	28.33
303.309	-10.58
303.524	-33.11
303.738	71.34
303.952	-6.49
304.166	83.63
304.381	-53.59
304.595	97.96
304.809	24.23
305.023	63.15
305.237	81.58
305.452	40.62
305.666	67.24
305.88	59.05
306.094	24.23
306.308	73.39
306.522	48.81
306.736	118.44
306.95	52.91
307.164	-39.25
307.379	26.28
307.593	30.38
307.807	59.05
308.021	30.38
308.235	-41.3
308.449	-12.63
308.663	-69.97
308.877	89.77
309.091	3.75
309.305	24.23
309.519	-14.68
309.733	24.23
309.947	-51.54
310.161	73.39
310.374	-22.87
310.588	26.28
310.802	-8.53
311.016	18.09
311.23	63.15
311.444	-57.68
311.658	42.67
311.872	89.77
312.085	26.28
312.299	63.15
312.513	93.87
312.727	-16.73
312.941	85.67
313.154	-33.11
313.368	36.52
313.582	26.28
313.796	100.01
314.009	-24.92
314.223	22.19
314.437	89.77
314.651	18.09
314.864	59.05
315.078	28.33
315.292	48.81
315.505	7.85
315.719	57
315.933	3.75
316.146	-57.68
316.36	3.75
316.573	126.63
316.787	65.19
317.001	59.05
317.214	9.9
317.428	81.58
317.641	-24.92
317.855	40.62
318.068	36.52
318.282	24.23
318.495	59.05
318.709	3.75
318.922	11.95
319.136	85.67
319.349	48.81
319.563	59.05
319.776	38.57
319.99	22.19
320.203	97.96
320.417	9.9
320.63	73.39
320.843	73.39
321.057	100.01
321.27	1.71
321.483	34.47
321.697	28.33
321.91	75.43
322.124	22.19
322.337	36.52
322.55	-26.96
322.763	26.28
322.977	20.14
323.19	22.19
323.403	1.71
323.617	83.63
323.83	85.67
324.043	22.19
324.256	-41.3
324.469	7.85
324.683	40.62
324.896	20.14
325.109	65.19
325.322	-0.34
325.535	32.43
325.748	26.28
325.962	34.47
326.175	44.71
326.388	48.81
326.601	11.95
326.814	16.04
327.027	57
327.24	52.91
327.453	5.8
327.666	32.43
327.879	36.52
328.092	110.25
328.305	57
328.518	-41.3
328.731	26.28
328.944	46.76
329.157	16.04
329.37	24.23
329.583	79.53
329.796	89.77
330.009	-55.64
330.222	83.63
330.435	67.24
330.648	59.05
330.861	48.81
331.073	9.9
331.286	73.39
331.499	69.29
331.712	-20.82
331.925	48.81
332.138	-61.78
332.35	48.81
332.563	-69.97
332.776	65.19
332.989	-14.68
333.202	65.19
333.414	89.77
333.627	-49.49
333.84	79.53
334.053	61.1
334.265	-35.16
334.478	20.14
334.691	63.15
334.903	65.19
335.116	-22.87
335.329	7.85
335.541	-14.68
335.754	-43.35
335.966	67.24
336.179	28.33
336.392	7.85
336.604	44.71
336.817	65.19
337.029	59.05
337.242	16.04
337.454	91.82
337.667	32.43
337.88	1.71
338.092	81.58
338.305	16.04
338.517	18.09
338.729	36.52
338.942	65.19
339.154	26.28
339.367	73.39
339.579	57
339.792	-12.63
340.004	1.71
340.217	34.47
340.429	-51.54
340.641	-55.64
340.854	3.75
341.066	7.85
341.278	20.14
341.491	91.82
341.703	24.23
341.915	-29.01
342.128	9.9
342.34	57
342.552	75.43
342.764	-14.68
342.977	71.34
343.189	32.43
343.401	65.19
343.613	34.47
343.826	65.19
344.038	40.62
344.25	40.62
344.462	40.62
344.674	-33.11
344.886	36.52
345.099	79.53
345.311	24.23
345.523	42.67
345.735	9.9
345.947	40.62
346.159	83.63
346.371	26.28
346.583	-6.49
346.795	102.06
347.007	30.38
347.219	52.91
347.431	54.95
347.643	75.43
347.855	52.91
348.067	65.19
348.279	-8.53
348.491	89.77
348.703	71.34
348.915	40.62
349.127	69.29
349.339	65.19
349.551	-33.11
349.763	81.58
349.975	34.47
350.187	83.63
350.399	59.05
350.61	61.1
350.822	-8.53
351.034	40.62
351.246	7.85
351.458	40.62
351.669	24.23
351.881	-0.34
352.093	48.81
352.305	65.19
352.517	42.67
352.728	77.48
352.94	16.04
353.152	69.29
353.363	-10.58
353.575	22.19
353.787	100.01
353.999	-57.68
354.21	108.2
354.422	32.43
354.633	-0.34
354.845	34.47
355.057	85.67
355.268	-39.25
355.48	65.19
355.692	9.9
355.903	71.34
356.115	26.28
356.326	7.85
356.538	91.82
356.749	69.29
356.961	106.15
357.172	-0.34
357.384	48.81
357.595	85.67
357.807	1.71
358.018	-18.77
358.23	95.91
358.441	93.87
358.653	48.81
358.864	-8.53
359.075	63.15
359.287	-16.73
359.498	102.06
359.709	24.23
359.921	-0.34
360.132	11.95
360.344	28.33
360.555	-24.92
360.766	81.58
360.977	18.09
361.189	48.81
361.4	-47.44
361.611	143.02
361.823	87.72
362.034	-20.82
362.245	65.19
362.456	-8.53
362.667	108.2
362.879	30.38
363.09	16.04
363.301	-16.73
363.512	-8.53
363.723	36.52
363.935	67.24
364.146	16.04
364.357	77.48
364.568	83.63
364.779	44.71
364.99	106.15
365.201	-6.49
365.412	50.86
365.623	-22.87
365.834	52.91
366.045	85.67
366.256	91.82
366.467	52.91
366.678	40.62
366.889	77.48
367.1	36.52
367.311	46.76
367.522	26.28
367.733	5.8
367.944	73.39
368.155	40.62
368.366	106.15
368.577	34.47
368.788	57
368.999	65.19
369.209	52.91
369.42	122.54
369.631	89.77
369.842	-2.39
370.053	40.62
370.264	50.86
370.474	32.43
370.685	100.01
370.896	50.86
371.107	34.47
371.317	16.04
371.528	-24.92
371.739	126.63
371.95	97.96
372.16	50.86
372.371	77.48
372.582	77.48
372.792	93.87
373.003	118.44
373.214	28.33
373.424	81.58
373.635	48.81
373.846	65.19
374.056	77.48
374.267	100.01
374.477	85.67
374.688	18.09
374.898	1.71
375.109	147.11
375.319	87.72
375.53	16.04
375.74	-2.39
375.951	-22.87
376.161	32.43
376.372	28.33
376.582	3.75
376.793	48.81
377.003	7.85
377.214	75.43
377.424	1.71
377.635	-8.53
377.845	106.15
378.055	85.67
378.266	9.9
378.476	22.19
378.686	34.47
378.897	59.05
379.107	38.57
379.317	97.96
379.528	26.28
379.738	97.96
379.948	-49.49
380.158	48.81
380.369	-47.44
380.579	52.91
380.789	57
380.999	93.87
381.21	32.43
381.42	106.15
381.63	28.33
381.84	52.91
382.05	-4.44
382.261	40.62
382.471	-47.44
382.681	40.62
382.891	28.33
383.101	42.67
383.311	16.04
383.521	46.76
383.731	18.09
383.941	97.96
384.151	97.96
384.361	-41.3
384.571	54.95
384.781	28.33
384.991	69.29
385.201	122.54
385.411	42.67
385.621	116.39
385.831	24.23
386.041	-31.06
386.251	54.95
386.461	114.34
386.671	48.81
386.881	75.43
387.091	7.85
387.301	42.67
387.511	67.24
387.72	65.19
387.93	93.87
388.14	16.04
388.35	-22.87
388.56	-6.49
388.769	40.62
388.979	-8.53
389.189	69.29
389.399	77.48
389.609	24.23
389.818	106.15
390.028	48.81
390.238	34.47
390.447	97.96
390.657	75.43
390.867	61.1
391.076	40.62
391.286	7.85
391.496	26.28
391.705	-16.73
391.915	69.29
392.125	38.57
392.334	-24.92
392.544	52.91
392.753	36.52
392.963	32.43
393.172	-6.49
393.382	42.67
393.591	167.59
393.801	-61.78
394.01	198.31
394.22	40.62
394.429	114.34
394.639	32.43
394.848	116.39
395.058	110.25
395.267	40.62
395.477	65.19
395.686	71.34
395.895	81.58
396.105	93.87
396.314	83.63
396.524	67.24
396.733	32.43
396.942	44.71
397.152	73.39
397.361	143.02
397.57	124.58
397.78	50.86
397.989	65.19
398.198	100.01
398.407	26.28
398.617	149.16
398.826	32.43
399.035	110.25
399.244	69.29
399.453	83.63
399.663	122.54
399.872	97.96
400.081	48.81
400.29	24.23
400.499	104.11
400.708	114.34
400.917	73.39
401.127	108.2
401.336	81.58
401.545	186.02
401.754	48.81
401.963	126.63
402.172	57
402.381	9.9
402.59	75.43
402.799	110.25
403.008	155.3
403.217	140.97
403.426	57
403.635	97.96
403.844	85.67
404.053	159.4
404.262	83.63
404.471	190.12
404.68	79.53
404.888	81.58
405.097	67.24
405.306	130.73
405.515	83.63
405.724	100.01
405.933	116.39
406.142	67.24
406.35	171.69
406.559	97.96
406.768	110.25
406.977	167.59
407.185	171.69
407.394	212.65
407.603	134.82
407.812	206.5
408.02	233.13
408.229	255.65
408.438	175.78
408.646	224.94
408.855	245.41
409.064	216.74
409.272	208.55
409.481	278.18
409.69	220.84
409.898	116.39
410.107	245.41
410.315	317.09
410.524	265.89
410.733	269.99
410.941	229.03
411.15	413.35
411.358	296.61
411.567	327.33
411.775	417.44
411.984	329.38
412.192	343.72
412.401	427.68
412.609	442.02
412.818	472.74
413.026	450.21
413.234	405.16
413.443	437.92
413.651	386.72
413.86	493.22
414.068	448.16
414.276	476.84
414.485	501.41
414.693	562.85
414.901	546.47
415.11	573.09
415.318	515.75
415.526	605.86
415.734	706.21
415.943	583.33
416.151	704.16
416.359	607.91
416.567	779.93
416.776	769.69
416.984	736.93
417.192	865.95
417.4	806.56
417.608	765.6
417.817	818.85
418.025	941.72
418.233	990.88
418.441	853.66
418.649	872.09
418.857	1009.31
419.065	1031.83
419.273	1146.52
419.481	1123.99
419.689	1158.81
419.897	1121.95
420.105	1195.67
420.313	1259.16
420.521	1244.82
420.729	1343.13
420.937	1384.09
421.145	1498.77
421.353	1556.11
421.561	1529.49
421.769	1543.83
421.977	1623.7
422.185	1572.5
422.393	1674.9
422.601	1838.73
422.809	1785.49
423.017	1908.37
423.224	1943.18
423.432	1941.13
423.64	2035.34
423.848	2205.32
424.056	2064.01
424.263	2303.62
424.471	2317.96
424.679	2342.53
424.887	2428.55
425.094	2573.96
425.302	2492.04
425.51	2571.91
425.718	2768.51
425.925	2719.36
426.133	2848.38
426.341	3022.46
426.548	3161.72
426.756	3090.04
426.964	3290.74
427.171	3257.98
427.379	3423.86
427.586	3513.97
427.794	3622.52
428.001	3753.59
428.209	3923.57
428.417	3974.77
428.624	4185.71
428.832	4073.07
429.039	4097.64
429.247	4007.53
429.454	4470.37
429.662	4714.08
429.869	4497
430.076	4865.63
430.284	4775.52
430.491	4800.1
430.699	5150.3
430.906	5150.3
431.114	5258.84
431.321	5539.41
431.528	5561.94
431.736	5899.86
431.943	6098.51
432.15	5832.27
432.358	6000.21
432.565	6348.36
432.772	6291.02
432.979	6710.85
433.187	6831.68
433.394	6766.15
433.601	7220.8
433.808	7353.91
434.016	7421.5
434.223	7396.92
434.43	8140.33
434.637	7833.14
434.844	8267.31
435.052	8519.21
435.259	8535.59
435.466	8468.01
435.673	8457.77
435.88	8943.14
436.087	9223.71
436.294	9522.71
436.501	9227.81
436.708	9575.96
436.915	9768.47
437.122	10128.91
437.329	10083.86
437.537	10372.62
437.743	10712.58
437.95	10520.07
438.157	11025.92
438.364	11453.95
438.571	11429.37
438.778	11632.12
438.985	12525.04
439.192	12127.73
439.399	12459.5
439.606	12105.2
439.813	13043.17
440.02	13606.36
440.227	13544.92
440.433	13178.34
440.64	13962.71
440.847	13675.99
441.054	14050.77
441.261	15027.65
441.467	14681.55
441.674	15099.33
441.881	15599.04
442.088	15441.34
442.294	15488.45
442.501	15812.03
442.708	15971.77
442.914	16696.75
443.121	17669.53
443.328	16940.46
443.534	18093.46
443.741	17571.23
443.948	17335.71
444.154	18802.06
444.361	18689.42
444.568	18701.71
444.774	18879.88
444.981	18861.45
445.187	19545.47
445.394	20413.81
445.6	19885.44
445.807	22314.33
446.013	20819.31
446.22	21261.67
446.426	22381.91
446.633	22467.92
446.839	23258.44
447.046	21845.34
447.252	23375.17
447.459	23186.76
447.665	23512.39
447.871	24448.31
448.078	25400.62
448.284	24333.62
448.491	24997.17
448.697	25896.22
448.903	26561.81
449.11	26717.46
449.316	26178.84
449.522	26428.7
449.728	27514.12
449.935	27606.28
450.141	27458.82
450.347	28022.02
450.553	27329.8
450.76	27673.86
450.966	28445.94
451.172	28251.39
451.378	29058.29
451.584	28243.2
451.791	29514.98
451.997	29033.71
452.203	29453.55
452.409	29506.79
452.615	29639.91
452.821	28138.75
453.027	28009.73
453.233	29881.57
453.44	28318.97
453.646	28683.51
453.852	28636.41
454.058	29193.45
454.264	28368.12
454.47	29011.18
454.676	28681.46
454.882	29447.4
455.088	26948.88
455.294	27192.59
455.5	27630.85
455.705	27985.15
455.911	26840.34
456.117	26584.34
456.323	26268.95
456.529	24743.22
456.735	25625.89
456.941	24980.78
457.147	24741.17
457.352	24048.96
457.558	23696.71
457.764	23991.61
457.97	23616.83
458.176	22666.58
458.381	22691.15
458.587	21640.54
458.793	21943.64
458.999	20739.44
459.204	22336.85
459.41	21757.28
459.616	20190.58
459.821	20125.05
460.027	19883.39
460.233	19465.6
460.438	19025.29
460.644	18955.66
460.85	18140.57
461.055	17810.84
461.261	17888.67
461.466	16498.09
461.672	15875.51
461.878	17284.51
462.083	15982.01
462.289	15908.28
462.494	15566.27
462.7	14859.72
462.905	14593.48
463.111	15093.19
463.316	15056.32
463.522	14804.42
463.727	14706.12
463.932	14611.92
464.138	14396.88
464.343	14720.46
464.549	14296.53
464.754	14681.55
464.959	14638.54
465.165	14466.51
465.37	13870.55
465.575	13561.31
465.781	14128.6
465.986	14114.26
466.191	13356.51
466.397	13387.23
466.602	12510.7
466.807	13196.77
467.012	13141.47
467.218	13104.61
467.423	12897.77
467.628	12977.64
467.833	13569.5
468.038	13020.64
468.244	12662.25
