Data from USB4F104151__39__14-42-55-464.txt Node

Date: Thu Mar 13 14:42:55 EDT 2025
User: louis
Spectrometer: USB4F10415
Trigger mode: 4
Integration Time (sec): 2.000000E-2
Scans to average: 1
Electric dark correction enabled: true
Nonlinearity correction enabled: false
Boxcar width: 0
XAxis mode: Wavelengths
Number of Pixels in Spectrum: 3648
>>>>>Begin Spectral Data<<<<<
178.204	-98.47
178.424	-98.47
178.644	-98.47
178.864	-155.82
179.084	-98.47
179.304	5.97
179.524	-12.46
179.744	5.97
179.964	10.07
180.184	40.79
180.404	-49.32
180.624	-14.51
180.844	14.17
181.064	46.93
181.283	-0.17
181.503	-14.51
181.723	-32.94
181.943	-10.41
182.163	79.7
182.383	3.93
182.602	46.93
182.822	69.46
183.042	63.32
183.262	36.69
183.482	44.88
183.701	12.12
183.921	28.5
184.141	12.12
184.361	20.31
184.58	65.36
184.8	-2.22
185.02	28.5
185.239	61.27
185.459	12.12
185.679	14.17
185.898	-4.27
186.118	36.69
186.338	81.75
186.557	22.36
186.777	28.5
186.997	12.12
187.216	3.93
187.436	98.13
187.655	22.36
187.875	98.13
188.095	55.12
188.314	18.26
188.534	114.52
188.753	36.69
188.973	22.36
189.192	3.93
189.412	69.46
189.631	-4.27
189.851	44.88
190.07	135
190.29	12.12
190.509	-4.27
190.729	65.36
190.948	44.88
191.168	155.47
191.387	24.4
191.607	28.5
191.826	-4.27
192.045	71.51
192.265	53.08
192.484	75.6
192.704	-28.84
192.923	-34.99
193.142	122.71
193.362	85.84
193.581	55.12
193.8	79.7
194.02	44.88
194.239	-10.41
194.458	30.55
194.678	-0.17
194.897	46.93
195.116	77.65
195.335	104.28
195.555	-18.6
195.774	48.98
195.993	87.89
196.212	8.02
196.432	-4.27
196.651	-37.03
196.87	3.93
197.089	30.55
197.308	30.55
197.528	3.93
197.747	12.12
197.966	-32.94
198.185	71.51
198.404	1.88
198.623	5.97
198.842	44.88
199.062	38.74
199.281	83.8
199.5	44.88
199.719	44.88
199.938	24.4
200.157	32.6
200.376	98.13
200.595	12.12
200.814	44.88
201.033	-34.99
201.252	44.88
201.471	61.27
201.69	77.65
201.909	73.56
202.128	51.03
202.347	48.98
202.566	36.69
202.785	22.36
203.004	20.31
203.223	53.08
203.442	75.6
203.661	63.32
203.879	69.46
204.098	120.66
204.317	-16.55
204.536	-8.36
204.755	24.4
204.974	79.7
205.193	14.17
205.411	85.84
205.63	130.9
205.849	77.65
206.068	40.79
206.287	40.79
206.505	-32.94
206.724	20.31
206.943	32.6
207.162	61.27
207.381	114.52
207.599	-20.65
207.818	44.88
208.037	10.07
208.255	12.12
208.474	-28.84
208.693	-20.65
208.911	57.17
209.13	55.12
209.349	22.36
209.567	87.89
209.786	-0.17
210.005	5.97
210.223	1.88
210.442	-8.36
210.661	28.5
210.879	20.31
211.098	14.17
211.316	8.02
211.535	85.84
211.753	46.93
211.972	57.17
212.191	38.74
212.409	3.93
212.628	36.69
212.846	63.32
213.065	3.93
213.283	135
213.502	53.08
213.72	36.69
213.938	10.07
214.157	-30.89
214.375	55.12
214.594	-2.22
214.812	57.17
215.031	87.89
215.249	69.46
215.467	108.37
215.686	8.02
215.904	36.69
216.122	38.74
216.341	38.74
216.559	-2.22
216.778	3.93
216.996	1.88
217.214	73.56
217.432	-28.84
217.651	-2.22
217.869	-2.22
218.087	28.5
218.306	94.04
218.524	22.36
218.742	14.17
218.96	122.71
219.179	53.08
219.397	69.46
219.615	114.52
219.833	53.08
220.051	40.79
220.27	71.51
220.488	94.04
220.706	8.02
220.924	-28.84
221.142	30.55
221.36	34.64
221.578	38.74
221.796	-2.22
222.015	94.04
222.233	44.88
222.451	36.69
222.669	75.6
222.887	67.41
223.105	-92.33
223.323	87.89
223.541	87.89
223.759	38.74
223.977	48.98
224.195	106.32
224.413	-0.17
224.631	61.27
224.849	79.7
225.067	110.42
225.285	12.12
225.503	24.4
225.721	8.02
225.939	94.04
226.157	55.12
226.375	96.08
226.592	-49.32
226.81	96.08
227.028	12.12
227.246	94.04
227.464	44.88
227.682	18.26
227.9	16.21
228.117	-32.94
228.335	61.27
228.553	30.55
228.771	16.21
228.989	102.23
229.206	-0.17
229.424	-10.41
229.642	46.93
229.86	-20.65
230.077	20.31
230.295	12.12
230.513	57.17
230.731	112.47
230.948	36.69
231.166	73.56
231.384	8.02
231.601	85.84
231.819	102.23
232.037	53.08
232.254	38.74
232.472	40.79
232.689	55.12
232.907	-30.89
233.125	69.46
233.342	-2.22
233.56	-34.99
233.777	12.12
233.995	16.21
234.213	77.65
234.43	28.5
234.648	-37.03
234.865	44.88
235.083	12.12
235.3	79.7
235.518	61.27
235.735	63.32
235.953	40.79
236.17	36.69
236.388	-12.46
236.605	3.93
236.822	55.12
237.04	118.61
237.257	16.21
237.475	85.84
237.692	28.5
237.909	-18.6
238.127	-53.42
238.344	102.23
238.562	96.08
238.779	16.21
238.996	-26.79
239.214	96.08
239.431	116.56
239.648	8.02
239.865	51.03
240.083	20.31
240.3	8.02
240.517	108.37
240.735	85.84
240.952	44.88
241.169	94.04
241.386	5.97
241.603	20.31
241.821	57.17
242.038	24.4
242.255	5.97
242.472	-0.17
242.689	61.27
242.907	-4.27
243.124	-4.27
243.341	118.61
243.558	36.69
243.775	57.17
243.992	-43.18
244.209	73.56
244.426	143.19
244.643	34.64
244.86	10.07
245.078	71.51
245.295	30.55
245.512	85.84
245.729	-18.6
245.946	20.31
246.163	53.08
246.38	-0.17
246.597	-61.61
246.814	63.32
247.031	48.98
247.248	-4.27
247.464	75.6
247.681	-0.17
247.898	79.7
248.115	12.12
248.332	-18.6
248.549	71.51
248.766	44.88
248.983	100.18
249.2	16.21
249.417	69.46
249.633	-18.6
249.85	28.5
250.067	94.04
250.284	53.08
250.501	16.21
250.717	69.46
250.934	63.32
251.151	-34.99
251.368	12.12
251.585	106.32
251.801	20.31
252.018	44.88
252.235	87.89
252.451	-43.18
252.668	77.65
252.885	-28.84
253.102	89.94
253.318	126.8
253.535	-2.22
253.752	3.93
253.968	3.93
254.185	5.97
254.401	63.32
254.618	24.4
254.835	1.88
255.051	91.99
255.268	14.17
255.484	77.65
255.701	63.32
255.917	61.27
256.134	10.07
256.351	-18.6
256.567	-26.79
256.784	22.36
257	8.02
257.217	83.8
257.433	24.4
257.65	-0.17
257.866	118.61
258.082	30.55
258.299	-39.08
258.515	30.55
258.732	-16.55
258.948	-0.17
259.165	89.94
259.381	14.17
259.597	-20.65
259.814	46.93
260.03	-39.08
260.246	14.17
260.463	42.84
260.679	102.23
260.895	32.6
261.112	69.46
261.328	12.12
261.544	-2.22
261.761	102.23
261.977	53.08
262.193	-0.17
262.409	51.03
262.626	46.93
262.842	36.69
263.058	34.64
263.274	63.32
263.49	36.69
263.707	28.5
263.923	48.98
264.139	-32.94
264.355	-39.08
264.571	73.56
264.787	81.75
265.004	79.7
265.22	20.31
265.436	71.51
265.652	-77.99
265.868	44.88
266.084	61.27
266.3	71.51
266.516	53.08
266.732	122.71
266.948	16.21
267.164	14.17
267.38	57.17
267.596	55.12
267.812	67.41
268.028	110.42
268.244	36.69
268.46	-4.27
268.676	-61.61
268.892	85.84
269.108	55.12
269.324	-14.51
269.54	40.79
269.756	112.47
269.972	20.31
270.188	81.75
270.403	1.88
270.619	-0.17
270.835	5.97
271.051	77.65
271.267	81.75
271.483	-2.22
271.698	87.89
271.914	73.56
272.13	46.93
272.346	73.56
272.562	-2.22
272.777	79.7
272.993	-16.55
273.209	12.12
273.425	-10.41
273.64	-69.8
273.856	-28.84
274.072	46.93
274.287	-51.37
274.503	-2.22
274.719	28.5
274.934	12.12
275.15	3.93
275.366	20.31
275.581	3.93
275.797	-18.6
276.012	46.93
276.228	44.88
276.444	22.36
276.659	81.75
276.875	18.26
277.09	22.36
277.306	77.65
277.521	102.23
277.737	12.12
277.952	57.17
278.168	102.23
278.383	46.93
278.599	-4.27
278.814	30.55
279.03	36.69
279.245	98.13
279.461	102.23
279.676	61.27
279.892	-4.27
280.107	36.69
280.322	12.12
280.538	38.74
280.753	40.79
280.969	38.74
281.184	71.51
281.399	63.32
281.615	28.5
281.83	32.6
282.045	-37.03
282.26	-4.27
282.476	-4.27
282.691	38.74
282.906	77.65
283.122	53.08
283.337	69.46
283.552	135
283.767	8.02
283.983	145.24
284.198	34.64
284.413	118.61
284.628	53.08
284.843	-6.31
285.058	-4.27
285.274	96.08
285.489	-69.8
285.704	61.27
285.919	46.93
286.134	87.89
286.349	53.08
286.564	-12.46
286.779	44.88
286.995	30.55
287.21	30.55
287.425	-2.22
287.64	3.93
287.855	28.5
288.07	-20.65
288.285	46.93
288.5	77.65
288.715	112.47
288.93	-51.37
289.145	55.12
289.36	14.17
289.575	-2.22
289.79	55.12
290.004	28.5
290.219	61.27
290.434	36.69
290.649	-2.22
290.864	-41.13
291.079	24.4
291.294	44.88
291.509	26.45
291.724	48.98
291.938	-2.22
292.153	102.23
292.368	-2.22
292.583	32.6
292.798	81.75
293.012	55.12
293.227	46.93
293.442	44.88
293.657	89.94
293.871	22.36
294.086	40.79
294.301	69.46
294.516	69.46
294.73	85.84
294.945	38.74
295.16	28.5
295.374	16.21
295.589	12.12
295.804	-37.03
296.018	12.12
296.233	46.93
296.447	69.46
296.662	-49.32
296.877	96.08
297.091	108.37
297.306	44.88
297.52	46.93
297.735	32.6
297.949	69.46
298.164	32.6
298.378	28.5
298.593	65.36
298.807	48.98
299.022	12.12
299.236	63.32
299.451	28.5
299.665	96.08
299.88	-28.84
300.094	-8.36
300.309	110.42
300.523	96.08
300.737	32.6
300.952	79.7
301.166	61.27
301.381	-12.46
301.595	96.08
301.809	106.32
302.024	5.97
302.238	79.7
302.452	85.84
302.667	22.36
302.881	94.04
303.095	71.51
303.309	26.45
303.524	44.88
303.738	30.55
303.952	3.93
304.166	8.02
304.381	12.12
304.595	69.46
304.809	57.17
305.023	81.75
305.237	-20.65
305.452	32.6
305.666	20.31
305.88	10.07
306.094	46.93
306.308	57.17
306.522	3.93
306.736	143.19
306.95	38.74
307.164	44.88
307.379	44.88
307.593	28.5
307.807	46.93
308.021	69.46
308.235	20.31
308.449	20.31
308.663	55.12
308.877	89.94
309.091	14.17
309.305	87.89
309.519	36.69
309.733	112.47
309.947	30.55
310.161	5.97
310.374	20.31
310.588	53.08
310.802	-37.03
311.016	30.55
311.23	-8.36
311.444	26.45
311.658	10.07
311.872	61.27
312.085	69.46
312.299	63.32
312.513	167.76
312.727	46.93
312.941	28.5
313.154	44.88
313.368	30.55
313.582	32.6
313.796	28.5
314.009	32.6
314.223	24.4
314.437	53.08
314.651	16.21
314.864	61.27
315.078	85.84
315.292	79.7
315.505	73.56
315.719	71.51
315.933	22.36
316.146	53.08
316.36	20.31
316.573	73.56
316.787	73.56
317.001	24.4
317.214	53.08
317.428	59.22
317.641	5.97
317.855	79.7
318.068	48.98
318.282	69.46
318.495	12.12
318.709	28.5
318.922	18.26
319.136	94.04
319.349	36.69
319.563	-18.6
319.776	77.65
319.99	-37.03
320.203	110.42
320.417	-10.41
320.63	16.21
320.843	71.51
321.057	108.37
321.27	91.99
321.483	38.74
321.697	89.94
321.91	65.36
322.124	85.84
322.337	28.5
322.55	-2.22
322.763	46.93
322.977	53.08
323.19	77.65
323.403	20.31
323.617	-8.36
323.83	89.94
324.043	8.02
324.256	5.97
324.469	12.12
324.683	69.46
324.896	69.46
325.109	40.79
325.322	-20.65
325.535	143.19
325.748	-12.46
325.962	81.75
326.175	20.31
326.388	-0.17
326.601	32.6
326.814	46.93
327.027	28.5
327.24	69.46
327.453	-37.03
327.666	143.19
327.879	102.23
328.092	14.17
328.305	40.79
328.518	53.08
328.731	53.08
328.944	8.02
329.157	55.12
329.37	96.08
329.583	59.22
329.796	145.24
330.009	16.21
330.222	73.56
330.435	85.84
330.648	36.69
330.861	20.31
331.073	57.17
331.286	51.03
331.499	137.04
331.712	91.99
331.925	46.93
332.138	-4.27
332.35	83.8
332.563	-18.6
332.776	79.7
332.989	36.69
333.202	53.08
333.414	-34.99
333.627	28.5
333.84	20.31
334.053	38.74
334.265	81.75
334.478	69.46
334.691	-12.46
334.903	96.08
335.116	24.4
335.329	36.69
335.541	16.21
335.754	77.65
335.966	30.55
336.179	44.88
336.392	3.93
336.604	3.93
336.817	51.03
337.029	53.08
337.242	85.84
337.454	98.13
337.667	36.69
337.88	147.28
338.092	3.93
338.305	122.71
338.517	48.98
338.729	73.56
338.942	12.12
339.154	-20.65
339.367	-10.41
339.579	8.02
339.792	73.56
340.004	81.75
340.217	96.08
340.429	55.12
340.641	57.17
340.854	53.08
341.066	3.93
341.278	73.56
341.491	159.57
341.703	16.21
341.915	-53.42
342.128	110.42
342.34	63.32
342.552	38.74
342.764	-4.27
342.977	16.21
343.189	53.08
343.401	98.13
343.613	3.93
343.826	-16.55
344.038	-37.03
344.25	48.98
344.462	14.17
344.674	12.12
344.886	8.02
345.099	12.12
345.311	94.04
345.523	12.12
345.735	65.36
345.947	36.69
346.159	26.45
346.371	44.88
346.583	30.55
346.795	94.04
347.007	40.79
347.219	98.13
347.431	46.93
347.643	53.08
347.855	143.19
348.067	-6.31
348.279	89.94
348.491	36.69
348.703	-4.27
348.915	12.12
349.127	46.93
349.339	3.93
349.551	-28.84
349.763	46.93
349.975	28.5
350.187	102.23
350.399	98.13
350.61	57.17
350.822	44.88
351.034	36.69
351.246	81.75
351.458	44.88
351.669	110.42
351.881	30.55
352.093	57.17
352.305	110.42
352.517	94.04
352.728	118.61
352.94	-4.27
353.152	14.17
353.363	16.21
353.575	69.46
353.787	51.03
353.999	85.84
354.21	87.89
354.422	48.98
354.633	22.36
354.845	44.88
355.057	94.04
355.268	69.46
355.48	73.56
355.692	20.31
355.903	53.08
356.115	46.93
356.326	55.12
356.538	53.08
356.749	8.02
356.961	118.61
357.172	53.08
357.384	104.28
357.595	130.9
357.807	57.17
358.018	89.94
358.23	106.32
358.441	94.04
358.653	65.36
358.864	94.04
359.075	77.65
359.287	-18.6
359.498	75.6
359.709	28.5
359.921	79.7
360.132	55.12
360.344	48.98
360.555	32.6
360.766	102.23
360.977	118.61
361.189	87.89
361.4	18.26
361.611	3.93
361.823	48.98
362.034	16.21
362.245	14.17
362.456	-4.27
362.667	22.36
362.879	77.65
363.09	75.6
363.301	69.46
363.512	73.56
363.723	55.12
363.935	69.46
364.146	10.07
364.357	-41.13
364.568	61.27
364.779	-12.46
364.99	81.75
365.201	61.27
365.412	57.17
365.623	-34.99
365.834	42.84
366.045	69.46
366.256	96.08
366.467	-53.42
366.678	114.52
366.889	18.26
367.1	22.36
367.311	87.89
367.522	40.79
367.733	73.56
367.944	102.23
368.155	36.69
368.366	89.94
368.577	67.41
368.788	55.12
368.999	3.93
369.209	36.69
369.42	112.47
369.631	98.13
369.842	89.94
370.053	55.12
370.264	69.46
370.474	65.36
370.685	69.46
370.896	38.74
371.107	104.28
371.317	128.85
371.528	30.55
371.739	36.69
371.95	69.46
372.16	85.84
372.371	3.93
372.582	20.31
372.792	91.99
373.003	30.55
373.214	46.93
373.424	55.12
373.635	79.7
373.846	126.8
374.056	44.88
374.267	3.93
374.477	61.27
374.688	94.04
374.898	42.84
375.109	53.08
375.319	71.51
375.53	77.65
375.74	59.22
375.951	53.08
376.161	110.42
376.372	36.69
376.582	1.88
376.793	94.04
377.003	-28.84
377.214	87.89
377.424	69.46
377.635	73.56
377.845	48.98
378.055	110.42
378.266	-10.41
378.476	57.17
378.686	96.08
378.897	-4.27
379.107	61.27
379.317	79.7
379.528	67.41
379.738	48.98
379.948	96.08
380.158	77.65
380.369	44.88
380.579	32.6
380.789	79.7
380.999	20.31
381.21	59.22
381.42	126.8
381.63	8.02
381.84	40.79
382.05	63.32
382.261	59.22
382.471	135
382.681	18.26
382.891	46.93
383.101	145.24
383.311	12.12
383.521	63.32
383.731	-16.55
383.941	106.32
384.151	46.93
384.361	46.93
384.571	122.71
384.781	104.28
384.991	110.42
385.201	139.09
385.411	61.27
385.621	167.76
385.831	69.46
386.041	32.6
386.251	106.32
386.461	126.8
386.671	77.65
386.881	69.46
387.091	28.5
387.301	28.5
387.511	53.08
387.72	114.52
387.93	71.51
388.14	10.07
388.35	147.28
388.56	96.08
388.769	100.18
388.979	26.45
389.189	83.8
389.399	8.02
389.609	110.42
389.818	16.21
390.028	114.52
390.238	75.6
390.447	34.64
390.657	57.17
390.867	-37.03
391.076	85.84
391.286	110.42
391.496	61.27
391.705	67.41
391.915	32.6
392.125	118.61
392.334	118.61
392.544	53.08
392.753	85.84
392.963	169.81
393.172	73.56
393.382	65.36
393.591	202.58
393.801	77.65
394.01	128.85
394.22	63.32
394.429	65.36
394.639	1.88
394.848	55.12
395.058	57.17
395.267	106.32
395.477	130.9
395.686	143.19
395.895	126.8
396.105	126.8
396.314	28.5
396.524	147.28
396.733	46.93
396.942	126.8
397.152	46.93
397.361	98.13
397.57	151.38
397.78	102.23
397.989	147.28
398.198	132.95
398.407	55.12
398.617	159.57
398.826	61.27
399.035	36.69
399.244	147.28
399.453	44.88
399.663	155.47
399.872	135
400.081	77.65
400.29	167.76
400.499	130.9
400.708	77.65
400.917	32.6
401.127	110.42
401.336	85.84
401.545	196.43
401.754	184.15
401.963	159.57
402.172	135
402.381	77.65
402.59	79.7
402.799	85.84
403.008	137.04
403.217	69.46
403.426	106.32
403.635	151.38
403.844	145.24
404.053	108.37
404.262	178
404.471	210.77
404.68	210.77
404.888	180.05
405.097	167.76
405.306	167.76
405.515	159.57
405.724	159.57
405.933	208.72
406.142	231.25
406.35	216.91
406.559	251.73
406.768	210.77
406.977	233.3
407.185	173.91
407.394	227.15
407.603	264.02
407.812	202.58
408.02	284.5
408.229	272.21
408.438	284.5
408.646	180.05
408.855	276.31
409.064	274.26
409.272	257.87
409.481	245.59
409.69	274.26
409.898	284.5
410.107	276.31
410.315	364.37
410.524	366.42
410.733	405.33
410.941	290.64
411.15	366.42
411.358	354.13
411.567	468.81
411.775	454.48
411.984	438.09
412.192	495.44
412.401	481.1
412.609	505.68
412.818	560.97
413.026	468.81
413.234	601.93
413.443	522.06
413.651	560.97
413.86	583.5
414.068	646.99
414.276	675.66
414.485	532.3
414.693	743.24
414.901	700.23
415.11	718.67
415.318	802.63
415.526	759.63
415.734	790.35
415.943	806.73
416.151	857.93
416.359	823.11
416.567	884.55
416.776	890.7
416.984	1017.67
417.192	1062.73
417.4	956.23
417.608	995.14
417.817	1111.88
418.025	1013.57
418.233	1177.41
418.441	1101.64
418.649	1269.57
418.857	1312.58
419.065	1390.4
419.273	1349.44
419.481	1380.16
419.689	1445.7
419.897	1529.66
420.105	1574.72
420.313	1568.57
420.521	1650.49
420.729	1593.15
420.937	1707.84
421.145	1750.84
421.353	1890.1
421.561	2055.99
421.769	2027.32
421.977	2135.86
422.185	2131.76
422.393	2281.27
422.601	2420.53
422.809	2266.93
423.017	2332.47
423.224	2322.23
423.432	2518.83
423.64	2529.07
423.848	2746.16
424.056	2582.32
424.263	2920.23
424.471	2930.47
424.679	2969.38
424.887	3047.21
425.094	3252
425.302	3131.17
425.51	3323.68
425.718	3462.94
425.925	3503.9
426.133	3600.16
426.341	3798.81
426.548	3960.6
426.756	3985.18
426.964	4140.82
427.171	4230.93
427.379	4495.12
427.586	4386.58
427.794	4513.55
428.001	4892.43
428.209	5023.5
428.417	5009.16
428.624	5267.2
428.832	5316.36
429.039	5207.81
429.247	5314.31
429.454	5852.92
429.662	6031.1
429.869	5744.38
430.076	6029.05
430.284	5959.42
430.491	6405.88
430.699	6565.62
430.906	6520.56
431.114	6721.26
431.321	6917.87
431.528	7020.27
431.736	7581.41
431.943	7810.78
432.15	7440.1
432.358	7802.59
432.565	8191.7
432.772	8117.98
432.979	8494.8
433.187	8662.74
433.394	8730.32
433.601	9250.5
433.808	9318.09
434.016	9375.43
434.223	9727.68
434.43	10237.63
434.637	10047.16
434.844	10501.81
435.052	11042.48
435.259	10794.67
435.466	10825.39
435.673	10835.63
435.88	11523.75
436.087	12248.73
436.294	12154.52
436.501	11730.59
436.708	12080.8
436.915	12730
437.122	13004.43
437.329	12967.57
437.537	13371.02
437.743	13475.46
437.95	13596.29
438.157	14147.2
438.364	14755.44
438.571	14452.34
438.778	14726.77
438.985	16328.28
439.192	15523.43
439.399	16119.39
439.606	15453.8
439.813	16678.49
440.02	17727.05
440.227	17446.48
440.433	17104.46
440.64	17641.03
440.847	17282.64
441.054	17788.49
441.261	19105.33
441.467	18853.43
441.674	19437.1
441.881	19928.61
442.088	19887.65
442.294	19689
442.501	20356.64
442.708	20538.91
442.914	21284.37
443.121	22494.72
443.328	21722.63
443.534	23365.1
443.741	22719.99
443.948	22246.91
444.154	24133.09
444.361	23815.66
444.568	23975.4
444.774	24071.65
444.981	24241.64
445.187	25017.82
445.394	26017.22
445.6	25869.77
445.807	27995.56
446.013	26955.19
446.22	27600.3
446.426	28878.24
446.633	29175.19
446.839	29775.25
447.046	28849.57
447.252	30254.47
447.459	30309.77
447.665	29906.32
447.871	31507.83
448.078	32767.33
448.284	31120.76
448.491	32189.8
448.697	33512.79
448.903	34133.32
449.11	34116.94
449.316	33375.58
449.522	34155.85
449.728	35007.81
449.935	35251.52
450.141	35433.78
450.347	36609.32
450.553	35310.91
450.76	35783.99
450.966	36955.43
451.172	36631.85
451.378	37516.57
451.584	37145.89
451.791	37815.57
451.997	37496.09
452.203	38020.37
452.409	38262.03
452.615	37905.68
452.821	36807.97
453.027	36472.1
453.233	38130.96
453.44	36721.96
453.646	37291.29
453.852	37178.65
454.058	38044.94
454.264	36857.12
454.47	37627.16
454.676	37098.78
454.882	38178.06
455.088	34772.29
455.294	35358.01
455.5	35870
455.705	36646.18
455.911	34913.6
456.117	34221.39
456.323	33918.29
456.529	32134.51
456.735	33303.9
456.941	32435.56
457.147	32306.54
457.352	31323.51
457.558	30895.49
457.764	30686.59
457.97	30393.73
458.176	29781.39
458.381	29654.42
458.587	28376.48
458.793	28261.8
458.999	27131.32
459.204	29044.12
459.41	28272.04
459.616	26402.24
459.821	26312.13
460.027	26281.41
460.233	25822.67
460.438	24509.92
460.644	24661.47
460.85	23694.83
461.055	23092.72
461.261	23375.34
461.466	21708.3
461.672	20672.03
461.878	22251.01
462.083	21007.89
462.289	20612.63
462.494	20475.42
462.7	19559.98
462.905	18927.16
463.111	19627.56
463.316	19783.21
463.522	19027.51
463.727	19250.74
463.932	19281.46
464.138	19242.54
464.343	18884.15
464.549	18427.45
464.754	19308.08
464.959	19109.43
465.165	18984.5
465.37	18054.72
465.575	17735.24
465.781	18363.97
465.986	18224.7
466.191	17808.97
466.397	17458.76
466.602	16574.04
466.807	17444.43
467.012	17180.24
467.218	17184.34
467.423	16875.09
467.628	17083.98
467.833	17763.91
468.038	16850.52
