Data from USB4F104151__274__14-46-11-198.txt Node

Date: Thu Mar 13 14:46:11 EDT 2025
User: louis
Spectrometer: USB4F10415
Trigger mode: 4
Integration Time (sec): 2.000000E-2
Scans to average: 1
Electric dark correction enabled: true
Nonlinearity correction enabled: false
Boxcar width: 0
XAxis mode: Wavelengths
Number of Pixels in Spectrum: 3648
>>>>>Begin Spectral Data<<<<<
178.204	-57.86
178.424	-57.86
178.644	-57.86
178.864	-188.93
179.084	-53.76
179.304	-53.76
179.524	28.16
179.744	-72.19
179.964	52.74
180.184	-29.18
180.404	48.64
180.624	-12.8
180.844	-0.51
181.064	-20.99
181.283	19.97
181.503	-45.57
181.723	85.5
181.943	-39.42
182.163	122.37
182.383	5.63
182.602	56.83
182.822	30.21
183.042	79.36
183.262	-12.8
183.482	-23.04
183.701	38.4
183.921	44.54
184.141	-14.85
184.361	58.88
184.58	-12.8
184.8	9.73
185.02	19.97
185.239	42.5
185.459	-41.47
185.679	108.03
185.898	-51.71
186.118	15.87
186.338	-98.81
186.557	7.68
186.777	-23.04
186.997	73.21
187.216	46.59
187.436	93.69
187.655	11.78
187.875	15.87
188.095	17.92
188.314	19.97
188.534	60.93
188.753	-6.66
188.973	42.5
189.192	81.41
189.412	9.73
189.631	15.87
189.851	1.54
190.07	-8.7
190.29	-45.57
190.509	-57.86
190.729	52.74
190.948	67.07
191.168	77.31
191.387	9.73
191.607	-39.42
191.826	32.26
192.045	7.68
192.265	-10.75
192.484	-33.28
192.704	56.83
192.923	-16.9
193.142	116.22
193.362	-8.7
193.581	46.59
193.8	-4.61
194.02	73.21
194.239	-27.14
194.458	19.97
194.678	3.58
194.897	15.87
195.116	-16.9
195.335	26.11
195.555	56.83
195.774	-41.47
195.993	54.78
196.212	77.31
196.432	7.68
196.651	-45.57
196.87	26.11
197.089	93.69
197.308	81.41
197.528	75.26
197.747	32.26
197.966	19.97
198.185	108.03
198.404	44.54
198.623	50.69
198.842	44.54
199.062	26.11
199.281	75.26
199.5	-23.04
199.719	17.92
199.938	22.02
200.157	-6.66
200.376	19.97
200.595	97.79
200.814	11.78
201.033	32.26
201.252	65.02
201.471	7.68
201.69	36.35
201.909	24.06
202.128	9.73
202.347	65.02
202.566	-10.75
202.785	-23.04
203.004	-20.99
203.223	46.59
203.442	77.31
203.661	-0.51
203.879	-39.42
204.098	58.88
204.317	32.26
204.536	7.68
204.755	15.87
204.974	56.83
205.193	15.87
205.411	116.22
205.63	11.78
205.849	3.58
206.068	42.5
206.287	24.06
206.505	114.17
206.724	-29.18
206.943	-4.61
207.162	-61.95
207.381	-23.04
207.599	67.07
207.818	67.07
208.037	-0.51
208.255	19.97
208.474	11.78
208.693	-8.7
208.911	44.54
209.13	7.68
209.349	65.02
209.567	22.02
209.786	75.26
210.005	-0.51
210.223	-25.09
210.442	-14.85
210.661	34.3
210.879	17.92
211.098	44.54
211.316	46.59
211.535	-49.66
211.753	-25.09
211.972	77.31
212.191	17.92
212.409	9.73
212.628	38.4
212.846	32.26
213.065	36.35
213.283	69.12
213.502	-25.09
213.72	54.78
213.938	44.54
214.157	3.58
214.375	101.89
214.594	9.73
214.812	-29.18
215.031	-8.7
215.249	26.11
215.467	52.74
215.686	110.08
215.904	48.64
216.122	3.58
216.341	56.83
216.559	24.06
216.778	116.22
216.996	81.41
217.214	26.11
217.432	19.97
217.651	32.26
217.869	-43.52
218.087	22.02
218.306	32.26
218.524	-0.51
218.742	28.16
218.96	3.58
219.179	19.97
219.397	73.21
219.615	85.5
219.833	-33.28
220.051	-14.85
220.27	81.41
220.488	122.37
220.706	36.35
220.924	17.92
221.142	-12.8
221.36	24.06
221.578	73.21
221.796	58.88
222.015	67.07
222.233	81.41
222.451	89.6
222.669	-23.04
222.887	75.26
223.105	32.26
223.323	42.5
223.541	32.26
223.759	1.54
223.977	99.84
224.195	32.26
224.413	103.93
224.631	-23.04
224.849	11.78
225.067	52.74
225.285	-41.47
225.503	22.02
225.721	7.68
225.939	56.83
226.157	28.16
226.375	50.69
226.592	7.68
226.81	89.6
227.028	81.41
227.246	77.31
227.464	-16.9
227.682	7.68
227.9	34.3
228.117	-49.66
228.335	3.58
228.553	-23.04
228.771	15.87
228.989	48.64
229.206	-6.66
229.424	79.36
229.642	65.02
229.86	-31.23
230.077	-4.61
230.295	17.92
230.513	101.89
230.731	58.88
230.948	73.21
231.166	52.74
231.384	26.11
231.601	7.68
231.819	3.58
232.037	-49.66
232.254	77.31
232.472	11.78
232.689	-33.28
232.907	42.5
233.125	9.73
233.342	91.65
233.56	-31.23
233.777	32.26
233.995	-0.51
234.213	32.26
234.43	-16.9
234.648	-66.05
234.865	7.68
235.083	87.55
235.3	48.64
235.518	40.45
235.735	32.26
235.953	122.37
236.17	-37.38
236.388	34.3
236.605	1.54
236.822	40.45
237.04	60.93
237.257	48.64
237.475	-16.9
237.692	83.45
237.909	75.26
238.127	-20.99
238.344	19.97
238.562	26.11
238.779	3.58
238.996	-25.09
239.214	65.02
239.431	110.08
239.648	11.78
239.865	56.83
240.083	3.58
240.3	24.06
240.517	-8.7
240.735	48.64
240.952	65.02
241.169	124.41
241.386	-41.47
241.603	19.97
241.821	5.63
242.038	81.41
242.255	24.06
242.472	58.88
242.689	32.26
242.907	132.61
243.124	46.59
243.341	28.16
243.558	11.78
243.775	-0.51
243.992	-4.61
244.209	91.65
244.426	48.64
244.643	77.31
244.86	19.97
245.078	40.45
245.295	36.35
245.512	34.3
245.729	-12.8
245.946	50.69
246.163	65.02
246.38	42.5
246.597	32.26
246.814	75.26
247.031	34.3
247.248	34.3
247.464	-14.85
247.681	32.26
247.898	48.64
248.115	22.02
248.332	83.45
248.549	50.69
248.766	65.02
248.983	46.59
249.2	58.88
249.417	28.16
249.633	-0.51
249.85	-0.51
250.067	26.11
250.284	17.92
250.501	1.54
250.717	77.31
250.934	-55.81
251.151	44.54
251.368	73.21
251.585	50.69
251.801	81.41
252.018	-0.51
252.235	81.41
252.451	-49.66
252.668	17.92
252.885	34.3
253.102	-25.09
253.318	56.83
253.535	15.87
253.752	65.02
253.968	50.69
254.185	42.5
254.401	-39.42
254.618	93.69
254.835	-16.9
255.051	99.84
255.268	-20.99
255.484	101.89
255.701	-0.51
255.917	40.45
256.134	50.69
256.351	56.83
256.567	58.88
256.784	50.69
257	-94.72
257.217	40.45
257.433	40.45
257.65	24.06
257.866	81.41
258.082	5.63
258.299	52.74
258.515	56.83
258.732	-33.28
258.948	40.45
259.165	73.21
259.381	-16.9
259.597	-25.09
259.814	105.98
260.03	19.97
260.246	56.83
260.463	5.63
260.679	69.12
260.895	-6.66
261.112	48.64
261.328	69.12
261.544	-57.86
261.761	91.65
261.977	32.26
262.193	19.97
262.409	97.79
262.626	26.11
262.842	15.87
263.058	-41.47
263.274	9.73
263.49	-49.66
263.707	36.35
263.923	122.37
264.139	-55.81
264.355	28.16
264.571	99.84
264.787	-0.51
265.004	136.7
265.22	-10.75
265.436	52.74
265.652	9.73
265.868	65.02
266.084	40.45
266.3	26.11
266.516	-86.53
266.732	50.69
266.948	-8.7
267.164	7.68
267.38	9.73
267.596	-10.75
267.812	48.64
268.028	87.55
268.244	38.4
268.46	73.21
268.676	48.64
268.892	65.02
269.108	9.73
269.324	13.82
269.54	-61.95
269.756	52.74
269.972	7.68
270.188	-8.7
270.403	81.41
270.619	19.97
270.835	-0.51
271.051	-10.75
271.267	3.58
271.483	83.45
271.698	-74.24
271.914	-39.42
272.13	114.17
272.346	56.83
272.562	-29.18
272.777	34.3
272.993	85.5
273.209	7.68
273.425	91.65
273.64	15.87
273.856	-0.51
274.072	3.58
274.287	-23.04
274.503	65.02
274.719	58.88
274.934	32.26
275.15	-23.04
275.366	11.78
275.581	5.63
275.797	15.87
276.012	7.68
276.228	-51.71
276.444	62.98
276.659	99.84
276.875	3.58
277.09	56.83
277.306	-12.8
277.521	65.02
277.737	-10.75
277.952	60.93
278.168	-74.24
278.383	99.84
278.599	38.4
278.814	65.02
279.03	54.78
279.245	65.02
279.461	5.63
279.676	73.21
279.892	-61.95
280.107	9.73
280.322	28.16
280.538	105.98
280.753	28.16
280.969	85.5
281.184	-41.47
281.399	-6.66
281.615	-25.09
281.83	30.21
282.045	-47.62
282.26	-12.8
282.476	32.26
282.691	65.02
282.906	11.78
283.122	40.45
283.337	-4.61
283.552	146.94
283.767	24.06
283.983	24.06
284.198	69.12
284.413	24.06
284.628	54.78
284.843	44.54
285.058	69.12
285.274	32.26
285.489	-8.7
285.704	28.16
285.919	32.26
286.134	44.54
286.349	5.63
286.564	58.88
286.779	112.13
286.995	52.74
287.21	40.45
287.425	40.45
287.64	11.78
287.855	34.3
288.07	65.02
288.285	89.6
288.5	36.35
288.715	77.31
288.93	-14.85
289.145	40.45
289.36	40.45
289.575	26.11
289.79	32.26
290.004	48.64
290.219	34.3
290.434	48.64
290.649	36.35
290.864	36.35
291.079	58.88
291.294	11.78
291.509	54.78
291.724	101.89
291.938	50.69
292.153	44.54
292.368	73.21
292.583	44.54
292.798	22.02
293.012	108.03
293.227	71.17
293.442	34.3
293.657	83.45
293.871	85.5
294.086	26.11
294.301	116.22
294.516	73.21
294.73	40.45
294.945	89.6
295.16	15.87
295.374	28.16
295.589	32.26
295.804	13.82
296.018	83.45
296.233	22.02
296.447	13.82
296.662	11.78
296.877	54.78
297.091	24.06
297.306	7.68
297.52	-2.56
297.735	9.73
297.949	40.45
298.164	-0.51
298.378	32.26
298.593	19.97
298.807	-8.7
299.022	22.02
299.236	103.93
299.451	-8.7
299.665	-23.04
299.88	67.07
300.094	73.21
300.309	26.11
300.523	17.92
300.737	32.26
300.952	48.64
301.166	17.92
301.381	36.35
301.595	52.74
301.809	48.64
302.024	83.45
302.238	24.06
302.452	89.6
302.667	48.64
302.881	83.45
303.095	7.68
303.309	-16.9
303.524	44.54
303.738	-8.7
303.952	-12.8
304.166	93.69
304.381	42.5
304.595	40.45
304.809	-4.61
305.023	38.4
305.237	-14.85
305.452	1.54
305.666	87.55
305.88	99.84
306.094	44.54
306.308	9.73
306.522	159.23
306.736	24.06
306.95	67.07
307.164	-12.8
307.379	73.21
307.593	99.84
307.807	19.97
308.021	116.22
308.235	73.21
308.449	-25.09
308.663	32.26
308.877	65.02
309.091	93.69
309.305	44.54
309.519	-0.51
309.733	93.69
309.947	15.87
310.161	75.26
310.374	71.17
310.588	83.45
310.802	-23.04
311.016	-25.09
311.23	48.64
311.444	28.16
311.658	71.17
311.872	-6.66
312.085	-0.51
312.299	44.54
312.513	73.21
312.727	-6.66
312.941	-29.18
313.154	97.79
313.368	24.06
313.582	42.5
313.796	-4.61
314.009	89.6
314.223	69.12
314.437	34.3
314.651	15.87
314.864	5.63
315.078	-49.66
315.292	13.82
315.505	15.87
315.719	73.21
315.933	19.97
316.146	54.78
316.36	-16.9
316.573	108.03
316.787	30.21
317.001	-0.51
317.214	-72.19
317.428	-16.9
317.641	15.87
317.855	40.45
318.068	-6.66
318.282	17.92
318.495	32.26
318.709	93.69
318.922	13.82
319.136	93.69
319.349	17.92
319.563	32.26
319.776	89.6
319.99	-74.24
320.203	122.37
320.417	15.87
320.63	22.02
320.843	146.94
321.057	11.78
321.27	32.26
321.483	36.35
321.697	60.93
321.91	105.98
322.124	32.26
322.337	60.93
322.55	69.12
322.763	-0.51
322.977	15.87
323.19	36.35
323.403	60.93
323.617	15.87
323.83	17.92
324.043	15.87
324.256	24.06
324.469	36.35
324.683	67.07
324.896	28.16
325.109	1.54
325.322	-4.61
325.535	62.98
325.748	9.73
325.962	24.06
326.175	5.63
326.388	42.5
326.601	-33.28
326.814	81.41
327.027	38.4
327.24	40.45
327.453	7.68
327.666	52.74
327.879	15.87
328.092	159.23
328.305	65.02
328.518	13.82
328.731	65.02
328.944	48.64
329.157	34.3
329.37	42.5
329.583	-6.66
329.796	32.26
330.009	42.5
330.222	48.64
330.435	67.07
330.648	52.74
330.861	3.58
331.073	75.26
331.286	69.12
331.499	50.69
331.712	-8.7
331.925	26.11
332.138	-0.51
332.35	-4.61
332.563	-33.28
332.776	103.93
332.989	-23.04
333.202	58.88
333.414	32.26
333.627	11.78
333.84	-2.56
334.053	44.54
334.265	15.87
334.478	56.83
334.691	56.83
334.903	108.03
335.116	9.73
335.329	-16.9
335.541	26.11
335.754	101.89
335.966	36.35
336.179	42.5
336.392	-8.7
336.604	83.45
336.817	81.41
337.029	42.5
337.242	56.83
337.454	110.08
337.667	69.12
337.88	67.07
338.092	81.41
338.305	50.69
338.517	17.92
338.729	105.98
338.942	138.75
339.154	7.68
339.367	7.68
339.579	7.68
339.792	-4.61
340.004	65.02
340.217	-25.09
340.429	17.92
340.641	34.3
340.854	-39.42
341.066	24.06
341.278	15.87
341.491	56.83
341.703	5.63
341.915	75.26
342.128	65.02
342.34	22.02
342.552	15.87
342.764	-2.56
342.977	19.97
343.189	114.17
343.401	9.73
343.613	19.97
343.826	69.12
344.038	-0.51
344.25	101.89
344.462	-4.61
344.674	91.65
344.886	-82.43
345.099	-0.51
345.311	26.11
345.523	3.58
345.735	34.3
345.947	83.45
346.159	32.26
346.371	85.5
346.583	56.83
346.795	122.37
347.007	15.87
347.219	26.11
347.431	17.92
347.643	93.69
347.855	24.06
348.067	69.12
348.279	-27.14
348.491	-41.47
348.703	73.21
348.915	1.54
349.127	15.87
349.339	120.32
349.551	42.5
349.763	89.6
349.975	75.26
350.187	114.17
350.399	89.6
350.61	65.02
350.822	52.74
351.034	19.97
351.246	65.02
351.458	83.45
351.669	110.08
351.881	110.08
352.093	44.54
352.305	60.93
352.517	44.54
352.728	52.74
352.94	103.93
353.152	36.35
353.363	28.16
353.575	24.06
353.787	32.26
353.999	40.45
354.21	93.69
354.422	58.88
354.633	85.5
354.845	3.58
355.057	46.59
355.268	-0.51
355.48	103.93
355.692	52.74
355.903	32.26
356.115	-12.8
356.326	56.83
356.538	69.12
356.749	85.5
356.961	144.89
357.172	60.93
357.384	-16.9
357.595	105.98
357.807	58.88
358.018	60.93
358.23	-0.51
358.441	56.83
358.653	110.08
358.864	22.02
359.075	48.64
359.287	56.83
359.498	26.11
359.709	32.26
359.921	-16.9
360.132	54.78
360.344	50.69
360.555	28.16
360.766	79.36
360.977	-12.8
361.189	85.5
361.4	42.5
361.611	157.18
361.823	56.83
362.034	89.6
362.245	19.97
362.456	91.65
362.667	32.26
362.879	71.17
363.09	15.87
363.301	-45.57
363.512	-12.8
363.723	11.78
363.935	26.11
364.146	77.31
364.357	-18.94
364.568	89.6
364.779	28.16
364.99	65.02
365.201	34.3
365.412	99.84
365.623	26.11
365.834	58.88
366.045	9.73
366.256	65.02
366.467	58.88
366.678	40.45
366.889	17.92
367.1	32.26
367.311	69.12
367.522	34.3
367.733	155.13
367.944	48.64
368.155	-4.61
368.366	65.02
368.577	97.79
368.788	75.26
368.999	24.06
369.209	34.3
369.42	108.03
369.631	118.27
369.842	11.78
370.053	132.61
370.264	116.22
370.474	9.73
370.685	75.26
370.896	-20.99
371.107	3.58
371.317	50.69
371.528	50.69
371.739	75.26
371.95	19.97
372.16	99.84
372.371	-33.28
372.582	-37.38
372.792	65.02
373.003	40.45
373.214	50.69
373.424	58.88
373.635	58.88
373.846	69.12
374.056	19.97
374.267	138.75
374.477	26.11
374.688	56.83
374.898	77.31
375.109	34.3
375.319	52.74
375.53	101.89
375.74	120.32
375.951	32.26
376.161	101.89
376.372	153.09
376.582	9.73
376.793	69.12
377.003	91.65
377.214	65.02
377.424	56.83
377.635	75.26
377.845	58.88
378.055	40.45
378.266	30.21
378.476	17.92
378.686	-20.99
378.897	81.41
379.107	52.74
379.317	85.5
379.528	11.78
379.738	120.32
379.948	38.4
380.158	105.98
380.369	65.02
380.579	34.3
380.789	83.45
380.999	32.26
381.21	19.97
381.42	175.61
381.63	50.69
381.84	89.6
382.05	108.03
382.261	112.13
382.471	22.02
382.681	-14.85
382.891	83.45
383.101	56.83
383.311	-25.09
383.521	-6.66
383.731	60.93
383.941	138.75
384.151	73.21
384.361	15.87
384.571	32.26
384.781	26.11
384.991	85.5
385.201	110.08
385.411	73.21
385.621	65.02
385.831	52.74
386.041	83.45
386.251	75.26
386.461	73.21
386.671	17.92
386.881	73.21
387.091	65.02
387.301	124.41
387.511	30.21
387.72	134.65
387.93	56.83
388.14	15.87
388.35	89.6
388.56	75.26
388.769	73.21
388.979	40.45
389.189	-0.51
389.399	50.69
389.609	89.6
389.818	65.02
390.028	114.17
390.238	130.56
390.447	40.45
390.657	15.87
390.867	40.45
391.076	114.17
391.286	36.35
391.496	17.92
391.705	116.22
391.915	75.26
392.125	15.87
392.334	46.59
392.544	110.08
392.753	52.74
392.963	-0.51
393.172	73.21
393.382	9.73
393.591	105.98
393.801	73.21
394.01	155.13
394.22	40.45
394.429	15.87
394.639	146.94
394.848	114.17
395.058	26.11
395.267	48.64
395.477	44.54
395.686	95.74
395.895	134.65
396.105	163.33
396.314	83.45
396.524	34.3
396.733	34.3
396.942	116.22
397.152	75.26
397.361	130.56
397.57	103.93
397.78	67.07
397.989	79.36
398.198	110.08
398.407	77.31
398.617	44.54
398.826	81.41
399.035	87.55
399.244	138.75
399.453	89.6
399.663	67.07
399.872	85.5
400.081	48.64
400.29	157.18
400.499	36.35
400.708	165.37
400.917	99.84
401.127	50.69
401.336	36.35
401.545	173.57
401.754	142.85
401.963	114.17
402.172	52.74
402.381	97.79
402.59	114.17
402.799	155.13
403.008	132.61
403.217	91.65
403.426	163.33
403.635	32.26
403.844	67.07
404.053	105.98
404.262	167.42
404.471	95.74
404.68	122.37
404.888	173.57
405.097	155.13
405.306	124.41
405.515	171.52
405.724	173.57
405.933	183.81
406.142	220.67
406.35	267.77
406.559	194.05
406.768	114.17
406.977	151.04
407.185	159.23
407.394	198.14
407.603	151.04
407.812	261.63
408.02	232.96
408.229	220.67
408.438	185.85
408.646	163.33
408.855	112.13
409.064	179.71
409.272	237.05
409.481	261.63
409.69	241.15
409.898	267.77
410.107	263.68
410.315	312.83
410.524	298.49
410.733	343.55
410.941	286.2
411.15	273.92
411.358	329.21
411.567	333.31
411.775	386.55
411.984	343.55
412.192	431.61
412.401	394.75
412.609	443.9
412.818	450.04
413.026	462.33
413.234	531.96
413.443	417.27
413.651	462.33
413.86	560.63
414.068	542.2
414.276	564.73
414.485	552.44
414.693	581.11
414.901	663.03
415.11	583.16
415.318	642.55
415.526	599.54
415.734	679.41
415.943	712.18
416.151	685.56
416.359	697.85
416.567	802.29
416.776	886.26
416.984	826.87
417.192	892.4
417.4	898.55
417.608	876.02
417.817	931.31
418.025	910.83
418.233	992.75
418.441	994.8
418.649	1080.82
418.857	1101.3
419.065	1082.86
419.273	1146.35
419.481	1220.08
419.689	1265.13
419.897	1412.59
420.105	1279.47
420.313	1431.02
420.521	1465.83
420.729	1408.49
420.937	1502.7
421.145	1543.66
421.353	1623.53
421.561	1654.25
421.769	1768.93
421.977	1768.93
422.185	1875.43
422.393	1850.85
422.601	2045.41
422.809	2067.94
423.017	1920.48
423.224	2115.04
423.432	2180.57
423.64	2088.42
423.848	2334.17
424.056	2278.88
424.263	2438.62
424.471	2469.34
424.679	2495.96
424.887	2620.89
425.094	2774.49
425.302	2727.38
425.51	2846.16
425.718	2928.08
425.925	2981.33
426.133	3132.88
426.341	3202.51
426.548	3425.74
426.756	3390.92
426.964	3468.75
427.171	3661.26
427.379	3827.14
427.586	3825.09
427.794	3853.77
428.001	4095.43
428.209	4228.54
428.417	4341.18
428.624	4490.68
428.832	4464.06
429.039	4400.57
429.247	4492.73
429.454	4838.84
429.662	5230
429.869	4861.37
430.076	5100.98
430.284	5098.93
430.491	5240.24
430.699	5494.19
430.906	5414.32
431.114	5602.73
431.321	5864.87
431.528	6036.9
431.736	6421.92
431.943	6690.2
432.15	6563.23
432.358	6514.08
432.565	6776.22
432.772	6948.25
432.979	7425.42
433.187	7327.12
433.394	7329.17
433.601	7892.36
433.808	7996.81
434.016	7957.89
434.223	8146.31
434.43	8742.27
434.637	8410.5
434.844	9045.37
435.052	9209.2
435.259	9071.99
435.466	9155.96
435.673	9041.27
435.88	9805.16
436.087	10184.04
436.294	10200.42
436.501	9969
436.708	10110.31
436.915	10589.53
437.122	11035.99
437.329	10880.35
437.537	11255.12
437.743	11552.08
437.95	11566.42
438.157	12006.73
438.364	12488
438.571	12309.83
438.778	12414.27
438.985	13524.27
439.192	13124.92
439.399	13522.23
439.606	13264.18
439.813	14081.32
440.02	14974.24
440.227	14585.12
440.433	14449.96
440.64	14853.41
440.847	14929.18
441.054	15338.77
441.261	16229.64
441.467	15850.77
441.674	16274.7
441.881	16868.61
442.088	16839.94
442.294	16723.2
442.501	17159.42
442.708	17423.61
442.914	18275.56
443.121	18885.86
443.328	18193.64
443.534	19645.65
443.741	19289.31
443.948	18967.77
444.154	20202.7
444.361	20255.95
444.568	20208.84
444.774	20274.38
444.981	20460.74
445.187	21331.13
445.394	22338.73
445.6	21619.89
445.807	23612.57
446.013	22897.83
446.22	23383.2
446.426	24382.6
446.633	24616.07
446.839	25255.04
447.046	24521.87
447.252	26195.06
447.459	25613.43
447.665	25578.62
447.871	26801.26
448.078	28159.06
448.284	26856.55
448.491	27696.22
448.697	28519.5
448.903	29312.06
449.11	29420.61
449.316	28879.94
449.522	29416.51
449.728	30057.53
449.935	30290.99
450.141	30590
450.347	31140.9
450.553	29783.1
450.76	30819.37
450.966	31427.62
451.172	31360.03
451.378	32140.31
451.584	31108.13
451.791	32263.19
451.997	32263.19
452.203	32560.14
452.409	32709.64
452.615	32805.9
452.821	31452.19
453.027	31005.73
453.233	32769.04
453.44	31530.01
453.646	32103.45
453.852	32263.19
454.058	32703.5
454.264	31749.15
454.47	32408.59
454.676	31214.63
454.882	32803.85
455.088	29408.32
455.294	30233.65
455.5	30610.48
455.705	31067.17
455.911	29676.6
456.117	29363.26
456.323	29318.21
456.529	27438.17
456.735	28789.83
456.941	28142.67
457.147	27409.5
457.352	26926.18
457.558	26623.08
457.764	26719.34
457.97	26268.78
458.176	25513.08
458.381	25638.01
458.587	24437.9
458.793	24312.97
458.999	23215.26
459.204	24562.83
459.41	24261.77
459.616	22480.04
459.821	22705.32
460.027	22465.71
460.233	22029.49
460.438	20970.69
460.644	21112
460.85	20411.59
461.055	19901.65
461.261	20128.97
461.466	18457.83
461.672	17943.79
461.878	19096.8
462.083	17726.71
462.289	17417.46
462.494	17554.68
462.7	16911.61
462.905	16420.1
463.111	16923.9
463.316	16944.38
463.522	16475.4
463.727	16868.61
463.932	16477.44
464.138	16268.55
464.343	16495.88
464.549	16010.51
464.754	16485.64
464.959	16254.22
465.165	16172.3
465.37	15559.95
465.575	15172.89
465.781	16014.6
465.986	15994.12
466.191	15279.38
466.397	15019.29
466.602	14277.93
466.807	14708
467.012	14834.97
467.218	14834.97
467.423	14652.7
467.628	14632.22
467.833	15658.26
