Data from USB4F104151__281__14-46-21-975.txt Node

Date: Thu Mar 13 14:46:21 EDT 2025
User: louis
Spectrometer: USB4F10415
Trigger mode: 4
Integration Time (sec): 2.000000E-2
Scans to average: 1
Electric dark correction enabled: true
Nonlinearity correction enabled: false
Boxcar width: 0
XAxis mode: Wavelengths
Number of Pixels in Spectrum: 3648
>>>>>Begin Spectral Data<<<<<
178.204	-122.88
178.424	-122.88
178.644	-122.88
178.864	-141.31
179.084	-124.93
179.304	6.14
179.524	-10.24
179.744	-51.2
179.964	49.15
180.184	49.15
180.404	-34.82
180.624	-32.77
180.844	8.19
181.064	6.14
181.283	20.48
181.503	28.67
181.723	-38.91
181.943	-22.53
182.163	96.25
182.383	-26.62
182.602	53.25
182.822	38.91
183.042	67.58
183.262	28.67
183.482	26.62
183.701	-16.38
183.921	12.29
184.141	-49.15
184.361	-32.77
184.58	-75.77
184.8	61.44
185.02	-81.92
185.239	24.58
185.459	-12.29
185.679	57.34
185.898	-4.1
186.118	61.44
186.338	-14.34
186.557	55.3
186.777	40.96
186.997	-20.48
187.216	-43.01
187.436	36.86
187.655	45.06
187.875	-10.24
188.095	45.06
188.314	94.21
188.534	51.2
188.753	22.53
188.973	4.1
189.192	-4.1
189.412	2.05
189.631	16.38
189.851	0
190.07	36.86
190.29	-10.24
190.509	-61.44
190.729	36.86
190.948	-28.67
191.168	159.74
191.387	79.87
191.607	10.24
191.826	-12.29
192.045	-61.44
192.265	-34.82
192.484	16.38
192.704	32.77
192.923	-77.82
193.142	30.72
193.362	-6.14
193.581	96.25
193.8	-45.06
194.02	-20.48
194.239	26.62
194.458	16.38
194.678	-8.19
194.897	10.24
195.116	40.96
195.335	118.78
195.555	30.72
195.774	6.14
195.993	30.72
196.212	-45.06
196.432	40.96
196.651	30.72
196.87	26.62
197.089	159.74
197.308	88.06
197.528	20.48
197.747	-32.77
197.966	0
198.185	34.82
198.404	6.14
198.623	32.77
198.842	49.15
199.062	28.67
199.281	20.48
199.5	20.48
199.719	12.29
199.938	57.34
200.157	106.49
200.376	45.06
200.595	40.96
200.814	55.3
201.033	38.91
201.252	32.77
201.471	16.38
201.69	45.06
201.909	57.34
202.128	57.34
202.347	69.63
202.566	-51.2
202.785	10.24
203.004	69.63
203.223	114.69
203.442	-61.44
203.661	-20.48
203.879	0
204.098	96.25
204.317	55.3
204.536	55.3
204.755	65.54
204.974	36.86
205.193	4.1
205.411	118.78
205.63	102.4
205.849	49.15
206.068	38.91
206.287	-26.62
206.505	28.67
206.724	-4.1
206.943	-28.67
207.162	0
207.381	36.86
207.599	14.34
207.818	-18.43
208.037	43.01
208.255	28.67
208.474	43.01
208.693	-4.1
208.911	14.34
209.13	47.1
209.349	20.48
209.567	2.05
209.786	69.63
210.005	14.34
210.223	63.49
210.442	-32.77
210.661	-28.67
210.879	40.96
211.098	24.58
211.316	12.29
211.535	6.14
211.753	20.48
211.972	57.34
212.191	24.58
212.409	83.97
212.628	104.45
212.846	28.67
213.065	6.14
213.283	4.1
213.502	65.54
213.72	61.44
213.938	16.38
214.157	40.96
214.375	73.73
214.594	45.06
214.812	-34.82
215.031	-61.44
215.249	4.1
215.467	4.1
215.686	-69.63
215.904	30.72
216.122	6.14
216.341	77.82
216.559	30.72
216.778	53.25
216.996	-16.38
217.214	4.1
217.432	-36.86
217.651	4.1
217.869	-20.48
218.087	55.3
218.306	73.73
218.524	12.29
218.742	8.19
218.96	-12.29
219.179	-14.34
219.397	69.63
219.615	49.15
219.833	73.73
220.051	38.91
220.27	6.14
220.488	40.96
220.706	45.06
220.924	38.91
221.142	32.77
221.36	43.01
221.578	-22.53
221.796	-65.53
222.015	-30.72
222.233	-22.53
222.451	71.68
222.669	28.67
222.887	118.78
223.105	-61.44
223.323	-69.63
223.541	-40.96
223.759	-20.48
223.977	-24.58
224.195	-4.1
224.413	40.96
224.631	10.24
224.849	53.25
225.067	77.82
225.285	28.67
225.503	-61.44
225.721	-26.62
225.939	94.21
226.157	20.48
226.375	55.3
226.592	20.48
226.81	12.29
227.028	36.86
227.246	38.91
227.464	-2.05
227.682	45.06
227.9	98.3
228.117	-4.1
228.335	36.86
228.553	129.02
228.771	53.25
228.989	20.48
229.206	-2.05
229.424	22.53
229.642	-28.67
229.86	-4.1
230.077	49.15
230.295	36.86
230.513	36.86
230.731	53.25
230.948	10.24
231.166	-20.48
231.384	12.29
231.601	-8.19
231.819	61.44
232.037	-49.15
232.254	-40.96
232.472	83.97
232.689	45.06
232.907	47.1
233.125	32.77
233.342	8.19
233.56	-61.44
233.777	16.38
233.995	32.77
234.213	4.1
234.43	0
234.648	-49.15
234.865	-34.82
235.083	94.21
235.3	-36.86
235.518	28.67
235.735	69.63
235.953	81.92
236.17	38.91
236.388	75.77
236.605	45.06
236.822	69.63
237.04	4.1
237.257	-73.73
237.475	-30.72
237.692	77.82
237.909	122.88
238.127	-4.1
238.344	6.14
238.562	40.96
238.779	20.48
238.996	30.72
239.214	-4.1
239.431	47.1
239.648	-94.21
239.865	61.44
240.083	77.82
240.3	20.48
240.517	65.54
240.735	53.25
240.952	88.06
241.169	30.72
241.386	75.77
241.603	-30.72
241.821	-14.34
242.038	34.82
242.255	-12.29
242.472	4.1
242.689	-26.62
242.907	14.34
243.124	51.2
243.341	79.87
243.558	8.19
243.775	49.15
243.992	-30.72
244.209	73.73
244.426	20.48
244.643	47.1
244.86	0
245.078	-4.1
245.295	63.49
245.512	12.29
245.729	24.58
245.946	-32.77
246.163	18.43
246.38	16.38
246.597	63.49
246.814	36.86
247.031	32.77
247.248	-4.1
247.464	-12.29
247.681	-45.06
247.898	38.91
248.115	38.91
248.332	0
248.549	49.15
248.766	22.53
248.983	12.29
249.2	26.62
249.417	-2.05
249.633	-32.77
249.85	-36.86
250.067	-30.72
250.284	34.82
250.501	-77.82
250.717	-32.77
250.934	8.19
251.151	-32.77
251.368	28.67
251.585	149.5
251.801	-40.96
252.018	61.44
252.235	112.64
252.451	-26.62
252.668	-10.24
252.885	-22.53
253.102	40.96
253.318	12.29
253.535	-28.67
253.752	2.05
253.968	63.49
254.185	-2.05
254.401	16.38
254.618	53.25
254.835	-40.96
255.051	77.82
255.268	28.67
255.484	69.63
255.701	18.43
255.917	55.3
256.134	-2.05
256.351	22.53
256.567	-28.67
256.784	12.29
257	-20.48
257.217	36.86
257.433	20.48
257.65	-4.1
257.866	-12.29
258.082	6.14
258.299	-28.67
258.515	83.97
258.732	-53.25
258.948	-18.43
259.165	-4.1
259.381	20.48
259.597	-4.1
259.814	32.77
260.03	-16.38
260.246	18.43
260.463	59.39
260.679	45.06
260.895	-45.06
261.112	28.67
261.328	-59.39
261.544	-45.06
261.761	-22.53
261.977	6.14
262.193	8.19
262.409	4.1
262.626	22.53
262.842	0
263.058	-45.06
263.274	77.82
263.49	22.53
263.707	63.49
263.923	49.15
264.139	32.77
264.355	-12.29
264.571	90.11
264.787	49.15
265.004	61.44
265.22	96.25
265.436	-10.24
265.652	-2.05
265.868	20.48
266.084	45.06
266.3	53.25
266.516	32.77
266.732	55.3
266.948	49.15
267.164	112.64
267.38	30.72
267.596	6.14
267.812	137.21
268.028	-16.38
268.244	14.34
268.46	81.92
268.676	-10.24
268.892	2.05
269.108	6.14
269.324	20.48
269.54	57.34
269.756	104.45
269.972	24.58
270.188	-34.82
270.403	20.48
270.619	55.3
270.835	20.48
271.051	77.82
271.267	-57.34
271.483	-45.06
271.698	14.34
271.914	65.54
272.13	-20.48
272.346	30.72
272.562	20.48
272.777	-2.05
272.993	-16.38
273.209	-20.48
273.425	73.73
273.64	-43.01
273.856	53.25
274.072	-2.05
274.287	69.63
274.503	-20.48
274.719	102.4
274.934	49.15
275.15	36.86
275.366	-4.1
275.581	59.39
275.797	61.44
276.012	-10.24
276.228	-12.29
276.444	14.34
276.659	-12.29
276.875	-36.86
277.09	32.77
277.306	79.87
277.521	86.01
277.737	-28.67
277.952	22.53
278.168	28.67
278.383	10.24
278.599	-26.62
278.814	75.77
279.03	12.29
279.245	22.53
279.461	61.44
279.676	51.2
279.892	12.29
280.107	10.24
280.322	16.38
280.538	83.97
280.753	6.14
280.969	81.92
281.184	16.38
281.399	28.67
281.615	-2.05
281.83	104.45
282.045	-40.96
282.26	-69.63
282.476	24.58
282.691	45.06
282.906	-16.38
283.122	45.06
283.337	49.15
283.552	92.16
283.767	28.67
283.983	-20.48
284.198	8.19
284.413	159.74
284.628	32.77
284.843	8.19
285.058	45.06
285.274	2.05
285.489	4.1
285.704	88.06
285.919	43.01
286.134	86.01
286.349	47.1
286.564	-18.43
286.779	34.82
286.995	30.72
287.21	-36.86
287.425	38.91
287.64	20.48
287.855	-12.29
288.07	28.67
288.285	-6.14
288.5	30.72
288.715	79.87
288.93	-63.49
289.145	26.62
289.36	55.3
289.575	-2.05
289.79	55.3
290.004	36.86
290.219	86.01
290.434	8.19
290.649	47.1
290.864	-38.91
291.079	-16.38
291.294	-2.05
291.509	28.67
291.724	36.86
291.938	63.49
292.153	143.36
292.368	36.86
292.583	45.06
292.798	53.25
293.012	14.34
293.227	-16.38
293.442	45.06
293.657	30.72
293.871	69.63
294.086	40.96
294.301	20.48
294.516	126.97
294.73	63.49
294.945	-24.58
295.16	53.25
295.374	16.38
295.589	110.59
295.804	-4.1
296.018	-18.43
296.233	131.07
296.447	36.86
296.662	45.06
296.877	53.25
297.091	94.21
297.306	49.15
297.52	20.48
297.735	61.44
297.949	-2.05
298.164	36.86
298.378	-30.72
298.593	-16.38
298.807	36.86
299.022	12.29
299.236	55.3
299.451	55.3
299.665	16.38
299.88	-28.67
300.094	6.14
300.309	38.91
300.523	47.1
300.737	20.48
300.952	30.72
301.166	-83.97
301.381	16.38
301.595	-36.86
301.809	67.58
302.024	12.29
302.238	-59.39
302.452	20.48
302.667	24.58
302.881	124.93
303.095	124.93
303.309	-43.01
303.524	32.77
303.738	45.06
303.952	-18.43
304.166	-51.2
304.381	-43.01
304.595	30.72
304.809	53.25
305.023	-45.06
305.237	-32.77
305.452	36.86
305.666	26.62
305.88	-53.25
306.094	47.1
306.308	53.25
306.522	-8.19
306.736	49.15
306.95	12.29
307.164	63.49
307.379	-34.82
307.593	69.63
307.807	14.34
308.021	-22.53
308.235	49.15
308.449	-34.82
308.663	57.34
308.877	86.01
309.091	14.34
309.305	110.59
309.519	-28.67
309.733	45.06
309.947	-4.1
310.161	63.49
310.374	6.14
310.588	81.92
310.802	32.77
311.016	20.48
311.23	47.1
311.444	4.1
311.658	40.96
311.872	40.96
312.085	28.67
312.299	57.34
312.513	114.69
312.727	57.34
312.941	-43.01
313.154	69.63
313.368	16.38
313.582	-36.86
313.796	-16.38
314.009	-47.1
314.223	-20.48
314.437	10.24
314.651	22.53
314.864	-4.1
315.078	-12.29
315.292	8.19
315.505	59.39
315.719	-2.05
315.933	65.54
316.146	-12.29
316.36	86.01
316.573	67.58
316.787	45.06
317.001	-16.38
317.214	36.86
317.428	-2.05
317.641	45.06
317.855	61.44
318.068	20.48
318.282	-53.25
318.495	30.72
318.709	67.58
318.922	22.53
319.136	110.59
319.349	22.53
319.563	16.38
319.776	73.73
319.99	-16.38
320.203	53.25
320.417	45.06
320.63	26.62
320.843	28.67
321.057	45.06
321.27	43.01
321.483	94.21
321.697	69.63
321.91	63.49
322.124	102.4
322.337	-12.29
322.55	0
322.763	-10.24
322.977	133.12
323.19	-43.01
323.403	94.21
323.617	-2.05
323.83	24.58
324.043	61.44
324.256	22.53
324.469	-22.53
324.683	61.44
324.896	-61.44
325.109	110.59
325.322	-4.1
325.535	28.67
325.748	32.77
325.962	63.49
326.175	90.11
326.388	36.86
326.601	-10.24
326.814	12.29
327.027	32.77
327.24	71.68
327.453	-24.58
327.666	81.92
327.879	20.48
328.092	77.82
328.305	-34.82
328.518	43.01
328.731	-36.86
328.944	20.48
329.157	90.11
329.37	10.24
329.583	36.86
329.796	106.49
330.009	-26.62
330.222	77.82
330.435	-10.24
330.648	4.1
330.861	16.38
331.073	45.06
331.286	22.53
331.499	38.91
331.712	57.34
331.925	16.38
332.138	22.53
332.35	98.3
332.563	-2.05
332.776	8.19
332.989	-26.62
333.202	4.1
333.414	30.72
333.627	22.53
333.84	38.91
334.053	-28.67
334.265	20.48
334.478	6.14
334.691	32.77
334.903	22.53
335.116	49.15
335.329	20.48
335.541	12.29
335.754	34.82
335.966	20.48
336.179	20.48
336.392	-22.53
336.604	45.06
336.817	45.06
337.029	-14.34
337.242	-2.05
337.454	53.25
337.667	-12.29
337.88	61.44
338.092	104.45
338.305	96.25
338.517	16.38
338.729	77.82
338.942	61.44
339.154	-18.43
339.367	10.24
339.579	28.67
339.792	-4.1
340.004	61.44
340.217	4.1
340.429	49.15
340.641	36.86
340.854	53.25
341.066	-24.58
341.278	63.49
341.491	102.4
341.703	-22.53
341.915	4.1
342.128	55.3
342.34	-28.67
342.552	4.1
342.764	2.05
342.977	22.53
343.189	69.63
343.401	77.82
343.613	-4.1
343.826	79.87
344.038	63.49
344.25	28.67
344.462	-12.29
344.674	24.58
344.886	63.49
345.099	104.45
345.311	30.72
345.523	47.1
345.735	-18.43
345.947	86.01
346.159	51.2
346.371	-8.19
346.583	6.14
346.795	104.45
347.007	45.06
347.219	32.77
347.431	104.45
347.643	63.49
347.855	32.77
348.067	98.3
348.279	-22.53
348.491	63.49
348.703	43.01
348.915	28.67
349.127	14.34
349.339	104.45
349.551	22.53
349.763	32.77
349.975	28.67
350.187	2.05
350.399	8.19
350.61	-4.1
350.822	100.35
351.034	12.29
351.246	45.06
351.458	20.48
351.669	86.01
351.881	28.67
352.093	69.63
352.305	71.68
352.517	38.91
352.728	77.82
352.94	12.29
353.152	61.44
353.363	-28.67
353.575	88.06
353.787	10.24
353.999	18.43
354.21	69.63
354.422	-24.58
354.633	61.44
354.845	83.97
355.057	63.49
355.268	69.63
355.48	-20.48
355.692	38.91
355.903	-20.48
356.115	61.44
356.326	-24.58
356.538	43.01
356.749	4.1
356.961	20.48
357.172	30.72
357.384	32.77
357.595	20.48
357.807	20.48
358.018	-8.19
358.23	43.01
358.441	69.63
358.653	45.06
358.864	20.48
359.075	28.67
359.287	0
359.498	22.53
359.709	59.39
359.921	16.38
360.132	94.21
360.344	65.54
360.555	-4.1
360.766	-8.19
360.977	94.21
361.189	116.73
361.4	36.86
361.611	34.82
361.823	67.58
362.034	32.77
362.245	20.48
362.456	-10.24
362.667	67.58
362.879	51.2
363.09	81.92
363.301	57.34
363.512	55.3
363.723	8.19
363.935	106.49
364.146	53.25
364.357	77.82
364.568	16.38
364.779	-43.01
364.99	79.87
365.201	-20.48
365.412	102.4
365.623	14.34
365.834	45.06
366.045	-28.67
366.256	45.06
366.467	-12.29
366.678	12.29
366.889	-10.24
367.1	20.48
367.311	22.53
367.522	6.14
367.733	45.06
367.944	16.38
368.155	24.58
368.366	0
368.577	61.44
368.788	151.55
368.999	-71.68
369.209	65.54
369.42	98.3
369.631	47.1
369.842	53.25
370.053	-12.29
370.264	61.44
370.474	2.05
370.685	45.06
370.896	69.63
371.107	69.63
371.317	-34.82
371.528	-2.05
371.739	4.1
371.95	71.68
372.16	102.4
372.371	-8.19
372.582	12.29
372.792	47.1
373.003	4.1
373.214	90.11
373.424	88.06
373.635	-18.43
373.846	120.83
374.056	40.96
374.267	57.34
374.477	102.4
374.688	-4.1
374.898	77.82
375.109	10.24
375.319	61.44
375.53	63.49
375.74	43.01
375.951	28.67
376.161	45.06
376.372	88.06
376.582	57.34
376.793	28.67
377.003	12.29
377.214	47.1
377.424	4.1
377.635	34.82
377.845	-14.34
378.055	77.82
378.266	14.34
378.476	40.96
378.686	14.34
378.897	71.68
379.107	149.5
379.317	65.54
379.528	61.44
379.738	38.91
379.948	34.82
380.158	61.44
380.369	20.48
380.579	57.34
380.789	36.86
380.999	161.79
381.21	88.06
381.42	16.38
381.63	-12.29
381.84	34.82
382.05	110.59
382.261	69.63
382.471	135.17
382.681	-16.38
382.891	-6.14
383.101	26.62
383.311	6.14
383.521	-14.34
383.731	145.41
383.941	59.39
384.151	16.38
384.361	10.24
384.571	96.25
384.781	-2.05
384.991	96.25
385.201	79.87
385.411	61.44
385.621	55.3
385.831	-10.24
386.041	102.4
386.251	45.06
386.461	159.74
386.671	67.58
386.881	96.25
387.091	57.34
387.301	61.44
387.511	36.86
387.72	22.53
387.93	120.83
388.14	36.86
388.35	79.87
388.56	61.44
388.769	98.3
388.979	47.1
389.189	-34.82
389.399	79.87
389.609	86.01
389.818	96.25
390.028	65.54
390.238	-20.48
390.447	47.1
390.657	69.63
390.867	-10.24
391.076	55.3
391.286	79.87
391.496	100.35
391.705	16.38
391.915	65.54
392.125	65.54
392.334	86.01
392.544	112.64
392.753	8.19
392.963	-18.43
393.172	73.73
393.382	6.14
393.591	153.6
393.801	63.49
394.01	67.58
394.22	126.97
394.429	36.86
394.639	38.91
394.848	73.73
395.058	38.91
395.267	86.01
395.477	96.25
395.686	20.48
395.895	81.92
396.105	75.77
396.314	112.64
396.524	77.82
396.733	40.96
396.942	51.2
397.152	118.78
397.361	169.98
397.57	102.4
397.78	69.63
397.989	34.82
398.198	126.97
398.407	49.15
398.617	108.54
398.826	86.01
399.035	116.73
399.244	126.97
399.453	63.49
399.663	69.63
399.872	65.54
400.081	69.63
400.29	147.45
400.499	45.06
400.708	153.6
400.917	63.49
401.127	-18.43
401.336	86.01
401.545	55.3
401.754	180.22
401.963	145.41
402.172	139.26
402.381	45.06
402.59	79.87
402.799	96.25
403.008	184.32
403.217	129.02
403.426	88.06
403.635	61.44
403.844	102.4
404.053	155.65
404.262	104.45
404.471	198.65
404.68	151.55
404.888	63.49
405.097	126.97
405.306	151.55
405.515	192.51
405.724	169.98
405.933	194.56
406.142	96.25
406.35	120.83
406.559	126.97
406.768	69.63
406.977	245.76
407.185	178.17
407.394	176.13
407.603	143.36
407.812	194.56
408.02	176.13
408.229	186.37
408.438	180.22
408.646	176.13
408.855	225.28
409.064	243.71
409.272	172.03
409.481	253.95
409.69	172.03
409.898	241.66
410.107	274.43
410.315	339.96
410.524	243.71
410.733	270.33
410.941	307.2
411.15	253.95
411.358	333.82
411.567	421.88
411.775	311.29
411.984	428.03
412.192	376.83
412.401	399.35
412.609	397.31
412.818	405.5
413.026	442.36
413.234	446.46
413.443	452.6
413.651	561.14
413.86	528.38
414.068	524.28
414.276	499.7
414.485	489.46
414.693	544.76
414.901	587.77
415.11	550.9
415.318	595.96
415.526	700.41
415.734	602.1
415.943	577.53
416.151	669.69
416.359	626.68
416.567	727.03
416.776	774.13
416.984	733.17
417.192	829.43
417.4	753.65
417.608	833.52
417.817	905.2
418.025	892.91
418.233	968.69
418.441	964.59
418.649	1054.7
418.857	1011.7
419.065	1138.67
419.273	1118.19
419.481	1093.62
419.689	1183.73
419.897	1308.65
420.105	1290.22
420.313	1363.95
420.521	1396.71
420.729	1431.53
420.937	1351.66
421.145	1445.87
421.353	1640.42
421.561	1611.75
421.769	1595.37
421.977	1724.39
422.185	1679.33
422.393	1791.97
422.601	2002.91
422.809	1857.51
423.017	1916.9
423.224	2080.74
423.432	2142.18
423.64	2095.07
423.848	2349.02
424.056	2242.53
424.263	2402.27
424.471	2385.88
424.679	2463.71
424.887	2490.33
425.094	2727.89
425.302	2744.28
425.51	2740.18
425.718	2830.29
425.925	2932.69
426.133	3002.32
426.341	3168.21
426.548	3243.98
426.756	3166.16
426.964	3422.16
427.171	3618.76
427.379	3618.76
427.586	3694.54
427.794	3764.17
428.001	4009.92
428.209	4097.99
428.417	4075.46
428.624	4345.79
428.832	4493.24
429.039	4313.02
429.247	4374.46
429.454	4820.92
429.662	5207.98
429.869	4693.94
430.076	5134.26
430.284	4927.41
430.491	5279.66
430.699	5566.38
430.906	5404.59
431.114	5363.63
431.321	5691.31
431.528	5601.19
431.736	6250.4
431.943	6383.52
432.15	6381.47
432.358	6401.95
432.565	6586.27
432.772	6690.71
432.979	6901.65
433.187	7110.55
433.394	7262.1
433.601	7632.78
433.808	7745.42
434.016	7798.66
434.223	7911.3
434.43	8146.82
434.637	8449.92
434.844	8851.32
435.052	8902.52
435.259	8828.79
435.466	9076.6
435.673	8830.84
435.88	9469.81
436.087	9979.75
436.294	9967.46
436.501	9860.97
436.708	10045.29
436.915	10264.42
437.122	10880.86
437.329	10573.66
437.537	11089.75
437.743	11497.3
437.95	11124.57
438.157	11818.83
438.364	11992.9
438.571	11990.86
438.778	12263.24
438.985	12986.17
439.192	12685.12
439.399	13434.67
439.606	12830.52
439.813	13684.53
440.02	14325.54
440.227	14364.45
440.433	14167.85
440.64	14614.3
440.847	14313.25
441.054	14845.73
441.261	15740.69
441.467	15466.26
441.674	15947.53
441.881	16572.16
442.088	16459.52
442.294	16267.02
442.501	16733.95
442.708	17006.33
442.914	17673.97
443.121	18616.04
443.328	18263.79
443.534	19275.48
443.741	18734.82
443.948	18466.53
444.154	19967.7
444.361	19910.35
444.568	19949.26
444.774	19687.12
444.981	20090.57
445.187	20729.54
445.394	21612.21
445.6	21096.13
445.807	23539.35
446.013	22372.01
446.22	22804.13
446.426	23727.77
446.633	24020.63
446.839	25153.15
447.046	23735.96
447.252	24964.74
447.459	24907.4
447.665	25257.6
447.871	26173.04
448.078	27336.29
448.284	26050.16
448.491	26889.83
448.697	27633.24
448.903	28417.61
449.11	28673.61
449.316	28139.09
449.522	28743.24
449.728	29511.23
449.935	29650.49
450.141	29748.79
450.347	30242.35
450.553	29185.6
450.76	29789.75
450.966	30873.13
451.172	30604.84
451.378	31331.87
451.584	30760.49
451.791	31467.04
451.997	31381.03
452.203	31950.36
452.409	32067.09
452.615	31489.57
452.821	30737.96
453.027	30139.96
453.233	32204.31
453.44	30785.07
453.646	31264.29
453.852	31188.52
454.058	31741.47
454.264	30869.03
454.47	31749.66
454.676	30881.32
454.882	31823.39
455.088	29222.47
455.294	29711.93
455.5	30209.59
455.705	30588.46
455.911	29275.71
456.117	28608.08
456.323	28085.84
456.529	26857.06
456.735	28198.48
456.941	27405.92
457.147	26912.36
457.352	26130.03
457.558	25966.2
457.764	26101.36
457.97	25667.19
458.176	24798.85
458.381	25198.21
458.587	23836.31
458.793	23932.56
458.999	22814.37
459.204	23930.51
459.41	23369.37
459.616	22156.97
459.821	21866.16
460.027	22245.04
460.233	21634.74
460.438	20539.08
460.644	21006.02
460.85	19803.86
461.055	19271.39
461.261	19705.56
461.466	18208.49
461.672	17604.34
461.878	18773.73
462.083	17428.21
462.289	17417.97
462.494	16936.7
462.7	16600.83
462.905	15744.78
463.111	16576.26
463.316	16699.14
463.522	16158.47
463.727	16205.58
463.932	16346.89
464.138	15828.75
464.343	16148.23
464.549	15576.85
464.754	16127.75
464.959	15791.89
465.165	15920.91
465.37	15146.78
465.575	14929.69
465.781	15646.48
465.986	15519.51
466.191	14991.13
466.397	14522.15
466.602	13983.53
466.807	14546.72
467.012	14526.24
467.218	14298.92
467.423	14251.81
