Data from USB4F104151__15__14-42-38-208.txt Node

Date: Thu Mar 13 14:42:38 EDT 2025
User: louis
Spectrometer: USB4F10415
Trigger mode: 4
Integration Time (sec): 2.000000E-2
Scans to average: 1
Electric dark correction enabled: true
Nonlinearity correction enabled: false
Boxcar width: 0
XAxis mode: Wavelengths
Number of Pixels in Spectrum: 3648
>>>>>Begin Spectral Data<<<<<
178.204	-169.3
178.424	-169.3
178.644	-169.3
178.864	-62.8
179.084	-105.81
179.304	-1.37
179.524	-42.32
179.744	10.92
179.964	60.07
180.184	-42.32
180.404	-71
180.624	90.79
180.844	-17.75
181.064	35.5
181.283	-34.13
181.503	-44.37
181.723	55.98
181.943	-93.52
182.163	0.68
182.383	45.74
182.602	72.36
182.822	80.55
183.042	154.28
183.262	43.69
183.482	41.64
183.701	41.64
183.921	6.83
184.141	-27.99
184.361	62.12
184.58	-1.37
184.8	70.31
185.02	-13.65
185.239	0.68
185.459	80.55
185.679	-17.75
185.898	66.22
186.118	19.11
186.338	2.73
186.557	39.59
186.777	-68.95
186.997	35.5
187.216	25.26
187.436	101.03
187.655	19.11
187.875	4.78
188.095	47.79
188.314	-9.56
188.534	53.93
188.753	31.4
188.973	82.6
189.192	49.83
189.412	125.61
189.631	55.98
189.851	70.31
190.07	96.94
190.29	43.69
190.509	15.02
190.729	72.36
190.948	82.6
191.168	129.7
191.387	55.98
191.607	-38.23
191.826	21.16
192.045	-11.61
192.265	15.02
192.484	-38.23
192.704	68.27
192.923	23.21
193.142	82.6
193.362	10.92
193.581	17.07
193.8	6.83
194.02	76.46
194.239	-34.13
194.458	43.69
194.678	29.35
194.897	29.35
195.116	-30.04
195.335	45.74
195.555	78.51
195.774	47.79
195.993	70.31
196.212	0.68
196.432	-15.7
196.651	25.26
196.87	62.12
197.089	88.75
197.308	80.55
197.528	10.92
197.747	23.21
197.966	76.46
198.185	82.6
198.404	47.79
198.623	101.03
198.842	49.83
199.062	51.88
199.281	68.27
199.5	51.88
199.719	49.83
199.938	31.4
200.157	125.61
200.376	12.97
200.595	51.88
200.814	-7.51
201.033	-13.65
201.252	43.69
201.471	-48.47
201.69	123.56
201.909	80.55
202.128	41.64
202.347	21.16
202.566	31.4
202.785	-50.52
203.004	-17.75
203.223	64.17
203.442	96.94
203.661	-25.94
203.879	10.92
204.098	60.07
204.317	-46.42
204.536	47.79
204.755	17.07
204.974	51.88
205.193	41.64
205.411	88.75
205.63	72.36
205.849	72.36
206.068	96.94
206.287	55.98
206.505	86.7
206.724	53.93
206.943	55.98
207.162	58.03
207.381	-7.51
207.599	51.88
207.818	-1.37
208.037	35.5
208.255	-17.75
208.474	-30.04
208.693	47.79
208.911	70.31
209.13	105.13
209.349	105.13
209.567	66.22
209.786	101.03
210.005	68.27
210.223	64.17
210.442	-9.56
210.661	64.17
210.879	49.83
211.098	45.74
211.316	64.17
211.535	74.41
211.753	82.6
211.972	15.02
212.191	43.69
212.409	41.64
212.628	88.75
212.846	-13.65
213.065	39.59
213.283	88.75
213.502	47.79
213.72	72.36
213.938	31.4
214.157	6.83
214.375	47.79
214.594	6.83
214.812	92.84
215.031	-42.32
215.249	74.41
215.467	39.59
215.686	64.17
215.904	37.55
216.122	25.26
216.341	123.56
216.559	-34.13
216.778	101.03
216.996	27.31
217.214	-7.51
217.432	-25.94
217.651	55.98
217.869	17.07
218.087	-1.37
218.306	66.22
218.524	72.36
218.742	39.59
218.96	76.46
219.179	-23.89
219.397	39.59
219.615	109.22
219.833	80.55
220.051	43.69
220.27	39.59
220.488	64.17
220.706	-5.46
220.924	-21.85
221.142	15.02
221.36	-5.46
221.578	47.79
221.796	76.46
222.015	6.83
222.233	-11.61
222.451	123.56
222.669	-9.56
222.887	98.99
223.105	19.11
223.323	17.07
223.541	55.98
223.759	82.6
223.977	-38.23
224.195	96.94
224.413	39.59
224.631	17.07
224.849	-7.51
225.067	62.12
225.285	-27.99
225.503	80.55
225.721	6.83
225.939	51.88
226.157	101.03
226.375	66.22
226.592	55.98
226.81	-9.56
227.028	45.74
227.246	64.17
227.464	10.92
227.682	90.79
227.9	33.45
228.117	51.88
228.335	-32.08
228.553	76.46
228.771	51.88
228.989	82.6
229.206	68.27
229.424	76.46
229.642	-58.71
229.86	-17.75
230.077	23.21
230.295	64.17
230.513	90.79
230.731	76.46
230.948	64.17
231.166	-15.7
231.384	49.83
231.601	-40.28
231.819	31.4
232.037	21.16
232.254	23.21
232.472	6.83
232.689	4.78
232.907	23.21
233.125	47.79
233.342	35.5
233.56	-40.28
233.777	76.46
233.995	70.31
234.213	74.41
234.43	31.4
234.648	10.92
234.865	8.87
235.083	74.41
235.3	60.07
235.518	58.03
235.735	31.4
235.953	70.31
236.17	23.21
236.388	15.02
236.605	72.36
236.822	64.17
237.04	-50.52
237.257	58.03
237.475	-7.51
237.692	-42.32
237.909	39.59
238.127	41.64
238.344	-5.46
238.562	55.98
238.779	27.31
238.996	-1.37
239.214	55.98
239.431	109.22
239.648	-32.08
239.865	90.79
240.083	55.98
240.3	72.36
240.517	43.69
240.735	-21.85
240.952	47.79
241.169	47.79
241.386	41.64
241.603	90.79
241.821	60.07
242.038	113.32
242.255	129.7
242.472	0.68
242.689	60.07
242.907	113.32
243.124	47.79
243.341	53.93
243.558	15.02
243.775	-7.51
243.992	39.59
244.209	25.26
244.426	90.79
244.643	33.45
244.86	43.69
245.078	90.79
245.295	60.07
245.512	6.83
245.729	-7.51
245.946	23.21
246.163	17.07
246.38	64.17
246.597	35.5
246.814	101.03
247.031	55.98
247.248	80.55
247.464	55.98
247.681	113.32
247.898	62.12
248.115	96.94
248.332	-30.04
248.549	64.17
248.766	80.55
248.983	80.55
249.2	-5.46
249.417	27.31
249.633	35.5
249.85	25.26
250.067	-15.7
250.284	113.32
250.501	21.16
250.717	131.75
250.934	10.92
251.151	-11.61
251.368	-93.52
251.585	82.6
251.801	88.75
252.018	31.4
252.235	35.5
252.451	39.59
252.668	105.13
252.885	88.75
253.102	72.36
253.318	39.59
253.535	31.4
253.752	-50.52
253.968	19.11
254.185	2.73
254.401	31.4
254.618	49.83
254.835	49.83
255.051	101.03
255.268	49.83
255.484	68.27
255.701	49.83
255.917	88.75
256.134	-46.42
256.351	68.27
256.567	15.02
256.784	23.21
257	-42.32
257.217	2.73
257.433	31.4
257.65	33.45
257.866	15.02
258.082	23.21
258.299	68.27
258.515	41.64
258.732	17.07
258.948	-5.46
259.165	23.21
259.381	43.69
259.597	-5.46
259.814	33.45
260.03	-9.56
260.246	49.83
260.463	135.85
260.679	60.07
260.895	39.59
261.112	15.02
261.328	12.97
261.544	105.13
261.761	101.03
261.977	27.31
262.193	8.87
262.409	33.45
262.626	68.27
262.842	58.03
263.058	-13.65
263.274	-1.37
263.49	88.75
263.707	66.22
263.923	35.5
264.139	-17.75
264.355	-1.37
264.571	121.51
264.787	58.03
265.004	39.59
265.22	39.59
265.436	27.31
265.652	98.99
265.868	47.79
266.084	-17.75
266.3	39.59
266.516	8.87
266.732	10.92
266.948	6.83
267.164	88.75
267.38	47.79
267.596	2.73
267.812	55.98
268.028	117.42
268.244	90.79
268.46	101.03
268.676	15.02
268.892	49.83
269.108	80.55
269.324	19.11
269.54	-9.56
269.756	39.59
269.972	4.78
270.188	60.07
270.403	-13.65
270.619	-5.46
270.835	19.11
271.051	64.17
271.267	19.11
271.483	47.79
271.698	62.12
271.914	88.75
272.13	15.02
272.346	2.73
272.562	41.64
272.777	51.88
272.993	33.45
273.209	111.27
273.425	43.69
273.64	4.78
273.856	72.36
274.072	-1.37
274.287	80.55
274.503	25.26
274.719	64.17
274.934	15.02
275.15	-27.99
275.366	25.26
275.581	-1.37
275.797	-7.51
276.012	6.83
276.228	39.59
276.444	35.5
276.659	55.98
276.875	4.78
277.09	55.98
277.306	129.7
277.521	55.98
277.737	-50.52
277.952	27.31
278.168	37.55
278.383	98.99
278.599	12.97
278.814	72.36
279.03	-62.8
279.245	55.98
279.461	-9.56
279.676	101.03
279.892	15.02
280.107	43.69
280.322	64.17
280.538	47.79
280.753	25.26
280.969	-5.46
281.184	-1.37
281.399	15.02
281.615	55.98
281.83	47.79
282.045	-50.52
282.26	80.55
282.476	49.83
282.691	23.21
282.906	70.31
283.122	17.07
283.337	55.98
283.552	92.84
283.767	4.78
283.983	96.94
284.198	-40.28
284.413	39.59
284.628	23.21
284.843	8.87
285.058	21.16
285.274	23.21
285.489	0.68
285.704	-5.46
285.919	23.21
286.134	43.69
286.349	47.79
286.564	-1.37
286.779	98.99
286.995	-1.37
287.21	6.83
287.425	-40.28
287.64	74.41
287.855	47.79
288.07	-15.7
288.285	19.11
288.5	74.41
288.715	39.59
288.93	72.36
289.145	23.21
289.36	39.59
289.575	72.36
289.79	82.6
290.004	51.88
290.219	-7.51
290.434	101.03
290.649	-1.37
290.864	58.03
291.079	55.98
291.294	47.79
291.509	-17.75
291.724	-9.56
291.938	-46.42
292.153	98.99
292.368	35.5
292.583	-7.51
292.798	49.83
293.012	49.83
293.227	47.79
293.442	21.16
293.657	49.83
293.871	88.75
294.086	31.4
294.301	107.18
294.516	78.51
294.73	12.97
294.945	-58.71
295.16	0.68
295.374	90.79
295.589	6.83
295.804	47.79
296.018	-34.13
296.233	39.59
296.447	21.16
296.662	6.83
296.877	98.99
297.091	113.32
297.306	-30.04
297.52	-21.85
297.735	127.66
297.949	60.07
298.164	39.59
298.378	58.03
298.593	41.64
298.807	31.4
299.022	96.94
299.236	49.83
299.451	27.31
299.665	39.59
299.88	64.17
300.094	39.59
300.309	70.31
300.523	51.88
300.737	47.79
300.952	64.17
301.166	49.83
301.381	55.98
301.595	31.4
301.809	17.07
302.024	94.89
302.238	-56.66
302.452	115.37
302.667	-56.66
302.881	80.55
303.095	96.94
303.309	-7.51
303.524	68.27
303.738	92.84
303.952	25.26
304.166	88.75
304.381	58.03
304.595	105.13
304.809	27.31
305.023	80.55
305.237	23.21
305.452	31.4
305.666	-42.32
305.88	60.07
306.094	129.7
306.308	88.75
306.522	55.98
306.736	133.8
306.95	101.03
307.164	101.03
307.379	25.26
307.593	80.55
307.807	76.46
308.021	33.45
308.235	25.26
308.449	-7.51
308.663	84.65
308.877	158.38
309.091	101.03
309.305	35.5
309.519	2.73
309.733	31.4
309.947	17.07
310.161	0.68
310.374	78.51
310.588	164.52
310.802	6.83
311.016	-9.56
311.23	76.46
311.444	19.11
311.658	47.79
311.872	144.04
312.085	33.45
312.299	23.21
312.513	115.37
312.727	41.64
312.941	31.4
313.154	137.9
313.368	31.4
313.582	90.79
313.796	25.26
314.009	-1.37
314.223	101.03
314.437	68.27
314.651	51.88
314.864	23.21
315.078	35.5
315.292	6.83
315.505	41.64
315.719	6.83
315.933	72.36
316.146	58.03
316.36	19.11
316.573	113.32
316.787	47.79
317.001	37.55
317.214	31.4
317.428	115.37
317.641	53.93
317.855	19.11
318.068	43.69
318.282	12.97
318.495	12.97
318.709	64.17
318.922	31.4
319.136	76.46
319.349	39.59
319.563	35.5
319.776	117.42
319.99	-32.08
320.203	129.7
320.417	19.11
320.63	117.42
320.843	51.88
321.057	17.07
321.27	10.92
321.483	-34.13
321.697	68.27
321.91	60.07
322.124	25.26
322.337	31.4
322.55	58.03
322.763	58.03
322.977	47.79
323.19	101.03
323.403	103.08
323.617	80.55
323.83	127.66
324.043	66.22
324.256	58.03
324.469	23.21
324.683	152.23
324.896	51.88
325.109	60.07
325.322	23.21
325.535	33.45
325.748	90.79
325.962	51.88
326.175	23.21
326.388	43.69
326.601	19.11
326.814	15.02
327.027	19.11
327.24	137.9
327.453	31.4
327.666	96.94
327.879	72.36
328.092	113.32
328.305	17.07
328.518	23.21
328.731	43.69
328.944	64.17
329.157	6.83
329.37	-62.8
329.583	12.97
329.796	64.17
330.009	72.36
330.222	25.26
330.435	51.88
330.648	47.79
330.861	64.17
331.073	31.4
331.286	49.83
331.499	80.55
331.712	0.68
331.925	74.41
332.138	66.22
332.35	58.03
332.563	23.21
332.776	-1.37
332.989	107.18
333.202	82.6
333.414	121.51
333.627	58.03
333.84	43.69
334.053	105.13
334.265	35.5
334.478	-23.89
334.691	96.94
334.903	23.21
335.116	-50.52
335.329	39.59
335.541	39.59
335.754	107.18
335.966	2.73
336.179	31.4
336.392	41.64
336.604	33.45
336.817	137.9
337.029	58.03
337.242	6.83
337.454	62.12
337.667	-17.75
337.88	72.36
338.092	39.59
338.305	43.69
338.517	58.03
338.729	60.07
338.942	80.55
339.154	-13.65
339.367	37.55
339.579	80.55
339.792	88.75
340.004	113.32
340.217	37.55
340.429	88.75
340.641	12.97
340.854	19.11
341.066	-42.32
341.278	76.46
341.491	-58.71
341.703	35.5
341.915	19.11
342.128	96.94
342.34	64.17
342.552	12.97
342.764	37.55
342.977	35.5
343.189	82.6
343.401	98.99
343.613	23.21
343.826	-48.47
344.038	45.74
344.25	82.6
344.462	-13.65
344.674	96.94
344.886	55.98
345.099	92.84
345.311	129.7
345.523	58.03
345.735	-23.89
345.947	23.21
346.159	39.59
346.371	39.59
346.583	39.59
346.795	90.79
347.007	60.07
347.219	92.84
347.431	19.11
347.643	146.09
347.855	0.68
348.067	94.89
348.279	17.07
348.491	76.46
348.703	-1.37
348.915	82.6
349.127	8.87
349.339	-1.37
349.551	72.36
349.763	15.02
349.975	72.36
350.187	92.84
350.399	94.89
350.61	72.36
350.822	23.21
351.034	72.36
351.246	55.98
351.458	45.74
351.669	55.98
351.881	76.46
352.093	60.07
352.305	90.79
352.517	80.55
352.728	146.09
352.94	55.98
353.152	58.03
353.363	6.83
353.575	35.5
353.787	68.27
353.999	98.99
354.21	94.89
354.422	27.31
354.633	6.83
354.845	84.65
355.057	6.83
355.268	101.03
355.48	113.32
355.692	-1.37
355.903	-19.8
356.115	-42.32
356.326	6.83
356.538	33.45
356.749	15.02
356.961	121.51
357.172	131.75
357.384	109.22
357.595	178.86
357.807	109.22
358.018	127.66
358.23	123.56
358.441	129.7
358.653	105.13
358.864	66.22
359.075	15.02
359.287	43.69
359.498	6.83
359.709	39.59
359.921	60.07
360.132	55.98
360.344	129.7
360.555	19.11
360.766	55.98
360.977	47.79
361.189	60.07
361.4	10.92
361.611	78.51
361.823	29.35
362.034	88.75
362.245	80.55
362.456	-17.75
362.667	39.59
362.879	-5.46
363.09	-54.61
363.301	47.79
363.512	64.17
363.723	45.74
363.935	6.83
364.146	96.94
364.357	-1.37
364.568	72.36
364.779	33.45
364.99	117.42
365.201	49.83
365.412	113.32
365.623	45.74
365.834	6.83
366.045	86.7
366.256	76.46
366.467	-32.08
366.678	23.21
366.889	64.17
367.1	-1.37
367.311	27.31
367.522	-21.85
367.733	51.88
367.944	31.4
368.155	92.84
368.366	92.84
368.577	86.7
368.788	84.65
368.999	31.4
369.209	31.4
369.42	125.61
369.631	121.51
369.842	113.32
370.053	64.17
370.264	60.07
370.474	15.02
370.685	47.79
370.896	80.55
371.107	88.75
371.317	105.13
371.528	47.79
371.739	74.41
371.95	15.02
372.16	113.32
372.371	35.5
372.582	55.98
372.792	-15.7
373.003	76.46
373.214	41.64
373.424	199.34
373.635	8.87
373.846	60.07
374.056	8.87
374.267	74.41
374.477	74.41
374.688	47.79
374.898	33.45
375.109	-13.65
375.319	51.88
375.53	101.03
375.74	-1.37
375.951	96.94
376.161	90.79
376.372	47.79
376.582	64.17
376.793	66.22
377.003	58.03
377.214	-13.65
377.424	72.36
377.635	27.31
377.845	-30.04
378.055	117.42
378.266	15.02
378.476	-7.51
378.686	113.32
378.897	146.09
379.107	43.69
379.317	64.17
379.528	-62.8
379.738	76.46
379.948	43.69
380.158	96.94
380.369	66.22
380.579	105.13
380.789	49.83
380.999	94.89
381.21	72.36
381.42	109.22
381.63	45.74
381.84	-17.75
382.05	33.45
382.261	156.33
382.471	88.75
382.681	80.55
382.891	41.64
383.101	31.4
383.311	107.18
383.521	58.03
383.731	90.79
383.941	119.46
384.151	41.64
384.361	96.94
384.571	43.69
384.781	133.8
384.991	94.89
385.201	129.7
385.411	27.31
385.621	66.22
385.831	64.17
386.041	90.79
386.251	101.03
386.461	37.55
386.671	31.4
386.881	119.46
387.091	66.22
387.301	141.99
387.511	68.27
387.72	31.4
387.93	51.88
388.14	96.94
388.35	164.52
388.56	55.98
388.769	113.32
388.979	88.75
389.189	107.18
389.399	74.41
389.609	90.79
389.818	66.22
390.028	41.64
390.238	47.79
390.447	72.36
390.657	76.46
390.867	64.17
391.076	31.4
391.286	137.9
391.496	15.02
391.705	133.8
391.915	80.55
392.125	107.18
392.334	43.69
392.544	49.83
392.753	64.17
392.963	53.93
393.172	72.36
393.382	21.16
393.591	115.37
393.801	88.75
394.01	115.37
394.22	90.79
394.429	72.36
394.639	105.13
394.848	88.75
395.058	17.07
395.267	33.45
395.477	121.51
395.686	64.17
395.895	105.13
396.105	121.51
396.314	129.7
396.524	33.45
396.733	10.92
396.942	113.32
397.152	31.4
397.361	113.32
397.57	6.83
397.78	49.83
397.989	101.03
398.198	64.17
398.407	55.98
398.617	121.51
398.826	101.03
399.035	109.22
399.244	133.8
399.453	96.94
399.663	64.17
399.872	146.09
400.081	111.27
400.29	223.91
400.499	88.75
400.708	139.94
400.917	43.69
401.127	127.66
401.336	101.03
401.545	279.21
401.754	146.09
401.963	150.18
402.172	78.51
402.381	88.75
402.59	137.9
402.799	117.42
403.008	96.94
403.217	80.55
403.426	154.28
403.635	10.92
403.844	148.14
404.053	131.75
404.262	123.56
404.471	131.75
404.68	187.05
404.888	207.53
405.097	123.56
405.306	127.66
405.515	193.19
405.724	105.13
405.933	162.47
406.142	129.7
406.35	66.22
406.559	121.51
406.768	160.42
406.977	225.96
407.185	119.46
407.394	172.71
407.603	76.46
407.812	228.01
408.02	141.99
408.229	150.18
408.438	156.33
408.646	260.77
408.855	236.2
409.064	174.76
409.272	228.01
409.481	178.86
409.69	228.01
409.898	223.91
410.107	250.53
410.315	344.74
410.524	203.43
410.733	320.17
410.941	240.3
411.15	301.73
411.358	234.15
411.567	309.93
411.775	295.59
411.984	348.84
412.192	309.93
412.401	297.64
412.609	430.76
412.818	377.51
413.026	498.34
413.234	385.7
413.443	395.94
413.651	441
413.86	504.48
414.068	506.53
414.276	461.48
414.485	422.56
414.693	537.25
414.901	551.59
415.11	510.63
415.318	539.3
415.526	604.83
415.734	641.7
415.943	635.55
416.151	633.5
416.359	617.12
416.567	670.37
416.776	658.08
416.984	772.77
417.192	748.19
417.4	719.52
417.608	850.59
417.817	752.29
418.025	860.83
418.233	916.12
418.441	871.07
418.649	932.51
418.857	961.18
419.065	1055.39
419.273	965.28
419.481	1141.4
419.689	1120.92
419.897	1172.12
420.105	1137.31
420.313	1243.8
420.521	1309.33
420.729	1211.03
420.937	1303.19
421.145	1352.34
421.353	1475.22
421.561	1499.8
421.769	1555.09
421.977	1587.86
422.185	1610.39
422.393	1604.24
422.601	1673.87
422.809	1825.42
423.017	1880.72
423.224	1915.53
423.432	1989.26
423.64	1974.92
423.848	2122.38
424.056	2015.88
424.263	2343.56
424.471	2235.02
424.679	2366.09
424.887	2382.47
425.094	2310.79
425.302	2515.59
425.51	2425.48
425.718	2595.46
425.925	2597.51
426.133	2853.5
426.341	3062.4
426.548	3166.84
426.756	3166.84
426.964	3195.51
427.171	3236.47
427.379	3236.47
427.586	3404.41
427.794	3457.65
428.001	3660.4
428.209	3908.21
428.417	3682.93
428.624	4104.81
428.832	4047.47
429.039	4037.23
429.247	3844.72
429.454	4442.73
429.662	4668
429.869	4313.7
430.076	4655.72
430.284	4655.72
430.491	4823.65
430.699	5085.79
430.906	5014.11
431.114	5163.61
431.321	5157.47
431.528	5315.16
431.736	5593.69
431.943	5808.72
432.15	5915.22
432.358	5945.94
432.565	5984.85
432.772	6296.14
432.979	6421.06
433.187	6666.82
433.394	6513.22
433.601	6978.11
433.808	7141.95
434.016	7086.65
434.223	7313.98
434.43	7725.62
434.637	7723.57
434.844	8231.47
435.052	8108.59
435.259	8188.46
435.466	8313.39
435.673	8223.28
435.88	8682.02
436.087	9132.58
436.294	9050.66
436.501	8815.14
436.708	9060.9
436.915	9552.41
437.122	9755.16
437.329	9787.93
437.537	10111.5
437.743	10486.28
437.95	10166.8
438.157	10854.92
438.364	11051.52
438.571	11198.98
438.778	11248.13
438.985	12282.35
439.192	11649.53
439.399	12050.93
439.606	11770.36
439.813	12591.59
440.02	13167.07
440.227	12941.8
440.433	12739.05
440.64	13230.56
440.847	13384.16
441.054	13603.29
441.261	14594.51
441.467	14260.69
441.674	14674.38
441.881	15264.19
442.088	15102.4
442.294	14957
442.501	15579.58
442.708	15641.02
442.914	16247.22
443.121	16970.15
443.328	16441.78
443.534	17627.55
443.741	17303.97
443.948	16914.86
444.154	18155.93
444.361	17969.56
444.568	18475.41
444.774	18192.79
444.981	18516.37
445.187	19091.85
445.394	19792.25
445.6	19585.41
445.807	21494.11
446.013	20498.8
446.22	20910.44
446.426	21909.85
446.633	21856.61
446.839	22946.12
447.046	21711.2
447.252	23030.09
447.459	23087.43
447.665	23009.61
447.871	24191.29
448.078	24930.61
448.284	23804.22
448.491	24557.88
448.697	25483.56
448.903	26188.06
449.11	26399
449.316	25604.39
449.522	26138.91
449.728	27025.68
449.935	27494.66
450.141	27455.75
450.347	27756.8
450.553	26818.83
450.76	27302.15
450.966	28309.75
451.172	27752.71
451.378	28541.18
451.584	28006.66
451.791	28692.72
451.997	28586.23
452.203	29323.5
452.409	29122.8
452.615	29284.59
452.821	28219.64
453.027	27785.47
453.233	29270.25
453.44	28406.01
453.646	29020.4
453.852	28371.19
454.058	28932.34
454.264	28197.12
454.47	28719.35
454.676	28109.05
454.882	28711.16
455.088	26556.69
455.294	27244.81
455.5	27441.42
455.705	27867.39
455.911	26339.61
456.117	26003.74
456.323	25743.65
456.529	24494.39
456.735	25547.04
456.941	25082.16
457.147	24574.26
457.352	23880
457.558	23705.92
457.764	23972.16
457.97	23349.57
458.176	22630.74
458.381	22696.27
458.587	21393.76
458.793	21449.06
458.999	20633.97
459.204	22022.49
459.41	21176.68
459.616	20015.48
459.821	20216.18
460.027	20001.15
460.233	19661.18
460.438	18622.86
460.644	18936.2
460.85	18246.04
461.055	17600.93
461.261	17766.81
461.466	16351.67
461.672	15796.67
461.878	17000.87
462.083	15827.39
462.289	15671.74
462.494	15438.27
462.7	14594.51
462.905	14412.24
463.111	14952.9
463.316	14811.59
463.522	14623.18
463.727	14686.67
463.932	14926.28
464.138	14653.9
464.343	14678.47
464.549	14240.21
464.754	14653.9
464.959	14498.25
465.165	14326.22
465.37	13937.11
465.575	13539.8
465.781	14105.04
465.986	14103
466.191	13631.96
466.397	13558.24
466.602	12575.21
466.807	13400.54
467.012	13267.42
467.218	13195.75
467.423	13011.43
467.628	12980.71
