Data from USB4F104151__7__14-42-31-230.txt Node

Date: Thu Mar 13 14:42:31 EDT 2025
User: louis
Spectrometer: USB4F10415
Trigger mode: 4
Integration Time (sec): 2.000000E-2
Scans to average: 1
Electric dark correction enabled: true
Nonlinearity correction enabled: false
Boxcar width: 0
XAxis mode: Wavelengths
Number of Pixels in Spectrum: 3648
>>>>>Begin Spectral Data<<<<<
178.204	-64.68
178.424	-64.68
178.644	-64.68
178.864	-191.66
179.084	-111.78
179.304	15.19
179.524	-17.58
179.744	2.9
179.964	-21.67
180.184	43.86
180.404	-33.96
180.624	-25.77
180.844	56.15
181.064	-17.58
181.283	-31.91
181.503	-33.96
181.723	64.34
181.943	-13.48
182.163	41.81
182.383	0.85
182.602	43.86
182.822	31.57
183.042	70.48
183.262	-27.82
183.482	-25.77
183.701	0.85
183.921	60.24
184.141	52.05
184.361	27.48
184.58	39.76
184.8	-54.44
185.02	31.57
185.239	-1.19
185.459	27.48
185.679	17.24
185.898	-17.58
186.118	19.29
186.338	-3.24
186.557	-46.25
186.777	-21.67
186.997	31.57
187.216	-36.01
187.436	90.96
187.655	17.24
187.875	37.72
188.095	-64.68
188.314	23.38
188.534	17.24
188.753	7
188.973	-13.48
189.192	105.3
189.412	62.29
189.631	11.09
189.851	-36.01
190.07	80.72
190.29	-17.58
190.509	76.63
190.729	-58.54
190.948	-54.44
191.168	123.73
191.387	60.24
191.607	27.48
191.826	-50.35
192.045	-13.48
192.265	-99.5
192.484	2.9
192.704	9.05
192.923	21.33
193.142	76.63
193.362	11.09
193.581	-17.58
193.8	31.57
194.02	-9.39
194.239	47.96
194.458	23.38
194.678	56.15
194.897	35.67
195.116	-38.06
195.335	-15.53
195.555	11.09
195.774	29.52
195.993	43.86
196.212	-79.02
196.432	-46.25
196.651	66.39
196.87	-62.63
197.089	19.29
197.308	39.76
197.528	82.77
197.747	-13.48
197.966	25.43
198.185	11.09
198.404	9.05
198.623	41.81
198.842	7
199.062	31.57
199.281	9.05
199.5	37.72
199.719	56.15
199.938	-40.11
200.157	25.43
200.376	2.9
200.595	99.16
200.814	43.86
201.033	-66.73
201.252	47.96
201.471	7
201.69	47.96
201.909	47.96
202.128	50
202.347	76.63
202.566	11.09
202.785	11.09
203.004	-74.92
203.223	66.39
203.442	-70.83
203.661	39.76
203.879	-9.39
204.098	-7.34
204.317	-1.19
204.536	31.57
204.755	-46.25
204.974	11.09
205.193	19.29
205.411	70.48
205.63	-62.63
205.849	-1.19
206.068	50
206.287	25.43
206.505	25.43
206.724	-27.82
206.943	-1.19
207.162	-50.35
207.381	-29.87
207.599	0.85
207.818	39.76
208.037	-1.19
208.255	31.57
208.474	23.38
208.693	41.81
208.911	-50.35
209.13	-13.48
209.349	-17.58
209.567	-17.58
209.786	115.54
210.005	-23.72
210.223	60.24
210.442	11.09
210.661	7
210.879	27.48
211.098	-25.77
211.316	39.76
211.535	17.24
211.753	-54.44
211.972	72.53
212.191	-17.58
212.409	-42.15
212.628	9.05
212.846	25.43
213.065	-38.06
213.283	-5.29
213.502	4.95
213.72	-42.15
213.938	-13.48
214.157	-66.73
214.375	7
214.594	47.96
214.812	-9.39
215.031	7
215.249	-5.29
215.467	43.86
215.686	39.76
215.904	35.67
216.122	-11.43
216.341	56.15
216.559	-72.87
216.778	39.76
216.996	35.67
217.214	-52.39
217.432	68.44
217.651	-54.44
217.869	-1.19
218.087	35.67
218.306	13.14
218.524	-1.19
218.742	-5.29
218.96	13.14
219.179	0.85
219.397	35.67
219.615	45.91
219.833	41.81
220.051	-7.34
220.27	39.76
220.488	41.81
220.706	72.53
220.924	2.9
221.142	-74.92
221.36	19.29
221.578	-9.39
221.796	68.44
222.015	-1.19
222.233	-5.29
222.451	11.09
222.669	-1.19
222.887	7
223.105	-62.63
223.323	11.09
223.541	-126.12
223.759	4.95
223.977	23.38
224.195	52.05
224.413	62.29
224.631	29.52
224.849	7
225.067	56.15
225.285	-33.96
225.503	39.76
225.721	-111.78
225.939	39.76
226.157	-17.58
226.375	82.77
226.592	-9.39
226.81	52.05
227.028	56.15
227.246	33.62
227.464	-15.53
227.682	31.57
227.9	19.29
228.117	39.76
228.335	-56.49
228.553	17.24
228.771	33.62
228.989	39.76
229.206	72.53
229.424	-15.53
229.642	19.29
229.86	15.19
230.077	47.96
230.295	39.76
230.513	-1.19
230.731	82.77
230.948	80.72
231.166	56.15
231.384	-46.25
231.601	-66.73
231.819	62.29
232.037	-29.87
232.254	23.38
232.472	62.29
232.689	13.14
232.907	56.15
233.125	76.63
233.342	23.38
233.56	56.15
233.777	39.76
233.995	33.62
234.213	62.29
234.43	39.76
234.648	45.91
234.865	-7.34
235.083	72.53
235.3	72.53
235.518	80.72
235.735	47.96
235.953	21.33
236.17	2.9
236.388	-9.39
236.605	-33.96
236.822	-7.34
237.04	41.81
237.257	31.57
237.475	25.43
237.692	19.29
237.909	64.34
238.127	-15.53
238.344	99.16
238.562	58.2
238.779	-1.19
238.996	-5.29
239.214	41.81
239.431	43.86
239.648	11.09
239.865	39.76
240.083	80.72
240.3	76.63
240.517	15.19
240.735	31.57
240.952	25.43
241.169	-1.19
241.386	-48.3
241.603	13.14
241.821	-29.87
242.038	41.81
242.255	4.95
242.472	-36.01
242.689	45.91
242.907	-11.43
243.124	9.05
243.341	88.92
243.558	4.95
243.775	0.85
243.992	47.96
244.209	41.81
244.426	66.39
244.643	15.19
244.86	0.85
245.078	33.62
245.295	78.68
245.512	-64.68
245.729	-25.77
245.946	47.96
246.163	11.09
246.38	15.19
246.597	15.19
246.814	-1.19
247.031	-25.77
247.248	52.05
247.464	31.57
247.681	43.86
247.898	-11.43
248.115	-1.19
248.332	-19.63
248.549	58.2
248.766	146.26
248.983	68.44
249.2	41.81
249.417	62.29
249.633	0.85
249.85	45.91
250.067	47.96
250.284	4.95
250.501	-13.48
250.717	17.24
250.934	-25.77
251.151	0.85
251.368	-91.31
251.585	72.53
251.801	19.29
252.018	-25.77
252.235	72.53
252.451	-1.19
252.668	-33.96
252.885	56.15
253.102	-66.73
253.318	-7.34
253.535	-7.34
253.752	64.34
253.968	43.86
254.185	-70.83
254.401	-25.77
254.618	39.76
254.835	-1.19
255.051	35.67
255.268	35.67
255.484	7
255.701	7
255.917	-9.39
256.134	-66.73
256.351	11.09
256.567	-1.19
256.784	31.57
257	-42.15
257.217	68.44
257.433	-33.96
257.65	56.15
257.866	74.58
258.082	50
258.299	15.19
258.515	-9.39
258.732	33.62
258.948	-42.15
259.165	-23.72
259.381	-7.34
259.597	29.52
259.814	37.72
260.03	2.9
260.246	-23.72
260.463	43.86
260.679	7
260.895	2.9
261.112	-25.77
261.328	-1.19
261.544	7
261.761	25.43
261.977	-38.06
262.193	-56.49
262.409	47.96
262.626	-40.11
262.842	13.14
263.058	-7.34
263.274	50
263.49	-5.29
263.707	15.19
263.923	-7.34
264.139	-1.19
264.355	-9.39
264.571	80.72
264.787	45.91
265.004	23.38
265.22	23.38
265.436	54.1
265.652	7
265.868	17.24
266.084	-79.02
266.3	9.05
266.516	19.29
266.732	39.76
266.948	-38.06
267.164	7
267.38	-3.24
267.596	-5.29
267.812	68.44
268.028	7
268.244	-9.39
268.46	-23.72
268.676	47.96
268.892	7
269.108	-25.77
269.324	47.96
269.54	-5.29
269.756	72.53
269.972	31.57
270.188	35.67
270.403	-50.35
270.619	-27.82
270.835	-17.58
271.051	70.48
271.267	19.29
271.483	64.34
271.698	72.53
271.914	33.62
272.13	-5.29
272.346	-7.34
272.562	23.38
272.777	47.96
272.993	-62.63
273.209	7
273.425	-11.43
273.64	-58.54
273.856	66.39
274.072	-9.39
274.287	43.86
274.503	50
274.719	-25.77
274.934	41.81
275.15	0.85
275.366	66.39
275.581	-66.73
275.797	64.34
276.012	-21.67
276.228	9.05
276.444	50
276.659	35.67
276.875	-58.54
277.09	17.24
277.306	-7.34
277.521	7
277.737	-29.87
277.952	0.85
278.168	47.96
278.383	7
278.599	111.44
278.814	56.15
279.03	9.05
279.245	80.72
279.461	0.85
279.676	109.4
279.892	-60.59
280.107	-3.24
280.322	23.38
280.538	11.09
280.753	-44.2
280.969	35.67
281.184	50
281.399	64.34
281.615	15.19
281.83	-1.19
282.045	-29.87
282.26	50
282.476	-1.19
282.691	74.58
282.906	0.85
283.122	39.76
283.337	7
283.552	-9.39
283.767	-74.92
283.983	11.09
284.198	13.14
284.413	-1.19
284.628	-44.2
284.843	39.76
285.058	-9.39
285.274	-25.77
285.489	-72.87
285.704	-9.39
285.919	-42.15
286.134	31.57
286.349	56.15
286.564	23.38
286.779	-17.58
286.995	-9.39
287.21	-42.15
287.425	17.24
287.64	-42.15
287.855	-33.96
288.07	0.85
288.285	39.76
288.5	27.48
288.715	17.24
288.93	-3.24
289.145	9.05
289.36	-15.53
289.575	-1.19
289.79	25.43
290.004	-70.83
290.219	23.38
290.434	-38.06
290.649	15.19
290.864	45.91
291.079	2.9
291.294	7
291.509	-1.19
291.724	-9.39
291.938	-17.58
292.153	0.85
292.368	17.24
292.583	-15.53
292.798	54.1
293.012	17.24
293.227	7
293.442	-42.15
293.657	23.38
293.871	90.96
294.086	35.67
294.301	62.29
294.516	39.76
294.73	-3.24
294.945	9.05
295.16	-40.11
295.374	29.52
295.589	47.96
295.804	-19.63
296.018	-33.96
296.233	80.72
296.447	33.62
296.662	39.76
296.877	88.92
297.091	31.57
297.306	-64.68
297.52	31.57
297.735	23.38
297.949	56.15
298.164	11.09
298.378	-52.39
298.593	-23.72
298.807	-1.19
299.022	52.05
299.236	23.38
299.451	23.38
299.665	11.09
299.88	33.62
300.094	-29.87
300.309	-31.91
300.523	-15.53
300.737	-29.87
300.952	39.76
301.166	-3.24
301.381	-1.19
301.595	-64.68
301.809	0.85
302.024	7
302.238	-17.58
302.452	-31.91
302.667	17.24
302.881	129.88
303.095	-42.15
303.309	35.67
303.524	-72.87
303.738	-13.48
303.952	2.9
304.166	88.92
304.381	-21.67
304.595	64.34
304.809	15.19
305.023	64.34
305.237	-72.87
305.452	-1.19
305.666	9.05
305.88	41.81
306.094	47.96
306.308	15.19
306.522	31.57
306.736	88.92
306.95	0.85
307.164	-15.53
307.379	93.01
307.593	97.11
307.807	-15.53
308.021	50
308.235	-5.29
308.449	-31.91
308.663	-1.19
308.877	72.53
309.091	-5.29
309.305	15.19
309.519	-21.67
309.733	68.44
309.947	-44.2
310.161	11.09
310.374	39.76
310.588	68.44
310.802	41.81
311.016	23.38
311.23	80.72
311.444	-17.58
311.658	-21.67
311.872	23.38
312.085	-31.91
312.299	25.43
312.513	-70.83
312.727	76.63
312.941	-29.87
313.154	37.72
313.368	21.33
313.582	56.15
313.796	-9.39
314.009	-115.88
314.223	64.34
314.437	23.38
314.651	-9.39
314.864	39.76
315.078	17.24
315.292	-17.58
315.505	31.57
315.719	9.05
315.933	-19.63
316.146	-44.2
316.36	-9.39
316.573	93.01
316.787	9.05
317.001	-17.58
317.214	56.15
317.428	68.44
317.641	-50.35
317.855	23.38
318.068	50
318.282	-9.39
318.495	39.76
318.709	39.76
318.922	15.19
319.136	50
319.349	31.57
319.563	-13.48
319.776	4.95
319.99	27.48
320.203	41.81
320.417	19.29
320.63	35.67
320.843	-5.29
321.057	33.62
321.27	56.15
321.483	19.29
321.697	99.16
321.91	64.34
322.124	-15.53
322.337	31.57
322.55	-23.72
322.763	9.05
322.977	-5.29
323.19	-13.48
323.403	-21.67
323.617	33.62
323.83	-1.19
324.043	0.85
324.256	27.48
324.469	39.76
324.683	35.67
324.896	-42.15
325.109	7
325.322	-70.83
325.535	39.76
325.748	-7.34
325.962	-97.45
326.175	37.72
326.388	9.05
326.601	31.57
326.814	-44.2
327.027	54.1
327.24	105.3
327.453	-46.25
327.666	17.24
327.879	58.2
328.092	56.15
328.305	-7.34
328.518	17.24
328.731	-48.3
328.944	58.2
329.157	113.49
329.37	-21.67
329.583	97.11
329.796	56.15
330.009	27.48
330.222	66.39
330.435	50
330.648	11.09
330.861	15.19
331.073	9.05
331.286	43.86
331.499	-64.68
331.712	0.85
331.925	9.05
332.138	33.62
332.35	31.57
332.563	25.43
332.776	84.82
332.989	-15.53
333.202	15.19
333.414	-66.73
333.627	47.96
333.84	-31.91
334.053	17.24
334.265	13.14
334.478	7
334.691	23.38
334.903	29.52
335.116	19.29
335.329	-33.96
335.541	35.67
335.754	23.38
335.966	-7.34
336.179	2.9
336.392	29.52
336.604	-42.15
336.817	11.09
337.029	39.76
337.242	-50.35
337.454	109.4
337.667	88.92
337.88	47.96
338.092	58.2
338.305	-9.39
338.517	-15.53
338.729	58.2
338.942	37.72
339.154	-23.72
339.367	-17.58
339.579	72.53
339.792	-50.35
340.004	31.57
340.217	56.15
340.429	-9.39
340.641	23.38
340.854	2.9
341.066	43.86
341.278	95.06
341.491	82.77
341.703	60.24
341.915	-25.77
342.128	39.76
342.34	-21.67
342.552	35.67
342.764	72.53
342.977	-5.29
343.189	35.67
343.401	52.05
343.613	-11.43
343.826	-23.72
344.038	37.72
344.25	21.33
344.462	25.43
344.674	35.67
344.886	56.15
345.099	-13.48
345.311	-21.67
345.523	11.09
345.735	-7.34
345.947	97.11
346.159	7
346.371	-13.48
346.583	-7.34
346.795	72.53
347.007	43.86
347.219	23.38
347.431	29.52
347.643	-31.91
347.855	47.96
348.067	2.9
348.279	-21.67
348.491	-1.19
348.703	60.24
348.915	60.24
349.127	9.05
349.339	39.76
349.551	35.67
349.763	39.76
349.975	47.96
350.187	66.39
350.399	72.53
350.61	19.29
350.822	37.72
351.034	27.48
351.246	7
351.458	35.67
351.669	-83.11
351.881	11.09
352.093	109.4
352.305	90.96
352.517	-23.72
352.728	72.53
352.94	-50.35
353.152	31.57
353.363	-74.92
353.575	-13.48
353.787	68.44
353.999	13.14
354.21	115.54
354.422	-15.53
354.633	23.38
354.845	52.05
355.057	0.85
355.268	7
355.48	76.63
355.692	-33.96
355.903	68.44
356.115	-5.29
356.326	-17.58
356.538	82.77
356.749	23.38
356.961	52.05
357.172	-48.3
357.384	-9.39
357.595	109.4
357.807	56.15
358.018	-1.19
358.23	105.3
358.441	115.54
358.653	-44.2
358.864	17.24
359.075	7
359.287	97.11
359.498	-1.19
359.709	31.57
359.921	9.05
360.132	9.05
360.344	7
360.555	-23.72
360.766	39.76
360.977	-5.29
361.189	29.52
361.4	4.95
361.611	76.63
361.823	95.06
362.034	60.24
362.245	-5.29
362.456	9.05
362.667	45.91
362.879	-3.24
363.09	13.14
363.301	-25.77
363.512	35.67
363.723	-31.91
363.935	9.05
364.146	11.09
364.357	21.33
364.568	15.19
364.779	-58.54
364.99	39.76
365.201	15.19
365.412	-1.19
365.623	-89.26
365.834	-1.19
366.045	82.77
366.256	47.96
366.467	11.09
366.678	88.92
366.889	35.67
367.1	-25.77
367.311	50
367.522	52.05
367.733	-11.43
367.944	21.33
368.155	-11.43
368.366	72.53
368.577	-42.15
368.788	101.2
368.999	-50.35
369.209	7
369.42	21.33
369.631	133.97
369.842	25.43
370.053	27.48
370.264	31.57
370.474	-56.49
370.685	72.53
370.896	2.9
371.107	68.44
371.317	11.09
371.528	45.91
371.739	-21.67
371.95	47.96
372.16	52.05
372.371	-40.11
372.582	-27.82
372.792	0.85
373.003	7
373.214	-15.53
373.424	39.76
373.635	23.38
373.846	23.38
374.056	-5.29
374.267	121.68
374.477	-15.53
374.688	17.24
374.898	72.53
375.109	-25.77
375.319	50
375.53	23.38
375.74	-3.24
375.951	25.43
376.161	-9.39
376.372	60.24
376.582	19.29
376.793	21.33
377.003	0.85
377.214	33.62
377.424	-74.92
377.635	33.62
377.845	15.19
378.055	109.4
378.266	17.24
378.476	27.48
378.686	19.29
378.897	80.72
379.107	39.76
379.317	66.39
379.528	-38.06
379.738	0.85
379.948	-25.77
380.158	-9.39
380.369	99.16
380.579	43.86
380.789	-9.39
380.999	54.1
381.21	-36.01
381.42	78.68
381.63	-13.48
381.84	-9.39
382.05	23.38
382.261	62.29
382.471	11.09
382.681	-38.06
382.891	0.85
383.101	47.96
383.311	0.85
383.521	17.24
383.731	70.48
383.941	50
384.151	23.38
384.361	101.2
384.571	80.72
384.781	54.1
384.991	131.92
385.201	80.72
385.411	15.19
385.621	7
385.831	23.38
386.041	-38.06
386.251	9.05
386.461	-3.24
386.671	-1.19
386.881	107.35
387.091	-1.19
387.301	80.72
387.511	25.43
387.72	29.52
387.93	23.38
388.14	-29.87
388.35	27.48
388.56	56.15
388.769	41.81
388.979	97.11
389.189	25.43
389.399	76.63
389.609	47.96
389.818	58.2
390.028	37.72
390.238	52.05
390.447	58.2
390.657	64.34
390.867	-38.06
391.076	64.34
391.286	62.29
391.496	-25.77
391.705	33.62
391.915	80.72
392.125	39.76
392.334	9.05
392.544	35.67
392.753	-17.58
392.963	11.09
393.172	31.57
393.382	-15.53
393.591	82.77
393.801	-25.77
394.01	39.76
394.22	17.24
394.429	50
394.639	11.09
394.848	56.15
395.058	27.48
395.267	-5.29
395.477	93.01
395.686	25.43
395.895	68.44
396.105	97.11
396.314	97.11
396.524	41.81
396.733	-56.49
396.942	60.24
397.152	50
397.361	117.59
397.57	-19.63
397.78	52.05
397.989	105.3
398.198	33.62
398.407	19.29
398.617	76.63
398.826	88.92
399.035	47.96
399.244	105.3
399.453	29.52
399.663	25.43
399.872	31.57
400.081	82.77
400.29	31.57
400.499	62.29
400.708	113.49
400.917	39.76
401.127	15.19
401.336	72.53
401.545	117.59
401.754	82.77
401.963	123.73
402.172	64.34
402.381	39.76
402.59	54.1
402.799	68.44
403.008	72.53
403.217	156.5
403.426	60.24
403.635	62.29
403.844	70.48
404.053	90.96
404.262	78.68
404.471	207.7
404.68	68.44
404.888	138.07
405.097	60.24
405.306	181.07
405.515	2.9
405.724	95.06
405.933	156.5
406.142	133.97
406.35	103.25
406.559	111.44
406.768	140.12
406.977	140.12
407.185	113.49
407.394	148.31
407.603	47.96
407.812	129.88
408.02	140.12
408.229	162.64
408.438	138.07
408.646	150.36
408.855	189.27
409.064	183.12
409.272	207.7
409.481	285.52
409.69	115.54
409.898	170.83
410.107	217.94
410.315	238.42
410.524	166.74
410.733	219.99
410.941	133.97
411.15	203.6
411.358	207.7
411.567	281.43
411.775	219.99
411.984	203.6
412.192	275.28
412.401	301.9
412.609	299.86
412.818	375.63
413.026	252.75
413.234	265.04
413.443	301.9
413.651	326.48
413.86	285.52
414.068	441.17
414.276	441.17
414.485	402.26
414.693	361.3
414.901	459.6
415.11	441.17
415.318	490.32
415.526	451.41
415.734	598.86
415.943	494.41
416.151	459.6
416.359	549.71
416.567	508.75
416.776	621.39
416.984	613.2
417.192	662.35
417.4	572.24
417.608	586.57
417.817	656.2
418.025	674.64
418.233	772.94
418.441	723.79
418.649	729.93
418.857	875.34
419.065	861
419.273	707.4
419.481	858.95
419.689	920.39
419.897	953.16
420.105	891.72
420.313	934.73
420.521	959.3
420.729	1205.06
420.937	1104.71
421.145	1137.48
421.353	1131.33
421.561	1211.2
421.769	1321.79
421.977	1370.94
422.185	1194.82
422.393	1354.56
422.601	1467.2
422.809	1499.97
423.017	1456.96
423.224	1575.74
423.432	1581.89
423.64	1637.18
423.848	1762.11
424.056	1719.1
424.263	1727.29
424.471	1772.35
424.679	1784.63
424.887	1968.95
425.094	1925.94
425.302	1991.48
425.51	2169.65
425.718	2200.37
425.925	2192.18
426.133	2337.59
426.341	2313.01
426.548	2521.9
426.756	2433.84
426.964	2452.27
427.171	2579.25
427.379	2751.28
427.586	2784.04
427.794	2935.59
428.001	2868.01
428.209	3019.56
428.417	3025.7
428.624	3318.56
428.832	3205.92
429.039	3318.56
429.247	3210.02
429.454	3537.7
429.662	3875.61
429.869	3580.7
430.076	3857.18
430.284	3664.67
430.491	3818.27
430.699	4088.6
430.906	4111.13
431.114	4078.36
431.321	4262.68
431.528	4356.88
431.736	4533.01
431.943	4850.44
432.15	4684.56
432.358	4958.99
432.565	5104.39
432.772	4897.55
432.979	5176.07
433.187	5397.25
433.394	5290.76
433.601	5837.56
433.808	5831.42
434.016	5753.6
434.223	6140.66
434.43	6380.28
434.637	6302.45
434.844	6613.74
435.052	6789.87
435.259	6650.61
435.466	6824.69
435.673	6732.53
435.88	7217.9
436.087	7473.89
436.294	7516.9
436.501	7217.9
436.708	7473.89
436.915	7557.86
437.122	7834.33
437.329	8188.63
437.537	8237.78
437.743	8358.61
437.95	8207.06
438.157	8772.3
438.364	9159.37
438.571	9114.31
438.778	9018.06
438.985	10050.24
439.192	9777.86
439.399	9972.41
439.606	9433.8
439.813	10302.14
440.02	10945.2
440.227	10668.72
440.433	10443.45
440.64	11100.84
440.847	10812.08
441.054	10990.25
441.261	11688.61
441.467	11635.36
441.674	11956.89
441.881	12380.82
442.088	12208.8
442.294	12159.64
442.501	12401.3
442.708	12817.04
442.914	13343.37
443.121	13769.35
443.328	13456.01
443.534	14297.72
443.741	13867.65
443.948	13806.21
444.154	14889.59
444.361	14815.86
444.568	14938.74
444.774	14883.44
444.981	15049.33
445.187	15665.77
445.394	15999.59
445.6	15848.04
445.807	17656.39
446.013	16730.71
446.22	16984.66
446.426	17830.47
446.633	18127.42
446.839	18573.88
447.046	17488.46
447.252	18455.1
447.459	18700.86
447.665	18414.14
447.871	19298.86
448.078	20281.89
448.284	19362.35
448.491	20015.65
448.697	20902.42
448.903	21121.56
449.11	21164.56
449.316	20726.3
449.522	20984.34
449.728	21746.19
449.935	21828.1
450.141	21959.17
450.347	22397.44
450.553	21623.31
450.76	22301.19
450.966	23087.61
451.172	22317.57
451.378	23142.9
451.584	22778.36
451.791	23405.04
451.997	23138.8
452.203	23532.01
452.409	23878.12
452.615	23486.96
452.821	22497.79
453.027	22477.31
453.233	23452.14
453.44	22647.29
453.646	23085.56
453.852	23091.7
454.058	23210.48
454.264	22583.8
454.47	23194.1
454.676	22233.6
454.882	23204.34
455.088	21283.34
455.294	21826.06
455.5	22022.66
455.705	22282.75
455.911	21416.46
456.117	20961.81
456.323	20857.37
456.529	19792.42
456.735	20582.94
456.941	19982.88
457.147	19808.81
457.352	18924.08
457.558	18983.48
457.764	19067.44
457.97	18700.86
458.176	18209.34
458.381	18238.02
458.587	17244.75
458.793	17267.28
458.999	16341.6
459.204	17863.24
459.41	17232.46
459.616	15999.59
459.821	15837.8
460.027	15966.82
460.233	15854.18
460.438	15018.61
460.644	14850.67
460.85	14314.11
461.055	13963.9
461.261	14424.7
461.466	13245.07
461.672	12704.4
461.878	13697.67
462.083	12753.55
462.289	12499.61
462.494	12393.11
462.7	11735.71
462.905	11418.28
463.111	11838.11
463.316	11999.9
463.522	11604.64
463.727	11537.06
463.932	11676.32
464.138	11571.88
464.343	11930.27
464.549	11420.33
464.754	11520.68
464.959	11539.11
465.165	11350.7
465.37	11043.5
465.575	10525.36
465.781	11123.37
465.986	11403.94
466.191	10781.36
466.397	10459.83
466.602	9962.17
466.807	10183.35
467.012	10498.74
467.218	10330.81
467.423	10226.36
467.628	10365.62
467.833	10791.6
468.038	10437.3
468.244	10052.28
468.449	10416.82
468.654	9953.98
468.859	10195.64
469.064	10195.64
469.269	9638.59
