Data from USB4F104151__131__14-44-04-507.txt Node

Date: Thu Mar 13 14:44:04 EDT 2025
User: louis
Spectrometer: USB4F10415
Trigger mode: 4
Integration Time (sec): 2.000000E-2
Scans to average: 1
Electric dark correction enabled: true
Nonlinearity correction enabled: false
Boxcar width: 0
XAxis mode: Wavelengths
Number of Pixels in Spectrum: 3648
>>>>>Begin Spectral Data<<<<<
178.204	-170.32
178.424	-170.32
178.644	-170.32
178.864	-110.93
179.084	-125.27
179.304	-10.58
179.524	-29.01
179.744	91.82
179.964	1.71
180.184	-57.68
180.404	-16.73
180.624	5.8
180.844	26.28
181.064	-80.21
181.283	42.67
181.503	16.04
181.723	9.9
181.943	-55.64
182.163	52.91
182.383	16.04
182.602	9.9
182.822	-20.82
183.042	30.38
183.262	-55.64
183.482	-86.36
183.701	52.91
183.921	42.67
184.141	-72.02
184.361	63.15
184.58	42.67
184.8	-6.49
185.02	20.14
185.239	22.19
185.459	59.05
185.679	36.52
185.898	-8.53
186.118	-12.63
186.338	67.24
186.557	91.82
186.777	-39.25
186.997	-2.39
187.216	13.99
187.436	38.57
187.655	18.09
187.875	13.99
188.095	-22.87
188.314	95.91
188.534	59.05
188.753	-12.63
188.973	42.67
189.192	65.19
189.412	5.8
189.631	1.71
189.851	-22.87
190.07	-22.87
190.29	-26.96
190.509	-18.77
190.729	24.23
190.948	71.34
191.168	40.62
191.387	50.86
191.607	-69.97
191.826	5.8
192.045	-4.44
192.265	-4.44
192.484	-90.45
192.704	-6.49
192.923	-4.44
193.142	5.8
193.362	48.81
193.581	85.67
193.8	44.71
194.02	13.99
194.239	-16.73
194.458	40.62
194.678	-14.68
194.897	-2.39
195.116	34.47
195.335	13.99
195.555	-14.68
195.774	26.28
195.993	-2.39
196.212	-4.44
196.432	38.57
196.651	-22.87
196.87	13.99
197.089	36.52
197.308	24.23
197.528	50.86
197.747	9.9
197.966	30.38
198.185	18.09
198.404	-29.01
198.623	108.2
198.842	46.76
199.062	-26.96
199.281	61.1
199.5	-72.02
199.719	1.71
199.938	36.52
200.157	75.43
200.376	-10.58
200.595	36.52
200.814	-22.87
201.033	-22.87
201.252	36.52
201.471	42.67
201.69	63.15
201.909	34.47
202.128	42.67
202.347	-22.87
202.566	-57.68
202.785	28.33
203.004	-6.49
203.223	61.1
203.442	-24.92
203.661	-92.5
203.879	-26.96
204.098	67.24
204.317	-31.06
204.536	-4.44
204.755	26.28
204.974	36.52
205.193	5.8
205.411	44.71
205.63	-0.34
205.849	13.99
206.068	-20.82
206.287	34.47
206.505	40.62
206.724	3.75
206.943	16.04
207.162	11.95
207.381	11.95
207.599	1.71
207.818	11.95
208.037	3.75
208.255	-26.96
208.474	22.19
208.693	9.9
208.911	-20.82
209.13	13.99
209.349	18.09
209.567	-6.49
209.786	71.34
210.005	48.81
210.223	-67.92
210.442	-14.68
210.661	79.53
210.879	9.9
211.098	-0.34
211.316	-20.82
211.535	52.91
211.753	22.19
211.972	7.85
212.191	34.47
212.409	9.9
212.628	-22.87
212.846	-24.92
213.065	24.23
213.283	46.76
213.502	-55.64
213.72	-4.44
213.938	104.11
214.157	-45.4
214.375	-33.11
214.594	1.71
214.812	34.47
215.031	9.9
215.249	3.75
215.467	9.9
215.686	-8.53
215.904	38.57
216.122	-43.35
216.341	-37.2
216.559	-67.92
216.778	46.76
216.996	79.53
217.214	81.58
217.432	-96.6
217.651	9.9
217.869	-47.44
218.087	-22.87
218.306	-4.44
218.524	26.28
218.742	28.33
218.96	9.9
219.179	3.75
219.397	9.9
219.615	42.67
219.833	1.71
220.051	-37.2
220.27	5.8
220.488	63.15
220.706	124.58
220.924	1.71
221.142	42.67
221.36	42.67
221.578	38.57
221.796	13.99
222.015	36.52
222.233	34.47
222.451	26.28
222.669	-6.49
222.887	-51.54
223.105	-110.93
223.323	-6.49
223.541	-2.39
223.759	34.47
223.977	34.47
224.195	85.67
224.413	-35.16
224.631	73.39
224.849	108.2
225.067	44.71
225.285	-41.3
225.503	18.09
225.721	9.9
225.939	-45.4
226.157	-14.68
226.375	102.06
226.592	-31.06
226.81	36.52
227.028	26.28
227.246	30.38
227.464	32.43
227.682	50.86
227.9	50.86
228.117	34.47
228.335	-22.87
228.553	34.47
228.771	40.62
228.989	28.33
229.206	83.63
229.424	-12.63
229.642	-55.64
229.86	1.71
230.077	63.15
230.295	30.38
230.513	75.43
230.731	42.67
230.948	59.05
231.166	44.71
231.384	-18.77
231.601	9.9
231.819	42.67
232.037	-4.44
232.254	-69.97
232.472	59.05
232.689	-80.21
232.907	52.91
233.125	-4.44
233.342	-29.01
233.56	11.95
233.777	-35.16
233.995	59.05
234.213	11.95
234.43	-22.87
234.648	-31.06
234.865	-53.59
235.083	100.01
235.3	1.71
235.518	-6.49
235.735	100.01
235.953	-0.34
236.17	-8.53
236.388	-45.4
236.605	-22.87
236.822	59.05
237.04	63.15
237.257	36.52
237.475	-0.34
237.692	30.38
237.909	79.53
238.127	63.15
238.344	-14.68
238.562	-31.06
238.779	-33.11
238.996	54.95
239.214	-59.73
239.431	67.24
239.648	46.76
239.865	11.95
240.083	9.9
240.3	-4.44
240.517	34.47
240.735	7.85
240.952	54.95
241.169	38.57
241.386	16.04
241.603	9.9
241.821	11.95
242.038	63.15
242.255	-22.87
242.472	-84.31
242.689	20.14
242.907	32.43
243.124	9.9
243.341	22.19
243.558	-45.4
243.775	50.86
243.992	-39.25
244.209	-10.58
244.426	50.86
244.643	-24.92
244.86	16.04
245.078	46.76
245.295	26.28
245.512	9.9
245.729	-33.11
245.946	-33.11
246.163	13.99
246.38	-6.49
246.597	34.47
246.814	75.43
247.031	-51.54
247.248	38.57
247.464	7.85
247.681	67.24
247.898	42.67
248.115	11.95
248.332	-2.39
248.549	38.57
248.766	-12.63
248.983	13.99
249.2	22.19
249.417	-12.63
249.633	-4.44
249.85	59.05
250.067	26.28
250.284	3.75
250.501	13.99
250.717	22.19
250.934	-0.34
251.151	30.38
251.368	11.95
251.585	34.47
251.801	-24.92
252.018	-43.35
252.235	36.52
252.451	-31.06
252.668	5.8
252.885	69.29
253.102	-12.63
253.318	-51.54
253.535	5.8
253.752	18.09
253.968	18.09
254.185	-31.06
254.401	-35.16
254.618	-2.39
254.835	-18.77
255.051	67.24
255.268	22.19
255.484	63.15
255.701	-37.2
255.917	11.95
256.134	-39.25
256.351	-51.54
256.567	-6.49
256.784	-6.49
257	-61.78
257.217	-6.49
257.433	75.43
257.65	69.29
257.866	59.05
258.082	-6.49
258.299	-35.16
258.515	-4.44
258.732	1.71
258.948	-78.16
259.165	79.53
259.381	5.8
259.597	11.95
259.814	-22.87
260.03	5.8
260.246	20.14
260.463	30.38
260.679	34.47
260.895	-12.63
261.112	26.28
261.328	28.33
261.544	-29.01
261.761	38.57
261.977	-14.68
262.193	-20.82
262.409	77.48
262.626	32.43
262.842	-20.82
263.058	71.34
263.274	-35.16
263.49	5.8
263.707	-6.49
263.923	52.91
264.139	-12.63
264.355	-39.25
264.571	42.67
264.787	36.52
265.004	85.67
265.22	89.77
265.436	57
265.652	30.38
265.868	-2.39
266.084	-47.44
266.3	-0.34
266.516	-47.44
266.732	9.9
266.948	32.43
267.164	-20.82
267.38	-22.87
267.596	42.67
267.812	59.05
268.028	-6.49
268.244	-45.4
268.46	34.47
268.676	-6.49
268.892	-18.77
269.108	-22.87
269.324	3.75
269.54	-57.68
269.756	9.9
269.972	-18.77
270.188	13.99
270.403	-4.44
270.619	9.9
270.835	71.34
271.051	-14.68
271.267	34.47
271.483	-63.83
271.698	26.28
271.914	-14.68
272.13	9.9
272.346	-12.63
272.562	-29.01
272.777	-4.44
272.993	-37.2
273.209	-61.78
273.425	79.53
273.64	5.8
273.856	-4.44
274.072	13.99
274.287	-45.4
274.503	61.1
274.719	9.9
274.934	-22.87
275.15	-20.82
275.366	9.9
275.581	57
275.797	28.33
276.012	91.82
276.228	50.86
276.444	-10.58
276.659	-35.16
276.875	-53.59
277.09	36.52
277.306	-26.96
277.521	18.09
277.737	44.71
277.952	-29.01
278.168	52.91
278.383	44.71
278.599	1.71
278.814	38.57
279.03	-26.96
279.245	30.38
279.461	-39.25
279.676	40.62
279.892	-57.68
280.107	-88.4
280.322	18.09
280.538	3.75
280.753	-37.2
280.969	63.15
281.184	5.8
281.399	-8.53
281.615	-22.87
281.83	54.95
282.045	-20.82
282.26	34.47
282.476	-29.01
282.691	18.09
282.906	9.9
283.122	9.9
283.337	20.14
283.552	38.57
283.767	34.47
283.983	-12.63
284.198	26.28
284.413	18.09
284.628	-6.49
284.843	32.43
285.058	1.71
285.274	50.86
285.489	-26.96
285.704	-29.01
285.919	-14.68
286.134	63.15
286.349	50.86
286.564	-63.83
286.779	54.95
286.995	75.43
287.21	34.47
287.425	-8.53
287.64	-35.16
287.855	87.72
288.07	-14.68
288.285	57
288.5	28.33
288.715	93.87
288.93	-47.44
289.145	-29.01
289.36	-69.97
289.575	26.28
289.79	5.8
290.004	-45.4
290.219	52.91
290.434	28.33
290.649	-8.53
290.864	-12.63
291.079	69.29
291.294	18.09
291.509	59.05
291.724	77.48
291.938	-29.01
292.153	11.95
292.368	-45.4
292.583	-22.87
292.798	46.76
293.012	26.28
293.227	71.34
293.442	-6.49
293.657	9.9
293.871	30.38
294.086	-22.87
294.301	30.38
294.516	48.81
294.73	44.71
294.945	26.28
295.16	1.71
295.374	9.9
295.589	-2.39
295.804	38.57
296.018	44.71
296.233	38.57
296.447	-14.68
296.662	-47.44
296.877	-6.49
297.091	50.86
297.306	20.14
297.52	-6.49
297.735	42.67
297.949	18.09
298.164	-20.82
298.378	77.48
298.593	-29.01
298.807	-26.96
299.022	-47.44
299.236	-10.58
299.451	-45.4
299.665	18.09
299.88	3.75
300.094	-41.3
300.309	42.67
300.523	-10.58
300.737	5.8
300.952	-18.77
301.166	28.33
301.381	59.05
301.595	13.99
301.809	-41.3
302.024	38.57
302.238	9.9
302.452	34.47
302.667	11.95
302.881	69.29
303.095	48.81
303.309	-37.2
303.524	-45.4
303.738	44.71
303.952	-26.96
304.166	-2.39
304.381	-88.4
304.595	11.95
304.809	38.57
305.023	116.39
305.237	9.9
305.452	-12.63
305.666	-4.44
305.88	-20.82
306.094	30.38
306.308	-26.96
306.522	61.1
306.736	-57.68
306.95	-4.44
307.164	1.71
307.379	26.28
307.593	1.71
307.807	13.99
308.021	36.52
308.235	-39.25
308.449	28.33
308.663	13.99
308.877	73.39
309.091	-31.06
309.305	22.19
309.519	-39.25
309.733	1.71
309.947	-2.39
310.161	34.47
310.374	65.19
310.588	52.91
310.802	-10.58
311.016	1.71
311.23	20.14
311.444	3.75
311.658	-35.16
311.872	40.62
312.085	-4.44
312.299	26.28
312.513	-31.06
312.727	11.95
312.941	26.28
313.154	77.48
313.368	11.95
313.582	3.75
313.796	50.86
314.009	-31.06
314.223	1.71
314.437	18.09
314.651	28.33
314.864	-37.2
315.078	40.62
315.292	-26.96
315.505	-63.83
315.719	3.75
315.933	65.19
316.146	22.19
316.36	-41.3
316.573	-24.92
316.787	67.24
317.001	-22.87
317.214	-67.92
317.428	30.38
317.641	36.52
317.855	18.09
318.068	-20.82
318.282	-6.49
318.495	46.76
318.709	46.76
318.922	48.81
319.136	44.71
319.349	28.33
319.563	-6.49
319.776	67.24
319.99	3.75
320.203	-10.58
320.417	59.05
320.63	34.47
320.843	42.67
321.057	13.99
321.27	50.86
321.483	-72.02
321.697	61.1
321.91	85.67
322.124	61.1
322.337	42.67
322.55	9.9
322.763	-26.96
322.977	11.95
323.19	-4.44
323.403	-82.26
323.617	-39.25
323.83	22.19
324.043	-59.73
324.256	-22.87
324.469	-45.4
324.683	128.68
324.896	-31.06
325.109	38.57
325.322	-37.2
325.535	13.99
325.748	26.28
325.962	34.47
326.175	34.47
326.388	-12.63
326.601	-29.01
326.814	-18.77
327.027	9.9
327.24	91.82
327.453	-12.63
327.666	7.85
327.879	32.43
328.092	-4.44
328.305	44.71
328.518	-14.68
328.731	9.9
328.944	34.47
329.157	59.05
329.37	20.14
329.583	1.71
329.796	34.47
330.009	-39.25
330.222	-47.44
330.435	-12.63
330.648	42.67
330.861	69.29
331.073	26.28
331.286	71.34
331.499	-2.39
331.712	-37.2
331.925	7.85
332.138	-45.4
332.35	91.82
332.563	-31.06
332.776	50.86
332.989	-39.25
333.202	-2.39
333.414	24.23
333.627	13.99
333.84	42.67
334.053	-14.68
334.265	59.05
334.478	-18.77
334.691	30.38
334.903	-12.63
335.116	9.9
335.329	1.71
335.541	91.82
335.754	130.73
335.966	-0.34
336.179	20.14
336.392	22.19
336.604	42.67
336.817	67.24
337.029	20.14
337.242	18.09
337.454	34.47
337.667	-14.68
337.88	30.38
338.092	-39.25
338.305	18.09
338.517	-24.92
338.729	-47.44
338.942	9.9
339.154	-22.87
339.367	-45.4
339.579	3.75
339.792	3.75
340.004	16.04
340.217	-0.34
340.429	50.86
340.641	38.57
340.854	11.95
341.066	50.86
341.278	77.48
341.491	36.52
341.703	65.19
341.915	-31.06
342.128	1.71
342.34	-20.82
342.552	3.75
342.764	22.19
342.977	34.47
343.189	42.67
343.401	1.71
343.613	9.9
343.826	18.09
344.038	-12.63
344.25	44.71
344.462	-2.39
344.674	38.57
344.886	57
345.099	-6.49
345.311	-4.44
345.523	-18.77
345.735	9.9
345.947	26.28
346.159	63.15
346.371	26.28
346.583	-69.97
346.795	34.47
347.007	-6.49
347.219	11.95
347.431	-10.58
347.643	18.09
347.855	-12.63
348.067	61.1
348.279	-20.82
348.491	13.99
348.703	-14.68
348.915	5.8
349.127	-12.63
349.339	-14.68
349.551	11.95
349.763	140.97
349.975	28.33
350.187	24.23
350.399	28.33
350.61	26.28
350.822	-61.78
351.034	-22.87
351.246	13.99
351.458	26.28
351.669	38.57
351.881	59.05
352.093	-26.96
352.305	48.81
352.517	-2.39
352.728	-14.68
352.94	26.28
353.152	-8.53
353.363	-55.64
353.575	28.33
353.787	1.71
353.999	75.43
354.21	36.52
354.422	9.9
354.633	-10.58
354.845	-31.06
355.057	-22.87
355.268	18.09
355.48	11.95
355.692	-51.54
355.903	75.43
356.115	91.82
356.326	3.75
356.538	42.67
356.749	-12.63
356.961	26.28
357.172	26.28
357.384	-2.39
357.595	63.15
357.807	18.09
358.018	73.39
358.23	20.14
358.441	77.48
358.653	28.33
358.864	52.91
359.075	-2.39
359.287	42.67
359.498	128.68
359.709	46.76
359.921	-31.06
360.132	85.67
360.344	22.19
360.555	67.24
360.766	7.85
360.977	-22.87
361.189	50.86
361.4	32.43
361.611	122.54
361.823	87.72
362.034	24.23
362.245	-31.06
362.456	1.71
362.667	-12.63
362.879	9.9
363.09	34.47
363.301	20.14
363.512	18.09
363.723	7.85
363.935	67.24
364.146	79.53
364.357	18.09
364.568	-0.34
364.779	-76.12
364.99	75.43
365.201	13.99
365.412	11.95
365.623	54.95
365.834	57
366.045	63.15
366.256	83.63
366.467	46.76
366.678	-39.25
366.889	67.24
367.1	61.1
367.311	83.63
367.522	26.28
367.733	24.23
367.944	46.76
368.155	18.09
368.366	50.86
368.577	61.1
368.788	28.33
368.999	-61.78
369.209	7.85
369.42	36.52
369.631	24.23
369.842	52.91
370.053	-12.63
370.264	26.28
370.474	24.23
370.685	-24.92
370.896	9.9
371.107	54.95
371.317	83.63
371.528	30.38
371.739	83.63
371.95	1.71
372.16	36.52
372.371	-59.73
372.582	38.57
372.792	77.48
373.003	50.86
373.214	36.52
373.424	26.28
373.635	-22.87
373.846	50.86
374.056	67.24
374.267	18.09
374.477	-14.68
374.688	-37.2
374.898	28.33
375.109	-6.49
375.319	-31.06
375.53	30.38
375.74	42.67
375.951	5.8
376.161	-67.92
376.372	50.86
376.582	63.15
376.793	118.44
377.003	-26.96
377.214	44.71
377.424	13.99
377.635	-8.53
377.845	-0.34
378.055	91.82
378.266	-35.16
378.476	42.67
378.686	9.9
378.897	59.05
379.107	59.05
379.317	-20.82
379.528	-29.01
379.738	52.91
379.948	59.05
380.158	50.86
380.369	30.38
380.579	3.75
380.789	-39.25
380.999	20.14
381.21	42.67
381.42	61.1
381.63	-72.02
381.84	5.8
382.05	18.09
382.261	34.47
382.471	75.43
382.681	26.28
382.891	87.72
383.101	30.38
383.311	-18.77
383.521	-29.01
383.731	-41.3
383.941	-10.58
384.151	42.67
384.361	-26.96
384.571	28.33
384.781	59.05
384.991	46.76
385.201	75.43
385.411	1.71
385.621	46.76
385.831	-47.44
386.041	-4.44
386.251	69.29
386.461	-37.2
386.671	-55.64
386.881	67.24
387.091	50.86
387.301	30.38
387.511	1.71
387.72	28.33
387.93	38.57
388.14	44.71
388.35	-18.77
388.56	-20.82
388.769	48.81
388.979	83.63
389.189	-0.34
389.399	-14.68
389.609	95.91
389.818	26.28
390.028	-20.82
390.238	22.19
390.447	-41.3
390.657	36.52
390.867	-39.25
391.076	-24.92
391.286	13.99
391.496	67.24
391.705	85.67
391.915	124.58
392.125	28.33
392.334	44.71
392.544	36.52
392.753	54.95
392.963	-6.49
393.172	50.86
393.382	36.52
393.591	91.82
393.801	40.62
394.01	102.06
394.22	52.91
394.429	54.95
394.639	-22.87
394.848	9.9
395.058	-4.44
395.267	28.33
395.477	-18.77
395.686	22.19
395.895	87.72
396.105	108.2
396.314	147.11
396.524	106.15
396.733	48.81
396.942	116.39
397.152	34.47
397.361	34.47
397.57	50.86
397.78	75.43
397.989	-6.49
398.198	95.91
398.407	13.99
398.617	91.82
398.826	26.28
399.035	110.25
399.244	36.52
399.453	81.58
399.663	89.77
399.872	120.49
400.081	-12.63
400.29	52.91
400.499	73.39
400.708	65.19
400.917	120.49
401.127	71.34
401.336	50.86
401.545	67.24
401.754	104.11
401.963	140.97
402.172	79.53
402.381	100.01
402.59	132.78
402.799	54.95
403.008	54.95
403.217	110.25
403.426	54.95
403.635	124.58
403.844	83.63
404.053	108.2
404.262	97.96
404.471	145.06
404.68	77.48
404.888	50.86
405.097	91.82
405.306	77.48
405.515	100.01
405.724	65.19
405.933	110.25
406.142	128.68
406.35	110.25
406.559	46.76
406.768	77.48
406.977	206.5
407.185	104.11
407.394	110.25
407.603	108.2
407.812	91.82
408.02	186.02
408.229	153.26
408.438	169.64
408.646	100.01
408.855	190.12
409.064	157.35
409.272	140.97
409.481	192.17
409.69	75.43
409.898	196.26
410.107	233.13
410.315	231.08
410.524	212.65
410.733	130.73
410.941	181.93
411.15	265.89
411.358	190.12
411.567	370.34
411.775	368.29
411.984	310.95
412.192	274.09
412.401	296.61
412.609	304.81
412.818	315.05
413.026	370.34
413.234	380.58
413.443	319.14
413.651	370.34
413.86	435.88
414.068	476.84
414.276	429.73
414.485	427.68
414.693	495.27
414.901	589.47
415.11	534.18
415.318	435.88
415.526	468.64
415.734	538.27
415.943	571.04
416.151	534.18
416.359	640.67
416.567	642.72
416.776	622.24
416.984	638.62
417.192	655.01
417.4	755.36
417.608	675.49
417.817	734.88
418.025	839.33
418.233	847.52
418.441	765.6
418.649	810.65
418.857	855.71
419.065	904.86
419.273	923.29
419.481	980.64
419.689	988.83
419.897	1074.84
420.105	1123.99
420.313	1158.81
420.521	1074.84
420.729	1109.66
420.937	1250.97
421.145	1230.49
421.353	1347.22
421.561	1394.33
421.769	1470.1
421.977	1443.48
422.185	1506.96
422.393	1560.21
422.601	1552.02
422.809	1646.23
423.017	1625.75
423.224	1697.42
423.432	1758.86
423.64	1777.3
423.848	1934.99
424.056	1928.85
424.263	2070.16
424.471	2029.2
424.679	2070.16
424.887	2209.42
425.094	2254.47
425.302	2281.1
425.51	2270.86
425.718	2528.9
425.925	2440.84
426.133	2492.04
426.341	2713.22
426.548	2664.07
426.756	2795.14
426.964	2797.18
427.171	2920.06
427.379	3028.6
427.586	3012.22
427.794	3264.12
428.001	3387
428.209	3425.91
428.417	3366.52
428.624	3706.48
428.832	3747.44
429.039	3704.43
429.247	3780.21
429.454	4073.07
429.662	4224.62
429.869	3921.52
430.076	4255.34
430.284	4124.27
430.491	4271.72
430.699	4675.17
430.906	4550.25
431.114	4599.4
431.321	4761.19
431.528	5027.42
431.736	5320.28
431.943	5355.1
432.15	5154.4
432.358	5367.38
432.565	5754.45
432.772	5650
432.979	5969.49
433.187	5965.39
433.394	6069.84
433.601	6504.01
433.808	6532.68
434.016	6397.51
434.223	6749.76
434.43	7202.36
434.637	6940.22
434.844	7501.37
435.052	7468.6
435.259	7241.28
435.466	7468.6
435.673	7413.31
435.88	8029.74
436.087	8384.04
436.294	8472.11
436.501	8255.02
436.708	8308.27
436.915	8832.55
437.122	8920.61
437.329	9068.06
437.537	9223.71
437.743	9324.06
437.95	9408.03
438.157	10049.04
438.364	10298.89
438.571	10182.16
438.778	10196.5
438.985	11240.96
439.192	10690.06
439.399	10995.2
439.606	11064.83
439.813	11382.27
440.02	11884.02
440.227	11838.97
440.433	11695.61
440.64	12043.76
440.847	12013.04
441.054	12322.29
441.261	12920.29
441.467	12903.91
441.674	13231.58
441.881	13919.7
442.088	13805.02
442.294	13780.44
442.501	13770.2
442.708	14284.24
442.914	14941.64
443.121	15394.24
443.328	14978.5
443.534	16098.74
443.741	15594.94
443.948	15041.99
444.154	16704.94
444.361	16584.11
444.568	16469.42
444.774	16459.18
444.981	16600.49
445.187	17313.19
445.394	17882.52
445.6	17671.58
445.807	19428.74
446.013	18566.54
446.22	18875.79
446.426	19672.45
446.633	19703.17
446.839	20370.8
447.046	19680.64
447.252	20624.75
447.459	20696.43
447.665	20770.16
447.871	21427.56
448.078	22353.24
448.284	21427.56
448.491	21814.62
448.697	22453.59
448.903	23133.51
449.11	23362.89
449.316	22715.73
449.522	23528.77
449.728	24003.9
449.935	23940.41
450.141	24237.37
450.347	24796.46
450.553	23921.98
450.76	24231.22
450.966	24948.01
451.172	24763.7
451.378	25586.98
451.584	24980.78
451.791	25554.21
451.997	25648.42
452.203	25623.84
452.409	26098.97
452.615	25738.53
452.821	24552.76
453.027	24573.24
453.233	26080.54
453.44	24749.36
453.646	25386.28
453.852	25496.87
454.058	25808.16
454.264	24765.74
454.47	25754.91
454.676	24700.21
454.882	25642.28
455.088	23389.51
455.294	23803.2
455.5	24167.74
455.705	24452.41
455.911	23504.2
456.117	23053.64
456.323	22857.04
456.529	21505.38
456.735	22752.59
456.941	22160.73
457.147	21407.08
457.352	20979.05
457.558	20886.89
457.764	20694.38
457.97	20614.51
458.176	20088.18
458.381	19756.41
458.587	19246.47
458.793	19107.21
458.999	18126.23
459.204	19498.37
459.41	18668.94
459.616	17620.38
459.821	17659.29
460.027	17429.92
460.233	17175.97
460.438	16422.32
460.644	16387.5
460.85	15470.01
461.055	15609.28
461.261	15658.43
461.466	14255.57
461.672	13927.89
461.878	15056.32
462.083	14026.2
462.289	13678.04
462.494	13594.08
462.7	13008.36
462.905	12824.04
463.111	13137.38
463.316	13082.08
463.522	12889.57
463.727	12711.4
463.932	12797.42
464.138	12840.42
464.343	12711.4
464.549	12238.32
464.754	12811.75
464.959	12678.63
465.165	12488.17
465.37	11941.36
465.575	11845.11
465.781	12223.98
465.986	12217.84
466.191	11822.58
466.397	11636.22
466.602	11066.88
466.807	11537.91
467.012	11474.43
467.218	11335.17
467.423	11331.07
