Data from USB4F104151__264__14-46-03-039.txt Node

Date: Thu Mar 13 14:46:03 EDT 2025
User: louis
Spectrometer: USB4F10415
Trigger mode: 4
Integration Time (sec): 2.000000E-2
Scans to average: 1
Electric dark correction enabled: true
Nonlinearity correction enabled: false
Boxcar width: 0
XAxis mode: Wavelengths
Number of Pixels in Spectrum: 3648
>>>>>Begin Spectral Data<<<<<
178.204	-118.27
178.424	-118.27
178.644	-118.27
178.864	-181.76
179.084	-159.23
179.304	-15.87
179.524	-19.97
179.744	-40.45
179.964	-17.92
180.184	-26.11
180.404	29.18
180.624	45.57
180.844	53.76
181.064	4.61
181.283	12.8
181.503	-32.26
181.723	6.66
181.943	-19.97
182.163	109.05
182.383	-36.35
182.602	96.77
182.822	18.94
183.042	37.38
183.262	29.18
183.482	113.15
183.701	-48.64
183.921	-24.06
184.141	-32.26
184.361	119.29
184.58	33.28
184.8	43.52
185.02	-9.73
185.239	4.61
185.459	-15.87
185.679	96.77
185.898	10.75
186.118	78.33
186.338	4.61
186.557	8.7
186.777	-11.78
186.997	12.8
187.216	84.48
187.436	70.14
187.655	-28.16
187.875	80.38
188.095	64
188.314	55.81
188.534	49.66
188.753	59.9
188.973	64
189.192	53.76
189.412	-7.68
189.631	74.24
189.851	37.38
190.07	86.53
190.29	-9.73
190.509	-42.5
190.729	88.57
190.948	115.2
191.168	147.97
191.387	45.57
191.607	-19.97
191.826	64
192.045	47.62
192.265	41.47
192.484	6.66
192.704	-17.92
192.923	23.04
193.142	94.72
193.362	25.09
193.581	53.76
193.8	102.91
194.02	6.66
194.239	-9.73
194.458	49.66
194.678	0.51
194.897	90.62
195.116	10.75
195.335	10.75
195.555	70.14
195.774	-28.16
195.993	72.19
196.212	96.77
196.432	68.09
196.651	39.42
196.87	-48.64
197.089	111.1
197.308	16.9
197.528	10.75
197.747	-11.78
197.966	27.14
198.185	66.05
198.404	39.42
198.623	137.73
198.842	88.57
199.062	100.86
199.281	6.66
199.5	-46.59
199.719	70.14
199.938	6.66
200.157	37.38
200.376	23.04
200.595	66.05
200.814	29.18
201.033	55.81
201.252	20.99
201.471	59.9
201.69	27.14
201.909	111.1
202.128	12.8
202.347	41.47
202.566	96.77
202.785	64
203.004	12.8
203.223	98.81
203.442	57.86
203.661	-13.82
203.879	29.18
204.098	104.96
204.317	-34.3
204.536	61.95
204.755	-17.92
204.974	16.9
205.193	96.77
205.411	104.96
205.63	29.18
205.849	59.9
206.068	55.81
206.287	47.62
206.505	72.19
206.724	55.81
206.943	39.42
207.162	14.85
207.381	127.49
207.599	66.05
207.818	14.85
208.037	78.33
208.255	49.66
208.474	14.85
208.693	107.01
208.911	82.43
209.13	66.05
209.349	4.61
209.567	86.53
209.786	41.47
210.005	47.62
210.223	80.38
210.442	49.66
210.661	31.23
210.879	-36.35
211.098	119.29
211.316	45.57
211.535	41.47
211.753	23.04
211.972	53.76
212.191	90.62
212.409	94.72
212.628	25.09
212.846	29.18
213.065	23.04
213.283	92.67
213.502	6.66
213.72	37.38
213.938	16.9
214.157	31.23
214.375	113.15
214.594	72.19
214.812	80.38
215.031	45.57
215.249	23.04
215.467	49.66
215.686	6.66
215.904	37.38
216.122	74.24
216.341	115.2
216.559	111.1
216.778	80.38
216.996	74.24
217.214	45.57
217.432	0.51
217.651	31.23
217.869	43.52
218.087	39.42
218.306	-44.54
218.524	80.38
218.742	29.18
218.96	70.14
219.179	-56.83
219.397	74.24
219.615	107.01
219.833	-7.68
220.051	31.23
220.27	49.66
220.488	66.05
220.706	100.86
220.924	61.95
221.142	61.95
221.36	-15.87
221.578	53.76
221.796	98.81
222.015	57.86
222.233	80.38
222.451	72.19
222.669	6.66
222.887	33.28
223.105	20.99
223.323	49.66
223.541	29.18
223.759	51.71
223.977	14.85
224.195	92.67
224.413	10.75
224.631	37.38
224.849	49.66
225.067	72.19
225.285	-1.54
225.503	-42.5
225.721	-36.35
225.939	37.38
226.157	14.85
226.375	90.62
226.592	16.9
226.81	47.62
227.028	66.05
227.246	20.99
227.464	115.2
227.682	45.57
227.9	72.19
228.117	45.57
228.335	47.62
228.553	72.19
228.771	78.33
228.989	143.87
229.206	59.9
229.424	72.19
229.642	55.81
229.86	-26.11
230.077	31.23
230.295	78.33
230.513	55.81
230.731	-11.78
230.948	98.81
231.166	64
231.384	-1.54
231.601	53.76
231.819	29.18
232.037	78.33
232.254	8.7
232.472	-40.45
232.689	-32.26
232.907	145.92
233.125	-28.16
233.342	49.66
233.56	20.99
233.777	-32.26
233.995	78.33
234.213	29.18
234.43	-1.54
234.648	88.57
234.865	49.66
235.083	90.62
235.3	96.77
235.518	86.53
235.735	53.76
235.953	31.23
236.17	-24.06
236.388	47.62
236.605	31.23
236.822	27.14
237.04	115.2
237.257	-1.54
237.475	53.76
237.692	29.18
237.909	-7.68
238.127	74.24
238.344	-9.73
238.562	29.18
238.779	78.33
238.996	23.04
239.214	37.38
239.431	66.05
239.648	-17.92
239.865	104.96
240.083	20.99
240.3	47.62
240.517	64
240.735	76.29
240.952	6.66
241.169	27.14
241.386	-30.21
241.603	123.39
241.821	86.53
242.038	119.29
242.255	86.53
242.472	-24.06
242.689	117.25
242.907	20.99
243.124	45.57
243.341	57.86
243.558	78.33
243.775	12.8
243.992	18.94
244.209	70.14
244.426	131.58
244.643	35.33
244.86	72.19
245.078	18.94
245.295	39.42
245.512	61.95
245.729	31.23
245.946	57.86
246.163	45.57
246.38	43.52
246.597	53.76
246.814	39.42
247.031	90.62
247.248	90.62
247.464	72.19
247.681	64
247.898	94.72
248.115	119.29
248.332	57.86
248.549	78.33
248.766	55.81
248.983	55.81
249.2	92.67
249.417	39.42
249.633	16.9
249.85	37.38
250.067	14.85
250.284	51.71
250.501	70.14
250.717	82.43
250.934	12.8
251.151	55.81
251.368	-3.58
251.585	45.57
251.801	29.18
252.018	-42.5
252.235	6.66
252.451	25.09
252.668	33.28
252.885	70.14
253.102	84.48
253.318	80.38
253.535	64
253.752	14.85
253.968	37.38
254.185	37.38
254.401	35.33
254.618	80.38
254.835	78.33
255.051	76.29
255.268	88.57
255.484	43.52
255.701	31.23
255.917	84.48
256.134	12.8
256.351	39.42
256.567	-60.93
256.784	33.28
257	-13.82
257.217	37.38
257.433	12.8
257.65	8.7
257.866	4.61
258.082	20.99
258.299	25.09
258.515	-1.54
258.732	55.81
258.948	-67.07
259.165	39.42
259.381	25.09
259.597	84.48
259.814	29.18
260.03	39.42
260.246	41.47
260.463	14.85
260.679	72.19
260.895	113.15
261.112	127.49
261.328	35.33
261.544	6.66
261.761	45.57
261.977	78.33
262.193	-5.63
262.409	145.92
262.626	70.14
262.842	119.29
263.058	80.38
263.274	6.66
263.49	96.77
263.707	78.33
263.923	35.33
264.139	78.33
264.355	66.05
264.571	88.57
264.787	16.9
265.004	53.76
265.22	88.57
265.436	55.81
265.652	16.9
265.868	49.66
266.084	-32.26
266.3	12.8
266.516	0.51
266.732	160.25
266.948	41.47
267.164	135.68
267.38	29.18
267.596	55.81
267.812	2.56
268.028	49.66
268.244	80.38
268.46	61.95
268.676	90.62
268.892	96.77
269.108	82.43
269.324	-32.26
269.54	-91.65
269.756	88.57
269.972	23.04
270.188	68.09
270.403	23.04
270.619	82.43
270.835	14.85
271.051	74.24
271.267	104.96
271.483	35.33
271.698	16.9
271.914	102.91
272.13	74.24
272.346	-3.58
272.562	68.09
272.777	78.33
272.993	-24.06
273.209	39.42
273.425	47.62
273.64	-3.58
273.856	104.96
274.072	-7.68
274.287	-5.63
274.503	76.29
274.719	31.23
274.934	39.42
275.15	14.85
275.366	20.99
275.581	53.76
275.797	98.81
276.012	78.33
276.228	70.14
276.444	72.19
276.659	100.86
276.875	102.91
277.09	6.66
277.306	66.05
277.521	78.33
277.737	16.9
277.952	135.68
278.168	86.53
278.383	68.09
278.599	61.95
278.814	72.19
279.03	57.86
279.245	45.57
279.461	86.53
279.676	37.38
279.892	-19.97
280.107	53.76
280.322	57.86
280.538	76.29
280.753	12.8
280.969	94.72
281.184	37.38
281.399	49.66
281.615	45.57
281.83	70.14
282.045	16.9
282.26	74.24
282.476	31.23
282.691	16.9
282.906	39.42
283.122	119.29
283.337	25.09
283.552	64
283.767	98.81
283.983	51.71
284.198	92.67
284.413	57.86
284.628	-58.88
284.843	113.15
285.058	57.86
285.274	72.19
285.489	8.7
285.704	61.95
285.919	90.62
286.134	31.23
286.349	66.05
286.564	107.01
286.779	78.33
286.995	94.72
287.21	70.14
287.425	35.33
287.64	76.29
287.855	100.86
288.07	16.9
288.285	88.57
288.5	20.99
288.715	61.95
288.93	102.91
289.145	33.28
289.36	68.09
289.575	53.76
289.79	109.05
290.004	51.71
290.219	104.96
290.434	127.49
290.649	72.19
290.864	4.61
291.079	70.14
291.294	107.01
291.509	20.99
291.724	57.86
291.938	90.62
292.153	25.09
292.368	8.7
292.583	20.99
292.798	45.57
293.012	55.81
293.227	23.04
293.442	29.18
293.657	18.94
293.871	102.91
294.086	18.94
294.301	145.92
294.516	74.24
294.73	57.86
294.945	86.53
295.16	-7.68
295.374	47.62
295.589	39.42
295.804	20.99
296.018	64
296.233	41.47
296.447	98.81
296.662	37.38
296.877	102.91
297.091	66.05
297.306	72.19
297.52	57.86
297.735	47.62
297.949	0.51
298.164	88.57
298.378	49.66
298.593	86.53
298.807	49.66
299.022	41.47
299.236	41.47
299.451	111.1
299.665	135.68
299.88	29.18
300.094	-3.58
300.309	86.53
300.523	64
300.737	-65.02
300.952	-32.26
301.166	80.38
301.381	61.95
301.595	45.57
301.809	33.28
302.024	117.25
302.238	41.47
302.452	74.24
302.667	14.85
302.881	53.76
303.095	45.57
303.309	61.95
303.524	8.7
303.738	74.24
303.952	35.33
304.166	12.8
304.381	61.95
304.595	121.34
304.809	86.53
305.023	45.57
305.237	131.58
305.452	31.23
305.666	29.18
305.88	57.86
306.094	96.77
306.308	80.38
306.522	100.86
306.736	88.57
306.95	80.38
307.164	45.57
307.379	119.29
307.593	23.04
307.807	6.66
308.021	129.53
308.235	100.86
308.449	16.9
308.663	53.76
308.877	135.68
309.091	84.48
309.305	94.72
309.519	70.14
309.733	23.04
309.947	-1.54
310.161	94.72
310.374	41.47
310.588	172.54
310.802	39.42
311.016	43.52
311.23	-19.97
311.444	16.9
311.658	37.38
311.872	49.66
312.085	8.7
312.299	74.24
312.513	150.01
312.727	25.09
312.941	20.99
313.154	70.14
313.368	66.05
313.582	31.23
313.796	80.38
314.009	61.95
314.223	96.77
314.437	70.14
314.651	135.68
314.864	39.42
315.078	113.15
315.292	29.18
315.505	-19.97
315.719	16.9
315.933	64
316.146	47.62
316.36	0.51
316.573	70.14
316.787	70.14
317.001	64
317.214	39.42
317.428	20.99
317.641	-22.02
317.855	66.05
318.068	86.53
318.282	31.23
318.495	78.33
318.709	6.66
318.922	4.61
319.136	47.62
319.349	143.87
319.563	39.42
319.776	39.42
319.99	12.8
320.203	82.43
320.417	20.99
320.63	-7.68
320.843	86.53
321.057	78.33
321.27	66.05
321.483	86.53
321.697	70.14
321.91	39.42
322.124	76.29
322.337	53.76
322.55	49.66
322.763	135.68
322.977	35.33
323.19	23.04
323.403	68.09
323.617	121.34
323.83	70.14
324.043	8.7
324.256	98.81
324.469	-3.58
324.683	53.76
324.896	-11.78
325.109	29.18
325.322	45.57
325.535	57.86
325.748	96.77
325.962	117.25
326.175	55.81
326.388	160.25
326.601	94.72
326.814	29.18
327.027	74.24
327.24	98.81
327.453	0.51
327.666	37.38
327.879	80.38
328.092	57.86
328.305	111.1
328.518	66.05
328.731	16.9
328.944	121.34
329.157	102.91
329.37	-3.58
329.583	94.72
329.796	47.62
330.009	49.66
330.222	72.19
330.435	82.43
330.648	8.7
330.861	8.7
331.073	47.62
331.286	-42.5
331.499	37.38
331.712	39.42
331.925	98.81
332.138	68.09
332.35	135.68
332.563	43.52
332.776	51.71
332.989	12.8
333.202	80.38
333.414	43.52
333.627	31.23
333.84	8.7
334.053	20.99
334.265	80.38
334.478	86.53
334.691	29.18
334.903	72.19
335.116	66.05
335.329	8.7
335.541	102.91
335.754	152.06
335.966	72.19
336.179	29.18
336.392	61.95
336.604	70.14
336.817	125.44
337.029	102.91
337.242	104.96
337.454	96.77
337.667	49.66
337.88	61.95
338.092	47.62
338.305	119.29
338.517	49.66
338.729	88.57
338.942	49.66
339.154	70.14
339.367	123.39
339.579	55.81
339.792	29.18
340.004	156.16
340.217	90.62
340.429	51.71
340.641	57.86
340.854	47.62
341.066	111.1
341.278	88.57
341.491	76.29
341.703	53.76
341.915	33.28
342.128	70.14
342.34	72.19
342.552	53.76
342.764	-9.73
342.977	64
343.189	41.47
343.401	129.53
343.613	37.38
343.826	20.99
344.038	53.76
344.25	70.14
344.462	31.23
344.674	135.68
344.886	12.8
345.099	64
345.311	80.38
345.523	29.18
345.735	31.23
345.947	96.77
346.159	37.38
346.371	119.29
346.583	154.11
346.795	145.92
347.007	43.52
347.219	78.33
347.431	121.34
347.643	88.57
347.855	90.62
348.067	84.48
348.279	37.38
348.491	102.91
348.703	57.86
348.915	96.77
349.127	20.99
349.339	39.42
349.551	4.61
349.763	160.25
349.975	37.38
350.187	109.05
350.399	92.67
350.61	113.15
350.822	59.9
351.034	88.57
351.246	88.57
351.458	31.23
351.669	33.28
351.881	139.77
352.093	45.57
352.305	29.18
352.517	29.18
352.728	68.09
352.94	94.72
353.152	107.01
353.363	8.7
353.575	37.38
353.787	86.53
353.999	102.91
354.21	53.76
354.422	68.09
354.633	88.57
354.845	88.57
355.057	156.16
355.268	96.77
355.48	78.33
355.692	41.47
355.903	74.24
356.115	98.81
356.326	37.38
356.538	96.77
356.749	78.33
356.961	70.14
357.172	37.38
357.384	29.18
357.595	68.09
357.807	61.95
358.018	88.57
358.23	47.62
358.441	82.43
358.653	53.76
358.864	98.81
359.075	27.14
359.287	70.14
359.498	47.62
359.709	78.33
359.921	31.23
360.132	41.47
360.344	45.57
360.555	78.33
360.766	94.72
360.977	70.14
361.189	107.01
361.4	96.77
361.611	98.81
361.823	92.67
362.034	94.72
362.245	64
362.456	88.57
362.667	61.95
362.879	96.77
363.09	68.09
363.301	80.38
363.512	80.38
363.723	45.57
363.935	35.33
364.146	102.91
364.357	78.33
364.568	102.91
364.779	10.75
364.99	57.86
365.201	125.44
365.412	109.05
365.623	-7.68
365.834	94.72
366.045	133.63
366.256	109.05
366.467	137.73
366.678	57.86
366.889	20.99
367.1	33.28
367.311	135.68
367.522	45.57
367.733	139.77
367.944	55.81
368.155	37.38
368.366	78.33
368.577	8.7
368.788	29.18
368.999	-24.06
369.209	107.01
369.42	88.57
369.631	70.14
369.842	-1.54
370.053	90.62
370.264	131.58
370.474	121.34
370.685	139.77
370.896	49.66
371.107	43.52
371.317	96.77
371.528	53.76
371.739	86.53
371.95	152.06
372.16	61.95
372.371	80.38
372.582	55.81
372.792	74.24
373.003	64
373.214	107.01
373.424	70.14
373.635	57.86
373.846	111.1
374.056	82.43
374.267	68.09
374.477	12.8
374.688	57.86
374.898	57.86
375.109	131.58
375.319	47.62
375.53	20.99
375.74	76.29
375.951	119.29
376.161	4.61
376.372	94.72
376.582	47.62
376.793	35.33
377.003	74.24
377.214	64
377.424	61.95
377.635	94.72
377.845	18.94
378.055	70.14
378.266	78.33
378.476	127.49
378.686	72.19
378.897	131.58
379.107	23.04
379.317	45.57
379.528	37.38
379.738	131.58
379.948	61.95
380.158	49.66
380.369	94.72
380.579	145.92
380.789	100.86
380.999	125.44
381.21	141.82
381.42	86.53
381.63	12.8
381.84	98.81
382.05	61.95
382.261	86.53
382.471	90.62
382.681	51.71
382.891	137.73
383.101	78.33
383.311	33.28
383.521	147.97
383.731	127.49
383.941	147.97
384.151	37.38
384.361	59.9
384.571	47.62
384.781	53.76
384.991	86.53
385.201	121.34
385.411	133.63
385.621	70.14
385.831	16.9
386.041	121.34
386.251	88.57
386.461	127.49
386.671	115.2
386.881	78.33
387.091	37.38
387.301	117.25
387.511	80.38
387.72	64
387.93	70.14
388.14	-9.73
388.35	133.63
388.56	45.57
388.769	168.45
388.979	29.18
389.189	51.71
389.399	176.64
389.609	-1.54
389.818	109.05
390.028	133.63
390.238	29.18
390.447	90.62
390.657	8.7
390.867	29.18
391.076	37.38
391.286	51.71
391.496	27.14
391.705	88.57
391.915	45.57
392.125	119.29
392.334	127.49
392.544	160.25
392.753	135.68
392.963	143.87
393.172	104.96
393.382	72.19
393.591	141.82
393.801	86.53
394.01	139.77
394.22	41.47
394.429	45.57
394.639	47.62
394.848	64
395.058	90.62
395.267	100.86
395.477	135.68
395.686	45.57
395.895	125.44
396.105	164.35
396.314	29.18
396.524	113.15
396.733	84.48
396.942	82.43
397.152	94.72
397.361	72.19
397.57	152.06
397.78	70.14
397.989	184.83
398.198	154.11
398.407	168.45
398.617	127.49
398.826	111.1
399.035	70.14
399.244	64
399.453	57.86
399.663	33.28
399.872	111.1
400.081	84.48
400.29	211.45
400.499	41.47
400.708	139.77
400.917	178.69
401.127	86.53
401.336	174.59
401.545	190.97
401.754	119.29
401.963	160.25
402.172	111.1
402.381	82.43
402.59	137.73
402.799	170.49
403.008	121.34
403.217	162.3
403.426	107.01
403.635	147.97
403.844	127.49
404.053	147.97
404.262	90.62
404.471	242.17
404.68	102.91
404.888	180.73
405.097	145.92
405.306	182.78
405.515	217.6
405.724	154.11
405.933	207.36
406.142	178.69
406.35	127.49
406.559	201.21
406.768	299.52
406.977	145.92
407.185	236.03
407.394	219.64
407.603	160.25
407.812	252.41
408.02	276.99
408.229	227.84
408.438	246.27
408.646	211.45
408.855	287.23
409.064	307.71
409.272	274.94
409.481	303.61
409.69	365.05
409.898	289.28
410.107	334.33
410.315	332.28
410.524	385.53
410.733	334.33
410.941	317.95
411.15	311.8
411.358	385.53
411.567	383.48
411.775	356.86
411.984	475.64
412.192	449.02
412.401	469.5
412.609	473.59
412.818	549.37
413.026	479.74
413.234	520.7
413.443	524.79
413.651	512.5
413.86	594.42
414.068	610.81
414.276	659.96
414.485	604.66
414.693	686.58
414.901	774.64
415.11	643.57
415.318	729.59
415.526	700.92
415.734	782.84
415.943	825.84
416.151	809.46
416.359	758.26
416.567	831.99
416.776	860.66
416.984	928.24
417.192	1008.11
417.4	1047.02
417.608	985.58
417.817	1024.5
418.025	1102.32
418.233	1182.19
418.441	1055.22
418.649	1194.48
418.857	1294.83
419.065	1382.89
419.273	1219.05
419.481	1319.4
419.689	1473
419.897	1511.91
420.105	1436.14
420.313	1520.1
420.521	1692.13
420.729	1604.07
420.937	1702.37
421.145	1782.24
421.353	1808.87
421.561	2054.62
421.769	1905.12
421.977	2228.7
422.185	1966.56
422.393	2249.18
422.601	2200.03
422.809	2224.61
423.017	2273.76
423.224	2378.2
423.432	2494.94
423.64	2445.79
423.848	2681.3
424.056	2585.05
424.263	2920.92
424.471	2937.3
424.679	2873.81
424.887	3015.12
425.094	3174.86
425.302	3273.17
425.51	3299.79
425.718	3350.99
425.925	3439.05
426.133	3543.5
426.341	3666.38
426.548	3969.48
426.756	4004.29
426.964	4012.48
427.171	4190.66
427.379	4282.81
427.586	4329.92
427.794	4569.53
428.001	4714.94
428.209	4882.87
428.417	4727.22
428.624	5110.19
428.832	5210.54
429.039	5134.77
429.247	5147.06
429.454	5599.66
429.662	5908.9
429.869	5673.39
430.076	5992.87
430.284	5919.14
430.491	6078.88
430.699	6570.4
430.906	6412.7
431.114	6439.33
431.321	6709.66
431.528	6922.65
431.736	7272.85
431.943	7688.59
432.15	7258.51
432.358	7516.56
432.565	7768.46
432.772	7729.55
432.979	8354.18
433.187	8475.01
433.394	8423.81
433.601	8991.09
433.808	9159.03
434.016	8919.42
434.223	9580.91
434.43	10039.65
434.637	9720.17
434.844	10314.08
435.052	10502.5
435.259	10346.85
435.466	10570.08
435.673	10479.97
435.88	11172.18
436.087	11727.18
436.294	11680.08
436.501	11471.18
436.708	11698.51
436.915	12144.97
437.122	12761.41
437.329	12726.59
437.537	12970.3
437.743	13175.09
437.95	12888.38
438.157	13642.03
438.364	14219.56
438.571	14410.02
438.778	14432.55
438.985	15520.02
439.192	14881.05
439.399	15548.69
439.606	15182.1
439.813	15966.48
440.02	17146.11
440.227	16507.14
440.433	16560.39
440.64	16941.31
440.847	17199.35
441.054	17420.53
441.261	18858.21
441.467	18264.3
441.674	18655.46
441.881	19515.61
442.088	19198.17
442.294	19255.51
442.501	19599.57
442.708	20066.51
442.914	20791.49
443.121	21694.64
443.328	21129.41
443.534	22595.75
443.741	21864.63
443.948	21502.14
444.154	23177.37
444.361	23419.03
444.568	23353.5
444.774	23349.4
444.981	23476.38
445.187	24402.06
445.394	25231.49
445.6	24901.76
445.807	27463.77
446.013	26128.5
446.22	26849.38
446.426	27926.61
446.633	28350.54
446.839	29165.63
447.046	28022.87
447.252	29599.8
447.459	29562.94
447.665	29282.37
447.871	31090.73
448.078	32366.61
448.284	30670.89
448.491	31281.19
448.697	32890.89
448.903	33419.27
449.11	33714.17
449.316	33073.16
449.522	33470.47
449.728	34619.38
449.935	34924.52
450.141	34947.05
450.347	35569.63
450.553	34547.7
450.76	34955.24
450.966	36423.64
451.172	35745.76
451.378	36784.08
451.584	35817.44
451.791	36691.92
451.997	37066.7
452.203	37713.86
452.409	37533.64
452.615	37615.55
452.821	36026.33
453.027	35647.46
453.233	37748.67
453.44	36403.16
453.646	36489.17
453.852	36962.25
454.058	37693.38
454.264	36335.57
454.47	37095.37
454.676	36450.26
454.882	37666.75
455.088	34590.7
455.294	35209.19
455.5	35780.57
455.705	36106.2
455.911	34154.49
456.117	33857.53
456.323	33640.45
456.529	31848.47
456.735	33277.96
456.941	32382.99
457.147	31858.71
457.352	30943.27
457.558	31057.96
457.764	30625.84
457.97	30195.76
458.176	29538.37
458.381	29614.14
458.587	28119.12
458.793	28485.71
458.999	26771.56
459.204	28598.35
459.41	28117.07
459.616	26374.25
459.821	26370.16
460.027	26046.58
460.233	25440.38
460.438	24293.52
460.644	24668.3
460.85	23660.69
461.055	23089.31
461.261	23298.2
461.466	21512.38
461.672	20449.48
461.878	22292.65
462.083	20740.29
462.289	20269.26
462.494	20320.46
462.7	19613.91
462.905	18987.23
463.111	19450.07
463.316	19605.72
463.522	19065.05
463.727	19097.82
463.932	19235.03
464.138	18778.34
464.343	18927.84
464.549	18438.37
464.754	19278.04
464.959	18940.13
465.165	19063.01
465.37	18039.02
465.575	17742.07
465.781	18383.08
465.986	18331.88
466.191	17838.32
466.397	17545.46
466.602	16644.35
466.807	17185.02
467.012	17381.62
467.218	16990.46
467.423	17037.56
