Data from USB4F104151__195__14-45-14-231.txt Node

Date: Thu Mar 13 14:45:14 EDT 2025
User: louis
Spectrometer: USB4F10415
Trigger mode: 4
Integration Time (sec): 2.000000E-2
Scans to average: 1
Electric dark correction enabled: true
Nonlinearity correction enabled: false
Boxcar width: 0
XAxis mode: Wavelengths
Number of Pixels in Spectrum: 3648
>>>>>Begin Spectral Data<<<<<
178.204	-72.53
178.424	-72.53
178.644	-72.53
178.864	-131.92
179.084	-105.3
179.304	25.77
179.524	-7
179.744	33.96
179.964	27.82
180.184	42.15
180.404	-9.05
180.624	-80.72
180.844	7.34
181.064	-25.43
181.283	13.48
181.503	-60.24
181.723	31.91
181.943	23.72
182.163	119.98
182.383	27.82
182.602	42.15
182.822	44.2
183.042	-9.05
183.262	23.72
183.482	62.63
183.701	-80.72
183.921	-0.85
184.141	23.72
184.361	81.07
184.58	15.53
184.8	48.3
185.02	36.01
185.239	44.2
185.459	58.54
185.679	25.77
185.898	-15.19
186.118	72.87
186.338	13.48
186.557	48.3
186.777	3.24
186.997	29.87
187.216	1.19
187.436	85.16
187.655	56.49
187.875	9.39
188.095	3.24
188.314	150.7
188.534	81.07
188.753	-7
188.973	-17.24
189.192	31.91
189.412	95.4
189.631	33.96
189.851	25.77
190.07	40.11
190.29	-35.67
190.509	23.72
190.729	33.96
190.948	89.26
191.168	142.5
191.387	31.91
191.607	3.24
191.826	64.68
192.045	52.39
192.265	31.91
192.484	15.53
192.704	83.11
192.923	72.87
193.142	68.78
193.362	68.78
193.581	42.15
193.8	23.72
194.02	-43.86
194.239	-4.95
194.458	113.83
194.678	89.26
194.897	23.72
195.116	46.25
195.335	48.3
195.555	64.68
195.774	-47.96
195.993	11.43
196.212	40.11
196.432	19.63
196.651	23.72
196.87	5.29
197.089	134.31
197.308	5.29
197.528	-0.85
197.747	33.96
197.966	25.77
198.185	128.17
198.404	17.58
198.623	23.72
198.842	64.68
199.062	56.49
199.281	56.49
199.5	33.96
199.719	-13.14
199.938	33.96
200.157	64.68
200.376	72.87
200.595	23.72
200.814	38.06
201.033	1.19
201.252	81.07
201.471	33.96
201.69	19.63
201.909	11.43
202.128	64.68
202.347	52.39
202.566	87.21
202.785	58.54
203.004	50.35
203.223	52.39
203.442	48.3
203.661	56.49
203.879	25.77
204.098	48.3
204.317	33.96
204.536	109.74
204.755	40.11
204.974	56.49
205.193	9.39
205.411	72.87
205.63	68.78
205.849	89.26
206.068	60.59
206.287	-23.38
206.505	52.39
206.724	25.77
206.943	21.67
207.162	1.19
207.381	93.35
207.599	-37.72
207.818	23.72
208.037	27.82
208.255	122.02
208.474	105.64
208.693	-9.05
208.911	56.49
209.13	25.77
209.349	15.53
209.567	-7
209.786	42.15
210.005	97.45
210.223	52.39
210.442	19.63
210.661	113.83
210.879	42.15
211.098	99.5
211.316	56.49
211.535	74.92
211.753	-47.96
211.972	15.53
212.191	-17.24
212.409	23.72
212.628	-23.38
212.846	-0.85
213.065	44.2
213.283	48.3
213.502	23.72
213.72	130.22
213.938	56.49
214.157	74.92
214.375	17.58
214.594	17.58
214.812	17.58
215.031	-4.95
215.249	-66.39
215.467	64.68
215.686	17.58
215.904	60.59
216.122	25.77
216.341	91.31
216.559	48.3
216.778	15.53
216.996	40.11
217.214	50.35
217.432	50.35
217.651	-41.81
217.869	44.2
218.087	-9.05
218.306	13.48
218.524	50.35
218.742	11.43
218.96	23.72
219.179	-27.48
219.397	-0.85
219.615	31.91
219.833	89.26
220.051	15.53
220.27	64.68
220.488	3.24
220.706	52.39
220.924	-4.95
221.142	40.11
221.36	60.59
221.578	-64.34
221.796	-4.95
222.015	23.72
222.233	64.68
222.451	11.43
222.669	44.2
222.887	58.54
223.105	9.39
223.323	7.34
223.541	27.82
223.759	36.01
223.977	60.59
224.195	72.87
224.413	17.58
224.631	48.3
224.849	72.87
225.067	25.77
225.285	-7
225.503	-15.19
225.721	9.39
225.939	17.58
226.157	44.2
226.375	42.15
226.592	-21.33
226.81	40.11
227.028	72.87
227.246	27.82
227.464	79.02
227.682	31.91
227.9	44.2
228.117	5.29
228.335	33.96
228.553	60.59
228.771	-23.38
228.989	113.83
229.206	19.63
229.424	-25.43
229.642	31.91
229.86	21.67
230.077	-4.95
230.295	38.06
230.513	58.54
230.731	38.06
230.948	97.45
231.166	128.17
231.384	-54.1
231.601	15.53
231.819	52.39
232.037	31.91
232.254	23.72
232.472	89.26
232.689	-23.38
232.907	7.34
233.125	-23.38
233.342	7.34
233.56	-13.14
233.777	31.91
233.995	-54.1
234.213	89.26
234.43	40.11
234.648	66.73
234.865	13.48
235.083	72.87
235.3	7.34
235.518	1.19
235.735	33.96
235.953	-13.14
236.17	33.96
236.388	56.49
236.605	7.34
236.822	11.43
237.04	62.63
237.257	66.73
237.475	-4.95
237.692	-41.81
237.909	81.07
238.127	42.15
238.344	15.53
238.562	23.72
238.779	36.01
238.996	-23.38
239.214	46.25
239.431	7.34
239.648	-4.95
239.865	-17.24
240.083	76.97
240.3	31.91
240.517	11.43
240.735	23.72
240.952	99.5
241.169	48.3
241.386	50.35
241.603	-33.62
241.821	-17.24
242.038	97.45
242.255	9.39
242.472	27.82
242.689	-4.95
242.907	76.97
243.124	52.39
243.341	11.43
243.558	15.53
243.775	42.15
243.992	-33.62
244.209	76.97
244.426	66.73
244.643	-4.95
244.86	66.73
245.078	89.26
245.295	23.72
245.512	-31.57
245.729	11.43
245.946	11.43
246.163	81.07
246.38	76.97
246.597	13.48
246.814	15.53
247.031	31.91
247.248	40.11
247.464	40.11
247.681	50.35
247.898	50.35
248.115	23.72
248.332	97.45
248.549	19.63
248.766	122.02
248.983	91.31
249.2	23.72
249.417	72.87
249.633	42.15
249.85	91.31
250.067	72.87
250.284	23.72
250.501	27.82
250.717	52.39
250.934	-21.33
251.151	25.77
251.368	23.72
251.585	17.58
251.801	1.19
252.018	-9.05
252.235	99.5
252.451	36.01
252.668	-17.24
252.885	54.44
253.102	50.35
253.318	-21.33
253.535	50.35
253.752	15.53
253.968	5.29
254.185	81.07
254.401	5.29
254.618	40.11
254.835	36.01
255.051	15.53
255.268	7.34
255.484	-9.05
255.701	64.68
255.917	15.53
256.134	42.15
256.351	7.34
256.567	-7
256.784	74.92
257	-19.29
257.217	81.07
257.433	76.97
257.65	74.92
257.866	23.72
258.082	11.43
258.299	33.96
258.515	44.2
258.732	7.34
258.948	93.35
259.165	13.48
259.381	83.11
259.597	-13.14
259.814	15.53
260.03	27.82
260.246	42.15
260.463	72.87
260.679	52.39
260.895	58.54
261.112	68.78
261.328	-25.43
261.544	46.25
261.761	23.72
261.977	19.63
262.193	-15.19
262.409	62.63
262.626	124.07
262.842	15.53
263.058	52.39
263.274	-29.52
263.49	146.6
263.707	33.96
263.923	72.87
264.139	46.25
264.355	44.2
264.571	9.39
264.787	-62.29
265.004	-0.85
265.22	56.49
265.436	1.19
265.652	27.82
265.868	60.59
266.084	25.77
266.3	7.34
266.516	60.59
266.732	81.07
266.948	83.11
267.164	52.39
267.38	38.06
267.596	42.15
267.812	17.58
268.028	11.43
268.244	-9.05
268.46	-50
268.676	-7
268.892	109.74
269.108	58.54
269.324	11.43
269.54	-27.48
269.756	101.55
269.972	-25.43
270.188	91.31
270.403	-25.43
270.619	97.45
270.835	85.16
271.051	33.96
271.267	-39.76
271.483	9.39
271.698	122.02
271.914	48.3
272.13	-21.33
272.346	-23.38
272.562	70.83
272.777	91.31
272.993	-2.9
273.209	-4.95
273.425	109.74
273.64	40.11
273.856	89.26
274.072	17.58
274.287	72.87
274.503	48.3
274.719	66.73
274.934	93.35
275.15	-4.95
275.366	17.58
275.581	-4.95
275.797	33.96
276.012	66.73
276.228	44.2
276.444	1.19
276.659	31.91
276.875	1.19
277.09	31.91
277.306	58.54
277.521	97.45
277.737	42.15
277.952	89.26
278.168	9.39
278.383	83.11
278.599	17.58
278.814	56.49
279.03	44.2
279.245	48.3
279.461	52.39
279.676	42.15
279.892	9.39
280.107	46.25
280.322	-29.52
280.538	48.3
280.753	9.39
280.969	42.15
281.184	25.77
281.399	83.11
281.615	15.53
281.83	64.68
282.045	-58.2
282.26	107.69
282.476	-23.38
282.691	83.11
282.906	81.07
283.122	50.35
283.337	19.63
283.552	44.2
283.767	52.39
283.983	91.31
284.198	15.53
284.413	31.91
284.628	81.07
284.843	54.44
285.058	21.67
285.274	31.91
285.489	7.34
285.704	33.96
285.919	60.59
286.134	27.82
286.349	-37.72
286.564	85.16
286.779	93.35
286.995	40.11
287.21	1.19
287.425	103.59
287.64	23.72
287.855	-13.14
288.07	23.72
288.285	64.68
288.5	44.2
288.715	17.58
288.93	64.68
289.145	-0.85
289.36	33.96
289.575	-13.14
289.79	-45.91
290.004	-35.67
290.219	-0.85
290.434	27.82
290.649	31.91
290.864	70.83
291.079	25.77
291.294	117.93
291.509	66.73
291.724	122.02
291.938	-111.44
292.153	33.96
292.368	25.77
292.583	97.45
292.798	42.15
293.012	27.82
293.227	7.34
293.442	29.87
293.657	38.06
293.871	23.72
294.086	-7
294.301	64.68
294.516	-0.85
294.73	19.63
294.945	52.39
295.16	81.07
295.374	7.34
295.589	62.63
295.804	64.68
296.018	17.58
296.233	109.74
296.447	-31.57
296.662	54.44
296.877	1.19
297.091	85.16
297.306	-29.52
297.52	27.82
297.735	23.72
297.949	29.87
298.164	36.01
298.378	85.16
298.593	68.78
298.807	42.15
299.022	23.72
299.236	5.29
299.451	1.19
299.665	7.34
299.88	-4.95
300.094	46.25
300.309	-0.85
300.523	54.44
300.737	3.24
300.952	83.11
301.166	99.5
301.381	11.43
301.595	56.49
301.809	7.34
302.024	48.3
302.238	72.87
302.452	33.96
302.667	54.44
302.881	50.35
303.095	40.11
303.309	17.58
303.524	3.24
303.738	31.91
303.952	36.01
304.166	-25.43
304.381	-23.38
304.595	76.97
304.809	-11.09
305.023	40.11
305.237	7.34
305.452	17.58
305.666	33.96
305.88	50.35
306.094	70.83
306.308	40.11
306.522	42.15
306.736	48.3
306.95	44.2
307.164	33.96
307.379	25.77
307.593	40.11
307.807	81.07
308.021	81.07
308.235	7.34
308.449	-95.06
308.663	50.35
308.877	91.31
309.091	66.73
309.305	81.07
309.519	-7
309.733	66.73
309.947	-33.62
310.161	70.83
310.374	17.58
310.588	132.26
310.802	19.63
311.016	52.39
311.23	7.34
311.444	54.44
311.658	70.83
311.872	60.59
312.085	15.53
312.299	113.83
312.513	72.87
312.727	107.69
312.941	-33.62
313.154	68.78
313.368	38.06
313.582	66.73
313.796	5.29
314.009	15.53
314.223	7.34
314.437	33.96
314.651	50.35
314.864	-9.05
315.078	58.54
315.292	25.77
315.505	52.39
315.719	74.92
315.933	56.49
316.146	93.35
316.36	48.3
316.573	113.83
316.787	46.25
317.001	48.3
317.214	-9.05
317.428	162.98
317.641	60.59
317.855	60.59
318.068	7.34
318.282	48.3
318.495	105.64
318.709	56.49
318.922	72.87
319.136	126.12
319.349	58.54
319.563	-4.95
319.776	52.39
319.99	7.34
320.203	1.19
320.417	23.72
320.63	40.11
320.843	64.68
321.057	15.53
321.27	91.31
321.483	42.15
321.697	74.92
321.91	5.29
322.124	33.96
322.337	48.3
322.55	54.44
322.763	56.49
322.977	7.34
323.19	29.87
323.403	89.26
323.617	50.35
323.83	44.2
324.043	66.73
324.256	66.73
324.469	42.15
324.683	76.97
324.896	132.26
325.109	42.15
325.322	76.97
325.535	11.43
325.748	85.16
325.962	52.39
326.175	87.21
326.388	85.16
326.601	81.07
326.814	17.58
327.027	21.67
327.24	64.68
327.453	40.11
327.666	122.02
327.879	25.77
328.092	27.82
328.305	9.39
328.518	-17.24
328.731	17.58
328.944	56.49
329.157	31.91
329.37	-17.24
329.583	68.78
329.796	-13.14
330.009	-39.76
330.222	140.46
330.435	48.3
330.648	72.87
330.861	60.59
331.073	72.87
331.286	93.35
331.499	25.77
331.712	31.91
331.925	-11.09
332.138	-19.29
332.35	128.17
332.563	42.15
332.776	64.68
332.989	29.87
333.202	15.53
333.414	58.54
333.627	64.68
333.84	81.07
334.053	-0.85
334.265	-9.05
334.478	9.39
334.691	11.43
334.903	56.49
335.116	7.34
335.329	11.43
335.541	50.35
335.754	72.87
335.966	-21.33
336.179	113.83
336.392	11.43
336.604	-0.85
336.817	15.53
337.029	136.36
337.242	29.87
337.454	23.72
337.667	23.72
337.88	60.59
338.092	64.68
338.305	23.72
338.517	3.24
338.729	56.49
338.942	60.59
339.154	31.91
339.367	68.78
339.579	7.34
339.792	11.43
340.004	54.44
340.217	15.53
340.429	-11.09
340.641	44.2
340.854	-9.05
341.066	31.91
341.278	46.25
341.491	74.92
341.703	-9.05
341.915	-7
342.128	7.34
342.34	31.91
342.552	64.68
342.764	87.21
342.977	27.82
343.189	52.39
343.401	72.87
343.613	-33.62
343.826	72.87
344.038	-4.95
344.25	-7
344.462	-33.62
344.674	117.93
344.886	95.4
345.099	64.68
345.311	138.41
345.523	-31.57
345.735	3.24
345.947	-11.09
346.159	-0.85
346.371	-7
346.583	1.19
346.795	68.78
347.007	60.59
347.219	5.29
347.431	70.83
347.643	56.49
347.855	-11.09
348.067	38.06
348.279	23.72
348.491	-31.57
348.703	58.54
348.915	-0.85
349.127	-25.43
349.339	-29.52
349.551	-39.76
349.763	27.82
349.975	40.11
350.187	31.91
350.399	89.26
350.61	81.07
350.822	-41.81
351.034	105.64
351.246	36.01
351.458	33.96
351.669	13.48
351.881	128.17
352.093	9.39
352.305	81.07
352.517	97.45
352.728	1.19
352.94	89.26
353.152	103.59
353.363	-31.57
353.575	124.07
353.787	109.74
353.999	42.15
354.21	42.15
354.422	-39.76
354.633	83.11
354.845	50.35
355.057	68.78
355.268	83.11
355.48	76.97
355.692	-25.43
355.903	48.3
356.115	83.11
356.326	-72.53
356.538	113.83
356.749	79.02
356.961	56.49
357.172	23.72
357.384	7.34
357.595	93.35
357.807	-21.33
358.018	-58.2
358.23	15.53
358.441	103.59
358.653	91.31
358.864	72.87
359.075	-41.81
359.287	48.3
359.498	60.59
359.709	99.5
359.921	95.4
360.132	-39.76
360.344	81.07
360.555	-13.14
360.766	44.2
360.977	117.93
361.189	64.68
361.4	-11.09
361.611	56.49
361.823	11.43
362.034	27.82
362.245	62.63
362.456	93.35
362.667	48.3
362.879	97.45
363.09	89.26
363.301	97.45
363.512	7.34
363.723	64.68
363.935	23.72
364.146	58.54
364.357	52.39
364.568	50.35
364.779	-7
364.99	105.64
365.201	31.91
365.412	66.73
365.623	-21.33
365.834	64.68
366.045	31.91
366.256	-21.33
366.467	105.64
366.678	81.07
366.889	81.07
367.1	17.58
367.311	124.07
367.522	42.15
367.733	9.39
367.944	83.11
368.155	-13.14
368.366	89.26
368.577	29.87
368.788	9.39
368.999	68.78
369.209	17.58
369.42	76.97
369.631	93.35
369.842	9.39
370.053	5.29
370.264	109.74
370.474	-7
370.685	81.07
370.896	52.39
371.107	19.63
371.317	7.34
371.528	7.34
371.739	115.88
371.95	29.87
372.16	31.91
372.371	27.82
372.582	-15.19
372.792	-25.43
373.003	7.34
373.214	38.06
373.424	89.26
373.635	-4.95
373.846	62.63
374.056	-15.19
374.267	40.11
374.477	101.55
374.688	38.06
374.898	81.07
375.109	122.02
375.319	48.3
375.53	105.64
375.74	33.96
375.951	72.87
376.161	31.91
376.372	171.18
376.582	19.63
376.793	95.4
377.003	-45.91
377.214	76.97
377.424	50.35
377.635	-33.62
377.845	33.96
378.055	64.68
378.266	-9.05
378.476	48.3
378.686	-23.38
378.897	52.39
379.107	31.91
379.317	68.78
379.528	99.5
379.738	44.2
379.948	31.91
380.158	56.49
380.369	17.58
380.579	72.87
380.789	29.87
380.999	25.77
381.21	7.34
381.42	83.11
381.63	68.78
381.84	48.3
382.05	56.49
382.261	103.59
382.471	48.3
382.681	83.11
382.891	68.78
383.101	72.87
383.311	-2.9
383.521	7.34
383.731	52.39
383.941	62.63
384.151	29.87
384.361	74.92
384.571	64.68
384.781	-9.05
384.991	107.69
385.201	50.35
385.411	31.91
385.621	9.39
385.831	50.35
386.041	97.45
386.251	101.55
386.461	70.83
386.671	-17.24
386.881	95.4
387.091	-9.05
387.301	87.21
387.511	64.68
387.72	52.39
387.93	23.72
388.14	91.31
388.35	27.82
388.56	74.92
388.769	152.74
388.979	95.4
389.189	11.43
389.399	97.45
389.609	36.01
389.818	44.2
390.028	87.21
390.238	85.16
390.447	-0.85
390.657	27.82
390.867	72.87
391.076	19.63
391.286	17.58
391.496	111.78
391.705	91.31
391.915	156.84
392.125	85.16
392.334	15.53
392.544	3.24
392.753	81.07
392.963	109.74
393.172	23.72
393.382	25.77
393.591	101.55
393.801	52.39
394.01	126.12
394.22	64.68
394.429	101.55
394.639	3.24
394.848	93.35
395.058	95.4
395.267	-0.85
395.477	31.91
395.686	72.87
395.895	107.69
396.105	105.64
396.314	64.68
396.524	122.02
396.733	5.29
396.942	162.98
397.152	50.35
397.361	89.26
397.57	72.87
397.78	89.26
397.989	15.53
398.198	103.59
398.407	124.07
398.617	189.61
398.826	91.31
399.035	33.96
399.244	23.72
399.453	64.68
399.663	148.65
399.872	97.45
400.081	70.83
400.29	89.26
400.499	107.69
400.708	99.5
400.917	162.98
401.127	40.11
401.336	117.93
401.545	185.51
401.754	83.11
401.963	142.5
402.172	103.59
402.381	97.45
402.59	99.5
402.799	52.39
403.008	113.83
403.217	89.26
403.426	93.35
403.635	64.68
403.844	56.49
404.053	54.44
404.262	44.2
404.471	122.02
404.68	122.02
404.888	150.7
405.097	160.94
405.306	140.46
405.515	154.79
405.724	95.4
405.933	109.74
406.142	87.21
406.35	154.79
406.559	93.35
406.768	99.5
406.977	195.75
407.185	191.66
407.394	122.02
407.603	146.6
407.812	171.18
408.02	222.38
408.229	148.65
408.438	191.66
408.646	191.66
408.855	199.85
409.064	132.26
409.272	175.27
409.481	263.33
409.69	212.14
409.898	228.52
410.107	173.22
410.315	343.21
410.524	253.09
410.733	310.44
410.941	271.53
411.15	255.14
411.358	310.44
411.567	246.95
411.775	285.86
411.984	259.24
412.192	265.38
412.401	343.21
412.609	332.97
412.818	373.92
413.026	351.4
413.234	375.97
413.443	394.4
413.651	318.63
413.86	453.8
414.068	478.37
414.276	482.47
414.485	394.4
414.693	504.99
414.901	558.24
415.11	457.89
415.318	527.52
415.526	466.08
415.734	523.43
415.943	629.92
416.151	629.92
416.359	533.67
416.567	691.36
416.776	703.65
416.984	720.03
417.192	695.46
417.4	711.84
417.608	658.59
417.817	728.22
418.025	748.7
418.233	894.11
418.441	808.09
418.649	892.06
418.857	885.92
419.065	900.25
419.273	959.64
419.481	916.64
419.689	982.17
419.897	1006.75
420.105	1146.01
420.313	1131.67
420.521	1258.65
420.729	1295.51
420.937	1141.91
421.145	1242.26
421.353	1289.37
421.561	1379.48
421.769	1457.3
421.977	1434.77
422.185	1502.36
422.393	1563.79
422.601	1664.15
422.809	1705.1
423.017	1574.03
423.224	1694.86
423.432	1784.98
423.64	1825.93
423.848	1961.1
424.056	1868.94
424.263	2065.55
424.471	2030.73
424.679	2110.6
424.887	2219.14
425.094	2268.3
425.302	2288.78
425.51	2382.98
425.718	2309.26
425.925	2518.15
426.133	2460.81
426.341	2731.14
426.548	2765.95
426.756	2673.79
426.964	2825.34
427.171	2954.37
427.379	3132.54
427.586	3060.86
427.794	3308.66
428.001	3290.23
428.209	3523.7
428.417	3468.41
428.624	3576.95
428.832	3748.98
429.039	3632.24
429.247	3652.72
429.454	4090.99
429.662	4351.08
429.869	4002.93
430.076	4211.82
430.284	4121.71
430.491	4426.86
430.699	4660.32
430.906	4662.37
431.114	4521.06
431.321	4828.26
431.528	4934.75
431.736	5209.18
431.943	5481.56
432.15	5287
432.358	5366.87
432.565	5524.57
432.772	5651.54
432.979	5770.32
433.187	5854.29
433.394	5977.17
433.601	6292.55
433.808	6423.62
434.016	6319.18
434.223	6765.64
434.43	7042.11
434.637	6839.36
434.844	7423.03
435.052	7500.86
435.259	7396.41
435.466	7586.87
435.673	7359.55
435.88	7945.27
436.087	8313.9
436.294	8371.24
436.501	8201.26
436.708	8217.65
436.915	8586.28
437.122	9124.9
437.329	8813.6
437.537	9215.01
437.743	9387.04
437.95	9399.32
438.157	9686.04
438.364	9937.94
438.571	9968.66
438.778	10075.15
438.985	11090.95
439.192	10607.62
439.399	11033.6
439.606	10771.46
439.813	11191.3
440.02	11926.52
440.227	11627.51
440.433	11736.06
440.64	12133.36
440.847	12116.98
441.054	12207.09
441.261	13097.95
441.467	12907.49
441.674	13286.37
441.881	13609.95
442.088	13562.84
442.294	13532.12
442.501	13665.24
442.708	14074.84
442.914	14619.6
443.121	15252.42
443.328	15014.85
443.534	15893.43
443.741	15397.82
443.948	15236.03
444.154	16348.08
444.361	16317.36
444.568	16167.86
444.774	16366.51
444.981	16436.14
445.187	17005.48
445.394	17689.5
445.6	17662.88
445.807	19059.59
446.013	18291.6
446.22	18725.77
446.426	19518.34
446.633	19686.27
446.839	20331.38
447.046	19475.33
447.252	20216.69
447.459	20466.55
447.665	20415.35
447.871	21384.04
448.078	22149.98
448.284	21291.88
448.491	21859.17
448.697	22827.85
448.903	22821.71
449.11	23214.92
449.316	22684.5
449.522	23227.21
449.728	23610.18
449.935	24249.14
450.141	24025.92
450.347	24374.07
450.553	23776.06
450.76	24073.02
450.966	24873.78
451.172	24943.41
451.378	25443.11
451.584	24853.3
451.791	25504.55
451.997	25205.55
452.203	25617.19
452.409	25625.38
452.615	25469.73
452.821	24527.67
453.027	24322.87
453.233	25864.99
453.44	24484.66
453.646	24736.56
453.852	24836.91
454.058	25279.27
454.264	24828.72
454.47	25729.83
454.676	24750.9
454.882	25578.28
455.088	23302.98
455.294	23583.55
455.5	24150.84
455.705	24355.64
455.911	23472.96
456.117	22942.54
456.323	22750.03
456.529	21420.9
456.735	22674.26
456.941	21611.36
457.147	21527.39
457.352	20951.91
457.558	20708.21
457.764	20845.42
457.97	20253.56
458.176	20046.71
458.381	20192.12
458.587	18903.95
458.793	18758.54
458.999	17791.9
459.204	19516.29
459.41	18549.65
459.616	17275.81
459.821	17730.46
460.027	17400.74
460.233	16935.85
460.438	16401.33
460.644	16708.52
460.85	15582.14
461.055	15514.56
461.261	15690.68
461.466	14130.13
461.672	13777.88
461.878	14754.76
462.083	13941.72
462.289	13605.85
462.494	13462.49
462.7	12970.98
462.905	12628.97
463.111	12784.62
463.316	13079.52
463.522	12917.73
463.727	12772.33
463.932	12835.81
464.138	12524.52
464.343	12714.98
464.549	12278.77
464.754	12747.75
464.959	12567.53
465.165	12426.22
465.37	12067.83
465.575	11736.06
465.781	12043.25
465.986	12178.42
466.191	11525.11
466.397	11510.78
466.602	10824.71
466.807	11404.28
467.012	11340.8
467.218	11045.89
467.423	11172.86
467.628	11138.05
467.833	11658.23
468.038	11422.72
468.244	10808.33
468.449	11332.61
468.654	10898.44
