Data from USB4F104151__173__14-45-00-614.txt Node

Date: Thu Mar 13 14:45:00 EDT 2025
User: louis
Spectrometer: USB4F10415
Trigger mode: 4
Integration Time (sec): 2.000000E-2
Scans to average: 1
Electric dark correction enabled: true
Nonlinearity correction enabled: false
Boxcar width: 0
XAxis mode: Wavelengths
Number of Pixels in Spectrum: 3648
>>>>>Begin Spectral Data<<<<<
178.204	-97.96
178.424	-97.96
178.644	-97.96
178.864	-149.16
179.084	-112.3
179.304	26.96
179.524	-83.63
179.744	6.49
179.964	0.34
180.184	18.77
180.404	4.44
180.624	0.34
180.844	31.06
181.064	16.73
181.283	-32.43
181.503	0.34
181.723	10.58
181.943	-122.54
182.163	-5.8
182.383	-79.53
182.602	90.45
182.822	14.68
183.042	43.35
183.262	31.06
183.482	-38.57
183.701	51.54
183.921	-9.9
184.141	-81.58
184.361	65.88
184.58	-5.8
184.8	-34.47
185.02	47.44
185.239	33.11
185.459	-1.71
185.679	26.96
185.898	-50.86
186.118	-13.99
186.338	4.44
186.557	63.83
186.777	6.49
186.997	31.06
187.216	18.77
187.436	26.96
187.655	72.02
187.875	59.73
188.095	22.87
188.314	57.68
188.534	0.34
188.753	-50.86
188.973	-50.86
189.192	-16.04
189.412	35.16
189.631	53.59
189.851	-50.86
190.07	-9.9
190.29	12.63
190.509	29.01
190.729	63.83
190.948	39.25
191.168	108.88
191.387	16.73
191.607	-71.34
191.826	80.21
192.045	47.44
192.265	-22.19
192.484	-7.85
192.704	0.34
192.923	-30.38
193.142	108.88
193.362	10.58
193.581	51.54
193.8	-61.1
194.02	29.01
194.239	2.39
194.458	0.34
194.678	-42.67
194.897	8.53
195.116	26.96
195.335	76.12
195.555	47.44
195.774	18.77
195.993	59.73
196.212	-3.75
196.432	-57
196.651	-7.85
196.87	-28.33
197.089	78.16
197.308	-22.19
197.528	74.07
197.747	-11.95
197.966	-5.8
198.185	22.87
198.404	-38.57
198.623	-22.19
198.842	63.83
199.062	33.11
199.281	84.31
199.5	26.96
199.719	24.92
199.938	10.58
200.157	57.68
200.376	14.68
200.595	67.92
200.814	24.92
201.033	-26.28
201.252	24.92
201.471	37.2
201.69	-48.81
201.909	22.87
202.128	29.01
202.347	37.2
202.566	-11.95
202.785	-79.53
203.004	-52.91
203.223	88.4
203.442	0.34
203.661	-9.9
203.879	74.07
204.098	-67.24
204.317	-30.38
204.536	24.92
204.755	-57
204.974	-1.71
205.193	8.53
205.411	108.88
205.63	-9.9
205.849	-28.33
206.068	-42.67
206.287	-34.47
206.505	39.25
206.724	-20.14
206.943	14.68
207.162	16.73
207.381	-28.33
207.599	20.82
207.818	-50.86
208.037	-40.62
208.255	-30.38
208.474	35.16
208.693	22.87
208.911	-71.34
209.13	55.64
209.349	96.6
209.567	-22.19
209.786	18.77
210.005	20.82
210.223	41.3
210.442	-16.04
210.661	-9.9
210.879	-16.04
211.098	-26.28
211.316	-7.85
211.535	145.75
211.753	-63.15
211.972	72.02
212.191	-34.47
212.409	24.92
212.628	-36.52
212.846	-18.09
213.065	-9.9
213.283	26.96
213.502	-22.19
213.72	-22.19
213.938	16.73
214.157	-26.28
214.375	2.39
214.594	55.64
214.812	4.44
215.031	63.83
215.249	-36.52
215.467	29.01
215.686	55.64
215.904	90.45
216.122	-5.8
216.341	74.07
216.559	-28.33
216.778	47.44
216.996	80.21
217.214	-57
217.432	-30.38
217.651	-42.67
217.869	16.73
218.087	-18.09
218.306	14.68
218.524	14.68
218.742	33.11
218.96	-18.09
219.179	31.06
219.397	-5.8
219.615	63.83
219.833	72.02
220.051	6.49
220.27	57.68
220.488	22.87
220.706	0.34
220.924	12.63
221.142	22.87
221.36	-22.19
221.578	16.73
221.796	-1.71
222.015	76.12
222.233	53.59
222.451	96.6
222.669	-28.33
222.887	-1.71
223.105	6.49
223.323	6.49
223.541	31.06
223.759	63.83
223.977	-7.85
224.195	90.45
224.413	63.83
224.631	8.53
224.849	-11.95
225.067	-9.9
225.285	-36.52
225.503	-11.95
225.721	-83.63
225.939	41.3
226.157	55.64
226.375	102.74
226.592	-32.43
226.81	6.49
227.028	-7.85
227.246	0.34
227.464	37.2
227.682	10.58
227.9	0.34
228.117	-20.14
228.335	18.77
228.553	-18.09
228.771	-11.95
228.989	47.44
229.206	57.68
229.424	-36.52
229.642	24.92
229.86	39.25
230.077	-77.48
230.295	63.83
230.513	31.06
230.731	74.07
230.948	33.11
231.166	115.03
231.384	26.96
231.601	10.58
231.819	72.02
232.037	55.64
232.254	18.77
232.472	55.64
232.689	-75.43
232.907	80.21
233.125	-1.71
233.342	10.58
233.56	-34.47
233.777	-13.99
233.995	18.77
234.213	72.02
234.43	26.96
234.648	18.77
234.865	24.92
235.083	-32.43
235.3	22.87
235.518	12.63
235.735	-9.9
235.953	65.88
236.17	14.68
236.388	-22.19
236.605	0.34
236.822	57.68
237.04	-26.28
237.257	14.68
237.475	-38.57
237.692	-77.48
237.909	-81.58
238.127	39.25
238.344	43.35
238.562	18.77
238.779	67.92
238.996	22.87
239.214	39.25
239.431	14.68
239.648	63.83
239.865	-5.8
240.083	-5.8
240.3	47.44
240.517	18.77
240.735	6.49
240.952	57.68
241.169	88.4
241.386	12.63
241.603	-9.9
241.821	39.25
242.038	80.21
242.255	26.96
242.472	-13.99
242.689	35.16
242.907	55.64
243.124	29.01
243.341	-7.85
243.558	35.16
243.775	39.25
243.992	47.44
244.209	129.36
244.426	22.87
244.643	18.77
244.86	35.16
245.078	16.73
245.295	-50.86
245.512	24.92
245.729	-1.71
245.946	33.11
246.163	-48.81
246.38	-22.19
246.597	16.73
246.814	22.87
247.031	37.2
247.248	-38.57
247.464	0.34
247.681	-7.85
247.898	-5.8
248.115	-7.85
248.332	51.54
248.549	-18.09
248.766	72.02
248.983	47.44
249.2	-24.23
249.417	41.3
249.633	14.68
249.85	20.82
250.067	18.77
250.284	14.68
250.501	14.68
250.717	47.44
250.934	-26.28
251.151	20.82
251.368	-22.19
251.585	6.49
251.801	8.53
252.018	-50.86
252.235	35.16
252.451	-1.71
252.668	22.87
252.885	2.39
253.102	0.34
253.318	2.39
253.535	-24.23
253.752	22.87
253.968	35.16
254.185	6.49
254.401	-16.04
254.618	104.79
254.835	-57
255.051	104.79
255.268	-16.04
255.484	2.39
255.701	22.87
255.917	-26.28
256.134	-18.09
256.351	-11.95
256.567	2.39
256.784	90.45
257	24.92
257.217	90.45
257.433	108.88
257.65	47.44
257.866	100.69
258.082	-50.86
258.299	24.92
258.515	86.36
258.732	-13.99
258.948	-75.43
259.165	18.77
259.381	16.73
259.597	-1.71
259.814	57.68
260.03	6.49
260.246	-26.28
260.463	6.49
260.679	39.25
260.895	8.53
261.112	-1.71
261.328	55.64
261.544	6.49
261.761	51.54
261.977	18.77
262.193	4.44
262.409	80.21
262.626	22.87
262.842	-30.38
263.058	14.68
263.274	63.83
263.49	-18.09
263.707	14.68
263.923	-30.38
264.139	-63.15
264.355	6.49
264.571	-3.75
264.787	0.34
265.004	55.64
265.22	0.34
265.436	-13.99
265.652	39.25
265.868	4.44
266.084	-40.62
266.3	33.11
266.516	20.82
266.732	-5.8
266.948	31.06
267.164	-16.04
267.38	39.25
267.596	47.44
267.812	-20.14
268.028	80.21
268.244	-30.38
268.46	88.4
268.676	55.64
268.892	-30.38
269.108	31.06
269.324	-1.71
269.54	-11.95
269.756	51.54
269.972	-50.86
270.188	41.3
270.403	-7.85
270.619	-46.76
270.835	16.73
271.051	35.16
271.267	-7.85
271.483	22.87
271.698	6.49
271.914	22.87
272.13	8.53
272.346	-73.39
272.562	-1.71
272.777	121.17
272.993	29.01
273.209	-9.9
273.425	39.25
273.64	-16.04
273.856	35.16
274.072	-22.19
274.287	-67.24
274.503	35.16
274.719	35.16
274.934	43.35
275.15	24.92
275.366	-26.28
275.581	57.68
275.797	14.68
276.012	14.68
276.228	-34.47
276.444	2.39
276.659	31.06
276.875	-24.23
277.09	-16.04
277.306	-36.52
277.521	49.49
277.737	-1.71
277.952	31.06
278.168	10.58
278.383	-13.99
278.599	-5.8
278.814	-5.8
279.03	4.44
279.245	33.11
279.461	-1.71
279.676	24.92
279.892	-50.86
280.107	24.92
280.322	0.34
280.538	22.87
280.753	90.45
280.969	35.16
281.184	-83.63
281.399	-3.75
281.615	-11.95
281.83	45.4
282.045	16.73
282.26	14.68
282.476	51.54
282.691	92.5
282.906	26.96
283.122	-16.04
283.337	115.03
283.552	22.87
283.767	18.77
283.983	37.2
284.198	76.12
284.413	8.53
284.628	43.35
284.843	-9.9
285.058	20.82
285.274	16.73
285.489	-1.71
285.704	41.3
285.919	26.96
286.134	92.5
286.349	14.68
286.564	-22.19
286.779	43.35
286.995	-9.9
287.21	-7.85
287.425	47.44
287.64	-75.43
287.855	26.96
288.07	35.16
288.285	-18.09
288.5	14.68
288.715	47.44
288.93	6.49
289.145	18.77
289.36	12.63
289.575	51.54
289.79	67.92
290.004	-18.09
290.219	29.01
290.434	6.49
290.649	-26.28
290.864	51.54
291.079	6.49
291.294	-9.9
291.509	41.3
291.724	-26.28
291.938	-36.52
292.153	-22.19
292.368	-9.9
292.583	127.32
292.798	-11.95
293.012	-1.71
293.227	35.16
293.442	-9.9
293.657	37.2
293.871	16.73
294.086	14.68
294.301	55.64
294.516	0.34
294.73	57.68
294.945	-38.57
295.16	10.58
295.374	31.06
295.589	65.88
295.804	-24.23
296.018	-18.09
296.233	47.44
296.447	-1.71
296.662	49.49
296.877	-1.71
297.091	55.64
297.306	20.82
297.52	8.53
297.735	-18.09
297.949	39.25
298.164	16.73
298.378	-24.23
298.593	74.07
298.807	8.53
299.022	65.88
299.236	35.16
299.451	-24.23
299.665	-16.04
299.88	43.35
300.094	47.44
300.309	12.63
300.523	16.73
300.737	31.06
300.952	39.25
301.166	-30.38
301.381	-28.33
301.595	-24.23
301.809	8.53
302.024	41.3
302.238	22.87
302.452	49.49
302.667	-71.34
302.881	6.49
303.095	39.25
303.309	104.79
303.524	-18.09
303.738	0.34
303.952	14.68
304.166	55.64
304.381	-52.91
304.595	33.11
304.809	49.49
305.023	31.06
305.237	10.58
305.452	72.02
305.666	59.73
305.88	29.01
306.094	80.21
306.308	24.92
306.522	16.73
306.736	22.87
306.95	47.44
307.164	22.87
307.379	4.44
307.593	39.25
307.807	20.82
308.021	88.4
308.235	-11.95
308.449	-34.47
308.663	41.3
308.877	14.68
309.091	-20.14
309.305	-1.71
309.519	-24.23
309.733	6.49
309.947	-59.05
310.161	63.83
310.374	-7.85
310.588	65.88
310.802	8.53
311.016	-18.09
311.23	31.06
311.444	14.68
311.658	49.49
311.872	59.73
312.085	-7.85
312.299	22.87
312.513	14.68
312.727	47.44
312.941	-52.91
313.154	49.49
313.368	24.92
313.582	35.16
313.796	-54.95
314.009	41.3
314.223	90.45
314.437	-30.38
314.651	88.4
314.864	-9.9
315.078	39.25
315.292	-42.67
315.505	39.25
315.719	22.87
315.933	-5.8
316.146	39.25
316.36	6.49
316.573	37.2
316.787	98.64
317.001	8.53
317.214	22.87
317.428	51.54
317.641	-9.9
317.855	2.39
318.068	59.73
318.282	35.16
318.495	94.55
318.709	65.88
318.922	-9.9
319.136	104.79
319.349	14.68
319.563	6.49
319.776	14.68
319.99	-5.8
320.203	16.73
320.417	55.64
320.63	-1.71
320.843	88.4
321.057	37.2
321.27	-18.09
321.483	24.92
321.697	123.22
321.91	35.16
322.124	39.25
322.337	-57
322.55	51.54
322.763	12.63
322.977	18.77
323.19	14.68
323.403	55.64
323.617	-7.85
323.83	72.02
324.043	-1.71
324.256	47.44
324.469	-32.43
324.683	72.02
324.896	-50.86
325.109	8.53
325.322	-67.24
325.535	57.68
325.748	74.07
325.962	-9.9
326.175	55.64
326.388	55.64
326.601	12.63
326.814	6.49
327.027	18.77
327.24	57.68
327.453	-11.95
327.666	59.73
327.879	14.68
328.092	-3.75
328.305	33.11
328.518	2.39
328.731	14.68
328.944	35.16
329.157	35.16
329.37	-34.47
329.583	31.06
329.796	88.4
330.009	51.54
330.222	-13.99
330.435	-38.57
330.648	49.49
330.861	-63.15
331.073	-5.8
331.286	-26.28
331.499	63.83
331.712	-3.75
331.925	55.64
332.138	35.16
332.35	65.88
332.563	31.06
332.776	26.96
332.989	-46.76
333.202	47.44
333.414	0.34
333.627	-16.04
333.84	6.49
334.053	18.77
334.265	-5.8
334.478	33.11
334.691	-26.28
334.903	-48.81
335.116	-26.28
335.329	35.16
335.541	-22.19
335.754	104.79
335.966	14.68
336.179	-26.28
336.392	24.92
336.604	-61.1
336.817	61.78
337.029	35.16
337.242	-40.62
337.454	92.5
337.667	22.87
337.88	16.73
338.092	-22.19
338.305	-9.9
338.517	39.25
338.729	14.68
338.942	55.64
339.154	-7.85
339.367	-34.47
339.579	-1.71
339.792	-1.71
340.004	-5.8
340.217	-22.19
340.429	22.87
340.641	16.73
340.854	49.49
341.066	55.64
341.278	59.73
341.491	65.88
341.703	14.68
341.915	18.77
342.128	63.83
342.34	14.68
342.552	47.44
342.764	-85.67
342.977	18.77
343.189	-1.71
343.401	39.25
343.613	57.68
343.826	-30.38
344.038	55.64
344.25	-9.9
344.462	-30.38
344.674	47.44
344.886	-13.99
345.099	55.64
345.311	74.07
345.523	47.44
345.735	-118.44
345.947	33.11
346.159	43.35
346.371	-9.9
346.583	96.6
346.795	18.77
347.007	31.06
347.219	82.26
347.431	61.78
347.643	-30.38
347.855	65.88
348.067	22.87
348.279	72.02
348.491	80.21
348.703	49.49
348.915	51.54
349.127	-108.2
349.339	18.77
349.551	22.87
349.763	45.4
349.975	22.87
350.187	39.25
350.399	45.4
350.61	41.3
350.822	-18.09
351.034	6.49
351.246	33.11
351.458	6.49
351.669	104.79
351.881	8.53
352.093	12.63
352.305	16.73
352.517	-28.33
352.728	88.4
352.94	59.73
353.152	-13.99
353.363	-7.85
353.575	57.68
353.787	72.02
353.999	104.79
354.21	63.83
354.422	39.25
354.633	72.02
354.845	33.11
355.057	22.87
355.268	37.2
355.48	80.21
355.692	-16.04
355.903	18.77
356.115	6.49
356.326	-26.28
356.538	33.11
356.749	55.64
356.961	33.11
357.172	31.06
357.384	-18.09
357.595	6.49
357.807	-7.85
358.018	-52.91
358.23	8.53
358.441	55.64
358.653	80.21
358.864	31.06
359.075	-16.04
359.287	80.21
359.498	24.92
359.709	33.11
359.921	139.6
360.132	2.39
360.344	26.96
360.555	6.49
360.766	-1.71
360.977	16.73
361.189	-32.43
361.4	22.87
361.611	55.64
361.823	8.53
362.034	59.73
362.245	-26.28
362.456	63.83
362.667	16.73
362.879	39.25
363.09	-1.71
363.301	-34.47
363.512	72.02
363.723	49.49
363.935	-85.67
364.146	65.88
364.357	47.44
364.568	43.35
364.779	-22.19
364.99	47.44
365.201	-57
365.412	57.68
365.623	35.16
365.834	6.49
366.045	65.88
366.256	14.68
366.467	59.73
366.678	18.77
366.889	72.02
367.1	22.87
367.311	47.44
367.522	-22.19
367.733	18.77
367.944	22.87
368.155	47.44
368.366	43.35
368.577	61.78
368.788	76.12
368.999	8.53
369.209	-22.19
369.42	80.21
369.631	86.36
369.842	16.73
370.053	-16.04
370.264	51.54
370.474	22.87
370.685	47.44
370.896	31.06
371.107	72.02
371.317	72.02
371.528	14.68
371.739	76.12
371.95	8.53
372.16	49.49
372.371	14.68
372.582	-5.8
372.792	6.49
373.003	29.01
373.214	0.34
373.424	100.69
373.635	-5.8
373.846	39.25
374.056	-26.28
374.267	88.4
374.477	80.21
374.688	-5.8
374.898	90.45
375.109	6.49
375.319	6.49
375.53	31.06
375.74	-22.19
375.951	14.68
376.161	-13.99
376.372	96.6
376.582	26.96
376.793	31.06
377.003	24.92
377.214	100.69
377.424	94.55
377.635	22.87
377.845	31.06
378.055	41.3
378.266	35.16
378.476	33.11
378.686	-18.09
378.897	8.53
379.107	31.06
379.317	88.4
379.528	37.2
379.738	26.96
379.948	31.06
380.158	22.87
380.369	31.06
380.579	72.02
380.789	47.44
380.999	112.98
381.21	65.88
381.42	72.02
381.63	67.92
381.84	-16.04
382.05	31.06
382.261	35.16
382.471	37.2
382.681	43.35
382.891	24.92
383.101	22.87
383.311	33.11
383.521	55.64
383.731	74.07
383.941	96.6
384.151	43.35
384.361	-16.04
384.571	29.01
384.781	41.3
384.991	63.83
385.201	22.87
385.411	39.25
385.621	72.02
385.831	6.49
386.041	72.02
386.251	-9.9
386.461	59.73
386.671	26.96
386.881	-9.9
387.091	67.92
387.301	22.87
387.511	-48.81
387.72	6.49
387.93	-1.71
388.14	31.06
388.35	26.96
388.56	24.92
388.769	-3.75
388.979	72.02
389.189	14.68
389.399	51.54
389.609	10.58
389.818	72.02
390.028	33.11
390.238	112.98
390.447	-24.23
390.657	90.45
390.867	16.73
391.076	49.49
391.286	-32.43
391.496	16.73
391.705	-36.52
391.915	129.36
392.125	31.06
392.334	63.83
392.544	47.44
392.753	12.63
392.963	117.08
393.172	37.2
393.382	2.39
393.591	90.45
393.801	29.01
394.01	63.83
394.22	80.21
394.429	22.87
394.639	41.3
394.848	123.22
395.058	24.92
395.267	2.39
395.477	10.58
395.686	47.44
395.895	123.22
396.105	98.64
396.314	41.3
396.524	24.92
396.733	47.44
396.942	35.16
397.152	88.4
397.361	63.83
397.57	39.25
397.78	67.92
397.989	63.83
398.198	98.64
398.407	53.59
398.617	65.88
398.826	-59.05
399.035	121.17
399.244	96.6
399.453	55.64
399.663	98.64
399.872	63.83
400.081	29.01
400.29	51.54
400.499	55.64
400.708	80.21
400.917	41.3
401.127	96.6
401.336	84.31
401.545	104.79
401.754	39.25
401.963	65.88
402.172	76.12
402.381	37.2
402.59	84.31
402.799	49.49
403.008	96.6
403.217	162.13
403.426	139.6
403.635	-9.9
403.844	135.51
404.053	84.31
404.262	88.4
404.471	47.44
404.68	82.26
404.888	55.64
405.097	104.79
405.306	106.84
405.515	115.03
405.724	151.89
405.933	139.6
406.142	180.56
406.35	84.31
406.559	41.3
406.768	94.55
406.977	186.71
407.185	225.62
407.394	164.18
407.603	115.03
407.812	137.56
408.02	133.46
408.229	196.95
408.438	162.13
408.646	147.8
408.855	158.03
409.064	203.09
409.272	164.18
409.481	129.36
409.69	110.93
409.898	137.56
410.107	174.42
410.315	254.29
410.524	135.51
410.733	278.87
410.941	205.14
411.15	194.9
411.358	272.72
411.567	231.76
411.775	219.47
411.984	256.34
412.192	303.44
412.401	258.39
412.609	325.97
412.818	362.83
413.026	344.4
413.234	289.1
413.443	401.74
413.651	293.2
413.86	332.11
414.068	407.89
414.276	403.79
414.485	389.46
414.693	414.03
414.901	450.89
415.11	467.28
415.318	477.52
415.526	448.85
415.734	502.09
415.943	416.08
416.151	493.9
416.359	514.38
416.567	493.9
416.776	563.53
416.984	637.26
417.192	614.73
417.4	641.36
417.608	608.59
417.817	686.41
418.025	680.27
418.233	682.31
418.441	641.36
418.649	684.36
418.857	825.67
419.065	848.2
419.273	835.91
419.481	868.68
419.689	989.51
419.897	907.59
420.105	915.78
420.313	991.56
420.521	1028.42
420.729	1026.37
420.937	1145.16
421.145	1034.57
421.353	1096
421.561	1237.31
421.769	1243.46
421.977	1227.07
422.185	1239.36
422.393	1317.19
422.601	1392.96
422.809	1395.01
423.017	1499.45
423.224	1546.56
423.432	1571.13
423.64	1562.94
423.848	1669.44
424.056	1575.23
424.263	1820.99
424.471	1769.79
424.679	1917.24
424.887	2017.59
425.094	1980.73
425.302	1941.82
425.51	2023.73
425.718	2275.63
425.925	2095.41
426.133	2349.36
426.341	2359.6
426.548	2484.53
426.756	2505.01
426.964	2390.32
427.171	2640.17
427.379	2695.47
427.586	2654.51
427.794	2851.11
428.001	3008.81
428.209	2992.42
428.417	3062.05
428.624	3356.96
428.832	3227.94
429.039	3234.08
429.247	3279.14
429.454	3361.06
429.662	3750.17
429.869	3481.89
430.076	3797.28
430.284	3612.96
430.491	3854.62
430.699	4155.67
430.906	4118.81
431.114	4014.36
431.321	4028.7
431.528	4339.99
431.736	4561.17
431.943	4735.25
432.15	4555.02
432.358	4589.84
432.565	4899.08
432.772	4860.17
432.979	5370.12
433.187	5243.14
433.394	5284.1
433.601	5601.54
433.808	5824.76
434.016	5542.14
434.223	5880.06
434.43	6295.8
434.637	6177.02
434.844	6433.01
435.052	6545.65
435.259	6592.75
435.466	6641.9
435.673	6785.26
435.88	6932.72
436.087	7368.93
436.294	7383.27
436.501	7225.58
436.708	7459.04
436.915	7538.91
437.122	8014.04
437.329	7807.2
437.537	8028.38
437.743	8306.9
437.95	8220.89
438.157	8657.11
438.364	8853.71
438.571	8857.81
438.778	9048.27
438.985	9674.95
439.192	9418.95
439.399	9715.91
439.606	9421
439.813	9990.33
440.02	10543.28
440.227	10281.14
440.433	10373.3
440.64	10700.98
440.847	10590.39
441.054	10969.26
441.261	11606.18
441.467	11280.55
441.674	11583.65
441.881	12165.28
442.088	11970.72
442.294	12026.01
442.501	12222.62
442.708	12337.31
442.914	12908.69
443.121	13525.13
443.328	13244.56
443.534	14080.13
443.741	13684.87
443.948	13514.89
444.154	14530.68
444.361	14395.51
444.568	14438.52
444.774	14575.73
444.981	14379.13
445.187	15057.01
445.394	15534.18
445.6	15394.92
445.807	17160.27
446.013	15951.97
446.22	16674.9
446.426	16986.19
446.633	17371.21
446.839	18147.39
447.046	17277.01
447.252	18151.49
447.459	18268.22
447.665	17881.16
447.871	18616.38
448.078	19562.54
448.284	18853.94
448.491	19333.17
448.697	20029.48
448.903	20174.88
449.11	20201.51
449.316	19965.99
449.522	20498.46
449.728	20975.64
449.935	21221.39
450.141	21016.6
450.347	21645.32
450.553	21026.84
450.76	21317.65
450.966	22241.28
451.172	21827.59
451.378	22272
451.584	22026.25
451.791	22591.48
451.997	22509.57
452.203	22704.12
452.409	22980.6
452.615	22652.92
452.821	21696.52
453.027	21448.72
453.233	22775.8
453.44	22030.34
453.646	22345.73
453.852	22401.02
454.058	22632.44
454.264	22116.36
454.47	22484.99
454.676	21911.56
454.882	22896.63
455.088	20717.59
455.294	21188.63
455.5	21448.72
455.705	21653.51
455.911	20602.91
456.117	20428.83
456.323	20250.66
456.529	18849.85
456.735	20209.7
456.941	19200.05
457.147	19134.51
457.352	18724.92
457.558	18133.06
457.764	18561.08
457.97	18266.17
458.176	17694.79
458.381	17844.29
458.587	16754.77
458.793	16891.99
458.999	16185.44
459.204	17154.13
459.41	16719.96
459.616	15655.01
459.821	15863.91
460.027	15646.82
460.233	15313
460.438	14534.78
460.644	14723.19
460.85	13961.34
461.055	13809.79
461.261	13809.79
461.466	12669.08
461.672	12322.97
461.878	13123.73
462.083	12413.08
462.289	12060.83
462.494	11937.95
462.7	11499.69
462.905	11137.2
463.111	11638.95
463.316	11813.03
463.522	11241.64
463.727	11278.51
463.932	11122.86
464.138	11204.78
464.343	11356.33
464.549	10809.52
464.754	11122.86
464.959	11014.32
465.165	11038.89
465.37	10657.97
465.575	10090.68
465.781	10782.9
465.986	10733.75
466.191	10426.55
466.397	10094.78
466.602	9603.27
466.807	10172.6
467.012	10150.07
467.218	9906.37
467.423	9853.12
467.628	9902.27
467.833	10487.99
468.038	9705.67
468.244	9687.23
