Data from USB4F104151__188__14-45-10-972.txt Node

Date: Thu Mar 13 14:45:10 EDT 2025
User: louis
Spectrometer: USB4F10415
Trigger mode: 4
Integration Time (sec): 2.000000E-2
Scans to average: 1
Electric dark correction enabled: true
Nonlinearity correction enabled: false
Boxcar width: 0
XAxis mode: Wavelengths
Number of Pixels in Spectrum: 3648
>>>>>Begin Spectral Data<<<<<
178.204	-62.8
178.424	-62.8
178.644	-62.8
178.864	-128.34
179.084	-138.58
179.304	-7.51
179.524	-56.66
179.744	-13.65
179.964	90.79
180.184	19.11
180.404	58.03
180.624	-52.56
180.844	25.26
181.064	-107.86
181.283	17.07
181.503	10.92
181.723	17.07
181.943	-89.43
182.163	60.07
182.383	-5.46
182.602	0.68
182.822	37.55
183.042	-5.46
183.262	-7.51
183.482	0.68
183.701	23.21
183.921	107.18
184.141	-25.94
184.361	-23.89
184.58	17.07
184.8	84.65
185.02	2.73
185.239	35.5
185.459	2.73
185.679	117.42
185.898	2.73
186.118	58.03
186.338	31.4
186.557	117.42
186.777	-5.46
186.997	45.74
187.216	4.78
187.436	51.88
187.655	4.78
187.875	68.27
188.095	0.68
188.314	55.98
188.534	66.22
188.753	33.45
188.973	101.03
189.192	131.75
189.412	27.31
189.631	-46.42
189.851	2.73
190.07	66.22
190.29	35.5
190.509	29.35
190.729	-40.28
190.948	29.35
191.168	185
191.387	43.69
191.607	12.97
191.826	-7.51
192.045	-21.84
192.265	-9.56
192.484	-32.08
192.704	25.26
192.923	15.02
193.142	117.42
193.362	-23.89
193.581	-5.46
193.8	-32.08
194.02	41.64
194.239	-32.08
194.458	51.88
194.678	2.73
194.897	60.07
195.116	-19.8
195.335	19.11
195.555	98.99
195.774	-40.28
195.993	68.27
196.212	-21.84
196.432	-38.23
196.651	0.68
196.87	2.73
197.089	133.8
197.308	29.35
197.528	10.92
197.747	-17.75
197.966	21.16
198.185	94.89
198.404	55.98
198.623	-30.04
198.842	-23.89
199.062	17.07
199.281	74.41
199.5	-73.04
199.719	25.26
199.938	8.87
200.157	60.07
200.376	98.99
200.595	17.07
200.814	39.59
201.033	35.5
201.252	2.73
201.471	-11.61
201.69	55.98
201.909	37.55
202.128	29.35
202.347	25.26
202.566	-46.42
202.785	-85.33
203.004	-36.18
203.223	129.7
203.442	17.07
203.661	-3.41
203.879	123.56
204.098	49.83
204.317	-15.7
204.536	84.65
204.755	107.18
204.974	-3.41
205.193	60.07
205.411	82.6
205.63	-56.66
205.849	53.93
206.068	47.79
206.287	-46.42
206.505	8.87
206.724	86.7
206.943	39.59
207.162	4.78
207.381	0.68
207.599	76.46
207.818	0.68
208.037	-9.56
208.255	-36.18
208.474	17.07
208.693	70.31
208.911	12.97
209.13	6.83
209.349	66.22
209.567	15.02
209.786	86.7
210.005	-5.46
210.223	27.31
210.442	0.68
210.661	-36.18
210.879	-46.42
211.098	-3.41
211.316	41.64
211.535	41.64
211.753	-23.89
211.972	43.69
212.191	-36.18
212.409	2.73
212.628	35.5
212.846	66.22
213.065	39.59
213.283	-3.41
213.502	43.69
213.72	0.68
213.938	-3.41
214.157	-21.84
214.375	60.07
214.594	-15.7
214.812	27.31
215.031	-13.65
215.249	55.98
215.467	25.26
215.686	74.41
215.904	19.11
216.122	51.88
216.341	-7.51
216.559	-3.41
216.778	0.68
216.996	2.73
217.214	45.74
217.432	31.4
217.651	-17.75
217.869	17.07
218.087	4.78
218.306	49.83
218.524	41.64
218.742	-56.66
218.96	90.79
219.179	17.07
219.397	-30.04
219.615	17.07
219.833	115.37
220.051	-54.61
220.27	101.03
220.488	-19.8
220.706	-13.65
220.924	-15.7
221.142	-34.13
221.36	-46.42
221.578	-56.66
221.796	-13.65
222.015	33.45
222.233	105.13
222.451	39.59
222.669	19.11
222.887	101.03
223.105	35.5
223.323	60.07
223.541	-34.13
223.759	-5.46
223.977	10.92
224.195	0.68
224.413	-13.65
224.631	-27.99
224.849	8.87
225.067	68.27
225.285	82.6
225.503	10.92
225.721	15.02
225.939	49.83
226.157	62.12
226.375	111.27
226.592	-56.66
226.81	-48.47
227.028	-15.7
227.246	74.41
227.464	-21.84
227.682	58.03
227.9	15.02
228.117	-23.89
228.335	-13.65
228.553	-38.23
228.771	60.07
228.989	49.83
229.206	27.31
229.424	41.64
229.642	-36.18
229.86	-7.51
230.077	41.64
230.295	-34.13
230.513	49.83
230.731	66.22
230.948	19.11
231.166	66.22
231.384	-40.28
231.601	-27.99
231.819	90.79
232.037	-5.46
232.254	-23.89
232.472	25.26
232.689	62.12
232.907	62.12
233.125	-5.46
233.342	76.46
233.56	49.83
233.777	17.07
233.995	51.88
234.213	82.6
234.43	58.03
234.648	49.83
234.865	49.83
235.083	8.87
235.3	-81.24
235.518	8.87
235.735	92.84
235.953	-36.18
236.17	58.03
236.388	-7.51
236.605	6.83
236.822	31.4
237.04	8.87
237.257	-7.51
237.475	49.83
237.692	41.64
237.909	-30.04
238.127	2.73
238.344	17.07
238.562	58.03
238.779	19.11
238.996	39.59
239.214	17.07
239.431	2.73
239.648	0.68
239.865	66.22
240.083	-66.9
240.3	70.31
240.517	8.87
240.735	33.45
240.952	62.12
241.169	82.6
241.386	27.31
241.603	8.87
241.821	-27.99
242.038	117.42
242.255	25.26
242.472	-13.65
242.689	66.22
242.907	60.07
243.124	-23.89
243.341	45.74
243.558	-5.46
243.775	4.78
243.992	-56.66
244.209	45.74
244.426	86.7
244.643	37.55
244.86	17.07
245.078	-7.51
245.295	47.79
245.512	-34.13
245.729	-5.46
245.946	53.93
246.163	45.74
246.38	33.45
246.597	58.03
246.814	115.37
247.031	12.97
247.248	58.03
247.464	84.65
247.681	17.07
247.898	-13.65
248.115	41.64
248.332	-7.51
248.549	82.6
248.766	98.99
248.983	78.51
249.2	17.07
249.417	66.22
249.633	41.64
249.85	103.08
250.067	66.22
250.284	27.31
250.501	35.5
250.717	45.74
250.934	-101.72
251.151	-32.08
251.368	51.88
251.585	19.11
251.801	4.78
252.018	-48.47
252.235	103.08
252.451	-27.99
252.668	62.12
252.885	45.74
253.102	53.93
253.318	17.07
253.535	-40.28
253.752	-7.51
253.968	-62.8
254.185	-27.99
254.401	-38.23
254.618	17.07
254.835	80.55
255.051	74.41
255.268	12.97
255.484	17.07
255.701	-25.94
255.917	47.79
256.134	74.41
256.351	25.26
256.567	27.31
256.784	41.64
257	17.07
257.217	-64.85
257.433	62.12
257.65	70.31
257.866	55.98
258.082	33.45
258.299	8.87
258.515	70.31
258.732	-19.8
258.948	-7.51
259.165	35.5
259.381	-40.28
259.597	107.18
259.814	76.46
260.03	35.5
260.246	17.07
260.463	58.03
260.679	101.03
260.895	-5.46
261.112	-15.7
261.328	2.73
261.544	72.36
261.761	141.99
261.977	92.84
262.193	-3.41
262.409	58.03
262.626	64.17
262.842	-30.04
263.058	-5.46
263.274	33.45
263.49	60.07
263.707	0.68
263.923	8.87
264.139	-15.7
264.355	0.68
264.571	41.64
264.787	78.51
265.004	84.65
265.22	12.97
265.436	43.69
265.652	35.5
265.868	-7.51
266.084	-46.42
266.3	-13.65
266.516	-56.66
266.732	27.31
266.948	53.93
267.164	-1.37
267.38	17.07
267.596	33.45
267.812	0.68
268.028	35.5
268.244	74.41
268.46	66.22
268.676	45.74
268.892	47.79
269.108	2.73
269.324	12.97
269.54	-27.99
269.756	101.03
269.972	8.87
270.188	62.12
270.403	8.87
270.619	12.97
270.835	17.07
271.051	33.45
271.267	53.93
271.483	-5.46
271.698	29.35
271.914	39.59
272.13	66.22
272.346	43.69
272.562	78.51
272.777	49.83
272.993	80.55
273.209	39.59
273.425	41.64
273.64	-30.04
273.856	35.5
274.072	58.03
274.287	115.37
274.503	25.26
274.719	37.55
274.934	29.35
275.15	12.97
275.366	-13.65
275.581	-34.13
275.797	31.4
276.012	49.83
276.228	-32.08
276.444	0.68
276.659	15.02
276.875	-17.75
277.09	-30.04
277.306	94.89
277.521	-13.65
277.737	23.21
277.952	51.88
278.168	35.5
278.383	35.5
278.599	-11.61
278.814	45.74
279.03	58.03
279.245	125.61
279.461	78.51
279.676	29.35
279.892	-79.19
280.107	-40.28
280.322	17.07
280.538	35.5
280.753	-48.47
280.969	19.11
281.184	2.73
281.399	37.55
281.615	60.07
281.83	53.93
282.045	-9.56
282.26	19.11
282.476	33.45
282.691	68.27
282.906	10.92
283.122	49.83
283.337	49.83
283.552	10.92
283.767	-15.7
283.983	66.22
284.198	43.69
284.413	82.6
284.628	-13.65
284.843	49.83
285.058	-15.7
285.274	43.69
285.489	-40.28
285.704	64.17
285.919	12.97
286.134	17.07
286.349	15.02
286.564	-19.8
286.779	58.03
286.995	70.31
287.21	62.12
287.425	49.83
287.64	33.45
287.855	17.07
288.07	8.87
288.285	-13.65
288.5	43.69
288.715	8.87
288.93	8.87
289.145	15.02
289.36	41.64
289.575	47.79
289.79	90.79
290.004	49.83
290.219	62.12
290.434	10.92
290.649	-81.24
290.864	25.26
291.079	64.17
291.294	31.4
291.509	27.31
291.724	25.26
291.938	51.88
292.153	58.03
292.368	68.27
292.583	-7.51
292.798	17.07
293.012	37.55
293.227	-40.28
293.442	60.07
293.657	19.11
293.871	-21.84
294.086	-19.8
294.301	139.94
294.516	29.35
294.73	86.7
294.945	-13.65
295.16	-15.7
295.374	41.64
295.589	58.03
295.804	25.26
296.018	-5.46
296.233	0.68
296.447	29.35
296.662	23.21
296.877	33.45
297.091	29.35
297.306	58.03
297.52	-46.42
297.735	-36.18
297.949	41.64
298.164	115.37
298.378	66.22
298.593	6.83
298.807	-7.51
299.022	84.65
299.236	66.22
299.451	29.35
299.665	-7.51
299.88	-32.08
300.094	43.69
300.309	74.41
300.523	49.83
300.737	-44.37
300.952	37.55
301.166	82.6
301.381	-11.61
301.595	-27.99
301.809	64.17
302.024	-7.51
302.238	8.87
302.452	33.45
302.667	17.07
302.881	60.07
303.095	103.08
303.309	53.93
303.524	-60.76
303.738	25.26
303.952	15.02
304.166	10.92
304.381	15.02
304.595	2.73
304.809	-7.51
305.023	72.36
305.237	68.27
305.452	12.97
305.666	68.27
305.88	2.73
306.094	62.12
306.308	37.55
306.522	-9.56
306.736	25.26
306.95	84.65
307.164	90.79
307.379	6.83
307.593	-40.28
307.807	-36.18
308.021	19.11
308.235	53.93
308.449	-7.51
308.663	35.5
308.877	66.22
309.091	53.93
309.305	-42.32
309.519	-19.8
309.733	-9.56
309.947	12.97
310.161	66.22
310.374	49.83
310.588	76.46
310.802	70.31
311.016	51.88
311.23	66.22
311.444	21.16
311.658	-7.51
311.872	98.99
312.085	94.89
312.299	43.69
312.513	4.78
312.727	45.74
312.941	31.4
313.154	39.59
313.368	88.75
313.582	92.84
313.796	-21.84
314.009	-11.61
314.223	29.35
314.437	23.21
314.651	39.59
314.864	66.22
315.078	-3.41
315.292	-40.28
315.505	74.41
315.719	29.35
315.933	41.64
316.146	23.21
316.36	12.97
316.573	43.69
316.787	62.12
317.001	27.31
317.214	43.69
317.428	62.12
317.641	19.11
317.855	8.87
318.068	12.97
318.282	58.03
318.495	49.83
318.709	131.75
318.922	41.64
319.136	45.74
319.349	60.07
319.563	19.11
319.776	51.88
319.99	19.11
320.203	41.64
320.417	-1.37
320.63	53.93
320.843	35.5
321.057	-19.8
321.27	8.87
321.483	55.98
321.697	19.11
321.91	66.22
322.124	19.11
322.337	2.73
322.55	-15.7
322.763	94.89
322.977	27.31
323.19	8.87
323.403	17.07
323.617	66.22
323.83	25.26
324.043	35.5
324.256	-36.18
324.469	-68.95
324.683	103.08
324.896	25.26
325.109	49.83
325.322	0.68
325.535	66.22
325.748	139.94
325.962	-23.89
326.175	-19.8
326.388	29.35
326.601	-7.51
326.814	66.22
327.027	78.51
327.24	8.87
327.453	-30.04
327.666	-7.51
327.879	25.26
328.092	90.79
328.305	0.68
328.518	51.88
328.731	25.26
328.944	-32.08
329.157	35.5
329.37	-21.84
329.583	170.66
329.796	37.55
330.009	66.22
330.222	-48.47
330.435	109.23
330.648	33.45
330.861	-40.28
331.073	82.6
331.286	64.17
331.499	76.46
331.712	-15.7
331.925	10.92
332.138	-7.51
332.35	66.22
332.563	115.37
332.776	25.26
332.989	-40.28
333.202	25.26
333.414	37.55
333.627	62.12
333.84	-5.46
334.053	86.7
334.265	8.87
334.478	-13.65
334.691	0.68
334.903	41.64
335.116	60.07
335.329	41.64
335.541	33.45
335.754	23.21
335.966	-7.51
336.179	49.83
336.392	49.83
336.604	-1.37
336.817	90.79
337.029	10.92
337.242	35.5
337.454	4.78
337.667	0.68
337.88	109.23
338.092	82.6
338.305	39.59
338.517	4.78
338.729	29.35
338.942	90.79
339.154	0.68
339.367	-25.94
339.579	121.51
339.792	-32.08
340.004	66.22
340.217	58.03
340.429	53.93
340.641	-54.61
340.854	33.45
341.066	27.31
341.278	25.26
341.491	98.99
341.703	12.97
341.915	-9.56
342.128	8.87
342.34	19.11
342.552	29.35
342.764	51.88
342.977	6.83
343.189	8.87
343.401	-5.46
343.613	-64.85
343.826	82.6
344.038	-56.66
344.25	131.75
344.462	19.11
344.674	35.5
344.886	0.68
345.099	66.22
345.311	8.87
345.523	21.16
345.735	-30.04
345.947	92.84
346.159	15.02
346.371	4.78
346.583	17.07
346.795	123.56
347.007	-30.04
347.219	49.83
347.431	-30.04
347.643	92.84
347.855	-46.42
348.067	37.55
348.279	49.83
348.491	35.5
348.703	82.6
348.915	33.45
349.127	86.7
349.339	-48.47
349.551	80.55
349.763	60.07
349.975	-7.51
350.187	72.36
350.399	60.07
350.61	84.65
350.822	8.87
351.034	4.78
351.246	25.26
351.458	80.55
351.669	103.08
351.881	80.55
352.093	92.84
352.305	60.07
352.517	0.68
352.728	41.64
352.94	66.22
353.152	70.31
353.363	-7.51
353.575	-42.32
353.787	92.84
353.999	-13.65
354.21	58.03
354.422	53.93
354.633	4.78
354.845	84.65
355.057	39.59
355.268	35.5
355.48	123.56
355.692	-38.23
355.903	103.08
356.115	55.98
356.326	-5.46
356.538	92.84
356.749	84.65
356.961	115.37
357.172	68.27
357.384	60.07
357.595	55.98
357.807	33.45
358.018	27.31
358.23	82.6
358.441	125.61
358.653	53.93
358.864	10.92
359.075	-3.41
359.287	51.88
359.498	-21.84
359.709	103.08
359.921	86.7
360.132	64.17
360.344	109.23
360.555	-25.94
360.766	12.97
360.977	49.83
361.189	70.31
361.4	27.31
361.611	82.6
361.823	-7.51
362.034	31.4
362.245	-52.56
362.456	82.6
362.667	72.36
362.879	8.87
363.09	8.87
363.301	25.26
363.512	66.22
363.723	-30.04
363.935	41.64
364.146	17.07
364.357	92.84
364.568	51.88
364.779	-11.61
364.99	66.22
365.201	19.11
365.412	88.75
365.623	60.07
365.834	37.55
366.045	-38.23
366.256	25.26
366.467	49.83
366.678	25.26
366.889	-44.37
367.1	51.88
367.311	8.87
367.522	90.79
367.733	111.27
367.944	41.64
368.155	25.26
368.366	82.6
368.577	41.64
368.788	29.35
368.999	117.42
369.209	33.45
369.42	103.08
369.631	98.99
369.842	0.68
370.053	60.07
370.264	-5.46
370.474	27.31
370.685	27.31
370.896	27.31
371.107	49.83
371.317	84.65
371.528	58.03
371.739	45.74
371.95	19.11
372.16	41.64
372.371	74.41
372.582	90.79
372.792	25.26
373.003	-1.37
373.214	144.04
373.424	74.41
373.635	4.78
373.846	80.55
374.056	-30.04
374.267	90.79
374.477	41.64
374.688	58.03
374.898	10.92
375.109	19.11
375.319	84.65
375.53	101.03
375.74	60.07
375.951	47.79
376.161	29.35
376.372	68.27
376.582	-23.89
376.793	98.99
377.003	78.51
377.214	27.31
377.424	58.03
377.635	66.22
377.845	-3.41
378.055	139.94
378.266	41.64
378.476	33.45
378.686	96.94
378.897	-34.13
379.107	4.78
379.317	115.37
379.528	0.68
379.738	49.83
379.948	8.87
380.158	64.17
380.369	68.27
380.579	33.45
380.789	35.5
380.999	19.11
381.21	53.93
381.42	92.84
381.63	49.83
381.84	105.13
382.05	86.7
382.261	72.36
382.471	17.07
382.681	84.65
382.891	103.08
383.101	-9.56
383.311	-46.42
383.521	-7.51
383.731	25.26
383.941	2.73
384.151	94.89
384.361	-23.89
384.571	21.16
384.781	74.41
384.991	96.94
385.201	139.94
385.411	84.65
385.621	78.51
385.831	66.22
386.041	58.03
386.251	41.64
386.461	62.12
386.671	58.03
386.881	51.88
387.091	33.45
387.301	53.93
387.511	74.41
387.72	94.89
387.93	60.07
388.14	98.99
388.35	29.35
388.56	84.65
388.769	82.6
388.979	58.03
389.189	-77.14
389.399	51.88
389.609	78.51
389.818	72.36
390.028	21.16
390.238	92.84
390.447	45.74
390.657	37.55
390.867	58.03
391.076	27.31
391.286	49.83
391.496	0.68
391.705	105.13
391.915	131.75
392.125	133.8
392.334	53.93
392.544	70.31
392.753	2.73
392.963	49.83
393.172	12.97
393.382	41.64
393.591	84.65
393.801	29.35
394.01	121.51
394.22	-15.7
394.429	82.6
394.639	68.27
394.848	115.37
395.058	131.75
395.267	58.03
395.477	-32.08
395.686	98.99
395.895	133.8
396.105	182.95
396.314	150.18
396.524	92.84
396.733	90.79
396.942	90.79
397.152	109.23
397.361	144.04
397.57	115.37
397.78	123.56
397.989	119.46
398.198	189.1
398.407	109.23
398.617	35.5
398.826	45.74
399.035	98.99
399.244	115.37
399.453	-3.41
399.663	74.41
399.872	158.38
400.081	-17.75
400.29	144.04
400.499	29.35
400.708	189.1
400.917	82.6
401.127	115.37
401.336	119.46
401.545	152.23
401.754	74.41
401.963	141.99
402.172	-3.41
402.381	25.26
402.59	27.31
402.799	92.84
403.008	166.57
403.217	60.07
403.426	148.14
403.635	139.94
403.844	115.37
404.053	66.22
404.262	19.11
404.471	262.82
404.68	166.57
404.888	166.57
405.097	74.41
405.306	90.79
405.515	176.81
405.724	117.42
405.933	123.56
406.142	127.66
406.35	156.33
406.559	150.18
406.768	98.99
406.977	248.49
407.185	125.61
407.394	223.91
407.603	156.33
407.812	131.75
408.02	201.38
408.229	166.57
408.438	111.27
408.646	209.58
408.855	193.19
409.064	205.48
409.272	215.72
409.481	264.87
409.69	207.53
409.898	182.95
410.107	197.29
410.315	254.63
410.524	260.77
410.733	322.21
410.941	346.79
411.15	223.91
411.358	279.21
411.567	334.5
411.775	307.88
411.984	273.06
412.192	346.79
412.401	365.22
412.609	387.75
412.818	369.32
413.026	352.93
413.234	324.26
413.443	412.32
413.651	438.95
413.86	508.58
414.068	541.35
414.276	484
414.485	459.43
414.693	524.96
414.901	592.55
415.11	590.5
415.318	590.5
415.526	572.07
415.734	531.11
415.943	594.59
416.151	662.18
416.359	680.61
416.567	586.4
416.776	705.18
416.984	766.62
417.192	795.29
417.4	756.38
417.608	762.53
417.817	823.97
418.025	959.13
418.233	1102.49
418.441	920.22
418.649	985.76
418.857	1043.1
419.065	1067.67
419.273	1008.28
419.481	1059.48
419.689	1139.35
419.897	1174.17
420.105	1223.32
420.313	1206.94
420.521	1342.1
420.729	1303.19
420.937	1231.51
421.145	1458.84
421.353	1393.3
421.561	1569.43
421.769	1651.35
421.977	1700.5
422.185	1649.3
422.393	1901.2
422.601	1802.9
422.809	1747.6
423.017	1858.19
423.224	1915.53
423.432	2067.08
423.64	2015.88
423.848	2255.5
424.056	2134.67
424.263	2265.74
424.471	2386.57
424.679	2294.41
424.887	2476.68
425.094	2581.12
425.302	2583.17
425.51	2607.75
425.718	2701.95
425.925	2843.26
426.133	2839.17
426.341	3052.16
426.548	3185.27
426.756	3127.93
426.964	3164.79
427.171	3443.32
427.379	3467.89
427.586	3570.29
427.794	3646.07
428.001	3768.95
428.209	3967.6
428.417	3940.97
428.624	4301.42
428.832	4074.09
429.039	4184.68
429.247	4067.95
429.454	4629.09
429.662	4704.87
429.869	4465.25
430.076	4858.46
430.284	4704.87
430.491	5061.21
430.699	5251.67
430.906	5180
431.114	5235.29
431.321	5567.06
431.528	5646.93
431.736	5935.7
431.943	6054.48
432.15	6044.24
432.358	6062.67
432.565	6410.82
432.772	6328.91
432.979	6619.72
433.187	6761.03
433.394	6814.27
433.601	7219.77
433.808	7447.1
434.016	7354.94
434.223	7660.09
434.43	8024.62
434.637	8063.54
434.844	8403.5
435.052	8495.66
435.259	8456.75
435.466	8469.03
435.673	8645.16
435.88	9015.84
436.087	9335.32
436.294	9701.91
436.501	9355.8
436.708	9478.68
436.915	9908.76
437.122	10459.66
437.329	10146.32
437.537	10539.53
437.743	10746.37
437.95	10674.7
438.157	11268.61
438.364	11528.7
438.571	11670.01
438.778	11860.47
438.985	12988.9
439.192	12085.75
439.399	12595.69
439.606	12237.3
439.813	13093.35
440.02	13830.62
440.227	13488.6
440.433	13281.76
440.64	14021.08
440.847	13517.28
441.054	14209.49
441.261	15159.75
441.467	14852.55
441.674	15137.22
441.881	15868.34
442.088	15598.01
442.294	15301.06
442.501	15854.01
442.708	16470.45
442.914	17035.69
443.121	17703.32
443.328	17203.62
443.534	18485.65
443.741	17863.07
443.948	17686.94
444.154	18950.54
444.361	19011.98
444.568	18930.06
444.774	18956.68
444.981	19112.33
445.187	19648.89
445.394	20676.98
445.6	20111.74
445.807	22440.28
446.013	21614.94
446.22	21909.85
446.426	22632.79
446.633	23056.71
446.839	23458.12
447.046	22597.97
447.252	23912.77
447.459	24113.47
447.665	23963.97
447.871	24807.73
448.078	26179.87
448.284	25076.01
448.491	25602.34
448.697	26429.72
448.903	27154.7
449.11	27515.14
449.316	26781.97
449.522	27222.28
449.728	27881.73
449.935	28037.37
450.141	28070.14
450.347	28889.33
450.553	27916.54
450.76	28178.68
450.966	29487.34
451.172	29051.12
451.378	29536.49
451.584	29260.01
451.791	30142.69
451.997	29984.99
452.203	30148.83
452.409	30265.56
452.615	30279.9
452.821	28985.58
453.027	28956.91
453.233	30238.94
453.44	29169.9
453.646	29448.43
453.852	29825.25
454.058	30324.96
454.264	29548.78
454.47	30355.68
454.676	29333.74
454.882	30466.27
455.088	27951.36
455.294	28281.08
455.5	28616.95
455.705	28920.05
455.911	27822.34
456.117	27332.87
456.323	27072.78
456.529	25506.09
456.735	26994.96
456.941	26052.89
457.147	25688.35
457.352	24910.13
457.558	24502.58
457.764	24990
457.97	24332.6
458.176	24019.26
458.381	23843.13
458.587	22624.59
458.793	22724.94
458.999	21242.21
459.204	23224.65
459.41	22219.1
459.616	21076.33
459.821	21258.6
460.027	20980.07
460.233	20384.12
460.438	19540.35
460.644	19898.75
460.85	18858.38
461.055	18516.37
461.261	18649.49
461.466	17105.32
461.672	16613.81
461.878	17775
462.083	16689.58
462.289	16495.02
462.494	16333.23
462.7	15456.7
462.905	15264.19
463.111	15835.58
463.316	15774.14
463.522	15331.78
463.727	15399.36
463.932	15202.75
464.138	15344.06
464.343	15272.39
464.549	14729.67
464.754	15190.47
464.959	15155.65
465.165	14920.13
465.37	14506.45
465.575	13924.82
465.781	14582.22
465.986	14528.97
466.191	13949.4
466.397	13767.13
466.602	13058.53
466.807	13654.49
467.012	13824.47
467.218	13601.24
467.423	13408.73
467.628	13554.14
