Data from USB4F104151__23__14-42-44-946.txt Node

Date: Thu Mar 13 14:42:44 EDT 2025
User: louis
Spectrometer: USB4F10415
Trigger mode: 4
Integration Time (sec): 2.000000E-2
Scans to average: 1
Electric dark correction enabled: true
Nonlinearity correction enabled: false
Boxcar width: 0
XAxis mode: Wavelengths
Number of Pixels in Spectrum: 3648
>>>>>Begin Spectral Data<<<<<
178.204	-186.37
178.424	-186.37
178.644	-186.37
178.864	-180.22
179.084	-114.69
179.304	-49.15
179.524	-8.19
179.744	24.58
179.964	18.43
180.184	61.44
180.404	-18.43
180.624	-4.1
180.844	-14.34
181.064	34.82
181.283	-30.72
181.503	28.67
181.723	-43.01
181.943	-98.3
182.163	40.96
182.383	-81.92
182.602	-8.19
182.822	22.53
183.042	40.96
183.262	-47.1
183.482	-8.19
183.701	-24.58
183.921	0
184.141	-40.96
184.361	59.39
184.58	55.3
184.8	-40.96
185.02	43.01
185.239	126.97
185.459	43.01
185.679	-22.53
185.898	-14.34
186.118	8.19
186.338	16.38
186.557	2.05
186.777	49.15
186.997	-6.14
187.216	28.67
187.436	34.82
187.655	8.19
187.875	51.2
188.095	-8.19
188.314	20.48
188.534	73.73
188.753	-32.77
188.973	69.63
189.192	49.15
189.412	59.39
189.631	-40.96
189.851	-8.19
190.07	16.38
190.29	57.34
190.509	-16.38
190.729	12.29
190.948	49.15
191.168	147.45
191.387	59.39
191.607	-57.34
191.826	59.39
192.045	18.43
192.265	-71.68
192.484	-22.53
192.704	20.48
192.923	-14.34
193.142	57.34
193.362	20.48
193.581	53.25
193.8	0
194.02	0
194.239	20.48
194.458	16.38
194.678	32.77
194.897	28.67
195.116	40.96
195.335	26.62
195.555	79.87
195.774	20.48
195.993	-36.86
196.212	8.19
196.432	18.43
196.651	59.39
196.87	63.49
197.089	12.29
197.308	14.34
197.528	-36.86
197.747	-32.77
197.966	8.19
198.185	108.54
198.404	-38.91
198.623	106.49
198.842	65.54
199.062	-28.67
199.281	40.96
199.5	-55.3
199.719	-6.14
199.938	-18.43
200.157	12.29
200.376	-100.35
200.595	-63.49
200.814	77.82
201.033	-36.86
201.252	-2.05
201.471	28.67
201.69	-8.19
201.909	-32.77
202.128	-18.43
202.347	-24.58
202.566	-81.92
202.785	40.96
203.004	-71.68
203.223	106.49
203.442	34.82
203.661	-4.1
203.879	-26.62
204.098	24.58
204.317	-83.97
204.536	2.05
204.755	16.38
204.974	16.38
205.193	-14.34
205.411	55.3
205.63	8.19
205.849	10.24
206.068	24.58
206.287	-6.14
206.505	-8.19
206.724	-57.34
206.943	-6.14
207.162	20.48
207.381	34.82
207.599	40.96
207.818	16.38
208.037	-30.72
208.255	-28.67
208.474	-77.82
208.693	26.62
208.911	28.67
209.13	26.62
209.349	73.73
209.567	10.24
209.786	32.77
210.005	-32.77
210.223	-24.58
210.442	-57.34
210.661	59.39
210.879	-30.72
211.098	-32.77
211.316	98.3
211.535	-47.1
211.753	16.38
211.972	106.49
212.191	57.34
212.409	-30.72
212.628	6.14
212.846	-47.1
213.065	18.43
213.283	8.19
213.502	-8.19
213.72	-34.82
213.938	-8.19
214.157	16.38
214.375	18.43
214.594	16.38
214.812	-4.1
215.031	73.73
215.249	20.48
215.467	53.25
215.686	-34.82
215.904	32.77
216.122	2.05
216.341	24.58
216.559	34.82
216.778	16.38
216.996	6.14
217.214	28.67
217.432	-24.58
217.651	-30.72
217.869	-53.25
218.087	-24.58
218.306	51.2
218.524	20.48
218.742	-14.34
218.96	55.3
219.179	-57.34
219.397	67.58
219.615	75.77
219.833	32.77
220.051	-49.15
220.27	18.43
220.488	-26.62
220.706	6.14
220.924	-79.87
221.142	-22.53
221.36	0
221.578	-43.01
221.796	-32.77
222.015	-4.1
222.233	90.11
222.451	49.15
222.669	-73.73
222.887	59.39
223.105	-40.96
223.323	69.63
223.541	-14.34
223.759	20.48
223.977	-22.53
224.195	0
224.413	61.44
224.631	57.34
224.849	-49.15
225.067	98.3
225.285	-65.53
225.503	53.25
225.721	34.82
225.939	116.73
226.157	32.77
226.375	67.58
226.592	59.39
226.81	10.24
227.028	98.3
227.246	57.34
227.464	-8.19
227.682	8.19
227.9	53.25
228.117	4.1
228.335	26.62
228.553	-57.34
228.771	-4.1
228.989	16.38
229.206	73.73
229.424	-8.19
229.642	16.38
229.86	-6.14
230.077	-16.38
230.295	26.62
230.513	47.1
230.731	32.77
230.948	28.67
231.166	-40.96
231.384	28.67
231.601	-63.49
231.819	18.43
232.037	-26.62
232.254	0
232.472	34.82
232.689	16.38
232.907	-4.1
233.125	-16.38
233.342	10.24
233.56	38.91
233.777	20.48
233.995	24.58
234.213	16.38
234.43	8.19
234.648	16.38
234.865	53.25
235.083	49.15
235.3	69.63
235.518	124.93
235.735	32.77
235.953	18.43
236.17	-61.44
236.388	61.44
236.605	47.1
236.822	8.19
237.04	34.82
237.257	40.96
237.475	26.62
237.692	57.34
237.909	28.67
238.127	-32.77
238.344	34.82
238.562	49.15
238.779	-22.53
238.996	16.38
239.214	24.58
239.431	65.54
239.648	-10.24
239.865	61.44
240.083	-16.38
240.3	18.43
240.517	0
240.735	-6.14
240.952	77.82
241.169	30.72
241.386	-26.62
241.603	-69.63
241.821	-71.68
242.038	8.19
242.255	6.14
242.472	-6.14
242.689	36.86
242.907	-57.34
243.124	16.38
243.341	10.24
243.558	-8.19
243.775	40.96
243.992	-36.86
244.209	59.39
244.426	77.82
244.643	49.15
244.86	-16.38
245.078	67.58
245.295	16.38
245.512	36.86
245.729	-57.34
245.946	40.96
246.163	-28.67
246.38	43.01
246.597	2.05
246.814	-32.77
247.031	24.58
247.248	24.58
247.464	16.38
247.681	0
247.898	18.43
248.115	16.38
248.332	-67.58
248.549	43.01
248.766	77.82
248.983	2.05
249.2	8.19
249.417	-55.3
249.633	6.14
249.85	-16.38
250.067	-45.06
250.284	-22.53
250.501	8.19
250.717	24.58
250.934	-40.96
251.151	-8.19
251.368	-32.77
251.585	45.06
251.801	24.58
252.018	-24.58
252.235	32.77
252.451	-40.96
252.668	-96.25
252.885	57.34
253.102	-20.48
253.318	32.77
253.535	-40.96
253.752	67.58
253.968	8.19
254.185	-20.48
254.401	-26.62
254.618	92.16
254.835	36.86
255.051	75.77
255.268	67.58
255.484	8.19
255.701	-26.62
255.917	-20.48
256.134	-6.14
256.351	-65.53
256.567	69.63
256.784	18.43
257	-32.77
257.217	53.25
257.433	32.77
257.65	26.62
257.866	53.25
258.082	-4.1
258.299	-6.14
258.515	-8.19
258.732	28.67
258.948	2.05
259.165	57.34
259.381	-57.34
259.597	26.62
259.814	-4.1
260.03	30.72
260.246	32.77
260.463	2.05
260.679	61.44
260.895	-16.38
261.112	36.86
261.328	0
261.544	0
261.761	81.92
261.977	-28.67
262.193	32.77
262.409	73.73
262.626	40.96
262.842	-10.24
263.058	34.82
263.274	65.54
263.49	-30.72
263.707	-40.96
263.923	0
264.139	-14.34
264.355	28.67
264.571	12.29
264.787	24.58
265.004	2.05
265.22	-24.58
265.436	51.2
265.652	0
265.868	43.01
266.084	-14.34
266.3	-24.58
266.516	-22.53
266.732	18.43
266.948	16.38
267.164	49.15
267.38	67.58
267.596	47.1
267.812	28.67
268.028	43.01
268.244	-65.53
268.46	40.96
268.676	12.29
268.892	-22.53
269.108	-59.39
269.324	-14.34
269.54	18.43
269.756	104.45
269.972	-131.07
270.188	36.86
270.403	-38.91
270.619	-16.38
270.835	6.14
271.051	43.01
271.267	40.96
271.483	10.24
271.698	-4.1
271.914	-14.34
272.13	100.35
272.346	57.34
272.562	-22.53
272.777	59.39
272.993	-12.29
273.209	-22.53
273.425	59.39
273.64	18.43
273.856	55.3
274.072	32.77
274.287	34.82
274.503	67.58
274.719	12.29
274.934	-34.82
275.15	-73.73
275.366	-12.29
275.581	-18.43
275.797	-14.34
276.012	12.29
276.228	34.82
276.444	8.19
276.659	65.54
276.875	0
277.09	4.1
277.306	-8.19
277.521	98.3
277.737	24.58
277.952	45.06
278.168	4.1
278.383	24.58
278.599	-6.14
278.814	51.2
279.03	16.38
279.245	18.43
279.461	79.87
279.676	16.38
279.892	36.86
280.107	20.48
280.322	-36.86
280.538	-10.24
280.753	-4.1
280.969	40.96
281.184	-57.34
281.399	57.34
281.615	-40.96
281.83	-32.77
282.045	86.01
282.26	-8.19
282.476	-57.34
282.691	22.53
282.906	0
283.122	28.67
283.337	49.15
283.552	102.4
283.767	-32.77
283.983	30.72
284.198	8.19
284.413	-30.72
284.628	34.82
284.843	4.1
285.058	12.29
285.274	20.48
285.489	-26.62
285.704	-20.48
285.919	-49.15
286.134	-47.1
286.349	24.58
286.564	51.2
286.779	49.15
286.995	-24.58
287.21	-6.14
287.425	20.48
287.64	24.58
287.855	8.19
288.07	4.1
288.285	2.05
288.5	-16.38
288.715	32.77
288.93	57.34
289.145	-12.29
289.36	8.19
289.575	-90.11
289.79	-4.1
290.004	-24.58
290.219	28.67
290.434	63.49
290.649	-38.91
290.864	18.43
291.079	8.19
291.294	-22.53
291.509	-16.38
291.724	-32.77
291.938	-12.29
292.153	-24.58
292.368	22.53
292.583	-14.34
292.798	12.29
293.012	65.54
293.227	-28.67
293.442	-16.38
293.657	73.73
293.871	73.73
294.086	-14.34
294.301	96.25
294.516	34.82
294.73	53.25
294.945	-20.48
295.16	65.54
295.374	-14.34
295.589	-22.53
295.804	-24.58
296.018	61.44
296.233	49.15
296.447	86.01
296.662	-36.86
296.877	57.34
297.091	43.01
297.306	-32.77
297.52	-12.29
297.735	43.01
297.949	8.19
298.164	59.39
298.378	8.19
298.593	-14.34
298.807	8.19
299.022	30.72
299.236	-14.34
299.451	43.01
299.665	2.05
299.88	-40.96
300.094	77.82
300.309	67.58
300.523	-22.53
300.737	-22.53
300.952	51.2
301.166	114.69
301.381	16.38
301.595	-24.58
301.809	-32.77
302.024	-26.62
302.238	-28.67
302.452	10.24
302.667	40.96
302.881	77.82
303.095	83.97
303.309	28.67
303.524	51.2
303.738	-8.19
303.952	-4.1
304.166	-32.77
304.381	-43.01
304.595	30.72
304.809	-24.58
305.023	-40.96
305.237	61.44
305.452	18.43
305.666	24.58
305.88	-4.1
306.094	73.73
306.308	45.06
306.522	-77.82
306.736	24.58
306.95	-8.19
307.164	-28.67
307.379	-53.25
307.593	120.83
307.807	4.1
308.021	49.15
308.235	-38.91
308.449	-63.49
308.663	0
308.877	75.77
309.091	-28.67
309.305	63.49
309.519	-14.34
309.733	28.67
309.947	0
310.161	83.97
310.374	40.96
310.588	106.49
310.802	-12.29
311.016	8.19
311.23	30.72
311.444	8.19
311.658	-24.58
311.872	24.58
312.085	-22.53
312.299	49.15
312.513	8.19
312.727	79.87
312.941	0
313.154	8.19
313.368	-24.58
313.582	36.86
313.796	-34.82
314.009	18.43
314.223	57.34
314.437	8.19
314.651	10.24
314.864	-30.72
315.078	-12.29
315.292	47.1
315.505	-24.58
315.719	40.96
315.933	-24.58
316.146	65.54
316.36	-20.48
316.573	55.3
316.787	-2.05
317.001	112.64
317.214	65.54
317.428	34.82
317.641	-45.06
317.855	20.48
318.068	-10.24
318.282	57.34
318.495	88.06
318.709	65.54
318.922	-16.38
319.136	18.43
319.349	40.96
319.563	86.01
319.776	30.72
319.99	24.58
320.203	61.44
320.417	-8.19
320.63	81.92
320.843	4.1
321.057	-53.25
321.27	34.82
321.483	-16.38
321.697	45.06
321.91	88.06
322.124	32.77
322.337	10.24
322.55	0
322.763	-57.34
322.977	32.77
323.19	30.72
323.403	59.39
323.617	59.39
323.83	53.25
324.043	67.58
324.256	2.05
324.469	26.62
324.683	40.96
324.896	0
325.109	63.49
325.322	-24.58
325.535	86.01
325.748	26.62
325.962	-28.67
326.175	-24.58
326.388	49.15
326.601	26.62
326.814	-16.38
327.027	-24.58
327.24	40.96
327.453	-40.96
327.666	59.39
327.879	98.3
328.092	98.3
328.305	18.43
328.518	-8.19
328.731	36.86
328.944	-30.72
329.157	26.62
329.37	26.62
329.583	98.3
329.796	18.43
330.009	-28.67
330.222	79.87
330.435	90.11
330.648	90.11
330.861	8.19
331.073	0
331.286	49.15
331.499	8.19
331.712	6.14
331.925	32.77
332.138	12.29
332.35	8.19
332.563	-20.48
332.776	-47.1
332.989	10.24
333.202	18.43
333.414	12.29
333.627	-34.82
333.84	51.2
334.053	98.3
334.265	24.58
334.478	12.29
334.691	51.2
334.903	51.2
335.116	0
335.329	43.01
335.541	81.92
335.754	69.63
335.966	-40.96
336.179	-63.49
336.392	24.58
336.604	75.77
336.817	-8.19
337.029	83.97
337.242	-4.1
337.454	16.38
337.667	6.14
337.88	61.44
338.092	45.06
338.305	49.15
338.517	77.82
338.729	10.24
338.942	106.49
339.154	53.25
339.367	30.72
339.579	20.48
339.792	-73.73
340.004	90.11
340.217	-16.38
340.429	53.25
340.641	67.58
340.854	16.38
341.066	59.39
341.278	18.43
341.491	53.25
341.703	18.43
341.915	-24.58
342.128	47.1
342.34	51.2
342.552	-114.69
342.764	16.38
342.977	98.3
343.189	-16.38
343.401	24.58
343.613	-8.19
343.826	40.96
344.038	-28.67
344.25	83.97
344.462	-57.34
344.674	-6.14
344.886	6.14
345.099	43.01
345.311	32.77
345.523	16.38
345.735	-57.34
345.947	-45.06
346.159	43.01
346.371	30.72
346.583	47.1
346.795	65.54
347.007	36.86
347.219	65.54
347.431	43.01
347.643	79.87
347.855	24.58
348.067	18.43
348.279	22.53
348.491	-12.29
348.703	67.58
348.915	40.96
349.127	-55.3
349.339	-4.1
349.551	-10.24
349.763	92.16
349.975	12.29
350.187	69.63
350.399	79.87
350.61	77.82
350.822	24.58
351.034	59.39
351.246	118.78
351.458	98.3
351.669	61.44
351.881	10.24
352.093	10.24
352.305	16.38
352.517	57.34
352.728	75.77
352.94	2.05
353.152	133.12
353.363	26.62
353.575	94.21
353.787	38.91
353.999	16.38
354.21	40.96
354.422	63.49
354.633	-24.58
354.845	51.2
355.057	18.43
355.268	18.43
355.48	-8.19
355.692	32.77
355.903	2.05
356.115	-59.39
356.326	28.67
356.538	22.53
356.749	28.67
356.961	57.34
357.172	-24.58
357.384	-30.72
357.595	122.88
357.807	40.96
358.018	16.38
358.23	24.58
358.441	104.45
358.653	8.19
358.864	10.24
359.075	12.29
359.287	-32.77
359.498	73.73
359.709	-55.3
359.921	-12.29
360.132	45.06
360.344	0
360.555	16.38
360.766	14.34
360.977	26.62
361.189	-18.43
361.4	-81.92
361.611	61.44
361.823	73.73
362.034	-20.48
362.245	8.19
362.456	40.96
362.667	94.21
362.879	53.25
363.09	24.58
363.301	10.24
363.512	-12.29
363.723	20.48
363.935	-65.53
364.146	49.15
364.357	-24.58
364.568	108.54
364.779	-63.49
364.99	61.44
365.201	-61.44
365.412	57.34
365.623	-36.86
365.834	8.19
366.045	49.15
366.256	61.44
366.467	45.06
366.678	98.3
366.889	26.62
367.1	32.77
367.311	26.62
367.522	2.05
367.733	-32.77
367.944	36.86
368.155	2.05
368.366	63.49
368.577	34.82
368.788	2.05
368.999	-2.05
369.209	32.77
369.42	122.88
369.631	32.77
369.842	98.3
370.053	0
370.264	122.88
370.474	38.91
370.685	0
370.896	16.38
371.107	36.86
371.317	8.19
371.528	28.67
371.739	-28.67
371.95	8.19
372.16	79.87
372.371	-8.19
372.582	-14.34
372.792	0
373.003	34.82
373.214	51.2
373.424	8.19
373.635	26.62
373.846	49.15
374.056	-8.19
374.267	16.38
374.477	-47.1
374.688	34.82
374.898	-32.77
375.109	32.77
375.319	8.19
375.53	-4.1
375.74	81.92
375.951	73.73
376.161	16.38
376.372	49.15
376.582	2.05
376.793	81.92
377.003	-8.19
377.214	71.68
377.424	20.48
377.635	34.82
377.845	67.58
378.055	106.49
378.266	-16.38
378.476	100.35
378.686	32.77
378.897	26.62
379.107	36.86
379.317	34.82
379.528	28.67
379.738	100.35
379.948	90.11
380.158	65.54
380.369	-12.29
380.579	63.49
380.789	96.25
380.999	16.38
381.21	57.34
381.42	102.4
381.63	2.05
381.84	73.73
382.05	-20.48
382.261	24.58
382.471	49.15
382.681	-32.77
382.891	71.68
383.101	43.01
383.311	-16.38
383.521	-47.1
383.731	16.38
383.941	88.06
384.151	26.62
384.361	26.62
384.571	-20.48
384.781	77.82
384.991	45.06
385.201	73.73
385.411	59.39
385.621	-26.62
385.831	-6.14
386.041	8.19
386.251	49.15
386.461	59.39
386.671	45.06
386.881	-38.91
387.091	24.58
387.301	57.34
387.511	0
387.72	51.2
387.93	26.62
388.14	-30.72
388.35	61.44
388.56	40.96
388.769	59.39
388.979	-2.05
389.189	12.29
389.399	32.77
389.609	49.15
389.818	26.62
390.028	6.14
390.238	16.38
390.447	-55.3
390.657	24.58
390.867	-6.14
391.076	69.63
391.286	51.2
391.496	-32.77
391.705	61.44
391.915	18.43
392.125	24.58
392.334	16.38
392.544	59.39
392.753	10.24
392.963	-2.05
393.172	-20.48
393.382	24.58
393.591	110.59
393.801	-6.14
394.01	81.92
394.22	24.58
394.429	-32.77
394.639	51.2
394.848	38.91
395.058	-47.1
395.267	34.82
395.477	65.54
395.686	18.43
395.895	51.2
396.105	65.54
396.314	38.91
396.524	69.63
396.733	-16.38
396.942	126.97
397.152	36.86
397.361	53.25
397.57	67.58
397.78	116.73
397.989	71.68
398.198	6.14
398.407	51.2
398.617	75.77
398.826	100.35
399.035	32.77
399.244	28.67
399.453	75.77
399.663	86.01
399.872	75.77
400.081	83.97
400.29	114.69
400.499	4.1
400.708	51.2
400.917	61.44
401.127	57.34
401.336	53.25
401.545	81.92
401.754	81.92
401.963	67.58
402.172	45.06
402.381	116.73
402.59	65.54
402.799	18.43
403.008	102.4
403.217	102.4
403.426	143.36
403.635	102.4
403.844	69.63
404.053	57.34
404.262	124.93
404.471	77.82
404.68	104.45
404.888	61.44
405.097	120.83
405.306	102.4
405.515	124.93
405.724	131.07
405.933	92.16
406.142	43.01
406.35	159.74
406.559	147.45
406.768	165.89
406.977	180.22
407.185	198.65
407.394	114.69
407.603	112.64
407.812	77.82
408.02	200.7
408.229	225.28
408.438	151.55
408.646	133.12
408.855	208.89
409.064	206.84
409.272	131.07
409.481	225.28
409.69	245.76
409.898	188.41
410.107	229.37
410.315	196.61
410.524	182.27
410.733	210.94
410.941	206.84
411.15	294.91
411.358	253.95
411.567	258.04
411.775	266.24
411.984	245.76
412.192	239.61
412.401	253.95
412.609	352.25
412.818	368.63
413.026	313.34
413.234	305.15
413.443	305.15
413.651	344.06
413.86	372.73
414.068	417.79
414.276	471.03
414.485	372.73
414.693	516.09
414.901	464.89
415.11	475.13
415.318	489.46
415.526	462.84
415.734	598.01
415.943	573.43
416.151	610.29
416.359	641.01
416.567	641.01
416.776	583.67
416.984	698.36
417.192	669.69
417.4	745.46
417.608	710.65
417.817	794.61
418.025	761.84
418.233	808.95
418.441	743.41
418.649	714.74
418.857	860.15
419.065	931.83
419.273	884.72
419.481	962.55
419.689	1028.08
419.897	1011.7
420.105	1003.5
420.313	1040.37
420.521	1120.24
420.729	1124.33
420.937	1198.06
421.145	1181.68
421.353	1271.79
421.561	1255.4
421.769	1425.39
421.977	1374.19
422.185	1384.43
422.393	1482.73
422.601	1546.22
422.809	1542.12
423.017	1490.92
423.224	1746.92
423.432	1798.12
423.64	1658.85
423.848	1871.84
424.056	1810.4
424.263	2021.35
424.471	1966.05
424.679	2045.92
424.887	2086.88
425.094	2097.12
425.302	2088.93
425.51	2203.61
425.718	2310.11
425.925	2314.2
426.133	2408.41
426.341	2605.02
426.548	2789.33
426.756	2641.88
426.964	2813.91
427.171	2836.44
427.379	3004.37
427.586	3022.8
427.794	3008.47
428.001	3217.36
428.209	3309.52
428.417	3444.68
428.624	3583.95
428.832	3518.41
429.039	3604.43
429.247	3647.43
429.454	3891.14
429.662	4112.32
429.869	3870.66
430.076	4110.27
430.284	3899.33
430.491	4267.97
430.699	4415.42
430.906	4456.38
431.114	4523.96
431.321	4581.31
431.528	4761.53
431.736	5050.29
431.943	5324.72
432.15	5128.11
432.358	5185.46
432.565	5570.48
432.772	5412.78
432.979	5838.76
433.187	5691.31
433.394	5932.97
433.601	6307.74
433.808	6121.38
434.016	6021.03
434.223	6512.54
434.43	6700.95
434.637	6883.22
434.844	7118.74
435.052	7325.58
435.259	7317.39
435.466	7397.26
435.673	7147.41
435.88	7796.62
436.087	8021.89
436.294	8050.57
436.501	7946.12
436.708	8322.94
436.915	8277.89
437.122	8763.26
437.329	8675.2
437.537	9066.36
437.743	8933.24
437.95	8863.61
438.157	9570.16
438.364	9877.35
438.571	9852.78
438.778	9895.78
438.985	10846.04
439.192	10358.63
439.399	10508.13
439.606	10485.6
439.813	11042.65
440.02	11841.36
440.227	11597.65
440.433	11308.88
440.64	11736.91
440.847	11638.61
441.054	11771.72
441.261	12713.79
441.467	12654.4
441.674	12871.48
441.881	13348.66
442.088	13395.76
442.294	13336.37
442.501	13477.68
442.708	13850.41
442.914	14413.6
443.121	15050.52
443.328	14264.1
443.534	15474.45
443.741	14937.88
443.948	14722.85
444.154	16043.79
444.361	15902.48
444.568	16039.69
444.774	16144.14
444.981	15861.52
445.187	16748.29
445.394	17403.64
445.6	17207.03
445.807	18783.97
446.013	17981.17
446.22	18163.43
446.426	19201.76
446.633	19177.18
446.839	19752.66
447.046	18956
447.252	20154.06
447.459	19988.17
447.665	20000.46
447.871	21038.78
448.078	22054.58
448.284	20819.65
448.491	21735.09
448.697	22265.52
448.903	22687.4
449.11	22714.02
449.316	22183.6
449.522	22900.39
449.728	23576.22
449.935	23660.18
450.141	23662.23
450.347	23848.6
450.553	23312.03
450.76	23537.3
450.966	24514.19
451.172	24151.7
451.378	24905.35
451.584	24628.87
451.791	25187.97
451.997	24700.55
452.203	25239.17
452.409	25460.35
452.615	25251.45
452.821	24407.69
453.027	24399.5
453.233	25568.89
453.44	24225.42
453.646	24848
453.852	24614.54
454.058	25405.05
454.264	24407.69
454.47	25048.71
454.676	24034.96
454.882	25042.56
455.088	22912.67
455.294	23334.56
455.5	23508.63
455.705	24026.77
455.911	22843.04
456.117	22165.17
456.323	22238.89
456.529	21065.41
456.735	21759.67
456.941	21634.74
457.147	21053.12
457.352	20307.66
457.558	20481.74
457.764	20430.54
457.97	20012.75
458.176	19363.54
458.381	19822.29
458.587	18591.46
458.793	18591.46
458.999	17487.61
459.204	19154.65
459.41	18464.49
459.616	17297.14
459.821	17231.61
460.027	17346.3
460.233	16793.34
460.438	15982.35
460.644	16217.86
460.85	15548.18
461.055	15228.7
461.261	15245.08
461.466	14120.74
461.672	13528.88
461.878	14565.15
462.083	13780.78
462.289	13369.14
462.494	13305.65
462.7	12756.8
462.905	12334.92
463.111	12883.77
463.316	12932.92
463.522	12355.4
463.727	12709.69
463.932	12470.08
464.138	12341.06
464.343	12386.11
464.549	12099.4
464.754	12486.47
464.959	12302.15
465.165	12035.91
465.37	11833.16
465.575	11550.54
465.781	11935.56
465.986	11951.95
466.191	11743.05
466.397	11312.98
466.602	10854.23
466.807	11050.84
467.012	11362.13
467.218	10993.5
467.423	10930.01
467.628	11009.88
467.833	11568.98
468.038	11126.61
