Data from USB4F104151__138__14-44-08-706.txt Node

Date: Thu Mar 13 14:44:08 EDT 2025
User: louis
Spectrometer: USB4F10415
Trigger mode: 4
Integration Time (sec): 2.000000E-2
Scans to average: 1
Electric dark correction enabled: true
Nonlinearity correction enabled: false
Boxcar width: 0
XAxis mode: Wavelengths
Number of Pixels in Spectrum: 3648
>>>>>Begin Spectral Data<<<<<
178.204	-124.76
178.424	-124.76
178.644	-124.76
178.864	-120.66
179.084	-96.08
179.304	-38.74
179.524	-3.93
179.744	18.6
179.964	59.56
180.184	55.47
180.404	-16.21
180.624	-1.88
180.844	-5.97
181.064	14.51
181.283	4.27
181.503	-55.12
181.723	-30.55
181.943	-28.5
182.163	49.32
182.383	12.46
182.602	-36.69
182.822	75.95
183.042	67.75
183.262	-8.02
183.482	-3.93
183.701	14.51
183.921	-12.12
184.141	-22.36
184.361	61.61
184.58	-22.36
184.8	2.22
185.02	45.23
185.239	4.27
185.459	-1.88
185.679	20.65
185.898	2.22
186.118	77.99
186.338	-3.93
186.557	41.13
186.777	-38.74
186.997	26.79
187.216	-61.27
187.436	75.95
187.655	2.22
187.875	10.41
188.095	-18.26
188.314	67.75
188.534	67.75
188.753	80.04
188.973	6.31
189.192	8.36
189.412	65.71
189.631	10.41
189.851	43.18
190.07	4.27
190.29	-18.26
190.509	-42.84
190.729	59.56
190.948	55.47
191.168	137.38
191.387	14.51
191.607	-26.45
191.826	26.79
192.045	-30.55
192.265	14.51
192.484	69.8
192.704	77.99
192.923	-20.31
193.142	133.29
193.362	37.03
193.581	61.61
193.8	2.22
194.02	-3.93
194.239	-10.07
194.458	-30.55
194.678	34.99
194.897	4.27
195.116	24.75
195.335	12.46
195.555	43.18
195.774	30.89
195.993	61.61
196.212	26.79
196.432	2.22
196.651	51.37
196.87	30.89
197.089	2.22
197.308	20.65
197.528	59.56
197.747	43.18
197.966	47.27
198.185	2.22
198.404	-26.45
198.623	20.65
198.842	75.95
199.062	14.51
199.281	63.66
199.5	69.8
199.719	12.46
199.938	18.6
200.157	8.36
200.376	67.75
200.595	43.18
200.814	34.99
201.033	-20.31
201.252	45.23
201.471	47.27
201.69	18.6
201.909	71.85
202.128	59.56
202.347	26.79
202.566	43.18
202.785	59.56
203.004	-69.46
203.223	102.57
203.442	0.17
203.661	-53.08
203.879	-3.93
204.098	67.75
204.317	10.41
204.536	8.36
204.755	12.46
204.974	34.99
205.193	4.27
205.411	37.03
205.63	-14.17
205.849	-22.36
206.068	-5.97
206.287	-3.93
206.505	47.27
206.724	18.6
206.943	-14.17
207.162	-24.4
207.381	22.7
207.599	-1.88
207.818	14.51
208.037	-20.31
208.255	-26.45
208.474	39.08
208.693	2.22
208.911	-79.7
209.13	37.03
209.349	55.47
209.567	-18.26
209.786	100.52
210.005	55.47
210.223	26.79
210.442	-59.22
210.661	-18.26
210.879	6.31
211.098	-1.88
211.316	37.03
211.535	43.18
211.753	-53.08
211.972	-32.6
212.191	10.41
212.409	75.95
212.628	2.22
212.846	6.31
213.065	14.51
213.283	116.9
213.502	-94.04
213.72	-8.02
213.938	26.79
214.157	43.18
214.375	34.99
214.594	-46.93
214.812	39.08
215.031	18.6
215.249	14.51
215.467	14.51
215.686	-38.74
215.904	30.89
216.122	26.79
216.341	84.14
216.559	28.84
216.778	-5.97
216.996	34.99
217.214	2.22
217.432	34.99
217.651	12.46
217.869	75.95
218.087	92.33
218.306	-40.79
218.524	14.51
218.742	32.94
218.96	47.27
219.179	-55.12
219.397	63.66
219.615	53.42
219.833	0.17
220.051	39.08
220.27	73.9
220.488	30.89
220.706	92.33
220.924	67.75
221.142	69.8
221.36	-8.02
221.578	39.08
221.796	30.89
222.015	-22.36
222.233	30.89
222.451	49.32
222.669	22.7
222.887	67.75
223.105	20.65
223.323	43.18
223.541	-24.4
223.759	75.95
223.977	47.27
224.195	61.61
224.413	-5.97
224.631	43.18
224.849	-3.93
225.067	18.6
225.285	-1.88
225.503	-14.17
225.721	-53.08
225.939	45.23
226.157	2.22
226.375	108.71
226.592	2.22
226.81	90.28
227.028	49.32
227.246	43.18
227.464	-5.97
227.682	53.42
227.9	47.27
228.117	0.17
228.335	39.08
228.553	14.51
228.771	-18.26
228.989	-14.17
229.206	26.79
229.424	12.46
229.642	22.7
229.86	-14.17
230.077	55.47
230.295	14.51
230.513	-65.36
230.731	37.03
230.948	18.6
231.166	55.47
231.384	59.56
231.601	-5.97
231.819	67.75
232.037	-1.88
232.254	-3.93
232.472	-46.93
232.689	2.22
232.907	6.31
233.125	-14.17
233.342	22.7
233.56	-3.93
233.777	28.84
233.995	4.27
234.213	84.14
234.43	-26.45
234.648	-38.74
234.865	49.32
235.083	43.18
235.3	-104.28
235.518	6.31
235.735	28.84
235.953	-30.55
236.17	20.65
236.388	-12.12
236.605	57.51
236.822	47.27
237.04	-40.79
237.257	-1.88
237.475	18.6
237.692	92.33
237.909	-1.88
238.127	-42.84
238.344	-22.36
238.562	2.22
238.779	75.95
238.996	-28.5
239.214	-28.5
239.431	43.18
239.648	14.51
239.865	22.7
240.083	8.36
240.3	-10.07
240.517	39.08
240.735	45.23
240.952	10.41
241.169	67.75
241.386	37.03
241.603	59.56
241.821	-5.97
242.038	-10.07
242.255	18.6
242.472	-30.55
242.689	37.03
242.907	51.37
243.124	-14.17
243.341	84.14
243.558	-20.31
243.775	-5.97
243.992	51.37
244.209	26.79
244.426	110.76
244.643	-10.07
244.86	-22.36
245.078	45.23
245.295	53.42
245.512	10.41
245.729	22.7
245.946	4.27
246.163	22.7
246.38	-12.12
246.597	22.7
246.814	24.75
247.031	22.7
247.248	43.18
247.464	-30.55
247.681	28.84
247.898	57.51
248.115	12.46
248.332	-1.88
248.549	22.7
248.766	45.23
248.983	129.19
249.2	88.23
249.417	59.56
249.633	-30.55
249.85	2.22
250.067	0.17
250.284	-14.17
250.501	80.04
250.717	61.61
250.934	4.27
251.151	53.42
251.368	-18.26
251.585	65.71
251.801	6.31
252.018	-28.5
252.235	77.99
252.451	-65.36
252.668	34.99
252.885	-18.26
253.102	45.23
253.318	43.18
253.535	20.65
253.752	57.51
253.968	-14.17
254.185	59.56
254.401	-44.88
254.618	75.95
254.835	26.79
255.051	94.38
255.268	77.99
255.484	51.37
255.701	30.89
255.917	12.46
256.134	2.22
256.351	71.85
256.567	-38.74
256.784	71.85
257	-1.88
257.217	18.6
257.433	-12.12
257.65	63.66
257.866	34.99
258.082	14.51
258.299	14.51
258.515	104.62
258.732	-28.5
258.948	-55.12
259.165	45.23
259.381	-20.31
259.597	-46.93
259.814	-16.21
260.03	45.23
260.246	43.18
260.463	20.65
260.679	34.99
260.895	10.41
261.112	80.04
261.328	59.56
261.544	-55.12
261.761	18.6
261.977	-20.31
262.193	43.18
262.409	34.99
262.626	67.75
262.842	61.61
263.058	53.42
263.274	26.79
263.49	-16.21
263.707	-46.93
263.923	12.46
264.139	-5.97
264.355	30.89
264.571	59.56
264.787	22.7
265.004	10.41
265.22	106.67
265.436	59.56
265.652	22.7
265.868	4.27
266.084	6.31
266.3	18.6
266.516	-59.22
266.732	77.99
266.948	-1.88
267.164	-14.17
267.38	-1.88
267.596	57.51
267.812	30.89
268.028	71.85
268.244	2.22
268.46	80.04
268.676	-24.4
268.892	65.71
269.108	2.22
269.324	51.37
269.54	49.32
269.756	65.71
269.972	12.46
270.188	16.55
270.403	-30.55
270.619	75.95
270.835	34.99
271.051	30.89
271.267	-46.93
271.483	-20.31
271.698	14.51
271.914	26.79
272.13	10.41
272.346	-10.07
272.562	18.6
272.777	26.79
272.993	26.79
273.209	-3.93
273.425	34.99
273.64	-61.27
273.856	41.13
274.072	-32.6
274.287	110.76
274.503	100.52
274.719	43.18
274.934	26.79
275.15	-46.93
275.366	10.41
275.581	26.79
275.797	30.89
276.012	-20.31
276.228	-26.45
276.444	12.46
276.659	55.47
276.875	-22.36
277.09	34.99
277.306	-5.97
277.521	-1.88
277.737	10.41
277.952	82.09
278.168	-5.97
278.383	127.14
278.599	26.79
278.814	22.7
279.03	71.85
279.245	26.79
279.461	37.03
279.676	100.52
279.892	24.75
280.107	18.6
280.322	-3.93
280.538	110.76
280.753	-20.31
280.969	59.56
281.184	55.47
281.399	26.79
281.615	-67.41
281.83	57.51
282.045	28.84
282.26	26.79
282.476	-36.69
282.691	18.6
282.906	59.56
283.122	51.37
283.337	22.7
283.552	6.31
283.767	-1.88
283.983	43.18
284.198	4.27
284.413	26.79
284.628	28.84
284.843	12.46
285.058	22.7
285.274	26.79
285.489	22.7
285.704	22.7
285.919	-32.6
286.134	-20.31
286.349	18.6
286.564	71.85
286.779	20.65
286.995	10.41
287.21	-26.45
287.425	34.99
287.64	12.46
287.855	32.94
288.07	24.75
288.285	92.33
288.5	26.79
288.715	12.46
288.93	37.03
289.145	28.84
289.36	92.33
289.575	-1.88
289.79	32.94
290.004	49.32
290.219	53.42
290.434	34.99
290.649	6.31
290.864	28.84
291.079	39.08
291.294	12.46
291.509	106.67
291.724	37.03
291.938	59.56
292.153	75.95
292.368	43.18
292.583	34.99
292.798	-22.36
293.012	-38.74
293.227	41.13
293.442	4.27
293.657	2.22
293.871	-12.12
294.086	14.51
294.301	51.37
294.516	18.6
294.73	6.31
294.945	-3.93
295.16	-22.36
295.374	30.89
295.589	100.52
295.804	10.41
296.018	24.75
296.233	63.66
296.447	59.56
296.662	-42.84
296.877	2.22
297.091	8.36
297.306	43.18
297.52	-26.45
297.735	-12.12
297.949	20.65
298.164	-22.36
298.378	-46.93
298.593	-8.02
298.807	-36.69
299.022	20.65
299.236	10.41
299.451	53.42
299.665	51.37
299.88	45.23
300.094	6.31
300.309	10.41
300.523	4.27
300.737	26.79
300.952	39.08
301.166	82.09
301.381	45.23
301.595	53.42
301.809	34.99
302.024	6.31
302.238	55.47
302.452	34.99
302.667	30.89
302.881	71.85
303.095	61.61
303.309	73.9
303.524	-1.88
303.738	22.7
303.952	-10.07
304.166	10.41
304.381	-36.69
304.595	14.51
304.809	59.56
305.023	-3.93
305.237	100.52
305.452	61.61
305.666	151.72
305.88	12.46
306.094	47.27
306.308	59.56
306.522	45.23
306.736	51.37
306.95	34.99
307.164	2.22
307.379	53.42
307.593	75.95
307.807	55.47
308.021	30.89
308.235	2.22
308.449	-1.88
308.663	30.89
308.877	143.53
309.091	28.84
309.305	94.38
309.519	4.27
309.733	57.51
309.947	-87.89
310.161	55.47
310.374	94.38
310.588	67.75
310.802	-51.03
311.016	2.22
311.23	-22.36
311.444	-1.88
311.658	53.42
311.872	51.37
312.085	-26.45
312.299	-18.26
312.513	92.33
312.727	67.75
312.941	-69.46
313.154	-26.45
313.368	-85.84
313.582	-38.74
313.796	-12.12
314.009	10.41
314.223	26.79
314.437	10.41
314.651	67.75
314.864	-79.7
315.078	-12.12
315.292	-22.36
315.505	8.36
315.719	-36.69
315.933	-24.4
316.146	14.51
316.36	77.99
316.573	59.56
316.787	67.75
317.001	112.81
317.214	-28.5
317.428	-18.26
317.641	14.51
317.855	63.66
318.068	-34.64
318.282	28.84
318.495	41.13
318.709	53.42
318.922	-55.12
319.136	96.43
319.349	32.94
319.563	67.75
319.776	30.89
319.99	47.27
320.203	71.85
320.417	75.95
320.63	22.7
320.843	59.56
321.057	20.65
321.27	41.13
321.483	2.22
321.697	55.47
321.91	34.99
322.124	2.22
322.337	-12.12
322.55	8.36
322.763	12.46
322.977	-14.17
323.19	75.95
323.403	-12.12
323.617	114.86
323.83	-8.02
324.043	34.99
324.256	59.56
324.469	-77.65
324.683	59.56
324.896	-30.55
325.109	84.14
325.322	-42.84
325.535	22.7
325.748	118.95
325.962	-20.31
326.175	51.37
326.388	14.51
326.601	100.52
326.814	-14.17
327.027	-14.17
327.24	37.03
327.453	-55.12
327.666	59.56
327.879	37.03
328.092	2.22
328.305	-8.02
328.518	-36.69
328.731	34.99
328.944	-5.97
329.157	26.79
329.37	108.71
329.583	10.41
329.796	51.37
330.009	-18.26
330.222	34.99
330.435	-10.07
330.648	39.08
330.861	94.38
331.073	43.18
331.286	51.37
331.499	14.51
331.712	-22.36
331.925	100.52
332.138	4.27
332.35	51.37
332.563	-10.07
332.776	28.84
332.989	-14.17
333.202	26.79
333.414	26.79
333.627	98.47
333.84	4.27
334.053	67.75
334.265	104.62
334.478	88.23
334.691	34.99
334.903	26.79
335.116	-38.74
335.329	-59.22
335.541	2.22
335.754	84.14
335.966	-5.97
336.179	24.75
336.392	-10.07
336.604	53.42
336.817	71.85
337.029	-63.32
337.242	59.56
337.454	-14.17
337.667	20.65
337.88	94.38
338.092	-14.17
338.305	108.71
338.517	10.41
338.729	12.46
338.942	-26.45
339.154	-14.17
339.367	14.51
339.579	28.84
339.792	-36.69
340.004	61.61
340.217	2.22
340.429	22.7
340.641	34.99
340.854	-40.79
341.066	2.22
341.278	71.85
341.491	69.8
341.703	133.29
341.915	92.33
342.128	84.14
342.34	18.6
342.552	-55.12
342.764	75.95
342.977	37.03
343.189	53.42
343.401	61.61
343.613	-30.55
343.826	65.71
344.038	43.18
344.25	-20.31
344.462	43.18
344.674	18.6
344.886	30.89
345.099	53.42
345.311	-18.26
345.523	14.51
345.735	-18.26
345.947	47.27
346.159	16.55
346.371	61.61
346.583	-1.88
346.795	102.57
347.007	28.84
347.219	18.6
347.431	84.14
347.643	45.23
347.855	37.03
348.067	92.33
348.279	34.99
348.491	-18.26
348.703	20.65
348.915	92.33
349.127	-3.93
349.339	14.51
349.551	47.27
349.763	30.89
349.975	53.42
350.187	59.56
350.399	104.62
350.61	116.9
350.822	75.95
351.034	75.95
351.246	-1.88
351.458	20.65
351.669	34.99
351.881	37.03
352.093	49.32
352.305	-26.45
352.517	100.52
352.728	88.23
352.94	77.99
353.152	92.33
353.363	80.04
353.575	22.7
353.787	-5.97
353.999	57.51
354.21	94.38
354.422	0.17
354.633	34.99
354.845	2.22
355.057	2.22
355.268	37.03
355.48	18.6
355.692	-3.93
355.903	2.22
356.115	53.42
356.326	-51.03
356.538	104.62
356.749	24.75
356.961	28.84
357.172	61.61
357.384	-5.97
357.595	-10.07
357.807	141.48
358.018	47.27
358.23	28.84
358.441	69.8
358.653	-57.17
358.864	41.13
359.075	-22.36
359.287	30.89
359.498	84.14
359.709	96.43
359.921	104.62
360.132	61.61
360.344	51.37
360.555	-20.31
360.766	59.56
360.977	-18.26
361.189	84.14
361.4	53.42
361.611	37.03
361.823	61.61
362.034	18.6
362.245	26.79
362.456	18.6
362.667	8.36
362.879	43.18
363.09	20.65
363.301	24.75
363.512	39.08
363.723	43.18
363.935	2.22
364.146	-22.36
364.357	10.41
364.568	67.75
364.779	28.84
364.99	61.61
365.201	-65.36
365.412	108.71
365.623	-20.31
365.834	59.56
366.045	-34.64
366.256	8.36
366.467	-10.07
366.678	-5.97
366.889	22.7
367.1	53.42
367.311	53.42
367.522	-12.12
367.733	37.03
367.944	53.42
368.155	80.04
368.366	2.22
368.577	20.65
368.788	10.41
368.999	-38.74
369.209	41.13
369.42	135.34
369.631	121
369.842	125.1
370.053	96.43
370.264	39.08
370.474	6.31
370.685	-5.97
370.896	41.13
371.107	55.47
371.317	45.23
371.528	2.22
371.739	22.7
371.95	37.03
372.16	-14.17
372.371	-77.65
372.582	41.13
372.792	14.51
373.003	34.99
373.214	12.46
373.424	28.84
373.635	8.36
373.846	26.79
374.056	61.61
374.267	39.08
374.477	16.55
374.688	22.7
374.898	2.22
375.109	10.41
375.319	20.65
375.53	129.19
375.74	-69.46
375.951	6.31
376.161	12.46
376.372	53.42
376.582	34.99
376.793	121
377.003	24.75
377.214	10.41
377.424	20.65
377.635	-12.12
377.845	61.61
378.055	75.95
378.266	-28.5
378.476	6.31
378.686	67.75
378.897	-20.31
379.107	43.18
379.317	-51.03
379.528	77.99
379.738	47.27
379.948	-38.74
380.158	65.71
380.369	10.41
380.579	12.46
380.789	53.42
380.999	71.85
381.21	53.42
381.42	65.71
381.63	75.95
381.84	6.31
382.05	16.55
382.261	37.03
382.471	45.23
382.681	34.99
382.891	57.51
383.101	26.79
383.311	34.99
383.521	26.79
383.731	-3.93
383.941	34.99
384.151	39.08
384.361	-14.17
384.571	157.86
384.781	32.94
384.991	112.81
385.201	116.9
385.411	73.9
385.621	34.99
385.831	137.38
386.041	43.18
386.251	90.28
386.461	4.27
386.671	22.7
386.881	84.14
387.091	-22.36
387.301	108.71
387.511	2.22
387.72	43.18
387.93	-12.12
388.14	-63.32
388.35	43.18
388.56	28.84
388.769	108.71
388.979	69.8
389.189	20.65
389.399	20.65
389.609	65.71
389.818	-40.79
390.028	67.75
390.238	45.23
390.447	24.75
390.657	75.95
390.867	6.31
391.076	45.23
391.286	43.18
391.496	61.61
391.705	77.99
391.915	102.57
392.125	92.33
392.334	2.22
392.544	94.38
392.753	82.09
392.963	14.51
393.172	20.65
393.382	-20.31
393.591	145.58
393.801	6.31
394.01	84.14
394.22	118.95
394.429	39.08
394.639	16.55
394.848	43.18
395.058	34.99
395.267	-3.93
395.477	2.22
395.686	100.52
395.895	104.62
396.105	131.24
396.314	90.28
396.524	98.47
396.733	145.58
396.942	32.94
397.152	61.61
397.361	43.18
397.57	84.14
397.78	104.62
397.989	100.52
398.198	112.81
398.407	26.79
398.617	110.76
398.826	143.53
399.035	102.57
399.244	143.53
399.453	143.53
399.663	100.52
399.872	100.52
400.081	86.19
400.29	22.7
400.499	71.85
400.708	45.23
400.917	108.71
401.127	77.99
401.336	96.43
401.545	67.75
401.754	92.33
401.963	116.9
402.172	49.32
402.381	65.71
402.59	121
402.799	92.33
403.008	90.28
403.217	108.71
403.426	92.33
403.635	-1.88
403.844	88.23
404.053	75.95
404.262	112.81
404.471	256.17
404.68	127.14
404.888	137.38
405.097	116.9
405.306	86.19
405.515	104.62
405.724	186.54
405.933	157.86
406.142	184.49
406.35	127.14
406.559	250.02
406.768	161.96
406.977	153.77
407.185	153.77
407.394	123.05
407.603	157.86
407.812	190.63
408.02	211.11
408.229	118.95
408.438	231.59
408.646	190.63
408.855	190.63
409.064	276.65
409.272	233.64
409.481	219.3
409.69	235.69
409.898	215.21
410.107	239.78
410.315	233.64
410.524	241.83
410.733	264.36
410.941	288.93
411.15	280.74
411.358	297.13
411.567	374.95
411.775	370.85
411.984	284.84
412.192	321.7
412.401	329.89
412.609	370.85
412.818	465.06
413.026	456.87
413.234	411.81
413.443	446.63
413.651	479.4
413.86	432.29
414.068	559.27
414.276	682.14
414.485	485.54
414.693	635.04
414.901	616.61
415.11	641.18
415.318	618.66
415.526	678.05
415.734	641.18
415.943	768.16
416.151	757.92
416.359	682.14
416.567	764.06
416.776	768.16
416.984	878.75
417.192	870.56
417.4	897.18
417.608	774.3
417.817	829.6
418.025	968.86
418.233	1036.44
418.441	993.44
418.649	999.58
418.857	1093.79
419.065	1280.15
419.273	1058.97
419.481	1128.6
419.689	1284.25
419.897	1278.1
420.105	1360.02
420.313	1355.93
420.521	1337.49
420.729	1362.07
420.937	1478.8
421.145	1423.51
421.353	1618.07
421.561	1745.04
421.769	1667.22
421.977	1730.7
422.185	1708.18
422.393	1841.29
422.601	1998.99
422.809	1984.65
423.017	1935.5
423.224	2152.59
423.432	2156.68
423.64	2148.49
423.848	2365.57
424.056	2252.94
424.263	2443.4
424.471	2328.71
424.679	2500.74
424.887	2685.06
425.094	2773.12
425.302	2787.46
425.51	2830.46
425.718	2863.23
425.925	2871.42
426.133	2955.39
426.341	3186.81
426.548	3287.16
426.756	3307.64
426.964	3512.44
427.171	3467.38
427.379	3702.9
427.586	3778.67
427.794	3786.86
428.001	4112.49
428.209	4241.51
428.417	4218.99
428.624	4364.39
428.832	4311.14
429.039	4485.22
429.247	4427.88
429.454	4831.33
429.662	5224.54
429.869	4884.58
430.076	5314.65
430.284	5044.32
430.491	5202.01
430.699	5531.73
430.906	5634.13
431.114	5521.49
431.321	5945.42
431.528	5943.38
431.736	6236.24
431.943	6522.95
432.15	6492.23
432.358	6391.88
432.565	6805.57
432.772	6776.9
432.979	7112.77
433.187	7307.32
433.394	7286.84
433.601	7874.61
433.808	7776.31
434.016	7829.56
434.223	8222.77
434.43	8568.87
434.637	8407.08
434.844	8865.83
435.052	9144.35
435.259	9044
435.466	9168.93
435.673	8931.36
435.88	9693.21
436.087	10053.65
436.294	10203.15
436.501	9779.22
436.708	10067.99
436.915	10496.01
437.122	10770.44
437.329	10715.14
437.537	11139.07
437.743	11364.35
437.95	11264
438.157	11915.25
438.364	12146.67
438.571	12058.61
438.778	12357.61
438.985	13242.34
439.192	12976.1
439.399	13199.33
439.606	12881.89
439.813	13813.72
440.02	14497.74
440.227	14403.53
440.433	14118.87
440.64	14632.91
440.847	14272.46
441.054	14964.68
441.261	15714.23
441.467	15873.98
441.674	15972.28
441.881	16596.91
442.088	16463.79
442.294	16134.07
442.501	16803.75
442.708	17024.93
442.914	17682.33
443.121	18499.47
443.328	17917.85
443.534	19480.45
443.741	18722.7
443.948	18352.02
444.154	20086.65
444.361	19765.12
444.568	19861.37
444.774	19955.58
444.981	19980.15
445.187	20494.19
445.394	21559.14
445.6	21270.37
445.807	23304.01
446.013	22384.47
446.22	22581.07
446.426	23545.67
446.633	23861.05
446.839	24766.26
447.046	23490.37
447.252	24762.16
447.459	24670
447.665	24688.43
447.871	25876.26
448.078	27291.4
448.284	25585.44
448.491	26285.85
448.697	27426.57
448.903	27887.36
449.11	28100.35
449.316	27721.48
449.522	28165.88
449.728	28448.5
449.935	28993.26
450.141	29302.51
450.347	29642.47
450.553	29026.03
450.76	28989.17
450.966	30033.63
451.172	29611.75
451.378	30832.34
451.584	30021.34
451.791	30734.04
451.997	30533.34
452.203	31311.56
452.409	31332.04
452.615	31071.95
452.821	29644.52
453.027	29726.44
453.233	31139.54
453.44	29923.04
453.646	30691.03
453.852	30412.51
454.058	30879.44
454.264	30148.32
454.47	30723.8
454.676	29755.11
454.882	31049.42
455.088	28155.65
455.294	28620.53
455.5	29361.9
455.705	29712.1
455.911	28509.94
456.117	27760.39
456.323	27416.33
456.529	26242.84
456.735	27549.45
456.941	26638.1
457.147	26128.16
457.352	25515.81
457.558	25159.47
457.764	25095.98
457.97	24952.62
458.176	24094.52
458.381	24379.19
458.587	23105.35
458.793	23017.29
458.999	21800.8
459.204	23398.21
459.41	22853.45
459.616	21268.33
459.821	21170.02
460.027	21434.21
460.233	20565.87
460.438	19933.05
460.644	19773.31
460.85	18986.89
461.055	19001.22
461.261	18702.22
461.466	17194.92
461.672	16795.56
461.878	17997.72
462.083	16854.95
462.289	16531.37
462.494	16353.2
462.7	15634.36
462.905	15361.98
463.111	15871.93
463.316	15835.07
463.522	15484.86
463.727	15357.89
463.932	15421.38
464.138	15257.54
464.343	15386.56
464.549	15015.88
464.754	15364.03
464.959	15257.54
465.165	14919.62
465.37	14667.72
465.575	14104.53
465.781	14514.13
465.986	14886.86
466.191	14247.89
466.397	13977.56
466.602	13252.58
466.807	13715.42
467.012	13500.38
467.218	13940.69
