Data from USB4F104151__305__14-46-41-350.txt Node

Date: Thu Mar 13 14:46:41 EDT 2025
User: louis
Spectrometer: USB4F10415
Trigger mode: 4
Integration Time (sec): 2.000000E-2
Scans to average: 1
Electric dark correction enabled: true
Nonlinearity correction enabled: false
Boxcar width: 0
XAxis mode: Wavelengths
Number of Pixels in Spectrum: 3648
>>>>>Begin Spectral Data<<<<<
178.204	-124.24
178.424	-124.24
178.644	-124.24
178.864	-111.96
179.084	-171.35
179.304	31.4
179.524	15.02
179.744	-32.08
179.964	39.59
180.184	2.73
180.404	25.26
180.624	23.21
180.844	-19.8
181.064	-17.75
181.283	-32.08
181.503	-13.65
181.723	-21.85
181.943	-7.51
182.163	98.99
182.383	53.93
182.602	47.79
182.822	49.83
183.042	84.65
183.262	60.07
183.482	33.45
183.701	8.87
183.921	25.26
184.141	8.87
184.361	15.02
184.58	-34.13
184.8	76.46
185.02	23.21
185.239	27.31
185.459	41.64
185.679	31.4
185.898	-58.71
186.118	80.55
186.338	-5.46
186.557	41.64
186.777	39.59
186.997	43.69
187.216	12.97
187.436	133.8
187.655	74.41
187.875	66.22
188.095	-21.85
188.314	82.6
188.534	58.03
188.753	39.59
188.973	-15.7
189.192	-1.37
189.412	-25.94
189.631	64.17
189.851	-23.89
190.07	55.98
190.29	41.64
190.509	-42.32
190.729	23.21
190.948	148.14
191.168	170.66
191.387	-17.75
191.607	47.79
191.826	25.26
192.045	19.11
192.265	-27.99
192.484	92.84
192.704	2.73
192.923	-66.9
193.142	101.03
193.362	64.17
193.581	45.74
193.8	23.21
194.02	74.41
194.239	41.64
194.458	45.74
194.678	6.83
194.897	31.4
195.116	129.7
195.335	8.87
195.555	15.02
195.774	55.98
195.993	96.94
196.212	27.31
196.432	-17.75
196.651	47.79
196.87	-7.51
197.089	119.46
197.308	74.41
197.528	74.41
197.747	17.07
197.966	6.83
198.185	92.84
198.404	6.83
198.623	29.35
198.842	39.59
199.062	47.79
199.281	98.99
199.5	23.21
199.719	10.92
199.938	121.51
200.157	84.65
200.376	121.51
200.595	0.68
200.814	10.92
201.033	29.35
201.252	8.87
201.471	60.07
201.69	39.59
201.909	39.59
202.128	49.83
202.347	84.65
202.566	-23.89
202.785	15.02
203.004	25.26
203.223	74.41
203.442	76.46
203.661	8.87
203.879	31.4
204.098	8.87
204.317	6.83
204.536	92.84
204.755	-56.66
204.974	51.88
205.193	-32.08
205.411	94.89
205.63	66.22
205.849	51.88
206.068	17.07
206.287	47.79
206.505	47.79
206.724	25.26
206.943	66.22
207.162	51.88
207.381	10.92
207.599	12.97
207.818	45.74
208.037	23.21
208.255	6.83
208.474	72.36
208.693	150.18
208.911	29.35
209.13	10.92
209.349	31.4
209.567	39.59
209.786	70.31
210.005	64.17
210.223	72.36
210.442	27.31
210.661	101.03
210.879	76.46
211.098	-23.89
211.316	51.88
211.535	101.03
211.753	43.69
211.972	27.31
212.191	31.4
212.409	-30.04
212.628	80.55
212.846	31.4
213.065	19.11
213.283	35.5
213.502	17.07
213.72	58.03
213.938	49.83
214.157	-54.61
214.375	33.45
214.594	-7.51
214.812	27.31
215.031	31.4
215.249	68.27
215.467	84.65
215.686	-73.04
215.904	74.41
216.122	10.92
216.341	92.84
216.559	43.69
216.778	113.32
216.996	31.4
217.214	68.27
217.432	15.02
217.651	8.87
217.869	123.56
218.087	33.45
218.306	47.79
218.524	74.41
218.742	-1.37
218.96	58.03
219.179	60.07
219.397	49.83
219.615	82.6
219.833	105.13
220.051	19.11
220.27	80.55
220.488	90.79
220.706	62.12
220.924	19.11
221.142	10.92
221.36	31.4
221.578	0.68
221.796	-17.75
222.015	64.17
222.233	96.94
222.451	107.18
222.669	0.68
222.887	80.55
223.105	-30.04
223.323	25.26
223.541	-25.94
223.759	33.45
223.977	19.11
224.195	68.27
224.413	47.79
224.631	31.4
224.849	64.17
225.067	55.98
225.285	33.45
225.503	31.4
225.721	19.11
225.939	6.83
226.157	0.68
226.375	86.7
226.592	23.21
226.81	-15.7
227.028	-3.41
227.246	27.31
227.464	19.11
227.682	55.98
227.9	-1.37
228.117	29.35
228.335	82.6
228.553	84.65
228.771	35.5
228.989	31.4
229.206	119.46
229.424	25.26
229.642	39.59
229.86	66.22
230.077	33.45
230.295	51.88
230.513	27.31
230.731	88.75
230.948	107.18
231.166	96.94
231.384	-25.94
231.601	15.02
231.819	55.98
232.037	25.26
232.254	25.26
232.472	-3.41
232.689	-25.94
232.907	78.51
233.125	60.07
233.342	39.59
233.56	-9.56
233.777	2.73
233.995	55.98
234.213	-23.89
234.43	-85.33
234.648	31.4
234.865	23.21
235.083	107.18
235.3	23.21
235.518	47.79
235.735	39.59
235.953	121.51
236.17	64.17
236.388	-1.37
236.605	-9.56
236.822	41.64
237.04	68.27
237.257	88.75
237.475	-7.51
237.692	58.03
237.909	64.17
238.127	53.93
238.344	131.75
238.562	-32.08
238.779	41.64
238.996	27.31
239.214	-23.89
239.431	35.5
239.648	10.92
239.865	2.73
240.083	43.69
240.3	98.99
240.517	-25.94
240.735	55.98
240.952	49.83
241.169	74.41
241.386	66.22
241.603	-30.04
241.821	80.55
242.038	55.98
242.255	72.36
242.472	74.41
242.689	47.79
242.907	111.27
243.124	21.16
243.341	35.5
243.558	78.51
243.775	88.75
243.992	4.78
244.209	2.73
244.426	82.6
244.643	49.83
244.86	10.92
245.078	35.5
245.295	98.99
245.512	0.68
245.729	-30.04
245.946	72.36
246.163	47.79
246.38	23.21
246.597	43.69
246.814	21.16
247.031	8.87
247.248	139.94
247.464	-23.89
247.681	-13.65
247.898	23.21
248.115	35.5
248.332	-1.37
248.549	76.46
248.766	72.36
248.983	72.36
249.2	-9.56
249.417	-68.95
249.633	-25.94
249.85	43.69
250.067	-15.7
250.284	25.26
250.501	47.79
250.717	101.03
250.934	-17.75
251.151	-46.42
251.368	43.69
251.585	86.7
251.801	88.75
252.018	19.11
252.235	39.59
252.451	25.26
252.668	43.69
252.885	39.59
253.102	-21.85
253.318	39.59
253.535	-83.28
253.752	4.78
253.968	51.88
254.185	2.73
254.401	55.98
254.618	23.21
254.835	6.83
255.051	121.51
255.268	-1.37
255.484	53.93
255.701	-30.04
255.917	29.35
256.134	45.74
256.351	82.6
256.567	-27.99
256.784	8.87
257	-58.71
257.217	41.64
257.433	-13.65
257.65	88.75
257.866	21.16
258.082	39.59
258.299	94.89
258.515	10.92
258.732	43.69
258.948	49.83
259.165	37.55
259.381	21.16
259.597	58.03
259.814	19.11
260.03	6.83
260.246	-52.56
260.463	-42.32
260.679	76.46
260.895	19.11
261.112	90.79
261.328	35.5
261.544	39.59
261.761	45.74
261.977	15.02
262.193	49.83
262.409	88.75
262.626	51.88
262.842	23.21
263.058	39.59
263.274	31.4
263.49	27.31
263.707	-5.46
263.923	135.85
264.139	-1.37
264.355	45.74
264.571	35.5
264.787	64.17
265.004	23.21
265.22	-13.65
265.436	17.07
265.652	-38.23
265.868	60.07
266.084	25.26
266.3	47.79
266.516	-17.75
266.732	23.21
266.948	-9.56
267.164	25.26
267.38	72.36
267.596	23.21
267.812	101.03
268.028	72.36
268.244	15.02
268.46	51.88
268.676	94.89
268.892	41.64
269.108	-81.24
269.324	27.31
269.54	12.97
269.756	131.75
269.972	-23.89
270.188	82.6
270.403	6.83
270.619	39.59
270.835	39.59
271.051	49.83
271.267	-13.65
271.483	23.21
271.698	58.03
271.914	31.4
272.13	27.31
272.346	15.02
272.562	141.99
272.777	55.98
272.993	8.87
273.209	-34.13
273.425	-13.65
273.64	51.88
273.856	78.51
274.072	10.92
274.287	64.17
274.503	78.51
274.719	21.16
274.934	43.69
275.15	-75.09
275.366	31.4
275.581	10.92
275.797	39.59
276.012	29.35
276.228	53.93
276.444	-11.61
276.659	72.36
276.875	-42.32
277.09	25.26
277.306	55.98
277.521	76.46
277.737	123.56
277.952	76.46
278.168	88.75
278.383	62.12
278.599	55.98
278.814	88.75
279.03	60.07
279.245	27.31
279.461	55.98
279.676	19.11
279.892	0.68
280.107	35.5
280.322	8.87
280.538	119.46
280.753	109.22
280.969	64.17
281.184	2.73
281.399	170.66
281.615	31.4
281.83	8.87
282.045	23.21
282.26	31.4
282.476	84.65
282.691	92.84
282.906	-13.65
283.122	15.02
283.337	-44.37
283.552	-42.32
283.767	-52.56
283.983	74.41
284.198	4.78
284.413	6.83
284.628	10.92
284.843	72.36
285.058	-21.85
285.274	41.64
285.489	-19.8
285.704	98.99
285.919	49.83
286.134	70.31
286.349	60.07
286.564	-23.89
286.779	41.64
286.995	-9.56
287.21	-50.52
287.425	47.79
287.64	17.07
287.855	2.73
288.07	8.87
288.285	39.59
288.5	23.21
288.715	45.74
288.93	33.45
289.145	-3.41
289.36	123.56
289.575	74.41
289.79	84.65
290.004	15.02
290.219	88.75
290.434	15.02
290.649	27.31
290.864	23.21
291.079	-17.75
291.294	-38.23
291.509	76.46
291.724	92.84
291.938	72.36
292.153	66.22
292.368	0.68
292.583	15.02
292.798	10.92
293.012	96.94
293.227	107.18
293.442	15.02
293.657	60.07
293.871	129.7
294.086	-9.56
294.301	55.98
294.516	-58.71
294.73	6.83
294.945	8.87
295.16	55.98
295.374	58.03
295.589	6.83
295.804	45.74
296.018	29.35
296.233	98.99
296.447	27.31
296.662	2.73
296.877	25.26
297.091	19.11
297.306	74.41
297.52	31.4
297.735	23.21
297.949	60.07
298.164	25.26
298.378	-1.37
298.593	15.02
298.807	-56.66
299.022	31.4
299.236	19.11
299.451	10.92
299.665	51.88
299.88	19.11
300.094	58.03
300.309	23.21
300.523	15.02
300.737	23.21
300.952	80.55
301.166	55.98
301.381	43.69
301.595	33.45
301.809	84.65
302.024	-15.7
302.238	-25.94
302.452	43.69
302.667	68.27
302.881	107.18
303.095	47.79
303.309	17.07
303.524	47.79
303.738	15.02
303.952	72.36
304.166	15.02
304.381	8.87
304.595	96.94
304.809	25.26
305.023	74.41
305.237	-83.28
305.452	51.88
305.666	64.17
305.88	31.4
306.094	23.21
306.308	47.79
306.522	98.99
306.736	84.65
306.95	43.69
307.164	33.45
307.379	58.03
307.593	86.7
307.807	45.74
308.021	-9.56
308.235	8.87
308.449	88.75
308.663	-23.89
308.877	53.93
309.091	-17.75
309.305	74.41
309.519	-21.85
309.733	76.46
309.947	6.83
310.161	68.27
310.374	64.17
310.588	35.5
310.802	64.17
311.016	92.84
311.23	98.99
311.444	19.11
311.658	17.07
311.872	68.27
312.085	17.07
312.299	-23.89
312.513	107.18
312.727	-1.37
312.941	84.65
313.154	39.59
313.368	4.78
313.582	-7.51
313.796	6.83
314.009	88.75
314.223	23.21
314.437	8.87
314.651	-3.41
314.864	17.07
315.078	41.64
315.292	-34.13
315.505	-32.08
315.719	47.79
315.933	39.59
316.146	80.55
316.36	-23.89
316.573	43.69
316.787	92.84
317.001	-34.13
317.214	49.83
317.428	27.31
317.641	55.98
317.855	55.98
318.068	10.92
318.282	68.27
318.495	55.98
318.709	33.45
318.922	41.64
319.136	98.99
319.349	64.17
319.563	17.07
319.776	19.11
319.99	6.83
320.203	-9.56
320.417	27.31
320.63	105.13
320.843	49.83
321.057	23.21
321.27	98.99
321.483	92.84
321.697	41.64
321.91	51.88
322.124	23.21
322.337	-9.56
322.55	51.88
322.763	-17.75
322.977	23.21
323.19	39.59
323.403	72.36
323.617	84.65
323.83	80.55
324.043	109.22
324.256	27.31
324.469	15.02
324.683	35.5
324.896	84.65
325.109	64.17
325.322	-17.75
325.535	84.65
325.748	49.83
325.962	76.46
326.175	49.83
326.388	35.5
326.601	19.11
326.814	39.59
327.027	41.64
327.24	107.18
327.453	-23.89
327.666	49.83
327.879	15.02
328.092	0.68
328.305	-1.37
328.518	74.41
328.731	33.45
328.944	-9.56
329.157	35.5
329.37	43.69
329.583	154.28
329.796	82.6
330.009	-3.41
330.222	25.26
330.435	6.83
330.648	-9.56
330.861	-9.56
331.073	21.16
331.286	121.51
331.499	0.68
331.712	-13.65
331.925	47.79
332.138	12.97
332.35	39.59
332.563	-62.8
332.776	6.83
332.989	31.4
333.202	6.83
333.414	51.88
333.627	-1.37
333.84	23.21
334.053	39.59
334.265	-32.08
334.478	41.64
334.691	55.98
334.903	-5.46
335.116	47.79
335.329	41.64
335.541	90.79
335.754	125.61
335.966	33.45
336.179	15.02
336.392	74.41
336.604	51.88
336.817	86.7
337.029	96.94
337.242	33.45
337.454	10.92
337.667	62.12
337.88	-9.56
338.092	76.46
338.305	25.26
338.517	58.03
338.729	72.36
338.942	6.83
339.154	133.8
339.367	-5.46
339.579	146.09
339.792	-1.37
340.004	37.55
340.217	84.65
340.429	10.92
340.641	41.64
340.854	43.69
341.066	55.98
341.278	-15.7
341.491	55.98
341.703	74.41
341.915	-34.13
342.128	84.65
342.34	47.79
342.552	19.11
342.764	-34.13
342.977	0.68
343.189	66.22
343.401	41.64
343.613	-46.42
343.826	39.59
344.038	-3.41
344.25	23.21
344.462	31.4
344.674	51.88
344.886	60.07
345.099	43.69
345.311	19.11
345.523	76.46
345.735	41.64
345.947	66.22
346.159	6.83
346.371	64.17
346.583	51.88
346.795	88.75
347.007	27.31
347.219	-1.37
347.431	-25.94
347.643	55.98
347.855	21.16
348.067	41.64
348.279	-21.85
348.491	15.02
348.703	64.17
348.915	55.98
349.127	-17.75
349.339	160.42
349.551	41.64
349.763	23.21
349.975	66.22
350.187	76.46
350.399	23.21
350.61	43.69
350.822	39.59
351.034	55.98
351.246	27.31
351.458	129.7
351.669	15.02
351.881	72.36
352.093	84.65
352.305	41.64
352.517	55.98
352.728	55.98
352.94	39.59
353.152	162.47
353.363	96.94
353.575	17.07
353.787	43.69
353.999	92.84
354.21	37.55
354.422	55.98
354.633	45.74
354.845	47.79
355.057	58.03
355.268	2.73
355.48	10.92
355.692	-5.46
355.903	8.87
356.115	47.79
356.326	-52.56
356.538	74.41
356.749	31.4
356.961	41.64
357.172	31.4
357.384	47.79
357.595	92.84
357.807	47.79
358.018	60.07
358.23	17.07
358.441	74.41
358.653	31.4
358.864	6.83
359.075	37.55
359.287	90.79
359.498	35.5
359.709	53.93
359.921	-23.89
360.132	-21.85
360.344	96.94
360.555	98.99
360.766	19.11
360.977	29.35
361.189	90.79
361.4	80.55
361.611	23.21
361.823	41.64
362.034	82.6
362.245	-9.56
362.456	103.08
362.667	39.59
362.879	25.26
363.09	96.94
363.301	47.79
363.512	27.31
363.723	72.36
363.935	-40.28
364.146	101.03
364.357	111.27
364.568	31.4
364.779	-32.08
364.99	72.36
365.201	41.64
365.412	55.98
365.623	25.26
365.834	68.27
366.045	51.88
366.256	12.97
366.467	105.13
366.678	90.79
366.889	92.84
367.1	74.41
367.311	111.27
367.522	27.31
367.733	72.36
367.944	101.03
368.155	6.83
368.366	68.27
368.577	49.83
368.788	51.88
368.999	-13.65
369.209	6.83
369.42	31.4
369.631	101.03
369.842	49.83
370.053	39.59
370.264	39.59
370.474	27.31
370.685	49.83
370.896	23.21
371.107	-1.37
371.317	39.59
371.528	-60.76
371.739	41.64
371.95	60.07
372.16	47.79
372.371	23.21
372.582	111.27
372.792	58.03
373.003	80.55
373.214	58.03
373.424	107.18
373.635	21.16
373.846	41.64
374.056	-13.65
374.267	80.55
374.477	51.88
374.688	41.64
374.898	39.59
375.109	105.13
375.319	103.08
375.53	27.31
375.74	53.93
375.951	-1.37
376.161	-1.37
376.372	72.36
376.582	43.69
376.793	64.17
377.003	92.84
377.214	17.07
377.424	23.21
377.635	37.55
377.845	43.69
378.055	43.69
378.266	58.03
378.476	-30.04
378.686	12.97
378.897	70.31
379.107	15.02
379.317	17.07
379.528	45.74
379.738	23.21
379.948	-7.51
380.158	76.46
380.369	107.18
380.579	0.68
380.789	51.88
380.999	39.59
381.21	68.27
381.42	105.13
381.63	74.41
381.84	111.27
382.05	109.22
382.261	80.55
382.471	41.64
382.681	78.51
382.891	84.65
383.101	74.41
383.311	17.07
383.521	-7.51
383.731	23.21
383.941	64.17
384.151	53.93
384.361	72.36
384.571	90.79
384.781	86.7
384.991	43.69
385.201	96.94
385.411	-17.75
385.621	101.03
385.831	19.11
386.041	64.17
386.251	45.74
386.461	90.79
386.671	49.83
386.881	49.83
387.091	17.07
387.301	121.51
387.511	-17.75
387.72	86.7
387.93	94.89
388.14	39.59
388.35	88.75
388.56	74.41
388.769	125.61
388.979	70.31
389.189	-5.46
389.399	33.45
389.609	39.59
389.818	80.55
390.028	72.36
390.238	76.46
390.447	64.17
390.657	66.22
390.867	41.64
391.076	8.87
391.286	49.83
391.496	74.41
391.705	66.22
391.915	35.5
392.125	107.18
392.334	64.17
392.544	92.84
392.753	33.45
392.963	146.09
393.172	150.18
393.382	29.35
393.591	139.94
393.801	39.59
394.01	51.88
394.22	19.11
394.429	88.75
394.639	31.4
394.848	88.75
395.058	74.41
395.267	15.02
395.477	115.37
395.686	131.75
395.895	66.22
396.105	170.66
396.314	31.4
396.524	43.69
396.733	-13.65
396.942	119.46
397.152	103.08
397.361	96.94
397.57	70.31
397.78	107.18
397.989	55.98
398.198	154.28
398.407	86.7
398.617	66.22
398.826	98.99
399.035	8.87
399.244	33.45
399.453	80.55
399.663	111.27
399.872	98.99
400.081	66.22
400.29	137.9
400.499	35.5
400.708	68.27
400.917	111.27
401.127	123.56
401.336	47.79
401.545	113.32
401.754	33.45
401.963	148.14
402.172	121.51
402.381	148.14
402.59	64.17
402.799	80.55
403.008	168.62
403.217	90.79
403.426	88.75
403.635	49.83
403.844	123.56
404.053	94.89
404.262	45.74
404.471	113.32
404.68	162.47
404.888	144.04
405.097	74.41
405.306	117.42
405.515	113.32
405.724	49.83
405.933	187.05
406.142	103.08
406.35	141.99
406.559	115.37
406.768	125.61
406.977	187.05
407.185	162.47
407.394	248.49
407.603	129.7
407.812	162.47
408.02	185
408.229	195.24
408.438	137.9
408.646	205.48
408.855	230.06
409.064	260.77
409.272	262.82
409.481	244.39
409.69	283.3
409.898	254.63
410.107	281.25
410.315	289.45
410.524	346.79
410.733	326.31
410.941	254.63
411.15	332.45
411.358	357.03
411.567	408.23
411.775	309.93
411.984	346.79
412.192	357.03
412.401	377.51
412.609	375.46
412.818	445.09
413.026	500.39
413.234	498.34
413.443	447.14
413.651	484
413.86	516.77
414.068	629.41
414.276	481.96
414.485	514.72
414.693	567.97
414.901	613.03
415.11	592.55
415.318	666.27
415.526	639.65
415.734	787.1
415.943	740
416.151	744.1
416.359	696.99
416.567	809.63
416.776	809.63
416.984	840.35
417.192	946.84
417.4	866.97
417.608	873.12
417.817	1006.24
418.025	996
418.233	1108.63
418.441	899.74
418.649	1022.62
418.857	1159.83
419.065	1088.15
419.273	1116.83
419.481	1182.36
419.689	1231.51
419.897	1360.53
420.105	1264.28
420.313	1350.29
420.521	1473.17
420.729	1567.38
420.937	1493.65
421.145	1604.24
421.353	1606.29
421.561	1712.78
421.769	1718.93
421.977	1880.72
422.185	1813.13
422.393	1940.11
422.601	1931.92
422.809	2007.69
423.017	2013.84
423.224	2214.54
423.432	2210.44
423.64	2245.26
423.848	2380.42
424.056	2288.26
424.263	2521.73
424.471	2546.31
424.679	2540.16
424.887	2652.8
425.094	2744.96
425.302	2851.46
425.51	2900.61
425.718	2990.72
425.925	3078.78
426.133	3101.31
426.341	3259
426.548	3373.69
426.756	3480.18
426.964	3441.27
427.171	3529.33
427.379	3783.28
427.586	3848.82
427.794	3940.97
428.001	4096.62
428.209	4354.66
428.417	4237.93
428.624	4522.6
428.832	4512.36
429.039	4520.55
429.247	4594.28
429.454	4831.84
429.662	5089.88
429.869	4876.9
430.076	5184.09
430.284	5087.84
430.491	5302.87
430.699	5683.8
430.906	5702.23
431.114	5423.7
431.321	5878.35
431.528	5929.55
431.736	6355.53
431.943	6586.95
432.15	6611.53
432.358	6441.54
432.565	6904.39
432.772	7035.46
432.979	7260.73
433.187	7328.31
433.394	7299.64
433.601	7856.69
433.808	7854.64
434.016	7797.3
434.223	8086.06
434.43	8700.45
434.637	8389.16
434.844	9007.65
435.052	9142.82
435.259	8993.31
435.466	9177.63
435.673	9108
435.88	9607.7
436.087	10287.63
436.294	10158.61
436.501	9906.71
436.708	9878.04
436.915	10410.51
437.122	11108.87
437.329	11022.85
437.537	11139.58
437.743	11452.92
437.95	11209.22
438.157	11919.86
438.364	12249.58
438.571	11999.73
438.778	12438
438.985	13500.89
439.192	12974.56
439.399	13556.19
439.606	13036
439.813	13810.14
440.02	14662.09
440.227	14393.81
440.433	14440.91
440.64	14731.72
440.847	14621.13
441.054	15038.92
441.261	15833.53
441.467	15821.24
441.674	16146.87
441.881	16791.98
442.088	16660.91
442.294	16322.99
442.501	16800.17
442.708	17215.91
442.914	17648.03
443.121	18440.59
443.328	17963.42
443.534	19106.18
443.741	18684.3
443.948	18397.59
444.154	19673.47
444.361	19704.19
444.568	19800.44
444.774	19806.59
444.981	19939.71
445.187	20660.59
445.394	21756.25
445.6	20990.31
445.807	23271.75
446.013	22516.05
446.22	22393.17
446.426	23515.46
446.633	23863.61
446.839	24631.6
447.046	23359.81
447.252	24850.74
447.459	24932.65
447.665	24478.01
447.871	25760.03
448.078	26861.84
448.284	25565.48
448.491	26513.69
448.697	27715.84
448.903	27719.94
449.11	28219.64
449.316	27314.44
449.522	27980.03
449.728	28551.42
449.935	29090.03
450.141	29378.79
450.347	29747.43
450.553	28879.09
450.76	29274.35
450.966	30116.06
451.172	29855.97
451.378	30873.81
451.584	29976.8
451.791	30707.93
451.997	30660.82
452.203	30771.41
452.409	31531.21
452.615	31121.62
452.821	29956.32
453.027	29683.94
453.233	31473.87
453.44	29993.18
453.646	30515.42
453.852	30607.58
454.058	31232.21
454.264	29991.14
454.47	30765.27
454.676	30032.1
454.882	31193.29
455.088	28582.13
455.294	29165.81
455.5	29069.55
455.705	29317.36
455.911	28522.74
456.117	27787.52
456.323	27488.52
456.529	26173.72
456.735	27613.45
456.941	26761.49
457.147	26378.52
457.352	25512.23
457.558	25157.93
457.764	25614.63
457.97	24949.04
458.176	24117.56
458.381	24394.04
458.587	23114.06
458.793	23284.04
458.999	21817.69
459.204	23746.88
459.41	22729.04
459.616	21330.28
459.821	21326.18
460.027	21283.17
460.233	20996.46
460.438	19943.8
460.644	20375.92
460.85	19306.88
461.055	18979.21
461.261	18772.36
461.466	17562.01
461.672	17000.87
461.878	18225.56
462.083	17019.3
462.289	16710.06
462.494	16288.18
462.7	15657.4
462.905	15178.18
463.111	16073.14
463.316	16054.71
463.522	15747.51
463.727	15413.7
463.932	15393.22
464.138	15270.34
464.343	15454.65
464.549	15057.35
464.754	15401.41
464.959	15432.13
465.165	15157.7
465.37	14670.28
465.575	13959.64
465.781	14815.69
465.986	14916.04
466.191	14422.48
466.397	14062.04
466.602	13421.02
466.807	13877.72
467.012	13933.01
467.218	13791.7
467.423	13455.84
467.628	13646.3
467.833	13982.17
