Data from USB4F104151__258__14-45-58-920.txt Node

Date: Thu Mar 13 14:45:58 EDT 2025
User: louis
Spectrometer: USB4F10415
Trigger mode: 4
Integration Time (sec): 2.000000E-2
Scans to average: 1
Electric dark correction enabled: true
Nonlinearity correction enabled: false
Boxcar width: 0
XAxis mode: Wavelengths
Number of Pixels in Spectrum: 3648
>>>>>Begin Spectral Data<<<<<
178.204	-123.9
178.424	-123.9
178.644	-123.9
178.864	-134.14
179.084	-132.09
179.304	-27.65
179.524	25.6
179.744	41.98
179.964	29.7
180.184	3.07
180.404	29.7
180.624	13.31
180.844	37.89
181.064	-60.42
181.283	29.7
181.503	-72.7
181.723	-50.18
181.943	-44.03
182.163	105.47
182.383	111.61
182.602	-64.51
182.822	13.31
183.042	31.74
183.262	-15.36
183.482	52.22
183.701	-44.03
183.921	-17.41
184.141	-27.65
184.361	62.46
184.58	-35.84
184.8	5.12
185.02	78.85
185.239	74.75
185.459	-23.55
185.679	70.65
185.898	29.7
186.118	48.13
186.338	27.65
186.557	70.65
186.777	-44.03
186.997	13.31
187.216	25.6
187.436	31.74
187.655	-15.36
187.875	31.74
188.095	-5.12
188.314	21.5
188.534	70.65
188.753	37.89
188.973	-19.46
189.192	39.94
189.412	66.56
189.631	37.89
189.851	35.84
190.07	52.22
190.29	-41.98
190.509	-21.5
190.729	15.36
190.948	31.74
191.168	152.57
191.387	-33.79
191.607	-41.98
191.826	-25.6
192.045	58.37
192.265	-99.33
192.484	-11.26
192.704	39.94
192.923	29.7
193.142	62.46
193.362	111.61
193.581	46.08
193.8	44.03
194.02	56.32
194.239	-27.65
194.458	-11.26
194.678	64.51
194.897	-33.79
195.116	33.79
195.335	21.5
195.555	70.65
195.774	74.75
195.993	13.31
196.212	-44.03
196.432	-27.65
196.651	29.7
196.87	-44.03
197.089	138.24
197.308	29.7
197.528	13.31
197.747	-17.41
197.966	64.51
198.185	21.5
198.404	5.12
198.623	-1.02
198.842	58.37
199.062	7.17
199.281	37.89
199.5	54.27
199.719	13.31
199.938	37.89
200.157	-17.41
200.376	58.37
200.595	136.19
200.814	37.89
201.033	7.17
201.252	60.42
201.471	31.74
201.69	41.98
201.909	111.61
202.128	-19.46
202.347	-35.84
202.566	54.27
202.785	31.74
203.004	-48.13
203.223	87.04
203.442	-15.36
203.661	-13.31
203.879	-11.26
204.098	95.23
204.317	29.7
204.536	-1.02
204.755	-46.08
204.974	37.89
205.193	-48.13
205.411	37.89
205.63	1.02
205.849	41.98
206.068	19.46
206.287	13.31
206.505	11.26
206.724	-3.07
206.943	74.75
207.162	64.51
207.381	25.6
207.599	39.94
207.818	-9.22
208.037	-15.36
208.255	-19.46
208.474	-11.26
208.693	-25.6
208.911	-19.46
209.13	5.12
209.349	70.65
209.567	128
209.786	-7.17
210.005	-37.89
210.223	-66.56
210.442	-29.7
210.661	37.89
210.879	-11.26
211.098	9.22
211.316	74.75
211.535	23.55
211.753	5.12
211.972	48.13
212.191	-19.46
212.409	56.32
212.628	27.65
212.846	46.08
213.065	-3.07
213.283	25.6
213.502	-19.46
213.72	-72.7
213.938	-11.26
214.157	52.22
214.375	54.27
214.594	-15.36
214.812	-11.26
215.031	-11.26
215.249	-17.41
215.467	80.89
215.686	15.36
215.904	46.08
216.122	-80.89
216.341	66.56
216.559	1.02
216.778	113.66
216.996	5.12
217.214	56.32
217.432	33.79
217.651	17.41
217.869	41.98
218.087	29.7
218.306	-19.46
218.524	70.65
218.742	19.46
218.96	5.12
219.179	25.6
219.397	29.7
219.615	62.46
219.833	-11.26
220.051	13.31
220.27	37.89
220.488	95.23
220.706	70.65
220.924	29.7
221.142	-3.07
221.36	-7.17
221.578	29.7
221.796	25.6
222.015	78.85
222.233	37.89
222.451	13.31
222.669	-41.98
222.887	5.12
223.105	-15.36
223.323	54.27
223.541	-7.17
223.759	19.46
223.977	-11.26
224.195	29.7
224.413	29.7
224.631	-3.07
224.849	-1.02
225.067	46.08
225.285	-31.74
225.503	-1.02
225.721	-50.18
225.939	-35.84
226.157	-52.22
226.375	70.65
226.592	-33.79
226.81	5.12
227.028	41.98
227.246	46.08
227.464	-11.26
227.682	-66.56
227.9	50.18
228.117	50.18
228.335	21.5
228.553	5.12
228.771	99.33
228.989	103.42
229.206	84.99
229.424	35.84
229.642	15.36
229.86	29.7
230.077	39.94
230.295	64.51
230.513	15.36
230.731	68.61
230.948	25.6
231.166	29.7
231.384	33.79
231.601	-17.41
231.819	80.89
232.037	5.12
232.254	21.5
232.472	35.84
232.689	-64.51
232.907	54.27
233.125	21.5
233.342	-7.17
233.56	91.13
233.777	-19.46
233.995	-3.07
234.213	56.32
234.43	-1.02
234.648	-27.65
234.865	-11.26
235.083	-21.5
235.3	23.55
235.518	29.7
235.735	33.79
235.953	64.51
236.17	-31.74
236.388	-19.46
236.605	21.5
236.822	29.7
237.04	111.61
237.257	82.94
237.475	-7.17
237.692	64.51
237.909	91.13
238.127	5.12
238.344	37.89
238.562	5.12
238.779	41.98
238.996	-19.46
239.214	72.7
239.431	62.46
239.648	-15.36
239.865	48.13
240.083	-33.79
240.3	-27.65
240.517	-23.55
240.735	-19.46
240.952	41.98
241.169	50.18
241.386	48.13
241.603	37.89
241.821	48.13
242.038	132.09
242.255	17.41
242.472	13.31
242.689	-50.18
242.907	33.79
243.124	70.65
243.341	-17.41
243.558	17.41
243.775	29.7
243.992	-60.42
244.209	-60.42
244.426	56.32
244.643	50.18
244.86	70.65
245.078	-11.26
245.295	-19.46
245.512	1.02
245.729	-7.17
245.946	13.31
246.163	-11.26
246.38	-15.36
246.597	58.37
246.814	48.13
247.031	-35.84
247.248	60.42
247.464	25.6
247.681	-33.79
247.898	72.7
248.115	-3.07
248.332	-52.22
248.549	21.5
248.766	72.7
248.983	15.36
249.2	-11.26
249.417	25.6
249.633	119.81
249.85	-39.94
250.067	-41.98
250.284	31.74
250.501	33.79
250.717	-54.27
250.934	-27.65
251.151	7.17
251.368	-17.41
251.585	23.55
251.801	35.84
252.018	-27.65
252.235	27.65
252.451	21.5
252.668	-3.07
252.885	21.5
253.102	-54.27
253.318	25.6
253.535	-66.56
253.752	13.31
253.968	60.42
254.185	-31.74
254.401	-21.5
254.618	21.5
254.835	-19.46
255.051	72.7
255.268	9.22
255.484	5.12
255.701	-19.46
255.917	21.5
256.134	-35.84
256.351	37.89
256.567	-33.79
256.784	78.85
257	-27.65
257.217	64.51
257.433	72.7
257.65	64.51
257.866	54.27
258.082	23.55
258.299	50.18
258.515	21.5
258.732	-29.7
258.948	15.36
259.165	17.41
259.381	-21.5
259.597	-35.84
259.814	29.7
260.03	64.51
260.246	29.7
260.463	-23.55
260.679	-5.12
260.895	39.94
261.112	41.98
261.328	1.02
261.544	-33.79
261.761	99.33
261.977	21.5
262.193	-41.98
262.409	-3.07
262.626	-11.26
262.842	-3.07
263.058	17.41
263.274	-27.65
263.49	-9.22
263.707	-3.07
263.923	33.79
264.139	35.84
264.355	95.23
264.571	21.5
264.787	-17.41
265.004	21.5
265.22	-37.89
265.436	-17.41
265.652	25.6
265.868	-1.02
266.084	13.31
266.3	-11.26
266.516	-29.7
266.732	-52.22
266.948	25.6
267.164	41.98
267.38	-23.55
267.596	46.08
267.812	62.46
268.028	23.55
268.244	-11.26
268.46	9.22
268.676	54.27
268.892	9.22
269.108	31.74
269.324	-33.79
269.54	5.12
269.756	1.02
269.972	-44.03
270.188	-33.79
270.403	-1.02
270.619	-35.84
270.835	41.98
271.051	27.65
271.267	-11.26
271.483	17.41
271.698	89.09
271.914	15.36
272.13	60.42
272.346	5.12
272.562	-3.07
272.777	9.22
272.993	33.79
273.209	44.03
273.425	-3.07
273.64	-3.07
273.856	37.89
274.072	50.18
274.287	7.17
274.503	46.08
274.719	-35.84
274.934	3.07
275.15	33.79
275.366	41.98
275.581	-5.12
275.797	39.94
276.012	58.37
276.228	7.17
276.444	-29.7
276.659	37.89
276.875	-1.02
277.09	-15.36
277.306	-35.84
277.521	-15.36
277.737	-19.46
277.952	41.98
278.168	21.5
278.383	103.42
278.599	7.17
278.814	25.6
279.03	37.89
279.245	7.17
279.461	-80.89
279.676	-44.03
279.892	-39.94
280.107	64.51
280.322	-9.22
280.538	5.12
280.753	-11.26
280.969	5.12
281.184	68.61
281.399	37.89
281.615	-17.41
281.83	35.84
282.045	13.31
282.26	-27.65
282.476	-25.6
282.691	-11.26
282.906	54.27
283.122	48.13
283.337	54.27
283.552	97.28
283.767	-39.94
283.983	5.12
284.198	-27.65
284.413	25.6
284.628	-44.03
284.843	72.7
285.058	-66.56
285.274	31.74
285.489	-7.17
285.704	87.04
285.919	66.56
286.134	78.85
286.349	23.55
286.564	31.74
286.779	46.08
286.995	56.32
287.21	-35.84
287.425	-9.22
287.64	-80.89
287.855	-27.65
288.07	-5.12
288.285	29.7
288.5	70.65
288.715	66.56
288.93	23.55
289.145	-31.74
289.36	48.13
289.575	41.98
289.79	31.74
290.004	-1.02
290.219	23.55
290.434	-29.7
290.649	5.12
290.864	82.94
291.079	39.94
291.294	46.08
291.509	54.27
291.724	-15.36
291.938	82.94
292.153	78.85
292.368	-11.26
292.583	31.74
292.798	99.33
293.012	-72.7
293.227	21.5
293.442	33.79
293.657	58.37
293.871	101.37
294.086	29.7
294.301	48.13
294.516	21.5
294.73	-27.65
294.945	-19.46
295.16	13.31
295.374	62.46
295.589	62.46
295.804	13.31
296.018	-1.02
296.233	64.51
296.447	17.41
296.662	52.22
296.877	50.18
297.091	48.13
297.306	29.7
297.52	46.08
297.735	-9.22
297.949	15.36
298.164	-3.07
298.378	-23.55
298.593	13.31
298.807	-84.99
299.022	58.37
299.236	-13.31
299.451	33.79
299.665	46.08
299.88	62.46
300.094	1.02
300.309	-7.17
300.523	5.12
300.737	-19.46
300.952	95.23
301.166	93.18
301.381	19.46
301.595	54.27
301.809	7.17
302.024	48.13
302.238	21.5
302.452	23.55
302.667	-19.46
302.881	41.98
303.095	46.08
303.309	5.12
303.524	-23.55
303.738	15.36
303.952	31.74
304.166	103.42
304.381	-39.94
304.595	95.23
304.809	-3.07
305.023	-60.42
305.237	54.27
305.452	31.74
305.666	29.7
305.88	-19.46
306.094	31.74
306.308	64.51
306.522	25.6
306.736	52.22
306.95	1.02
307.164	13.31
307.379	64.51
307.593	7.17
307.807	9.22
308.021	78.85
308.235	-15.36
308.449	-58.37
308.663	21.5
308.877	21.5
309.091	23.55
309.305	-3.07
309.519	-25.6
309.733	82.94
309.947	13.31
310.161	39.94
310.374	37.89
310.588	23.55
310.802	-27.65
311.016	44.03
311.23	25.6
311.444	-11.26
311.658	52.22
311.872	87.04
312.085	66.56
312.299	70.65
312.513	11.26
312.727	89.09
312.941	9.22
313.154	15.36
313.368	-15.36
313.582	-3.07
313.796	1.02
314.009	-11.26
314.223	46.08
314.437	-11.26
314.651	64.51
314.864	23.55
315.078	21.5
315.292	-109.57
315.505	19.46
315.719	19.46
315.933	48.13
316.146	-15.36
316.36	-5.12
316.573	101.37
316.787	29.7
317.001	41.98
317.214	-9.22
317.428	35.84
317.641	17.41
317.855	33.79
318.068	9.22
318.282	-9.22
318.495	5.12
318.709	21.5
318.922	25.6
319.136	74.75
319.349	31.74
319.563	15.36
319.776	-11.26
319.99	13.31
320.203	56.32
320.417	-17.41
320.63	-52.22
320.843	103.42
321.057	33.79
321.27	29.7
321.483	17.41
321.697	21.5
321.91	13.31
322.124	48.13
322.337	-52.22
322.55	52.22
322.763	23.55
322.977	5.12
323.19	-31.74
323.403	62.46
323.617	-1.02
323.83	62.46
324.043	29.7
324.256	17.41
324.469	-7.17
324.683	-39.94
324.896	7.17
325.109	37.89
325.322	-103.42
325.535	103.42
325.748	37.89
325.962	31.74
326.175	66.56
326.388	56.32
326.601	29.7
326.814	-35.84
327.027	-7.17
327.24	128
327.453	1.02
327.666	62.46
327.879	74.75
328.092	-3.07
328.305	19.46
328.518	27.65
328.731	1.02
328.944	-11.26
329.157	-17.41
329.37	68.61
329.583	31.74
329.796	95.23
330.009	-50.18
330.222	82.94
330.435	3.07
330.648	31.74
330.861	21.5
331.073	56.32
331.286	33.79
331.499	7.17
331.712	-33.79
331.925	-33.79
332.138	66.56
332.35	33.79
332.563	37.89
332.776	89.09
332.989	39.94
333.202	1.02
333.414	13.31
333.627	82.94
333.84	9.22
334.053	21.5
334.265	-17.41
334.478	37.89
334.691	21.5
334.903	132.09
335.116	-52.22
335.329	-44.03
335.541	-3.07
335.754	80.89
335.966	-44.03
336.179	-19.46
336.392	82.94
336.604	54.27
336.817	15.36
337.029	15.36
337.242	60.42
337.454	39.94
337.667	-1.02
337.88	-7.17
338.092	50.18
338.305	58.37
338.517	15.36
338.729	56.32
338.942	84.99
339.154	-9.22
339.367	13.31
339.579	66.56
339.792	54.27
340.004	9.22
340.217	9.22
340.429	27.65
340.641	-39.94
340.854	25.6
341.066	74.75
341.278	70.65
341.491	37.89
341.703	62.46
341.915	50.18
342.128	5.12
342.34	5.12
342.552	7.17
342.764	35.84
342.977	-15.36
343.189	54.27
343.401	9.22
343.613	-33.79
343.826	56.32
344.038	17.41
344.25	80.89
344.462	13.31
344.674	-9.22
344.886	68.61
345.099	68.61
345.311	48.13
345.523	-9.22
345.735	-44.03
345.947	70.65
346.159	35.84
346.371	-27.65
346.583	-9.22
346.795	64.51
347.007	44.03
347.219	31.74
347.431	54.27
347.643	37.89
347.855	13.31
348.067	74.75
348.279	-25.6
348.491	21.5
348.703	46.08
348.915	74.75
349.127	50.18
349.339	62.46
349.551	37.89
349.763	103.42
349.975	-25.6
350.187	-1.02
350.399	31.74
350.61	35.84
350.822	11.26
351.034	70.65
351.246	-3.07
351.458	-25.6
351.669	46.08
351.881	-15.36
352.093	25.6
352.305	46.08
352.517	39.94
352.728	64.51
352.94	66.56
353.152	37.89
353.363	15.36
353.575	82.94
353.787	39.94
353.999	5.12
354.21	87.04
354.422	-11.26
354.633	37.89
354.845	-11.26
355.057	23.55
355.268	46.08
355.48	41.98
355.692	1.02
355.903	-9.22
356.115	-19.46
356.326	-64.51
356.538	62.46
356.749	21.5
356.961	-1.02
357.172	15.36
357.384	7.17
357.595	80.89
357.807	-19.46
358.018	54.27
358.23	11.26
358.441	11.26
358.653	13.31
358.864	29.7
359.075	5.12
359.287	37.89
359.498	62.46
359.709	66.56
359.921	-3.07
360.132	70.65
360.344	39.94
360.555	27.65
360.766	29.7
360.977	11.26
361.189	54.27
361.4	101.37
361.611	48.13
361.823	80.89
362.034	39.94
362.245	-1.02
362.456	3.07
362.667	103.42
362.879	-33.79
363.09	13.31
363.301	54.27
363.512	54.27
363.723	-60.42
363.935	48.13
364.146	9.22
364.357	-5.12
364.568	50.18
364.779	-27.65
364.99	97.28
365.201	37.89
365.412	64.51
365.623	-23.55
365.834	72.7
366.045	11.26
366.256	64.51
366.467	54.27
366.678	7.17
366.889	9.22
367.1	-9.22
367.311	9.22
367.522	21.5
367.733	58.37
367.944	64.51
368.155	80.89
368.366	39.94
368.577	87.04
368.788	115.71
368.999	68.61
369.209	70.65
369.42	62.46
369.631	113.66
369.842	-33.79
370.053	33.79
370.264	50.18
370.474	64.51
370.685	50.18
370.896	23.55
371.107	144.38
371.317	7.17
371.528	-23.55
371.739	91.13
371.95	17.41
372.16	41.98
372.371	-66.56
372.582	-15.36
372.792	29.7
373.003	13.31
373.214	46.08
373.424	50.18
373.635	91.13
373.846	52.22
374.056	66.56
374.267	93.18
374.477	70.65
374.688	5.12
374.898	3.07
375.109	37.89
375.319	13.31
375.53	82.94
375.74	-19.46
375.951	-7.17
376.161	-9.22
376.372	87.04
376.582	95.23
376.793	54.27
377.003	-17.41
377.214	107.52
377.424	37.89
377.635	39.94
377.845	-50.18
378.055	80.89
378.266	-25.6
378.476	15.36
378.686	23.55
378.897	64.51
379.107	41.98
379.317	58.37
379.528	3.07
379.738	62.46
379.948	-1.02
380.158	-27.65
380.369	66.56
380.579	-7.17
380.789	29.7
380.999	74.75
381.21	64.51
381.42	119.81
381.63	70.65
381.84	46.08
382.05	29.7
382.261	23.55
382.471	-19.46
382.681	-11.26
382.891	132.09
383.101	-13.31
383.311	-3.07
383.521	37.89
383.731	39.94
383.941	23.55
384.151	46.08
384.361	78.85
384.571	70.65
384.781	160.77
384.991	-7.17
385.201	21.5
385.411	103.42
385.621	23.55
385.831	125.95
386.041	29.7
386.251	7.17
386.461	97.28
386.671	-15.36
386.881	105.47
387.091	-15.36
387.301	66.56
387.511	-11.26
387.72	48.13
387.93	-23.55
388.14	46.08
388.35	29.7
388.56	121.85
388.769	87.04
388.979	84.99
389.189	25.6
389.399	25.6
389.609	21.5
389.818	-13.31
390.028	46.08
390.238	13.31
390.447	33.79
390.657	56.32
390.867	-33.79
391.076	54.27
391.286	37.89
391.496	99.33
391.705	19.46
391.915	29.7
392.125	93.18
392.334	66.56
392.544	111.61
392.753	46.08
392.963	37.89
393.172	48.13
393.382	-19.46
393.591	111.61
393.801	41.98
394.01	95.23
394.22	56.32
394.429	132.09
394.639	-11.26
394.848	37.89
395.058	105.47
395.267	23.55
395.477	-19.46
395.686	25.6
395.895	95.23
396.105	132.09
396.314	21.5
396.524	13.31
396.733	62.46
396.942	39.94
397.152	60.42
397.361	39.94
397.57	21.5
397.78	9.22
397.989	25.6
398.198	95.23
398.407	58.37
398.617	64.51
398.826	97.28
399.035	99.33
399.244	119.81
399.453	160.77
399.663	87.04
399.872	97.28
400.081	17.41
400.29	148.48
400.499	70.65
400.708	138.24
400.917	23.55
401.127	95.23
401.336	5.12
401.545	60.42
401.754	115.71
401.963	41.98
402.172	72.7
402.381	48.13
402.59	74.75
402.799	132.09
403.008	160.77
403.217	134.14
403.426	39.94
403.635	91.13
403.844	87.04
404.053	123.9
404.262	1.02
404.471	164.86
404.68	136.19
404.888	171.01
405.097	95.23
405.306	177.15
405.515	121.85
405.724	103.42
405.933	183.29
406.142	132.09
406.35	136.19
406.559	111.61
406.768	130.05
406.977	207.87
407.185	187.39
407.394	216.06
407.603	140.29
407.812	160.77
408.02	179.2
408.229	146.43
408.438	156.67
408.646	66.56
408.855	193.53
409.064	168.96
409.272	228.35
409.481	209.92
409.69	238.59
409.898	168.96
410.107	220.16
410.315	211.96
410.524	185.34
410.733	302.08
410.941	300.03
411.15	332.79
411.358	326.65
411.567	343.03
411.775	261.12
411.984	318.46
412.192	369.66
412.401	250.88
412.609	357.37
412.818	381.95
413.026	435.19
413.234	381.95
413.443	439.29
413.651	361.47
413.86	418.81
414.068	414.71
414.276	521.21
414.485	447.48
414.693	527.35
414.901	545.78
415.11	484.34
415.318	553.98
415.526	570.36
415.734	580.6
415.943	517.11
416.151	660.47
416.359	613.37
416.567	646.13
416.776	543.74
416.984	824.31
417.192	750.58
417.4	754.68
417.608	678.9
417.817	775.16
418.025	807.92
418.233	916.47
418.441	748.53
418.649	877.55
418.857	992.24
419.065	1051.63
419.273	1014.77
419.481	971.76
419.689	1074.16
419.897	1168.37
420.105	1035.25
420.313	1168.37
420.521	1268.72
420.729	1258.48
420.937	1293.29
421.145	1293.29
421.353	1473.51
421.561	1446.89
421.769	1532.9
421.977	1553.38
422.185	1569.77
422.393	1557.48
422.601	1688.55
422.809	1676.26
423.017	1727.46
423.224	1799.14
423.432	1983.46
423.64	1922.02
423.848	1948.64
424.056	1989.6
424.263	2282.46
424.471	2159.58
424.679	2155.49
424.887	2413.53
425.094	2307.04
425.302	2348
425.51	2638.81
425.718	2618.33
425.925	2544.6
426.133	2620.38
426.341	2778.07
426.548	2946
426.756	2829.27
426.964	2900.95
427.171	2995.15
427.379	3357.64
427.586	3371.98
427.794	3294.16
428.001	3593.16
428.209	3736.52
428.417	3566.54
428.624	4043.71
428.832	3914.69
429.039	3734.47
429.247	3937.22
429.454	4344.77
429.662	4611
429.869	4240.32
430.076	4563.9
430.284	4481.98
430.491	4676.54
430.699	4748.22
430.906	4852.66
431.114	4989.88
431.321	5092.27
431.528	5168.05
431.736	5501.87
431.943	5821.35
432.15	5477.29
432.358	5706.66
432.565	5981.09
432.772	6003.62
432.979	6312.86
433.187	6314.91
433.394	6413.21
433.601	6796.18
433.808	6935.45
434.016	6824.86
434.223	7003.03
434.43	7508.88
434.637	7459.73
434.844	7846.79
435.052	7787.4
435.259	8070.02
435.466	8164.23
435.673	8055.69
435.88	8713.08
436.087	8786.81
436.294	8985.46
436.501	8483.71
436.708	8792.95
436.915	9216.88
437.122	9630.57
437.329	9675.63
437.537	9933.67
437.743	9986.92
437.95	9923.43
438.157	10720.09
438.364	10679.13
438.571	11006.81
438.778	11017.05
438.985	11694.93
439.192	11311.96
439.399	11529.04
439.606	11529.04
439.813	12303.17
440.02	12821.31
440.227	12581.7
440.433	12456.77
440.64	13034.3
440.847	12874.56
441.054	13292.34
441.261	14086.95
441.467	13865.77
441.674	14185.26
441.881	14752.54
442.088	14736.16
442.294	14357.28
442.501	14918.43
442.708	15256.34
442.914	15856.4
443.121	16505.6
443.328	15989.52
443.534	17171.19
443.741	16567.04
443.948	16659.2
444.154	17601.27
444.361	17670.9
444.568	17769.2
444.774	17711.86
444.981	17728.24
445.187	18674.4
445.394	18856.67
445.6	18801.38
445.807	20314.83
446.013	19870.42
446.22	20097.74
446.426	20779.71
446.633	21131.97
446.839	21705.4
447.046	21123.77
447.252	22059.7
447.459	22340.27
447.665	22096.56
447.871	23184.03
448.078	24046.23
448.284	23243.42
448.491	23610.01
448.697	24326.8
448.903	25107.07
449.11	25338.49
449.316	24947.33
449.522	25338.49
449.728	25918.07
449.935	26067.57
450.141	26073.71
450.347	26544.75
450.553	25750.14
450.76	26169.97
450.966	27126.37
451.172	26833.51
451.378	27736.66
451.584	27054.69
451.791	27810.39
451.997	27478.62
452.203	28013.14
452.409	28015.19
452.615	28097.11
452.821	27165.28
453.027	26853.99
453.233	28299.86
453.44	27114.08
453.646	27241.06
453.852	27581.02
454.058	28007
454.264	27279.97
454.47	27920.98
454.676	27095.65
454.882	28230.23
455.088	25301.63
455.294	26450.54
455.5	26401.39
455.705	26858.09
455.911	25625.21
456.117	25205.38
456.323	24879.75
456.529	23675.54
456.735	24691.34
456.941	24001.17
457.147	23585.43
457.352	23153.31
457.558	22575.78
457.764	22968.99
457.97	22778.53
458.176	22270.64
458.381	21947.06
458.587	20761.28
458.793	21117.63
458.999	19915.47
459.204	21588.66
459.41	20761.28
459.616	19413.72
459.821	19464.92
460.027	19522.26
460.233	19051.23
460.438	18250.47
460.644	18367.21
460.85	17666.8
461.055	17267.45
461.261	17414.9
461.466	15993.61
461.672	15438.61
461.878	16595.71
462.083	15518.48
462.289	15106.84
462.494	15119.13
462.7	14568.23
462.905	13941.55
463.111	14404.39
463.316	14572.32
463.522	14218.02
463.727	14089
463.932	14246.69
464.138	13949.74
464.343	14070.57
464.549	13501.23
464.754	14156.58
464.959	14111.53
465.165	13808.43
465.37	13384.5
465.575	12925.75
465.781	13630.26
465.986	13630.26
466.191	13235
466.397	12755.77
466.602	12270.4
466.807	12872.51
467.012	12782.4
467.218	12499.78
467.423	12340.04
467.628	12688.19
