Data from USB4F104151__174__14-45-00-994.txt Node

Date: Thu Mar 13 14:45:00 EDT 2025
User: louis
Spectrometer: USB4F10415
Trigger mode: 4
Integration Time (sec): 2.000000E-2
Scans to average: 1
Electric dark correction enabled: true
Nonlinearity correction enabled: false
Boxcar width: 0
XAxis mode: Wavelengths
Number of Pixels in Spectrum: 3648
>>>>>Begin Spectral Data<<<<<
178.204	-198.14
178.424	-198.14
178.644	-198.14
178.864	-134.65
179.084	-120.32
179.304	14.85
179.524	-13.82
179.744	-42.5
179.964	10.75
180.184	59.9
180.404	4.61
180.624	39.42
180.844	35.33
181.064	-52.74
181.283	-60.93
181.503	-42.5
181.723	47.62
181.943	-112.13
182.163	109.05
182.383	10.75
182.602	27.14
182.822	31.23
183.042	6.66
183.262	-13.82
183.482	-71.17
183.701	-38.4
183.921	18.94
184.141	-38.4
184.361	78.33
184.58	25.09
184.8	-7.68
185.02	29.18
185.239	20.99
185.459	-1.54
185.679	-42.5
185.898	51.71
186.118	76.29
186.338	2.56
186.557	10.75
186.777	-42.5
186.997	35.33
187.216	-48.64
187.436	-19.97
187.655	2.56
187.875	10.75
188.095	-38.4
188.314	64
188.534	35.33
188.753	-9.73
188.973	12.8
189.192	25.09
189.412	4.61
189.631	45.57
189.851	-38.4
190.07	74.24
190.29	37.38
190.509	6.66
190.729	35.33
190.948	100.86
191.168	109.05
191.387	68.09
191.607	-36.35
191.826	-28.16
192.045	-19.97
192.265	-32.26
192.484	72.19
192.704	12.8
192.923	-69.12
193.142	84.48
193.362	39.42
193.581	43.52
193.8	35.33
194.02	35.33
194.239	59.9
194.458	4.61
194.678	27.14
194.897	20.99
195.116	2.56
195.335	10.75
195.555	27.14
195.774	10.75
195.993	-11.78
196.212	55.81
196.432	37.38
196.651	49.66
196.87	-30.21
197.089	64
197.308	10.75
197.528	-17.92
197.747	-52.74
197.966	-5.63
198.185	51.71
198.404	-54.78
198.623	43.52
198.842	-44.54
199.062	53.76
199.281	10.75
199.5	-9.73
199.719	-11.78
199.938	84.48
200.157	37.38
200.376	-9.73
200.595	61.95
200.814	37.38
201.033	23.04
201.252	43.52
201.471	10.75
201.69	133.63
201.909	-22.02
202.128	27.14
202.347	104.96
202.566	-13.82
202.785	-30.21
203.004	-13.82
203.223	76.29
203.442	4.61
203.661	29.18
203.879	-5.63
204.098	35.33
204.317	-22.02
204.536	18.94
204.755	-34.3
204.974	92.67
205.193	2.56
205.411	125.44
205.63	-24.06
205.849	43.52
206.068	70.14
206.287	45.57
206.505	-28.16
206.724	-24.06
206.943	-42.5
207.162	-26.11
207.381	-34.3
207.599	86.53
207.818	14.85
208.037	-34.3
208.255	-46.59
208.474	27.14
208.693	-60.93
208.911	-11.78
209.13	68.09
209.349	-34.3
209.567	-15.87
209.786	53.76
210.005	8.7
210.223	-11.78
210.442	-36.35
210.661	31.23
210.879	-22.02
211.098	-19.97
211.316	35.33
211.535	6.66
211.753	-1.54
211.972	39.42
212.191	23.04
212.409	18.94
212.628	76.29
212.846	-62.98
213.065	18.94
213.283	35.33
213.502	18.94
213.72	10.75
213.938	-13.82
214.157	-38.4
214.375	39.42
214.594	39.42
214.812	43.52
215.031	-44.54
215.249	23.04
215.467	-28.16
215.686	23.04
215.904	111.1
216.122	2.56
216.341	68.09
216.559	10.75
216.778	2.56
216.996	10.75
217.214	-42.5
217.432	-1.54
217.651	-19.97
217.869	-44.54
218.087	-71.17
218.306	6.66
218.524	-50.69
218.742	-1.54
218.96	4.61
219.179	12.8
219.397	31.23
219.615	18.94
219.833	-19.97
220.051	-26.11
220.27	18.94
220.488	31.23
220.706	20.99
220.924	14.85
221.142	-46.59
221.36	76.29
221.578	61.95
221.796	61.95
222.015	-3.58
222.233	64
222.451	10.75
222.669	-11.78
222.887	10.75
223.105	-34.3
223.323	-77.31
223.541	-62.98
223.759	-9.73
223.977	6.66
224.195	27.14
224.413	-26.11
224.631	55.81
224.849	-24.06
225.067	27.14
225.285	25.09
225.503	-3.58
225.721	-79.36
225.939	61.95
226.157	45.57
226.375	35.33
226.592	-75.26
226.81	35.33
227.028	35.33
227.246	23.04
227.464	-5.63
227.682	74.24
227.9	27.14
228.117	64
228.335	47.62
228.553	0.51
228.771	33.28
228.989	-7.68
229.206	51.71
229.424	-30.21
229.642	6.66
229.86	-1.54
230.077	43.52
230.295	51.71
230.513	45.57
230.731	59.9
230.948	68.09
231.166	37.38
231.384	-52.74
231.601	-17.92
231.819	31.23
232.037	43.52
232.254	-19.97
232.472	2.56
232.689	-1.54
232.907	-13.82
233.125	43.52
233.342	-13.82
233.56	-17.92
233.777	-36.35
233.995	2.56
234.213	41.47
234.43	43.52
234.648	-5.63
234.865	4.61
235.083	18.94
235.3	-54.78
235.518	43.52
235.735	27.14
235.953	-13.82
236.17	-58.88
236.388	39.42
236.605	16.9
236.822	14.85
237.04	84.48
237.257	51.71
237.475	-26.11
237.692	10.75
237.909	66.05
238.127	-52.74
238.344	12.8
238.562	10.75
238.779	10.75
238.996	6.66
239.214	-15.87
239.431	55.81
239.648	-1.54
239.865	59.9
240.083	-24.06
240.3	-3.58
240.517	6.66
240.735	31.23
240.952	35.33
241.169	51.71
241.386	-38.4
241.603	-30.21
241.821	-5.63
242.038	6.66
242.255	10.75
242.472	-17.92
242.689	35.33
242.907	35.33
243.124	-9.73
243.341	68.09
243.558	14.85
243.775	2.56
243.992	-22.02
244.209	-7.68
244.426	4.61
244.643	10.75
244.86	23.04
245.078	18.94
245.295	14.85
245.512	-5.63
245.729	25.09
245.946	61.95
246.163	-9.73
246.38	45.57
246.597	27.14
246.814	10.75
247.031	43.52
247.248	-69.12
247.464	31.23
247.681	12.8
247.898	4.61
248.115	-52.74
248.332	-22.02
248.549	27.14
248.766	70.14
248.983	-30.21
249.2	39.42
249.417	-15.87
249.633	-38.4
249.85	55.81
250.067	6.66
250.284	27.14
250.501	70.14
250.717	-5.63
250.934	6.66
251.151	-22.02
251.368	-17.92
251.585	37.38
251.801	-3.58
252.018	6.66
252.235	55.81
252.451	-46.59
252.668	29.18
252.885	76.29
253.102	-28.16
253.318	18.94
253.535	-17.92
253.752	2.56
253.968	-46.59
254.185	-17.92
254.401	-28.16
254.618	-46.59
254.835	-79.36
255.051	59.9
255.268	-22.02
255.484	109.05
255.701	-38.4
255.917	80.38
256.134	-13.82
256.351	-13.82
256.567	-11.78
256.784	-17.92
257	-26.11
257.217	45.57
257.433	4.61
257.65	27.14
257.866	14.85
258.082	-26.11
258.299	-32.26
258.515	-5.63
258.732	-65.02
258.948	6.66
259.165	4.61
259.381	-22.02
259.597	6.66
259.814	45.57
260.03	10.75
260.246	-11.78
260.463	35.33
260.679	14.85
260.895	72.19
261.112	-22.02
261.328	-34.3
261.544	12.8
261.761	33.28
261.977	27.14
262.193	68.09
262.409	-38.4
262.626	51.71
262.842	55.81
263.058	-5.63
263.274	51.71
263.49	-42.5
263.707	10.75
263.923	23.04
264.139	-52.74
264.355	-42.5
264.571	10.75
264.787	4.61
265.004	51.71
265.22	35.33
265.436	10.75
265.652	-22.02
265.868	-28.16
266.084	-40.45
266.3	0.51
266.516	57.86
266.732	-17.92
266.948	-5.63
267.164	27.14
267.38	25.09
267.596	-7.68
267.812	27.14
268.028	14.85
268.244	-83.45
268.46	-15.87
268.676	61.95
268.892	31.23
269.108	-9.73
269.324	43.52
269.54	-30.21
269.756	-1.54
269.972	-22.02
270.188	-44.54
270.403	-3.58
270.619	4.61
270.835	0.51
271.051	-1.54
271.267	41.47
271.483	-9.73
271.698	-5.63
271.914	59.9
272.13	51.71
272.346	45.57
272.562	8.7
272.777	51.71
272.993	68.09
273.209	12.8
273.425	6.66
273.64	10.75
273.856	31.23
274.072	27.14
274.287	-60.93
274.503	-22.02
274.719	-7.68
274.934	-40.45
275.15	4.61
275.366	-13.82
275.581	-13.82
275.797	51.71
276.012	18.94
276.228	-1.54
276.444	53.76
276.659	4.61
276.875	-1.54
277.09	100.86
277.306	-38.4
277.521	27.14
277.737	-24.06
277.952	68.09
278.168	10.75
278.383	61.95
278.599	37.38
278.814	18.94
279.03	20.99
279.245	117.25
279.461	37.38
279.676	20.99
279.892	-44.54
280.107	-26.11
280.322	51.71
280.538	104.96
280.753	8.7
280.969	61.95
281.184	6.66
281.399	-30.21
281.615	64
281.83	76.29
282.045	84.48
282.26	-48.64
282.476	-32.26
282.691	-3.58
282.906	96.77
283.122	27.14
283.337	18.94
283.552	43.52
283.767	70.14
283.983	-1.54
284.198	-24.06
284.413	76.29
284.628	-34.3
284.843	14.85
285.058	51.71
285.274	6.66
285.489	27.14
285.704	31.23
285.919	-38.4
286.134	-19.97
286.349	27.14
286.564	-22.02
286.779	-11.78
286.995	35.33
287.21	-69.12
287.425	-77.31
287.64	-22.02
287.855	18.94
288.07	-9.73
288.285	51.71
288.5	39.42
288.715	14.85
288.93	27.14
289.145	-5.63
289.36	35.33
289.575	-13.82
289.79	61.95
290.004	-28.16
290.219	-19.97
290.434	-13.82
290.649	-13.82
290.864	20.99
291.079	-50.69
291.294	-5.63
291.509	-22.02
291.724	47.62
291.938	-28.16
292.153	23.04
292.368	27.14
292.583	-9.73
292.798	16.9
293.012	-30.21
293.227	-3.58
293.442	-7.68
293.657	100.86
293.871	45.57
294.086	-22.02
294.301	43.52
294.516	37.38
294.73	4.61
294.945	-17.92
295.16	6.66
295.374	51.71
295.589	39.42
295.804	-1.54
296.018	27.14
296.233	27.14
296.447	43.52
296.662	-46.59
296.877	29.18
297.091	10.75
297.306	-5.63
297.52	2.56
297.735	53.76
297.949	-3.58
298.164	39.42
298.378	-19.97
298.593	-28.16
298.807	-3.58
299.022	-19.97
299.236	37.38
299.451	-30.21
299.665	72.19
299.88	55.81
300.094	72.19
300.309	-26.11
300.523	-22.02
300.737	-5.63
300.952	20.99
301.166	68.09
301.381	-19.97
301.595	59.9
301.809	-1.54
302.024	-26.11
302.238	-54.78
302.452	80.38
302.667	78.33
302.881	-15.87
303.095	51.71
303.309	31.23
303.524	2.56
303.738	-71.17
303.952	-58.88
304.166	-22.02
304.381	-52.74
304.595	61.95
304.809	35.33
305.023	111.1
305.237	35.33
305.452	55.81
305.666	6.66
305.88	0.51
306.094	-7.68
306.308	55.81
306.522	45.57
306.736	43.52
306.95	31.23
307.164	37.38
307.379	88.57
307.593	23.04
307.807	-54.78
308.021	-5.63
308.235	143.87
308.449	-17.92
308.663	-9.73
308.877	43.52
309.091	-22.02
309.305	61.95
309.519	-9.73
309.733	12.8
309.947	18.94
310.161	18.94
310.374	12.8
310.588	-93.69
310.802	-36.35
311.016	-50.69
311.23	-60.93
311.444	35.33
311.658	68.09
311.872	-1.54
312.085	-28.16
312.299	20.99
312.513	78.33
312.727	-22.02
312.941	-15.87
313.154	-13.82
313.368	-22.02
313.582	53.76
313.796	59.9
314.009	-46.59
314.223	41.47
314.437	43.52
314.651	51.71
314.864	-11.78
315.078	6.66
315.292	-22.02
315.505	39.42
315.719	-28.16
315.933	39.42
316.146	43.52
316.36	-19.97
316.573	68.09
316.787	-9.73
317.001	-19.97
317.214	10.75
317.428	59.9
317.641	-34.3
317.855	20.99
318.068	49.66
318.282	27.14
318.495	18.94
318.709	51.71
318.922	12.8
319.136	49.66
319.349	49.66
319.563	59.9
319.776	-3.58
319.99	35.33
320.203	31.23
320.417	31.23
320.63	35.33
320.843	88.57
321.057	88.57
321.27	43.52
321.483	14.85
321.697	29.18
321.91	31.23
322.124	-22.02
322.337	27.14
322.55	27.14
322.763	-1.54
322.977	70.14
323.19	-38.4
323.403	-77.31
323.617	0.51
323.83	59.9
324.043	33.28
324.256	68.09
324.469	-15.87
324.683	10.75
324.896	-1.54
325.109	-9.73
325.322	-62.98
325.535	117.25
325.748	45.57
325.962	37.38
326.175	-42.5
326.388	39.42
326.601	45.57
326.814	-50.69
327.027	27.14
327.24	18.94
327.453	-50.69
327.666	-54.78
327.879	61.95
328.092	86.53
328.305	31.23
328.518	-3.58
328.731	-13.82
328.944	43.52
329.157	61.95
329.37	-9.73
329.583	64
329.796	59.9
330.009	-34.3
330.222	86.53
330.435	20.99
330.648	6.66
330.861	2.56
331.073	104.96
331.286	41.47
331.499	53.76
331.712	-30.21
331.925	20.99
332.138	-28.16
332.35	76.29
332.563	-22.02
332.776	4.61
332.989	-46.59
333.202	53.76
333.414	27.14
333.627	12.8
333.84	-62.98
334.053	72.19
334.265	-34.3
334.478	41.47
334.691	20.99
334.903	-54.78
335.116	-26.11
335.329	18.94
335.541	8.7
335.754	53.76
335.966	-38.4
336.179	-26.11
336.392	20.99
336.604	45.57
336.817	53.76
337.029	-13.82
337.242	86.53
337.454	-7.68
337.667	18.94
337.88	86.53
338.092	-87.55
338.305	41.47
338.517	-13.82
338.729	2.56
338.942	12.8
339.154	-38.4
339.367	35.33
339.579	37.38
339.792	-26.11
340.004	2.56
340.217	78.33
340.429	10.75
340.641	-3.58
340.854	10.75
341.066	10.75
341.278	29.18
341.491	27.14
341.703	16.9
341.915	27.14
342.128	41.47
342.34	-13.82
342.552	31.23
342.764	2.56
342.977	45.57
343.189	70.14
343.401	14.85
343.613	37.38
343.826	37.38
344.038	-1.54
344.25	-54.78
344.462	-22.02
344.674	-42.5
344.886	27.14
345.099	51.71
345.311	-1.54
345.523	-5.63
345.735	-13.82
345.947	-24.06
346.159	6.66
346.371	29.18
346.583	2.56
346.795	111.1
347.007	-3.58
347.219	-75.26
347.431	-22.02
347.643	10.75
347.855	-42.5
348.067	18.94
348.279	-5.63
348.491	37.38
348.703	-13.82
348.915	78.33
349.127	-30.21
349.339	6.66
349.551	-120.32
349.763	76.29
349.975	-30.21
350.187	37.38
350.399	37.38
350.61	10.75
350.822	10.75
351.034	18.94
351.246	-11.78
351.458	23.04
351.669	23.04
351.881	-3.58
352.093	150.01
352.305	-30.21
352.517	-1.54
352.728	61.95
352.94	23.04
353.152	12.8
353.363	-44.54
353.575	55.81
353.787	59.9
353.999	27.14
354.21	-5.63
354.422	-5.63
354.633	27.14
354.845	4.61
355.057	37.38
355.268	-26.11
355.48	117.25
355.692	-30.21
355.903	41.47
356.115	-26.11
356.326	-9.73
356.538	43.52
356.749	8.7
356.961	70.14
357.172	-1.54
357.384	59.9
357.595	66.05
357.807	31.23
358.018	18.94
358.23	-22.02
358.441	90.62
358.653	20.99
358.864	0.51
359.075	-11.78
359.287	35.33
359.498	-26.11
359.709	41.47
359.921	14.85
360.132	90.62
360.344	39.42
360.555	-34.3
360.766	43.52
360.977	-1.54
361.189	61.95
361.4	-26.11
361.611	51.71
361.823	49.66
362.034	68.09
362.245	45.57
362.456	119.29
362.667	57.86
362.879	4.61
363.09	51.71
363.301	92.67
363.512	-22.02
363.723	72.19
363.935	-17.92
364.146	64
364.357	2.56
364.568	43.52
364.779	20.99
364.99	68.09
365.201	43.52
365.412	76.29
365.623	23.04
365.834	76.29
366.045	14.85
366.256	51.71
366.467	100.86
366.678	27.14
366.889	64
367.1	61.95
367.311	53.76
367.522	-17.92
367.733	70.14
367.944	12.8
368.155	70.14
368.366	14.85
368.577	35.33
368.788	51.71
368.999	-71.17
369.209	27.14
369.42	96.77
369.631	117.25
369.842	-13.82
370.053	-54.78
370.264	6.66
370.474	45.57
370.685	27.14
370.896	43.52
371.107	100.86
371.317	41.47
371.528	23.04
371.739	113.15
371.95	49.66
372.16	16.9
372.371	-5.63
372.582	6.66
372.792	12.8
373.003	35.33
373.214	68.09
373.424	47.62
373.635	-38.4
373.846	43.52
374.056	-17.92
374.267	14.85
374.477	23.04
374.688	12.8
374.898	4.61
375.109	86.53
375.319	20.99
375.53	100.86
375.74	25.09
375.951	-19.97
376.161	-26.11
376.372	68.09
376.582	27.14
376.793	-1.54
377.003	10.75
377.214	-28.16
377.424	-26.11
377.635	-38.4
377.845	2.56
378.055	94.72
378.266	49.66
378.476	-75.26
378.686	78.33
378.897	-30.21
379.107	78.33
379.317	86.53
379.528	-38.4
379.738	27.14
379.948	-24.06
380.158	70.14
380.369	-38.4
380.579	59.9
380.789	53.76
380.999	-22.02
381.21	37.38
381.42	14.85
381.63	-13.82
381.84	51.71
382.05	18.94
382.261	12.8
382.471	94.72
382.681	33.28
382.891	84.48
383.101	-13.82
383.311	6.66
383.521	6.66
383.731	27.14
383.941	-1.54
384.151	68.09
384.361	10.75
384.571	68.09
384.781	61.95
384.991	80.38
385.201	23.04
385.411	41.47
385.621	-36.35
385.831	39.42
386.041	113.15
386.251	72.19
386.461	127.49
386.671	84.48
386.881	64
387.091	10.75
387.301	55.81
387.511	-24.06
387.72	35.33
387.93	59.9
388.14	-22.02
388.35	-19.97
388.56	-9.73
388.769	74.24
388.979	57.86
389.189	68.09
389.399	74.24
389.609	51.71
389.818	111.1
390.028	29.18
390.238	94.72
390.447	4.61
390.657	-38.4
390.867	-50.69
391.076	27.14
391.286	61.95
391.496	92.67
391.705	6.66
391.915	80.38
392.125	49.66
392.334	-22.02
392.544	37.38
392.753	29.18
392.963	-7.68
393.172	76.29
393.382	27.14
393.591	84.48
393.801	-26.11
394.01	51.71
394.22	53.76
394.429	35.33
394.639	-5.63
394.848	23.04
395.058	-9.73
395.267	43.52
395.477	-19.97
395.686	59.9
395.895	168.45
396.105	59.9
396.314	113.15
396.524	51.71
396.733	76.29
396.942	68.09
397.152	43.52
397.361	68.09
397.57	14.85
397.78	125.44
397.989	66.05
398.198	59.9
398.407	59.9
398.617	53.76
398.826	61.95
399.035	-9.73
399.244	74.24
399.453	84.48
399.663	-13.82
399.872	107.01
400.081	-1.54
400.29	37.38
400.499	35.33
400.708	119.29
400.917	10.75
401.127	25.09
401.336	92.67
401.545	66.05
401.754	27.14
401.963	51.71
402.172	70.14
402.381	37.38
402.59	61.95
402.799	117.25
403.008	158.21
403.217	61.95
403.426	43.52
403.635	-3.58
403.844	-1.54
404.053	100.86
404.262	72.19
404.471	70.14
404.68	66.05
404.888	166.4
405.097	64
405.306	117.25
405.515	127.49
405.724	78.33
405.933	139.77
406.142	127.49
406.35	68.09
406.559	145.92
406.768	117.25
406.977	174.59
407.185	45.57
407.394	137.73
407.603	88.57
407.812	100.86
408.02	64
408.229	135.68
408.438	127.49
408.646	133.63
408.855	119.29
409.064	100.86
409.272	160.25
409.481	84.48
409.69	127.49
409.898	193.02
410.107	117.25
410.315	170.49
410.524	197.12
410.733	145.92
410.941	119.29
411.15	227.84
411.358	256.51
411.567	264.7
411.775	201.21
411.984	272.89
412.192	301.56
412.401	242.17
412.609	315.9
412.818	334.33
413.026	352.76
413.234	274.94
413.443	283.13
413.651	301.56
413.86	281.08
414.068	365.05
414.276	438.78
414.485	412.15
414.693	473.59
414.901	530.94
415.11	410.11
415.318	469.5
415.526	436.73
415.734	459.26
415.943	559.61
416.151	514.55
416.359	535.03
416.567	592.37
416.776	543.22
416.984	666.1
417.192	586.23
417.4	633.33
417.608	555.51
417.817	657.91
418.025	662.01
418.233	682.49
418.441	723.44
418.649	780.79
418.857	854.51
419.065	831.99
419.273	791.03
419.481	852.47
419.689	825.84
419.897	963.06
420.105	944.63
420.313	940.53
420.521	1042.93
420.729	1087.98
420.937	1036.78
421.145	1100.27
421.353	1159.66
421.561	1235.44
421.769	1235.44
421.977	1206.77
422.185	1358.32
422.393	1468.91
422.601	1509.86
422.809	1446.38
423.017	1423.85
423.224	1548.78
423.432	1493.48
423.64	1583.59
423.848	1815.01
424.056	1567.21
424.263	1726.95
424.471	1696.23
424.679	1808.87
424.887	1866.21
425.094	1987.04
425.302	1952.23
425.51	2005.47
425.718	2023.91
425.925	2183.65
426.133	2120.16
426.341	2388.44
426.548	2413.02
426.756	2472.41
426.964	2517.47
427.171	2759.13
427.379	2689.49
427.586	2789.85
427.794	2771.41
428.001	2931.16
428.209	3140.05
428.417	3084.75
428.624	3320.27
428.832	3312.08
429.039	3033.55
429.247	3287.5
429.454	3516.87
429.662	3791.3
429.869	3402.19
430.076	3725.77
430.284	3611.08
430.491	3754.44
430.699	3955.14
430.906	4022.72
431.114	3977.67
431.321	4135.36
431.528	4301.25
431.736	4575.67
431.943	4835.77
432.15	4522.43
432.358	4745.66
432.565	4798.9
432.772	4966.84
432.979	5052.85
433.187	5122.48
433.394	5329.33
433.601	5700.01
433.808	5773.74
434.016	5745.06
434.223	5857.7
434.43	6066.6
434.637	6195.62
434.844	6498.72
435.052	6760.86
435.259	6545.82
435.466	6707.61
435.673	6769.05
435.88	6949.27
436.087	7401.87
436.294	7211.41
436.501	7233.94
436.708	7260.56
436.915	7612.81
437.122	7833.99
437.329	8149.38
437.537	8053.13
437.743	8227.2
437.95	8169.86
438.157	8665.47
438.364	9017.72
438.571	8952.18
438.778	8935.8
438.985	9828.71
439.192	9529.71
439.399	9673.07
439.606	9410.93
439.813	10090.85
440.02	10447.2
440.227	10357.09
440.433	10197.35
440.64	10836.31
440.847	10639.71
441.054	10684.76
441.261	11624.78
441.467	11475.28
441.674	11569.49
441.881	11946.31
442.088	11929.93
442.294	11864.39
442.501	12224.84
442.708	12679.49
442.914	12859.71
443.121	13381.94
443.328	13082.94
443.534	13941.04
443.741	13799.73
443.948	13261.11
444.154	14395.68
444.361	14264.61
444.568	14342.44
444.774	14299.43
444.981	14471.46
445.187	15173.91
445.394	15739.15
445.6	15331.61
445.807	16890.11
446.013	16251.14
446.22	16156.94
446.426	16967.93
446.633	17127.67
446.839	17934.57
447.046	17213.69
447.252	18073.84
447.459	18139.37
447.665	18086.12
447.871	18778.34
448.078	19810.51
448.284	18862.3
448.491	19007.71
448.697	19974.35
448.903	20566.21
449.11	20322.51
449.316	20195.53
449.522	20390.09
449.728	20824.26
449.935	21262.52
450.141	21098.69
450.347	21657.78
450.553	20959.42
450.76	21358.78
450.966	22114.48
451.172	21696.69
451.378	22311.08
451.584	21950.64
451.791	22421.67
451.997	22444.2
452.203	22837.41
452.409	22798.5
452.615	22933.67
452.821	21758.13
453.027	21665.97
453.233	22993.06
453.44	22173.87
453.646	21969.07
453.852	22048.94
454.058	22679.72
454.264	22005.94
454.47	22732.97
454.676	21801.14
454.882	22667.43
455.088	20701.38
455.294	20842.69
455.5	21498.04
455.705	21567.67
455.911	20793.54
456.117	20242.64
456.323	20121.8
456.529	19079.39
456.735	19830.99
456.941	19204.31
457.147	19134.68
457.352	18524.39
457.558	18350.31
457.764	18573.54
457.97	18016.49
458.176	17633.52
458.381	17688.82
458.587	17025.28
458.793	16759.04
458.999	16060.68
459.204	17148.15
459.41	16632.07
459.616	15597.84
459.821	15757.58
460.027	15395.09
460.233	15089.95
460.438	14487.84
460.644	14758.17
460.85	14051.63
461.055	13719.85
461.261	13859.12
461.466	12589.38
461.672	12413.25
461.878	13125.94
462.083	12431.68
462.289	12081.48
462.494	11964.75
462.7	11290.96
462.905	11094.36
463.111	11506
463.316	11534.67
463.522	11360.59
463.727	11290.96
463.932	11340.11
464.138	11063.64
464.343	11241.81
464.549	10916.19
464.754	11256.15
464.959	11229.52
465.165	11018.58
465.37	10627.42
465.575	10344.8
465.781	10871.13
465.986	10797.4
466.191	10262.88
466.397	10226.02
466.602	9542
466.807	9972.07
467.012	9873.77
467.218	10217.83
