Data from USB4F104151__253__14-45-55-361.txt Node

Date: Thu Mar 13 14:45:55 EDT 2025
User: louis
Spectrometer: USB4F10415
Trigger mode: 4
Integration Time (sec): 2.000000E-2
Scans to average: 1
Electric dark correction enabled: true
Nonlinearity correction enabled: false
Boxcar width: 0
XAxis mode: Wavelengths
Number of Pixels in Spectrum: 3648
>>>>>Begin Spectral Data<<<<<
178.204	-165.89
178.424	-165.89
178.644	-165.89
178.864	-137.21
179.084	-112.64
179.304	14.34
179.524	-26.62
179.744	-4.1
179.964	16.38
180.184	-36.86
180.404	57.34
180.624	2.05
180.844	22.53
181.064	-24.58
181.283	-2.05
181.503	-8.19
181.723	-10.24
181.943	-40.96
182.163	-26.62
182.383	-34.82
182.602	-18.43
182.822	43.01
183.042	-26.62
183.262	-40.96
183.482	-2.05
183.701	14.34
183.921	-26.62
184.141	43.01
184.361	71.68
184.58	-18.43
184.8	53.25
185.02	2.05
185.239	30.72
185.459	24.58
185.679	-8.19
185.898	-71.68
186.118	22.53
186.338	14.34
186.557	22.53
186.777	77.82
186.997	14.34
187.216	2.05
187.436	0
187.655	-30.72
187.875	-10.24
188.095	-36.86
188.314	-10.24
188.534	98.3
188.753	59.39
188.973	-2.05
189.192	71.68
189.412	10.24
189.631	88.06
189.851	-51.2
190.07	38.91
190.29	10.24
190.509	32.77
190.729	18.43
190.948	45.06
191.168	129.02
191.387	12.29
191.607	34.82
191.826	0
192.045	16.38
192.265	57.34
192.484	-28.67
192.704	-26.62
192.923	16.38
193.142	32.77
193.362	-36.86
193.581	24.58
193.8	12.29
194.02	49.15
194.239	43.01
194.458	-12.29
194.678	30.72
194.897	2.05
195.116	10.24
195.335	38.91
195.555	30.72
195.774	-38.91
195.993	-12.29
196.212	16.38
196.432	71.68
196.651	-98.3
196.87	18.43
197.089	38.91
197.308	2.05
197.528	49.15
197.747	30.72
197.966	-24.58
198.185	98.3
198.404	10.24
198.623	6.14
198.842	43.01
199.062	12.29
199.281	69.63
199.5	-34.82
199.719	10.24
199.938	14.34
200.157	47.1
200.376	-14.34
200.595	-32.77
200.814	0
201.033	2.05
201.252	-10.24
201.471	16.38
201.69	-8.19
201.909	114.69
202.128	24.58
202.347	-6.14
202.566	16.38
202.785	-32.77
203.004	-47.1
203.223	57.34
203.442	14.34
203.661	-34.82
203.879	16.38
204.098	20.48
204.317	-43.01
204.536	18.43
204.755	-2.05
204.974	90.11
205.193	43.01
205.411	88.06
205.63	-49.15
205.849	16.38
206.068	-43.01
206.287	-47.1
206.505	-30.72
206.724	-100.35
206.943	-43.01
207.162	-6.14
207.381	-55.3
207.599	6.14
207.818	65.54
208.037	34.82
208.255	-32.77
208.474	-6.14
208.693	49.15
208.911	-49.15
209.13	57.34
209.349	49.15
209.567	45.06
209.786	40.96
210.005	-10.24
210.223	2.05
210.442	-10.24
210.661	-22.53
210.879	-34.82
211.098	-2.05
211.316	10.24
211.535	-4.1
211.753	-8.19
211.972	40.96
212.191	-40.96
212.409	-18.43
212.628	32.77
212.846	6.14
213.065	43.01
213.283	30.72
213.502	2.05
213.72	22.53
213.938	-16.38
214.157	-12.29
214.375	24.58
214.594	22.53
214.812	-28.67
215.031	47.1
215.249	6.14
215.467	6.14
215.686	-4.1
215.904	-40.96
216.122	18.43
216.341	-18.43
216.559	-16.38
216.778	40.96
216.996	59.39
217.214	34.82
217.432	2.05
217.651	-30.72
217.869	20.48
218.087	2.05
218.306	43.01
218.524	22.53
218.742	-45.06
218.96	47.1
219.179	14.34
219.397	8.19
219.615	43.01
219.833	2.05
220.051	-43.01
220.27	20.48
220.488	28.67
220.706	8.19
220.924	-2.05
221.142	38.91
221.36	4.1
221.578	47.1
221.796	38.91
222.015	55.3
222.233	79.87
222.451	-2.05
222.669	-79.87
222.887	81.92
223.105	-36.86
223.323	36.86
223.541	-65.54
223.759	-12.29
223.977	6.14
224.195	6.14
224.413	43.01
224.631	-49.15
224.849	6.14
225.067	102.4
225.285	-2.05
225.503	4.1
225.721	-59.39
225.939	30.72
226.157	-8.19
226.375	92.16
226.592	-26.62
226.81	57.34
227.028	-10.24
227.246	24.58
227.464	22.53
227.682	55.3
227.9	34.82
228.117	51.2
228.335	-51.2
228.553	51.2
228.771	-18.43
228.989	-59.39
229.206	51.2
229.424	24.58
229.642	-75.77
229.86	43.01
230.077	-36.86
230.295	36.86
230.513	6.14
230.731	32.77
230.948	55.3
231.166	38.91
231.384	14.34
231.601	26.62
231.819	53.25
232.037	-43.01
232.254	-10.24
232.472	57.34
232.689	-38.91
232.907	65.54
233.125	14.34
233.342	-8.19
233.56	-14.34
233.777	-40.96
233.995	47.1
234.213	18.43
234.43	30.72
234.648	38.91
234.865	47.1
235.083	34.82
235.3	-2.05
235.518	-16.38
235.735	14.34
235.953	24.58
236.17	38.91
236.388	0
236.605	38.91
236.822	-2.05
237.04	-2.05
237.257	40.96
237.475	-2.05
237.692	104.45
237.909	-38.91
238.127	6.14
238.344	16.38
238.562	20.48
238.779	-12.29
238.996	-22.53
239.214	-83.97
239.431	38.91
239.648	-65.54
239.865	26.62
240.083	38.91
240.3	-38.91
240.517	-43.01
240.735	-67.58
240.952	-2.05
241.169	63.49
241.386	6.14
241.603	-24.58
241.821	-34.82
242.038	79.87
242.255	61.44
242.472	-67.58
242.689	71.68
242.907	65.54
243.124	-34.82
243.341	22.53
243.558	-40.96
243.775	-8.19
243.992	67.58
244.209	63.49
244.426	43.01
244.643	57.34
244.86	10.24
245.078	-24.58
245.295	-18.43
245.512	-8.19
245.729	-26.62
245.946	8.19
246.163	51.2
246.38	38.91
246.597	-22.53
246.814	49.15
247.031	8.19
247.248	38.91
247.464	20.48
247.681	0
247.898	79.87
248.115	49.15
248.332	40.96
248.549	-43.01
248.766	90.11
248.983	59.39
249.2	12.29
249.417	32.77
249.633	14.34
249.85	-10.24
250.067	55.3
250.284	-32.77
250.501	10.24
250.717	57.34
250.934	-57.34
251.151	-24.58
251.368	36.86
251.585	-8.19
251.801	47.1
252.018	47.1
252.235	-24.58
252.451	32.77
252.668	-40.96
252.885	-4.1
253.102	24.58
253.318	-24.58
253.535	-2.05
253.752	-8.19
253.968	43.01
254.185	-14.34
254.401	-40.96
254.618	12.29
254.835	12.29
255.051	83.97
255.268	30.72
255.484	-43.01
255.701	0
255.917	34.82
256.134	-14.34
256.351	38.91
256.567	14.34
256.784	8.19
257	-63.49
257.217	137.21
257.433	30.72
257.65	-2.05
257.866	26.62
258.082	-47.1
258.299	10.24
258.515	-32.77
258.732	-2.05
258.948	-51.2
259.165	-49.15
259.381	-24.58
259.597	40.96
259.814	-2.05
260.03	2.05
260.246	-2.05
260.463	0
260.679	73.73
260.895	40.96
261.112	-2.05
261.328	88.06
261.544	-18.43
261.761	-10.24
261.977	8.19
262.193	8.19
262.409	-14.34
262.626	18.43
262.842	-12.29
263.058	24.58
263.274	32.77
263.49	24.58
263.707	6.14
263.923	69.63
264.139	-30.72
264.355	22.53
264.571	34.82
264.787	43.01
265.004	32.77
265.22	16.38
265.436	-24.58
265.652	-59.39
265.868	43.01
266.084	-10.24
266.3	-2.05
266.516	-8.19
266.732	-79.87
266.948	10.24
267.164	-71.68
267.38	92.16
267.596	47.1
267.812	83.97
268.028	6.14
268.244	34.82
268.46	57.34
268.676	-61.44
268.892	16.38
269.108	-16.38
269.324	-38.91
269.54	-30.72
269.756	43.01
269.972	-47.1
270.188	-57.34
270.403	-34.82
270.619	47.1
270.835	22.53
271.051	30.72
271.267	-30.72
271.483	104.45
271.698	8.19
271.914	2.05
272.13	-2.05
272.346	51.2
272.562	-57.34
272.777	24.58
272.993	-26.62
273.209	26.62
273.425	40.96
273.64	14.34
273.856	43.01
274.072	-8.19
274.287	-43.01
274.503	-2.05
274.719	51.2
274.934	38.91
275.15	22.53
275.366	14.34
275.581	6.14
275.797	6.14
276.012	24.58
276.228	-55.3
276.444	2.05
276.659	8.19
276.875	-8.19
277.09	-2.05
277.306	6.14
277.521	86.01
277.737	-43.01
277.952	43.01
278.168	-34.82
278.383	6.14
278.599	26.62
278.814	22.53
279.03	14.34
279.245	8.19
279.461	141.31
279.676	18.43
279.892	32.77
280.107	24.58
280.322	43.01
280.538	24.58
280.753	88.06
280.969	16.38
281.184	-43.01
281.399	30.72
281.615	-10.24
281.83	8.19
282.045	-73.73
282.26	-26.62
282.476	16.38
282.691	88.06
282.906	6.14
283.122	14.34
283.337	45.06
283.552	-34.82
283.767	-36.86
283.983	-30.72
284.198	24.58
284.413	69.63
284.628	16.38
284.843	43.01
285.058	20.48
285.274	71.68
285.489	-20.48
285.704	43.01
285.919	-75.77
286.134	81.92
286.349	-47.1
286.564	-16.38
286.779	69.63
286.995	-18.43
287.21	-116.73
287.425	-10.24
287.64	-18.43
287.855	53.25
288.07	-18.43
288.285	51.2
288.5	32.77
288.715	6.14
288.93	-10.24
289.145	-26.62
289.36	0
289.575	22.53
289.79	59.39
290.004	-14.34
290.219	-10.24
290.434	-16.38
290.649	49.15
290.864	22.53
291.079	-40.96
291.294	-30.72
291.509	40.96
291.724	-18.43
291.938	-22.53
292.153	43.01
292.368	83.97
292.583	34.82
292.798	4.1
293.012	-10.24
293.227	92.16
293.442	-16.38
293.657	124.93
293.871	16.38
294.086	45.06
294.301	34.82
294.516	55.3
294.73	-26.62
294.945	-4.1
295.16	18.43
295.374	22.53
295.589	63.49
295.804	6.14
296.018	24.58
296.233	137.21
296.447	10.24
296.662	24.58
296.877	16.38
297.091	6.14
297.306	43.01
297.52	6.14
297.735	49.15
297.949	53.25
298.164	-10.24
298.378	-59.39
298.593	6.14
298.807	43.01
299.022	28.67
299.236	92.16
299.451	-30.72
299.665	79.87
299.88	18.43
300.094	-26.62
300.309	-47.1
300.523	26.62
300.737	53.25
300.952	47.1
301.166	0
301.381	-28.67
301.595	-20.48
301.809	49.15
302.024	112.64
302.238	-40.96
302.452	38.91
302.667	38.91
302.881	10.24
303.095	67.58
303.309	43.01
303.524	-26.62
303.738	6.14
303.952	14.34
304.166	43.01
304.381	-45.06
304.595	14.34
304.809	-71.68
305.023	-53.25
305.237	32.77
305.452	63.49
305.666	38.91
305.88	-14.34
306.094	14.34
306.308	147.45
306.522	45.06
306.736	55.3
306.95	92.16
307.164	-2.05
307.379	38.91
307.593	-26.62
307.807	36.86
308.021	59.39
308.235	22.53
308.449	-12.29
308.663	-43.01
308.877	90.11
309.091	47.1
309.305	63.49
309.519	16.38
309.733	6.14
309.947	2.05
310.161	59.39
310.374	67.58
310.588	30.72
310.802	0
311.016	-8.19
311.23	53.25
311.444	-71.68
311.658	-47.1
311.872	65.54
312.085	-8.19
312.299	20.48
312.513	55.3
312.727	22.53
312.941	63.49
313.154	4.1
313.368	24.58
313.582	-26.62
313.796	73.73
314.009	26.62
314.223	34.82
314.437	12.29
314.651	14.34
314.864	-10.24
315.078	53.25
315.292	-63.49
315.505	-30.72
315.719	-59.39
315.933	18.43
316.146	63.49
316.36	-24.58
316.573	71.68
316.787	77.82
317.001	49.15
317.214	-10.24
317.428	104.45
317.641	-65.54
317.855	-26.62
318.068	-14.34
318.282	18.43
318.495	30.72
318.709	67.58
318.922	-26.62
319.136	14.34
319.349	26.62
319.563	-8.19
319.776	-26.62
319.99	-43.01
320.203	53.25
320.417	-65.54
320.63	81.92
320.843	131.07
321.057	55.3
321.27	26.62
321.483	8.19
321.697	-18.43
321.91	6.14
322.124	88.06
322.337	51.2
322.55	14.34
322.763	6.14
322.977	4.1
323.19	6.14
323.403	63.49
323.617	26.62
323.83	30.72
324.043	-34.82
324.256	18.43
324.469	57.34
324.683	43.01
324.896	24.58
325.109	30.72
325.322	-12.29
325.535	18.43
325.748	18.43
325.962	-2.05
326.175	30.72
326.388	18.43
326.601	71.68
326.814	40.96
327.027	59.39
327.24	116.73
327.453	-77.82
327.666	-24.58
327.879	114.69
328.092	4.1
328.305	-2.05
328.518	-32.77
328.731	-8.19
328.944	14.34
329.157	-30.72
329.37	-40.96
329.583	38.91
329.796	57.34
330.009	-65.54
330.222	6.14
330.435	49.15
330.648	24.58
330.861	16.38
331.073	22.53
331.286	6.14
331.499	6.14
331.712	-90.11
331.925	53.25
332.138	22.53
332.35	2.05
332.563	-36.86
332.776	98.3
332.989	-18.43
333.202	88.06
333.414	49.15
333.627	-8.19
333.84	-8.19
334.053	63.49
334.265	8.19
334.478	30.72
334.691	-10.24
334.903	106.49
335.116	-6.14
335.329	-26.62
335.541	67.58
335.754	-4.1
335.966	16.38
336.179	4.1
336.392	10.24
336.604	49.15
336.817	38.91
337.029	63.49
337.242	22.53
337.454	71.68
337.667	96.25
337.88	86.01
338.092	-34.82
338.305	22.53
338.517	-8.19
338.729	43.01
338.942	36.86
339.154	-24.58
339.367	-10.24
339.579	-14.34
339.792	-40.96
340.004	112.64
340.217	32.77
340.429	45.06
340.641	-49.15
340.854	79.87
341.066	16.38
341.278	88.06
341.491	14.34
341.703	59.39
341.915	-2.05
342.128	69.63
342.34	38.91
342.552	-22.53
342.764	-10.24
342.977	-16.38
343.189	8.19
343.401	14.34
343.613	34.82
343.826	22.53
344.038	-14.34
344.25	100.35
344.462	6.14
344.674	0
344.886	10.24
345.099	10.24
345.311	22.53
345.523	47.1
345.735	-75.77
345.947	-18.43
346.159	51.2
346.371	-12.29
346.583	-2.05
346.795	75.77
347.007	4.1
347.219	-2.05
347.431	-26.62
347.643	61.44
347.855	-10.24
348.067	71.68
348.279	-92.16
348.491	43.01
348.703	36.86
348.915	-20.48
349.127	-20.48
349.339	32.77
349.551	-18.43
349.763	129.02
349.975	73.73
350.187	47.1
350.399	106.49
350.61	12.29
350.822	18.43
351.034	-2.05
351.246	38.91
351.458	71.68
351.669	16.38
351.881	38.91
352.093	38.91
352.305	86.01
352.517	47.1
352.728	30.72
352.94	14.34
353.152	49.15
353.363	-43.01
353.575	10.24
353.787	40.96
353.999	-16.38
354.21	63.49
354.422	22.53
354.633	-43.01
354.845	22.53
355.057	6.14
355.268	-10.24
355.48	22.53
355.692	-6.14
355.903	-8.19
356.115	28.67
356.326	-40.96
356.538	55.3
356.749	20.48
356.961	34.82
357.172	40.96
357.384	-34.82
357.595	71.68
357.807	63.49
358.018	10.24
358.23	-28.67
358.441	47.1
358.653	59.39
358.864	22.53
359.075	63.49
359.287	26.62
359.498	47.1
359.709	-18.43
359.921	-63.49
360.132	108.54
360.344	26.62
360.555	-28.67
360.766	-24.58
360.977	-32.77
361.189	83.97
361.4	8.19
361.611	47.1
361.823	83.97
362.034	32.77
362.245	-63.49
362.456	53.25
362.667	100.35
362.879	-18.43
363.09	0
363.301	22.53
363.512	43.01
363.723	26.62
363.935	49.15
364.146	38.91
364.357	57.34
364.568	-14.34
364.779	-14.34
364.99	38.91
365.201	0
365.412	38.91
365.623	-12.29
365.834	16.38
366.045	-2.05
366.256	38.91
366.467	55.3
366.678	55.3
366.889	10.24
367.1	-47.1
367.311	71.68
367.522	-22.53
367.733	43.01
367.944	83.97
368.155	63.49
368.366	14.34
368.577	30.72
368.788	47.1
368.999	73.73
369.209	-8.19
369.42	30.72
369.631	36.86
369.842	-2.05
370.053	43.01
370.264	47.1
370.474	12.29
370.685	61.44
370.896	43.01
371.107	40.96
371.317	57.34
371.528	-24.58
371.739	30.72
371.95	71.68
372.16	22.53
372.371	-8.19
372.582	-2.05
372.792	22.53
373.003	8.19
373.214	63.49
373.424	55.3
373.635	-26.62
373.846	59.39
374.056	-16.38
374.267	112.64
374.477	45.06
374.688	38.91
374.898	18.43
375.109	-18.43
375.319	-28.67
375.53	38.91
375.74	63.49
375.951	10.24
376.161	88.06
376.372	38.91
376.582	-10.24
376.793	34.82
377.003	6.14
377.214	55.3
377.424	53.25
377.635	120.83
377.845	34.82
378.055	112.64
378.266	47.1
378.476	0
378.686	6.14
378.897	55.3
379.107	26.62
379.317	30.72
379.528	47.1
379.738	24.58
379.948	-38.91
380.158	32.77
380.369	47.1
380.579	-8.19
380.789	-2.05
380.999	-16.38
381.21	-51.2
381.42	90.11
381.63	47.1
381.84	40.96
382.05	100.35
382.261	20.48
382.471	30.72
382.681	40.96
382.891	98.3
383.101	-34.82
383.311	-43.01
383.521	10.24
383.731	100.35
383.941	65.54
384.151	-14.34
384.361	-4.1
384.571	81.92
384.781	16.38
384.991	55.3
385.201	38.91
385.411	18.43
385.621	-30.72
385.831	-51.2
386.041	22.53
386.251	8.19
386.461	59.39
386.671	-10.24
386.881	90.11
387.091	-6.14
387.301	149.5
387.511	-47.1
387.72	69.63
387.93	49.15
388.14	71.68
388.35	38.91
388.56	32.77
388.769	75.77
388.979	98.3
389.189	45.06
389.399	16.38
389.609	88.06
389.818	63.49
390.028	-8.19
390.238	24.58
390.447	-36.86
390.657	102.4
390.867	16.38
391.076	-34.82
391.286	38.91
391.496	59.39
391.705	14.34
391.915	71.68
392.125	102.4
392.334	53.25
392.544	16.38
392.753	43.01
392.963	55.3
393.172	-24.58
393.382	40.96
393.591	86.01
393.801	22.53
394.01	81.92
394.22	32.77
394.429	20.48
394.639	47.1
394.848	49.15
395.058	90.11
395.267	118.78
395.477	88.06
395.686	83.97
395.895	79.87
396.105	79.87
396.314	63.49
396.524	67.58
396.733	57.34
396.942	102.4
397.152	90.11
397.361	79.87
397.57	47.1
397.78	71.68
397.989	79.87
398.198	161.79
398.407	14.34
398.617	32.77
398.826	106.49
399.035	104.45
399.244	114.69
399.453	75.77
399.663	59.39
399.872	112.64
400.081	102.4
400.29	102.4
400.499	53.25
400.708	4.1
400.917	69.63
401.127	61.44
401.336	96.25
401.545	106.49
401.754	96.25
401.963	47.1
402.172	67.58
402.381	71.68
402.59	96.25
402.799	75.77
403.008	163.84
403.217	14.34
403.426	34.82
403.635	141.31
403.844	120.83
404.053	26.62
404.262	102.4
404.471	129.02
404.68	88.06
404.888	145.41
405.097	114.69
405.306	104.45
405.515	135.17
405.724	79.87
405.933	137.21
406.142	34.82
406.35	194.56
406.559	131.07
406.768	172.03
406.977	190.46
407.185	212.99
407.394	227.32
407.603	129.02
407.812	110.59
408.02	157.69
408.229	178.17
408.438	186.37
408.646	194.56
408.855	204.8
409.064	210.94
409.272	182.27
409.481	215.04
409.69	217.08
409.898	256
410.107	262.14
410.315	235.52
410.524	219.13
410.733	264.19
410.941	294.91
411.15	245.76
411.358	313.34
411.567	358.39
411.775	327.67
411.984	337.91
412.192	360.44
412.401	393.21
412.609	446.46
412.818	362.49
413.026	448.51
413.234	417.79
413.443	442.36
413.651	497.66
413.86	505.85
414.068	456.7
414.276	579.58
414.485	522.23
414.693	509.94
414.901	530.42
415.11	573.43
415.318	614.39
415.526	661.49
415.734	704.5
415.943	636.92
416.151	679.93
416.359	724.98
416.567	700.41
416.776	774.13
416.984	739.32
417.192	784.37
417.4	743.41
417.608	946.16
417.817	778.23
418.025	901.11
418.233	1030.13
418.441	868.34
418.649	1021.94
418.857	1136.62
419.065	1054.7
419.273	1040.37
419.481	1073.14
419.689	1210.35
419.897	1241.07
420.105	1341.42
420.313	1261.55
420.521	1320.94
420.729	1415.15
420.937	1333.23
421.145	1540.07
421.353	1492.97
421.561	1611.75
421.769	1488.87
421.977	1710.05
422.185	1748.97
422.393	1820.64
422.601	1947.62
422.809	1886.18
423.017	1957.86
423.224	1959.91
423.432	1972.19
423.64	2062.3
423.848	2179.04
424.056	2197.47
424.263	2240.48
424.471	2437.08
424.679	2516.95
424.887	2541.53
425.094	2674.65
425.302	2627.54
425.51	2762.71
425.718	2744.28
425.925	2779.09
426.133	2916.31
426.341	3149.78
426.548	3246.03
426.756	3200.98
426.964	3358.67
427.171	3526.6
427.379	3467.21
427.586	3524.55
427.794	3651.53
428.001	3782.6
428.209	4032.45
428.417	4018.11
428.624	4224.96
428.832	4247.49
429.039	4247.49
429.247	4241.34
429.454	4724.66
429.662	4943.8
429.869	4532.15
430.076	4966.32
430.284	4911.03
430.491	5169.07
430.699	5226.42
430.906	5314.48
431.114	5400.49
431.321	5791.66
431.528	5699.5
431.736	6182.82
431.943	6305.7
432.15	6444.96
432.358	6258.59
432.565	6551.45
432.772	6569.88
432.979	6842.26
433.187	6854.55
433.394	7030.68
433.601	7448.46
433.808	7608.2
434.016	7419.79
434.223	7847.82
434.43	8345.47
434.637	8103.81
434.844	8521.6
435.052	8820.6
435.259	8748.92
435.466	8746.87
435.673	8669.05
435.88	9314.16
436.087	9885.55
436.294	9834.35
436.501	9502.57
436.708	9926.5
436.915	10184.55
437.122	10430.3
437.329	10434.4
437.537	10854.23
437.743	11030.36
437.95	10854.23
438.157	11646.8
438.364	11972.43
438.571	11900.75
438.778	11702.09
438.985	12971.83
439.192	12650.3
439.399	13068.09
439.606	12676.93
439.813	13518.64
440.02	14190.38
440.227	14118.7
440.433	13829.93
440.64	14153.51
440.847	13899.56
441.054	14602.02
441.261	15591.19
441.467	15308.57
441.674	15640.34
441.881	16127.75
442.088	16051.98
442.294	15556.37
442.501	16439.05
442.708	16684.8
442.914	17463.03
443.121	18247.4
443.328	17630.96
443.534	18822.88
443.741	18405.1
443.948	18050.8
444.154	19691.22
444.361	19367.64
444.568	19396.31
444.774	19723.99
444.981	19715.8
445.187	20428.49
445.394	21173.95
445.6	20932.29
445.807	23158.43
446.013	21905.07
446.22	22595.24
446.426	22988.45
446.633	23688.85
446.839	24563.34
447.046	23111.33
447.252	24309.39
447.459	24759.94
447.665	24471.18
447.871	25806.45
448.078	27057.76
448.284	25544.31
448.491	26302.06
448.697	27207.26
448.903	27752.02
449.11	27874.9
449.316	27584.09
449.522	28036.69
449.728	28833.35
449.935	29023.81
450.141	29167.17
450.347	29765.18
450.553	28573.26
450.76	29009.48
450.966	30017.08
451.172	29832.76
451.378	30703.15
451.584	30055.99
451.791	30780.97
451.997	30758.44
452.203	31348.26
452.409	31245.86
452.615	31151.65
452.821	29967.93
453.027	29638.2
453.233	31184.42
453.44	29685.31
453.646	30604.84
453.852	30776.87
454.058	31118.89
454.264	30221.87
454.47	30826.03
454.676	30285.36
454.882	31288.87
455.088	28827.21
455.294	28712.52
455.5	29392.45
455.705	29816.38
455.911	28425.81
456.117	28241.49
456.323	27612.76
456.529	26230.38
456.735	27379.29
456.941	26754.66
457.147	26513
457.352	25376.38
457.558	25360
457.764	25261.69
457.97	24911.49
458.176	24475.27
458.381	24532.62
458.587	23344.8
458.793	23469.72
458.999	21960.37
459.204	23799.44
459.41	22797.99
459.616	21399.23
459.821	21657.27
460.027	21335.74
460.233	20975.3
460.438	20086.48
460.644	20291.27
460.85	19414.74
461.055	19240.67
461.261	19042.01
461.466	17557.24
461.672	17161.98
461.878	18446.05
462.083	17000.19
462.289	16948.99
462.494	16514.82
462.7	15990.54
462.905	15642.39
463.111	16133.9
463.316	16111.37
463.522	15791.89
463.727	15795.98
463.932	15947.53
464.138	15427.35
464.343	15726.35
464.549	15271.7
464.754	15716.11
464.959	15623.95
465.165	15519.51
465.37	14972.7
465.575	14501.67
465.781	15009.56
465.986	15210.26
466.191	14546.72
466.397	14583.59
466.602	13532.98
466.807	14108.46
467.012	14087.98
467.218	13913.9
467.423	13973.29
