Data from USB4F104151__290__14-46-28-234.txt Node

Date: Thu Mar 13 14:46:28 EDT 2025
User: louis
Spectrometer: USB4F10415
Trigger mode: 4
Integration Time (sec): 2.000000E-2
Scans to average: 1
Electric dark correction enabled: true
Nonlinearity correction enabled: false
Boxcar width: 0
XAxis mode: Wavelengths
Number of Pixels in Spectrum: 3648
>>>>>Begin Spectral Data<<<<<
178.204	-59.56
178.424	-59.56
178.644	-59.56
178.864	-123.05
179.084	-108.71
179.304	16.21
179.524	12.12
179.744	-2.22
179.964	-30.89
180.184	-30.89
180.404	-2.22
180.624	-0.17
180.844	38.74
181.064	-18.6
181.283	1.88
181.503	-22.7
181.723	38.74
181.943	-20.65
182.163	77.65
182.383	34.64
182.602	-28.84
182.822	57.17
183.042	46.93
183.262	14.17
183.482	-67.75
183.701	18.26
183.921	-10.41
184.141	-24.75
184.361	26.45
184.58	-28.84
184.8	38.74
185.02	-32.94
185.239	81.75
185.459	5.97
185.679	65.36
185.898	-57.51
186.118	46.93
186.338	48.98
186.557	20.31
186.777	-20.65
186.997	-26.79
187.216	-37.03
187.436	46.93
187.655	71.51
187.875	63.32
188.095	-49.32
188.314	87.89
188.534	-18.6
188.753	-2.22
188.973	44.88
189.192	46.93
189.412	32.6
189.631	44.88
189.851	51.03
190.07	96.08
190.29	-18.6
190.509	3.93
190.729	22.36
190.948	40.79
191.168	132.95
191.387	30.55
191.607	-16.55
191.826	40.79
192.045	-47.27
192.265	1.88
192.484	-8.36
192.704	55.12
192.923	-30.89
193.142	63.32
193.362	59.22
193.581	55.12
193.8	83.8
194.02	108.37
194.239	57.17
194.458	32.6
194.678	5.97
194.897	10.07
195.116	-10.41
195.335	-41.13
195.555	30.55
195.774	10.07
195.993	69.46
196.212	16.21
196.432	63.32
196.651	-16.55
196.87	-65.71
197.089	89.94
197.308	5.97
197.528	16.21
197.747	8.02
197.966	18.26
198.185	104.28
198.404	14.17
198.623	73.56
198.842	20.31
199.062	100.18
199.281	94.04
199.5	-63.66
199.719	-18.6
199.938	46.93
200.157	57.17
200.376	-53.42
200.595	79.7
200.814	-2.22
201.033	-10.41
201.252	46.93
201.471	5.97
201.69	40.79
201.909	48.98
202.128	-10.41
202.347	-77.99
202.566	40.79
202.785	22.36
203.004	-55.47
203.223	104.28
203.442	5.97
203.661	75.6
203.879	-18.6
204.098	55.12
204.317	-0.17
204.536	-71.85
204.755	46.93
204.974	57.17
205.193	-16.55
205.411	38.74
205.63	46.93
205.849	1.88
206.068	57.17
206.287	-34.99
206.505	71.51
206.724	-24.75
206.943	-10.41
207.162	-20.65
207.381	-10.41
207.599	-12.46
207.818	-6.31
208.037	-49.32
208.255	-51.37
208.474	10.07
208.693	42.84
208.911	16.21
209.13	-8.36
209.349	81.75
209.567	55.12
209.786	59.22
210.005	-18.6
210.223	5.97
210.442	-22.7
210.661	8.02
210.879	-26.79
211.098	26.45
211.316	-26.79
211.535	8.02
211.753	30.55
211.972	22.36
212.191	89.94
212.409	42.84
212.628	96.08
212.846	22.36
213.065	55.12
213.283	65.36
213.502	1.88
213.72	5.97
213.938	22.36
214.157	36.69
214.375	8.02
214.594	-22.7
214.812	40.79
215.031	-18.6
215.249	-18.6
215.467	40.79
215.686	-16.55
215.904	44.88
216.122	-4.27
216.341	-2.22
216.559	-20.65
216.778	14.17
216.996	57.17
217.214	-34.99
217.432	48.98
217.651	18.26
217.869	28.5
218.087	26.45
218.306	20.31
218.524	-16.55
218.742	-47.27
218.96	16.21
219.179	51.03
219.397	10.07
219.615	87.89
219.833	67.41
220.051	-2.22
220.27	14.17
220.488	42.84
220.706	-10.41
220.924	-39.08
221.142	34.64
221.36	42.84
221.578	16.21
221.796	44.88
222.015	83.8
222.233	-14.51
222.451	5.97
222.669	-57.51
222.887	57.17
223.105	38.74
223.323	-22.7
223.541	-43.18
223.759	34.64
223.977	-14.51
224.195	71.51
224.413	65.36
224.631	55.12
224.849	5.97
225.067	32.6
225.285	-30.89
225.503	14.17
225.721	-16.55
225.939	44.88
226.157	8.02
226.375	75.6
226.592	22.36
226.81	-2.22
227.028	-22.7
227.246	36.69
227.464	-22.7
227.682	8.02
227.9	46.93
228.117	40.79
228.335	16.21
228.553	10.07
228.771	30.55
228.989	55.12
229.206	63.32
229.424	-6.31
229.642	-28.84
229.86	12.12
230.077	16.21
230.295	8.02
230.513	38.74
230.731	34.64
230.948	100.18
231.166	79.7
231.384	53.08
231.601	-0.17
231.819	96.08
232.037	1.88
232.254	51.03
232.472	81.75
232.689	32.6
232.907	55.12
233.125	-53.42
233.342	-8.36
233.56	-2.22
233.777	40.79
233.995	14.17
234.213	67.41
234.43	46.93
234.648	-34.99
234.865	10.07
235.083	24.4
235.3	-8.36
235.518	16.21
235.735	-10.41
235.953	38.74
236.17	-26.79
236.388	51.03
236.605	-0.17
236.822	55.12
237.04	40.79
237.257	16.21
237.475	14.17
237.692	22.36
237.909	79.7
238.127	16.21
238.344	48.98
238.562	46.93
238.779	14.17
238.996	5.97
239.214	32.6
239.431	-14.51
239.648	-26.79
239.865	5.97
240.083	10.07
240.3	-61.61
240.517	-41.13
240.735	-24.75
240.952	-2.22
241.169	22.36
241.386	16.21
241.603	-45.23
241.821	-59.56
242.038	-10.41
242.255	-0.17
242.472	-41.13
242.689	32.6
242.907	-0.17
243.124	1.88
243.341	10.07
243.558	-0.17
243.775	51.03
243.992	-57.51
244.209	24.4
244.426	91.99
244.643	18.26
244.86	40.79
245.078	-0.17
245.295	40.79
245.512	55.12
245.729	-34.99
245.946	5.97
246.163	14.17
246.38	-55.47
246.597	96.08
246.814	63.32
247.031	-18.6
247.248	5.97
247.464	12.12
247.681	-30.89
247.898	38.74
248.115	89.94
248.332	16.21
248.549	8.02
248.766	112.47
248.983	-0.17
249.2	81.75
249.417	-0.17
249.633	22.36
249.85	-43.18
250.067	-37.03
250.284	-16.55
250.501	-24.75
250.717	8.02
250.934	30.55
251.151	18.26
251.368	-22.7
251.585	34.64
251.801	10.07
252.018	-24.75
252.235	8.02
252.451	34.64
252.668	-2.22
252.885	89.94
253.102	-16.55
253.318	24.4
253.535	30.55
253.752	-34.99
253.968	38.74
254.185	34.64
254.401	-10.41
254.618	59.22
254.835	16.21
255.051	48.98
255.268	8.02
255.484	63.32
255.701	71.51
255.917	65.36
256.134	-26.79
256.351	38.74
256.567	14.17
256.784	32.6
257	40.79
257.217	75.6
257.433	46.93
257.65	63.32
257.866	34.64
258.082	8.02
258.299	14.17
258.515	18.26
258.732	59.22
258.948	10.07
259.165	-18.6
259.381	-63.66
259.597	22.36
259.814	-26.79
260.03	-16.55
260.246	-30.89
260.463	16.21
260.679	30.55
260.895	104.28
261.112	48.98
261.328	-32.94
261.544	-57.51
261.761	40.79
261.977	14.17
262.193	-22.7
262.409	42.84
262.626	-8.36
262.842	51.03
263.058	-41.13
263.274	38.74
263.49	69.46
263.707	-8.36
263.923	44.88
264.139	-14.51
264.355	-26.79
264.571	-43.18
264.787	63.32
265.004	98.13
265.22	-12.46
265.436	-39.08
265.652	-28.84
265.868	-0.17
266.084	-30.89
266.3	65.36
266.516	-28.84
266.732	42.84
266.948	18.26
267.164	55.12
267.38	1.88
267.596	32.6
267.812	10.07
268.028	14.17
268.244	-2.22
268.46	-59.56
268.676	22.36
268.892	5.97
269.108	18.26
269.324	-12.46
269.54	-43.18
269.756	22.36
269.972	5.97
270.188	18.26
270.403	-6.31
270.619	46.93
270.835	30.55
271.051	126.8
271.267	-92.33
271.483	3.93
271.698	30.55
271.914	-37.03
272.13	22.36
272.346	-28.84
272.562	71.51
272.777	55.12
272.993	69.46
273.209	-0.17
273.425	5.97
273.64	-26.79
273.856	-6.31
274.072	1.88
274.287	-12.46
274.503	46.93
274.719	-0.17
274.934	8.02
275.15	-8.36
275.366	22.36
275.581	34.64
275.797	-51.37
276.012	5.97
276.228	-51.37
276.444	-2.22
276.659	14.17
276.875	-59.56
277.09	5.97
277.306	16.21
277.521	10.07
277.737	-20.65
277.952	-0.17
278.168	38.74
278.383	34.64
278.599	3.93
278.814	22.36
279.03	-65.71
279.245	73.56
279.461	5.97
279.676	46.93
279.892	-26.79
280.107	20.31
280.322	44.88
280.538	18.26
280.753	5.97
280.969	8.02
281.184	-26.79
281.399	30.55
281.615	22.36
281.83	32.6
282.045	8.02
282.26	30.55
282.476	-57.51
282.691	3.93
282.906	79.7
283.122	5.97
283.337	3.93
283.552	-10.41
283.767	46.93
283.983	48.98
284.198	-26.79
284.413	67.41
284.628	-41.13
284.843	-18.6
285.058	30.55
285.274	85.84
285.489	24.4
285.704	30.55
285.919	-12.46
286.134	3.93
286.349	14.17
286.564	8.02
286.779	46.93
286.995	16.21
287.21	-18.6
287.425	71.51
287.64	34.64
287.855	71.51
288.07	87.89
288.285	-2.22
288.5	87.89
288.715	40.79
288.93	53.08
289.145	-18.6
289.36	-24.75
289.575	-57.51
289.79	69.46
290.004	-47.27
290.219	102.23
290.434	67.41
290.649	-16.55
290.864	26.45
291.079	-82.09
291.294	48.98
291.509	42.84
291.724	22.36
291.938	-8.36
292.153	24.4
292.368	18.26
292.583	-2.22
292.798	26.45
293.012	16.21
293.227	8.02
293.442	26.45
293.657	71.51
293.871	30.55
294.086	112.47
294.301	34.64
294.516	61.27
294.73	-24.75
294.945	10.07
295.16	-34.99
295.374	36.69
295.589	-24.75
295.804	5.97
296.018	48.98
296.233	94.04
296.447	-14.51
296.662	-28.84
296.877	55.12
297.091	48.98
297.306	22.36
297.52	-22.7
297.735	46.93
297.949	-41.13
298.164	12.12
298.378	55.12
298.593	-24.75
298.807	-51.37
299.022	42.84
299.236	22.36
299.451	1.88
299.665	-18.6
299.88	5.97
300.094	-28.84
300.309	-18.6
300.523	32.6
300.737	5.97
300.952	-41.13
301.166	34.64
301.381	10.07
301.595	-57.51
301.809	14.17
302.024	81.75
302.238	1.88
302.452	42.84
302.667	-10.41
302.881	16.21
303.095	30.55
303.309	-2.22
303.524	3.93
303.738	87.89
303.952	69.46
304.166	114.52
304.381	-8.36
304.595	10.07
304.809	-49.32
305.023	24.4
305.237	-47.27
305.452	-2.22
305.666	3.93
305.88	120.66
306.094	38.74
306.308	36.69
306.522	75.6
306.736	44.88
306.95	12.12
307.164	14.17
307.379	-2.22
307.593	38.74
307.807	-24.75
308.021	59.22
308.235	40.79
308.449	-14.51
308.663	-0.17
308.877	30.55
309.091	106.32
309.305	18.26
309.519	8.02
309.733	26.45
309.947	-59.56
310.161	63.32
310.374	34.64
310.588	40.79
310.802	-53.42
311.016	-59.56
311.23	14.17
311.444	-32.94
311.658	30.55
311.872	40.79
312.085	-24.75
312.299	63.32
312.513	34.64
312.727	53.08
312.941	-0.17
313.154	36.69
313.368	-55.47
313.582	71.51
313.796	-6.31
314.009	32.6
314.223	-10.41
314.437	-26.79
314.651	38.74
314.864	10.07
315.078	-45.23
315.292	-57.51
315.505	3.93
315.719	14.17
315.933	-6.31
316.146	-10.41
316.36	24.4
316.573	73.56
316.787	-2.22
317.001	-14.51
317.214	18.26
317.428	-24.75
317.641	20.31
317.855	8.02
318.068	20.31
318.282	-2.22
318.495	98.13
318.709	22.36
318.922	28.5
319.136	34.64
319.349	40.79
319.563	36.69
319.776	5.97
319.99	-39.08
320.203	-22.7
320.417	-30.89
320.63	83.8
320.843	14.17
321.057	46.93
321.27	71.51
321.483	30.55
321.697	-24.75
321.91	14.17
322.124	48.98
322.337	22.36
322.55	-2.22
322.763	24.4
322.977	-32.94
323.19	34.64
323.403	-10.41
323.617	51.03
323.83	-10.41
324.043	30.55
324.256	-43.18
324.469	-12.46
324.683	32.6
324.896	26.45
325.109	32.6
325.322	-10.41
325.535	3.93
325.748	40.79
325.962	-12.46
326.175	-20.65
326.388	8.02
326.601	20.31
326.814	-0.17
327.027	-57.51
327.24	55.12
327.453	-43.18
327.666	24.4
327.879	79.7
328.092	20.31
328.305	-10.41
328.518	-16.55
328.731	24.4
328.944	30.55
329.157	36.69
329.37	-8.36
329.583	71.51
329.796	32.6
330.009	-84.14
330.222	48.98
330.435	-2.22
330.648	61.27
330.861	-0.17
331.073	8.02
331.286	114.52
331.499	26.45
331.712	-39.08
331.925	18.26
332.138	20.31
332.35	-18.6
332.563	22.36
332.776	18.26
332.989	-2.22
333.202	63.32
333.414	-26.79
333.627	-10.41
333.84	-63.66
334.053	-14.51
334.265	100.18
334.478	14.17
334.691	-8.36
334.903	24.4
335.116	-24.75
335.329	-24.75
335.541	-39.08
335.754	57.17
335.966	-30.89
336.179	77.65
336.392	40.79
336.604	22.36
336.817	16.21
337.029	-55.47
337.242	57.17
337.454	-4.27
337.667	-2.22
337.88	53.08
338.092	-0.17
338.305	-10.41
338.517	1.88
338.729	38.74
338.942	55.12
339.154	3.93
339.367	1.88
339.579	34.64
339.792	38.74
340.004	34.64
340.217	48.98
340.429	-2.22
340.641	14.17
340.854	14.17
341.066	46.93
341.278	83.8
341.491	8.02
341.703	8.02
341.915	-18.6
342.128	57.17
342.34	42.84
342.552	-24.75
342.764	-24.75
342.977	51.03
343.189	1.88
343.401	42.84
343.613	-37.03
343.826	42.84
344.038	-18.6
344.25	-10.41
344.462	30.55
344.674	32.6
344.886	10.07
345.099	-2.22
345.311	30.55
345.523	24.4
345.735	30.55
345.947	-6.31
346.159	-18.6
346.371	-0.17
346.583	-47.27
346.795	57.17
347.007	14.17
347.219	34.64
347.431	46.93
347.643	40.79
347.855	-14.51
348.067	26.45
348.279	10.07
348.491	-37.03
348.703	10.07
348.915	-10.41
349.127	-0.17
349.339	59.22
349.551	-6.31
349.763	8.02
349.975	8.02
350.187	73.56
350.399	48.98
350.61	87.89
350.822	-43.18
351.034	5.97
351.246	59.22
351.458	85.84
351.669	24.4
351.881	137.04
352.093	8.02
352.305	24.4
352.517	44.88
352.728	5.97
352.94	-32.94
353.152	14.17
353.363	1.88
353.575	22.36
353.787	38.74
353.999	59.22
354.21	10.07
354.422	34.64
354.633	10.07
354.845	-75.95
355.057	-0.17
355.268	57.17
355.48	40.79
355.692	-43.18
355.903	26.45
356.115	44.88
356.326	-55.47
356.538	10.07
356.749	-2.22
356.961	85.84
357.172	22.36
357.384	-2.22
357.595	46.93
357.807	-47.27
358.018	51.03
358.23	91.99
358.441	81.75
358.653	79.7
358.864	24.4
359.075	-0.17
359.287	10.07
359.498	106.32
359.709	40.79
359.921	-57.51
360.132	67.41
360.344	-57.51
360.555	-43.18
360.766	65.36
360.977	55.12
361.189	30.55
361.4	1.88
361.611	14.17
361.823	18.26
362.034	65.36
362.245	-47.27
362.456	-0.17
362.667	-0.17
362.879	42.84
363.09	-47.27
363.301	-24.75
363.512	34.64
363.723	-16.55
363.935	12.12
364.146	26.45
364.357	48.98
364.568	71.51
364.779	-53.42
364.99	91.99
365.201	22.36
365.412	100.18
365.623	14.17
365.834	34.64
366.045	1.88
366.256	75.6
366.467	-22.7
366.678	-16.55
366.889	-18.6
367.1	-8.36
367.311	-51.37
367.522	14.17
367.733	-8.36
367.944	-43.18
368.155	-51.37
368.366	73.56
368.577	-10.41
368.788	75.6
368.999	1.88
369.209	40.79
369.42	38.74
369.631	108.37
369.842	57.17
370.053	63.32
370.264	55.12
370.474	-88.23
370.685	122.71
370.896	30.55
371.107	71.51
371.317	38.74
371.528	-16.55
371.739	87.89
371.95	1.88
372.16	57.17
372.371	-8.36
372.582	22.36
372.792	24.4
373.003	51.03
373.214	-14.51
373.424	42.84
373.635	5.97
373.846	5.97
374.056	8.02
374.267	-6.31
374.477	-4.27
374.688	46.93
374.898	53.08
375.109	22.36
375.319	-2.22
375.53	14.17
375.74	42.84
375.951	96.08
376.161	-12.46
376.372	79.7
376.582	10.07
376.793	30.55
377.003	-30.89
377.214	67.41
377.424	40.79
377.635	51.03
377.845	14.17
378.055	102.23
378.266	-10.41
378.476	26.45
378.686	-0.17
378.897	30.55
379.107	8.02
379.317	14.17
379.528	-34.99
379.738	71.51
379.948	8.02
380.158	26.45
380.369	40.79
380.579	5.97
380.789	-22.7
380.999	59.22
381.21	63.32
381.42	110.42
381.63	-34.99
381.84	46.93
382.05	18.26
382.261	122.71
382.471	34.64
382.681	-92.33
382.891	87.89
383.101	59.22
383.311	22.36
383.521	79.7
383.731	112.47
383.941	77.65
384.151	26.45
384.361	12.12
384.571	104.28
384.781	71.51
384.991	51.03
385.201	89.94
385.411	124.76
385.621	-10.41
385.831	55.12
386.041	51.03
386.251	75.6
386.461	81.75
386.671	-16.55
386.881	79.7
387.091	67.41
387.301	22.36
387.511	40.79
387.72	24.4
387.93	-73.9
388.14	16.21
388.35	18.26
388.56	65.36
388.769	63.32
388.979	75.6
389.189	69.46
389.399	3.93
389.609	38.74
389.818	112.47
390.028	22.36
390.238	36.69
390.447	40.79
390.657	55.12
390.867	34.64
391.076	14.17
391.286	18.26
391.496	34.64
391.705	-18.6
391.915	42.84
392.125	-0.17
392.334	26.45
392.544	28.5
392.753	55.12
392.963	79.7
393.172	40.79
393.382	1.88
393.591	98.13
393.801	40.79
394.01	65.36
394.22	63.32
394.429	24.4
394.639	20.31
394.848	102.23
395.058	63.32
395.267	-8.36
395.477	71.51
395.686	55.12
395.895	51.03
396.105	73.56
396.314	14.17
396.524	65.36
396.733	79.7
396.942	28.5
397.152	-16.55
397.361	51.03
397.57	67.41
397.78	96.08
397.989	51.03
398.198	71.51
398.407	46.93
398.617	8.02
398.826	22.36
399.035	18.26
399.244	30.55
399.453	22.36
399.663	51.03
399.872	55.12
400.081	65.36
400.29	22.36
400.499	57.17
400.708	124.76
400.917	5.97
401.127	22.36
401.336	55.12
401.545	89.94
401.754	75.6
401.963	71.51
402.172	87.89
402.381	71.51
402.59	38.74
402.799	55.12
403.008	51.03
403.217	75.6
403.426	87.89
403.635	-63.66
403.844	61.27
404.053	98.13
404.262	116.56
404.471	89.94
404.68	67.41
404.888	106.32
405.097	46.93
405.306	118.61
405.515	147.28
405.724	116.56
405.933	157.52
406.142	38.74
406.35	98.13
406.559	163.67
406.768	36.69
406.977	124.76
407.185	87.89
407.394	153.43
407.603	63.32
407.812	48.98
408.02	132.95
408.229	128.85
408.438	124.76
408.646	36.69
408.855	141.14
409.064	171.86
409.272	151.38
409.481	141.14
409.69	135
409.898	128.85
410.107	169.81
410.315	192.34
410.524	153.43
410.733	155.47
410.941	182.1
411.15	149.33
411.358	165.71
411.567	182.1
411.775	194.39
411.984	145.24
412.192	196.43
412.401	208.72
412.609	231.25
412.818	223.06
413.026	245.59
413.234	237.39
413.443	221.01
413.651	339.79
413.86	352.08
414.068	352.08
414.276	399.18
414.485	255.83
414.693	317.26
414.901	350.03
415.11	374.61
415.318	323.41
415.526	302.93
415.734	419.66
415.943	368.46
416.151	384.85
416.359	380.75
416.567	368.46
416.776	382.8
416.984	597.84
417.192	448.33
417.4	472.91
417.608	434
417.817	448.33
418.025	542.54
418.233	659.28
418.441	563.02
418.649	493.39
418.857	677.71
419.065	616.27
419.273	587.6
419.481	702.28
419.689	599.88
419.897	728.91
420.105	761.67
420.313	761.67
420.521	923.46
420.729	862.02
420.937	853.83
421.145	874.31
421.353	878.41
421.561	935.75
421.769	923.46
421.977	997.19
422.185	984.9
422.393	1079.11
422.601	1113.92
422.809	1152.84
423.017	1105.73
423.224	1242.95
423.432	1259.33
423.64	1201.99
423.848	1240.9
424.056	1251.14
424.263	1408.83
424.471	1412.93
424.679	1470.27
424.887	1472.32
425.094	1546.05
425.302	1582.91
425.51	1646.4
425.718	1734.46
425.925	1668.92
426.133	1693.5
426.341	1890.1
426.548	1838.91
426.756	2021.17
426.964	1828.67
427.171	2021.17
427.379	2111.29
427.586	2135.86
427.794	2185.01
428.001	2236.21
428.209	2410.29
428.417	2393.9
428.624	2463.54
428.832	2420.53
429.039	2514.73
429.247	2398
429.454	2811.69
429.662	2928.42
429.869	2774.83
430.076	3077.93
430.284	2803.5
430.491	2996.01
430.699	3249.96
430.906	3233.57
431.114	3270.44
431.321	3335.97
431.528	3254.05
431.736	3575.58
431.943	3669.79
432.15	3743.52
432.358	3548.96
432.565	3827.48
432.772	3768.09
432.979	4036.38
433.187	4038.42
433.394	4175.64
433.601	4413.2
433.808	4347.67
434.016	4495.12
434.223	4597.52
434.43	4945.67
434.637	4663.05
434.844	5062.41
435.052	5146.37
435.259	5146.37
435.466	5152.52
435.673	5150.47
435.88	5259.01
436.087	5809.92
436.294	5670.65
436.501	5588.74
436.708	5672.7
436.915	5920.51
437.122	6231.8
437.329	6229.75
437.537	6321.91
437.743	6403.83
437.95	6375.16
438.157	6657.78
438.364	7120.62
438.571	6977.26
438.778	6993.64
438.985	7567.07
439.192	7212.78
439.399	7632.61
439.606	7274.21
439.813	7720.67
440.02	8247
440.227	8218.33
440.433	7907.04
440.64	8437.46
440.847	8117.98
441.054	8412.88
441.261	9109.19
441.467	8869.58
441.674	9025.23
441.881	9316.04
442.088	9197.26
442.294	9246.41
442.501	9676.48
442.708	9856.7
442.914	10049.21
443.121	10669.75
443.328	10344.12
443.534	10987.18
443.741	10698.42
443.948	10516.15
444.154	11232.94
444.361	11261.61
444.568	11247.27
444.774	11376.3
444.981	11296.42
445.187	11738.79
445.394	12187.29
445.6	11861.66
445.807	13452.94
446.013	12506.77
446.22	12746.39
446.426	13244.04
446.633	13530.76
446.839	13768.32
447.046	13319.82
447.252	14032.51
447.459	14153.34
447.665	14208.64
447.871	14446.2
448.078	15160.94
448.284	14542.46
448.491	15021.68
448.697	15502.95
448.903	16062.05
449.11	15933.03
449.316	15752.8
449.522	15705.7
449.728	16248.41
449.935	16569.94
450.141	16367.2
450.347	17004.11
450.553	16260.7
450.76	16602.71
450.966	16924.24
451.172	17075.79
451.378	17299.02
451.584	17137.23
451.791	17366.6
451.997	17458.76
452.203	17749.57
452.409	17725
452.615	17690.18
452.821	17053.27
453.027	17008.21
453.233	17856.07
453.44	17368.65
453.646	17417.8
453.852	17327.69
454.058	17548.87
454.264	17006.16
454.47	17661.51
454.676	16948.82
454.882	17643.08
455.088	16397.92
455.294	16451.16
455.5	16879.19
455.705	16741.97
455.911	16209.5
456.117	15701.61
456.323	15826.53
456.529	14653.05
456.735	15490.66
456.941	15160.94
457.147	14972.53
457.352	14366.33
457.558	14186.11
457.764	14440.06
457.97	13909.63
458.176	13713.03
458.381	13745.8
458.587	13110.93
458.793	12932.75
458.999	12492.44
459.204	13450.89
459.41	13049.49
459.616	12154.52
459.821	12129.95
460.027	12017.31
460.233	11859.62
460.438	11081.39
460.644	11407.02
460.85	10845.87
461.055	10763.95
461.261	10634.93
461.466	9895.61
461.672	9572.04
461.878	10335.93
462.083	9602.75
462.289	9424.58
462.494	9455.3
462.7	9008.84
462.905	8660.69
463.111	9000.65
463.316	8928.97
463.522	8963.79
463.727	8754.9
463.932	8804.05
464.138	8683.22
464.343	8802
464.549	8564.43
464.754	8885.97
464.959	8732.37
465.165	8578.77
465.37	8410.84
465.575	8128.22
465.781	8369.88
465.986	8419.03
466.191	8156.89
466.397	7962.33
466.602	7685.86
466.807	7737.06
467.012	7927.52
467.218	7700.19
467.423	7618.27
467.628	7710.43
467.833	8017.63
468.038	7995.1
468.244	7587.55
468.449	7831.26
