Data from USB4F104151__8__14-42-33-469.txt Node

Date: Thu Mar 13 14:42:33 EDT 2025
User: louis
Spectrometer: USB4F10415
Trigger mode: 4
Integration Time (sec): 2.000000E-2
Scans to average: 1
Electric dark correction enabled: true
Nonlinearity correction enabled: false
Boxcar width: 0
XAxis mode: Wavelengths
Number of Pixels in Spectrum: 3648
>>>>>Begin Spectral Data<<<<<
178.204	-87.04
178.424	-87.04
178.644	-87.04
178.864	-82.94
179.084	-82.94
179.304	3.07
179.524	37.89
179.744	-13.31
179.964	-64.51
180.184	-37.89
180.404	-19.46
180.624	29.7
180.844	13.31
181.064	31.74
181.283	-11.26
181.503	-29.7
181.723	60.42
181.943	-37.89
182.163	-9.22
182.383	-11.26
182.602	70.65
182.822	64.51
183.042	109.57
183.262	37.89
183.482	3.07
183.701	56.32
183.921	37.89
184.141	84.99
184.361	19.46
184.58	80.89
184.8	23.55
185.02	109.57
185.239	-37.89
185.459	78.85
185.679	60.42
185.898	27.65
186.118	13.31
186.338	-17.41
186.557	70.65
186.777	-93.18
186.997	-95.23
187.216	19.46
187.436	95.23
187.655	13.31
187.875	52.22
188.095	5.12
188.314	46.08
188.534	93.18
188.753	-9.22
188.973	54.27
189.192	76.8
189.412	39.94
189.631	68.61
189.851	-33.79
190.07	37.89
190.29	78.85
190.509	11.26
190.729	80.89
190.948	97.28
191.168	62.46
191.387	76.8
191.607	21.5
191.826	13.31
192.045	19.46
192.265	21.5
192.484	89.09
192.704	-60.42
192.923	-29.7
193.142	52.22
193.362	-33.79
193.581	84.99
193.8	37.89
194.02	29.7
194.239	-3.07
194.458	21.5
194.678	5.12
194.897	11.26
195.116	23.55
195.335	19.46
195.555	109.57
195.774	1.02
195.993	101.37
196.212	-13.31
196.432	31.74
196.651	76.8
196.87	54.27
197.089	62.46
197.308	27.65
197.528	44.03
197.747	13.31
197.966	35.84
198.185	93.18
198.404	70.65
198.623	44.03
198.842	27.65
199.062	-21.5
199.281	105.47
199.5	-33.79
199.719	31.74
199.938	39.94
200.157	37.89
200.376	84.99
200.595	44.03
200.814	80.89
201.033	35.84
201.252	-25.6
201.471	13.31
201.69	84.99
201.909	95.23
202.128	56.32
202.347	76.8
202.566	62.46
202.785	46.08
203.004	-27.65
203.223	76.8
203.442	50.18
203.661	29.7
203.879	48.13
204.098	33.79
204.317	-29.7
204.536	68.61
204.755	89.09
204.974	56.32
205.193	11.26
205.411	107.52
205.63	37.89
205.849	46.08
206.068	-21.5
206.287	31.74
206.505	11.26
206.724	19.46
206.943	89.09
207.162	-13.31
207.381	-11.26
207.599	-54.27
207.818	74.75
208.037	-44.03
208.255	15.36
208.474	-29.7
208.693	3.07
208.911	84.99
209.13	3.07
209.349	50.18
209.567	-21.5
209.786	19.46
210.005	111.61
210.223	-31.74
210.442	-50.18
210.661	3.07
210.879	44.03
211.098	93.18
211.316	52.22
211.535	31.74
211.753	78.85
211.972	-1.02
212.191	-29.7
212.409	64.51
212.628	56.32
212.846	-1.02
213.065	97.28
213.283	68.61
213.502	56.32
213.72	54.27
213.938	130.05
214.157	125.95
214.375	33.79
214.594	87.04
214.812	74.75
215.031	-109.57
215.249	3.07
215.467	17.41
215.686	39.94
215.904	58.37
216.122	13.31
216.341	99.33
216.559	11.26
216.778	91.13
216.996	31.74
217.214	37.89
217.432	60.42
217.651	84.99
217.869	46.08
218.087	-35.84
218.306	19.46
218.524	-5.12
218.742	-44.03
218.96	17.41
219.179	74.75
219.397	44.03
219.615	78.85
219.833	60.42
220.051	44.03
220.27	76.8
220.488	-1.02
220.706	78.85
220.924	91.13
221.142	29.7
221.36	72.7
221.578	-9.22
221.796	29.7
222.015	-29.7
222.233	80.89
222.451	80.89
222.669	7.17
222.887	-48.13
223.105	89.09
223.323	19.46
223.541	-52.22
223.759	39.94
223.977	44.03
224.195	60.42
224.413	13.31
224.631	35.84
224.849	-23.55
225.067	91.13
225.285	-3.07
225.503	-3.07
225.721	-9.22
225.939	52.22
226.157	46.08
226.375	119.81
226.592	44.03
226.81	-21.5
227.028	64.51
227.246	138.24
227.464	39.94
227.682	11.26
227.9	9.22
228.117	-1.02
228.335	-1.02
228.553	5.12
228.771	78.85
228.989	15.36
229.206	-1.02
229.424	46.08
229.642	91.13
229.86	68.61
230.077	5.12
230.295	-21.5
230.513	-3.07
230.731	29.7
230.948	52.22
231.166	11.26
231.384	35.84
231.601	-21.5
231.819	19.46
232.037	-11.26
232.254	27.65
232.472	23.55
232.689	64.51
232.907	62.46
233.125	23.55
233.342	21.5
233.56	7.17
233.777	41.98
233.995	-33.79
234.213	89.09
234.43	74.75
234.648	37.89
234.865	52.22
235.083	60.42
235.3	-21.5
235.518	121.85
235.735	60.42
235.953	68.61
236.17	-17.41
236.388	37.89
236.605	37.89
236.822	64.51
237.04	3.07
237.257	70.65
237.475	-13.31
237.692	109.57
237.909	54.27
238.127	5.12
238.344	35.84
238.562	5.12
238.779	1.02
238.996	-9.22
239.214	-7.17
239.431	15.36
239.648	93.18
239.865	-19.46
240.083	80.89
240.3	23.55
240.517	3.07
240.735	-27.65
240.952	48.13
241.169	68.61
241.386	35.84
241.603	52.22
241.821	44.03
242.038	44.03
242.255	37.89
242.472	-64.51
242.689	101.37
242.907	44.03
243.124	19.46
243.341	-29.7
243.558	60.42
243.775	-5.12
243.992	-54.27
244.209	60.42
244.426	113.66
244.643	107.52
244.86	-17.41
245.078	-11.26
245.295	-3.07
245.512	111.61
245.729	-21.5
245.946	101.37
246.163	76.8
246.38	19.46
246.597	27.65
246.814	56.32
247.031	25.6
247.248	19.46
247.464	27.65
247.681	109.57
247.898	70.65
248.115	-29.7
248.332	-35.84
248.549	35.84
248.766	68.61
248.983	25.6
249.2	-5.12
249.417	76.8
249.633	23.55
249.85	11.26
250.067	66.56
250.284	68.61
250.501	-5.12
250.717	-46.08
250.934	-29.7
251.151	13.31
251.368	11.26
251.585	44.03
251.801	3.07
252.018	35.84
252.235	15.36
252.451	35.84
252.668	-21.5
252.885	80.89
253.102	31.74
253.318	27.65
253.535	-15.36
253.752	-19.46
253.968	7.17
254.185	3.07
254.401	-13.31
254.618	-39.94
254.835	21.5
255.051	39.94
255.268	-1.02
255.484	76.8
255.701	60.42
255.917	62.46
256.134	44.03
256.351	68.61
256.567	27.65
256.784	-11.26
257	31.74
257.217	25.6
257.433	15.36
257.65	35.84
257.866	-1.02
258.082	19.46
258.299	-62.46
258.515	5.12
258.732	-17.41
258.948	23.55
259.165	44.03
259.381	23.55
259.597	50.18
259.814	44.03
260.03	-31.74
260.246	17.41
260.463	103.42
260.679	39.94
260.895	95.23
261.112	56.32
261.328	3.07
261.544	48.13
261.761	138.24
261.977	-17.41
262.193	-11.26
262.409	95.23
262.626	27.65
262.842	41.98
263.058	-27.65
263.274	44.03
263.49	-3.07
263.707	97.28
263.923	35.84
264.139	19.46
264.355	48.13
264.571	78.85
264.787	52.22
265.004	-3.07
265.22	-27.65
265.436	3.07
265.652	-62.46
265.868	11.26
266.084	13.31
266.3	99.33
266.516	15.36
266.732	27.65
266.948	-13.31
267.164	123.9
267.38	3.07
267.596	48.13
267.812	37.89
268.028	-21.5
268.244	68.61
268.46	46.08
268.676	-41.98
268.892	33.79
269.108	-11.26
269.324	80.89
269.54	76.8
269.756	76.8
269.972	-13.31
270.188	46.08
270.403	5.12
270.619	46.08
270.835	23.55
271.051	27.65
271.267	-3.07
271.483	-29.7
271.698	99.33
271.914	-60.42
272.13	-3.07
272.346	25.6
272.562	-46.08
272.777	78.85
272.993	31.74
273.209	52.22
273.425	27.65
273.64	7.17
273.856	31.74
274.072	76.8
274.287	-5.12
274.503	13.31
274.719	3.07
274.934	70.65
275.15	-13.31
275.366	44.03
275.581	46.08
275.797	15.36
276.012	105.47
276.228	-13.31
276.444	9.22
276.659	41.98
276.875	60.42
277.09	-17.41
277.306	41.98
277.521	48.13
277.737	50.18
277.952	68.61
278.168	-17.41
278.383	-5.12
278.599	15.36
278.814	27.65
279.03	-11.26
279.245	64.51
279.461	35.84
279.676	89.09
279.892	1.02
280.107	13.31
280.322	-37.89
280.538	64.51
280.753	44.03
280.969	21.5
281.184	56.32
281.399	72.7
281.615	15.36
281.83	82.94
282.045	19.46
282.26	68.61
282.476	-37.89
282.691	111.61
282.906	27.65
283.122	31.74
283.337	-46.08
283.552	54.27
283.767	-17.41
283.983	19.46
284.198	19.46
284.413	84.99
284.628	-23.55
284.843	37.89
285.058	11.26
285.274	60.42
285.489	-9.22
285.704	31.74
285.919	48.13
286.134	-5.12
286.349	-19.46
286.564	-60.42
286.779	29.7
286.995	84.99
287.21	7.17
287.425	19.46
287.64	23.55
287.855	89.09
288.07	-74.75
288.285	138.24
288.5	37.89
288.715	54.27
288.93	29.7
289.145	21.5
289.36	115.71
289.575	52.22
289.79	68.61
290.004	19.46
290.219	95.23
290.434	76.8
290.649	68.61
290.864	33.79
291.079	35.84
291.294	21.5
291.509	-11.26
291.724	95.23
291.938	52.22
292.153	19.46
292.368	13.31
292.583	72.7
292.798	70.65
293.012	89.09
293.227	35.84
293.442	52.22
293.657	68.61
293.871	46.08
294.086	25.6
294.301	72.7
294.516	50.18
294.73	5.12
294.945	15.36
295.16	21.5
295.374	52.22
295.589	72.7
295.804	5.12
296.018	27.65
296.233	31.74
296.447	74.75
296.662	60.42
296.877	95.23
297.091	17.41
297.306	3.07
297.52	46.08
297.735	111.61
297.949	80.89
298.164	52.22
298.378	60.42
298.593	27.65
298.807	21.5
299.022	56.32
299.236	31.74
299.451	-11.26
299.665	25.6
299.88	68.61
300.094	56.32
300.309	95.23
300.523	54.27
300.737	-1.02
300.952	84.99
301.166	39.94
301.381	54.27
301.595	-21.5
301.809	31.74
302.024	52.22
302.238	-60.42
302.452	54.27
302.667	15.36
302.881	56.32
303.095	60.42
303.309	68.61
303.524	74.75
303.738	58.37
303.952	52.22
304.166	35.84
304.381	103.42
304.595	109.57
304.809	134.14
305.023	29.7
305.237	-29.7
305.452	31.74
305.666	93.18
305.88	68.61
306.094	50.18
306.308	17.41
306.522	52.22
306.736	-13.31
306.95	3.07
307.164	84.99
307.379	19.46
307.593	142.33
307.807	3.07
308.021	21.5
308.235	89.09
308.449	35.84
308.663	19.46
308.877	52.22
309.091	103.42
309.305	5.12
309.519	68.61
309.733	76.8
309.947	-74.75
310.161	52.22
310.374	105.47
310.588	5.12
310.802	21.5
311.016	27.65
311.23	50.18
311.444	23.55
311.658	11.26
311.872	70.65
312.085	29.7
312.299	101.37
312.513	78.85
312.727	58.37
312.941	68.61
313.154	5.12
313.368	46.08
313.582	103.42
313.796	23.55
314.009	60.42
314.223	39.94
314.437	64.51
314.651	39.94
314.864	78.85
315.078	35.84
315.292	44.03
315.505	-19.46
315.719	46.08
315.933	68.61
316.146	58.37
316.36	41.98
316.573	21.5
316.787	62.46
317.001	95.23
317.214	-37.89
317.428	95.23
317.641	-31.74
317.855	44.03
318.068	-21.5
318.282	44.03
318.495	115.71
318.709	60.42
318.922	5.12
319.136	74.75
319.349	35.84
319.563	105.47
319.776	27.65
319.99	13.31
320.203	60.42
320.417	27.65
320.63	39.94
320.843	101.37
321.057	101.37
321.27	31.74
321.483	19.46
321.697	5.12
321.91	-5.12
322.124	23.55
322.337	37.89
322.55	52.22
322.763	9.22
322.977	11.26
323.19	-31.74
323.403	3.07
323.617	29.7
323.83	84.99
324.043	37.89
324.256	21.5
324.469	-48.13
324.683	62.46
324.896	52.22
325.109	13.31
325.322	23.55
325.535	93.18
325.748	11.26
325.962	58.37
326.175	-1.02
326.388	48.13
326.601	97.28
326.814	23.55
327.027	19.46
327.24	64.51
327.453	-46.08
327.666	80.89
327.879	29.7
328.092	31.74
328.305	52.22
328.518	3.07
328.731	19.46
328.944	-13.31
329.157	70.65
329.37	19.46
329.583	60.42
329.796	56.32
330.009	-5.12
330.222	97.28
330.435	35.84
330.648	37.89
330.861	27.65
331.073	56.32
331.286	9.22
331.499	19.46
331.712	46.08
331.925	60.42
332.138	78.85
332.35	27.65
332.563	3.07
332.776	5.12
332.989	3.07
333.202	87.04
333.414	1.02
333.627	7.17
333.84	37.89
334.053	-11.26
334.265	52.22
334.478	52.22
334.691	52.22
334.903	-13.31
335.116	39.94
335.329	21.5
335.541	52.22
335.754	56.32
335.966	60.42
336.179	68.61
336.392	35.84
336.604	62.46
336.817	31.74
337.029	27.65
337.242	33.79
337.454	56.32
337.667	35.84
337.88	78.85
338.092	78.85
338.305	60.42
338.517	-21.5
338.729	60.42
338.942	27.65
339.154	33.79
339.367	-29.7
339.579	46.08
339.792	-33.79
340.004	66.56
340.217	23.55
340.429	56.32
340.641	-44.03
340.854	19.46
341.066	35.84
341.278	39.94
341.491	70.65
341.703	31.74
341.915	70.65
342.128	27.65
342.34	13.31
342.552	31.74
342.764	-13.31
342.977	103.42
343.189	44.03
343.401	-15.36
343.613	-27.65
343.826	-21.5
344.038	-52.22
344.25	27.65
344.462	3.07
344.674	7.17
344.886	21.5
345.099	62.46
345.311	95.23
345.523	76.8
345.735	-9.22
345.947	13.31
346.159	19.46
346.371	-5.12
346.583	-21.5
346.795	68.61
347.007	60.42
347.219	44.03
347.431	-11.26
347.643	89.09
347.855	70.65
348.067	19.46
348.279	37.89
348.491	25.6
348.703	-13.31
348.915	5.12
349.127	5.12
349.339	64.51
349.551	76.8
349.763	84.99
349.975	76.8
350.187	44.03
350.399	48.13
350.61	5.12
350.822	-1.02
351.034	78.85
351.246	3.07
351.458	56.32
351.669	31.74
351.881	13.31
352.093	-5.12
352.305	44.03
352.517	39.94
352.728	46.08
352.94	5.12
353.152	58.37
353.363	3.07
353.575	15.36
353.787	68.61
353.999	68.61
354.21	44.03
354.422	21.5
354.633	50.18
354.845	46.08
355.057	35.84
355.268	44.03
355.48	-11.26
355.692	-3.07
355.903	89.09
356.115	7.17
356.326	-50.18
356.538	52.22
356.749	-11.26
356.961	37.89
357.172	-21.5
357.384	-37.89
357.595	60.42
357.807	89.09
358.018	54.27
358.23	5.12
358.441	171.01
358.653	60.42
358.864	-1.02
359.075	3.07
359.287	19.46
359.498	15.36
359.709	37.89
359.921	46.08
360.132	78.85
360.344	13.31
360.555	-21.5
360.766	35.84
360.977	-3.07
361.189	54.27
361.4	-5.12
361.611	27.65
361.823	35.84
362.034	44.03
362.245	-5.12
362.456	72.7
362.667	109.57
362.879	21.5
363.09	37.89
363.301	89.09
363.512	27.65
363.723	39.94
363.935	-23.55
364.146	27.65
364.357	68.61
364.568	-7.17
364.779	46.08
364.99	109.57
365.201	72.7
365.412	-9.22
365.623	-54.27
365.834	107.52
366.045	93.18
366.256	76.8
366.467	19.46
366.678	19.46
366.889	48.13
367.1	-54.27
367.311	105.47
367.522	39.94
367.733	35.84
367.944	35.84
368.155	21.5
368.366	62.46
368.577	23.55
368.788	58.37
368.999	-54.27
369.209	113.66
369.42	60.42
369.631	78.85
369.842	37.89
370.053	9.22
370.264	-9.22
370.474	13.31
370.685	44.03
370.896	-21.5
371.107	156.67
371.317	37.89
371.528	-17.41
371.739	48.13
371.95	60.42
372.16	27.65
372.371	-17.41
372.582	60.42
372.792	29.7
373.003	11.26
373.214	101.37
373.424	60.42
373.635	-13.31
373.846	105.47
374.056	107.52
374.267	128
374.477	48.13
374.688	21.5
374.898	35.84
375.109	48.13
375.319	3.07
375.53	80.89
375.74	58.37
375.951	-5.12
376.161	105.47
376.372	46.08
376.582	13.31
376.793	-29.7
377.003	46.08
377.214	46.08
377.424	11.26
377.635	60.42
377.845	-5.12
378.055	21.5
378.266	-29.7
378.476	-13.31
378.686	60.42
378.897	105.47
379.107	54.27
379.317	89.09
379.528	-9.22
379.738	54.27
379.948	27.65
380.158	70.65
380.369	31.74
380.579	148.48
380.789	27.65
380.999	99.33
381.21	82.94
381.42	64.51
381.63	-15.36
381.84	64.51
382.05	-5.12
382.261	123.9
382.471	80.89
382.681	35.84
382.891	60.42
383.101	35.84
383.311	54.27
383.521	-5.12
383.731	50.18
383.941	48.13
384.151	7.17
384.361	52.22
384.571	70.65
384.781	-29.7
384.991	21.5
385.201	134.14
385.411	150.53
385.621	123.9
385.831	19.46
386.041	3.07
386.251	3.07
386.461	87.04
386.671	-27.65
386.881	37.89
387.091	44.03
387.301	5.12
387.511	56.32
387.72	105.47
387.93	9.22
388.14	56.32
388.35	-13.31
388.56	62.46
388.769	27.65
388.979	-13.31
389.189	7.17
389.399	138.24
389.609	-27.65
389.818	101.37
390.028	54.27
390.238	54.27
390.447	46.08
390.657	44.03
390.867	31.74
391.076	31.74
391.286	46.08
391.496	60.42
391.705	-11.26
391.915	64.51
392.125	95.23
392.334	29.7
392.544	109.57
392.753	60.42
392.963	-9.22
393.172	60.42
393.382	121.85
393.591	119.81
393.801	84.99
394.01	70.65
394.22	80.89
394.429	41.98
394.639	27.65
394.848	125.95
395.058	76.8
395.267	33.79
395.477	128
395.686	44.03
395.895	27.65
396.105	111.61
396.314	64.51
396.524	68.61
396.733	-60.42
396.942	95.23
397.152	56.32
397.361	109.57
397.57	82.94
397.78	5.12
397.989	48.13
398.198	21.5
398.407	134.14
398.617	-27.65
398.826	107.52
399.035	19.46
399.244	54.27
399.453	27.65
399.663	117.76
399.872	78.85
400.081	105.47
400.29	64.51
400.499	52.22
400.708	46.08
400.917	48.13
401.127	109.57
401.336	-5.12
401.545	136.19
401.754	103.42
401.963	37.89
402.172	-5.12
402.381	44.03
402.59	168.96
402.799	93.18
403.008	62.46
403.217	181.25
403.426	56.32
403.635	56.32
403.844	80.89
404.053	130.05
404.262	33.79
404.471	191.49
404.68	105.47
404.888	78.85
405.097	78.85
405.306	146.43
405.515	78.85
405.724	121.85
405.933	168.96
406.142	150.53
406.35	128
406.559	76.8
406.768	152.57
406.977	119.81
407.185	89.09
407.394	183.29
407.603	56.32
407.812	171.01
408.02	181.25
408.229	168.96
408.438	109.57
408.646	128
408.855	130.05
409.064	160.77
409.272	158.72
409.481	242.68
409.69	240.64
409.898	234.49
410.107	185.34
410.315	222.2
410.524	177.15
410.733	175.1
410.941	201.72
411.15	220.16
411.358	162.81
411.567	281.6
411.775	224.25
411.984	214.01
412.192	332.79
412.401	273.4
412.609	271.36
412.818	314.36
413.026	285.69
413.234	343.03
413.443	334.84
413.651	371.71
413.86	322.56
414.068	443.39
414.276	363.51
414.485	357.37
414.693	498.68
414.901	412.67
415.11	451.58
415.318	453.63
415.526	398.33
415.734	420.86
415.943	478.2
416.151	502.78
416.359	515.06
416.567	588.79
416.776	576.5
416.984	605.17
417.192	582.65
417.4	543.74
417.608	558.07
417.817	537.59
418.025	687.09
418.233	695.29
418.441	723.96
418.649	664.57
418.857	818.16
419.065	789.49
419.273	674.81
419.481	830.45
419.689	859.12
419.897	832.5
420.105	895.99
420.313	969.71
420.521	963.57
420.729	994.29
420.937	1002.48
421.145	1108.98
421.353	1016.82
421.561	1133.55
421.769	1096.69
421.977	1184.75
422.185	1221.61
422.393	1330.16
422.601	1321.96
422.809	1436.65
423.017	1348.59
423.224	1405.93
423.432	1543.14
423.64	1485.8
423.848	1666.02
424.056	1493.99
424.263	1674.21
424.471	1627.11
424.679	1672.17
424.887	1698.79
425.094	1944.55
425.302	1932.26
425.51	1842.15
425.718	1940.45
425.925	2026.47
426.133	2089.95
426.341	2122.72
426.548	2415.58
426.756	2257.89
426.964	2321.37
427.171	2454.49
427.379	2513.88
427.586	2560.98
427.794	2710.49
428.001	2821.08
428.209	2925.52
428.417	2870.23
428.624	3197.9
428.832	2993.11
429.039	3042.26
429.247	3054.55
429.454	3353.55
429.662	3478.47
429.869	3320.78
430.076	3525.58
430.284	3384.27
430.491	3595.21
430.699	3771.33
430.906	3767.24
431.114	3738.57
431.321	4004.8
431.528	4084.67
431.736	4289.47
431.943	4385.73
432.15	4250.56
432.358	4256.7
432.565	4828.09
432.772	4563.9
432.979	4819.89
433.187	4885.43
433.394	5004.21
433.601	5313.45
433.808	5329.84
434.016	5254.06
434.223	5503.92
434.43	6007.72
434.637	5766.06
434.844	6226.85
435.052	6169.51
435.259	6081.44
435.466	6151.07
435.673	6159.27
435.88	6454.17
436.087	6687.64
436.294	6914.97
436.501	6826.9
436.708	6779.8
436.915	7195.54
437.122	7435.15
437.329	7424.91
437.537	7490.45
437.743	7832.46
437.95	7588.75
438.157	8031.11
438.364	8391.55
438.571	8336.26
438.778	8438.66
438.985	9202.55
439.192	8672.12
439.399	9055.09
439.606	9055.09
439.813	9350
440.02	9905
440.227	9696.11
440.433	9597.81
440.64	9933.67
440.847	9847.66
441.054	10165.09
441.261	10808.16
441.467	10287.97
441.674	10816.35
441.881	11676.49
442.088	11184.98
442.294	11195.22
442.501	11496.27
442.708	11758.41
442.914	11893.58
443.121	12804.92
443.328	12385.09
443.534	13224.76
443.741	12675.9
443.948	12430.15
444.154	13568.82
444.361	13544.24
444.568	13390.64
444.774	13579.06
444.981	13511.47
445.187	14095.14
445.394	14560.03
445.6	14471.97
445.807	15991.56
446.013	15188.76
446.22	15432.47
446.426	16239.37
446.633	16411.4
446.839	16841.47
447.046	15938.32
447.252	17191.67
447.459	16995.07
447.665	17036.03
447.871	17588.98
448.078	18506.47
448.284	17588.98
448.491	18215.66
448.697	18809.57
448.903	18971.36
449.11	19364.57
449.316	19034.85
449.522	19167.96
449.728	19909.33
449.935	19620.56
450.141	19854.03
450.347	20189.9
450.553	19778.26
450.76	20132.56
450.966	20697.8
451.172	20468.42
451.378	21076.67
451.584	20589.25
451.791	20914.88
451.997	21002.94
452.203	21338.81
452.409	21596.85
452.615	21502.65
452.821	20439.75
453.027	20495.05
453.233	21273.28
453.44	20767.43
453.646	20681.41
453.852	21002.94
454.058	21066.43
454.264	20441.8
454.47	21125.82
454.676	20218.57
454.882	21408.44
455.088	19215.07
455.294	20019.92
455.5	20040.4
455.705	20056.78
455.911	19333.85
456.117	18930.4
456.323	18703.07
456.529	17758.96
456.735	18658.02
456.941	18186.99
457.147	17765.1
457.352	17337.08
457.558	17156.86
457.764	17378.04
457.97	17031.93
458.176	16421.64
458.381	16575.24
458.587	15561.49
458.793	15674.13
458.999	14744.35
459.204	15977.23
459.41	15375.13
459.616	14512.93
459.821	14512.93
460.027	14619.42
460.233	14082.86
460.438	13493.04
460.644	13806.38
460.85	13108.02
461.055	12761.92
461.261	12786.49
461.466	12110.66
461.672	11553.62
461.878	12493.63
462.083	11434.83
462.289	11377.49
462.494	11070.3
462.7	10851.16
462.905	10584.93
463.111	10824.54
463.316	11008.86
463.522	10562.4
463.727	10400.61
463.932	10693.47
464.138	10359.65
464.343	10564.45
464.549	10218.34
464.754	10783.58
464.959	10419.04
465.165	10478.43
465.37	9796.46
465.575	9730.92
465.781	10144.61
465.986	9993.06
466.191	9788.27
466.397	9646.96
466.602	8944.5
466.807	9386.86
467.012	9675.63
467.218	9479.02
467.423	9245.55
467.628	9427.82
467.833	9646.96
468.038	9448.3
468.244	8881.02
468.449	9499.5
