Data from USB4F104151__199__14-45-17-430.txt Node

Date: Thu Mar 13 14:45:17 EDT 2025
User: louis
Spectrometer: USB4F10415
Trigger mode: 4
Integration Time (sec): 2.000000E-2
Scans to average: 1
Electric dark correction enabled: true
Nonlinearity correction enabled: false
Boxcar width: 0
XAxis mode: Wavelengths
Number of Pixels in Spectrum: 3648
>>>>>Begin Spectral Data<<<<<
178.204	-101.72
178.424	-101.72
178.644	-101.72
178.864	-36.18
179.084	-91.48
179.304	-21.85
179.524	-11.61
179.744	-60.76
179.964	68.27
180.184	37.55
180.404	-1.37
180.624	39.59
180.844	55.98
181.064	-93.52
181.283	-19.8
181.503	-40.28
181.723	47.79
181.943	-64.85
182.163	39.59
182.383	10.92
182.602	117.42
182.822	70.31
183.042	29.35
183.262	33.45
183.482	86.7
183.701	27.31
183.921	-9.56
184.141	-21.85
184.361	62.12
184.58	47.79
184.8	37.55
185.02	0.68
185.239	78.51
185.459	47.79
185.679	0.68
185.898	2.73
186.118	6.83
186.338	51.88
186.557	39.59
186.777	-30.04
186.997	-19.8
187.216	49.83
187.436	133.8
187.655	10.92
187.875	37.55
188.095	4.78
188.314	45.74
188.534	29.35
188.753	39.59
188.973	29.35
189.192	96.94
189.412	25.26
189.631	2.73
189.851	-27.99
190.07	29.35
190.29	-19.8
190.509	12.97
190.729	-17.75
190.948	21.16
191.168	103.08
191.387	33.45
191.607	-15.7
191.826	12.97
192.045	12.97
192.265	29.35
192.484	-42.32
192.704	37.55
192.923	-9.56
193.142	17.07
193.362	-11.61
193.581	64.17
193.8	23.21
194.02	0.68
194.239	10.92
194.458	94.89
194.678	6.83
194.897	21.16
195.116	-3.41
195.335	-7.51
195.555	68.27
195.774	10.92
195.993	66.22
196.212	41.64
196.432	70.31
196.651	58.03
196.87	19.11
197.089	82.6
197.308	62.12
197.528	23.21
197.747	-19.8
197.966	49.83
198.185	68.27
198.404	55.98
198.623	6.83
198.842	-15.7
199.062	62.12
199.281	82.6
199.5	84.65
199.719	21.16
199.938	10.92
200.157	51.88
200.376	-19.8
200.595	55.98
200.814	82.6
201.033	62.12
201.252	53.93
201.471	6.83
201.69	47.79
201.909	62.12
202.128	49.83
202.347	68.27
202.566	53.93
202.785	23.21
203.004	17.07
203.223	74.41
203.442	33.45
203.661	-30.04
203.879	62.12
204.098	39.59
204.317	-23.89
204.536	58.03
204.755	19.11
204.974	29.35
205.193	-15.7
205.411	152.23
205.63	15.02
205.849	64.17
206.068	41.64
206.287	37.55
206.505	29.35
206.724	12.97
206.943	-25.94
207.162	-5.46
207.381	-19.8
207.599	12.97
207.818	-3.41
208.037	-36.18
208.255	15.02
208.474	29.35
208.693	6.83
208.911	-11.61
209.13	25.26
209.349	45.74
209.567	-1.37
209.786	53.93
210.005	49.83
210.223	4.78
210.442	72.36
210.661	-11.61
210.879	41.64
211.098	27.31
211.316	74.41
211.535	62.12
211.753	-23.89
211.972	4.78
212.191	43.69
212.409	-5.46
212.628	62.12
212.846	45.74
213.065	72.36
213.283	12.97
213.502	53.93
213.72	-3.41
213.938	53.93
214.157	12.97
214.375	53.93
214.594	-9.56
214.812	78.51
215.031	23.21
215.249	-27.99
215.467	55.98
215.686	-11.61
215.904	78.51
216.122	45.74
216.341	29.35
216.559	60.07
216.778	53.93
216.996	41.64
217.214	74.41
217.432	2.73
217.651	-50.52
217.869	51.88
218.087	-42.32
218.306	41.64
218.524	49.83
218.742	-19.8
218.96	70.31
219.179	37.55
219.397	23.21
219.615	135.85
219.833	-5.46
220.051	-48.47
220.27	39.59
220.488	-3.41
220.706	80.55
220.924	-9.56
221.142	15.02
221.36	49.83
221.578	51.88
221.796	17.07
222.015	-25.94
222.233	88.75
222.451	15.02
222.669	15.02
222.887	78.51
223.105	17.07
223.323	23.21
223.541	-52.56
223.759	31.4
223.977	39.59
224.195	103.08
224.413	113.32
224.631	70.31
224.849	64.17
225.067	127.66
225.285	39.59
225.503	-25.94
225.721	-40.28
225.939	23.21
226.157	23.21
226.375	105.13
226.592	-42.32
226.81	23.21
227.028	21.16
227.246	72.36
227.464	17.07
227.682	37.55
227.9	-3.41
228.117	86.7
228.335	12.97
228.553	2.73
228.771	78.51
228.989	29.35
229.206	35.5
229.424	86.7
229.642	37.55
229.86	12.97
230.077	12.97
230.295	-27.99
230.513	53.93
230.731	70.31
230.948	-34.13
231.166	98.99
231.384	15.02
231.601	62.12
231.819	45.74
232.037	6.83
232.254	-73.04
232.472	29.35
232.689	33.45
232.907	51.88
233.125	17.07
233.342	21.16
233.56	-11.61
233.777	12.97
233.995	53.93
234.213	113.32
234.43	2.73
234.648	-3.41
234.865	6.83
235.083	51.88
235.3	-3.41
235.518	-9.56
235.735	82.6
235.953	86.7
236.17	78.51
236.388	10.92
236.605	45.74
236.822	31.4
237.04	21.16
237.257	45.74
237.475	21.16
237.692	21.16
237.909	80.55
238.127	39.59
238.344	70.31
238.562	58.03
238.779	31.4
238.996	-36.18
239.214	-68.95
239.431	51.88
239.648	55.98
239.865	144.04
240.083	4.78
240.3	-36.18
240.517	31.4
240.735	4.78
240.952	55.98
241.169	111.27
241.386	51.88
241.603	45.74
241.821	-23.89
242.038	41.64
242.255	23.21
242.472	12.97
242.689	45.74
242.907	15.02
243.124	62.12
243.341	55.98
243.558	39.59
243.775	88.75
243.992	-48.47
244.209	90.79
244.426	66.22
244.643	33.45
244.86	-15.7
245.078	45.74
245.295	82.6
245.512	86.7
245.729	8.87
245.946	21.16
246.163	29.35
246.38	4.78
246.597	12.97
246.814	29.35
247.031	-23.89
247.248	78.51
247.464	21.16
247.681	86.7
247.898	35.5
248.115	15.02
248.332	70.31
248.549	62.12
248.766	58.03
248.983	31.4
249.2	35.5
249.417	113.32
249.633	15.02
249.85	76.46
250.067	-36.18
250.284	25.26
250.501	72.36
250.717	82.6
250.934	-27.99
251.151	29.35
251.368	25.26
251.585	55.98
251.801	6.83
252.018	-11.61
252.235	94.89
252.451	107.18
252.668	21.16
252.885	86.7
253.102	-1.37
253.318	-27.99
253.535	72.36
253.752	33.45
253.968	74.41
254.185	78.51
254.401	94.89
254.618	49.83
254.835	-60.76
255.051	58.03
255.268	10.92
255.484	45.74
255.701	47.79
255.917	15.02
256.134	25.26
256.351	-17.75
256.567	-36.18
256.784	74.41
257	-15.7
257.217	47.79
257.433	-3.41
257.65	4.78
257.866	12.97
258.082	-15.7
258.299	-25.94
258.515	4.78
258.732	21.16
258.948	33.45
259.165	25.26
259.381	45.74
259.597	86.7
259.814	47.79
260.03	21.16
260.246	-1.37
260.463	146.09
260.679	47.79
260.895	41.64
261.112	31.4
261.328	-9.56
261.544	-36.18
261.761	127.66
261.977	94.89
262.193	-25.94
262.409	88.75
262.626	-15.7
262.842	-19.8
263.058	-11.61
263.274	37.55
263.49	-7.51
263.707	21.16
263.923	45.74
264.139	96.94
264.355	51.88
264.571	66.22
264.787	109.22
265.004	72.36
265.22	92.84
265.436	121.51
265.652	31.4
265.868	88.75
266.084	-42.32
266.3	35.5
266.516	82.6
266.732	86.7
266.948	33.45
267.164	49.83
267.38	-13.65
267.596	45.74
267.812	37.55
268.028	-36.18
268.244	66.22
268.46	43.69
268.676	25.26
268.892	98.99
269.108	-30.04
269.324	45.74
269.54	23.21
269.756	78.51
269.972	66.22
270.188	23.21
270.403	8.87
270.619	25.26
270.835	86.7
271.051	-25.94
271.267	-30.04
271.483	-50.52
271.698	66.22
271.914	6.83
272.13	23.21
272.346	29.35
272.562	41.64
272.777	72.36
272.993	29.35
273.209	-46.42
273.425	19.11
273.64	-30.04
273.856	60.07
274.072	-34.13
274.287	25.26
274.503	-17.75
274.719	78.51
274.934	82.6
275.15	-81.24
275.366	62.12
275.581	-66.9
275.797	80.55
276.012	15.02
276.228	53.93
276.444	-36.18
276.659	49.83
276.875	-52.56
277.09	35.5
277.306	33.45
277.521	25.26
277.737	-3.41
277.952	29.35
278.168	31.4
278.383	23.21
278.599	-15.7
278.814	-7.51
279.03	-5.46
279.245	29.35
279.461	33.45
279.676	0.68
279.892	17.07
280.107	82.6
280.322	23.21
280.538	49.83
280.753	21.16
280.969	53.93
281.184	64.17
281.399	55.98
281.615	-17.75
281.83	0.68
282.045	-32.08
282.26	12.97
282.476	23.21
282.691	58.03
282.906	94.89
283.122	78.51
283.337	-15.7
283.552	86.7
283.767	-25.94
283.983	53.93
284.198	29.35
284.413	21.16
284.628	23.21
284.843	58.03
285.058	55.98
285.274	74.41
285.489	-1.37
285.704	107.18
285.919	41.64
286.134	12.97
286.349	43.69
286.564	12.97
286.779	94.89
286.995	33.45
287.21	37.55
287.425	4.78
287.64	8.87
287.855	72.36
288.07	55.98
288.285	148.14
288.5	62.12
288.715	96.94
288.93	0.68
289.145	21.16
289.36	70.31
289.575	60.07
289.79	31.4
290.004	0.68
290.219	25.26
290.434	-15.7
290.649	-7.51
290.864	29.35
291.079	0.68
291.294	4.78
291.509	58.03
291.724	49.83
291.938	29.35
292.153	62.12
292.368	4.78
292.583	94.89
292.798	-19.8
293.012	43.69
293.227	25.26
293.442	45.74
293.657	107.18
293.871	23.21
294.086	-13.65
294.301	146.09
294.516	70.31
294.73	58.03
294.945	-11.61
295.16	55.98
295.374	164.52
295.589	-9.56
295.804	-19.8
296.018	80.55
296.233	105.13
296.447	8.87
296.662	-9.56
296.877	58.03
297.091	4.78
297.306	55.98
297.52	88.75
297.735	45.74
297.949	49.83
298.164	25.26
298.378	33.45
298.593	21.16
298.807	25.26
299.022	58.03
299.236	23.21
299.451	-25.94
299.665	-19.8
299.88	84.65
300.094	-1.37
300.309	29.35
300.523	25.26
300.737	49.83
300.952	-25.94
301.166	45.74
301.381	94.89
301.595	29.35
301.809	88.75
302.024	49.83
302.238	-3.41
302.452	47.79
302.667	-21.85
302.881	27.31
303.095	80.55
303.309	37.55
303.524	6.83
303.738	12.97
303.952	-3.41
304.166	0.68
304.381	21.16
304.595	62.12
304.809	41.64
305.023	62.12
305.237	25.26
305.452	17.07
305.666	62.12
305.88	72.36
306.094	4.78
306.308	53.93
306.522	64.17
306.736	37.55
306.95	33.45
307.164	64.17
307.379	53.93
307.593	154.28
307.807	29.35
308.021	127.66
308.235	66.22
308.449	12.97
308.663	66.22
308.877	96.94
309.091	-40.28
309.305	53.93
309.519	29.35
309.733	82.6
309.947	-50.52
310.161	70.31
310.374	33.45
310.588	29.35
310.802	37.55
311.016	47.79
311.23	25.26
311.444	88.75
311.658	43.69
311.872	94.89
312.085	74.41
312.299	31.4
312.513	12.97
312.727	-19.8
312.941	-44.37
313.154	31.4
313.368	-7.51
313.582	70.31
313.796	31.4
314.009	27.31
314.223	33.45
314.437	31.4
314.651	82.6
314.864	111.27
315.078	21.16
315.292	29.35
315.505	94.89
315.719	68.27
315.933	33.45
316.146	51.88
316.36	19.11
316.573	78.51
316.787	-1.37
317.001	96.94
317.214	39.59
317.428	64.17
317.641	109.22
317.855	96.94
318.068	8.87
318.282	21.16
318.495	17.07
318.709	53.93
318.922	64.17
319.136	88.75
319.349	62.12
319.563	53.93
319.776	62.12
319.99	2.73
320.203	74.41
320.417	96.94
320.63	21.16
320.843	80.55
321.057	37.55
321.27	66.22
321.483	-5.46
321.697	115.37
321.91	68.27
322.124	12.97
322.337	53.93
322.55	66.22
322.763	-44.37
322.977	23.21
323.19	-1.37
323.403	58.03
323.617	-27.99
323.83	84.65
324.043	12.97
324.256	62.12
324.469	43.69
324.683	94.89
324.896	35.5
325.109	148.14
325.322	-7.51
325.535	47.79
325.748	-46.42
325.962	53.93
326.175	12.97
326.388	37.55
326.601	62.12
326.814	66.22
327.027	8.87
327.24	55.98
327.453	4.78
327.666	-32.08
327.879	78.51
328.092	121.51
328.305	78.51
328.518	15.02
328.731	4.78
328.944	17.07
329.157	64.17
329.37	62.12
329.583	121.51
329.796	88.75
330.009	0.68
330.222	35.5
330.435	39.59
330.648	62.12
330.861	12.97
331.073	45.74
331.286	45.74
331.499	-36.18
331.712	12.97
331.925	105.13
332.138	-3.41
332.35	74.41
332.563	-50.52
332.776	31.4
332.989	43.69
333.202	37.55
333.414	41.64
333.627	53.93
333.84	25.26
334.053	33.45
334.265	-34.13
334.478	37.55
334.691	41.64
334.903	82.6
335.116	-27.99
335.329	109.22
335.541	76.46
335.754	15.02
335.966	4.78
336.179	17.07
336.392	45.74
336.604	70.31
336.817	160.42
337.029	-7.51
337.242	21.16
337.454	29.35
337.667	6.83
337.88	82.6
338.092	49.83
338.305	72.36
338.517	113.32
338.729	70.31
338.942	115.37
339.154	80.55
339.367	41.64
339.579	70.31
339.792	-7.51
340.004	25.26
340.217	43.69
340.429	4.78
340.641	-25.94
340.854	10.92
341.066	21.16
341.278	53.93
341.491	105.13
341.703	39.59
341.915	23.21
342.128	94.89
342.34	47.79
342.552	15.02
342.764	47.79
342.977	33.45
343.189	45.74
343.401	144.04
343.613	-52.56
343.826	4.78
344.038	29.35
344.25	88.75
344.462	-23.89
344.674	66.22
344.886	29.35
345.099	6.83
345.311	25.26
345.523	62.12
345.735	15.02
345.947	45.74
346.159	58.03
346.371	62.12
346.583	-30.04
346.795	164.52
347.007	53.93
347.219	82.6
347.431	-50.52
347.643	58.03
347.855	4.78
348.067	53.93
348.279	33.45
348.491	-9.56
348.703	103.08
348.915	39.59
349.127	12.97
349.339	17.07
349.551	37.55
349.763	21.16
349.975	68.27
350.187	21.16
350.399	131.75
350.61	53.93
350.822	17.07
351.034	58.03
351.246	51.88
351.458	80.55
351.669	49.83
351.881	-11.61
352.093	60.07
352.305	-17.75
352.517	47.79
352.728	29.35
352.94	78.51
353.152	80.55
353.363	12.97
353.575	33.45
353.787	123.56
353.999	23.21
354.21	-19.8
354.422	37.55
354.633	33.45
354.845	37.55
355.057	86.7
355.268	152.23
355.48	90.79
355.692	25.26
355.903	35.5
356.115	70.31
356.326	-27.99
356.538	41.64
356.749	-1.37
356.961	78.51
357.172	-19.8
357.384	25.26
357.595	164.52
357.807	62.12
358.018	53.93
358.23	12.97
358.441	23.21
358.653	78.51
358.864	82.6
359.075	62.12
359.287	41.64
359.498	139.94
359.709	23.21
359.921	12.97
360.132	51.88
360.344	-3.41
360.555	72.36
360.766	29.35
360.977	62.12
361.189	80.55
361.4	74.41
361.611	103.08
361.823	-32.08
362.034	-9.56
362.245	-15.7
362.456	49.83
362.667	78.51
362.879	49.83
363.09	27.31
363.301	39.59
363.512	6.83
363.723	-9.56
363.935	72.36
364.146	53.93
364.357	19.11
364.568	29.35
364.779	45.74
364.99	43.69
365.201	0.68
365.412	62.12
365.623	6.83
365.834	17.07
366.045	144.04
366.256	41.64
366.467	70.31
366.678	37.55
366.889	107.18
367.1	82.6
367.311	4.78
367.522	70.31
367.733	6.83
367.944	62.12
368.155	62.12
368.366	23.21
368.577	33.45
368.788	78.51
368.999	103.08
369.209	119.46
369.42	133.8
369.631	70.31
369.842	23.21
370.053	10.92
370.264	53.93
370.474	88.75
370.685	55.98
370.896	45.74
371.107	141.99
371.317	105.13
371.528	55.98
371.739	123.56
371.95	70.31
372.16	45.74
372.371	-27.99
372.582	37.55
372.792	2.73
373.003	119.46
373.214	62.12
373.424	92.84
373.635	19.11
373.846	103.08
374.056	29.35
374.267	6.83
374.477	15.02
374.688	2.73
374.898	148.14
375.109	53.93
375.319	53.93
375.53	78.51
375.74	70.31
375.951	74.41
376.161	-1.37
376.372	129.7
376.582	12.97
376.793	88.75
377.003	62.12
377.214	47.79
377.424	135.85
377.635	37.55
377.845	17.07
378.055	90.79
378.266	10.92
378.476	70.31
378.686	47.79
378.897	21.16
379.107	29.35
379.317	82.6
379.528	-34.13
379.738	60.07
379.948	66.22
380.158	72.36
380.369	98.99
380.579	98.99
380.789	12.97
380.999	8.87
381.21	103.08
381.42	135.85
381.63	31.4
381.84	90.79
382.05	25.26
382.261	68.27
382.471	49.83
382.681	98.99
382.891	146.09
383.101	80.55
383.311	25.26
383.521	86.7
383.731	94.89
383.941	-9.56
384.151	92.84
384.361	88.75
384.571	45.74
384.781	37.55
384.991	41.64
385.201	86.7
385.411	47.79
385.621	88.75
385.831	78.51
386.041	51.88
386.251	88.75
386.461	94.89
386.671	74.41
386.881	4.78
387.091	62.12
387.301	103.08
387.511	12.97
387.72	96.94
387.93	119.46
388.14	111.27
388.35	-19.8
388.56	115.37
388.769	70.31
388.979	70.31
389.189	-9.56
389.399	62.12
389.609	76.46
389.818	80.55
390.028	43.69
390.238	72.36
390.447	62.12
390.657	96.94
390.867	53.93
391.076	41.64
391.286	98.99
391.496	103.08
391.705	33.45
391.915	94.89
392.125	105.13
392.334	4.78
392.544	90.79
392.753	86.7
392.963	55.98
393.172	131.75
393.382	39.59
393.591	103.08
393.801	78.51
394.01	146.09
394.22	113.32
394.429	74.41
394.639	-3.41
394.848	164.52
395.058	68.27
395.267	58.03
395.477	94.89
395.686	164.52
395.895	178.86
396.105	113.32
396.314	37.55
396.524	103.08
396.733	125.61
396.942	111.27
397.152	123.56
397.361	68.27
397.57	86.7
397.78	68.27
397.989	41.64
398.198	137.9
398.407	60.07
398.617	121.51
398.826	45.74
399.035	156.33
399.244	105.13
399.453	125.61
399.663	152.23
399.872	78.51
400.081	107.18
400.29	125.61
400.499	82.6
400.708	160.42
400.917	119.46
401.127	135.85
401.336	193.19
401.545	154.28
401.754	133.8
401.963	62.12
402.172	117.42
402.381	94.89
402.59	109.22
402.799	127.66
403.008	78.51
403.217	168.62
403.426	98.99
403.635	146.09
403.844	152.23
404.053	78.51
404.262	168.62
404.471	217.77
404.68	156.33
404.888	201.38
405.097	166.57
405.306	146.09
405.515	162.47
405.724	127.66
405.933	260.77
406.142	131.75
406.35	115.37
406.559	205.48
406.768	213.67
406.977	281.25
407.185	242.34
407.394	111.27
407.603	178.86
407.812	185
408.02	197.29
408.229	297.64
408.438	266.92
408.646	219.82
408.855	217.77
409.064	291.49
409.272	236.2
409.481	332.45
409.69	203.43
409.898	285.35
410.107	320.17
410.315	422.56
410.524	291.49
410.733	295.59
410.941	311.97
411.15	266.92
411.358	365.22
411.567	365.22
411.775	422.56
411.984	342.69
412.192	445.09
412.401	373.41
412.609	518.82
412.818	406.18
413.026	422.56
413.234	465.57
413.443	508.58
413.651	488.1
413.86	506.53
414.068	629.41
414.276	676.51
414.485	615.07
414.693	520.87
414.901	701.09
415.11	670.37
415.318	694.94
415.526	690.85
415.734	854.69
415.943	750.24
416.151	774.81
416.359	805.53
416.567	836.25
416.776	883.36
416.984	981.66
417.192	920.22
417.4	987.8
417.608	946.84
417.817	1047.19
418.025	1098.39
418.233	1176.22
418.441	1186.46
418.649	1258.14
418.857	1270.42
419.065	1233.56
419.273	1303.19
419.481	1325.72
419.689	1376.92
419.897	1485.46
420.105	1514.13
420.313	1585.81
420.521	1667.73
420.729	1594
420.937	1761.94
421.145	1675.92
421.353	1895.05
421.561	1847.95
421.769	1878.67
421.977	2101.9
422.185	2130.57
422.393	2245.26
422.601	2267.78
422.809	2261.64
423.017	2278.02
423.224	2298.5
423.432	2507.4
423.64	2548.36
423.848	2687.62
424.056	2722.43
424.263	2824.83
424.471	2833.02
424.679	2882.17
424.887	2994.81
425.094	3019.39
425.302	3093.12
425.51	3185.27
425.718	3396.21
425.925	3447.41
426.133	3519.09
426.341	3689.07
426.548	3895.92
426.756	3826.29
426.964	3918.45
427.171	4078.19
427.379	4242.03
427.586	4328.04
427.794	4297.32
428.001	4735.59
428.209	5059.17
428.417	4848.22
428.624	5091.93
428.832	5165.66
429.039	5157.47
429.247	5016.16
429.454	5747.28
429.662	6003.28
429.869	5616.21
430.076	5945.94
430.284	5689.94
430.491	6126.16
430.699	6382.15
430.906	6240.84
431.114	6601.29
431.321	6713.92
431.528	6738.5
431.736	7180.86
431.943	7498.3
432.15	7451.19
432.358	7649.85
432.565	8059.44
432.772	7705.14
432.979	8323.63
433.187	8550.95
433.394	8626.73
433.601	8985.12
433.808	8999.46
434.016	9126.43
434.223	9474.59
434.43	9880.08
434.637	9792.02
434.844	10443.28
435.052	10478.09
435.259	10371.6
435.466	10480.14
435.673	10375.69
435.88	11231.74
436.087	11633.15
436.294	11909.62
436.501	11579.9
436.708	11858.42
436.915	12235.25
437.122	12679.66
437.329	12669.42
437.537	13095.39
437.743	13296.1
437.95	13029.86
438.157	13736.41
438.364	14313.94
438.571	14205.39
438.778	14373.33
438.985	15811
439.192	15385.02
439.399	15813.05
439.606	15098.31
439.813	16234.93
440.02	17336.74
440.227	16927.14
440.433	16877.99
440.64	17043.88
440.847	17146.28
441.054	17584.54
441.261	18626.96
441.467	18444.69
441.674	18938.25
441.881	19337.6
442.088	19466.63
442.294	19181.96
442.501	19810.68
442.708	20107.64
442.914	20912.49
443.121	21756.25
443.328	21154.15
443.534	23071.05
443.741	22497.62
443.948	21856.61
444.154	23435.59
444.361	23370.05
444.568	23521.6
444.774	23650.63
444.981	23902.53
445.187	24295.74
445.394	25293.1
445.6	25504.04
445.807	27699.46
446.013	26431.77
446.22	26990.86
446.426	27738.37
446.633	28057.85
446.839	29489.38
447.046	28051.71
447.252	29516.01
447.459	29382.89
447.665	29286.64
447.871	30632.15
448.078	32270.53
448.284	30773.46
448.491	30953.68
448.697	32352.44
448.903	33089.71
449.11	33233.07
449.316	32923.83
449.522	33544.36
449.728	34531.48
449.935	34373.79
450.141	34427.04
450.347	35418.25
450.553	34519.2
450.76	34767
450.966	36046.98
451.172	35463.31
451.378	36644.99
451.584	35770.5
451.791	36753.53
451.997	36661.37
452.203	36913.27
452.409	36919.42
452.615	37124.21
452.821	35496.08
453.027	35770.5
453.233	37136.5
453.44	35817.61
453.646	36171.91
453.852	36206.72
454.058	36784.25
454.264	35768.46
454.47	36651.13
454.676	35446.93
454.882	36796.54
455.088	33880.23
455.294	34465.95
455.5	35172.5
455.705	35291.28
455.911	34068.64
456.117	33411.24
456.323	32915.64
456.529	31166.67
456.735	32633.02
456.941	31490.25
457.147	31262.93
457.352	30458.07
457.558	30009.57
457.764	30099.68
457.97	29755.62
458.176	29030.64
458.381	29270.25
458.587	27715.84
458.793	27717.89
458.999	26323.22
459.204	27949.31
459.41	27156.75
459.616	25508.13
459.821	25868.58
460.027	25508.13
460.233	24881.45
460.438	23765.31
460.644	24275.26
460.85	23013.71
461.055	22526.29
461.261	22638.93
461.466	20828.52
461.672	20672.88
461.878	21750.11
462.083	20261.24
462.289	19972.47
462.494	19755.39
462.7	18842
462.905	18690.45
463.111	19118.47
463.316	19132.81
463.522	18743.69
463.727	18399.63
463.932	18631.05
464.138	18790.8
464.343	18672.01
464.549	18053.53
464.754	18717.07
464.959	18692.49
465.165	18305.43
465.37	17502.62
465.575	17260.96
465.781	17805.72
465.986	18221.46
466.191	17330.59
466.397	16886.18
466.602	16071.09
466.807	16730.54
467.012	16746.92
467.218	16589.23
