Data from USB4F104151__154__14-44-38-039.txt Node

Date: Thu Mar 13 14:44:38 EDT 2025
User: louis
Spectrometer: USB4F10415
Trigger mode: 4
Integration Time (sec): 2.000000E-2
Scans to average: 1
Electric dark correction enabled: true
Nonlinearity correction enabled: false
Boxcar width: 0
XAxis mode: Wavelengths
Number of Pixels in Spectrum: 3648
>>>>>Begin Spectral Data<<<<<
178.204	-122.02
178.424	-122.02
178.644	-122.02
178.864	-183.46
179.084	-97.45
179.304	11.09
179.524	50
179.744	-31.91
179.964	58.2
180.184	-21.67
180.404	7
180.624	0.85
180.844	-11.43
181.064	-56.49
181.283	25.43
181.503	-36.01
181.723	4.95
181.943	-113.83
182.163	117.59
182.383	9.05
182.602	47.96
182.822	0.85
183.042	-7.34
183.262	-31.91
183.482	-5.29
183.701	33.62
183.921	25.43
184.141	4.95
184.361	52.05
184.58	15.19
184.8	4.95
185.02	29.52
185.239	41.81
185.459	-3.24
185.679	25.43
185.898	0.85
186.118	41.81
186.338	-44.2
186.557	9.05
186.777	-79.02
186.997	13.14
187.216	54.1
187.436	50
187.655	54.1
187.875	9.05
188.095	-40.11
188.314	129.88
188.534	2.9
188.753	-31.91
188.973	56.15
189.192	25.43
189.412	99.16
189.631	35.67
189.851	-40.11
190.07	76.63
190.29	-9.39
190.509	31.57
190.729	-15.53
190.948	19.29
191.168	9.05
191.387	-7.34
191.607	13.14
191.826	-36.01
192.045	19.29
192.265	-13.48
192.484	82.77
192.704	-23.72
192.923	-38.06
193.142	125.78
193.362	15.19
193.581	41.81
193.8	0.85
194.02	27.48
194.239	11.09
194.458	23.38
194.678	45.91
194.897	0.85
195.116	-54.44
195.335	-38.06
195.555	58.2
195.774	31.57
195.993	21.33
196.212	17.24
196.432	17.24
196.651	29.52
196.87	-13.48
197.089	97.11
197.308	54.1
197.528	43.86
197.747	-19.63
197.966	50
198.185	-31.91
198.404	0.85
198.623	39.76
198.842	19.29
199.062	82.77
199.281	50
199.5	41.81
199.719	0.85
199.938	41.81
200.157	-27.82
200.376	74.58
200.595	23.38
200.814	-19.63
201.033	-60.59
201.252	13.14
201.471	9.05
201.69	86.87
201.909	52.05
202.128	15.19
202.347	11.09
202.566	23.38
202.785	-23.72
203.004	45.91
203.223	58.2
203.442	-7.34
203.661	50
203.879	25.43
204.098	9.05
204.317	-97.45
204.536	131.92
204.755	-21.67
204.974	82.77
205.193	72.53
205.411	76.63
205.63	50
205.849	19.29
206.068	41.81
206.287	23.38
206.505	97.11
206.724	52.05
206.943	45.91
207.162	9.05
207.381	13.14
207.599	27.48
207.818	37.72
208.037	50
208.255	27.48
208.474	17.24
208.693	17.24
208.911	25.43
209.13	9.05
209.349	62.29
209.567	-7.34
209.786	-31.91
210.005	-25.77
210.223	62.29
210.442	60.24
210.661	-5.29
210.879	2.9
211.098	0.85
211.316	29.52
211.535	60.24
211.753	54.1
211.972	56.15
212.191	25.43
212.409	27.48
212.628	68.44
212.846	43.86
213.065	13.14
213.283	84.82
213.502	-15.53
213.72	27.48
213.938	33.62
214.157	0.85
214.375	23.38
214.594	7
214.812	19.29
215.031	-5.29
215.249	-40.11
215.467	74.58
215.686	17.24
215.904	88.92
216.122	-27.82
216.341	80.72
216.559	25.43
216.778	19.29
216.996	43.86
217.214	93.01
217.432	33.62
217.651	82.77
217.869	11.09
218.087	0.85
218.306	33.62
218.524	9.05
218.742	0.85
218.96	0.85
219.179	21.33
219.397	-38.06
219.615	66.39
219.833	-7.34
220.051	74.58
220.27	35.67
220.488	-19.63
220.706	123.73
220.924	-25.77
221.142	2.9
221.36	84.82
221.578	33.62
221.796	17.24
222.015	-23.72
222.233	-1.19
222.451	115.54
222.669	17.24
222.887	50
223.105	-54.44
223.323	-11.43
223.541	-7.34
223.759	58.2
223.977	-33.96
224.195	66.39
224.413	41.81
224.631	78.68
224.849	17.24
225.067	76.63
225.285	37.72
225.503	-13.48
225.721	11.09
225.939	27.48
226.157	27.48
226.375	-7.34
226.592	4.95
226.81	39.76
227.028	0.85
227.246	21.33
227.464	45.91
227.682	37.72
227.9	-29.87
228.117	15.19
228.335	52.05
228.553	29.52
228.771	-46.25
228.989	4.95
229.206	66.39
229.424	62.29
229.642	19.29
229.86	19.29
230.077	37.72
230.295	-23.72
230.513	123.73
230.731	74.58
230.948	39.76
231.166	58.2
231.384	-25.77
231.601	25.43
231.819	117.59
232.037	31.57
232.254	-27.82
232.472	-33.96
232.689	-33.96
232.907	0.85
233.125	-7.34
233.342	-9.39
233.56	-1.19
233.777	-5.29
233.995	29.52
234.213	66.39
234.43	17.24
234.648	0.85
234.865	33.62
235.083	123.73
235.3	-5.29
235.518	84.82
235.735	88.92
235.953	115.54
236.17	-21.67
236.388	-5.29
236.605	31.57
236.822	56.15
237.04	50
237.257	27.48
237.475	-68.78
237.692	17.24
237.909	13.14
238.127	50
238.344	25.43
238.562	-56.49
238.779	-27.82
238.996	-15.53
239.214	50
239.431	84.82
239.648	-13.48
239.865	25.43
240.083	-7.34
240.3	33.62
240.517	-13.48
240.735	43.86
240.952	62.29
241.169	17.24
241.386	50
241.603	13.14
241.821	-23.72
242.038	82.77
242.255	70.48
242.472	50
242.689	-42.15
242.907	109.4
243.124	17.24
243.341	9.05
243.558	15.19
243.775	84.82
243.992	-9.39
244.209	33.62
244.426	43.86
244.643	21.33
244.86	25.43
245.078	101.2
245.295	11.09
245.512	35.67
245.729	17.24
245.946	27.48
246.163	45.91
246.38	9.05
246.597	0.85
246.814	17.24
247.031	13.14
247.248	90.96
247.464	29.52
247.681	58.2
247.898	33.62
248.115	74.58
248.332	29.52
248.549	35.67
248.766	74.58
248.983	66.39
249.2	29.52
249.417	33.62
249.633	58.2
249.85	76.63
250.067	2.9
250.284	-109.74
250.501	-31.91
250.717	52.05
250.934	-56.49
251.151	-31.91
251.368	76.63
251.585	64.34
251.801	-17.58
252.018	-23.72
252.235	11.09
252.451	-21.67
252.668	66.39
252.885	47.96
253.102	-3.24
253.318	33.62
253.535	-33.96
253.752	-23.72
253.968	17.24
254.185	45.91
254.401	-66.73
254.618	68.44
254.835	29.52
255.051	11.09
255.268	31.57
255.484	11.09
255.701	45.91
255.917	27.48
256.134	-62.63
256.351	9.05
256.567	9.05
256.784	-17.58
257	-36.01
257.217	107.35
257.433	-7.34
257.65	9.05
257.866	2.9
258.082	-19.63
258.299	-72.87
258.515	41.81
258.732	-40.11
258.948	-21.67
259.165	11.09
259.381	31.57
259.597	52.05
259.814	82.77
260.03	23.38
260.246	93.01
260.463	25.43
260.679	9.05
260.895	-7.34
261.112	52.05
261.328	37.72
261.544	-15.53
261.761	41.81
261.977	17.24
262.193	-3.24
262.409	23.38
262.626	19.29
262.842	72.53
263.058	43.86
263.274	-3.24
263.49	0.85
263.707	109.4
263.923	-31.91
264.139	-31.91
264.355	19.29
264.571	43.86
264.787	39.76
265.004	47.96
265.22	-23.72
265.436	-48.3
265.652	-60.59
265.868	50
266.084	-19.63
266.3	50
266.516	35.67
266.732	-1.19
266.948	19.29
267.164	33.62
267.38	-5.29
267.596	66.39
267.812	15.19
268.028	29.52
268.244	76.63
268.46	62.29
268.676	-5.29
268.892	70.48
269.108	-7.34
269.324	-27.82
269.54	17.24
269.756	58.2
269.972	-7.34
270.188	62.29
270.403	-3.24
270.619	19.29
270.835	115.54
271.051	13.14
271.267	-58.54
271.483	35.67
271.698	-15.53
271.914	13.14
272.13	33.62
272.346	-48.3
272.562	82.77
272.777	52.05
272.993	-48.3
273.209	-56.49
273.425	25.43
273.64	37.72
273.856	47.96
274.072	50
274.287	-11.43
274.503	35.67
274.719	74.58
274.934	25.43
275.15	33.62
275.366	74.58
275.581	68.44
275.797	-52.39
276.012	-19.63
276.228	58.2
276.444	-15.53
276.659	27.48
276.875	33.62
277.09	-13.48
277.306	25.43
277.521	-38.06
277.737	52.05
277.952	99.16
278.168	25.43
278.383	35.67
278.599	-9.39
278.814	29.52
279.03	-15.53
279.245	62.29
279.461	19.29
279.676	33.62
279.892	0.85
280.107	-21.67
280.322	9.05
280.538	9.05
280.753	-3.24
280.969	70.48
281.184	17.24
281.399	125.78
281.615	25.43
281.83	50
282.045	27.48
282.26	0.85
282.476	29.52
282.691	82.77
282.906	90.96
283.122	66.39
283.337	25.43
283.552	60.24
283.767	27.48
283.983	88.92
284.198	-46.25
284.413	-23.72
284.628	-85.16
284.843	21.33
285.058	74.58
285.274	-3.24
285.489	-52.39
285.704	45.91
285.919	-7.34
286.134	27.48
286.349	47.96
286.564	52.05
286.779	-3.24
286.995	-13.48
287.21	-97.45
287.425	43.86
287.64	-9.39
287.855	9.05
288.07	-19.63
288.285	50
288.5	-5.29
288.715	45.91
288.93	0.85
289.145	99.16
289.36	78.68
289.575	45.91
289.79	-7.34
290.004	11.09
290.219	2.9
290.434	-40.11
290.649	52.05
290.864	9.05
291.079	-23.72
291.294	45.91
291.509	62.29
291.724	43.86
291.938	21.33
292.153	68.44
292.368	-31.91
292.583	25.43
292.798	17.24
293.012	68.44
293.227	54.1
293.442	9.05
293.657	41.81
293.871	41.81
294.086	90.96
294.301	11.09
294.516	29.52
294.73	29.52
294.945	45.91
295.16	7
295.374	15.19
295.589	107.35
295.804	-66.73
296.018	60.24
296.233	17.24
296.447	74.58
296.662	-9.39
296.877	78.68
297.091	78.68
297.306	31.57
297.52	0.85
297.735	35.67
297.949	60.24
298.164	19.29
298.378	-9.39
298.593	-68.78
298.807	0.85
299.022	25.43
299.236	95.06
299.451	-56.49
299.665	9.05
299.88	17.24
300.094	39.76
300.309	-11.43
300.523	19.29
300.737	50
300.952	41.81
301.166	27.48
301.381	93.01
301.595	4.95
301.809	35.67
302.024	-38.06
302.238	37.72
302.452	78.68
302.667	45.91
302.881	17.24
303.095	9.05
303.309	-46.25
303.524	56.15
303.738	2.9
303.952	-7.34
304.166	90.96
304.381	-48.3
304.595	103.25
304.809	52.05
305.023	33.62
305.237	41.81
305.452	15.19
305.666	74.58
305.88	54.1
306.094	58.2
306.308	19.29
306.522	25.43
306.736	90.96
306.95	121.68
307.164	50
307.379	15.19
307.593	-9.39
307.807	41.81
308.021	41.81
308.235	41.81
308.449	11.09
308.663	2.9
308.877	168.79
309.091	27.48
309.305	58.2
309.519	19.29
309.733	90.96
309.947	41.81
310.161	2.9
310.374	11.09
310.588	-19.63
310.802	45.91
311.016	25.43
311.23	-23.72
311.444	19.29
311.658	82.77
311.872	2.9
312.085	37.72
312.299	33.62
312.513	25.43
312.727	-21.67
312.941	35.67
313.154	117.59
313.368	17.24
313.582	50
313.796	-31.91
314.009	41.81
314.223	47.96
314.437	25.43
314.651	33.62
314.864	41.81
315.078	-7.34
315.292	9.05
315.505	68.44
315.719	45.91
315.933	-19.63
316.146	50
316.36	45.91
316.573	-7.34
316.787	43.86
317.001	-15.53
317.214	-66.73
317.428	0.85
317.641	-29.87
317.855	33.62
318.068	74.58
318.282	35.67
318.495	82.77
318.709	25.43
318.922	17.24
319.136	123.73
319.349	2.9
319.563	11.09
319.776	9.05
319.99	33.62
320.203	-3.24
320.417	82.77
320.63	21.33
320.843	45.91
321.057	105.3
321.27	41.81
321.483	-48.3
321.697	88.92
321.91	-15.53
322.124	37.72
322.337	41.81
322.55	17.24
322.763	107.35
322.977	-3.24
323.19	-33.96
323.403	23.38
323.617	19.29
323.83	50
324.043	2.9
324.256	29.52
324.469	-7.34
324.683	41.81
324.896	90.96
325.109	39.76
325.322	74.58
325.535	50
325.748	-11.43
325.962	-31.91
326.175	54.1
326.388	-11.43
326.601	29.52
326.814	70.48
327.027	23.38
327.24	136.02
327.453	-19.63
327.666	-7.34
327.879	52.05
328.092	78.68
328.305	54.1
328.518	29.52
328.731	-3.24
328.944	11.09
329.157	58.2
329.37	9.05
329.583	19.29
329.796	0.85
330.009	-36.01
330.222	-7.34
330.435	31.57
330.648	21.33
330.861	41.81
331.073	41.81
331.286	107.35
331.499	58.2
331.712	-40.11
331.925	-9.39
332.138	2.9
332.35	99.16
332.563	58.2
332.776	95.06
332.989	0.85
333.202	50
333.414	-15.53
333.627	33.62
333.84	-7.34
334.053	66.39
334.265	-21.67
334.478	74.58
334.691	17.24
334.903	74.58
335.116	23.38
335.329	19.29
335.541	11.09
335.754	9.05
335.966	-5.29
336.179	-27.82
336.392	35.67
336.604	66.39
336.817	62.29
337.029	17.24
337.242	82.77
337.454	80.72
337.667	119.64
337.88	66.39
338.092	43.86
338.305	-7.34
338.517	11.09
338.729	45.91
338.942	76.63
339.154	-3.24
339.367	0.85
339.579	41.81
339.792	-21.67
340.004	68.44
340.217	-5.29
340.429	17.24
340.641	72.53
340.854	90.96
341.066	78.68
341.278	80.72
341.491	131.92
341.703	41.81
341.915	78.68
342.128	54.1
342.34	99.16
342.552	4.95
342.764	9.05
342.977	0.85
343.189	33.62
343.401	-7.34
343.613	-13.48
343.826	68.44
344.038	-25.77
344.25	11.09
344.462	-3.24
344.674	17.24
344.886	43.86
345.099	33.62
345.311	68.44
345.523	50
345.735	-33.96
345.947	19.29
346.159	43.86
346.371	33.62
346.583	45.91
346.795	136.02
347.007	52.05
347.219	50
347.431	-25.77
347.643	84.82
347.855	43.86
348.067	95.06
348.279	-7.34
348.491	13.14
348.703	-5.29
348.915	74.58
349.127	72.53
349.339	41.81
349.551	-1.19
349.763	99.16
349.975	41.81
350.187	-11.43
350.399	21.33
350.61	52.05
350.822	0.85
351.034	50
351.246	41.81
351.458	-3.24
351.669	54.1
351.881	74.58
352.093	47.96
352.305	25.43
352.517	93.01
352.728	19.29
352.94	43.86
353.152	117.59
353.363	-56.49
353.575	54.1
353.787	52.05
353.999	95.06
354.21	76.63
354.422	-23.72
354.633	29.52
354.845	78.68
355.057	-29.87
355.268	-1.19
355.48	66.39
355.692	-5.29
355.903	-21.67
356.115	-7.34
356.326	25.43
356.538	72.53
356.749	64.34
356.961	58.2
357.172	117.59
357.384	17.24
357.595	109.4
357.807	-62.63
358.018	-3.24
358.23	50
358.441	41.81
358.653	-56.49
358.864	37.72
359.075	19.29
359.287	7
359.498	33.62
359.709	4.95
359.921	58.2
360.132	52.05
360.344	78.68
360.555	31.57
360.766	7
360.977	0.85
361.189	90.96
361.4	101.2
361.611	58.2
361.823	107.35
362.034	-11.43
362.245	-70.83
362.456	70.48
362.667	29.52
362.879	84.82
363.09	-23.72
363.301	80.72
363.512	45.91
363.723	-13.48
363.935	52.05
364.146	68.44
364.357	-44.2
364.568	-3.24
364.779	21.33
364.99	17.24
365.201	25.43
365.412	-13.48
365.623	29.52
365.834	-5.29
366.045	17.24
366.256	66.39
366.467	58.2
366.678	29.52
366.889	9.05
367.1	-5.29
367.311	33.62
367.522	0.85
367.733	90.96
367.944	68.44
368.155	-27.82
368.366	50
368.577	56.15
368.788	78.68
368.999	9.05
369.209	17.24
369.42	123.73
369.631	72.53
369.842	35.67
370.053	25.43
370.264	-29.87
370.474	41.81
370.685	37.72
370.896	33.62
371.107	101.2
371.317	50
371.528	9.05
371.739	90.96
371.95	21.33
372.16	19.29
372.371	-7.34
372.582	-11.43
372.792	107.35
373.003	119.64
373.214	-17.58
373.424	43.86
373.635	-27.82
373.846	131.92
374.056	-31.91
374.267	68.44
374.477	-21.67
374.688	-46.25
374.898	43.86
375.109	101.2
375.319	2.9
375.53	54.1
375.74	0.85
375.951	45.91
376.161	72.53
376.372	50
376.582	84.82
376.793	31.57
377.003	82.77
377.214	37.72
377.424	45.91
377.635	9.05
377.845	41.81
378.055	56.15
378.266	-11.43
378.476	25.43
378.686	74.58
378.897	29.52
379.107	33.62
379.317	133.97
379.528	37.72
379.738	76.63
379.948	-1.19
380.158	62.29
380.369	-7.34
380.579	60.24
380.789	17.24
380.999	-44.2
381.21	121.68
381.42	25.43
381.63	37.72
381.84	29.52
382.05	88.92
382.261	35.67
382.471	19.29
382.681	62.29
382.891	52.05
383.101	35.67
383.311	13.14
383.521	21.33
383.731	93.01
383.941	13.14
384.151	-15.53
384.361	72.53
384.571	95.06
384.781	43.86
384.991	74.58
385.201	35.67
385.411	60.24
385.621	33.62
385.831	9.05
386.041	60.24
386.251	-1.19
386.461	52.05
386.671	60.24
386.881	123.73
387.091	76.63
387.301	76.63
387.511	68.44
387.72	33.62
387.93	17.24
388.14	-44.2
388.35	43.86
388.56	-62.63
388.769	19.29
388.979	76.63
389.189	43.86
389.399	41.81
389.609	95.06
389.818	23.38
390.028	117.59
390.238	41.81
390.447	39.76
390.657	9.05
390.867	86.87
391.076	-23.72
391.286	54.1
391.496	-52.39
391.705	52.05
391.915	117.59
392.125	23.38
392.334	11.09
392.544	82.77
392.753	64.34
392.963	7
393.172	84.82
393.382	27.48
393.591	183.12
393.801	-15.53
394.01	78.68
394.22	9.05
394.429	47.96
394.639	21.33
394.848	115.54
395.058	52.05
395.267	115.54
395.477	172.88
395.686	164.69
395.895	33.62
396.105	148.31
396.314	43.86
396.524	25.43
396.733	60.24
396.942	74.58
397.152	60.24
397.361	84.82
397.57	93.01
397.78	13.14
397.989	74.58
398.198	93.01
398.407	17.24
398.617	35.67
398.826	-3.24
399.035	60.24
399.244	43.86
399.453	158.55
399.663	125.78
399.872	50
400.081	127.83
400.29	86.87
400.499	74.58
400.708	121.68
400.917	70.48
401.127	60.24
401.336	41.81
401.545	160.59
401.754	66.39
401.963	25.43
402.172	127.83
402.381	17.24
402.59	115.54
402.799	68.44
403.008	56.15
403.217	133.97
403.426	99.16
403.635	86.87
403.844	76.63
404.053	78.68
404.262	174.93
404.471	101.2
404.68	183.12
404.888	93.01
405.097	160.59
405.306	90.96
405.515	209.75
405.724	224.08
405.933	131.92
406.142	121.68
406.35	115.54
406.559	160.59
406.768	148.31
406.977	148.31
407.185	90.96
407.394	115.54
407.603	113.49
407.812	191.31
408.02	226.13
408.229	111.44
408.438	195.41
408.646	160.59
408.855	140.12
409.064	219.99
409.272	254.8
409.481	230.23
409.69	93.01
409.898	185.17
410.107	211.79
410.315	308.05
410.524	84.82
410.733	189.27
410.941	320.34
411.15	344.91
411.358	287.57
411.567	357.2
411.775	260.95
411.984	328.53
412.192	303.95
412.401	357.2
412.609	394.06
412.818	385.87
413.026	377.68
413.234	439.12
413.443	441.17
413.651	420.69
413.86	428.88
414.068	469.84
414.276	463.69
414.485	494.41
414.693	469.84
414.901	643.92
415.11	498.51
415.318	504.65
415.526	430.93
415.734	529.23
415.943	570.19
416.151	648.01
416.359	576.33
416.567	672.59
416.776	676.68
416.984	770.89
417.192	799.56
417.4	705.35
417.608	779.08
417.817	803.66
418.025	854.86
418.233	871.24
418.441	881.48
418.649	944.97
418.857	936.78
419.065	1051.46
419.273	1037.13
419.481	1000.26
419.689	1092.42
419.897	1108.8
420.105	1229.63
420.313	1239.87
420.521	1323.84
420.729	1356.61
420.937	1188.68
421.145	1401.66
421.353	1434.43
421.561	1522.49
421.769	1459.01
421.977	1620.8
422.185	1592.13
422.393	1721.15
422.601	1848.12
422.809	1819.45
423.017	1747.77
423.224	1854.27
423.432	2024.25
423.64	1944.38
423.848	2143.03
424.056	2108.21
424.263	2163.51
424.471	2229.04
424.679	2304.82
424.887	2323.25
425.094	2487.09
425.302	2437.94
425.51	2519.85
425.718	2632.49
425.925	2642.73
426.133	2810.67
426.341	2808.62
426.548	2941.74
426.756	2982.7
426.964	3164.97
427.171	3081
427.379	3322.66
427.586	3273.51
427.794	3490.59
428.001	3676.96
428.209	3695.39
428.417	3754.78
428.624	3930.91
428.832	4039.45
429.039	4115.22
429.247	4057.88
429.454	4320.02
429.662	4557.58
429.869	4285.2
430.076	4573.97
430.284	4426.51
430.491	4768.52
430.699	5022.47
430.906	5022.47
431.114	4862.73
431.321	5206.79
431.528	5364.48
431.736	5718.78
431.943	5956.35
432.15	5745.41
432.358	5735.17
432.565	6148.86
432.772	6021.88
432.979	6376.18
433.187	6443.76
433.394	6546.16
433.601	7035.63
433.808	6961.9
434.016	7000.81
434.223	7238.37
434.43	7725.79
434.637	7627.49
434.844	8055.51
435.052	8119
435.259	8106.71
435.466	8159.96
435.673	8000.22
435.88	8559.31
436.087	9218.76
436.294	9102.03
436.501	8794.83
436.708	8962.76
436.915	9142.99
437.122	9878.21
437.329	9777.86
437.537	10035.9
437.743	10332.86
437.95	10191.55
438.157	10633.91
438.364	10967.73
438.571	10900.14
438.778	10994.35
438.985	12157.6
439.192	11395.75
439.399	11913.89
439.606	11580.07
439.813	12270.23
440.02	13144.72
440.227	12868.24
440.433	12829.33
440.64	13116.05
440.847	12980.88
441.054	13533.83
441.261	13970.05
441.467	13920.9
441.674	14592.63
441.881	14975.6
442.088	14840.43
442.294	14674.55
442.501	15018.61
442.708	15526.5
442.914	15940.19
443.121	16755.29
443.328	16239.2
443.534	17252.94
443.741	16902.74
443.948	16765.53
444.154	17842.76
444.361	17531.47
444.568	17519.18
444.774	17719.88
444.981	18098.75
445.187	18594.36
445.394	19552.81
445.6	19116.59
445.807	20869.65
446.013	20228.64
446.22	20365.85
446.426	21275.15
446.633	21406.22
446.839	22037
447.046	21193.23
447.252	22403.58
447.459	22551.04
447.665	22243.84
447.871	23237.11
448.078	24148.45
448.284	23355.89
448.491	24195.56
448.697	24916.44
448.903	25139.67
449.11	25305.56
449.316	24740.32
449.522	25321.94
449.728	25704.91
449.935	26202.57
450.141	26214.85
450.347	27038.14
450.553	25854.41
450.76	26448.32
450.966	27453.87
451.172	26591.68
451.378	27857.32
451.584	26952.12
451.791	28285.35
451.997	27597.23
452.203	28137.9
452.409	28197.29
452.615	28232.1
452.821	26890.68
453.027	26515.9
453.233	28205.48
453.44	27298.23
453.646	27185.59
453.852	27199.93
454.058	28332.45
454.264	27167.16
454.47	28012.97
454.676	27027.9
454.882	27974.06
455.088	25686.48
455.294	25967.05
455.5	26266.05
455.705	27142.58
455.911	25866.7
456.117	25178.58
456.323	24787.42
456.529	23724.52
456.735	24814.04
456.941	23953.9
457.147	23972.33
457.352	22983.16
457.558	22544.89
457.764	22968.82
457.97	22333.95
458.176	22159.88
458.381	21803.53
458.587	20617.75
458.793	20732.44
458.999	20079.14
459.204	21332.5
459.41	20578.84
459.616	19194.42
459.821	19239.47
460.027	19423.79
460.233	18563.64
460.438	18186.82
460.644	18172.48
460.85	17427.02
461.055	17019.47
461.261	16740.95
461.466	15796.84
461.672	15254.12
461.878	16151.13
462.083	15360.62
462.289	14905.97
462.494	14772.85
462.7	14178.94
462.905	13963.9
463.111	14398.07
463.316	14385.79
463.522	14027.39
463.727	14011.01
463.932	14002.82
464.138	14006.91
464.343	13857.41
464.549	13707.91
464.754	14037.63
464.959	14170.75
465.165	13771.4
465.37	13128.33
465.575	12685.97
465.781	13378.19
465.986	13421.19
466.191	12788.37
466.397	12681.88
466.602	12022.43
466.807	12364.44
467.012	12413.59
467.218	12237.47
467.423	12313.24
467.628	12335.77
467.833	13052.56
468.038	12278.43
468.244	12024.48
468.449	12536.47
468.654	12100.25
468.859	12014.24
