Data from USB4F104151__184__14-45-08-072.txt Node

Date: Thu Mar 13 14:45:08 EDT 2025
User: louis
Spectrometer: USB4F10415
Trigger mode: 4
Integration Time (sec): 2.000000E-2
Scans to average: 1
Electric dark correction enabled: true
Nonlinearity correction enabled: false
Boxcar width: 0
XAxis mode: Wavelengths
Number of Pixels in Spectrum: 3648
>>>>>Begin Spectral Data<<<<<
178.204	-71.68
178.424	-71.68
178.644	-71.68
178.864	-116.73
179.084	-102.4
179.304	10.24
179.524	8.19
179.744	0
179.964	26.62
180.184	-40.96
180.404	12.29
180.624	-34.82
180.844	-10.24
181.064	2.05
181.283	28.67
181.503	-32.77
181.723	30.72
181.943	14.34
182.163	79.87
182.383	-8.19
182.602	47.1
182.822	63.49
183.042	14.34
183.262	32.77
183.482	75.77
183.701	24.58
183.921	6.14
184.141	-43.01
184.361	79.87
184.58	-10.24
184.8	10.24
185.02	26.62
185.239	-6.14
185.459	45.06
185.679	22.53
185.898	-18.43
186.118	100.35
186.338	63.49
186.557	83.97
186.777	65.54
186.997	38.91
187.216	65.54
187.436	114.69
187.655	14.34
187.875	-6.14
188.095	38.91
188.314	49.15
188.534	96.25
188.753	22.53
188.973	67.58
189.192	32.77
189.412	69.63
189.631	-10.24
189.851	51.2
190.07	47.1
190.29	-16.38
190.509	8.19
190.729	22.53
190.948	49.15
191.168	122.88
191.387	57.34
191.607	22.53
191.826	14.34
192.045	32.77
192.265	131.07
192.484	40.96
192.704	-26.62
192.923	-40.96
193.142	47.1
193.362	53.25
193.581	32.77
193.8	47.1
194.02	106.49
194.239	26.62
194.458	22.53
194.678	30.72
194.897	38.91
195.116	47.1
195.335	22.53
195.555	38.91
195.774	38.91
195.993	36.86
196.212	-51.2
196.432	51.2
196.651	6.14
196.87	83.97
197.089	178.17
197.308	-10.24
197.528	63.49
197.747	-2.05
197.966	126.97
198.185	122.88
198.404	34.82
198.623	14.34
198.842	32.77
199.062	104.45
199.281	88.06
199.5	34.82
199.719	165.89
199.938	49.15
200.157	104.45
200.376	22.53
200.595	88.06
200.814	77.82
201.033	49.15
201.252	55.3
201.471	2.05
201.69	-2.05
201.909	71.68
202.128	43.01
202.347	90.11
202.566	14.34
202.785	14.34
203.004	20.48
203.223	49.15
203.442	-53.25
203.661	-6.14
203.879	22.53
204.098	114.69
204.317	30.72
204.536	81.92
204.755	71.68
204.974	63.49
205.193	112.64
205.411	75.77
205.63	63.49
205.849	100.35
206.068	-12.29
206.287	67.58
206.505	145.41
206.724	40.96
206.943	114.69
207.162	-2.05
207.381	43.01
207.599	10.24
207.818	63.49
208.037	71.68
208.255	-34.82
208.474	-36.86
208.693	71.68
208.911	22.53
209.13	40.96
209.349	38.91
209.567	88.06
209.786	65.54
210.005	122.88
210.223	40.96
210.442	-6.14
210.661	51.2
210.879	67.58
211.098	-47.1
211.316	61.44
211.535	30.72
211.753	71.68
211.972	49.15
212.191	88.06
212.409	79.87
212.628	26.62
212.846	-32.77
213.065	122.88
213.283	122.88
213.502	63.49
213.72	30.72
213.938	14.34
214.157	61.44
214.375	92.16
214.594	38.91
214.812	59.39
215.031	49.15
215.249	-43.01
215.467	-10.24
215.686	40.96
215.904	10.24
216.122	28.67
216.341	71.68
216.559	-6.14
216.778	55.3
216.996	51.2
217.214	67.58
217.432	67.58
217.651	73.73
217.869	-34.82
218.087	47.1
218.306	45.06
218.524	-26.62
218.742	43.01
218.96	-6.14
219.179	86.01
219.397	38.91
219.615	71.68
219.833	126.97
220.051	24.58
220.27	30.72
220.488	71.68
220.706	30.72
220.924	2.05
221.142	-43.01
221.36	43.01
221.578	-47.1
221.796	10.24
222.015	90.11
222.233	6.14
222.451	63.49
222.669	98.3
222.887	71.68
223.105	14.34
223.323	73.73
223.541	14.34
223.759	49.15
223.977	14.34
224.195	88.06
224.413	43.01
224.631	30.72
224.849	47.1
225.067	137.21
225.285	22.53
225.503	96.25
225.721	30.72
225.939	22.53
226.157	20.48
226.375	149.5
226.592	53.25
226.81	63.49
227.028	26.62
227.246	92.16
227.464	6.14
227.682	88.06
227.9	47.1
228.117	88.06
228.335	79.87
228.553	63.49
228.771	57.34
228.989	137.21
229.206	-18.43
229.424	-10.24
229.642	6.14
229.86	28.67
230.077	96.25
230.295	-32.77
230.513	22.53
230.731	57.34
230.948	38.91
231.166	59.39
231.384	10.24
231.601	79.87
231.819	59.39
232.037	30.72
232.254	6.14
232.472	40.96
232.689	40.96
232.907	12.29
233.125	-26.62
233.342	30.72
233.56	18.43
233.777	-34.82
233.995	43.01
234.213	47.1
234.43	12.29
234.648	63.49
234.865	43.01
235.083	71.68
235.3	10.24
235.518	16.38
235.735	106.49
235.953	55.3
236.17	-10.24
236.388	16.38
236.605	-10.24
236.822	55.3
237.04	104.45
237.257	79.87
237.475	16.38
237.692	2.05
237.909	-6.14
238.127	-8.19
238.344	30.72
238.562	-10.24
238.779	28.67
238.996	16.38
239.214	-14.34
239.431	49.15
239.648	-12.29
239.865	77.82
240.083	100.35
240.3	-2.05
240.517	0
240.735	-24.58
240.952	51.2
241.169	16.38
241.386	106.49
241.603	18.43
241.821	6.14
242.038	71.68
242.255	55.3
242.472	-2.05
242.689	8.19
242.907	53.25
243.124	75.77
243.341	2.05
243.558	57.34
243.775	-24.58
243.992	12.29
244.209	10.24
244.426	55.3
244.643	43.01
244.86	-26.62
245.078	47.1
245.295	24.58
245.512	38.91
245.729	-12.29
245.946	40.96
246.163	18.43
246.38	55.3
246.597	18.43
246.814	59.39
247.031	45.06
247.248	-30.72
247.464	45.06
247.681	71.68
247.898	24.58
248.115	14.34
248.332	-6.14
248.549	96.25
248.766	120.83
248.983	67.58
249.2	18.43
249.417	16.38
249.633	-14.34
249.85	67.58
250.067	51.2
250.284	43.01
250.501	49.15
250.717	51.2
250.934	32.77
251.151	47.1
251.368	57.34
251.585	16.38
251.801	63.49
252.018	63.49
252.235	122.88
252.451	-34.82
252.668	88.06
252.885	57.34
253.102	8.19
253.318	57.34
253.535	32.77
253.752	-20.48
253.968	8.19
254.185	16.38
254.401	65.54
254.618	10.24
254.835	0
255.051	71.68
255.268	47.1
255.484	79.87
255.701	67.58
255.917	63.49
256.134	28.67
256.351	-2.05
256.567	57.34
256.784	57.34
257	14.34
257.217	106.49
257.433	55.3
257.65	83.97
257.866	75.77
258.082	16.38
258.299	65.54
258.515	-6.14
258.732	77.82
258.948	26.62
259.165	14.34
259.381	55.3
259.597	6.14
259.814	71.68
260.03	96.25
260.246	6.14
260.463	32.77
260.679	32.77
260.895	28.67
261.112	4.1
261.328	63.49
261.544	47.1
261.761	129.02
261.977	43.01
262.193	-16.38
262.409	98.3
262.626	18.43
262.842	96.25
263.058	-32.77
263.274	92.16
263.49	-6.14
263.707	45.06
263.923	-4.1
264.139	-26.62
264.355	55.3
264.571	49.15
264.787	94.21
265.004	104.45
265.22	24.58
265.436	59.39
265.652	36.86
265.868	40.96
266.084	92.16
266.3	104.45
266.516	55.3
266.732	47.1
266.948	38.91
267.164	43.01
267.38	30.72
267.596	40.96
267.812	16.38
268.028	-4.1
268.244	-16.38
268.46	79.87
268.676	-4.1
268.892	47.1
269.108	40.96
269.324	79.87
269.54	16.38
269.756	55.3
269.972	-32.77
270.188	30.72
270.403	-49.15
270.619	-6.14
270.835	38.91
271.051	59.39
271.267	67.58
271.483	38.91
271.698	43.01
271.914	71.68
272.13	22.53
272.346	24.58
272.562	86.01
272.777	63.49
272.993	83.97
273.209	14.34
273.425	86.01
273.64	-34.82
273.856	59.39
274.072	10.24
274.287	28.67
274.503	61.44
274.719	110.59
274.934	-2.05
275.15	-18.43
275.366	47.1
275.581	-2.05
275.797	43.01
276.012	112.64
276.228	75.77
276.444	6.14
276.659	118.78
276.875	43.01
277.09	28.67
277.306	8.19
277.521	14.34
277.737	47.1
277.952	75.77
278.168	32.77
278.383	75.77
278.599	24.58
278.814	49.15
279.03	-45.06
279.245	22.53
279.461	96.25
279.676	118.78
279.892	-22.53
280.107	73.73
280.322	32.77
280.538	10.24
280.753	79.87
280.969	55.3
281.184	32.77
281.399	69.63
281.615	67.58
281.83	63.49
282.045	63.49
282.26	49.15
282.476	10.24
282.691	49.15
282.906	14.34
283.122	114.69
283.337	10.24
283.552	63.49
283.767	2.05
283.983	100.35
284.198	-2.05
284.413	40.96
284.628	8.19
284.843	63.49
285.058	14.34
285.274	38.91
285.489	57.34
285.704	63.49
285.919	-51.2
286.134	88.06
286.349	-8.19
286.564	79.87
286.779	34.82
286.995	30.72
287.21	10.24
287.425	79.87
287.64	92.16
287.855	96.25
288.07	-8.19
288.285	112.64
288.5	55.3
288.715	69.63
288.93	30.72
289.145	59.39
289.36	69.63
289.575	69.63
289.79	92.16
290.004	28.67
290.219	65.54
290.434	22.53
290.649	-2.05
290.864	8.19
291.079	-59.39
291.294	6.14
291.509	65.54
291.724	47.1
291.938	71.68
292.153	57.34
292.368	-16.38
292.583	86.01
292.798	90.11
293.012	-6.14
293.227	88.06
293.442	22.53
293.657	30.72
293.871	26.62
294.086	-2.05
294.301	57.34
294.516	129.02
294.73	38.91
294.945	18.43
295.16	14.34
295.374	104.45
295.589	53.25
295.804	77.82
296.018	26.62
296.233	129.02
296.447	149.5
296.662	14.34
296.877	100.35
297.091	122.88
297.306	96.25
297.52	94.21
297.735	14.34
297.949	40.96
298.164	129.02
298.378	53.25
298.593	-18.43
298.807	30.72
299.022	92.16
299.236	63.49
299.451	55.3
299.665	71.68
299.88	79.87
300.094	-32.77
300.309	32.77
300.523	96.25
300.737	24.58
300.952	16.38
301.166	86.01
301.381	14.34
301.595	22.53
301.809	96.25
302.024	55.3
302.238	8.19
302.452	131.07
302.667	-43.01
302.881	96.25
303.095	129.02
303.309	-18.43
303.524	34.82
303.738	10.24
303.952	22.53
304.166	145.41
304.381	22.53
304.595	71.68
304.809	34.82
305.023	47.1
305.237	-24.58
305.452	-4.1
305.666	90.11
305.88	79.87
306.094	71.68
306.308	55.3
306.522	49.15
306.736	57.34
306.95	92.16
307.164	14.34
307.379	47.1
307.593	120.83
307.807	57.34
308.021	108.54
308.235	-10.24
308.449	75.77
308.663	124.93
308.877	112.64
309.091	59.39
309.305	75.77
309.519	-14.34
309.733	90.11
309.947	-34.82
310.161	26.62
310.374	79.87
310.588	71.68
310.802	6.14
311.016	-57.34
311.23	90.11
311.444	40.96
311.658	88.06
311.872	63.49
312.085	120.83
312.299	55.3
312.513	-49.15
312.727	59.39
312.941	90.11
313.154	10.24
313.368	22.53
313.582	-2.05
313.796	71.68
314.009	112.64
314.223	83.97
314.437	51.2
314.651	30.72
314.864	38.91
315.078	55.3
315.292	-26.62
315.505	26.62
315.719	0
315.933	69.63
316.146	-34.82
316.36	65.54
316.573	116.73
316.787	14.34
317.001	59.39
317.214	63.49
317.428	8.19
317.641	10.24
317.855	-6.14
318.068	92.16
318.282	43.01
318.495	22.53
318.709	69.63
318.922	32.77
319.136	186.37
319.349	129.02
319.563	2.05
319.776	-4.1
319.99	18.43
320.203	40.96
320.417	-26.62
320.63	43.01
320.843	53.25
321.057	63.49
321.27	79.87
321.483	67.58
321.697	36.86
321.91	40.96
322.124	47.1
322.337	38.91
322.55	75.77
322.763	65.54
322.977	38.91
323.19	43.01
323.403	22.53
323.617	10.24
323.83	153.6
324.043	49.15
324.256	120.83
324.469	36.86
324.683	40.96
324.896	81.92
325.109	73.73
325.322	18.43
325.535	100.35
325.748	30.72
325.962	67.58
326.175	-26.62
326.388	63.49
326.601	81.92
326.814	53.25
327.027	47.1
327.24	40.96
327.453	38.91
327.666	79.87
327.879	129.02
328.092	18.43
328.305	49.15
328.518	118.78
328.731	49.15
328.944	71.68
329.157	57.34
329.37	-30.72
329.583	96.25
329.796	45.06
330.009	51.2
330.222	30.72
330.435	114.69
330.648	65.54
330.861	6.14
331.073	55.3
331.286	38.91
331.499	24.58
331.712	26.62
331.925	-20.48
332.138	69.63
332.35	16.38
332.563	26.62
332.776	77.82
332.989	-2.05
333.202	83.97
333.414	22.53
333.627	61.44
333.84	55.3
334.053	163.84
334.265	38.91
334.478	-18.43
334.691	83.97
334.903	81.92
335.116	71.68
335.329	10.24
335.541	81.92
335.754	71.68
335.966	43.01
336.179	86.01
336.392	-32.77
336.604	57.34
336.817	73.73
337.029	151.55
337.242	-47.1
337.454	106.49
337.667	63.49
337.88	65.54
338.092	14.34
338.305	112.64
338.517	-6.14
338.729	88.06
338.942	30.72
339.154	40.96
339.367	43.01
339.579	47.1
339.792	47.1
340.004	126.97
340.217	-18.43
340.429	94.21
340.641	47.1
340.854	55.3
341.066	34.82
341.278	124.93
341.491	77.82
341.703	32.77
341.915	71.68
342.128	104.45
342.34	45.06
342.552	49.15
342.764	112.64
342.977	71.68
343.189	92.16
343.401	30.72
343.613	-12.29
343.826	71.68
344.038	135.17
344.25	88.06
344.462	47.1
344.674	57.34
344.886	108.54
345.099	47.1
345.311	59.39
345.523	0
345.735	10.24
345.947	98.3
346.159	122.88
346.371	104.45
346.583	104.45
346.795	55.3
347.007	71.68
347.219	71.68
347.431	73.73
347.643	104.45
347.855	53.25
348.067	133.12
348.279	71.68
348.491	71.68
348.703	49.15
348.915	63.49
349.127	71.68
349.339	59.39
349.551	63.49
349.763	75.77
349.975	71.68
350.187	98.3
350.399	92.16
350.61	-26.62
350.822	-6.14
351.034	69.63
351.246	-6.14
351.458	120.83
351.669	-32.77
351.881	88.06
352.093	55.3
352.305	43.01
352.517	73.73
352.728	36.86
352.94	63.49
353.152	47.1
353.363	49.15
353.575	75.77
353.787	114.69
353.999	96.25
354.21	108.54
354.422	-2.05
354.633	16.38
354.845	88.06
355.057	51.2
355.268	90.11
355.48	77.82
355.692	79.87
355.903	12.29
356.115	-14.34
356.326	-10.24
356.538	73.73
356.749	38.91
356.961	129.02
357.172	-40.96
357.384	63.49
357.595	73.73
357.807	-26.62
358.018	47.1
358.23	32.77
358.441	100.35
358.653	55.3
358.864	26.62
359.075	32.77
359.287	32.77
359.498	122.88
359.709	81.92
359.921	18.43
360.132	34.82
360.344	57.34
360.555	2.05
360.766	92.16
360.977	55.3
361.189	81.92
361.4	-26.62
361.611	63.49
361.823	100.35
362.034	79.87
362.245	51.2
362.456	98.3
362.667	88.06
362.879	40.96
363.09	49.15
363.301	124.93
363.512	71.68
363.723	16.38
363.935	90.11
364.146	32.77
364.357	47.1
364.568	61.44
364.779	-53.25
364.99	38.91
365.201	-2.05
365.412	88.06
365.623	30.72
365.834	116.73
366.045	12.29
366.256	90.11
366.467	137.21
366.678	-2.05
366.889	-4.1
367.1	6.14
367.311	98.3
367.522	28.67
367.733	137.21
367.944	63.49
368.155	79.87
368.366	18.43
368.577	92.16
368.788	81.92
368.999	47.1
369.209	75.77
369.42	110.59
369.631	81.92
369.842	81.92
370.053	55.3
370.264	38.91
370.474	10.24
370.685	38.91
370.896	51.2
371.107	73.73
371.317	55.3
371.528	79.87
371.739	71.68
371.95	112.64
372.16	106.49
372.371	10.24
372.582	28.67
372.792	83.97
373.003	-14.34
373.214	83.97
373.424	-20.48
373.635	6.14
373.846	178.17
374.056	28.67
374.267	18.43
374.477	34.82
374.688	26.62
374.898	43.01
375.109	145.41
375.319	30.72
375.53	2.05
375.74	112.64
375.951	22.53
376.161	51.2
376.372	98.3
376.582	57.34
376.793	59.39
377.003	96.25
377.214	51.2
377.424	81.92
377.635	79.87
377.845	61.44
378.055	73.73
378.266	8.19
378.476	-6.14
378.686	30.72
378.897	118.78
379.107	153.6
379.317	71.68
379.528	104.45
379.738	88.06
379.948	12.29
380.158	120.83
380.369	51.2
380.579	88.06
380.789	75.77
380.999	55.3
381.21	49.15
381.42	30.72
381.63	120.83
381.84	63.49
382.05	86.01
382.261	24.58
382.471	59.39
382.681	108.54
382.891	51.2
383.101	100.35
383.311	12.29
383.521	47.1
383.731	114.69
383.941	104.45
384.151	-16.38
384.361	92.16
384.571	71.68
384.781	94.21
384.991	176.13
385.201	190.46
385.411	141.31
385.621	96.25
385.831	40.96
386.041	77.82
386.251	12.29
386.461	104.45
386.671	-2.05
386.881	79.87
387.091	67.58
387.301	120.83
387.511	30.72
387.72	92.16
387.93	38.91
388.14	57.34
388.35	26.62
388.56	178.17
388.769	38.91
388.979	57.34
389.189	65.54
389.399	49.15
389.609	79.87
389.818	118.78
390.028	2.05
390.238	-16.38
390.447	47.1
390.657	114.69
390.867	34.82
391.076	38.91
391.286	32.77
391.496	94.21
391.705	71.68
391.915	63.49
392.125	100.35
392.334	49.15
392.544	49.15
392.753	104.45
392.963	14.34
393.172	88.06
393.382	59.39
393.591	83.97
393.801	75.77
394.01	161.79
394.22	55.3
394.429	63.49
394.639	67.58
394.848	114.69
395.058	139.26
395.267	81.92
395.477	120.83
395.686	100.35
395.895	96.25
396.105	145.41
396.314	143.36
396.524	96.25
396.733	102.4
396.942	116.73
397.152	98.3
397.361	176.13
397.57	96.25
397.78	98.3
397.989	141.31
398.198	163.84
398.407	186.37
398.617	112.64
398.826	114.69
399.035	79.87
399.244	180.22
399.453	141.31
399.663	120.83
399.872	122.88
400.081	141.31
400.29	194.56
400.499	104.45
400.708	190.46
400.917	129.02
401.127	112.64
401.336	90.11
401.545	198.65
401.754	90.11
401.963	120.83
402.172	157.69
402.381	22.53
402.59	120.83
402.799	114.69
403.008	124.93
403.217	149.5
403.426	131.07
403.635	106.49
403.844	135.17
404.053	178.17
404.262	194.56
404.471	157.69
404.68	120.83
404.888	139.26
405.097	38.91
405.306	186.37
405.515	202.75
405.724	165.89
405.933	206.84
406.142	178.17
406.35	256
406.559	202.75
406.768	260.09
406.977	210.94
407.185	253.95
407.394	227.32
407.603	215.04
407.812	229.37
408.02	264.19
408.229	288.76
408.438	215.04
408.646	237.56
408.855	272.38
409.064	262.14
409.272	227.32
409.481	344.06
409.69	276.48
409.898	245.76
410.107	313.34
410.315	348.15
410.524	358.39
410.733	479.22
410.941	313.34
411.15	354.3
411.358	409.59
411.567	335.87
411.775	403.45
411.984	481.27
412.192	507.9
412.401	456.7
412.609	483.32
412.818	505.85
413.026	516.09
413.234	559.1
413.443	548.86
413.651	708.6
413.86	604.15
414.068	655.35
414.276	702.45
414.485	677.88
414.693	677.88
414.901	753.65
415.11	731.12
415.318	718.84
415.526	794.61
415.734	940.02
415.943	829.43
416.151	890.87
416.359	899.06
416.567	948.21
416.776	946.16
416.984	1046.51
417.192	1038.32
417.4	1095.66
417.608	1005.55
417.817	1038.32
418.025	1140.72
418.233	1327.08
418.441	1216.49
418.649	1259.5
418.857	1343.47
419.065	1439.72
419.273	1251.31
419.481	1429.48
419.689	1433.58
419.897	1621.99
420.105	1597.42
420.313	1679.33
420.521	1728.49
420.729	1728.49
420.937	1673.19
421.145	1906.66
421.353	1974.24
421.561	1955.81
421.769	2090.98
421.977	2222.05
422.185	2164.7
422.393	2246.62
422.601	2357.21
422.809	2430.94
423.017	2473.95
423.224	2549.72
423.432	2521.05
423.64	2635.74
423.848	2904.02
424.056	2711.51
424.263	2959.31
424.471	3096.53
424.679	3082.19
424.887	3178.45
425.094	3352.52
425.302	3258.32
425.51	3373
425.718	3616.71
425.925	3434.44
426.133	3751.88
426.341	3889.09
426.548	4136.9
426.756	4081.6
426.964	4257.73
427.171	4470.72
427.379	4505.53
427.586	4509.63
427.794	4642.75
428.001	4947.89
428.209	5226.42
428.417	5117.87
428.624	5214.13
428.832	5504.94
429.039	5287.86
429.247	5420.97
429.454	5705.64
429.662	6457.25
429.869	5728.17
430.076	6199.2
430.284	6059.94
430.491	6348.7
430.699	6733.72
430.906	6680.47
431.114	6836.12
431.321	6963.09
431.528	7282.58
431.736	7557
431.943	7950.21
432.15	7647.12
432.358	8167.3
432.565	8269.7
432.772	8173.44
432.979	8658.81
433.187	8853.37
433.394	8855.42
433.601	9549.68
433.808	9447.28
434.016	9179
434.223	9641.84
434.43	10458.98
434.637	9981.8
434.844	10962.78
435.052	11044.7
435.259	10919.77
435.466	10919.77
435.673	11020.12
435.88	11689.81
436.087	12111.69
436.294	12177.22
436.501	11847.5
436.708	12300.1
436.915	12808
437.122	13098.81
437.329	12851
437.537	13641.52
437.743	13696.81
437.95	13561.65
438.157	14493.47
438.364	14739.23
438.571	14747.42
438.778	15003.42
438.985	16207.62
439.192	15546.13
439.399	16297.74
439.606	15697.68
439.813	16727.81
440.02	17749.75
440.227	17059.58
440.433	17084.16
440.64	17825.52
440.847	17848.05
441.054	18185.96
441.261	19316.44
441.467	18910.94
441.674	19619.54
441.881	19994.32
442.088	19994.32
442.294	19783.38
442.501	20397.77
442.708	20723.4
442.914	21657.27
443.121	22609.58
443.328	21806.77
443.534	23406.23
443.741	22726.31
443.948	22392.49
444.154	24260.24
444.361	23834.26
444.568	24428.17
444.774	23871.12
444.981	24247.95
445.187	25347.71
445.394	25972.34
445.6	26017.4
445.807	28282.45
446.013	27250.27
446.22	27436.64
446.426	28685.9
446.633	28864.07
446.839	29677.12
447.046	28606.03
447.252	30250.55
447.459	30170.68
447.665	30197.3
447.871	31114.79
448.078	32771.6
448.284	31475.23
448.491	32405.01
448.697	33379.84
448.903	34072.06
449.11	34098.68
449.316	33701.37
449.522	34598.38
449.728	34989.55
449.935	35335.65
450.141	35716.57
450.347	36453.84
450.553	34995.69
450.76	35829.21
450.966	36847.05
451.172	36296.15
451.378	37660.1
451.584	36695.5
451.791	37311.94
451.997	37395.91
452.203	38284.73
452.409	38303.16
452.615	37799.36
452.821	36693.46
453.027	36195.8
453.233	38059.45
453.44	36687.31
453.646	37318.09
453.852	37066.19
454.058	38118.84
454.264	36873.68
454.47	37780.93
454.676	36595.15
454.882	38026.68
455.088	35022.31
455.294	35245.54
455.5	35937.76
455.705	36111.83
455.911	34788.85
456.117	34287.09
456.323	33641.98
456.529	32013.85
456.735	33650.17
456.941	32448.02
457.147	31897.11
457.352	31241.76
457.558	30942.76
457.764	30963.24
457.97	30553.65
458.176	29851.19
458.381	29744.7
458.587	28530.25
458.793	28067.41
458.999	26883.69
459.204	28724.81
459.41	28026.45
459.616	26433.13
459.821	26156.66
460.027	26095.22
460.233	25620.09
460.438	24426.12
460.644	24491.66
460.85	23703.19
461.055	23244.45
461.261	23240.35
461.466	21409.47
461.672	20784.83
461.878	22529.7
462.083	20774.6
462.289	20532.93
462.494	20229.84
462.7	19422.94
462.905	18929.38
463.111	19650.26
463.316	19451.61
463.522	19009.25
463.727	19267.29
463.932	19046.11
464.138	18763.49
464.343	19103.45
464.549	18480.87
464.754	18958.05
464.959	18847.46
465.165	18753.25
465.37	18114.28
465.575	17360.63
465.781	18126.57
465.986	18169.58
466.191	17479.41
466.397	17354.49
466.602	16252.68
466.807	17010.43
467.012	17135.35
467.218	17047.29
