Data from USB4F104151__291__14-46-28-573.txt Node

Date: Thu Mar 13 14:46:28 EDT 2025
User: louis
Spectrometer: USB4F10415
Trigger mode: 4
Integration Time (sec): 2.000000E-2
Scans to average: 1
Electric dark correction enabled: true
Nonlinearity correction enabled: false
Boxcar width: 0
XAxis mode: Wavelengths
Number of Pixels in Spectrum: 3648
>>>>>Begin Spectral Data<<<<<
178.204	-129.36
178.424	-129.36
178.644	-129.36
178.864	-67.92
179.084	-155.99
179.304	-33.11
179.524	-29.01
179.744	-33.11
179.964	32.43
180.184	5.8
180.404	-16.73
180.624	30.38
180.844	65.19
181.064	-26.96
181.283	30.38
181.503	-26.96
181.723	1.71
181.943	-22.87
182.163	87.72
182.383	11.95
182.602	30.38
182.822	-20.82
183.042	54.95
183.262	-41.3
183.482	-59.73
183.701	36.52
183.921	-29.01
184.141	28.33
184.361	-84.31
184.58	50.86
184.8	-4.44
185.02	-72.02
185.239	44.71
185.459	22.19
185.679	42.67
185.898	57
186.118	59.05
186.338	79.53
186.557	22.19
186.777	-10.58
186.997	-20.82
187.216	18.09
187.436	128.68
187.655	22.19
187.875	120.49
188.095	7.85
188.314	95.91
188.534	67.24
188.753	46.76
188.973	38.57
189.192	114.34
189.412	-51.54
189.631	63.15
189.851	95.91
190.07	18.09
190.29	-18.77
190.509	26.28
190.729	-67.92
190.948	34.47
191.168	57
191.387	77.48
191.607	34.47
191.826	-2.39
192.045	22.19
192.265	59.05
192.484	24.23
192.704	-0.34
192.923	-20.82
193.142	71.34
193.362	-51.54
193.581	48.81
193.8	89.77
194.02	5.8
194.239	87.72
194.458	57
194.678	18.09
194.897	63.15
195.116	5.8
195.335	30.38
195.555	13.99
195.774	-51.54
195.993	26.28
196.212	26.28
196.432	5.8
196.651	18.09
196.87	-53.59
197.089	26.28
197.308	-35.16
197.528	-16.73
197.747	34.47
197.966	54.95
198.185	5.8
198.404	65.19
198.623	34.47
198.842	97.96
199.062	30.38
199.281	7.85
199.5	24.23
199.719	48.81
199.938	22.19
200.157	59.05
200.376	26.28
200.595	42.67
200.814	-35.16
201.033	22.19
201.252	63.15
201.471	22.19
201.69	-0.34
201.909	50.86
202.128	61.1
202.347	36.52
202.566	-10.58
202.785	-12.63
203.004	-35.16
203.223	120.49
203.442	-39.25
203.661	-12.63
203.879	16.04
204.098	26.28
204.317	-24.92
204.536	79.53
204.755	-31.06
204.974	46.76
205.193	-2.39
205.411	34.47
205.63	63.15
205.849	108.2
206.068	-26.96
206.287	-2.39
206.505	134.82
206.724	-24.92
206.943	-18.77
207.162	5.8
207.381	26.28
207.599	24.23
207.818	32.43
208.037	30.38
208.255	-20.82
208.474	-10.58
208.693	-10.58
208.911	79.53
209.13	65.19
209.349	-8.53
209.567	-18.77
209.786	71.34
210.005	46.76
210.223	13.99
210.442	-33.11
210.661	7.85
210.879	13.99
211.098	54.95
211.316	57
211.535	48.81
211.753	-10.58
211.972	71.34
212.191	-10.58
212.409	-2.39
212.628	22.19
212.846	9.9
213.065	71.34
213.283	26.28
213.502	-49.49
213.72	24.23
213.938	13.99
214.157	46.76
214.375	13.99
214.594	9.9
214.812	63.15
215.031	59.05
215.249	65.19
215.467	75.43
215.686	32.43
215.904	42.67
216.122	50.86
216.341	-16.73
216.559	65.19
216.778	32.43
216.996	26.28
217.214	7.85
217.432	-45.4
217.651	-18.77
217.869	13.99
218.087	-43.35
218.306	24.23
218.524	20.14
218.742	-35.16
218.96	30.38
219.179	-14.68
219.397	46.76
219.615	83.63
219.833	32.43
220.051	-16.73
220.27	89.77
220.488	38.57
220.706	24.23
220.924	-51.54
221.142	-16.73
221.36	32.43
221.578	40.62
221.796	16.04
222.015	22.19
222.233	97.96
222.451	87.72
222.669	16.04
222.887	22.19
223.105	54.95
223.323	30.38
223.541	57
223.759	-18.77
223.977	16.04
224.195	57
224.413	38.57
224.631	30.38
224.849	71.34
225.067	46.76
225.285	73.39
225.503	59.05
225.721	-22.87
225.939	5.8
226.157	9.9
226.375	89.77
226.592	24.23
226.81	79.53
227.028	-55.64
227.246	71.34
227.464	34.47
227.682	54.95
227.9	24.23
228.117	34.47
228.335	1.71
228.553	13.99
228.771	97.96
228.989	24.23
229.206	40.62
229.424	-47.44
229.642	5.8
229.86	1.71
230.077	126.63
230.295	-29.01
230.513	69.29
230.731	42.67
230.948	87.72
231.166	46.76
231.384	-6.49
231.601	-4.44
231.819	34.47
232.037	9.9
232.254	-65.88
232.472	28.33
232.689	32.43
232.907	-10.58
233.125	79.53
233.342	50.86
233.56	-2.39
233.777	73.39
233.995	-43.35
234.213	38.57
234.43	22.19
234.648	40.62
234.865	22.19
235.083	71.34
235.3	59.05
235.518	89.77
235.735	89.77
235.953	100.01
236.17	-10.58
236.388	44.71
236.605	95.91
236.822	81.58
237.04	32.43
237.257	11.95
237.475	16.04
237.692	-31.06
237.909	-2.39
238.127	34.47
238.344	-63.83
238.562	48.81
238.779	-61.78
238.996	54.95
239.214	22.19
239.431	30.38
239.648	5.8
239.865	22.19
240.083	30.38
240.3	34.47
240.517	-8.53
240.735	-0.34
240.952	42.67
241.169	87.72
241.386	-2.39
241.603	38.57
241.821	46.76
242.038	50.86
242.255	-6.49
242.472	-0.34
242.689	120.49
242.907	-31.06
243.124	-12.63
243.341	48.81
243.558	34.47
243.775	30.38
243.992	5.8
244.209	-41.3
244.426	75.43
244.643	91.82
244.86	-67.92
245.078	-22.87
245.295	-10.58
245.512	106.15
245.729	18.09
245.946	-18.77
246.163	-2.39
246.38	24.23
246.597	48.81
246.814	54.95
247.031	-51.54
247.248	-0.34
247.464	16.04
247.681	7.85
247.898	42.67
248.115	63.15
248.332	-49.49
248.549	114.34
248.766	46.76
248.983	54.95
249.2	-18.77
249.417	46.76
249.633	40.62
249.85	9.9
250.067	-2.39
250.284	-10.58
250.501	42.67
250.717	5.8
250.934	32.43
251.151	73.39
251.368	50.86
251.585	63.15
251.801	-2.39
252.018	38.57
252.235	22.19
252.451	40.62
252.668	-22.87
252.885	24.23
253.102	57
253.318	-76.12
253.535	130.73
253.752	46.76
253.968	-16.73
254.185	22.19
254.401	65.19
254.618	24.23
254.835	77.48
255.051	54.95
255.268	59.05
255.484	5.8
255.701	61.1
255.917	30.38
256.134	-0.34
256.351	22.19
256.567	-14.68
256.784	67.24
257	-22.87
257.217	18.09
257.433	67.24
257.65	54.95
257.866	13.99
258.082	-67.92
258.299	-18.77
258.515	85.67
258.732	32.43
258.948	-74.07
259.165	5.8
259.381	48.81
259.597	5.8
259.814	59.05
260.03	-18.77
260.246	-33.11
260.463	-0.34
260.679	34.47
260.895	30.38
261.112	71.34
261.328	48.81
261.544	-63.83
261.761	110.25
261.977	-12.63
262.193	-35.16
262.409	138.92
262.626	50.86
262.842	9.9
263.058	34.47
263.274	5.8
263.49	-35.16
263.707	11.95
263.923	-20.82
264.139	-84.31
264.355	9.9
264.571	46.76
264.787	26.28
265.004	42.67
265.22	-41.3
265.436	5.8
265.652	-10.58
265.868	-14.68
266.084	-14.68
266.3	13.99
266.516	-74.07
266.732	38.57
266.948	18.09
267.164	-24.92
267.38	46.76
267.596	54.95
267.812	30.38
268.028	50.86
268.244	-29.01
268.46	-10.58
268.676	-10.58
268.892	32.43
269.108	50.86
269.324	73.39
269.54	-2.39
269.756	50.86
269.972	-22.87
270.188	46.76
270.403	-35.16
270.619	-10.58
270.835	7.85
271.051	13.99
271.267	-4.44
271.483	26.28
271.698	38.57
271.914	30.38
272.13	100.01
272.346	-6.49
272.562	5.8
272.777	52.91
272.993	48.81
273.209	22.19
273.425	46.76
273.64	-35.16
273.856	40.62
274.072	-0.34
274.287	-29.01
274.503	63.15
274.719	57
274.934	-20.82
275.15	3.75
275.366	67.24
275.581	42.67
275.797	34.47
276.012	95.91
276.228	5.8
276.444	7.85
276.659	11.95
276.875	-49.49
277.09	50.86
277.306	-0.34
277.521	26.28
277.737	-16.73
277.952	16.04
278.168	71.34
278.383	40.62
278.599	38.57
278.814	83.63
279.03	-26.96
279.245	59.05
279.461	50.86
279.676	13.99
279.892	-4.44
280.107	16.04
280.322	-0.34
280.538	46.76
280.753	75.43
280.969	83.63
281.184	-0.34
281.399	77.48
281.615	18.09
281.83	65.19
282.045	3.75
282.26	40.62
282.476	-10.58
282.691	34.47
282.906	48.81
283.122	24.23
283.337	-10.58
283.552	124.58
283.767	11.95
283.983	30.38
284.198	5.8
284.413	128.68
284.628	5.8
284.843	46.76
285.058	-29.01
285.274	-10.58
285.489	-49.49
285.704	116.39
285.919	-2.39
286.134	22.19
286.349	-35.16
286.564	61.1
286.779	50.86
286.995	71.34
287.21	-26.96
287.425	93.87
287.64	-14.68
287.855	28.33
288.07	26.28
288.285	40.62
288.5	38.57
288.715	81.58
288.93	34.47
289.145	11.95
289.36	40.62
289.575	-26.96
289.79	50.86
290.004	-18.77
290.219	112.3
290.434	-0.34
290.649	-22.87
290.864	69.29
291.079	59.05
291.294	22.19
291.509	65.19
291.724	59.05
291.938	9.9
292.153	71.34
292.368	7.85
292.583	46.76
292.798	46.76
293.012	65.19
293.227	20.14
293.442	42.67
293.657	81.58
293.871	38.57
294.086	30.38
294.301	-10.58
294.516	57
294.73	-45.4
294.945	42.67
295.16	7.85
295.374	40.62
295.589	85.67
295.804	50.86
296.018	-0.34
296.233	30.38
296.447	75.43
296.662	-6.49
296.877	-8.53
297.091	-67.92
297.306	30.38
297.52	-6.49
297.735	38.57
297.949	13.99
298.164	28.33
298.378	38.57
298.593	-43.35
298.807	-33.11
299.022	124.58
299.236	5.8
299.451	63.15
299.665	9.9
299.88	46.76
300.094	22.19
300.309	-35.16
300.523	65.19
300.737	-0.34
300.952	59.05
301.166	63.15
301.381	32.43
301.595	-74.07
301.809	-26.96
302.024	30.38
302.238	42.67
302.452	91.82
302.667	-6.49
302.881	38.57
303.095	97.96
303.309	16.04
303.524	5.8
303.738	1.71
303.952	5.8
304.166	57
304.381	-4.44
304.595	48.81
304.809	-39.25
305.023	-4.44
305.237	-24.92
305.452	16.04
305.666	38.57
305.88	38.57
306.094	67.24
306.308	42.67
306.522	36.52
306.736	73.39
306.95	26.28
307.164	-49.49
307.379	-47.44
307.593	16.04
307.807	54.95
308.021	13.99
308.235	71.34
308.449	-35.16
308.663	-20.82
308.877	102.06
309.091	42.67
309.305	93.87
309.519	-10.58
309.733	-18.77
309.947	-4.44
310.161	18.09
310.374	46.76
310.588	65.19
310.802	-14.68
311.016	40.62
311.23	9.9
311.444	18.09
311.658	54.95
311.872	36.52
312.085	3.75
312.299	59.05
312.513	46.76
312.727	22.19
312.941	-43.35
313.154	24.23
313.368	13.99
313.582	-0.34
313.796	46.76
314.009	46.76
314.223	52.91
314.437	5.8
314.651	22.19
314.864	-35.16
315.078	-0.34
315.292	-29.01
315.505	34.47
315.719	65.19
315.933	61.1
316.146	9.9
316.36	-39.25
316.573	5.8
316.787	93.87
317.001	-24.92
317.214	-14.68
317.428	48.81
317.641	-59.73
317.855	69.29
318.068	28.33
318.282	95.91
318.495	42.67
318.709	22.19
318.922	-33.11
319.136	112.3
319.349	75.43
319.563	42.67
319.776	22.19
319.99	-10.58
320.203	67.24
320.417	73.39
320.63	16.04
320.843	30.38
321.057	-22.87
321.27	-16.73
321.483	30.38
321.697	71.34
321.91	-18.77
322.124	54.95
322.337	91.82
322.55	-14.68
322.763	24.23
322.977	89.77
323.19	-18.77
323.403	83.63
323.617	59.05
323.83	18.09
324.043	46.76
324.256	38.57
324.469	-33.11
324.683	5.8
324.896	46.76
325.109	-39.25
325.322	9.9
325.535	89.77
325.748	30.38
325.962	32.43
326.175	-4.44
326.388	1.71
326.601	52.91
326.814	91.82
327.027	26.28
327.24	81.58
327.453	-51.54
327.666	-16.73
327.879	59.05
328.092	132.78
328.305	-2.39
328.518	30.38
328.731	28.33
328.944	65.19
329.157	24.23
329.37	26.28
329.583	9.9
329.796	44.71
330.009	22.19
330.222	120.49
330.435	63.15
330.648	71.34
330.861	63.15
331.073	57
331.286	73.39
331.499	-10.58
331.712	-84.31
331.925	-6.49
332.138	1.71
332.35	122.54
332.563	1.71
332.776	63.15
332.989	-59.73
333.202	7.85
333.414	38.57
333.627	-67.92
333.84	-6.49
334.053	22.19
334.265	95.91
334.478	5.8
334.691	16.04
334.903	32.43
335.116	1.71
335.329	-12.63
335.541	65.19
335.754	30.38
335.966	26.28
336.179	50.86
336.392	79.53
336.604	7.85
336.817	5.8
337.029	-16.73
337.242	-2.39
337.454	-57.68
337.667	22.19
337.88	73.39
338.092	59.05
338.305	22.19
338.517	46.76
338.729	30.38
338.942	50.86
339.154	79.53
339.367	48.81
339.579	89.77
339.792	16.04
340.004	-8.53
340.217	46.76
340.429	42.67
340.641	-2.39
340.854	26.28
341.066	48.81
341.278	63.15
341.491	32.43
341.703	59.05
341.915	28.33
342.128	16.04
342.34	34.47
342.552	-2.39
342.764	-43.35
342.977	20.14
343.189	59.05
343.401	42.67
343.613	3.75
343.826	36.52
344.038	44.71
344.25	38.57
344.462	30.38
344.674	85.67
344.886	-14.68
345.099	7.85
345.311	16.04
345.523	1.71
345.735	16.04
345.947	42.67
346.159	38.57
346.371	54.95
346.583	54.95
346.795	118.44
347.007	-31.06
347.219	79.53
347.431	34.47
347.643	108.2
347.855	-29.01
348.067	116.39
348.279	22.19
348.491	-16.73
348.703	38.57
348.915	57
349.127	26.28
349.339	71.34
349.551	-80.21
349.763	40.62
349.975	46.76
350.187	18.09
350.399	48.81
350.61	63.15
350.822	24.23
351.034	24.23
351.246	81.58
351.458	48.81
351.669	42.67
351.881	-49.49
352.093	24.23
352.305	22.19
352.517	71.34
352.728	13.99
352.94	-31.06
353.152	46.76
353.363	54.95
353.575	11.95
353.787	-2.39
353.999	57
354.21	118.44
354.422	-8.53
354.633	22.19
354.845	16.04
355.057	-59.73
355.268	40.62
355.48	38.57
355.692	24.23
355.903	38.57
356.115	46.76
356.326	13.99
356.538	83.63
356.749	85.67
356.961	7.85
357.172	13.99
357.384	34.47
357.595	130.73
357.807	48.81
358.018	11.95
358.23	63.15
358.441	-16.73
358.653	22.19
358.864	57
359.075	-43.35
359.287	7.85
359.498	79.53
359.709	42.67
359.921	18.09
360.132	100.01
360.344	50.86
360.555	28.33
360.766	85.67
360.977	11.95
361.189	40.62
361.4	65.19
361.611	54.95
361.823	63.15
362.034	5.8
362.245	-82.26
362.456	61.1
362.667	1.71
362.879	-10.58
363.09	11.95
363.301	30.38
363.512	46.76
363.723	-51.54
363.935	13.99
364.146	22.19
364.357	-35.16
364.568	63.15
364.779	-76.12
364.99	81.58
365.201	-82.26
365.412	67.24
365.623	24.23
365.834	-2.39
366.045	-67.92
366.256	18.09
366.467	-0.34
366.678	-16.73
366.889	67.24
367.1	24.23
367.311	16.04
367.522	-6.49
367.733	-45.4
367.944	46.76
368.155	-10.58
368.366	79.53
368.577	50.86
368.788	-18.77
368.999	-22.87
369.209	-57.68
369.42	118.44
369.631	69.29
369.842	30.38
370.053	30.38
370.264	57
370.474	26.28
370.685	112.3
370.896	5.8
371.107	40.62
371.317	52.91
371.528	-22.87
371.739	54.95
371.95	57
372.16	73.39
372.371	11.95
372.582	16.04
372.792	48.81
373.003	-33.11
373.214	67.24
373.424	75.43
373.635	-14.68
373.846	79.53
374.056	-80.21
374.267	38.57
374.477	-43.35
374.688	81.58
374.898	48.81
375.109	18.09
375.319	-18.77
375.53	65.19
375.74	-18.77
375.951	-8.53
376.161	65.19
376.372	140.97
376.582	81.58
376.793	-10.58
377.003	50.86
377.214	-33.11
377.424	22.19
377.635	26.28
377.845	-41.3
378.055	87.72
378.266	36.52
378.476	38.57
378.686	63.15
378.897	54.95
379.107	95.91
379.317	52.91
379.528	-8.53
379.738	57
379.948	40.62
380.158	38.57
380.369	-10.58
380.579	46.76
380.789	75.43
380.999	42.67
381.21	22.19
381.42	118.44
381.63	42.67
381.84	22.19
382.05	42.67
382.261	22.19
382.471	48.81
382.681	5.8
382.891	16.04
383.101	7.85
383.311	-6.49
383.521	26.28
383.731	42.67
383.941	30.38
384.151	34.47
384.361	44.71
384.571	108.2
384.781	81.58
384.991	116.39
385.201	48.81
385.411	32.43
385.621	30.38
385.831	7.85
386.041	65.19
386.251	7.85
386.461	79.53
386.671	32.43
386.881	38.57
387.091	30.38
387.301	40.62
387.511	40.62
387.72	13.99
387.93	65.19
388.14	-45.4
388.35	-6.49
388.56	91.82
388.769	73.39
388.979	11.95
389.189	22.19
389.399	50.86
389.609	9.9
389.818	42.67
390.028	20.14
390.238	89.77
390.447	71.34
390.657	34.47
390.867	-18.77
391.076	-29.01
391.286	79.53
391.496	28.33
391.705	13.99
391.915	16.04
392.125	57
392.334	24.23
392.544	36.52
392.753	87.72
392.963	11.95
393.172	32.43
393.382	7.85
393.591	40.62
393.801	63.15
394.01	48.81
394.22	81.58
394.429	54.95
394.639	34.47
394.848	52.91
395.058	93.87
395.267	87.72
395.477	97.96
395.686	-0.34
395.895	48.81
396.105	130.73
396.314	79.53
396.524	36.52
396.733	-41.3
396.942	104.11
397.152	-6.49
397.361	104.11
397.57	38.57
397.78	22.19
397.989	59.05
398.198	143.02
398.407	24.23
398.617	97.96
398.826	153.26
399.035	34.47
399.244	46.76
399.453	1.71
399.663	122.54
399.872	1.71
400.081	46.76
400.29	114.34
400.499	24.23
400.708	108.2
400.917	13.99
401.127	73.39
401.336	9.9
401.545	161.45
401.754	81.58
401.963	87.72
402.172	48.81
402.381	65.19
402.59	65.19
402.799	112.3
403.008	81.58
403.217	52.91
403.426	-14.68
403.635	63.15
403.844	42.67
404.053	112.3
404.262	116.39
404.471	50.86
404.68	110.25
404.888	67.24
405.097	9.9
405.306	87.72
405.515	79.53
405.724	79.53
405.933	71.34
406.142	140.97
406.35	87.72
406.559	59.05
406.768	77.48
406.977	181.93
407.185	95.91
407.394	124.58
407.603	77.48
407.812	183.98
408.02	71.34
408.229	73.39
408.438	85.67
408.646	120.49
408.855	128.68
409.064	120.49
409.272	169.64
409.481	159.4
409.69	122.54
409.898	130.73
410.107	222.89
410.315	186.02
410.524	120.49
410.733	245.41
410.941	212.65
411.15	122.54
411.358	179.88
411.567	153.26
411.775	276.13
411.984	149.16
412.192	97.96
412.401	302.76
412.609	235.18
412.818	300.71
413.026	190.12
413.234	243.37
413.443	296.61
413.651	257.7
413.86	319.14
414.068	325.29
414.276	407.2
414.485	374.44
414.693	267.94
414.901	331.43
415.11	421.54
415.318	325.29
415.526	431.78
415.734	419.49
415.943	409.25
416.151	364.2
416.359	403.11
416.567	390.82
416.776	493.22
416.984	452.26
417.192	546.47
417.4	421.54
417.608	480.93
417.817	482.98
418.025	513.7
418.233	607.91
418.441	597.67
418.649	591.52
418.857	566.95
419.065	612
419.273	595.62
419.481	636.58
419.689	677.54
419.897	736.93
420.105	736.93
420.313	759.46
420.521	759.46
420.729	779.93
420.937	857.76
421.145	849.57
421.353	933.53
421.561	964.25
421.769	970.4
421.977	964.25
422.185	1023.64
422.393	1068.7
422.601	1066.65
422.809	1066.65
423.017	1187.48
423.224	1121.95
423.432	1320.6
423.64	1199.77
423.848	1394.33
424.056	1265.3
424.263	1449.62
424.471	1390.23
424.679	1496.72
424.887	1580.69
425.094	1488.53
425.302	1506.96
425.51	1541.78
425.718	1662.61
425.925	1816.21
426.133	1758.86
426.341	1822.35
426.548	1916.56
426.756	1924.75
426.964	1994.38
427.171	2053.77
427.379	2078.35
427.586	2102.92
427.794	2258.57
428.001	2373.25
428.209	2391.69
428.417	2399.88
428.624	2586.24
428.832	2524.8
429.039	2483.84
429.247	2446.98
429.454	2688.64
429.662	2918.01
429.869	2702.98
430.076	2965.12
430.284	2879.1
430.491	2885.25
430.699	3157.63
430.906	3163.77
431.114	3118.72
431.321	3366.52
431.528	3397.24
431.736	3511.93
431.943	3765.87
432.15	3597.94
432.358	3831.41
432.565	3913.33
432.772	3915.37
432.979	4120.17
433.187	4044.4
433.394	4079.21
433.601	4453.99
433.808	4421.22
434.016	4406.89
434.223	4695.65
434.43	4839.01
434.637	4652.64
434.844	5154.4
435.052	5213.79
435.259	5072.48
435.466	5264.99
435.673	5277.27
435.88	5363.29
436.087	5819.99
436.294	5650
436.501	5690.96
436.708	5668.44
436.915	5895.76
437.122	6153.8
437.329	6133.33
437.537	6248.01
437.743	6487.62
437.95	6504.01
438.157	6706.76
438.364	6880.83
438.571	6831.68
438.778	6886.98
438.985	7525.94
439.192	7403.07
439.399	7552.57
439.606	7468.6
439.813	7732.79
440.02	8416.81
440.227	8048.18
440.433	8166.96
440.64	8336.94
440.847	8390.19
441.054	8666.66
441.261	9156.13
441.467	8953.38
441.674	9117.22
441.881	9270.81
442.088	9317.92
442.294	9426.46
442.501	9645.59
442.708	9608.73
442.914	10108.43
443.121	10675.72
443.328	10249.74
443.534	11005.44
443.741	10698.25
443.948	10317.33
444.154	11369.98
444.361	11197.95
444.568	11228.67
444.774	11122.18
444.981	11335.17
445.187	11714.04
445.394	12105.2
445.6	11728.38
445.807	13295.07
446.013	12719.59
446.22	12912.1
446.426	13178.34
446.633	13452.77
446.839	14171.6
447.046	13417.95
447.252	14065.11
447.459	14276.05
447.665	14124.5
447.871	14988.74
448.078	15310.27
448.284	14810.57
448.491	15023.56
448.697	15693.24
448.903	15922.62
449.11	15893.94
449.316	15605.18
449.522	16164.28
449.728	16346.55
449.935	16588.21
450.141	16590.25
450.347	16764.33
450.553	16176.56
450.76	16661.93
450.966	17159.59
451.172	16950.7
451.378	17345.95
451.584	16979.37
451.791	17696.16
451.997	17466.78
452.203	17857.95
452.409	18011.54
452.615	17950.1
452.821	17063.33
453.027	16840.11
453.233	17849.75
453.44	17116.58
453.646	17253.8
453.852	17534.37
454.058	17739.16
454.264	17098.15
454.47	17356.19
454.676	17223.08
454.882	17845.66
455.088	16143.8
455.294	16545.2
455.5	16700.84
455.705	16989.61
455.911	16246.19
456.117	15885.75
456.323	16000.44
456.529	14841.29
456.735	15533.5
456.941	15048.13
457.147	14826.95
457.352	14540.24
457.558	14325.2
457.764	14353.87
457.97	13870.55
458.176	13899.22
458.381	13886.93
458.587	13207.01
458.793	13123.04
458.999	12574.19
459.204	13336.03
459.41	12973.54
459.616	12076.53
459.821	12129.78
460.027	11924.98
460.233	11992.56
460.438	11417.08
460.644	11548.15
460.85	10825.22
461.055	10698.25
461.261	10489.35
461.466	9823.76
461.672	9819.67
461.878	10237.45
462.083	9594.39
462.289	9506.33
462.494	9354.78
462.7	8986.15
462.905	8877.6
463.111	9119.26
463.316	9201.18
463.522	8877.6
463.727	8984.1
463.932	8953.38
464.138	8820.26
464.343	8973.86
464.549	8420.91
464.754	8898.08
464.959	8650.28
465.165	8594.98
465.37	8484.39
465.575	8216.11
465.781	8560.17
465.986	8425
466.191	8132.14
466.397	8042.03
466.602	7634.49
466.807	7956.02
467.012	7747.12
467.218	7767.6
467.423	7777.84
467.628	7642.68
467.833	8189.49
468.038	7853.62
468.244	7605.81
468.449	7755.32
468.654	7517.75
468.859	7609.91
469.064	7620.15
