Data from USB4F104151__186__14-45-10-332.txt Node

Date: Thu Mar 13 14:45:10 EDT 2025
User: louis
Spectrometer: USB4F10415
Trigger mode: 4
Integration Time (sec): 2.000000E-2
Scans to average: 1
Electric dark correction enabled: true
Nonlinearity correction enabled: false
Boxcar width: 0
XAxis mode: Wavelengths
Number of Pixels in Spectrum: 3648
>>>>>Begin Spectral Data<<<<<
178.204	-84.65
178.424	-84.65
178.644	-84.65
178.864	-152.23
179.084	-86.7
179.304	23.89
179.524	-68.27
179.744	-21.16
179.964	-37.55
180.184	32.08
180.404	-17.07
180.624	44.37
180.844	44.37
181.064	-58.03
181.283	81.24
181.503	-10.92
181.723	-12.97
181.943	-55.98
182.163	36.18
182.383	40.28
182.602	30.04
182.822	-10.92
183.042	83.28
183.262	-8.87
183.482	62.8
183.701	-4.78
183.921	71
184.141	-2.73
184.361	44.37
184.58	-8.87
184.8	52.56
185.02	52.56
185.239	32.08
185.459	17.75
185.679	36.18
185.898	-53.93
186.118	40.28
186.338	-0.68
186.557	42.32
186.777	-19.11
186.997	44.37
187.216	-12.97
187.436	77.14
187.655	15.7
187.875	-15.02
188.095	-43.69
188.314	44.37
188.534	40.28
188.753	40.28
188.973	25.94
189.192	11.61
189.412	36.18
189.631	-0.68
189.851	32.08
190.07	32.08
190.29	19.8
190.509	-53.93
190.729	23.89
190.948	25.94
191.168	118.1
191.387	-23.21
191.607	44.37
191.826	30.04
192.045	40.28
192.265	5.46
192.484	3.41
192.704	15.7
192.923	-19.11
193.142	66.9
193.362	-4.78
193.581	71
193.8	1.37
194.02	89.43
194.239	17.75
194.458	62.8
194.678	-8.87
194.897	60.76
195.116	15.7
195.335	48.47
195.555	-17.07
195.774	11.61
195.993	60.76
196.212	-19.11
196.432	-4.78
196.651	3.41
196.87	36.18
197.089	27.99
197.308	27.99
197.528	44.37
197.747	34.13
197.966	-53.93
198.185	71
198.404	52.56
198.623	81.24
198.842	13.65
199.062	23.89
199.281	40.28
199.5	21.84
199.719	54.61
199.938	68.95
200.157	-12.97
200.376	77.14
200.595	3.41
200.814	48.47
201.033	27.99
201.252	32.08
201.471	56.66
201.69	25.94
201.909	-2.73
202.128	-0.68
202.347	32.08
202.566	-4.78
202.785	54.61
203.004	-51.88
203.223	68.95
203.442	-10.92
203.661	-103.08
203.879	-25.26
204.098	52.56
204.317	13.65
204.536	79.19
204.755	52.56
204.974	46.42
205.193	-31.4
205.411	62.8
205.63	95.57
205.849	30.04
206.068	27.99
206.287	32.08
206.505	25.94
206.724	5.46
206.943	73.04
207.162	38.23
207.381	30.04
207.599	58.71
207.818	1.37
208.037	3.41
208.255	46.42
208.474	-21.16
208.693	44.37
208.911	60.76
209.13	54.61
209.349	19.8
209.567	71
209.786	-27.31
210.005	60.76
210.223	-29.35
210.442	30.04
210.661	11.61
210.879	56.66
211.098	-2.73
211.316	-68.27
211.535	36.18
211.753	-35.5
211.972	-17.07
212.191	52.56
212.409	-29.35
212.628	15.7
212.846	-23.21
213.065	44.37
213.283	66.9
213.502	-17.07
213.72	-21.16
213.938	-21.16
214.157	83.28
214.375	25.94
214.594	38.23
214.812	68.95
215.031	-39.59
215.249	-0.68
215.467	1.37
215.686	38.23
215.904	56.66
216.122	-86.7
216.341	32.08
216.559	30.04
216.778	73.04
216.996	58.71
217.214	1.37
217.432	5.46
217.651	-4.78
217.869	46.42
218.087	-43.69
218.306	-31.4
218.524	79.19
218.742	-103.08
218.96	126.29
219.179	93.52
219.397	62.8
219.615	73.04
219.833	3.41
220.051	-12.97
220.27	85.33
220.488	13.65
220.706	11.61
220.924	3.41
221.142	23.89
221.36	38.23
221.578	7.51
221.796	27.99
222.015	93.52
222.233	-21.16
222.451	134.48
222.669	-12.97
222.887	60.76
223.105	-12.97
223.323	54.61
223.541	-43.69
223.759	-37.55
223.977	3.41
224.195	3.41
224.413	-8.87
224.631	48.47
224.849	-10.92
225.067	85.33
225.285	-4.78
225.503	32.08
225.721	-0.68
225.939	23.89
226.157	-17.07
226.375	56.66
226.592	3.41
226.81	11.61
227.028	64.85
227.246	79.19
227.464	19.8
227.682	-6.83
227.9	-60.07
228.117	44.37
228.335	40.28
228.553	-33.45
228.771	-0.68
228.989	-41.64
229.206	64.85
229.424	-12.97
229.642	7.51
229.86	-39.59
230.077	89.43
230.295	-0.68
230.513	68.95
230.731	77.14
230.948	15.7
231.166	79.19
231.384	15.7
231.601	38.23
231.819	56.66
232.037	27.99
232.254	7.51
232.472	-0.68
232.689	11.61
232.907	-17.07
233.125	3.41
233.342	32.08
233.56	-37.55
233.777	19.8
233.995	36.18
234.213	50.52
234.43	101.72
234.648	27.99
234.865	30.04
235.083	-27.31
235.3	93.52
235.518	93.52
235.735	77.14
235.953	15.7
236.17	-35.5
236.388	-33.45
236.605	27.99
236.822	62.8
237.04	85.33
237.257	36.18
237.475	-2.73
237.692	27.99
237.909	85.33
238.127	-41.64
238.344	-4.78
238.562	105.81
238.779	3.41
238.996	15.7
239.214	21.84
239.431	68.95
239.648	9.56
239.865	83.28
240.083	68.95
240.3	68.95
240.517	-6.83
240.735	48.47
240.952	11.61
241.169	-41.64
241.386	27.99
241.603	38.23
241.821	-51.88
242.038	36.18
242.255	75.09
242.472	-8.87
242.689	19.8
242.907	38.23
243.124	-33.45
243.341	13.65
243.558	-49.83
243.775	-2.73
243.992	-15.02
244.209	60.76
244.426	77.14
244.643	60.76
244.86	17.75
245.078	27.99
245.295	52.56
245.512	85.33
245.729	-29.35
245.946	21.84
246.163	19.8
246.38	60.76
246.597	-21.16
246.814	71
247.031	-4.78
247.248	32.08
247.464	54.61
247.681	46.42
247.898	56.66
248.115	44.37
248.332	-70.31
248.549	89.43
248.766	56.66
248.983	68.95
249.2	5.46
249.417	36.18
249.633	44.37
249.85	103.76
250.067	-62.12
250.284	60.76
250.501	-0.68
250.717	93.52
250.934	-10.92
251.151	32.08
251.368	73.04
251.585	118.1
251.801	93.52
252.018	5.46
252.235	103.76
252.451	27.99
252.668	-29.35
252.885	68.95
253.102	32.08
253.318	-17.07
253.535	-70.31
253.752	-6.83
253.968	-58.03
254.185	44.37
254.401	42.32
254.618	44.37
254.835	54.61
255.051	52.56
255.268	46.42
255.484	52.56
255.701	-6.83
255.917	-10.92
256.134	-21.16
256.351	44.37
256.567	5.46
256.784	38.23
257	30.04
257.217	44.37
257.433	36.18
257.65	1.37
257.866	68.95
258.082	-17.07
258.299	5.46
258.515	38.23
258.732	48.47
258.948	32.08
259.165	36.18
259.381	38.23
259.597	-45.74
259.814	60.76
260.03	15.7
260.246	-10.92
260.463	-12.97
260.679	42.32
260.895	-2.73
261.112	52.56
261.328	19.8
261.544	-10.92
261.761	62.8
261.977	62.8
262.193	32.08
262.409	105.81
262.626	32.08
262.842	7.51
263.058	11.61
263.274	27.99
263.49	-10.92
263.707	19.8
263.923	-12.97
264.139	71
264.355	21.84
264.571	68.95
264.787	71
265.004	77.14
265.22	40.28
265.436	68.95
265.652	-10.92
265.868	-10.92
266.084	36.18
266.3	36.18
266.516	-35.5
266.732	15.7
266.948	89.43
267.164	-4.78
267.38	52.56
267.596	68.95
267.812	109.91
268.028	7.51
268.244	19.8
268.46	27.99
268.676	19.8
268.892	40.28
269.108	-33.45
269.324	-8.87
269.54	-19.11
269.756	44.37
269.972	9.56
270.188	15.7
270.403	19.8
270.619	44.37
270.835	58.71
271.051	-68.27
271.267	54.61
271.483	56.66
271.698	54.61
271.914	36.18
272.13	101.72
272.346	93.52
272.562	25.94
272.777	71
272.993	19.8
273.209	5.46
273.425	-10.92
273.64	44.37
273.856	52.56
274.072	52.56
274.287	36.18
274.503	44.37
274.719	-0.68
274.934	15.7
275.15	60.76
275.366	71
275.581	7.51
275.797	25.94
276.012	34.13
276.228	3.41
276.444	58.71
276.659	54.61
276.875	-33.45
277.09	7.51
277.306	73.04
277.521	27.99
277.737	13.65
277.952	54.61
278.168	38.23
278.383	60.76
278.599	21.84
278.814	93.52
279.03	15.7
279.245	66.9
279.461	34.13
279.676	44.37
279.892	5.46
280.107	52.56
280.322	11.61
280.538	38.23
280.753	15.7
280.969	40.28
281.184	81.24
281.399	116.05
281.615	32.08
281.83	60.76
282.045	-0.68
282.26	19.8
282.476	7.51
282.691	120.15
282.906	21.84
283.122	-10.92
283.337	40.28
283.552	48.47
283.767	-49.83
283.983	73.04
284.198	40.28
284.413	27.99
284.628	-62.12
284.843	52.56
285.058	11.61
285.274	23.89
285.489	30.04
285.704	52.56
285.919	-12.97
286.134	-37.55
286.349	-0.68
286.564	13.65
286.779	34.13
286.995	-21.16
287.21	62.8
287.425	-2.73
287.64	-21.16
287.855	68.95
288.07	40.28
288.285	85.33
288.5	79.19
288.715	109.91
288.93	9.56
289.145	-21.16
289.36	3.41
289.575	27.99
289.79	85.33
290.004	38.23
290.219	62.8
290.434	5.46
290.649	27.99
290.864	36.18
291.079	44.37
291.294	48.47
291.509	38.23
291.724	32.08
291.938	-2.73
292.153	50.52
292.368	13.65
292.583	93.52
292.798	5.46
293.012	-4.78
293.227	44.37
293.442	27.99
293.657	93.52
293.871	85.33
294.086	118.1
294.301	27.99
294.516	60.76
294.73	52.56
294.945	-37.55
295.16	-21.16
295.374	60.76
295.589	99.67
295.804	9.56
296.018	81.24
296.233	-6.83
296.447	15.7
296.662	-39.59
296.877	75.09
297.091	64.85
297.306	52.56
297.52	99.67
297.735	146.77
297.949	91.48
298.164	-23.21
298.378	-31.4
298.593	11.61
298.807	-4.78
299.022	46.42
299.236	134.48
299.451	-0.68
299.665	-0.68
299.88	19.8
300.094	46.42
300.309	-12.97
300.523	126.29
300.737	11.61
300.952	-37.55
301.166	71
301.381	17.75
301.595	25.94
301.809	-21.16
302.024	-6.83
302.238	64.85
302.452	62.8
302.667	32.08
302.881	44.37
303.095	-37.55
303.309	-35.5
303.524	1.37
303.738	-29.35
303.952	5.46
304.166	1.37
304.381	19.8
304.595	77.14
304.809	-37.55
305.023	40.28
305.237	52.56
305.452	40.28
305.666	-45.74
305.88	44.37
306.094	40.28
306.308	62.8
306.522	56.66
306.736	27.99
306.95	-29.35
307.164	-31.4
307.379	19.8
307.593	103.76
307.807	89.43
308.021	44.37
308.235	-29.35
308.449	-10.92
308.663	-6.83
308.877	64.85
309.091	46.42
309.305	77.14
309.519	-51.88
309.733	11.61
309.947	-8.87
310.161	44.37
310.374	5.46
310.588	66.9
310.802	7.51
311.016	-25.26
311.23	66.9
311.444	-45.74
311.658	89.43
311.872	54.61
312.085	132.44
312.299	81.24
312.513	68.95
312.727	60.76
312.941	44.37
313.154	85.33
313.368	3.41
313.582	7.51
313.796	64.85
314.009	11.61
314.223	105.81
314.437	44.37
314.651	11.61
314.864	44.37
315.078	-21.16
315.292	-21.16
315.505	-0.68
315.719	64.85
315.933	-8.87
316.146	-19.11
316.36	-45.74
316.573	85.33
316.787	54.61
317.001	44.37
317.214	5.46
317.428	93.52
317.641	64.85
317.855	54.61
318.068	85.33
318.282	27.99
318.495	109.91
318.709	77.14
318.922	40.28
319.136	87.38
319.349	21.84
319.563	-19.11
319.776	38.23
319.99	-19.11
320.203	105.81
320.417	48.47
320.63	-74.41
320.843	32.08
321.057	7.51
321.27	52.56
321.483	126.29
321.697	68.95
321.91	27.99
322.124	52.56
322.337	81.24
322.55	68.95
322.763	52.56
322.977	5.46
323.19	27.99
323.403	36.18
323.617	19.8
323.83	25.94
324.043	-8.87
324.256	122.2
324.469	-27.31
324.683	42.32
324.896	3.41
325.109	7.51
325.322	-27.31
325.535	66.9
325.748	15.7
325.962	30.04
326.175	60.76
326.388	36.18
326.601	-47.79
326.814	46.42
327.027	7.51
327.24	167.25
327.453	-4.78
327.666	15.7
327.879	62.8
328.092	66.9
328.305	27.99
328.518	52.56
328.731	19.8
328.944	11.61
329.157	40.28
329.37	36.18
329.583	-10.92
329.796	46.42
330.009	30.04
330.222	32.08
330.435	-10.92
330.648	73.04
330.861	27.99
331.073	46.42
331.286	15.7
331.499	-29.35
331.712	13.65
331.925	95.57
332.138	79.19
332.35	40.28
332.563	5.46
332.776	19.8
332.989	36.18
333.202	52.56
333.414	-35.5
333.627	50.52
333.84	40.28
334.053	99.67
334.265	30.04
334.478	23.89
334.691	52.56
334.903	105.81
335.116	-21.16
335.329	109.91
335.541	97.62
335.754	3.41
335.966	-0.68
336.179	44.37
336.392	-0.68
336.604	101.72
336.817	-31.4
337.029	101.72
337.242	11.61
337.454	68.95
337.667	-35.5
337.88	48.47
338.092	85.33
338.305	15.7
338.517	-31.4
338.729	15.7
338.942	77.14
339.154	19.8
339.367	32.08
339.579	38.23
339.792	-19.11
340.004	56.66
340.217	56.66
340.429	66.9
340.641	27.99
340.854	-19.11
341.066	46.42
341.278	60.76
341.491	138.58
341.703	81.24
341.915	44.37
342.128	52.56
342.34	54.61
342.552	52.56
342.764	-31.4
342.977	15.7
343.189	68.95
343.401	-29.35
343.613	-19.11
343.826	32.08
344.038	-12.97
344.25	91.48
344.462	5.46
344.674	60.76
344.886	11.61
345.099	60.76
345.311	-29.35
345.523	46.42
345.735	-21.16
345.947	54.61
346.159	25.94
346.371	40.28
346.583	25.94
346.795	73.04
347.007	-37.55
347.219	75.09
347.431	-19.11
347.643	146.77
347.855	-4.78
348.067	7.51
348.279	17.75
348.491	93.52
348.703	44.37
348.915	50.52
349.127	-17.07
349.339	134.48
349.551	23.89
349.763	30.04
349.975	54.61
350.187	23.89
350.399	101.72
350.61	52.56
350.822	36.18
351.034	54.61
351.246	19.8
351.458	27.99
351.669	85.33
351.881	27.99
352.093	62.8
352.305	11.61
352.517	77.14
352.728	79.19
352.94	21.84
353.152	93.52
353.363	-12.97
353.575	93.52
353.787	77.14
353.999	75.09
354.21	89.43
354.422	-27.31
354.633	-19.11
354.845	23.89
355.057	25.94
355.268	-17.07
355.48	58.71
355.692	25.94
355.903	15.7
356.115	19.8
356.326	-76.46
356.538	56.66
356.749	36.18
356.961	38.23
357.172	27.99
357.384	-2.73
357.595	58.71
357.807	50.52
358.018	52.56
358.23	36.18
358.441	109.91
358.653	46.42
358.864	-12.97
359.075	68.95
359.287	42.32
359.498	64.85
359.709	-25.26
359.921	30.04
360.132	38.23
360.344	3.41
360.555	-8.87
360.766	89.43
360.977	40.28
361.189	36.18
361.4	25.94
361.611	-4.78
361.823	52.56
362.034	68.95
362.245	-33.45
362.456	25.94
362.667	71
362.879	68.95
363.09	5.46
363.301	99.67
363.512	101.72
363.723	-12.97
363.935	50.52
364.146	128.34
364.357	-12.97
364.568	34.13
364.779	-0.68
364.99	21.84
365.201	3.41
365.412	64.85
365.623	-68.27
365.834	101.72
366.045	32.08
366.256	75.09
366.467	87.38
366.678	44.37
366.889	52.56
367.1	85.33
367.311	48.47
367.522	48.47
367.733	60.76
367.944	81.24
368.155	1.37
368.366	93.52
368.577	64.85
368.788	103.76
368.999	-41.64
369.209	-35.5
369.42	200.02
369.631	71
369.842	50.52
370.053	-2.73
370.264	68.95
370.474	68.95
370.685	64.85
370.896	54.61
371.107	44.37
371.317	71
371.528	91.48
371.739	77.14
371.95	44.37
372.16	3.41
372.371	-35.5
372.582	-19.11
372.792	13.65
373.003	-29.35
373.214	52.56
373.424	103.76
373.635	56.66
373.846	107.86
374.056	-4.78
374.267	36.18
374.477	25.94
374.688	-0.68
374.898	48.47
375.109	19.8
375.319	-23.21
375.53	81.24
375.74	19.8
375.951	85.33
376.161	62.8
376.372	48.47
376.582	-29.35
376.793	85.33
377.003	62.8
377.214	32.08
377.424	56.66
377.635	85.33
377.845	56.66
378.055	36.18
378.266	15.7
378.476	23.89
378.686	52.56
378.897	73.04
379.107	52.56
379.317	64.85
379.528	19.8
379.738	5.46
379.948	-19.11
380.158	38.23
380.369	62.8
380.579	60.76
380.789	87.38
380.999	64.85
381.21	7.51
381.42	89.43
381.63	5.46
381.84	81.24
382.05	40.28
382.261	120.15
382.471	52.56
382.681	79.19
382.891	79.19
383.101	11.61
383.311	32.08
383.521	42.32
383.731	68.95
383.941	30.04
384.151	25.94
384.361	-33.45
384.571	64.85
384.781	60.76
384.991	27.99
385.201	54.61
385.411	32.08
385.621	66.9
385.831	44.37
386.041	56.66
386.251	27.99
386.461	52.56
386.671	56.66
386.881	68.95
387.091	109.91
387.301	89.43
387.511	85.33
387.72	95.57
387.93	42.32
388.14	7.51
388.35	-58.03
388.56	87.38
388.769	56.66
388.979	11.61
389.189	5.46
389.399	64.85
389.609	146.77
389.818	73.04
390.028	81.24
390.238	105.81
390.447	11.61
390.657	79.19
390.867	89.43
391.076	-31.4
391.286	36.18
391.496	44.37
391.705	77.14
391.915	52.56
392.125	114
392.334	56.66
392.544	50.52
392.753	103.76
392.963	-2.73
393.172	34.13
393.382	54.61
393.591	71
393.801	93.52
394.01	68.95
394.22	60.76
394.429	60.76
394.639	50.52
394.848	11.61
395.058	68.95
395.267	99.67
395.477	27.99
395.686	142.68
395.895	81.24
396.105	136.53
396.314	87.38
396.524	62.8
396.733	77.14
396.942	109.91
397.152	146.77
397.361	27.99
397.57	48.47
397.78	62.8
397.989	114
398.198	150.87
398.407	101.72
398.617	54.61
398.826	54.61
399.035	-29.35
399.244	79.19
399.453	32.08
399.663	120.15
399.872	130.39
400.081	111.96
400.29	120.15
400.499	103.76
400.708	89.43
400.917	71
401.127	38.23
401.336	73.04
401.545	56.66
401.754	93.52
401.963	103.76
402.172	38.23
402.381	148.82
402.59	93.52
402.799	167.25
403.008	77.14
403.217	81.24
403.426	107.86
403.635	146.77
403.844	83.28
404.053	118.1
404.262	52.56
404.471	154.96
404.68	126.29
404.888	79.19
405.097	95.57
405.306	134.48
405.515	116.05
405.724	118.1
405.933	116.05
406.142	216.4
406.35	109.91
406.559	218.45
406.768	163.15
406.977	175.44
407.185	169.3
407.394	183.63
407.603	97.62
407.812	118.1
408.02	228.69
408.229	218.45
408.438	159.06
408.646	195.92
408.855	232.79
409.064	175.44
409.272	122.2
409.481	247.12
409.69	148.82
409.898	230.74
410.107	261.46
410.315	316.75
410.524	224.59
410.733	267.6
410.941	326.99
411.15	302.42
411.358	253.27
411.567	341.33
411.775	349.52
411.984	232.79
412.192	404.82
412.401	363.86
412.609	335.18
412.818	388.43
413.026	439.63
413.234	472.4
413.443	456.01
413.651	396.62
413.86	519.5
414.068	486.73
414.276	466.25
414.485	447.82
414.693	486.73
414.901	546.12
415.11	593.23
415.318	617.8
415.526	568.65
415.734	580.94
415.943	652.62
416.151	652.62
416.359	619.85
416.567	695.63
416.776	699.72
416.984	802.12
417.192	834.89
417.4	875.85
417.608	712.01
417.817	890.18
418.025	931.14
418.233	1074.5
418.441	974.15
418.649	1023.3
418.857	1013.06
419.065	1064.26
419.273	998.73
419.481	1086.79
419.689	1088.84
419.897	1201.47
420.105	1150.28
420.313	1183.04
420.521	1314.11
420.729	1314.11
420.937	1404.22
421.145	1430.85
421.353	1518.91
421.561	1602.88
421.769	1494.33
421.977	1606.97
422.185	1611.07
422.393	1707.32
422.601	1822.01
422.809	1824.06
423.017	1797.43
423.224	1979.7
423.432	2010.42
423.64	1994.04
423.848	2182.45
424.056	2192.69
424.263	2233.65
424.471	2209.08
424.679	2370.87
424.887	2522.41
425.094	2571.57
425.302	2518.32
425.51	2596.14
425.718	2786.6
425.925	2686.25
426.133	2970.92
426.341	2985.26
426.548	3243.3
426.756	3210.53
426.964	3259.68
427.171	3472.67
427.379	3509.54
427.586	3523.87
427.794	3632.41
428.001	3777.82
428.209	3902.75
428.417	3865.88
428.624	4173.08
428.832	4205.85
429.039	4189.46
429.247	4070.68
429.454	4640.01
429.662	4910.35
429.869	4578.58
430.076	4723.98
430.284	4723.98
430.491	5022.98
430.699	5201.16
430.906	5094.66
431.114	5348.61
431.321	5340.42
431.528	5475.59
431.736	6026.49
431.943	6149.37
432.15	6112.5
432.358	6104.31
432.565	6419.7
432.772	6368.5
432.979	6714.61
433.187	6755.57
433.394	6927.6
433.601	7390.44
433.808	7355.62
434.016	7273.7
434.223	7490.79
434.43	8271.06
434.637	7873.76
434.844	8375.51
435.052	8455.38
435.259	8522.96
435.466	8408.28
435.673	8592.59
435.88	9256.14
436.087	9655.49
436.294	9460.93
436.501	9651.39
436.708	9526.47
436.915	9952.45
437.122	10251.45
437.329	10407.09
437.537	10558.64
437.743	10718.39
437.95	10765.49
438.157	11293.86
438.364	11582.63
438.571	11660.45
438.778	11740.32
438.985	12903.57
439.192	12403.86
439.399	12645.52
439.606	12340.38
439.813	13175.95
440.02	14019.71
440.227	13485.19
440.433	13534.34
440.64	14044.29
440.847	13743.24
441.054	14218.36
441.261	15170.67
441.467	14871.67
441.674	15244.4
441.881	15598.7
442.088	15705.19
442.294	15559.78
442.501	16254.05
442.708	16387.16
442.914	17011.79
443.121	17425.48
443.328	17531.98
443.534	18623.55
443.741	18082.88
443.948	17876.04
444.154	19139.63
444.361	19098.67
444.568	19203.12
444.774	18979.89
444.981	19287.09
445.187	19924.01
445.394	20882.45
445.6	20603.93
445.807	22672.38
446.013	21451.79
446.22	22262.79
446.426	22543.36
446.633	23211
446.839	24034.28
447.046	22772.73
447.252	23749.61
447.459	24013.8
447.665	23792.62
447.871	25029.59
448.078	26078.15
448.284	25039.83
448.491	25615.31
448.697	26903.48
448.903	27364.28
449.11	27497.39
449.316	27061.18
449.522	27544.5
449.728	28347.3
449.935	28527.52
450.141	28265.38
450.347	28908.44
450.553	28312.49
450.76	28324.77
450.966	29631.38
451.172	29068.19
451.378	30159.75
451.584	29604.75
451.791	30073.74
451.997	30034.83
452.203	30665.6
452.409	30706.56
452.615	30253.96
452.821	29098.91
453.027	29356.95
453.233	30808.96
453.44	29512.59
453.646	29940.62
453.852	29916.04
454.058	30382.98
454.264	29225.88
454.47	30055.31
454.676	29860.75
454.882	30548.87
455.088	27798.45
455.294	28316.58
455.5	28849.05
455.705	29105.05
455.911	28191.66
456.117	27474.87
456.323	27294.64
456.529	25820.11
456.735	26942.39
456.941	26258.37
457.147	25844.68
457.352	25226.2
457.558	24792.03
457.764	25109.46
457.97	24458.21
458.176	24136.68
458.381	23825.39
458.587	22807.55
458.793	23090.17
458.999	21482.51
459.204	23297.01
459.41	22631.42
459.616	21242.9
459.821	21173.27
460.027	20923.41
460.233	20694.04
460.438	19807.27
460.644	19887.14
460.85	18922.55
461.055	18369.6
461.261	18801.72
461.466	17441.87
461.672	16856.15
461.878	18005.06
462.083	16755.8
462.289	16503.9
462.494	16518.23
462.7	15742.05
462.905	15395.95
463.111	15801.44
463.316	15764.58
463.522	15373.42
463.727	15510.63
463.932	15512.68
464.138	15271.02
464.343	15180.91
464.549	14920.82
464.754	15422.57
464.959	15152.24
465.165	14785.65
465.37	14523.51
465.575	14189.69
465.781	14574.71
465.986	14781.56
466.191	14279.8
466.397	13745.28
466.602	13540.49
466.807	14056.57
467.012	13773.96
467.218	13907.07
467.423	13616.26
467.628	13851.78
467.833	14388.35
468.038	13585.54
