Data from USB4F104151__161__14-44-45-677.txt Node

Date: Thu Mar 13 14:44:45 EDT 2025
User: louis
Spectrometer: USB4F10415
Trigger mode: 4
Integration Time (sec): 2.000000E-2
Scans to average: 1
Electric dark correction enabled: true
Nonlinearity correction enabled: false
Boxcar width: 0
XAxis mode: Wavelengths
Number of Pixels in Spectrum: 3648
>>>>>Begin Spectral Data<<<<<
178.204	-83.11
178.424	-83.11
178.644	-83.11
178.864	-124.07
179.084	-52.39
179.304	-1.19
179.524	41.81
179.744	13.14
179.964	47.96
180.184	0.85
180.404	29.52
180.624	11.09
180.844	-60.59
181.064	-46.25
181.283	41.81
181.503	-33.96
181.723	-44.2
181.943	-11.43
182.163	82.77
182.383	82.77
182.602	31.57
182.822	62.29
183.042	-9.39
183.262	-13.48
183.482	25.43
183.701	21.33
183.921	-19.63
184.141	-33.96
184.361	103.25
184.58	62.29
184.8	-52.39
185.02	-42.15
185.239	115.54
185.459	41.81
185.679	111.44
185.898	9.05
186.118	54.1
186.338	15.19
186.557	47.96
186.777	105.3
186.997	-33.96
187.216	19.29
187.436	82.77
187.655	47.96
187.875	27.48
188.095	-25.77
188.314	99.16
188.534	99.16
188.753	-62.63
188.973	31.57
189.192	13.14
189.412	39.76
189.631	78.68
189.851	64.34
190.07	105.3
190.29	-3.24
190.509	15.19
190.729	62.29
190.948	7
191.168	148.31
191.387	86.87
191.607	86.87
191.826	103.25
192.045	33.62
192.265	37.72
192.484	37.72
192.704	41.81
192.923	-3.24
193.142	78.68
193.362	58.2
193.581	70.48
193.8	31.57
194.02	64.34
194.239	47.96
194.458	43.86
194.678	-27.82
194.897	31.57
195.116	-7.34
195.335	113.49
195.555	62.29
195.774	64.34
195.993	-17.58
196.212	35.67
196.432	56.15
196.651	-11.43
196.87	23.38
197.089	11.09
197.308	66.39
197.528	39.76
197.747	-52.39
197.966	-11.43
198.185	95.06
198.404	15.19
198.623	66.39
198.842	109.4
199.062	80.72
199.281	54.1
199.5	-11.43
199.719	-19.63
199.938	45.91
200.157	-11.43
200.376	47.96
200.595	50
200.814	35.67
201.033	39.76
201.252	37.72
201.471	4.95
201.69	64.34
201.909	50
202.128	-42.15
202.347	15.19
202.566	70.48
202.785	29.52
203.004	27.48
203.223	54.1
203.442	60.24
203.661	105.3
203.879	-9.39
204.098	103.25
204.317	-1.19
204.536	0.85
204.755	105.3
204.974	39.76
205.193	45.91
205.411	88.92
205.63	64.34
205.849	78.68
206.068	66.39
206.287	17.24
206.505	29.52
206.724	33.62
206.943	23.38
207.162	-19.63
207.381	37.72
207.599	0.85
207.818	37.72
208.037	2.9
208.255	7
208.474	58.2
208.693	86.87
208.911	-19.63
209.13	45.91
209.349	72.53
209.567	21.33
209.786	103.25
210.005	127.83
210.223	21.33
210.442	54.1
210.661	31.57
210.879	78.68
211.098	93.01
211.316	21.33
211.535	21.33
211.753	37.72
211.972	56.15
212.191	-11.43
212.409	50
212.628	70.48
212.846	-29.87
213.065	82.77
213.283	64.34
213.502	39.76
213.72	4.95
213.938	-11.43
214.157	54.1
214.375	56.15
214.594	21.33
214.812	103.25
215.031	41.81
215.249	70.48
215.467	0.85
215.686	105.3
215.904	70.48
216.122	52.05
216.341	50
216.559	99.16
216.778	95.06
216.996	41.81
217.214	-13.48
217.432	25.43
217.651	21.33
217.869	-19.63
218.087	33.62
218.306	54.1
218.524	90.96
218.742	50
218.96	45.91
219.179	21.33
219.397	78.68
219.615	23.38
219.833	13.14
220.051	-7.34
220.27	54.1
220.488	15.19
220.706	4.95
220.924	39.76
221.142	-25.77
221.36	15.19
221.578	43.86
221.796	127.83
222.015	4.95
222.233	-1.19
222.451	31.57
222.669	29.52
222.887	58.2
223.105	-54.44
223.323	45.91
223.541	15.19
223.759	70.48
223.977	-7.34
224.195	-11.43
224.413	29.52
224.631	64.34
224.849	56.15
225.067	95.06
225.285	29.52
225.503	29.52
225.721	-56.49
225.939	37.72
226.157	-9.39
226.375	119.64
226.592	-15.53
226.81	123.73
227.028	17.24
227.246	95.06
227.464	15.19
227.682	29.52
227.9	58.2
228.117	21.33
228.335	-44.2
228.553	29.52
228.771	95.06
228.989	76.63
229.206	21.33
229.424	-19.63
229.642	78.68
229.86	62.29
230.077	2.9
230.295	47.96
230.513	62.29
230.731	62.29
230.948	62.29
231.166	50
231.384	4.95
231.601	47.96
231.819	119.64
232.037	41.81
232.254	-101.55
232.472	2.9
232.689	13.14
232.907	45.91
233.125	-11.43
233.342	4.95
233.56	78.68
233.777	-25.77
233.995	21.33
234.213	29.52
234.43	50
234.648	41.81
234.865	50
235.083	39.76
235.3	37.72
235.518	127.83
235.735	62.29
235.953	56.15
236.17	4.95
236.388	-7.34
236.605	86.87
236.822	-3.24
237.04	72.53
237.257	47.96
237.475	-17.58
237.692	2.9
237.909	4.95
238.127	7
238.344	82.77
238.562	11.09
238.779	21.33
238.996	4.95
239.214	45.91
239.431	-19.63
239.648	60.24
239.865	0.85
240.083	-11.43
240.3	-15.53
240.517	23.38
240.735	72.53
240.952	111.44
241.169	103.25
241.386	-3.24
241.603	-70.83
241.821	-9.39
242.038	80.72
242.255	62.29
242.472	45.91
242.689	-42.15
242.907	125.78
243.124	54.1
243.341	-11.43
243.558	21.33
243.775	21.33
243.992	7
244.209	52.05
244.426	86.87
244.643	33.62
244.86	41.81
245.078	62.29
245.295	4.95
245.512	70.48
245.729	58.2
245.946	-11.43
246.163	7
246.38	-1.19
246.597	33.62
246.814	93.01
247.031	4.95
247.248	66.39
247.464	-27.82
247.681	37.72
247.898	64.34
248.115	45.91
248.332	-19.63
248.549	80.72
248.766	21.33
248.983	54.1
249.2	88.92
249.417	78.68
249.633	50
249.85	62.29
250.067	-3.24
250.284	-25.77
250.501	66.39
250.717	117.59
250.934	15.19
251.151	52.05
251.368	-44.2
251.585	4.95
251.801	86.87
252.018	52.05
252.235	72.53
252.451	37.72
252.668	50
252.885	107.35
253.102	62.29
253.318	111.44
253.535	-46.25
253.752	-9.39
253.968	7
254.185	47.96
254.401	103.25
254.618	33.62
254.835	103.25
255.051	86.87
255.268	-1.19
255.484	29.52
255.701	29.52
255.917	23.38
256.134	95.06
256.351	56.15
256.567	29.52
256.784	13.14
257	-58.54
257.217	35.67
257.433	64.34
257.65	88.92
257.866	72.53
258.082	13.14
258.299	62.29
258.515	97.11
258.732	52.05
258.948	103.25
259.165	54.1
259.381	45.91
259.597	39.76
259.814	86.87
260.03	23.38
260.246	47.96
260.463	-7.34
260.679	54.1
260.895	84.82
261.112	52.05
261.328	54.1
261.544	-25.77
261.761	107.35
261.977	13.14
262.193	11.09
262.409	31.57
262.626	9.05
262.842	72.53
263.058	56.15
263.274	41.81
263.49	64.34
263.707	105.3
263.923	111.44
264.139	50
264.355	58.2
264.571	86.87
264.787	-11.43
265.004	95.06
265.22	9.05
265.436	45.91
265.652	58.2
265.868	88.92
266.084	78.68
266.3	101.2
266.516	-15.53
266.732	82.77
266.948	41.81
267.164	144.21
267.38	-1.19
267.596	37.72
267.812	58.2
268.028	13.14
268.244	-7.34
268.46	93.01
268.676	97.11
268.892	56.15
269.108	21.33
269.324	31.57
269.54	39.76
269.756	56.15
269.972	-27.82
270.188	0.85
270.403	31.57
270.619	-1.19
270.835	-5.29
271.051	47.96
271.267	29.52
271.483	-64.68
271.698	54.1
271.914	82.77
272.13	66.39
272.346	54.1
272.562	-25.77
272.777	29.52
272.993	50
273.209	74.58
273.425	-3.24
273.64	23.38
273.856	2.9
274.072	45.91
274.287	-40.11
274.503	54.1
274.719	-64.68
274.934	78.68
275.15	-19.63
275.366	56.15
275.581	-17.58
275.797	62.29
276.012	-11.43
276.228	9.05
276.444	0.85
276.659	80.72
276.875	23.38
277.09	41.81
277.306	33.62
277.521	109.4
277.737	60.24
277.952	21.33
278.168	29.52
278.383	37.72
278.599	78.68
278.814	93.01
279.03	-3.24
279.245	95.06
279.461	31.57
279.676	80.72
279.892	70.48
280.107	72.53
280.322	25.43
280.538	129.88
280.753	33.62
280.969	58.2
281.184	95.06
281.399	127.83
281.615	-1.19
281.83	-19.63
282.045	25.43
282.26	15.19
282.476	82.77
282.691	47.96
282.906	52.05
283.122	37.72
283.337	-11.43
283.552	93.01
283.767	90.96
283.983	13.14
284.198	60.24
284.413	7
284.628	-40.11
284.843	50
285.058	33.62
285.274	-33.96
285.489	50
285.704	50
285.919	41.81
286.134	66.39
286.349	9.05
286.564	62.29
286.779	82.77
286.995	82.77
287.21	39.76
287.425	9.05
287.64	-29.87
287.855	39.76
288.07	-27.82
288.285	78.68
288.5	66.39
288.715	113.49
288.93	37.72
289.145	21.33
289.36	111.44
289.575	-9.39
289.79	47.96
290.004	70.48
290.219	72.53
290.434	56.15
290.649	-17.58
290.864	78.68
291.079	-27.82
291.294	47.96
291.509	58.2
291.724	15.19
291.938	31.57
292.153	-3.24
292.368	-7.34
292.583	4.95
292.798	21.33
293.012	29.52
293.227	90.96
293.442	54.1
293.657	0.85
293.871	70.48
294.086	13.14
294.301	170.83
294.516	86.87
294.73	78.68
294.945	-31.91
295.16	103.25
295.374	37.72
295.589	74.58
295.804	0.85
296.018	21.33
296.233	97.11
296.447	111.44
296.662	-1.19
296.877	13.14
297.091	58.2
297.306	41.81
297.52	9.05
297.735	64.34
297.949	80.72
298.164	62.29
298.378	13.14
298.593	11.09
298.807	-11.43
299.022	33.62
299.236	95.06
299.451	66.39
299.665	39.76
299.88	-3.24
300.094	31.57
300.309	-40.11
300.523	45.91
300.737	62.29
300.952	-11.43
301.166	33.62
301.381	-33.96
301.595	86.87
301.809	50
302.024	76.63
302.238	-15.53
302.452	21.33
302.667	29.52
302.881	56.15
303.095	113.49
303.309	90.96
303.524	-3.24
303.738	4.95
303.952	7
304.166	66.39
304.381	7
304.595	13.14
304.809	37.72
305.023	62.29
305.237	25.43
305.452	62.29
305.666	52.05
305.88	70.48
306.094	45.91
306.308	50
306.522	70.48
306.736	72.53
306.95	62.29
307.164	99.16
307.379	41.81
307.593	60.24
307.807	-27.82
308.021	37.72
308.235	62.29
308.449	29.52
308.663	107.35
308.877	90.96
309.091	21.33
309.305	-44.2
309.519	-36.01
309.733	50
309.947	2.9
310.161	13.14
310.374	7
310.588	39.76
310.802	25.43
311.016	37.72
311.23	11.09
311.444	-64.68
311.658	29.52
311.872	95.06
312.085	43.86
312.299	105.3
312.513	113.49
312.727	64.34
312.941	31.57
313.154	45.91
313.368	35.67
313.582	13.14
313.796	15.19
314.009	45.91
314.223	7
314.437	-38.06
314.651	33.62
314.864	54.1
315.078	7
315.292	70.48
315.505	-3.24
315.719	66.39
315.933	45.91
316.146	23.38
316.36	29.52
316.573	78.68
316.787	74.58
317.001	54.1
317.214	-50.35
317.428	54.1
317.641	9.05
317.855	58.2
318.068	78.68
318.282	-19.63
318.495	107.35
318.709	72.53
318.922	84.82
319.136	54.1
319.349	115.54
319.563	74.58
319.776	25.43
319.99	-17.58
320.203	45.91
320.417	39.76
320.63	86.87
320.843	62.29
321.057	45.91
321.27	50
321.483	54.1
321.697	45.91
321.91	47.96
322.124	64.34
322.337	29.52
322.55	21.33
322.763	23.38
322.977	47.96
323.19	17.24
323.403	66.39
323.617	13.14
323.83	66.39
324.043	72.53
324.256	39.76
324.469	-23.72
324.683	13.14
324.896	9.05
325.109	88.92
325.322	-17.58
325.535	146.26
325.748	95.06
325.962	72.53
326.175	58.2
326.388	74.58
326.601	47.96
326.814	4.95
327.027	39.76
327.24	58.2
327.453	70.48
327.666	35.67
327.879	35.67
328.092	103.25
328.305	80.72
328.518	21.33
328.731	-7.34
328.944	-1.19
329.157	23.38
329.37	-36.01
329.583	97.11
329.796	45.91
330.009	-1.19
330.222	66.39
330.435	103.25
330.648	29.52
330.861	9.05
331.073	29.52
331.286	78.68
331.499	58.2
331.712	56.15
331.925	7
332.138	95.06
332.35	64.34
332.563	25.43
332.776	68.44
332.989	21.33
333.202	66.39
333.414	78.68
333.627	21.33
333.84	29.52
334.053	107.35
334.265	64.34
334.478	45.91
334.691	56.15
334.903	47.96
335.116	-27.82
335.329	-9.39
335.541	41.81
335.754	111.44
335.966	13.14
336.179	62.29
336.392	136.02
336.604	111.44
336.817	97.11
337.029	66.39
337.242	64.34
337.454	113.49
337.667	0.85
337.88	105.3
338.092	62.29
338.305	4.95
338.517	84.82
338.729	103.25
338.942	111.44
339.154	-1.19
339.367	-79.02
339.579	168.79
339.792	15.19
340.004	140.12
340.217	47.96
340.429	41.81
340.641	13.14
340.854	58.2
341.066	7
341.278	107.35
341.491	119.64
341.703	0.85
341.915	-36.01
342.128	33.62
342.34	95.06
342.552	66.39
342.764	21.33
342.977	29.52
343.189	111.44
343.401	0.85
343.613	-3.24
343.826	47.96
344.038	25.43
344.25	43.86
344.462	-31.91
344.674	58.2
344.886	37.72
345.099	33.62
345.311	97.11
345.523	15.19
345.735	-33.96
345.947	33.62
346.159	-1.19
346.371	72.53
346.583	78.68
346.795	121.68
347.007	76.63
347.219	25.43
347.431	78.68
347.643	127.83
347.855	4.95
348.067	47.96
348.279	-25.77
348.491	47.96
348.703	15.19
348.915	62.29
349.127	95.06
349.339	56.15
349.551	4.95
349.763	72.53
349.975	68.44
350.187	50
350.399	56.15
350.61	54.1
350.822	-11.43
351.034	29.52
351.246	2.9
351.458	31.57
351.669	154.45
351.881	62.29
352.093	41.81
352.305	56.15
352.517	39.76
352.728	64.34
352.94	19.29
353.152	58.2
353.363	-13.48
353.575	43.86
353.787	39.76
353.999	33.62
354.21	-23.72
354.422	7
354.633	-29.87
354.845	54.1
355.057	-3.24
355.268	29.52
355.48	66.39
355.692	35.67
355.903	-1.19
356.115	17.24
356.326	45.91
356.538	90.96
356.749	31.57
356.961	72.53
357.172	58.2
357.384	58.2
357.595	95.06
357.807	58.2
358.018	39.76
358.23	58.2
358.441	50
358.653	52.05
358.864	86.87
359.075	-3.24
359.287	27.48
359.498	70.48
359.709	97.11
359.921	58.2
360.132	80.72
360.344	4.95
360.555	84.82
360.766	7
360.977	54.1
361.189	82.77
361.4	33.62
361.611	33.62
361.823	164.69
362.034	21.33
362.245	-3.24
362.456	21.33
362.667	90.96
362.879	7
363.09	95.06
363.301	78.68
363.512	2.9
363.723	-3.24
363.935	-3.24
364.146	78.68
364.357	31.57
364.568	93.01
364.779	86.87
364.99	144.21
365.201	11.09
365.412	54.1
365.623	45.91
365.834	68.44
366.045	-9.39
366.256	88.92
366.467	105.3
366.678	62.29
366.889	56.15
367.1	103.25
367.311	37.72
367.522	-17.58
367.733	15.19
367.944	39.76
368.155	64.34
368.366	4.95
368.577	109.4
368.788	103.25
368.999	-1.19
369.209	84.82
369.42	72.53
369.631	146.26
369.842	13.14
370.053	29.52
370.264	17.24
370.474	37.72
370.685	74.58
370.896	13.14
371.107	136.02
371.317	47.96
371.528	13.14
371.739	62.29
371.95	11.09
372.16	37.72
372.371	4.95
372.582	144.21
372.792	113.49
373.003	0.85
373.214	99.16
373.424	-56.49
373.635	88.92
373.846	109.4
374.056	17.24
374.267	4.95
374.477	29.52
374.688	45.91
374.898	41.81
375.109	86.87
375.319	37.72
375.53	107.35
375.74	99.16
375.951	86.87
376.161	45.91
376.372	66.39
376.582	-19.63
376.793	2.9
377.003	4.95
377.214	72.53
377.424	29.52
377.635	164.69
377.845	43.86
378.055	78.68
378.266	-25.77
378.476	-9.39
378.686	56.15
378.897	33.62
379.107	13.14
379.317	41.81
379.528	78.68
379.738	7
379.948	90.96
380.158	7
380.369	37.72
380.579	103.25
380.789	70.48
380.999	76.63
381.21	54.1
381.42	95.06
381.63	4.95
381.84	45.91
382.05	21.33
382.261	97.11
382.471	37.72
382.681	-1.19
382.891	76.63
383.101	70.48
383.311	23.38
383.521	-21.67
383.731	62.29
383.941	37.72
384.151	52.05
384.361	70.48
384.571	107.35
384.781	39.76
384.991	95.06
385.201	152.4
385.411	52.05
385.621	72.53
385.831	45.91
386.041	45.91
386.251	62.29
386.461	41.81
386.671	0.85
386.881	103.25
387.091	37.72
387.301	111.44
387.511	62.29
387.72	103.25
387.93	62.29
388.14	-9.39
388.35	4.95
388.56	78.68
388.769	119.64
388.979	107.35
389.189	29.52
389.399	25.43
389.609	25.43
389.818	86.87
390.028	88.92
390.238	50
390.447	33.62
390.657	29.52
390.867	74.58
391.076	70.48
391.286	50
391.496	43.86
391.705	31.57
391.915	29.52
392.125	88.92
392.334	131.92
392.544	123.73
392.753	86.87
392.963	64.34
393.172	80.72
393.382	25.43
393.591	78.68
393.801	4.95
394.01	136.02
394.22	168.79
394.429	9.05
394.639	80.72
394.848	72.53
395.058	115.54
395.267	70.48
395.477	-42.15
395.686	136.02
395.895	148.31
396.105	170.83
396.314	70.48
396.524	144.21
396.733	29.52
396.942	131.92
397.152	129.88
397.361	109.4
397.57	62.29
397.78	43.86
397.989	88.92
398.198	113.49
398.407	76.63
398.617	111.44
398.826	41.81
399.035	25.43
399.244	70.48
399.453	86.87
399.663	90.96
399.872	121.68
400.081	62.29
400.29	64.34
400.499	50
400.708	174.93
400.917	131.92
401.127	131.92
401.336	72.53
401.545	142.16
401.754	95.06
401.963	111.44
402.172	127.83
402.381	39.76
402.59	17.24
402.799	119.64
403.008	195.41
403.217	107.35
403.426	164.69
403.635	37.72
403.844	121.68
404.053	101.2
404.262	119.64
404.471	123.73
404.68	211.79
404.888	136.02
405.097	183.12
405.306	136.02
405.515	160.59
405.724	111.44
405.933	170.83
406.142	193.36
406.35	99.16
406.559	152.4
406.768	144.21
406.977	201.55
407.185	146.26
407.394	179.03
407.603	131.92
407.812	176.98
408.02	152.4
408.229	185.17
408.438	185.17
408.646	148.31
408.855	193.36
409.064	244.56
409.272	226.13
409.481	254.8
409.69	170.83
409.898	224.08
410.107	197.46
410.315	312.14
410.524	205.65
410.733	271.19
410.941	242.51
411.15	301.9
411.358	297.81
411.567	308.05
411.775	387.92
411.984	299.86
412.192	398.16
412.401	408.4
412.609	381.78
412.818	447.31
413.026	392.02
413.234	355.15
413.443	459.6
413.651	432.97
413.86	406.35
414.068	545.61
414.276	551.76
414.485	504.65
414.693	553.8
414.901	588.62
415.11	623.44
415.318	619.34
415.526	633.68
415.734	668.49
415.943	668.49
416.151	643.92
416.359	686.92
416.567	637.77
416.776	758.6
416.984	904.01
417.192	840.52
417.4	750.41
417.608	815.94
417.817	820.04
418.025	834.38
418.233	975.69
418.441	944.97
418.649	1012.55
418.857	1026.89
419.065	1053.51
419.273	1004.36
419.481	1086.28
419.689	1225.54
419.897	1319.75
420.105	1303.36
420.313	1272.64
420.521	1350.46
420.729	1405.76
420.937	1327.94
421.145	1440.58
421.353	1590.08
421.561	1622.84
421.769	1585.98
421.977	1719.1
422.185	1694.52
422.393	1741.63
422.601	1901.37
422.809	1837.88
423.017	1919.8
423.224	1901.37
423.432	2063.16
423.64	2085.69
423.848	2280.24
424.056	2241.33
424.263	2290.48
424.471	2151.22
424.679	2401.07
424.887	2442.03
425.094	2544.43
425.302	2554.67
425.51	2659.12
425.718	2728.75
425.925	2718.51
426.133	2790.19
426.341	3011.37
426.548	3099.43
426.756	3119.91
426.964	3224.36
427.171	3380
427.379	3480.35
427.586	3543.84
427.794	3623.71
428.001	3775.26
428.209	3965.72
428.417	4043.54
428.624	4240.15
428.832	4094.74
429.039	4084.5
429.247	4238.1
429.454	4510.48
429.662	4897.55
429.869	4494.1
430.076	4889.35
430.284	4711.18
430.491	4930.31
430.699	5280.52
430.906	5214.98
431.114	5282.56
431.321	5454.59
431.528	5569.28
431.736	5866.24
431.943	6159.1
432.15	6030.07
432.358	6251.25
432.565	6486.77
432.772	6386.42
432.979	6634.22
433.187	7033.58
433.394	6943.47
433.601	7416.55
433.808	7279.33
434.016	7363.3
434.223	7533.28
434.43	7994.08
434.637	7957.21
434.844	8514.26
435.052	8454.87
435.259	8422.1
435.466	8686.29
435.673	8610.51
435.88	9153.23
436.087	9460.42
436.294	9654.98
436.501	9376.45
436.708	9374.41
436.915	9888.45
437.122	10187.45
437.329	10248.89
437.537	10740.4
437.743	10638
437.95	10416.82
438.157	11123.37
438.364	11606.69
438.571	11473.57
438.778	11512.49
438.985	12649.11
439.192	12259.99
439.399	12513.94
439.606	12100.25
439.813	12880.53
440.02	13810.31
440.227	13570.69
440.433	13335.18
440.64	13795.97
440.847	13625.99
441.054	13922.94
441.261	14979.7
441.467	14627.45
441.674	15192.69
441.881	15555.18
442.088	15690.34
442.294	15454.83
442.501	15821.41
442.708	16036.45
442.914	16814.68
443.121	17711.69
443.328	17007.19
443.534	18186.82
443.741	17625.67
443.948	17371.72
444.154	18653.75
444.361	18577.98
444.568	18442.81
444.774	18819.64
444.981	18876.98
445.187	19702.31
445.394	20554.27
445.6	20140.58
445.807	21981.7
446.013	21199.38
446.22	21174.8
446.426	22241.79
446.633	22731.26
446.839	23636.46
447.046	22274.56
447.252	23663.08
447.459	23501.29
447.665	23482.86
447.871	24500.7
448.078	25878.99
448.284	24330.72
448.491	25063.89
448.697	26266.05
448.903	26638.78
449.11	26393.03
449.316	26065.35
449.522	26245.57
449.728	27177.4
449.935	27632.05
450.141	27627.95
450.347	28379.56
450.553	27244.98
450.76	27894.19
450.966	28711.33
451.172	28404.13
451.378	29147.54
451.584	28752.29
451.791	29495.7
451.997	28948.89
452.203	29622.67
452.409	29575.57
452.615	29735.31
452.821	28201.38
453.027	28228.01
453.233	29651.34
453.44	28694.94
453.646	28965.28
453.852	29125.02
454.058	29503.89
454.264	28541.35
454.47	29272.47
454.676	28537.25
454.882	29544.85
455.088	27150.78
455.294	27386.29
455.5	28031.4
455.705	28228.01
455.911	27107.77
456.117	26689.98
456.323	26218.95
456.529	24697.31
456.735	26247.62
456.941	25295.32
457.147	25004.5
457.352	24320.48
457.558	23898.6
457.764	24031.72
457.97	23669.23
458.176	23237.11
458.381	23208.44
458.587	21901.83
458.793	22381.06
458.999	20980.25
459.204	22411.78
459.41	21506.57
459.616	20290.08
459.821	20095.52
460.027	20240.93
460.233	19876.39
460.438	18928.18
460.644	19116.59
460.85	18158.14
461.055	18000.45
461.261	18076.23
461.466	16618.07
461.672	16134.75
461.878	17267.28
462.083	16325.21
462.289	15897.19
462.494	15815.27
462.7	14991.98
462.905	14555.77
463.111	15166.06
463.316	15039.09
463.522	14994.03
463.727	14678.65
463.932	14819.96
464.138	14635.64
464.343	14774.9
464.549	14156.41
464.754	14613.11
464.959	14379.64
465.165	14281.34
465.37	13957.76
465.575	13441.67
465.781	14072.45
465.986	14017.15
466.191	13521.54
466.397	13419.14
466.602	12870.29
466.807	13240.97
467.012	13163.15
467.218	13144.72
467.423	12935.82
467.628	13120.14
467.833	13392.52
468.038	12976.78
468.244	12575.38
468.449	13140.62
468.654	12669.59
468.859	12739.22
469.064	12636.82
