Data from USB4F104151__9__14-42-33-929.txt Node

Date: Thu Mar 13 14:42:33 EDT 2025
User: louis
Spectrometer: USB4F10415
Trigger mode: 4
Integration Time (sec): 2.000000E-2
Scans to average: 1
Electric dark correction enabled: true
Nonlinearity correction enabled: false
Boxcar width: 0
XAxis mode: Wavelengths
Number of Pixels in Spectrum: 3648
>>>>>Begin Spectral Data<<<<<
178.204	-112.13
178.424	-112.13
178.644	-112.13
178.864	-140.8
179.084	-67.07
179.304	-44.54
179.524	18.94
179.744	-34.3
179.964	0.51
180.184	18.94
180.404	-5.63
180.624	80.38
180.844	2.56
181.064	2.56
181.283	-87.55
181.503	-38.4
181.723	86.53
181.943	-1.54
182.163	49.66
182.383	-24.06
182.602	43.52
182.822	6.66
183.042	43.52
183.262	27.14
183.482	104.96
183.701	-7.68
183.921	27.14
184.141	-19.97
184.361	27.14
184.58	27.14
184.8	55.81
185.02	10.75
185.239	-22.02
185.459	4.61
185.679	59.9
185.898	10.75
186.118	47.62
186.338	-5.63
186.557	53.76
186.777	23.04
186.997	64
187.216	-28.16
187.436	80.38
187.655	10.75
187.875	78.33
188.095	59.9
188.314	59.9
188.534	45.57
188.753	121.34
188.973	66.05
189.192	-13.82
189.412	18.94
189.631	-17.92
189.851	27.14
190.07	33.28
190.29	43.52
190.509	43.52
190.729	27.14
190.948	-24.06
191.168	78.33
191.387	53.76
191.607	-11.78
191.826	27.14
192.045	64
192.265	-3.58
192.484	109.05
192.704	31.23
192.923	-38.4
193.142	84.48
193.362	51.71
193.581	88.57
193.8	55.81
194.02	84.48
194.239	39.42
194.458	51.71
194.678	29.18
194.897	-1.54
195.116	-9.73
195.335	18.94
195.555	35.33
195.774	-5.63
195.993	-22.02
196.212	39.42
196.432	10.75
196.651	0.51
196.87	-28.16
197.089	104.96
197.308	72.19
197.528	41.47
197.747	-65.02
197.966	47.62
198.185	125.44
198.404	-26.11
198.623	47.62
198.842	31.23
199.062	20.99
199.281	4.61
199.5	-77.31
199.719	35.33
199.938	59.9
200.157	61.95
200.376	74.24
200.595	-30.21
200.814	31.23
201.033	33.28
201.252	16.9
201.471	-42.5
201.69	10.75
201.909	-11.78
202.128	59.9
202.347	18.94
202.566	4.61
202.785	94.72
203.004	-1.54
203.223	43.52
203.442	-34.3
203.661	-17.92
203.879	4.61
204.098	27.14
204.317	37.38
204.536	-17.92
204.755	35.33
204.974	64
205.193	-58.88
205.411	107.01
205.63	12.8
205.849	72.19
206.068	31.23
206.287	-3.58
206.505	43.52
206.724	4.61
206.943	68.09
207.162	14.85
207.381	51.71
207.599	55.81
207.818	84.48
208.037	20.99
208.255	-7.68
208.474	-46.59
208.693	51.71
208.911	18.94
209.13	18.94
209.349	23.04
209.567	51.71
209.786	45.57
210.005	72.19
210.223	-11.78
210.442	-3.58
210.661	61.95
210.879	41.47
211.098	16.9
211.316	70.14
211.535	102.91
211.753	-11.78
211.972	6.66
212.191	76.29
212.409	64
212.628	59.9
212.846	-26.11
213.065	-3.58
213.283	92.67
213.502	-13.82
213.72	61.95
213.938	-34.3
214.157	59.9
214.375	-1.54
214.594	-30.21
214.812	33.28
215.031	37.38
215.249	-17.92
215.467	59.9
215.686	-13.82
215.904	25.09
216.122	20.99
216.341	80.38
216.559	4.61
216.778	31.23
216.996	4.61
217.214	35.33
217.432	-26.11
217.651	4.61
217.869	12.8
218.087	35.33
218.306	45.57
218.524	-38.4
218.742	14.85
218.96	66.05
219.179	10.75
219.397	2.56
219.615	14.85
219.833	35.33
220.051	49.66
220.27	16.9
220.488	-5.63
220.706	23.04
220.924	76.29
221.142	-32.26
221.36	2.56
221.578	12.8
221.796	-9.73
222.015	2.56
222.233	68.09
222.451	4.61
222.669	35.33
222.887	86.53
223.105	31.23
223.323	41.47
223.541	-42.5
223.759	37.38
223.977	-5.63
224.195	59.9
224.413	59.9
224.631	39.42
224.849	43.52
225.067	137.73
225.285	59.9
225.503	-52.74
225.721	-54.78
225.939	96.77
226.157	39.42
226.375	76.29
226.592	4.61
226.81	55.81
227.028	88.57
227.246	43.52
227.464	59.9
227.682	88.57
227.9	-3.58
228.117	92.67
228.335	-19.97
228.553	76.29
228.771	18.94
228.989	35.33
229.206	33.28
229.424	27.14
229.642	61.95
229.86	-1.54
230.077	-7.68
230.295	57.86
230.513	96.77
230.731	68.09
230.948	37.38
231.166	94.72
231.384	29.18
231.601	-11.78
231.819	35.33
232.037	6.66
232.254	53.76
232.472	47.62
232.689	51.71
232.907	27.14
233.125	47.62
233.342	27.14
233.56	-3.58
233.777	14.85
233.995	-1.54
234.213	76.29
234.43	43.52
234.648	41.47
234.865	29.18
235.083	35.33
235.3	57.86
235.518	76.29
235.735	78.33
235.953	61.95
236.17	10.75
236.388	20.99
236.605	-19.97
236.822	76.29
237.04	25.09
237.257	51.71
237.475	-11.78
237.692	47.62
237.909	-38.4
238.127	29.18
238.344	43.52
238.562	64
238.779	-5.63
238.996	51.71
239.214	76.29
239.431	-9.73
239.648	20.99
239.865	12.8
240.083	84.48
240.3	78.33
240.517	68.09
240.735	-9.73
240.952	20.99
241.169	-30.21
241.386	-7.68
241.603	49.66
241.821	-5.63
242.038	27.14
242.255	51.71
242.472	45.57
242.689	27.14
242.907	59.9
243.124	68.09
243.341	-9.73
243.558	-13.82
243.775	-5.63
243.992	10.75
244.209	10.75
244.426	31.23
244.643	76.29
244.86	68.09
245.078	20.99
245.295	-46.59
245.512	35.33
245.729	37.38
245.946	61.95
246.163	68.09
246.38	-17.92
246.597	-13.82
246.814	-19.97
247.031	16.9
247.248	-44.54
247.464	53.76
247.681	4.61
247.898	51.71
248.115	49.66
248.332	-38.4
248.549	10.75
248.766	66.05
248.983	43.52
249.2	78.33
249.417	76.29
249.633	-5.63
249.85	47.62
250.067	4.61
250.284	109.05
250.501	68.09
250.717	27.14
250.934	-44.54
251.151	10.75
251.368	-38.4
251.585	86.53
251.801	49.66
252.018	49.66
252.235	125.44
252.451	68.09
252.668	41.47
252.885	29.18
253.102	84.48
253.318	-50.69
253.535	51.71
253.752	-1.54
253.968	-11.78
254.185	2.56
254.401	113.15
254.618	-7.68
254.835	-9.73
255.051	47.62
255.268	-22.02
255.484	61.95
255.701	31.23
255.917	125.44
256.134	27.14
256.351	29.18
256.567	-52.74
256.784	10.75
257	2.56
257.217	-46.59
257.433	49.66
257.65	47.62
257.866	35.33
258.082	-32.26
258.299	61.95
258.515	35.33
258.732	-19.97
258.948	10.75
259.165	27.14
259.381	43.52
259.597	78.33
259.814	64
260.03	74.24
260.246	82.43
260.463	29.18
260.679	80.38
260.895	49.66
261.112	10.75
261.328	4.61
261.544	4.61
261.761	109.05
261.977	-3.58
262.193	-17.92
262.409	-28.16
262.626	43.52
262.842	78.33
263.058	-11.78
263.274	68.09
263.49	-62.98
263.707	121.34
263.923	-22.02
264.139	4.61
264.355	39.42
264.571	88.57
264.787	-9.73
265.004	64
265.22	6.66
265.436	2.56
265.652	-62.98
265.868	-30.21
266.084	-46.59
266.3	51.71
266.516	-7.68
266.732	-24.06
266.948	43.52
267.164	10.75
267.38	37.38
267.596	23.04
267.812	111.1
268.028	47.62
268.244	23.04
268.46	-9.73
268.676	59.9
268.892	53.76
269.108	-13.82
269.324	76.29
269.54	-5.63
269.756	43.52
269.972	-30.21
270.188	51.71
270.403	4.61
270.619	49.66
270.835	55.81
271.051	88.57
271.267	-32.26
271.483	78.33
271.698	61.95
271.914	20.99
272.13	-11.78
272.346	47.62
272.562	49.66
272.777	74.24
272.993	18.94
273.209	-17.92
273.425	72.19
273.64	18.94
273.856	2.56
274.072	68.09
274.287	10.75
274.503	53.76
274.719	31.23
274.934	31.23
275.15	-3.58
275.366	68.09
275.581	-5.63
275.797	109.05
276.012	2.56
276.228	-22.02
276.444	109.05
276.659	102.91
276.875	-44.54
277.09	43.52
277.306	-11.78
277.521	-30.21
277.737	16.9
277.952	6.66
278.168	74.24
278.383	20.99
278.599	61.95
278.814	-5.63
279.03	-15.87
279.245	59.9
279.461	27.14
279.676	-3.58
279.892	-54.78
280.107	-46.59
280.322	-46.59
280.538	55.81
280.753	68.09
280.969	88.57
281.184	59.9
281.399	100.86
281.615	-15.87
281.83	59.9
282.045	37.38
282.26	23.04
282.476	31.23
282.691	4.61
282.906	78.33
283.122	-13.82
283.337	-7.68
283.552	-36.35
283.767	0.51
283.983	16.9
284.198	20.99
284.413	2.56
284.628	-13.82
284.843	43.52
285.058	104.96
285.274	66.05
285.489	-22.02
285.704	70.14
285.919	57.86
286.134	68.09
286.349	43.52
286.564	35.33
286.779	59.9
286.995	37.38
287.21	-22.02
287.425	53.76
287.64	-48.64
287.855	68.09
288.07	-34.3
288.285	61.95
288.5	35.33
288.715	125.44
288.93	100.86
289.145	18.94
289.36	72.19
289.575	-9.73
289.79	2.56
290.004	-62.98
290.219	84.48
290.434	-38.4
290.649	27.14
290.864	35.33
291.079	-1.54
291.294	18.94
291.509	119.29
291.724	2.56
291.938	25.09
292.153	51.71
292.368	31.23
292.583	51.71
292.798	43.52
293.012	-32.26
293.227	8.7
293.442	8.7
293.657	51.71
293.871	86.53
294.086	88.57
294.301	88.57
294.516	0.51
294.73	-24.06
294.945	-52.74
295.16	8.7
295.374	92.67
295.589	109.05
295.804	-26.11
296.018	-1.54
296.233	88.57
296.447	59.9
296.662	-42.5
296.877	59.9
297.091	45.57
297.306	68.09
297.52	-7.68
297.735	29.18
297.949	23.04
298.164	84.48
298.378	-19.97
298.593	-19.97
298.807	20.99
299.022	74.24
299.236	47.62
299.451	68.09
299.665	-44.54
299.88	76.29
300.094	6.66
300.309	-9.73
300.523	61.95
300.737	-54.78
300.952	72.19
301.166	43.52
301.381	-24.06
301.595	35.33
301.809	14.85
302.024	53.76
302.238	37.38
302.452	35.33
302.667	-3.58
302.881	135.68
303.095	43.52
303.309	82.43
303.524	4.61
303.738	55.81
303.952	0.51
304.166	125.44
304.381	-28.16
304.595	96.77
304.809	0.51
305.023	29.18
305.237	29.18
305.452	-22.02
305.666	-22.02
305.88	74.24
306.094	45.57
306.308	27.14
306.522	100.86
306.736	43.52
306.95	76.29
307.164	-71.17
307.379	59.9
307.593	100.86
307.807	82.43
308.021	61.95
308.235	10.75
308.449	2.56
308.663	-19.97
308.877	158.21
309.091	61.95
309.305	55.81
309.519	4.61
309.733	45.57
309.947	4.61
310.161	2.56
310.374	-17.92
310.588	68.09
310.802	27.14
311.016	29.18
311.23	20.99
311.444	86.53
311.658	45.57
311.872	86.53
312.085	96.77
312.299	35.33
312.513	78.33
312.727	-46.59
312.941	12.8
313.154	37.38
313.368	-5.63
313.582	35.33
313.796	-1.54
314.009	2.56
314.223	27.14
314.437	4.61
314.651	92.67
314.864	-13.82
315.078	14.85
315.292	-5.63
315.505	64
315.719	43.52
315.933	-22.02
316.146	-9.73
316.36	-101.89
316.573	68.09
316.787	10.75
317.001	29.18
317.214	4.61
317.428	68.09
317.641	-34.3
317.855	27.14
318.068	35.33
318.282	109.05
318.495	84.48
318.709	51.71
318.922	35.33
319.136	86.53
319.349	53.76
319.563	70.14
319.776	80.38
319.99	20.99
320.203	100.86
320.417	66.05
320.63	78.33
320.843	61.95
321.057	68.09
321.27	-13.82
321.483	10.75
321.697	86.53
321.91	35.33
322.124	53.76
322.337	20.99
322.55	72.19
322.763	8.7
322.977	72.19
323.19	18.94
323.403	-5.63
323.617	-11.78
323.83	59.9
324.043	43.52
324.256	51.71
324.469	31.23
324.683	90.62
324.896	51.71
325.109	0.51
325.322	76.29
325.535	141.82
325.748	70.14
325.962	-13.82
326.175	66.05
326.388	20.99
326.601	-30.21
326.814	-5.63
327.027	20.99
327.24	129.53
327.453	-22.02
327.666	-13.82
327.879	4.61
328.092	51.71
328.305	2.56
328.518	-3.58
328.731	43.52
328.944	109.05
329.157	68.09
329.37	51.71
329.583	82.43
329.796	109.05
330.009	14.85
330.222	47.62
330.435	31.23
330.648	39.42
330.861	20.99
331.073	70.14
331.286	33.28
331.499	6.66
331.712	25.09
331.925	-28.16
332.138	33.28
332.35	68.09
332.563	35.33
332.776	121.34
332.989	-85.5
333.202	-1.54
333.414	27.14
333.627	37.38
333.84	31.23
334.053	78.33
334.265	51.71
334.478	59.9
334.691	-13.82
334.903	37.38
335.116	-1.54
335.329	18.94
335.541	45.57
335.754	61.95
335.966	121.34
336.179	39.42
336.392	59.9
336.604	160.25
336.817	51.71
337.029	20.99
337.242	39.42
337.454	6.66
337.667	18.94
337.88	-13.82
338.092	27.14
338.305	84.48
338.517	43.52
338.729	41.47
338.942	61.95
339.154	76.29
339.367	53.76
339.579	39.42
339.792	-67.07
340.004	78.33
340.217	139.77
340.429	0.51
340.641	31.23
340.854	23.04
341.066	-1.54
341.278	35.33
341.491	70.14
341.703	25.09
341.915	-30.21
342.128	102.91
342.34	-22.02
342.552	-13.82
342.764	18.94
342.977	31.23
343.189	33.28
343.401	64
343.613	68.09
343.826	6.66
344.038	-34.3
344.25	47.62
344.462	-9.73
344.674	-3.58
344.886	47.62
345.099	27.14
345.311	8.7
345.523	-5.63
345.735	-30.21
345.947	-54.78
346.159	-34.3
346.371	-30.21
346.583	-22.02
346.795	94.72
347.007	27.14
347.219	49.66
347.431	57.86
347.643	-22.02
347.855	-44.54
348.067	117.25
348.279	-58.88
348.491	27.14
348.703	80.38
348.915	20.99
349.127	47.62
349.339	66.05
349.551	59.9
349.763	68.09
349.975	18.94
350.187	27.14
350.399	84.48
350.61	47.62
350.822	35.33
351.034	59.9
351.246	-26.11
351.458	115.2
351.669	68.09
351.881	59.9
352.093	61.95
352.305	68.09
352.517	64
352.728	70.14
352.94	-13.82
353.152	84.48
353.363	-50.69
353.575	45.57
353.787	113.15
353.999	57.86
354.21	78.33
354.422	45.57
354.633	29.18
354.845	51.71
355.057	76.29
355.268	14.85
355.48	78.33
355.692	-22.02
355.903	-54.78
356.115	117.25
356.326	2.56
356.538	111.1
356.749	33.28
356.961	88.57
357.172	92.67
357.384	59.9
357.595	123.39
357.807	41.47
358.018	-44.54
358.23	61.95
358.441	-1.54
358.653	78.33
358.864	39.42
359.075	76.29
359.287	39.42
359.498	119.29
359.709	117.25
359.921	76.29
360.132	-15.87
360.344	25.09
360.555	64
360.766	80.38
360.977	18.94
361.189	61.95
361.4	31.23
361.611	18.94
361.823	109.05
362.034	51.71
362.245	-52.74
362.456	-32.26
362.667	18.94
362.879	-30.21
363.09	51.71
363.301	2.56
363.512	-24.06
363.723	68.09
363.935	45.57
364.146	0.51
364.357	47.62
364.568	43.52
364.779	18.94
364.99	6.66
365.201	-9.73
365.412	37.38
365.623	-22.02
365.834	96.77
366.045	20.99
366.256	10.75
366.467	27.14
366.678	59.9
366.889	70.14
367.1	64
367.311	31.23
367.522	20.99
367.733	109.05
367.944	18.94
368.155	8.7
368.366	29.18
368.577	64
368.788	96.77
368.999	43.52
369.209	27.14
369.42	0.51
369.631	74.24
369.842	-5.63
370.053	20.99
370.264	39.42
370.474	14.85
370.685	45.57
370.896	-11.78
371.107	76.29
371.317	29.18
371.528	-36.35
371.739	117.25
371.95	37.38
372.16	-3.58
372.371	-9.73
372.582	53.76
372.792	92.67
373.003	4.61
373.214	2.56
373.424	64
373.635	100.86
373.846	6.66
374.056	14.85
374.267	-46.59
374.477	31.23
374.688	20.99
374.898	-22.02
375.109	31.23
375.319	-9.73
375.53	111.1
375.74	84.48
375.951	20.99
376.161	61.95
376.372	88.57
376.582	33.28
376.793	57.86
377.003	53.76
377.214	53.76
377.424	53.76
377.635	43.52
377.845	2.56
378.055	94.72
378.266	-22.02
378.476	27.14
378.686	35.33
378.897	121.34
379.107	45.57
379.317	86.53
379.528	10.75
379.738	102.91
379.948	-30.21
380.158	76.29
380.369	100.86
380.579	43.52
380.789	80.38
380.999	76.29
381.21	84.48
381.42	35.33
381.63	43.52
381.84	37.38
382.05	-22.02
382.261	84.48
382.471	-13.82
382.681	113.15
382.891	84.48
383.101	166.4
383.311	16.9
383.521	68.09
383.731	78.33
383.941	-9.73
384.151	86.53
384.361	70.14
384.571	20.99
384.781	37.38
384.991	104.96
385.201	51.71
385.411	-13.82
385.621	100.86
385.831	76.29
386.041	23.04
386.251	61.95
386.461	113.15
386.671	64
386.881	35.33
387.091	37.38
387.301	27.14
387.511	20.99
387.72	55.81
387.93	-13.82
388.14	47.62
388.35	37.38
388.56	23.04
388.769	27.14
388.979	70.14
389.189	59.9
389.399	0.51
389.609	141.82
389.818	39.42
390.028	-3.58
390.238	45.57
390.447	76.29
390.657	84.48
390.867	76.29
391.076	82.43
391.286	92.67
391.496	12.8
391.705	25.09
391.915	20.99
392.125	86.53
392.334	20.99
392.544	92.67
392.753	27.14
392.963	23.04
393.172	20.99
393.382	16.9
393.591	100.86
393.801	92.67
394.01	166.4
394.22	115.2
394.429	37.38
394.639	53.76
394.848	-30.21
395.058	2.56
395.267	37.38
395.477	96.77
395.686	80.38
395.895	125.44
396.105	96.77
396.314	18.94
396.524	55.81
396.733	-13.82
396.942	92.67
397.152	186.88
397.361	59.9
397.57	61.95
397.78	61.95
397.989	78.33
398.198	100.86
398.407	57.86
398.617	59.9
398.826	102.91
399.035	92.67
399.244	119.29
399.453	37.38
399.663	78.33
399.872	80.38
400.081	55.81
400.29	109.05
400.499	51.71
400.708	18.94
400.917	86.53
401.127	86.53
401.336	61.95
401.545	64
401.754	176.64
401.963	152.06
402.172	78.33
402.381	94.72
402.59	86.53
402.799	86.53
403.008	102.91
403.217	76.29
403.426	29.18
403.635	14.85
403.844	100.86
404.053	47.62
404.262	102.91
404.471	203.26
404.68	125.44
404.888	-5.63
405.097	39.42
405.306	129.53
405.515	141.82
405.724	37.38
405.933	43.52
406.142	109.05
406.35	72.19
406.559	174.59
406.768	80.38
406.977	94.72
407.185	92.67
407.394	190.97
407.603	76.29
407.812	170.49
408.02	186.88
408.229	125.44
408.438	133.63
408.646	125.44
408.855	152.06
409.064	78.33
409.272	168.45
409.481	174.59
409.69	193.02
409.898	197.12
410.107	184.83
410.315	127.49
410.524	250.36
410.733	195.07
410.941	250.36
411.15	236.03
411.358	291.32
411.567	201.21
411.775	231.93
411.984	254.46
412.192	190.97
412.401	240.12
412.609	266.75
412.818	281.08
413.026	309.76
413.234	313.85
413.443	309.76
413.651	317.95
413.86	305.66
414.068	332.28
414.276	471.54
414.485	348.67
414.693	449.02
414.901	428.54
415.11	383.48
415.318	430.59
415.526	520.7
415.734	453.11
415.943	420.35
416.151	467.45
416.359	463.35
416.567	580.09
416.776	541.18
416.984	571.9
417.192	600.57
417.4	530.94
417.608	563.7
417.817	604.66
418.025	631.29
418.233	778.74
418.441	633.33
418.649	723.44
418.857	758.26
419.065	856.56
419.273	774.64
419.481	801.27
419.689	856.56
419.897	829.94
420.105	870.9
420.313	944.63
420.521	973.3
420.729	1030.64
420.937	989.68
421.145	1022.45
421.353	1126.89
421.561	1085.94
421.769	1214.96
421.977	1225.2
422.185	1157.61
422.393	1292.78
422.601	1386.99
422.809	1376.75
423.017	1364.46
423.224	1460.71
423.432	1485.29
423.64	1520.1
423.848	1647.08
424.056	1526.25
424.263	1636.84
424.471	1653.22
424.679	1624.55
424.887	1675.75
425.094	1821.16
425.302	1896.93
425.51	1946.08
425.718	1962.47
425.925	1980.9
426.133	2142.69
426.341	2253.28
426.548	2265.57
426.756	2320.86
426.964	2288.09
427.171	2337.24
427.379	2611.67
427.586	2501.08
427.794	2621.91
428.001	2730.45
428.209	2820.56
428.417	2841.04
428.624	2867.67
428.832	3121.62
429.039	2976.21
429.247	3045.84
429.454	3404.24
429.662	3529.16
429.869	3328.46
430.076	3467.72
430.284	3379.66
430.491	3430.86
430.699	3781.06
430.906	3701.19
431.114	3721.67
431.321	3992
431.528	3942.85
431.736	4315.58
431.943	4438.46
432.15	4327.87
432.358	4364.73
432.565	4549.05
432.772	4407.74
432.979	4835.77
433.187	4925.88
433.394	4911.54
433.601	5284.27
433.808	5220.78
434.016	5286.32
434.223	5593.51
434.43	5605.8
434.637	5755.3
434.844	6117.79
435.052	6320.54
435.259	6105.51
435.466	6244.77
435.673	6064.55
435.88	6560.16
436.087	6709.66
436.294	6762.9
436.501	6637.98
436.708	6777.24
436.915	6908.31
437.122	7469.45
437.329	7285.14
437.537	7612.81
437.743	7596.43
437.95	7641.48
438.157	8055.17
438.364	8384.9
438.571	8323.46
438.778	8184.2
438.985	9296.24
439.192	8851.83
439.399	9070.97
439.606	8784.25
439.813	9386.35
440.02	9826.67
440.227	9705.84
440.433	9546.09
440.64	9875.82
440.847	10053.99
441.054	10277.22
441.261	10750.3
441.467	10482.02
441.674	10901.85
441.881	11331.92
442.088	11268.44
442.294	11133.27
442.501	11465.04
442.708	11602.25
442.914	11856.2
443.121	12495.17
443.328	12202.31
443.534	13058.36
443.741	12706.11
443.948	12654.91
444.154	13781.29
444.361	13359.41
444.568	13416.76
444.774	13404.47
444.981	13467.95
445.187	13875.5
445.394	14625.06
445.6	14625.06
445.807	15718.67
446.013	15108.38
446.22	15614.23
446.426	16093.45
446.633	16351.49
446.839	16806.14
447.046	16132.36
447.252	16994.56
447.459	16926.97
447.665	16673.03
447.871	17633.52
448.078	18596.07
448.284	17428.73
448.491	18104.56
448.697	18450.66
448.903	19015.9
449.11	19122.4
449.316	19079.39
449.522	19224.79
449.728	19773.65
449.935	19798.23
450.141	19699.92
450.347	20256.97
450.553	19615.96
450.76	20115.66
450.966	20680.9
451.172	20396.23
451.378	20877.51
451.584	20435.14
451.791	20779.2
451.997	20955.33
452.203	21485.75
452.409	21514.42
452.615	21192.89
452.821	20465.86
453.027	20551.88
453.233	21473.46
453.44	20310.22
453.646	20783.3
453.852	20797.63
454.058	21369.02
454.264	20555.97
454.47	20918.46
454.676	20480.2
454.882	21119.17
455.088	19284.19
455.294	19810.51
455.5	19855.57
455.705	20058.32
455.911	19130.59
456.117	18716.9
456.323	18516.2
456.529	17756.4
456.735	18565.35
456.941	18028.78
457.147	17664.24
457.352	17565.94
457.558	16840.96
457.764	17178.87
457.97	16761.09
458.176	16544
458.381	16431.37
458.587	15706.38
458.793	15864.08
458.999	14979.36
459.204	15968.52
459.41	15497.49
459.616	14663.97
459.821	14588.19
460.027	14436.64
460.233	14194.98
460.438	13310.26
460.644	13533.49
460.85	13023.55
461.055	12826.94
461.261	12861.76
461.466	11831.63
461.672	11520.34
461.878	12253.51
462.083	11549.01
462.289	11323.73
462.494	11270.48
462.7	10406.24
462.905	10514.78
463.111	10723.68
463.316	10881.37
463.522	10582.37
463.727	10574.17
463.932	10512.74
464.138	10412.39
464.343	10416.48
464.549	10062.18
464.754	10430.82
464.959	10244.45
465.165	10187.11
465.37	9875.82
465.575	9451.89
465.781	10217.83
465.986	10053.99
466.191	9722.22
466.397	9738.6
466.602	8905.08
466.807	9367.92
467.012	9486.7
467.218	9367.92
467.423	9116.02
467.628	9267.57
467.833	9666.92
468.038	9437.55
468.244	8917.37
468.449	9533.81
