Data from USB4F104151__90__14-43-33-894.txt Node

Date: Thu Mar 13 14:43:33 EDT 2025
User: louis
Spectrometer: USB4F10415
Trigger mode: 4
Integration Time (sec): 2.000000E-2
Scans to average: 1
Electric dark correction enabled: true
Nonlinearity correction enabled: false
Boxcar width: 0
XAxis mode: Wavelengths
Number of Pixels in Spectrum: 3648
>>>>>Begin Spectral Data<<<<<
178.204	-67.24
178.424	-67.24
178.644	-67.24
178.864	-157.35
179.084	-79.53
179.304	-16.04
179.524	49.49
179.744	-42.67
179.964	10.58
180.184	37.2
180.404	29.01
180.624	-30.38
180.844	26.96
181.064	-44.71
181.283	18.77
181.503	-59.05
181.723	20.82
181.943	31.06
182.163	92.5
182.383	-38.57
182.602	59.73
182.822	43.35
183.042	6.49
183.262	43.35
183.482	-59.05
183.701	16.73
183.921	72.02
184.141	6.49
184.361	104.79
184.58	4.44
184.8	-22.19
185.02	43.35
185.239	10.58
185.459	55.64
185.679	35.16
185.898	12.63
186.118	2.39
186.338	49.49
186.557	137.56
186.777	-52.91
186.997	4.44
187.216	24.92
187.436	100.69
187.655	43.35
187.875	35.16
188.095	26.96
188.314	133.46
188.534	31.06
188.753	-34.47
188.973	67.92
189.192	16.73
189.412	-3.75
189.631	10.58
189.851	39.25
190.07	61.78
190.29	-7.85
190.509	37.2
190.729	2.39
190.948	51.54
191.168	53.59
191.387	2.39
191.607	-48.81
191.826	80.21
192.045	-38.57
192.265	-1.71
192.484	24.92
192.704	2.39
192.923	-11.95
193.142	43.35
193.362	-28.33
193.581	59.73
193.8	92.5
194.02	51.54
194.239	47.44
194.458	4.44
194.678	-63.15
194.897	84.31
195.116	-13.99
195.335	-9.9
195.555	112.98
195.774	35.16
195.993	-9.9
196.212	4.44
196.432	-61.1
196.651	10.58
196.87	84.31
197.089	108.88
197.308	-18.09
197.528	14.68
197.747	-22.19
197.966	31.06
198.185	51.54
198.404	4.44
198.623	41.3
198.842	20.82
199.062	39.25
199.281	61.78
199.5	26.96
199.719	82.26
199.938	43.35
200.157	84.31
200.376	31.06
200.595	84.31
200.814	4.44
201.033	10.58
201.252	24.92
201.471	18.77
201.69	24.92
201.909	47.44
202.128	82.26
202.347	-5.8
202.566	-34.47
202.785	67.92
203.004	45.4
203.223	133.46
203.442	57.68
203.661	51.54
203.879	26.96
204.098	26.96
204.317	67.92
204.536	67.92
204.755	86.36
204.974	-11.95
205.193	20.82
205.411	35.16
205.63	-22.19
205.849	78.16
206.068	10.58
206.287	10.58
206.505	51.54
206.724	108.88
206.943	59.73
207.162	74.07
207.381	37.2
207.599	-22.19
207.818	57.68
208.037	78.16
208.255	108.88
208.474	67.92
208.693	53.59
208.911	18.77
209.13	10.58
209.349	94.55
209.567	-46.76
209.786	29.01
210.005	39.25
210.223	84.31
210.442	10.58
210.661	45.4
210.879	-34.47
211.098	-34.47
211.316	-11.95
211.535	43.35
211.753	26.96
211.972	-11.95
212.191	-11.95
212.409	-11.95
212.628	-9.9
212.846	-1.71
213.065	43.35
213.283	125.27
213.502	-1.71
213.72	35.16
213.938	35.16
214.157	51.54
214.375	69.97
214.594	20.82
214.812	14.68
215.031	96.6
215.249	4.44
215.467	-63.15
215.686	41.3
215.904	-1.71
216.122	6.49
216.341	92.5
216.559	-16.04
216.778	61.78
216.996	72.02
217.214	-40.62
217.432	53.59
217.651	2.39
217.869	53.59
218.087	59.73
218.306	18.77
218.524	45.4
218.742	94.55
218.96	29.01
219.179	76.12
219.397	12.63
219.615	84.31
219.833	86.36
220.051	8.53
220.27	35.16
220.488	63.83
220.706	-11.95
220.924	-34.47
221.142	-3.75
221.36	-28.33
221.578	-5.8
221.796	-26.28
222.015	72.02
222.233	-36.52
222.451	39.25
222.669	31.06
222.887	90.45
223.105	-11.95
223.323	51.54
223.541	59.73
223.759	47.44
223.977	4.44
224.195	84.31
224.413	92.5
224.631	84.31
224.849	92.5
225.067	69.97
225.285	51.54
225.503	-36.52
225.721	41.3
225.939	37.2
226.157	84.31
226.375	137.56
226.592	35.16
226.81	51.54
227.028	115.03
227.246	43.35
227.464	-9.9
227.682	29.01
227.9	104.79
228.117	100.69
228.335	37.2
228.553	67.92
228.771	51.54
228.989	67.92
229.206	88.4
229.424	35.16
229.642	-3.75
229.86	-44.71
230.077	35.16
230.295	31.06
230.513	26.96
230.731	100.69
230.948	12.63
231.166	155.99
231.384	4.44
231.601	-38.57
231.819	0.34
232.037	-77.48
232.254	-11.95
232.472	20.82
232.689	6.49
232.907	20.82
233.125	-5.8
233.342	-30.38
233.56	67.92
233.777	69.97
233.995	96.6
234.213	31.06
234.43	-20.14
234.648	10.58
234.865	43.35
235.083	43.35
235.3	12.63
235.518	18.77
235.735	16.73
235.953	43.35
236.17	12.63
236.388	-5.8
236.605	67.92
236.822	84.31
237.04	31.06
237.257	61.78
237.475	-54.95
237.692	35.16
237.909	98.64
238.127	14.68
238.344	14.68
238.562	35.16
238.779	-48.81
238.996	6.49
239.214	-9.9
239.431	61.78
239.648	-44.71
239.865	20.82
240.083	18.77
240.3	51.54
240.517	51.54
240.735	22.87
240.952	53.59
241.169	88.4
241.386	43.35
241.603	4.44
241.821	33.11
242.038	20.82
242.255	20.82
242.472	-46.76
242.689	-3.75
242.907	12.63
243.124	12.63
243.341	-11.95
243.558	-1.71
243.775	67.92
243.992	-5.8
244.209	6.49
244.426	16.73
244.643	61.78
244.86	43.35
245.078	61.78
245.295	47.44
245.512	69.97
245.729	-30.38
245.946	35.16
246.163	18.77
246.38	18.77
246.597	35.16
246.814	2.39
247.031	29.01
247.248	125.27
247.464	67.92
247.681	-22.19
247.898	14.68
248.115	16.73
248.332	-52.91
248.549	110.93
248.766	63.83
248.983	74.07
249.2	22.87
249.417	37.2
249.633	29.01
249.85	41.3
250.067	12.63
250.284	-3.75
250.501	51.54
250.717	94.55
250.934	-5.8
251.151	26.96
251.368	20.82
251.585	74.07
251.801	-5.8
252.018	10.58
252.235	78.16
252.451	61.78
252.668	57.68
252.885	35.16
253.102	18.77
253.318	20.82
253.535	-67.24
253.752	-22.19
253.968	92.5
254.185	37.2
254.401	-13.99
254.618	18.77
254.835	39.25
255.051	61.78
255.268	84.31
255.484	45.4
255.701	-22.19
255.917	-18.09
256.134	74.07
256.351	20.82
256.567	33.11
256.784	53.59
257	2.39
257.217	35.16
257.433	10.58
257.65	-42.67
257.866	22.87
258.082	63.83
258.299	43.35
258.515	22.87
258.732	31.06
258.948	14.68
259.165	24.92
259.381	-28.33
259.597	59.73
259.814	76.12
260.03	92.5
260.246	47.44
260.463	104.79
260.679	67.92
260.895	4.44
261.112	43.35
261.328	20.82
261.544	10.58
261.761	143.7
261.977	14.68
262.193	-54.95
262.409	37.2
262.626	-32.43
262.842	4.44
263.058	8.53
263.274	35.16
263.49	108.88
263.707	4.44
263.923	10.58
264.139	-30.38
264.355	37.2
264.571	55.64
264.787	80.21
265.004	76.12
265.22	-34.47
265.436	18.77
265.652	-36.52
265.868	96.6
266.084	-59.05
266.3	84.31
266.516	31.06
266.732	45.4
266.948	24.92
267.164	72.02
267.38	92.5
267.596	45.4
267.812	94.55
268.028	8.53
268.244	26.96
268.46	84.31
268.676	2.39
268.892	51.54
269.108	-22.19
269.324	47.44
269.54	-7.85
269.756	35.16
269.972	-28.33
270.188	12.63
270.403	55.64
270.619	10.58
270.835	35.16
271.051	-38.57
271.267	-1.71
271.483	59.73
271.698	43.35
271.914	59.73
272.13	59.73
272.346	59.73
272.562	-22.19
272.777	47.44
272.993	55.64
273.209	72.02
273.425	39.25
273.64	94.55
273.856	-9.9
274.072	20.82
274.287	35.16
274.503	16.73
274.719	37.2
274.934	-5.8
275.15	14.68
275.366	43.35
275.581	39.25
275.797	55.64
276.012	-57
276.228	72.02
276.444	35.16
276.659	53.59
276.875	0.34
277.09	10.58
277.306	47.44
277.521	59.73
277.737	31.06
277.952	115.03
278.168	4.44
278.383	59.73
278.599	-5.8
278.814	14.68
279.03	47.44
279.245	67.92
279.461	80.21
279.676	47.44
279.892	29.01
280.107	45.4
280.322	-36.52
280.538	90.45
280.753	26.96
280.969	39.25
281.184	96.6
281.399	84.31
281.615	10.58
281.83	53.59
282.045	-54.95
282.26	-42.67
282.476	24.92
282.691	39.25
282.906	2.39
283.122	92.5
283.337	20.82
283.552	22.87
283.767	18.77
283.983	67.92
284.198	10.58
284.413	51.54
284.628	-16.04
284.843	14.68
285.058	18.77
285.274	59.73
285.489	31.06
285.704	84.31
285.919	-26.28
286.134	-30.38
286.349	26.96
286.564	31.06
286.779	41.3
286.995	35.16
287.21	39.25
287.425	39.25
287.64	43.35
287.855	117.08
288.07	-40.62
288.285	20.82
288.5	10.58
288.715	-1.71
288.93	31.06
289.145	55.64
289.36	51.54
289.575	-5.8
289.79	39.25
290.004	-13.99
290.219	26.96
290.434	67.92
290.649	-24.23
290.864	47.44
291.079	26.96
291.294	43.35
291.509	24.92
291.724	-22.19
291.938	-22.19
292.153	57.68
292.368	35.16
292.583	43.35
292.798	8.53
293.012	18.77
293.227	4.44
293.442	-18.09
293.657	78.16
293.871	121.17
294.086	24.92
294.301	76.12
294.516	18.77
294.73	45.4
294.945	10.58
295.16	67.92
295.374	-13.99
295.589	63.83
295.804	-44.71
296.018	67.92
296.233	94.55
296.447	-26.28
296.662	29.01
296.877	4.44
297.091	102.74
297.306	125.27
297.52	14.68
297.735	108.88
297.949	59.73
298.164	45.4
298.378	61.78
298.593	6.49
298.807	-22.19
299.022	53.59
299.236	-1.71
299.451	14.68
299.665	24.92
299.88	45.4
300.094	35.16
300.309	63.83
300.523	57.68
300.737	43.35
300.952	10.58
301.166	63.83
301.381	-26.28
301.595	-34.47
301.809	76.12
302.024	-13.99
302.238	-46.76
302.452	26.96
302.667	-1.71
302.881	43.35
303.095	-5.8
303.309	61.78
303.524	35.16
303.738	84.31
303.952	-46.76
304.166	6.49
304.381	-71.34
304.595	29.01
304.809	-30.38
305.023	47.44
305.237	20.82
305.452	45.4
305.666	37.2
305.88	92.5
306.094	37.2
306.308	35.16
306.522	-1.71
306.736	12.63
306.95	63.83
307.164	45.4
307.379	12.63
307.593	72.02
307.807	67.92
308.021	67.92
308.235	37.2
308.449	26.96
308.663	-34.47
308.877	158.03
309.091	6.49
309.305	98.64
309.519	6.49
309.733	63.83
309.947	-30.38
310.161	69.97
310.374	92.5
310.588	59.73
310.802	-44.71
311.016	43.35
311.23	61.78
311.444	35.16
311.658	39.25
311.872	59.73
312.085	20.82
312.299	53.59
312.513	61.78
312.727	51.54
312.941	18.77
313.154	-18.09
313.368	-3.75
313.582	84.31
313.796	31.06
314.009	-30.38
314.223	14.68
314.437	92.5
314.651	33.11
314.864	149.84
315.078	18.77
315.292	2.39
315.505	10.58
315.719	10.58
315.933	51.54
316.146	141.65
316.36	-22.19
316.573	59.73
316.787	51.54
317.001	-5.8
317.214	26.96
317.428	22.87
317.641	4.44
317.855	78.16
318.068	84.31
318.282	53.59
318.495	45.4
318.709	2.39
318.922	12.63
319.136	31.06
319.349	96.6
319.563	26.96
319.776	10.58
319.99	-42.67
320.203	76.12
320.417	18.77
320.63	45.4
320.843	110.93
321.057	-11.95
321.27	76.12
321.483	100.69
321.697	47.44
321.91	14.68
322.124	-22.19
322.337	10.58
322.55	63.83
322.763	57.68
322.977	69.97
323.19	-34.47
323.403	-9.9
323.617	10.58
323.83	67.92
324.043	26.96
324.256	100.69
324.469	76.12
324.683	18.77
324.896	10.58
325.109	29.01
325.322	10.58
325.535	18.77
325.748	59.73
325.962	-24.23
326.175	-5.8
326.388	76.12
326.601	-26.28
326.814	31.06
327.027	61.78
327.24	43.35
327.453	55.64
327.666	20.82
327.879	53.59
328.092	59.73
328.305	8.53
328.518	6.49
328.731	-44.71
328.944	20.82
329.157	49.49
329.37	18.77
329.583	45.4
329.796	43.35
330.009	55.64
330.222	80.21
330.435	43.35
330.648	31.06
330.861	26.96
331.073	37.2
331.286	43.35
331.499	-38.57
331.712	2.39
331.925	6.49
332.138	12.63
332.35	80.21
332.563	6.49
332.776	51.54
332.989	53.59
333.202	18.77
333.414	12.63
333.627	-5.8
333.84	61.78
334.053	26.96
334.265	2.39
334.478	22.87
334.691	59.73
334.903	43.35
335.116	-1.71
335.329	-44.71
335.541	67.92
335.754	110.93
335.966	88.4
336.179	2.39
336.392	67.92
336.604	29.01
336.817	24.92
337.029	45.4
337.242	69.97
337.454	45.4
337.667	88.4
337.88	69.97
338.092	100.69
338.305	2.39
338.517	-22.19
338.729	51.54
338.942	80.21
339.154	-11.95
339.367	-44.71
339.579	35.16
339.792	-20.14
340.004	45.4
340.217	-46.76
340.429	59.73
340.641	31.06
340.854	74.07
341.066	35.16
341.278	51.54
341.491	158.03
341.703	59.73
341.915	-38.57
342.128	20.82
342.34	-1.71
342.552	4.44
342.764	-7.85
342.977	43.35
343.189	67.92
343.401	-30.38
343.613	18.77
343.826	4.44
344.038	-3.75
344.25	67.92
344.462	29.01
344.674	-5.8
344.886	84.31
345.099	45.4
345.311	55.64
345.523	31.06
345.735	-18.09
345.947	59.73
346.159	-24.23
346.371	-22.19
346.583	31.06
346.795	86.36
347.007	59.73
347.219	67.92
347.431	-9.9
347.643	45.4
347.855	4.44
348.067	39.25
348.279	69.97
348.491	-67.24
348.703	72.02
348.915	-20.14
349.127	59.73
349.339	37.2
349.551	16.73
349.763	45.4
349.975	53.59
350.187	51.54
350.399	22.87
350.61	41.3
350.822	-20.14
351.034	49.49
351.246	10.58
351.458	2.39
351.669	35.16
351.881	61.78
352.093	24.92
352.305	127.32
352.517	82.26
352.728	26.96
352.94	39.25
353.152	-5.8
353.363	51.54
353.575	-26.28
353.787	53.59
353.999	43.35
354.21	125.27
354.422	63.83
354.633	51.54
354.845	12.63
355.057	43.35
355.268	2.39
355.48	69.97
355.692	39.25
355.903	59.73
356.115	6.49
356.326	45.4
356.538	121.17
356.749	51.54
356.961	137.56
357.172	43.35
357.384	-22.19
357.595	10.58
357.807	18.77
358.018	51.54
358.23	37.2
358.441	121.17
358.653	53.59
358.864	96.6
359.075	2.39
359.287	10.58
359.498	57.68
359.709	-5.8
359.921	49.49
360.132	10.58
360.344	-16.04
360.555	59.73
360.766	20.82
360.977	72.02
361.189	137.56
361.4	37.2
361.611	63.83
361.823	67.92
362.034	-1.71
362.245	59.73
362.456	84.31
362.667	-1.71
362.879	10.58
363.09	67.92
363.301	61.78
363.512	104.79
363.723	131.41
363.935	31.06
364.146	-24.23
364.357	39.25
364.568	-1.71
364.779	-61.1
364.99	104.79
365.201	-40.62
365.412	67.92
365.623	43.35
365.834	86.36
366.045	92.5
366.256	69.97
366.467	10.58
366.678	53.59
366.889	-1.71
367.1	10.58
367.311	33.11
367.522	-1.71
367.733	-20.14
367.944	88.4
368.155	2.39
368.366	4.44
368.577	47.44
368.788	76.12
368.999	-13.99
369.209	16.73
369.42	59.73
369.631	127.32
369.842	151.89
370.053	4.44
370.264	63.83
370.474	12.63
370.685	63.83
370.896	6.49
371.107	158.03
371.317	16.73
371.528	31.06
371.739	49.49
371.95	51.54
372.16	37.2
372.371	35.16
372.582	-16.04
372.792	43.35
373.003	106.84
373.214	88.4
373.424	2.39
373.635	10.58
373.846	59.73
374.056	22.87
374.267	-18.09
374.477	-9.9
374.688	117.08
374.898	59.73
375.109	55.64
375.319	59.73
375.53	63.83
375.74	10.58
375.951	-5.8
376.161	96.6
376.372	92.5
376.582	2.39
376.793	43.35
377.003	35.16
377.214	31.06
377.424	63.83
377.635	18.77
377.845	86.36
378.055	108.88
378.266	2.39
378.476	80.21
378.686	2.39
378.897	80.21
379.107	59.73
379.317	96.6
379.528	20.82
379.738	96.6
379.948	18.77
380.158	88.4
380.369	-79.53
380.579	37.2
380.789	4.44
380.999	76.12
381.21	20.82
381.42	45.4
381.63	26.96
381.84	84.31
382.05	90.45
382.261	22.87
382.471	53.59
382.681	45.4
382.891	123.22
383.101	26.96
383.311	-46.76
383.521	35.16
383.731	35.16
383.941	-13.99
384.151	72.02
384.361	35.16
384.571	78.16
384.781	76.12
384.991	57.68
385.201	59.73
385.411	12.63
385.621	29.01
385.831	119.12
386.041	57.68
386.251	29.01
386.461	76.12
386.671	10.58
386.881	129.36
387.091	31.06
387.301	61.78
387.511	6.49
387.72	12.63
387.93	166.23
388.14	4.44
388.35	18.77
388.56	121.17
388.769	88.4
388.979	104.79
389.189	-22.19
389.399	43.35
389.609	100.69
389.818	88.4
390.028	41.3
390.238	55.64
390.447	61.78
390.657	53.59
390.867	26.96
391.076	-1.71
391.286	59.73
391.496	20.82
391.705	33.11
391.915	112.98
392.125	84.31
392.334	80.21
392.544	51.54
392.753	112.98
392.963	20.82
393.172	110.93
393.382	96.6
393.591	166.23
393.801	94.55
394.01	158.03
394.22	92.5
394.429	26.96
394.639	26.96
394.848	108.88
395.058	2.39
395.267	117.08
395.477	94.55
395.686	182.61
395.895	59.73
396.105	45.4
396.314	51.54
396.524	67.92
396.733	2.39
396.942	166.23
397.152	166.23
397.361	29.01
397.57	14.68
397.78	59.73
397.989	98.64
398.198	80.21
398.407	31.06
398.617	39.25
398.826	86.36
399.035	125.27
399.244	112.98
399.453	108.88
399.663	67.92
399.872	119.12
400.081	127.32
400.29	164.18
400.499	100.69
400.708	151.89
400.917	108.88
401.127	57.68
401.336	98.64
401.545	182.61
401.754	182.61
401.963	139.6
402.172	26.96
402.381	92.5
402.59	117.08
402.799	125.27
403.008	63.83
403.217	145.75
403.426	102.74
403.635	104.79
403.844	133.46
404.053	139.6
404.262	139.6
404.471	162.13
404.68	76.12
404.888	51.54
405.097	51.54
405.306	166.23
405.515	137.56
405.724	158.03
405.933	170.32
406.142	182.61
406.35	256.34
406.559	190.8
406.768	172.37
406.977	178.51
407.185	168.27
407.394	135.51
407.603	125.27
407.812	223.57
408.02	258.39
408.229	219.47
408.438	180.56
408.646	223.57
408.855	215.38
409.064	244.05
409.272	260.43
409.481	285.01
409.69	266.58
409.898	264.53
410.107	268.63
410.315	348.5
410.524	280.91
410.733	299.34
410.941	301.39
411.15	323.92
411.358	395.6
411.567	387.41
411.775	266.58
411.984	362.83
412.192	330.06
412.401	411.98
412.609	446.8
412.818	403.79
413.026	516.43
413.234	500.05
413.443	495.95
413.651	498
413.86	584.01
414.068	477.52
414.276	584.01
414.485	428.37
414.693	487.76
414.901	551.24
415.11	663.88
415.318	659.79
415.526	627.02
415.734	710.99
415.943	659.79
416.151	776.52
416.359	715.08
416.567	805.19
416.776	725.32
416.984	899.4
417.192	842.06
417.4	866.63
417.608	844.1
417.817	964.93
418.025	870.73
418.233	1024.33
418.441	911.69
418.649	1059.14
418.857	1036.61
419.065	1057.09
419.273	1077.57
419.481	1173.83
419.689	1188.16
419.897	1268.03
420.105	1335.62
420.313	1345.86
420.521	1456.45
420.729	1440.06
420.937	1511.74
421.145	1413.44
421.353	1569.09
421.561	1712.44
421.769	1714.49
421.977	1648.96
422.185	1888.57
422.393	1919.29
422.601	2042.17
422.809	1960.25
423.017	1907
423.224	2132.28
423.432	2076.98
423.64	2140.47
423.848	2468.14
424.056	2335.03
424.263	2410.8
424.471	2455.86
424.679	2494.77
424.887	2574.64
425.094	2677.04
425.302	2648.36
425.51	2847.02
425.718	2873.64
425.925	2988.33
426.133	3017
426.341	3287.33
426.548	3320.1
426.756	3402.02
426.964	3338.53
427.171	3594.53
427.379	3475.74
427.586	3733.79
427.794	3899.67
428.001	4008.22
428.209	4229.4
428.417	4157.72
428.624	4372.75
428.832	4483.34
429.039	4411.67
429.247	4370.71
429.454	4835.6
429.662	5132.55
429.869	4921.61
430.076	5146.89
430.284	4968.71
430.491	5228.81
430.699	5353.73
430.906	5558.53
431.114	5585.15
431.321	5810.43
431.528	5949.69
431.736	6260.98
431.943	6770.93
432.15	6328.56
432.358	6418.68
432.565	6732.01
432.772	6799.6
432.979	7022.83
433.187	7117.03
433.394	7336.17
433.601	7678.18
433.808	7995.61
434.016	7526.63
434.223	8327.38
434.43	8575.19
434.637	8423.64
434.844	8925.39
435.052	9078.99
435.259	8730.83
435.466	8990.92
435.673	8775.89
435.88	9556.16
436.087	9957.57
436.294	10172.6
436.501	9810.11
436.708	9957.57
436.915	10338.49
437.122	10938.54
437.329	10868.91
437.537	11012.27
437.743	11153.58
437.95	11360.42
438.157	11987.1
438.364	12124.32
438.571	12136.6
438.778	12185.76
438.985	13316.23
439.192	12671.12
439.399	13363.34
439.606	12783.76
439.813	13727.88
440.02	14397.56
440.227	14149.76
440.433	14043.26
440.64	14772.34
440.847	14606.45
441.054	14977.14
441.261	15788.13
441.467	15708.26
441.674	15904.87
441.881	16607.32
442.088	16441.43
442.294	16250.97
442.501	16781.4
442.708	16963.67
442.914	17889.35
443.121	18464.83
443.328	17877.06
443.534	19159.09
443.741	18640.95
443.948	18264.13
444.154	19632.17
444.361	19806.25
444.568	19800.1
444.774	19583.02
444.981	19740.71
445.187	20273.18
445.394	21350.42
445.6	21057.56
445.807	23568.37
446.013	22267.91
446.22	22566.91
446.426	23623.66
446.633	23582.7
446.839	24586.21
447.046	23500.78
447.252	24885.21
447.459	24737.76
447.665	24492
447.871	25558.99
448.078	26634.17
448.284	25583.57
448.491	26157
448.697	27092.92
448.903	27713.45
449.11	27867.05
449.316	27436.98
449.522	27578.29
449.728	28657.57
449.935	28571.55
450.141	29036.44
450.347	29427.6
450.553	28964.76
450.76	29063.07
450.966	29849.49
451.172	29427.6
451.378	30658.43
451.584	29761.42
451.791	30717.82
451.997	30447.49
452.203	31469.43
452.409	30963.58
452.615	30889.85
452.821	30029.71
453.027	29448.08
453.233	30873.47
453.44	29867.92
453.646	30236.55
453.852	30443.4
454.058	31098.75
454.264	29880.21
454.47	30621.57
454.676	30101.39
454.882	30678.91
455.088	28321.7
455.294	28594.08
455.5	29355.93
455.705	29523.86
455.911	28170.15
456.117	27871.15
456.323	27539.38
456.529	25913.29
456.735	27322.29
456.941	26875.84
457.147	26453.95
457.352	25436.11
457.558	24958.94
457.764	25448.4
457.97	24684.51
458.176	24008.68
458.381	24430.56
458.587	23156.72
458.793	23119.86
458.999	21966.85
459.204	23603.18
459.41	22757.37
459.616	21352.46
459.821	21315.6
460.027	21614.6
460.233	20719.64
460.438	19925.03
460.644	20215.84
460.85	19210.29
461.055	18788.41
461.261	18968.63
461.466	17526.86
461.672	16781.4
461.878	18030.66
462.083	16975.95
462.289	16767.06
462.494	16287.84
462.7	15839.33
462.905	15272.04
463.111	15831.14
463.316	15935.59
463.522	15145.07
463.727	15466.6
463.932	15431.79
464.138	15347.82
464.343	15478.89
464.549	15059.06
464.754	15353.96
464.959	15321.2
465.165	14983.28
465.37	14346.36
465.575	14090.37
465.781	14872.69
465.986	14547.06
466.191	14297.21
466.397	14049.41
466.602	13267.08
466.807	13557.89
467.012	13781.12
467.218	13817.99
467.423	13338.76
467.628	13363.34
467.833	14307.45
468.038	13482.12
