Data from USB4F104151__151__14-44-36-960.txt Node

Date: Thu Mar 13 14:44:36 EDT 2025
User: louis
Spectrometer: USB4F10415
Trigger mode: 4
Integration Time (sec): 2.000000E-2
Scans to average: 1
Electric dark correction enabled: true
Nonlinearity correction enabled: false
Boxcar width: 0
XAxis mode: Wavelengths
Number of Pixels in Spectrum: 3648
>>>>>Begin Spectral Data<<<<<
178.204	-104.11
178.424	-104.11
178.644	-104.11
178.864	-106.15
179.084	-59.05
179.304	43.35
179.524	-38.57
179.744	-79.53
179.964	-42.67
180.184	-30.38
180.404	63.83
180.624	14.68
180.844	47.44
181.064	-16.04
181.283	14.68
181.503	0.34
181.723	22.87
181.943	-13.99
182.163	108.88
182.383	47.44
182.602	-7.85
182.822	90.45
183.042	96.6
183.262	6.49
183.482	49.49
183.701	-3.75
183.921	63.83
184.141	-26.28
184.361	49.49
184.58	2.39
184.8	35.16
185.02	57.68
185.239	121.17
185.459	67.92
185.679	67.92
185.898	33.11
186.118	16.73
186.338	14.68
186.557	47.44
186.777	-18.09
186.997	26.96
187.216	-7.85
187.436	106.84
187.655	22.87
187.875	96.6
188.095	72.02
188.314	63.83
188.534	14.68
188.753	6.49
188.973	59.73
189.192	45.4
189.412	63.83
189.631	10.58
189.851	61.78
190.07	55.64
190.29	0.34
190.509	20.82
190.729	102.74
190.948	76.12
191.168	143.7
191.387	39.25
191.607	63.83
191.826	63.83
192.045	-18.09
192.265	39.25
192.484	35.16
192.704	47.44
192.923	49.49
193.142	22.87
193.362	31.06
193.581	4.44
193.8	57.68
194.02	35.16
194.239	16.73
194.458	39.25
194.678	-42.67
194.897	24.92
195.116	18.77
195.335	47.44
195.555	-48.81
195.774	10.58
195.993	108.88
196.212	63.83
196.432	-38.57
196.651	39.25
196.87	45.4
197.089	57.68
197.308	16.73
197.528	96.6
197.747	14.68
197.966	35.16
198.185	162.13
198.404	14.68
198.623	86.36
198.842	69.97
199.062	49.49
199.281	22.87
199.5	47.44
199.719	-13.99
199.938	-9.9
200.157	55.64
200.376	98.64
200.595	16.73
200.814	33.11
201.033	35.16
201.252	26.96
201.471	-59.05
201.69	-7.85
201.909	47.44
202.128	-24.23
202.347	72.02
202.566	88.4
202.785	37.2
203.004	14.68
203.223	115.03
203.442	76.12
203.661	10.58
203.879	65.88
204.098	88.4
204.317	106.84
204.536	-1.71
204.755	47.44
204.974	80.21
205.193	84.31
205.411	121.17
205.63	69.97
205.849	6.49
206.068	49.49
206.287	-7.85
206.505	80.21
206.724	22.87
206.943	14.68
207.162	31.06
207.381	-22.19
207.599	-16.04
207.818	53.59
208.037	8.53
208.255	74.07
208.474	2.39
208.693	125.27
208.911	67.92
209.13	-32.43
209.349	51.54
209.567	121.17
209.786	82.26
210.005	-9.9
210.223	6.49
210.442	-59.05
210.661	51.54
210.879	-1.71
211.098	41.3
211.316	10.58
211.535	72.02
211.753	47.44
211.972	16.73
212.191	18.77
212.409	72.02
212.628	33.11
212.846	-26.28
213.065	59.73
213.283	63.83
213.502	14.68
213.72	65.88
213.938	-48.81
214.157	69.97
214.375	55.64
214.594	14.68
214.812	49.49
215.031	-32.43
215.249	-20.14
215.467	-7.85
215.686	78.16
215.904	80.21
216.122	65.88
216.341	121.17
216.559	41.3
216.778	88.4
216.996	41.3
217.214	14.68
217.432	31.06
217.651	-20.14
217.869	39.25
218.087	59.73
218.306	31.06
218.524	59.73
218.742	47.44
218.96	65.88
219.179	16.73
219.397	90.45
219.615	137.56
219.833	14.68
220.051	8.53
220.27	57.68
220.488	37.2
220.706	96.6
220.924	-13.99
221.142	-42.67
221.36	49.49
221.578	29.01
221.796	63.83
222.015	65.88
222.233	22.87
222.451	39.25
222.669	-3.75
222.887	8.53
223.105	31.06
223.323	14.68
223.541	35.16
223.759	45.4
223.977	39.25
224.195	112.98
224.413	65.88
224.631	100.69
224.849	92.5
225.067	125.27
225.285	22.87
225.503	45.4
225.721	-48.81
225.939	80.21
226.157	16.73
226.375	170.32
226.592	-1.71
226.81	-5.8
227.028	39.25
227.246	72.02
227.464	-9.9
227.682	61.78
227.9	-13.99
228.117	59.73
228.335	59.73
228.553	22.87
228.771	8.53
228.989	80.21
229.206	0.34
229.424	53.59
229.642	14.68
229.86	-1.71
230.077	59.73
230.295	65.88
230.513	88.4
230.731	33.11
230.948	24.92
231.166	33.11
231.384	-18.09
231.601	41.3
231.819	92.5
232.037	22.87
232.254	-26.28
232.472	98.64
232.689	49.49
232.907	47.44
233.125	84.31
233.342	14.68
233.56	43.35
233.777	61.78
233.995	-20.14
234.213	74.07
234.43	47.44
234.648	2.39
234.865	0.34
235.083	51.54
235.3	-9.9
235.518	108.88
235.735	72.02
235.953	92.5
236.17	-5.8
236.388	24.92
236.605	2.39
236.822	47.44
237.04	51.54
237.257	2.39
237.475	8.53
237.692	14.68
237.909	10.58
238.127	-9.9
238.344	-30.38
238.562	-18.09
238.779	22.87
238.996	29.01
239.214	0.34
239.431	57.68
239.648	10.58
239.865	35.16
240.083	82.26
240.3	74.07
240.517	37.2
240.735	-7.85
240.952	10.58
241.169	41.3
241.386	137.56
241.603	31.06
241.821	37.2
242.038	31.06
242.255	-11.95
242.472	-42.67
242.689	59.73
242.907	57.68
243.124	63.83
243.341	31.06
243.558	92.5
243.775	-38.57
243.992	20.82
244.209	-20.14
244.426	137.56
244.643	29.01
244.86	0.34
245.078	41.3
245.295	24.92
245.512	-1.71
245.729	33.11
245.946	67.92
246.163	22.87
246.38	-16.04
246.597	24.92
246.814	22.87
247.031	49.49
247.248	-5.8
247.464	22.87
247.681	47.44
247.898	39.25
248.115	39.25
248.332	82.26
248.549	90.45
248.766	112.98
248.983	39.25
249.2	-18.09
249.417	88.4
249.633	-22.19
249.85	133.46
250.067	-67.24
250.284	39.25
250.501	72.02
250.717	82.26
250.934	-26.28
251.151	22.87
251.368	-1.71
251.585	80.21
251.801	35.16
252.018	80.21
252.235	49.49
252.451	14.68
252.668	-32.43
252.885	12.63
253.102	55.64
253.318	-18.09
253.535	59.73
253.752	55.64
253.968	-9.9
254.185	80.21
254.401	51.54
254.618	125.27
254.835	14.68
255.051	90.45
255.268	80.21
255.484	39.25
255.701	-1.71
255.917	47.44
256.134	69.97
256.351	49.49
256.567	6.49
256.784	47.44
257	12.63
257.217	63.83
257.433	49.49
257.65	41.3
257.866	82.26
258.082	-30.38
258.299	-54.95
258.515	80.21
258.732	-11.95
258.948	47.44
259.165	39.25
259.381	-18.09
259.597	63.83
259.814	-1.71
260.03	63.83
260.246	-38.57
260.463	24.92
260.679	67.92
260.895	-11.95
261.112	35.16
261.328	22.87
261.544	22.87
261.761	31.06
261.977	29.01
262.193	-9.9
262.409	90.45
262.626	63.83
262.842	43.35
263.058	-22.19
263.274	59.73
263.49	61.78
263.707	57.68
263.923	74.07
264.139	43.35
264.355	72.02
264.571	22.87
264.787	69.97
265.004	76.12
265.22	80.21
265.436	-42.67
265.652	29.01
265.868	55.64
266.084	31.06
266.3	26.96
266.516	-34.47
266.732	35.16
266.948	16.73
267.164	53.59
267.38	16.73
267.596	57.68
267.812	90.45
268.028	43.35
268.244	31.06
268.46	6.49
268.676	47.44
268.892	80.21
269.108	55.64
269.324	16.73
269.54	-5.8
269.756	39.25
269.972	10.58
270.188	39.25
270.403	47.44
270.619	55.64
270.835	33.11
271.051	29.01
271.267	39.25
271.483	57.68
271.698	104.79
271.914	57.68
272.13	41.3
272.346	24.92
272.562	-69.29
272.777	-18.09
272.993	55.64
273.209	47.44
273.425	37.2
273.64	55.64
273.856	49.49
274.072	88.4
274.287	-5.8
274.503	31.06
274.719	76.12
274.934	-1.71
275.15	18.77
275.366	82.26
275.581	-34.47
275.797	65.88
276.012	37.2
276.228	24.92
276.444	43.35
276.659	170.32
276.875	-1.71
277.09	29.01
277.306	-28.33
277.521	86.36
277.737	22.87
277.952	47.44
278.168	98.64
278.383	133.46
278.599	43.35
278.814	16.73
279.03	108.88
279.245	106.84
279.461	67.92
279.676	31.06
279.892	59.73
280.107	14.68
280.322	-16.04
280.538	22.87
280.753	0.34
280.969	57.68
281.184	31.06
281.399	84.31
281.615	2.39
281.83	55.64
282.045	24.92
282.26	119.12
282.476	43.35
282.691	115.03
282.906	-16.04
283.122	51.54
283.337	2.39
283.552	72.02
283.767	-46.76
283.983	125.27
284.198	35.16
284.413	59.73
284.628	-32.43
284.843	14.68
285.058	57.68
285.274	55.64
285.489	-16.04
285.704	72.02
285.919	90.45
286.134	16.73
286.349	121.17
286.564	14.68
286.779	41.3
286.995	31.06
287.21	33.11
287.425	31.06
287.64	49.49
287.855	37.2
288.07	31.06
288.285	59.73
288.5	88.4
288.715	84.31
288.93	0.34
289.145	22.87
289.36	49.49
289.575	112.98
289.79	92.5
290.004	108.88
290.219	61.78
290.434	31.06
290.649	35.16
290.864	-18.09
291.079	80.21
291.294	22.87
291.509	74.07
291.724	104.79
291.938	-16.04
292.153	6.49
292.368	51.54
292.583	41.3
292.798	57.68
293.012	104.79
293.227	33.11
293.442	-54.95
293.657	90.45
293.871	145.75
294.086	112.98
294.301	125.27
294.516	63.83
294.73	84.31
294.945	-1.71
295.16	-9.9
295.374	6.49
295.589	72.02
295.804	31.06
296.018	55.64
296.233	100.69
296.447	51.54
296.662	84.31
296.877	96.6
297.091	80.21
297.306	82.26
297.52	-24.23
297.735	53.59
297.949	82.26
298.164	115.03
298.378	24.92
298.593	41.3
298.807	-9.9
299.022	90.45
299.236	39.25
299.451	47.44
299.665	43.35
299.88	2.39
300.094	57.68
300.309	-3.75
300.523	59.73
300.737	84.31
300.952	0.34
301.166	43.35
301.381	-1.71
301.595	31.06
301.809	51.54
302.024	96.6
302.238	-59.05
302.452	102.74
302.667	72.02
302.881	100.69
303.095	41.3
303.309	121.17
303.524	18.77
303.738	-18.09
303.952	0.34
304.166	49.49
304.381	-16.04
304.595	63.83
304.809	6.49
305.023	39.25
305.237	6.49
305.452	41.3
305.666	16.73
305.88	74.07
306.094	119.12
306.308	63.83
306.522	115.03
306.736	39.25
306.95	82.26
307.164	14.68
307.379	-9.9
307.593	117.08
307.807	82.26
308.021	74.07
308.235	18.77
308.449	45.4
308.663	72.02
308.877	96.6
309.091	0.34
309.305	84.31
309.519	-22.19
309.733	14.68
309.947	22.87
310.161	47.44
310.374	33.11
310.588	104.79
310.802	-7.85
311.016	45.4
311.23	65.88
311.444	-1.71
311.658	18.77
311.872	14.68
312.085	10.58
312.299	43.35
312.513	63.83
312.727	72.02
312.941	-9.9
313.154	41.3
313.368	24.92
313.582	35.16
313.796	51.54
314.009	88.4
314.223	47.44
314.437	10.58
314.651	67.92
314.864	0.34
315.078	33.11
315.292	18.77
315.505	6.49
315.719	-5.8
315.933	22.87
316.146	-9.9
316.36	22.87
316.573	90.45
316.787	-67.24
317.001	39.25
317.214	8.53
317.428	92.5
317.641	-5.8
317.855	88.4
318.068	92.5
318.282	63.83
318.495	74.07
318.709	-22.19
318.922	-34.47
319.136	76.12
319.349	20.82
319.563	47.44
319.776	26.96
319.99	84.31
320.203	35.16
320.417	67.92
320.63	41.3
320.843	69.97
321.057	39.25
321.27	59.73
321.483	88.4
321.697	88.4
321.91	49.49
322.124	55.64
322.337	-11.95
322.55	-16.04
322.763	-16.04
322.977	39.25
323.19	-1.71
323.403	-1.71
323.617	84.31
323.83	63.83
324.043	-7.85
324.256	22.87
324.469	10.58
324.683	76.12
324.896	80.21
325.109	67.92
325.322	37.2
325.535	74.07
325.748	49.49
325.962	10.58
326.175	108.88
326.388	94.55
326.601	47.44
326.814	41.3
327.027	33.11
327.24	92.5
327.453	0.34
327.666	0.34
327.879	10.58
328.092	131.41
328.305	12.63
328.518	-32.43
328.731	53.59
328.944	49.49
329.157	108.88
329.37	-38.57
329.583	39.25
329.796	-34.47
330.009	-77.48
330.222	88.4
330.435	-18.09
330.648	41.3
330.861	43.35
331.073	98.64
331.286	24.92
331.499	47.44
331.712	-26.28
331.925	41.3
332.138	110.93
332.35	96.6
332.563	98.64
332.776	88.4
332.989	47.44
333.202	80.21
333.414	39.25
333.627	29.01
333.84	22.87
334.053	74.07
334.265	88.4
334.478	80.21
334.691	53.59
334.903	55.64
335.116	26.96
335.329	35.16
335.541	55.64
335.754	88.4
335.966	16.73
336.179	55.64
336.392	143.7
336.604	-40.62
336.817	51.54
337.029	43.35
337.242	55.64
337.454	98.64
337.667	12.63
337.88	96.6
338.092	35.16
338.305	-24.23
338.517	31.06
338.729	53.59
338.942	65.88
339.154	82.26
339.367	12.63
339.579	55.64
339.792	10.58
340.004	37.2
340.217	-34.47
340.429	86.36
340.641	53.59
340.854	-1.71
341.066	24.92
341.278	88.4
341.491	78.16
341.703	-48.81
341.915	-5.8
342.128	55.64
342.34	39.25
342.552	90.45
342.764	63.83
342.977	33.11
343.189	49.49
343.401	88.4
343.613	49.49
343.826	51.54
344.038	-30.38
344.25	45.4
344.462	94.55
344.674	39.25
344.886	35.16
345.099	14.68
345.311	24.92
345.523	2.39
345.735	18.77
345.947	39.25
346.159	16.73
346.371	67.92
346.583	20.82
346.795	153.94
347.007	-9.9
347.219	137.56
347.431	-57
347.643	31.06
347.855	22.87
348.067	63.83
348.279	-9.9
348.491	63.83
348.703	12.63
348.915	22.87
349.127	96.6
349.339	37.2
349.551	-1.71
349.763	18.77
349.975	20.82
350.187	33.11
350.399	16.73
350.61	72.02
350.822	92.5
351.034	55.64
351.246	24.92
351.458	33.11
351.669	80.21
351.881	4.44
352.093	45.4
352.305	39.25
352.517	92.5
352.728	100.69
352.94	26.96
353.152	127.32
353.363	20.82
353.575	33.11
353.787	94.55
353.999	88.4
354.21	57.68
354.422	33.11
354.633	104.79
354.845	41.3
355.057	80.21
355.268	8.53
355.48	49.49
355.692	4.44
355.903	47.44
356.115	80.21
356.326	31.06
356.538	92.5
356.749	-26.28
356.961	82.26
357.172	43.35
357.384	22.87
357.595	90.45
357.807	8.53
358.018	47.44
358.23	-16.04
358.441	59.73
358.653	51.54
358.864	12.63
359.075	-36.52
359.287	115.03
359.498	67.92
359.709	-38.57
359.921	104.79
360.132	43.35
360.344	63.83
360.555	-75.43
360.766	80.21
360.977	55.64
361.189	98.64
361.4	29.01
361.611	88.4
361.823	20.82
362.034	63.83
362.245	14.68
362.456	55.64
362.667	145.75
362.879	49.49
363.09	55.64
363.301	55.64
363.512	47.44
363.723	-7.85
363.935	35.16
364.146	88.4
364.357	47.44
364.568	-11.95
364.779	84.31
364.99	102.74
365.201	69.97
365.412	67.92
365.623	18.77
365.834	82.26
366.045	43.35
366.256	63.83
366.467	10.58
366.678	117.08
366.889	45.4
367.1	8.53
367.311	43.35
367.522	49.49
367.733	59.73
367.944	90.45
368.155	41.3
368.366	82.26
368.577	22.87
368.788	90.45
368.999	43.35
369.209	74.07
369.42	82.26
369.631	63.83
369.842	96.6
370.053	6.49
370.264	43.35
370.474	-18.09
370.685	84.31
370.896	2.39
371.107	72.02
371.317	53.59
371.528	55.64
371.739	51.54
371.95	53.59
372.16	88.4
372.371	55.64
372.582	2.39
372.792	96.6
373.003	2.39
373.214	43.35
373.424	102.74
373.635	-40.62
373.846	47.44
374.056	22.87
374.267	76.12
374.477	72.02
374.688	67.92
374.898	33.11
375.109	55.64
375.319	129.36
375.53	65.88
375.74	74.07
375.951	16.73
376.161	106.84
376.372	51.54
376.582	47.44
376.793	59.73
377.003	94.55
377.214	14.68
377.424	55.64
377.635	14.68
377.845	-1.71
378.055	98.64
378.266	47.44
378.476	49.49
378.686	141.65
378.897	39.25
379.107	47.44
379.317	43.35
379.528	-3.75
379.738	49.49
379.948	-24.23
380.158	14.68
380.369	47.44
380.579	57.68
380.789	18.77
380.999	125.27
381.21	80.21
381.42	133.46
381.63	12.63
381.84	57.68
382.05	74.07
382.261	57.68
382.471	80.21
382.681	31.06
382.891	145.75
383.101	96.6
383.311	2.39
383.521	22.87
383.731	33.11
383.941	76.12
384.151	76.12
384.361	72.02
384.571	43.35
384.781	106.84
384.991	139.6
385.201	117.08
385.411	104.79
385.621	47.44
385.831	49.49
386.041	82.26
386.251	45.4
386.461	143.7
386.671	72.02
386.881	10.58
387.091	90.45
387.301	55.64
387.511	47.44
387.72	67.92
387.93	24.92
388.14	80.21
388.35	31.06
388.56	12.63
388.769	43.35
388.979	88.4
389.189	31.06
389.399	102.74
389.609	24.92
389.818	51.54
390.028	-1.71
390.238	26.96
390.447	49.49
390.657	65.88
390.867	92.5
391.076	33.11
391.286	88.4
391.496	29.01
391.705	90.45
391.915	94.55
392.125	117.08
392.334	67.92
392.544	129.36
392.753	72.02
392.963	14.68
393.172	104.79
393.382	35.16
393.591	96.6
393.801	51.54
394.01	96.6
394.22	92.5
394.429	31.06
394.639	82.26
394.848	43.35
395.058	131.41
395.267	63.83
395.477	55.64
395.686	133.46
395.895	80.21
396.105	96.6
396.314	108.88
396.524	55.64
396.733	88.4
396.942	14.68
397.152	112.98
397.361	123.22
397.57	43.35
397.78	123.22
397.989	96.6
398.198	160.08
398.407	125.27
398.617	135.51
398.826	65.88
399.035	104.79
399.244	94.55
399.453	88.4
399.663	145.75
399.872	112.98
400.081	121.17
400.29	166.23
400.499	49.49
400.708	49.49
400.917	145.75
401.127	96.6
401.336	57.68
401.545	129.36
401.754	149.84
401.963	121.17
402.172	59.73
402.381	90.45
402.59	63.83
402.799	69.97
403.008	153.94
403.217	145.75
403.426	127.32
403.635	84.31
403.844	65.88
404.053	141.65
404.262	84.31
404.471	190.8
404.68	72.02
404.888	96.6
405.097	100.69
405.306	98.64
405.515	178.51
405.724	158.03
405.933	129.36
406.142	133.46
406.35	252.24
406.559	190.8
406.768	149.84
406.977	198.99
407.185	180.56
407.394	149.84
407.603	174.42
407.812	117.08
408.02	196.95
408.229	186.71
408.438	172.37
408.646	170.32
408.855	147.8
409.064	223.57
409.272	227.67
409.481	270.67
409.69	293.2
409.898	205.14
410.107	328.02
410.315	258.39
410.524	225.62
410.733	237.91
410.941	272.72
411.15	336.21
411.358	293.2
411.567	436.56
411.775	323.92
411.984	391.5
412.192	338.26
412.401	285.01
412.609	418.13
412.818	426.32
413.026	356.69
413.234	457.04
413.443	375.12
413.651	409.94
413.86	457.04
414.068	465.23
414.276	473.42
414.485	465.23
414.693	571.72
414.901	530.77
415.11	559.44
415.318	555.34
415.526	549.2
415.734	606.54
415.943	596.3
416.151	661.84
416.359	565.58
416.567	717.13
416.776	747.85
416.984	780.62
417.192	842.06
417.4	719.18
417.608	774.47
417.817	821.58
418.025	844.1
418.233	971.08
418.441	895.3
418.649	899.4
418.857	977.22
419.065	1044.81
419.273	1016.13
419.481	1026.37
419.689	1124.68
419.897	1120.58
420.105	1091.91
420.313	1294.66
420.521	1288.51
420.729	1243.46
420.937	1294.66
421.145	1403.2
421.353	1438.02
421.561	1444.16
421.769	1632.57
421.977	1546.56
422.185	1603.9
422.393	1622.33
422.601	1763.64
422.809	1759.55
423.017	1863.99
423.224	1800.51
423.432	1939.77
423.64	1915.19
423.848	2165.04
424.056	2048.31
424.263	2244.92
424.471	2226.48
424.679	2261.3
424.887	2408.75
425.094	2408.75
425.302	2402.61
425.51	2519.34
425.718	2533.68
425.925	2791.72
426.133	2660.65
426.341	2900.27
426.548	2941.22
426.756	3029.29
426.964	3031.34
427.171	3195.17
427.379	3342.63
427.586	3250.47
427.794	3373.35
428.001	3647.77
428.209	3811.61
428.417	3795.23
428.624	3963.16
428.832	3987.74
429.039	4016.41
429.247	3965.21
429.454	4251.92
429.662	4577.55
429.869	4389.14
430.076	4634.89
430.284	4426
430.491	4698.38
430.699	4921.61
430.906	4948.23
431.114	4907.27
431.321	5251.33
431.528	5071.11
431.736	5536
431.943	5980.41
432.15	5708.03
432.358	5912.83
432.565	6068.47
432.772	5986.55
432.979	6347
433.187	6516.98
433.394	6410.48
433.601	6801.65
433.808	7039.21
434.016	6916.33
434.223	7241.96
434.43	7674.08
434.637	7502.05
434.844	8114.39
435.052	8016.09
435.259	7930.08
435.466	8257.75
435.673	8009.95
435.88	8503.51
436.087	9050.32
436.294	9056.46
436.501	8808.65
436.708	8988.88
436.915	9289.93
437.122	9509.06
437.329	9681.09
437.537	9763.01
437.743	10197.18
437.95	9969.85
438.157	10614.96
438.364	10780.85
438.571	10764.47
438.778	11135.15
438.985	11964.57
439.192	11507.88
439.399	11655.33
439.606	11667.62
439.813	12335.26
440.02	13066.38
440.227	12845.2
440.433	12646.55
440.64	13043.85
440.847	12867.73
441.054	13455.5
441.261	14346.36
441.467	14094.46
441.674	14258.3
441.881	14889.07
442.088	14852.21
442.294	14780.53
442.501	14977.14
442.708	15323.24
442.914	15859.81
443.121	16572.5
443.328	16064.61
443.534	17199.18
443.741	16703.57
443.948	16599.13
444.154	17799.24
444.361	17578.06
444.568	17881.16
444.774	17885.25
444.981	18083.91
445.187	18528.31
445.394	19253.3
445.6	18784.31
445.807	20977.69
446.013	20080.67
446.22	20402.21
446.426	21194.77
446.633	21198.87
446.839	22286.34
447.046	21231.63
447.252	22364.16
447.459	22218.75
447.665	22083.59
447.871	23003.13
448.078	24535.01
448.284	23060.47
448.491	23982.06
448.697	24780.76
448.903	25163.73
449.11	25303
449.316	25044.95
449.522	25210.84
449.728	26277.83
449.935	26144.71
450.141	26161.09
450.347	26929.08
450.553	25974.73
450.76	26535.87
450.966	27142.07
451.172	27019.19
451.378	27424.69
451.584	27164.6
451.791	27473.84
451.997	27971.5
452.203	28217.25
452.409	28151.72
452.615	28184.49
452.821	27008.95
453.027	26564.54
453.233	28381.09
453.44	27156.41
453.646	27570.1
453.852	27572.14
454.058	28008.36
454.264	27185.08
454.47	27711.41
454.676	26816.44
454.882	27834.28
455.088	25341.91
455.294	26046.41
455.5	26472.39
455.705	27011
455.911	25681.87
456.117	25307.09
456.323	25047
456.529	23730.16
456.735	24727.52
456.941	23867.37
457.147	23594.99
457.352	22915.06
457.558	22626.3
457.764	22802.43
457.97	22372.35
458.176	21915.65
458.381	22024.2
458.587	20979.73
458.793	20957.21
458.999	19761.19
459.204	21348.37
459.41	20545.56
459.616	19279.92
459.821	19132.47
460.027	19355.69
460.233	18995.25
460.438	17897.54
460.644	18315.33
460.85	17244.24
461.055	17080.4
461.261	17186.9
461.466	15827.04
461.672	15206.51
461.878	16332.89
462.083	14989.42
462.289	15044.72
462.494	14921.84
462.7	14395.51
462.905	13719.68
463.111	14289.02
463.316	14153.85
463.522	13904
463.727	14071.93
463.932	13877.38
464.138	13631.62
464.343	13987.97
464.549	13594.76
464.754	13977.73
464.959	13879.43
465.165	13826.18
465.37	13162.64
465.575	12675.22
465.781	13326.47
465.986	13195.4
466.191	12916.88
466.397	12425.37
466.602	12116.12
466.807	12615.83
467.012	12335.26
467.218	12402.84
467.423	12155.04
467.628	12255.39
467.833	12800.15
468.038	12329.11
468.244	12204.19
