Data from USB4F104151__312__14-46-45-270.txt Node

Date: Thu Mar 13 14:46:45 EDT 2025
User: louis
Spectrometer: USB4F10415
Trigger mode: 4
Integration Time (sec): 2.000000E-2
Scans to average: 1
Electric dark correction enabled: true
Nonlinearity correction enabled: false
Boxcar width: 0
XAxis mode: Wavelengths
Number of Pixels in Spectrum: 3648
>>>>>Begin Spectral Data<<<<<
178.204	-122.37
178.424	-122.37
178.644	-122.37
178.864	-171.52
179.084	-105.98
179.304	8.7
179.524	-42.5
179.744	31.23
179.964	37.38
180.184	-48.64
180.404	35.33
180.624	-38.4
180.844	25.09
181.064	23.04
181.283	-7.68
181.503	-24.06
181.723	0.51
181.943	-48.64
182.163	115.2
182.383	2.56
182.602	61.95
182.822	70.14
183.042	25.09
183.262	45.57
183.482	25.09
183.701	16.9
183.921	57.86
184.141	41.47
184.361	90.62
184.58	27.14
184.8	43.52
185.02	-36.35
185.239	25.09
185.459	-32.26
185.679	123.39
185.898	0.51
186.118	45.57
186.338	-13.82
186.557	51.71
186.777	-32.26
186.997	-42.5
187.216	47.62
187.436	74.24
187.655	-7.68
187.875	37.38
188.095	16.9
188.314	4.61
188.534	82.43
188.753	47.62
188.973	25.09
189.192	109.05
189.412	37.38
189.631	-3.58
189.851	49.66
190.07	123.39
190.29	0.51
190.509	20.99
190.729	14.85
190.948	45.57
191.168	102.91
191.387	33.28
191.607	18.94
191.826	8.7
192.045	37.38
192.265	-58.88
192.484	78.33
192.704	2.56
192.923	-7.68
193.142	164.35
193.362	-22.02
193.581	139.77
193.8	-65.02
194.02	66.05
194.239	0.51
194.458	98.81
194.678	-3.58
194.897	59.9
195.116	55.81
195.335	96.77
195.555	104.96
195.774	86.53
195.993	57.86
196.212	0.51
196.432	53.76
196.651	8.7
196.87	51.71
197.089	41.47
197.308	61.95
197.528	68.09
197.747	27.14
197.966	72.19
198.185	104.96
198.404	-7.68
198.623	-17.92
198.842	4.61
199.062	23.04
199.281	45.57
199.5	47.62
199.719	16.9
199.938	45.57
200.157	84.48
200.376	55.81
200.595	115.2
200.814	-34.3
201.033	16.9
201.252	90.62
201.471	2.56
201.69	107.01
201.909	16.9
202.128	98.81
202.347	66.05
202.566	33.28
202.785	20.99
203.004	-110.08
203.223	84.48
203.442	-15.87
203.661	25.09
203.879	84.48
204.098	-5.63
204.317	18.94
204.536	90.62
204.755	0.51
204.974	-48.64
205.193	23.04
205.411	41.47
205.63	33.28
205.849	49.66
206.068	37.38
206.287	41.47
206.505	25.09
206.724	18.94
206.943	78.33
207.162	-30.21
207.381	53.76
207.599	70.14
207.818	51.71
208.037	14.85
208.255	-7.68
208.474	53.76
208.693	-3.58
208.911	59.9
209.13	64
209.349	16.9
209.567	94.72
209.786	35.33
210.005	74.24
210.223	0.51
210.442	25.09
210.661	33.28
210.879	57.86
211.098	23.04
211.316	131.58
211.535	66.05
211.753	8.7
211.972	-11.78
212.191	35.33
212.409	45.57
212.628	49.66
212.846	20.99
213.065	59.9
213.283	82.43
213.502	-9.73
213.72	10.75
213.938	-5.63
214.157	37.38
214.375	-44.54
214.594	29.18
214.812	84.48
215.031	37.38
215.249	-5.63
215.467	68.09
215.686	25.09
215.904	35.33
216.122	16.9
216.341	92.67
216.559	25.09
216.778	-32.26
216.996	66.05
217.214	-7.68
217.432	43.52
217.651	16.9
217.869	59.9
218.087	-30.21
218.306	23.04
218.524	33.28
218.742	25.09
218.96	90.62
219.179	47.62
219.397	68.09
219.615	45.57
219.833	10.75
220.051	-42.5
220.27	43.52
220.488	74.24
220.706	25.09
220.924	66.05
221.142	33.28
221.36	37.38
221.578	92.67
221.796	66.05
222.015	20.99
222.233	-87.55
222.451	57.86
222.669	25.09
222.887	18.94
223.105	-40.45
223.323	100.86
223.541	82.43
223.759	16.9
223.977	27.14
224.195	117.25
224.413	25.09
224.631	78.33
224.849	18.94
225.067	64
225.285	-15.87
225.503	18.94
225.721	66.05
225.939	66.05
226.157	-46.59
226.375	123.39
226.592	70.14
226.81	6.66
227.028	12.8
227.246	119.29
227.464	51.71
227.682	51.71
227.9	119.29
228.117	64
228.335	-38.4
228.553	14.85
228.771	94.72
228.989	39.42
229.206	-85.5
229.424	35.33
229.642	-38.4
229.86	2.56
230.077	49.66
230.295	33.28
230.513	0.51
230.731	66.05
230.948	25.09
231.166	111.1
231.384	0.51
231.601	49.66
231.819	0.51
232.037	2.56
232.254	-56.83
232.472	47.62
232.689	41.47
232.907	49.66
233.125	-48.64
233.342	14.85
233.56	12.8
233.777	-3.58
233.995	27.14
234.213	80.38
234.43	-13.82
234.648	0.51
234.865	49.66
235.083	115.2
235.3	8.7
235.518	70.14
235.735	47.62
235.953	113.15
236.17	45.57
236.388	82.43
236.605	-30.21
236.822	20.99
237.04	51.71
237.257	82.43
237.475	-15.87
237.692	27.14
237.909	0.51
238.127	43.52
238.344	-19.97
238.562	72.19
238.779	-1.54
238.996	8.7
239.214	45.57
239.431	37.38
239.648	-7.68
239.865	64
240.083	35.33
240.3	33.28
240.517	-24.06
240.735	25.09
240.952	49.66
241.169	107.01
241.386	16.9
241.603	0.51
241.821	4.61
242.038	27.14
242.255	74.24
242.472	-32.26
242.689	33.28
242.907	143.87
243.124	61.95
243.341	18.94
243.558	33.28
243.775	51.71
243.992	8.7
244.209	102.91
244.426	117.25
244.643	18.94
244.86	53.76
245.078	49.66
245.295	0.51
245.512	66.05
245.729	8.7
245.946	109.05
246.163	10.75
246.38	18.94
246.597	18.94
246.814	35.33
247.031	16.9
247.248	74.24
247.464	-9.73
247.681	102.91
247.898	49.66
248.115	-15.87
248.332	43.52
248.549	-11.78
248.766	-7.68
248.983	31.23
249.2	43.52
249.417	-17.92
249.633	-9.73
249.85	41.47
250.067	16.9
250.284	41.47
250.501	66.05
250.717	49.66
250.934	51.71
251.151	-15.87
251.368	59.9
251.585	53.76
251.801	12.8
252.018	98.81
252.235	45.57
252.451	-30.21
252.668	-7.68
252.885	33.28
253.102	10.75
253.318	-15.87
253.535	37.38
253.752	57.86
253.968	-11.78
254.185	49.66
254.401	25.09
254.618	82.43
254.835	25.09
255.051	107.01
255.268	0.51
255.484	33.28
255.701	41.47
255.917	33.28
256.134	-19.97
256.351	16.9
256.567	66.05
256.784	-24.06
257	25.09
257.217	53.76
257.433	66.05
257.65	12.8
257.866	10.75
258.082	4.61
258.299	-32.26
258.515	20.99
258.732	16.9
258.948	49.66
259.165	76.29
259.381	31.23
259.597	57.86
259.814	-13.82
260.03	-3.58
260.246	82.43
260.463	57.86
260.679	8.7
260.895	57.86
261.112	59.9
261.328	33.28
261.544	20.99
261.761	59.9
261.977	0.51
262.193	-26.11
262.409	4.61
262.626	109.05
262.842	-5.63
263.058	-22.02
263.274	107.01
263.49	27.14
263.707	-7.68
263.923	109.05
264.139	-48.64
264.355	51.71
264.571	51.71
264.787	25.09
265.004	74.24
265.22	20.99
265.436	16.9
265.652	39.42
265.868	94.72
266.084	18.94
266.3	37.38
266.516	-22.02
266.732	33.28
266.948	66.05
267.164	37.38
267.38	10.75
267.596	0.51
267.812	41.47
268.028	25.09
268.244	27.14
268.46	0.51
268.676	-1.54
268.892	86.53
269.108	-24.06
269.324	33.28
269.54	-19.97
269.756	43.52
269.972	-13.82
270.188	18.94
270.403	35.33
270.619	39.42
270.835	45.57
271.051	31.23
271.267	16.9
271.483	2.56
271.698	57.86
271.914	82.43
272.13	-38.4
272.346	43.52
272.562	-30.21
272.777	84.48
272.993	82.43
273.209	35.33
273.425	29.18
273.64	-32.26
273.856	29.18
274.072	18.94
274.287	31.23
274.503	51.71
274.719	-15.87
274.934	-3.58
275.15	39.42
275.366	51.71
275.581	-56.83
275.797	82.43
276.012	20.99
276.228	-40.45
276.444	51.71
276.659	45.57
276.875	25.09
277.09	-13.82
277.306	59.9
277.521	84.48
277.737	55.81
277.952	41.47
278.168	66.05
278.383	37.38
278.599	59.9
278.814	29.18
279.03	57.86
279.245	27.14
279.461	74.24
279.676	59.9
279.892	49.66
280.107	100.86
280.322	-79.36
280.538	-3.58
280.753	10.75
280.969	33.28
281.184	100.86
281.399	78.33
281.615	45.57
281.83	41.47
282.045	-30.21
282.26	-32.26
282.476	-42.5
282.691	66.05
282.906	12.8
283.122	12.8
283.337	-11.78
283.552	-7.68
283.767	-7.68
283.983	43.52
284.198	76.29
284.413	25.09
284.628	-69.12
284.843	41.47
285.058	18.94
285.274	-7.68
285.489	6.66
285.704	25.09
285.919	10.75
286.134	27.14
286.349	86.53
286.564	33.28
286.779	12.8
286.995	131.58
287.21	20.99
287.425	-3.58
287.64	51.71
287.855	55.81
288.07	-32.26
288.285	57.86
288.5	39.42
288.715	23.04
288.93	12.8
289.145	49.66
289.36	70.14
289.575	47.62
289.79	25.09
290.004	35.33
290.219	59.9
290.434	47.62
290.649	43.52
290.864	16.9
291.079	-11.78
291.294	82.43
291.509	45.57
291.724	29.18
291.938	-24.06
292.153	51.71
292.368	31.23
292.583	-3.58
292.798	25.09
293.012	47.62
293.227	90.62
293.442	-28.16
293.657	59.9
293.871	59.9
294.086	-40.45
294.301	57.86
294.516	16.9
294.73	78.33
294.945	12.8
295.16	68.09
295.374	66.05
295.589	66.05
295.804	-3.58
296.018	-32.26
296.233	102.91
296.447	33.28
296.662	18.94
296.877	61.95
297.091	12.8
297.306	33.28
297.52	76.29
297.735	49.66
297.949	2.56
298.164	43.52
298.378	82.43
298.593	-36.35
298.807	43.52
299.022	100.86
299.236	94.72
299.451	-15.87
299.665	68.09
299.88	0.51
300.094	74.24
300.309	35.33
300.523	10.75
300.737	-40.45
300.952	102.91
301.166	119.29
301.381	74.24
301.595	43.52
301.809	-54.78
302.024	12.8
302.238	68.09
302.452	88.57
302.667	-65.02
302.881	45.57
303.095	57.86
303.309	4.61
303.524	10.75
303.738	37.38
303.952	-3.58
304.166	25.09
304.381	-60.93
304.595	49.66
304.809	70.14
305.023	102.91
305.237	14.85
305.452	37.38
305.666	82.43
305.88	125.44
306.094	53.76
306.308	68.09
306.522	16.9
306.736	8.7
306.95	109.05
307.164	18.94
307.379	82.43
307.593	123.39
307.807	49.66
308.021	61.95
308.235	156.16
308.449	-32.26
308.663	-15.87
308.877	180.73
309.091	-5.63
309.305	57.86
309.519	18.94
309.733	0.51
309.947	68.09
310.161	66.05
310.374	82.43
310.588	55.81
310.802	27.14
311.016	45.57
311.23	-46.59
311.444	-30.21
311.658	8.7
311.872	49.66
312.085	45.57
312.299	102.91
312.513	25.09
312.727	29.18
312.941	-38.4
313.154	-7.68
313.368	102.91
313.582	35.33
313.796	49.66
314.009	18.94
314.223	96.77
314.437	25.09
314.651	100.86
314.864	27.14
315.078	27.14
315.292	35.33
315.505	29.18
315.719	4.61
315.933	12.8
316.146	-19.97
316.36	61.95
316.573	45.57
316.787	57.86
317.001	61.95
317.214	-52.74
317.428	43.52
317.641	4.61
317.855	18.94
318.068	33.28
318.282	16.9
318.495	35.33
318.709	84.48
318.922	31.23
319.136	59.9
319.349	25.09
319.563	-46.59
319.776	12.8
319.99	43.52
320.203	107.01
320.417	82.43
320.63	2.56
320.843	82.43
321.057	55.81
321.27	33.28
321.483	43.52
321.697	164.35
321.91	94.72
322.124	78.33
322.337	57.86
322.55	23.04
322.763	41.47
322.977	-19.97
323.19	57.86
323.403	33.28
323.617	25.09
323.83	51.71
324.043	31.23
324.256	33.28
324.469	37.38
324.683	18.94
324.896	20.99
325.109	18.94
325.322	-50.69
325.535	16.9
325.748	47.62
325.962	8.7
326.175	57.86
326.388	-7.68
326.601	70.14
326.814	53.76
327.027	84.48
327.24	33.28
327.453	12.8
327.666	-24.06
327.879	53.76
328.092	47.62
328.305	86.53
328.518	0.51
328.731	80.38
328.944	45.57
329.157	12.8
329.37	51.71
329.583	102.91
329.796	51.71
330.009	-32.26
330.222	86.53
330.435	107.01
330.648	16.9
330.861	49.66
331.073	84.48
331.286	96.77
331.499	-54.78
331.712	-38.4
331.925	43.52
332.138	76.29
332.35	-15.87
332.563	25.09
332.776	111.1
332.989	4.61
333.202	-28.16
333.414	31.23
333.627	16.9
333.84	-22.02
334.053	115.2
334.265	29.18
334.478	80.38
334.691	10.75
334.903	-13.82
335.116	-1.54
335.329	70.14
335.541	57.86
335.754	109.05
335.966	37.38
336.179	23.04
336.392	33.28
336.604	119.29
336.817	90.62
337.029	16.9
337.242	45.57
337.454	10.75
337.667	4.61
337.88	59.9
338.092	82.43
338.305	74.24
338.517	76.29
338.729	72.19
338.942	66.05
339.154	-24.06
339.367	33.28
339.579	18.94
339.792	86.53
340.004	43.52
340.217	27.14
340.429	98.81
340.641	41.47
340.854	90.62
341.066	16.9
341.278	29.18
341.491	39.42
341.703	131.58
341.915	16.9
342.128	-15.87
342.34	49.66
342.552	92.67
342.764	35.33
342.977	18.94
343.189	18.94
343.401	33.28
343.613	14.85
343.826	53.76
344.038	-44.54
344.25	78.33
344.462	31.23
344.674	61.95
344.886	18.94
345.099	66.05
345.311	74.24
345.523	39.42
345.735	20.99
345.947	61.95
346.159	43.52
346.371	14.85
346.583	20.99
346.795	133.63
347.007	49.66
347.219	92.67
347.431	8.7
347.643	57.86
347.855	76.29
348.067	70.14
348.279	-15.87
348.491	45.57
348.703	33.28
348.915	27.14
349.127	12.8
349.339	43.52
349.551	-19.97
349.763	109.05
349.975	2.56
350.187	123.39
350.399	20.99
350.61	98.81
350.822	-15.87
351.034	98.81
351.246	123.39
351.458	64
351.669	162.3
351.881	16.9
352.093	59.9
352.305	123.39
352.517	45.57
352.728	109.05
352.94	10.75
353.152	-5.63
353.363	0.51
353.575	10.75
353.787	80.38
353.999	115.2
354.21	-3.58
354.422	100.86
354.633	49.66
354.845	29.18
355.057	88.57
355.268	66.05
355.48	66.05
355.692	4.61
355.903	33.28
356.115	25.09
356.326	117.25
356.538	94.72
356.749	25.09
356.961	25.09
357.172	47.62
357.384	49.66
357.595	139.77
357.807	31.23
358.018	2.56
358.23	-22.02
358.441	49.66
358.653	100.86
358.864	68.09
359.075	10.75
359.287	127.49
359.498	90.62
359.709	74.24
359.921	12.8
360.132	33.28
360.344	74.24
360.555	76.29
360.766	-19.97
360.977	27.14
361.189	43.52
361.4	45.57
361.611	98.81
361.823	133.63
362.034	90.62
362.245	-38.4
362.456	61.95
362.667	66.05
362.879	25.09
363.09	-24.06
363.301	49.66
363.512	51.71
363.723	57.86
363.935	39.42
364.146	14.85
364.357	-1.54
364.568	57.86
364.779	37.38
364.99	8.7
365.201	-56.83
365.412	111.1
365.623	25.09
365.834	49.66
366.045	45.57
366.256	53.76
366.467	35.33
366.678	57.86
366.889	66.05
367.1	23.04
367.311	61.95
367.522	8.7
367.733	109.05
367.944	78.33
368.155	12.8
368.366	66.05
368.577	10.75
368.788	90.62
368.999	45.57
369.209	33.28
369.42	68.09
369.631	109.05
369.842	2.56
370.053	-22.02
370.264	109.05
370.474	25.09
370.685	98.81
370.896	29.18
371.107	98.81
371.317	-11.78
371.528	12.8
371.739	92.67
371.95	98.81
372.16	145.92
372.371	41.47
372.582	-44.54
372.792	47.62
373.003	0.51
373.214	33.28
373.424	2.56
373.635	39.42
373.846	100.86
374.056	94.72
374.267	-11.78
374.477	98.81
374.688	-15.87
374.898	23.04
375.109	51.71
375.319	35.33
375.53	57.86
375.74	66.05
375.951	94.72
376.161	27.14
376.372	98.81
376.582	109.05
376.793	84.48
377.003	-22.02
377.214	-28.16
377.424	55.81
377.635	4.61
377.845	-11.78
378.055	-24.06
378.266	4.61
378.476	68.09
378.686	23.04
378.897	51.71
379.107	10.75
379.317	115.2
379.528	84.48
379.738	41.47
379.948	-13.82
380.158	131.58
380.369	49.66
380.579	29.18
380.789	33.28
380.999	61.95
381.21	10.75
381.42	82.43
381.63	-32.26
381.84	127.49
382.05	55.81
382.261	84.48
382.471	92.67
382.681	41.47
382.891	82.43
383.101	31.23
383.311	84.48
383.521	29.18
383.731	20.99
383.941	76.29
384.151	49.66
384.361	90.62
384.571	33.28
384.781	61.95
384.991	123.39
385.201	115.2
385.411	150.01
385.621	49.66
385.831	59.9
386.041	57.86
386.251	59.9
386.461	49.66
386.671	127.49
386.881	0.51
387.091	4.61
387.301	33.28
387.511	43.52
387.72	8.7
387.93	164.35
388.14	-7.68
388.35	20.99
388.56	23.04
388.769	92.67
388.979	117.25
389.189	-3.58
389.399	66.05
389.609	45.57
389.818	35.33
390.028	74.24
390.238	18.94
390.447	37.38
390.657	98.81
390.867	27.14
391.076	2.56
391.286	-3.58
391.496	90.62
391.705	59.9
391.915	94.72
392.125	78.33
392.334	68.09
392.544	86.53
392.753	84.48
392.963	74.24
393.172	49.66
393.382	27.14
393.591	111.1
393.801	-24.06
394.01	96.77
394.22	53.76
394.429	102.91
394.639	90.62
394.848	45.57
395.058	61.95
395.267	78.33
395.477	86.53
395.686	37.38
395.895	98.81
396.105	94.72
396.314	64
396.524	66.05
396.733	125.44
396.942	131.58
397.152	90.62
397.361	96.77
397.57	84.48
397.78	94.72
397.989	119.29
398.198	84.48
398.407	61.95
398.617	51.71
398.826	43.52
399.035	115.2
399.244	43.52
399.453	86.53
399.663	12.8
399.872	115.2
400.081	84.48
400.29	100.86
400.499	92.67
400.708	98.81
400.917	47.62
401.127	76.29
401.336	57.86
401.545	254.46
401.754	86.53
401.963	154.11
402.172	0.51
402.381	115.2
402.59	117.25
402.799	231.93
403.008	111.1
403.217	68.09
403.426	156.16
403.635	74.24
403.844	170.49
404.053	131.58
404.262	137.73
404.471	209.4
404.68	90.62
404.888	158.21
405.097	90.62
405.306	150.01
405.515	61.95
405.724	109.05
405.933	211.45
406.142	203.26
406.35	137.73
406.559	160.25
406.768	166.4
406.977	186.88
407.185	176.64
407.394	119.29
407.603	197.12
407.812	188.93
408.02	215.55
408.229	164.35
408.438	272.89
408.646	199.16
408.855	291.32
409.064	225.79
409.272	201.21
409.481	238.08
409.69	201.21
409.898	266.75
410.107	221.69
410.315	385.53
410.524	338.43
410.733	295.42
410.941	303.61
411.15	346.62
411.358	389.63
411.567	369.15
411.775	332.28
411.984	377.34
412.192	365.05
412.401	328.19
412.609	518.65
412.818	444.92
413.026	358.91
413.234	487.93
413.443	451.07
413.651	393.72
413.86	422.39
414.068	598.52
414.276	489.98
414.485	565.75
414.693	610.81
414.901	608.76
415.11	569.85
415.318	645.62
415.526	641.53
415.734	711.16
415.943	592.37
416.151	676.34
416.359	743.92
416.567	721.4
416.776	731.64
416.984	868.85
417.192	768.5
417.4	831.99
417.608	827.89
417.817	893.43
418.025	983.54
418.233	1008.11
418.441	1006.06
418.649	1057.26
418.857	1171.95
419.065	1139.18
419.273	1106.42
419.481	1157.61
419.689	1165.81
419.897	1253.87
420.105	1221.1
420.313	1333.74
420.521	1462.76
420.729	1483.24
420.937	1401.32
421.145	1470.95
421.353	1534.44
421.561	1665.51
421.769	1593.83
421.977	1741.29
422.185	1763.81
422.393	1812.96
422.601	1804.77
422.809	1915.36
423.017	1968.61
423.224	1982.95
423.432	2058.72
423.64	2111.97
423.848	2308.57
424.056	2218.46
424.263	2404.83
424.471	2460.12
424.679	2478.55
424.887	2648.54
425.094	2744.79
425.302	2673.11
425.51	2779.61
425.718	2826.71
425.925	2906.58
426.133	3033.55
426.341	3305.93
426.548	3369.42
426.756	3262.93
426.964	3424.72
427.171	3408.33
427.379	3588.55
427.586	3682.76
427.794	3807.69
428.001	4047.3
428.209	4139.46
428.417	4100.55
428.624	4409.79
428.832	4237.76
429.039	4432.32
429.247	4262.33
429.454	4835.77
429.662	5001.65
429.869	4766.14
430.076	5093.81
430.284	4934.07
430.491	5136.82
430.699	5423.53
430.906	5317.04
431.114	5380.53
431.321	5603.75
431.528	5720.49
431.736	6044.07
431.943	6451.61
432.15	6369.69
432.358	6289.82
432.565	6566.3
432.772	6662.55
432.979	7014.8
433.187	6963.61
433.394	6949.27
433.601	7584.14
433.808	7598.48
434.016	7358.86
434.223	7668.11
434.43	8235.39
434.637	8100.23
434.844	8585.6
435.052	8763.77
435.259	8929.66
435.466	8876.41
435.673	8712.57
435.88	9412.98
436.087	9859.43
436.294	9695.6
436.501	9570.67
436.708	9789.8
436.915	9910.63
437.122	10649.95
437.329	10520.93
437.537	10805.6
437.743	10914.14
437.95	10740.06
438.157	11374.93
438.364	11682.13
438.571	11938.12
438.778	11749.71
438.985	12804.41
439.192	12249.41
439.399	12781.88
439.606	12687.68
439.813	13252.92
440.02	14072.11
440.227	13875.5
440.433	13601.07
440.64	13998.38
440.847	14084.39
441.054	14373.16
441.261	15229.21
441.467	15051.03
441.674	15343.89
441.881	15892.75
442.088	15845.65
442.294	15644.95
442.501	16066.83
442.708	16312.58
442.914	17195.26
443.121	17893.61
443.328	17342.71
443.534	18577.64
443.741	18041.07
443.948	17844.46
444.154	19253.47
444.361	19116.25
444.568	18841.82
444.774	18962.65
444.981	19329.24
445.187	19859.66
445.394	20783.3
445.6	20553.93
445.807	22481.06
446.013	21416.12
446.22	21848.24
446.426	22933.67
446.633	23074.98
446.839	24017.04
447.046	22562.98
447.252	23877.78
447.459	24023.19
447.665	23820.44
447.871	25053.31
448.078	26013.81
448.284	24952.96
448.491	25528.44
448.697	26433.64
448.903	27199.58
449.11	26845.29
449.316	26572.91
449.522	26787.94
449.728	28063.83
449.935	28029.01
450.141	27732.06
450.347	28575.82
450.553	27639.9
450.76	27990.1
450.966	29116.48
451.172	28706.89
451.378	29388.86
451.584	28899.4
451.791	29763.64
451.997	29694.01
452.203	30005.3
452.409	30322.74
452.615	30259.25
452.821	28936.26
453.027	28530.76
453.233	30359.6
453.44	29177.92
453.646	29274.18
453.852	29368.38
454.058	29880.38
454.264	29065.28
454.47	29937.72
454.676	28876.87
454.882	30052.41
455.088	27646.04
455.294	28008.53
455.5	28510.28
455.705	28506.19
455.911	27037.8
456.117	26820.71
456.323	26753.13
456.529	25241.73
456.735	26282.09
456.941	25981.04
457.147	25469.05
457.352	24862.85
457.558	24537.23
457.764	24418.44
457.97	23998.61
458.176	23566.49
458.381	23371.93
458.587	22405.29
458.793	22462.63
458.999	21412.03
459.204	22849.7
459.41	22053.04
459.616	20836.55
459.821	20768.96
460.027	20605.13
460.233	20138.19
460.438	19220.7
460.644	19531.99
460.85	18673.89
461.055	18258.15
461.261	18233.58
461.466	16873.73
461.672	16351.49
461.878	17537.27
462.083	16374.02
462.289	16261.38
462.494	15898.89
462.7	15186.2
462.905	14688.54
463.111	15397.14
463.316	15130.91
463.522	15036.7
463.727	15135
463.932	15276.31
464.138	15022.36
464.343	14930.2
464.549	14700.83
464.754	15243.54
464.959	14833.95
465.165	14524.71
465.37	14078.25
465.575	13742.38
465.781	14086.44
465.986	14229.8
466.191	13621.55
466.397	13416.76
466.602	12716.35
466.807	13244.73
467.012	13324.6
467.218	13470
467.423	13216.05
467.628	13459.76
467.833	13609.26
468.038	13060.41
