Data from USB4F104151__48__14-43-01-922.txt Node

Date: Thu Mar 13 14:43:01 EDT 2025
User: louis
Spectrometer: USB4F10415
Trigger mode: 4
Integration Time (sec): 2.000000E-2
Scans to average: 1
Electric dark correction enabled: true
Nonlinearity correction enabled: false
Boxcar width: 0
XAxis mode: Wavelengths
Number of Pixels in Spectrum: 3648
>>>>>Begin Spectral Data<<<<<
178.204	-158.72
178.424	-158.72
178.644	-158.72
178.864	-136.19
179.084	-144.38
179.304	-11.26
179.524	39.94
179.744	68.61
179.964	29.7
180.184	-107.52
180.404	50.18
180.624	-37.89
180.844	-46.08
181.064	1.02
181.283	13.31
181.503	-33.79
181.723	33.79
181.943	62.46
182.163	50.18
182.383	1.02
182.602	17.41
182.822	68.61
183.042	72.7
183.262	44.03
183.482	52.22
183.701	-11.26
183.921	7.17
184.141	29.7
184.361	11.26
184.58	-19.46
184.8	93.18
185.02	39.94
185.239	52.22
185.459	-3.07
185.679	33.79
185.898	-35.84
186.118	-23.55
186.338	31.74
186.557	5.12
186.777	50.18
186.997	84.99
187.216	39.94
187.436	44.03
187.655	23.55
187.875	48.13
188.095	19.46
188.314	52.22
188.534	80.89
188.753	44.03
188.973	39.94
189.192	52.22
189.412	52.22
189.631	31.74
189.851	-21.5
190.07	54.27
190.29	46.08
190.509	56.32
190.729	-13.31
190.948	52.22
191.168	78.85
191.387	31.74
191.607	44.03
191.826	56.32
192.045	46.08
192.265	95.23
192.484	-44.03
192.704	23.55
192.923	-19.46
193.142	27.65
193.362	33.79
193.581	44.03
193.8	-1.02
194.02	87.04
194.239	-5.12
194.458	-13.31
194.678	-3.07
194.897	21.5
195.116	27.65
195.335	52.22
195.555	-1.02
195.774	52.22
195.993	21.5
196.212	27.65
196.432	3.07
196.651	3.07
196.87	27.65
197.089	89.09
197.308	87.04
197.528	-25.6
197.747	-23.55
197.966	-29.7
198.185	84.99
198.404	-21.5
198.623	29.7
198.842	44.03
199.062	76.8
199.281	95.23
199.5	-5.12
199.719	50.18
199.938	78.85
200.157	66.56
200.376	82.94
200.595	76.8
200.814	35.84
201.033	31.74
201.252	64.51
201.471	19.46
201.69	-1.02
201.909	87.04
202.128	-44.03
202.347	54.27
202.566	5.12
202.785	54.27
203.004	-48.13
203.223	46.08
203.442	11.26
203.661	-39.94
203.879	15.36
204.098	72.7
204.317	39.94
204.536	13.31
204.755	31.74
204.974	11.26
205.193	-19.46
205.411	60.42
205.63	19.46
205.849	52.22
206.068	13.31
206.287	5.12
206.505	56.32
206.724	-21.5
206.943	-29.7
207.162	13.31
207.381	11.26
207.599	23.55
207.818	-39.94
208.037	76.8
208.255	21.5
208.474	50.18
208.693	54.27
208.911	-13.31
209.13	27.65
209.349	35.84
209.567	78.85
209.786	76.8
210.005	76.8
210.223	-21.5
210.442	-23.55
210.661	48.13
210.879	27.65
211.098	27.65
211.316	72.7
211.535	68.61
211.753	-25.6
211.972	-1.02
212.191	37.89
212.409	11.26
212.628	78.85
212.846	27.65
213.065	-17.41
213.283	27.65
213.502	-58.37
213.72	46.08
213.938	66.56
214.157	35.84
214.375	29.7
214.594	-11.26
214.812	27.65
215.031	62.46
215.249	-11.26
215.467	37.89
215.686	23.55
215.904	31.74
216.122	52.22
216.341	113.66
216.559	-21.5
216.778	-46.08
216.996	27.65
217.214	41.98
217.432	27.65
217.651	-35.84
217.869	5.12
218.087	56.32
218.306	-44.03
218.524	121.85
218.742	35.84
218.96	27.65
219.179	29.7
219.397	52.22
219.615	80.89
219.833	23.55
220.051	29.7
220.27	101.37
220.488	72.7
220.706	56.32
220.924	-35.84
221.142	1.02
221.36	15.36
221.578	17.41
221.796	3.07
222.015	19.46
222.233	29.7
222.451	76.8
222.669	-15.36
222.887	62.46
223.105	15.36
223.323	64.51
223.541	31.74
223.759	60.42
223.977	9.22
224.195	89.09
224.413	15.36
224.631	37.89
224.849	15.36
225.067	111.61
225.285	-21.5
225.503	35.84
225.721	-33.79
225.939	52.22
226.157	19.46
226.375	109.57
226.592	-46.08
226.81	52.22
227.028	68.61
227.246	56.32
227.464	-13.31
227.682	48.13
227.9	15.36
228.117	89.09
228.335	109.57
228.553	23.55
228.771	-25.6
228.989	15.36
229.206	-46.08
229.424	35.84
229.642	-19.46
229.86	-29.7
230.077	52.22
230.295	87.04
230.513	60.42
230.731	37.89
230.948	13.31
231.166	84.99
231.384	64.51
231.601	48.13
231.819	64.51
232.037	15.36
232.254	-1.02
232.472	11.26
232.689	-37.89
232.907	134.14
233.125	11.26
233.342	11.26
233.56	3.07
233.777	68.61
233.995	27.65
234.213	105.47
234.43	15.36
234.648	-27.65
234.865	52.22
235.083	52.22
235.3	15.36
235.518	-37.89
235.735	84.99
235.953	35.84
236.17	37.89
236.388	27.65
236.605	117.76
236.822	-60.42
237.04	-5.12
237.257	15.36
237.475	5.12
237.692	62.46
237.909	19.46
238.127	58.37
238.344	84.99
238.562	87.04
238.779	31.74
238.996	52.22
239.214	-3.07
239.431	25.6
239.648	-46.08
239.865	-19.46
240.083	31.74
240.3	-37.89
240.517	21.5
240.735	5.12
240.952	68.61
241.169	52.22
241.386	29.7
241.603	52.22
241.821	-31.74
242.038	37.89
242.255	60.42
242.472	-17.41
242.689	-7.17
242.907	29.7
243.124	-5.12
243.341	11.26
243.558	11.26
243.775	-9.22
243.992	52.22
244.209	19.46
244.426	60.42
244.643	33.79
244.86	-44.03
245.078	84.99
245.295	48.13
245.512	70.65
245.729	-5.12
245.946	21.5
246.163	13.31
246.38	62.46
246.597	33.79
246.814	-37.89
247.031	27.65
247.248	-21.5
247.464	5.12
247.681	50.18
247.898	-3.07
248.115	46.08
248.332	-46.08
248.549	46.08
248.766	60.42
248.983	37.89
249.2	39.94
249.417	15.36
249.633	23.55
249.85	54.27
250.067	-11.26
250.284	52.22
250.501	31.74
250.717	89.09
250.934	-35.84
251.151	78.85
251.368	52.22
251.585	76.8
251.801	41.98
252.018	15.36
252.235	15.36
252.451	-66.56
252.668	48.13
252.885	44.03
253.102	-23.55
253.318	48.13
253.535	-37.89
253.752	-3.07
253.968	91.13
254.185	15.36
254.401	-5.12
254.618	31.74
254.835	-54.27
255.051	62.46
255.268	52.22
255.484	29.7
255.701	-19.46
255.917	27.65
256.134	-3.07
256.351	70.65
256.567	29.7
256.784	-46.08
257	15.36
257.217	-7.17
257.433	15.36
257.65	27.65
257.866	76.8
258.082	-39.94
258.299	-17.41
258.515	64.51
258.732	-60.42
258.948	21.5
259.165	54.27
259.381	-5.12
259.597	78.85
259.814	76.8
260.03	-23.55
260.246	21.5
260.463	-13.31
260.679	29.7
260.895	-39.94
261.112	64.51
261.328	-5.12
261.544	-9.22
261.761	107.52
261.977	17.41
262.193	-17.41
262.409	11.26
262.626	39.94
262.842	-58.37
263.058	-13.31
263.274	70.65
263.49	9.22
263.707	68.61
263.923	87.04
264.139	-37.89
264.355	9.22
264.571	111.61
264.787	-1.02
265.004	111.61
265.22	-31.74
265.436	11.26
265.652	64.51
265.868	7.17
266.084	27.65
266.3	27.65
266.516	15.36
266.732	39.94
266.948	19.46
267.164	31.74
267.38	52.22
267.596	9.22
267.812	78.85
268.028	-54.27
268.244	15.36
268.46	19.46
268.676	-3.07
268.892	-5.12
269.108	29.7
269.324	35.84
269.54	-25.6
269.756	-9.22
269.972	-11.26
270.188	-58.37
270.403	60.42
270.619	27.65
270.835	-31.74
271.051	56.32
271.267	-66.56
271.483	13.31
271.698	27.65
271.914	72.7
272.13	13.31
272.346	23.55
272.562	13.31
272.777	78.85
272.993	-70.65
273.209	-11.26
273.425	11.26
273.64	23.55
273.856	39.94
274.072	64.51
274.287	27.65
274.503	128
274.719	21.5
274.934	52.22
275.15	-103.42
275.366	19.46
275.581	33.79
275.797	60.42
276.012	11.26
276.228	99.33
276.444	54.27
276.659	101.37
276.875	62.46
277.09	-54.27
277.306	21.5
277.521	62.46
277.737	46.08
277.952	68.61
278.168	15.36
278.383	68.61
278.599	-19.46
278.814	31.74
279.03	-11.26
279.245	119.81
279.461	-9.22
279.676	9.22
279.892	-99.33
280.107	11.26
280.322	-21.5
280.538	29.7
280.753	-29.7
280.969	119.81
281.184	52.22
281.399	19.46
281.615	23.55
281.83	56.32
282.045	11.26
282.26	27.65
282.476	-13.31
282.691	99.33
282.906	-50.18
283.122	64.51
283.337	52.22
283.552	54.27
283.767	13.31
283.983	62.46
284.198	-3.07
284.413	13.31
284.628	-74.75
284.843	9.22
285.058	60.42
285.274	-46.08
285.489	35.84
285.704	72.7
285.919	-52.22
286.134	52.22
286.349	13.31
286.564	-5.12
286.779	76.8
286.995	60.42
287.21	15.36
287.425	87.04
287.64	-5.12
287.855	29.7
288.07	41.98
288.285	74.75
288.5	46.08
288.715	72.7
288.93	19.46
289.145	44.03
289.36	33.79
289.575	-31.74
289.79	44.03
290.004	70.65
290.219	19.46
290.434	19.46
290.649	-17.41
290.864	39.94
291.079	46.08
291.294	19.46
291.509	60.42
291.724	-35.84
291.938	-37.89
292.153	9.22
292.368	130.05
292.583	-1.02
292.798	-9.22
293.012	101.37
293.227	35.84
293.442	7.17
293.657	60.42
293.871	19.46
294.086	7.17
294.301	60.42
294.516	-19.46
294.73	72.7
294.945	-46.08
295.16	-21.5
295.374	93.18
295.589	60.42
295.804	-25.6
296.018	-11.26
296.233	158.72
296.447	44.03
296.662	13.31
296.877	68.61
297.091	19.46
297.306	15.36
297.52	-13.31
297.735	46.08
297.949	27.65
298.164	27.65
298.378	48.13
298.593	19.46
298.807	9.22
299.022	35.84
299.236	76.8
299.451	15.36
299.665	44.03
299.88	44.03
300.094	27.65
300.309	5.12
300.523	89.09
300.737	35.84
300.952	35.84
301.166	50.18
301.381	11.26
301.595	52.22
301.809	-21.5
302.024	35.84
302.238	5.12
302.452	35.84
302.667	-21.5
302.881	46.08
303.095	175.1
303.309	46.08
303.524	52.22
303.738	-9.22
303.952	52.22
304.166	52.22
304.381	37.89
304.595	-3.07
304.809	41.98
305.023	78.85
305.237	19.46
305.452	46.08
305.666	80.89
305.88	37.89
306.094	-13.31
306.308	76.8
306.522	84.99
306.736	-3.07
306.95	37.89
307.164	60.42
307.379	-1.02
307.593	66.56
307.807	31.74
308.021	54.27
308.235	3.07
308.449	19.46
308.663	50.18
308.877	84.99
309.091	-13.31
309.305	3.07
309.519	68.61
309.733	44.03
309.947	-17.41
310.161	60.42
310.374	68.61
310.588	56.32
310.802	-82.94
311.016	9.22
311.23	56.32
311.444	-13.31
311.658	-5.12
311.872	15.36
312.085	44.03
312.299	72.7
312.513	52.22
312.727	-46.08
312.941	37.89
313.154	19.46
313.368	17.41
313.582	19.46
313.796	-5.12
314.009	52.22
314.223	62.46
314.437	35.84
314.651	56.32
314.864	9.22
315.078	37.89
315.292	-11.26
315.505	-21.5
315.719	117.76
315.933	103.42
316.146	-9.22
316.36	7.17
316.573	89.09
316.787	23.55
317.001	54.27
317.214	33.79
317.428	3.07
317.641	1.02
317.855	11.26
318.068	9.22
318.282	60.42
318.495	48.13
318.709	-29.7
318.922	-19.46
319.136	37.89
319.349	27.65
319.563	134.14
319.776	89.09
319.99	-21.5
320.203	29.7
320.417	39.94
320.63	17.41
320.843	93.18
321.057	33.79
321.27	13.31
321.483	15.36
321.697	27.65
321.91	-66.56
322.124	5.12
322.337	-72.7
322.55	31.74
322.763	11.26
322.977	46.08
323.19	11.26
323.403	-5.12
323.617	23.55
323.83	113.66
324.043	-3.07
324.256	19.46
324.469	-33.79
324.683	60.42
324.896	68.61
325.109	46.08
325.322	58.37
325.535	109.57
325.748	29.7
325.962	1.02
326.175	-19.46
326.388	21.5
326.601	13.31
326.814	-9.22
327.027	103.42
327.24	5.12
327.453	-74.75
327.666	29.7
327.879	9.22
328.092	125.95
328.305	15.36
328.518	-13.31
328.731	-1.02
328.944	44.03
329.157	68.61
329.37	101.37
329.583	52.22
329.796	130.05
330.009	-3.07
330.222	27.65
330.435	-54.27
330.648	-29.7
330.861	7.17
331.073	-3.07
331.286	5.12
331.499	84.99
331.712	19.46
331.925	93.18
332.138	11.26
332.35	72.7
332.563	-13.31
332.776	80.89
332.989	19.46
333.202	21.5
333.414	52.22
333.627	-46.08
333.84	72.7
334.053	60.42
334.265	64.51
334.478	103.42
334.691	3.07
334.903	44.03
335.116	35.84
335.329	82.94
335.541	44.03
335.754	70.65
335.966	62.46
336.179	-11.26
336.392	44.03
336.604	-13.31
336.817	52.22
337.029	62.46
337.242	56.32
337.454	50.18
337.667	5.12
337.88	68.61
338.092	19.46
338.305	-21.5
338.517	46.08
338.729	136.19
338.942	109.57
339.154	23.55
339.367	-17.41
339.579	56.32
339.792	-52.22
340.004	7.17
340.217	13.31
340.429	7.17
340.641	27.65
340.854	-21.5
341.066	-27.65
341.278	11.26
341.491	91.13
341.703	15.36
341.915	3.07
342.128	101.37
342.34	-29.7
342.552	35.84
342.764	23.55
342.977	3.07
343.189	39.94
343.401	27.65
343.613	-5.12
343.826	101.37
344.038	-37.89
344.25	111.61
344.462	29.7
344.674	25.6
344.886	15.36
345.099	7.17
345.311	-3.07
345.523	54.27
345.735	41.98
345.947	-19.46
346.159	5.12
346.371	-3.07
346.583	21.5
346.795	70.65
347.007	3.07
347.219	70.65
347.431	84.99
347.643	46.08
347.855	130.05
348.067	105.47
348.279	27.65
348.491	33.79
348.703	68.61
348.915	-1.02
349.127	27.65
349.339	103.42
349.551	-9.22
349.763	60.42
349.975	82.94
350.187	78.85
350.399	23.55
350.61	89.09
350.822	56.32
351.034	35.84
351.246	-46.08
351.458	-1.02
351.669	5.12
351.881	76.8
352.093	123.9
352.305	54.27
352.517	54.27
352.728	103.42
352.94	-17.41
353.152	76.8
353.363	-7.17
353.575	72.7
353.787	37.89
353.999	76.8
354.21	87.04
354.422	23.55
354.633	23.55
354.845	21.5
355.057	11.26
355.268	7.17
355.48	158.72
355.692	-1.02
355.903	-19.46
356.115	-29.7
356.326	-37.89
356.538	84.99
356.749	95.23
356.961	58.37
357.172	29.7
357.384	-5.12
357.595	115.71
357.807	19.46
358.018	-19.46
358.23	52.22
358.441	3.07
358.653	68.61
358.864	78.85
359.075	19.46
359.287	-13.31
359.498	19.46
359.709	56.32
359.921	29.7
360.132	27.65
360.344	76.8
360.555	11.26
360.766	27.65
360.977	25.6
361.189	64.51
361.4	136.19
361.611	52.22
361.823	39.94
362.034	48.13
362.245	15.36
362.456	3.07
362.667	125.95
362.879	48.13
363.09	-17.41
363.301	68.61
363.512	31.74
363.723	52.22
363.935	17.41
364.146	27.65
364.357	101.37
364.568	80.89
364.779	-11.26
364.99	-17.41
365.201	31.74
365.412	84.99
365.623	-62.46
365.834	93.18
366.045	27.65
366.256	80.89
366.467	37.89
366.678	21.5
366.889	9.22
367.1	74.75
367.311	11.26
367.522	44.03
367.733	66.56
367.944	1.02
368.155	15.36
368.366	56.32
368.577	35.84
368.788	125.95
368.999	27.65
369.209	58.37
369.42	113.66
369.631	146.43
369.842	-35.84
370.053	19.46
370.264	84.99
370.474	68.61
370.685	48.13
370.896	37.89
371.107	29.7
371.317	66.56
371.528	-5.12
371.739	70.65
371.95	84.99
372.16	95.23
372.371	29.7
372.582	64.51
372.792	-46.08
373.003	95.23
373.214	39.94
373.424	68.61
373.635	-21.5
373.846	23.55
374.056	95.23
374.267	76.8
374.477	-13.31
374.688	68.61
374.898	68.61
375.109	54.27
375.319	39.94
375.53	70.65
375.74	125.95
375.951	62.46
376.161	31.74
376.372	60.42
376.582	5.12
376.793	62.46
377.003	5.12
377.214	84.99
377.424	15.36
377.635	72.7
377.845	44.03
378.055	142.33
378.266	66.56
378.476	52.22
378.686	54.27
378.897	72.7
379.107	-3.07
379.317	84.99
379.528	46.08
379.738	64.51
379.948	-5.12
380.158	101.37
380.369	37.89
380.579	39.94
380.789	60.42
380.999	56.32
381.21	117.76
381.42	37.89
381.63	15.36
381.84	76.8
382.05	48.13
382.261	70.65
382.471	5.12
382.681	21.5
382.891	29.7
383.101	87.04
383.311	-13.31
383.521	109.57
383.731	60.42
383.941	7.17
384.151	72.7
384.361	39.94
384.571	97.28
384.781	62.46
384.991	35.84
385.201	109.57
385.411	84.99
385.621	35.84
385.831	56.32
386.041	35.84
386.251	19.46
386.461	117.76
386.671	46.08
386.881	76.8
387.091	31.74
387.301	44.03
387.511	-9.22
387.72	46.08
387.93	13.31
388.14	-33.79
388.35	56.32
388.56	93.18
388.769	117.76
388.979	72.7
389.189	23.55
389.399	97.28
389.609	-3.07
389.818	93.18
390.028	56.32
390.238	54.27
390.447	-11.26
390.657	128
390.867	13.31
391.076	19.46
391.286	11.26
391.496	19.46
391.705	68.61
391.915	119.81
392.125	111.61
392.334	46.08
392.544	89.09
392.753	15.36
392.963	82.94
393.172	-17.41
393.382	52.22
393.591	35.84
393.801	44.03
394.01	107.52
394.22	46.08
394.429	44.03
394.639	134.14
394.848	46.08
395.058	19.46
395.267	76.8
395.477	68.61
395.686	123.9
395.895	78.85
396.105	84.99
396.314	72.7
396.524	70.65
396.733	72.7
396.942	56.32
397.152	95.23
397.361	93.18
397.57	31.74
397.78	60.42
397.989	97.28
398.198	140.29
398.407	35.84
398.617	68.61
398.826	80.89
399.035	76.8
399.244	154.62
399.453	82.94
399.663	80.89
399.872	146.43
400.081	62.46
400.29	166.91
400.499	52.22
400.708	101.37
400.917	82.94
401.127	27.65
401.336	93.18
401.545	62.46
401.754	39.94
401.963	146.43
402.172	95.23
402.381	105.47
402.59	60.42
402.799	50.18
403.008	119.81
403.217	109.57
403.426	140.29
403.635	72.7
403.844	179.2
404.053	171.01
404.262	60.42
404.471	230.4
404.68	142.33
404.888	109.57
405.097	154.62
405.306	111.61
405.515	91.13
405.724	191.49
405.933	146.43
406.142	183.29
406.35	199.68
406.559	105.47
406.768	183.29
406.977	211.96
407.185	187.39
407.394	193.53
407.603	236.54
407.812	181.25
408.02	220.16
408.229	185.34
408.438	173.05
408.646	197.63
408.855	175.1
409.064	234.49
409.272	214.01
409.481	297.98
409.69	265.21
409.898	191.49
410.107	222.2
410.315	330.75
410.524	232.44
410.733	314.36
410.941	338.94
411.15	351.23
411.358	381.95
411.567	289.79
411.775	392.19
411.984	355.32
412.192	330.75
412.401	359.42
412.609	533.5
412.818	431.1
413.026	445.43
413.234	502.78
413.443	502.78
413.651	408.57
413.86	494.58
414.068	529.4
414.276	580.6
414.485	556.02
414.693	527.35
414.901	650.23
415.11	633.85
415.318	580.6
415.526	607.22
415.734	674.81
415.943	691.19
416.151	789.49
416.359	728.05
416.567	826.36
416.776	803.83
416.984	873.46
417.192	971.76
417.4	803.83
417.608	922.61
417.817	912.37
418.025	996.34
418.233	1004.53
418.441	986.1
418.649	936.95
418.857	1108.98
419.065	1145.84
419.273	1108.98
419.481	1233.9
419.689	1164.27
419.897	1285.1
420.105	1217.52
420.313	1326.06
420.521	1403.88
420.729	1518.57
420.937	1543.14
421.145	1559.53
421.353	1620.97
421.561	1643.49
421.769	1815.52
421.977	1848.29
422.185	1719.27
422.393	1881.06
422.601	1999.84
422.809	1960.93
423.017	1919.97
423.224	2128.86
423.432	2206.69
423.64	2141.15
423.848	2329.56
424.056	2255.84
424.263	2507.74
424.471	2493.4
424.679	2513.88
424.887	2524.12
425.094	2739.16
425.302	2618.33
425.51	2771.93
425.718	2733.01
425.925	3021.78
426.133	3124.18
426.341	3208.14
426.548	3443.66
426.756	3345.36
426.964	3519.43
427.171	3640.26
427.379	3767.24
427.586	3879.88
427.794	3761.09
428.001	4125.63
428.209	4314.05
428.417	4295.61
428.624	4459.45
428.832	4434.88
429.039	4486.08
429.247	4336.57
429.454	5092.27
429.662	5278.64
429.869	4842.42
430.076	5127.09
430.284	5151.67
430.491	5274.54
430.699	5737.38
430.906	5671.85
431.114	5581.74
431.321	5901.22
431.528	5958.57
431.736	6255.52
431.943	6611.87
432.15	6503.32
432.358	6507.42
432.565	6896.53
432.772	6957.97
432.979	7248.79
433.187	7089.04
433.394	7490.45
433.601	7875.46
433.808	7859.08
434.016	7900.04
434.223	8196.99
434.43	8598.4
434.637	8432.51
434.844	8999.8
435.052	9040.76
435.259	9153.4
435.466	9137.01
435.673	9005.94
435.88	9585.52
436.087	10275.68
436.294	10343.27
436.501	10027.88
436.708	10181.48
436.915	10697.56
437.122	11127.64
437.329	10910.55
437.537	11225.94
437.743	11473.74
437.95	11434.83
438.157	11793.23
438.364	12184.39
438.571	12299.08
438.778	12389.19
438.985	13286.2
439.192	12882.75
439.399	13298.49
439.606	13140.79
439.813	13830.96
440.02	14836.51
440.227	14289.7
440.433	14400.29
440.64	14777.12
440.847	14568.23
441.054	14904.09
441.261	15962.89
441.467	15624.98
441.674	16048.91
441.881	16583.43
442.088	16562.95
442.294	16182.03
442.501	16966.4
442.708	17206.01
442.914	17814.26
443.121	18766.56
443.328	18270.95
443.534	19483.35
443.741	19014.37
443.948	18737.89
444.154	20146.89
444.361	19987.15
444.568	20005.58
444.774	20290.25
444.981	20277.96
445.187	20923.07
445.394	21656.25
445.6	21656.25
445.807	23454.36
446.013	22336.17
446.22	22991.52
446.426	23632.54
446.633	23913.11
446.839	24679.05
447.046	23734.93
447.252	24967.81
447.459	25143.94
447.665	25105.02
447.871	26208.88
448.078	26993.25
448.284	25774.71
448.491	26731.11
448.697	27789.91
448.903	28234.32
449.11	27972.18
449.316	27775.58
449.522	27963.99
449.728	29194.82
449.935	29530.69
450.141	29246.02
450.347	29973.05
450.553	28985.93
450.76	29534.78
450.966	30327.35
451.172	30210.61
451.378	30822.95
451.584	30181.94
451.791	30925.35
451.997	30698.03
452.203	31404.58
452.409	31865.37
452.615	31042.09
452.821	30300.72
453.027	30224.95
453.233	31693.34
453.44	30218.8
453.646	30427.7
453.852	30675.5
454.058	31035.94
454.264	30413.36
454.47	30835.24
454.676	29846.07
454.882	31373.86
455.088	28623.44
455.294	28965.45
455.5	29506.11
455.705	29635.13
455.911	28514.89
456.117	27830.87
456.323	27806.3
456.529	26409.58
456.735	27222.62
456.941	26761.83
457.147	26303.09
457.352	25731.7
457.558	24990.34
457.764	24986.24
457.97	24851.08
458.176	24062.61
458.381	24226.45
458.587	23143.07
458.793	23016.1
458.999	22086.32
459.204	23542.42
459.41	22809.25
459.616	21476.02
459.821	21369.53
460.027	21609.14
460.233	21033.66
460.438	19903.18
460.644	20198.09
460.85	19335.9
461.055	18895.58
461.261	18885.34
461.466	17509.11
461.672	16896.77
461.878	18127.6
462.083	16935.68
462.289	16493.32
462.494	16421.64
462.7	15837.97
462.905	15268.63
463.111	15852.3
463.316	15747.86
463.522	15594.26
463.727	15565.59
463.932	15313.69
464.138	15065.88
464.343	15741.71
464.549	14930.72
464.754	15678.22
464.959	15260.44
465.165	15035.16
465.37	14607.14
465.575	14316.33
465.781	14521.12
465.986	14654.24
466.191	14367.52
466.397	14191.4
466.602	13527.86
466.807	13914.92
467.012	13800.24
467.218	13617.97
467.423	13595.44
467.628	13622.06
