Data from USB4F104151__92__14-43-34-614.txt Node

Date: Thu Mar 13 14:43:34 EDT 2025
User: louis
Spectrometer: USB4F10415
Trigger mode: 4
Integration Time (sec): 2.000000E-2
Scans to average: 1
Electric dark correction enabled: true
Nonlinearity correction enabled: false
Boxcar width: 0
XAxis mode: Wavelengths
Number of Pixels in Spectrum: 3648
>>>>>Begin Spectral Data<<<<<
178.204	-100.52
178.424	-100.52
178.644	-100.52
178.864	-137.38
179.084	-106.67
179.304	14.17
179.524	8.02
179.744	-30.89
179.964	10.07
180.184	-0.17
180.404	14.17
180.624	-22.7
180.844	38.74
181.064	-59.56
181.283	24.4
181.503	-39.08
181.723	42.84
181.943	-41.13
182.163	112.47
182.383	38.74
182.602	-14.51
182.822	67.41
183.042	65.36
183.262	18.26
183.482	44.88
183.701	38.74
183.921	-32.94
184.141	14.17
184.361	46.93
184.58	10.07
184.8	63.32
185.02	57.17
185.239	57.17
185.459	14.17
185.679	130.9
185.898	-47.27
186.118	22.36
186.338	81.75
186.557	71.51
186.777	-34.99
186.997	28.5
187.216	63.32
187.436	-0.17
187.655	120.66
187.875	14.17
188.095	38.74
188.314	65.36
188.534	87.89
188.753	30.55
188.973	104.28
189.192	46.93
189.412	79.7
189.631	18.26
189.851	38.74
190.07	-32.94
190.29	26.45
190.509	-32.94
190.729	-2.22
190.948	55.12
191.168	141.14
191.387	116.56
191.607	-16.55
191.826	34.64
192.045	24.4
192.265	87.89
192.484	16.21
192.704	48.98
192.923	-45.23
193.142	63.32
193.362	87.89
193.581	28.5
193.8	-34.99
194.02	69.46
194.239	-18.6
194.458	63.32
194.678	44.88
194.897	87.89
195.116	73.56
195.335	1.88
195.555	-2.22
195.774	89.94
195.993	79.7
196.212	-45.23
196.432	-49.32
196.651	18.26
196.87	10.07
197.089	73.56
197.308	10.07
197.528	-0.17
197.747	-34.99
197.966	40.79
198.185	108.37
198.404	30.55
198.623	75.6
198.842	51.03
199.062	89.94
199.281	118.61
199.5	36.69
199.719	59.22
199.938	83.8
200.157	24.4
200.376	28.5
200.595	40.79
200.814	-8.36
201.033	48.98
201.252	-22.7
201.471	-0.17
201.69	73.56
201.909	124.76
202.128	-6.31
202.347	61.27
202.566	-8.36
202.785	38.74
203.004	53.08
203.223	24.4
203.442	18.26
203.661	5.97
203.879	10.07
204.098	32.6
204.317	18.26
204.536	32.6
204.755	16.21
204.974	44.88
205.193	-2.22
205.411	-6.31
205.63	81.75
205.849	57.17
206.068	55.12
206.287	104.28
206.505	14.17
206.724	34.64
206.943	16.21
207.162	63.32
207.381	87.89
207.599	-12.46
207.818	16.21
208.037	-41.13
208.255	16.21
208.474	-0.17
208.693	38.74
208.911	-67.75
209.13	-47.27
209.349	18.26
209.567	51.03
209.786	22.36
210.005	48.98
210.223	18.26
210.442	-26.79
210.661	5.97
210.879	38.74
211.098	-32.94
211.316	81.75
211.535	71.51
211.753	30.55
211.972	83.8
212.191	22.36
212.409	46.93
212.628	79.7
212.846	55.12
213.065	71.51
213.283	59.22
213.502	53.08
213.72	55.12
213.938	112.47
214.157	96.08
214.375	83.8
214.594	112.47
214.812	38.74
215.031	-16.55
215.249	44.88
215.467	71.51
215.686	137.04
215.904	48.98
216.122	-16.55
216.341	40.79
216.559	1.88
216.778	46.93
216.996	30.55
217.214	30.55
217.432	38.74
217.651	89.94
217.869	24.4
218.087	-0.17
218.306	8.02
218.524	32.6
218.742	-32.94
218.96	118.61
219.179	18.26
219.397	32.6
219.615	57.17
219.833	8.02
220.051	5.97
220.27	87.89
220.488	-8.36
220.706	59.22
220.924	48.98
221.142	10.07
221.36	-0.17
221.578	83.8
221.796	-14.51
222.015	-2.22
222.233	55.12
222.451	55.12
222.669	-73.9
222.887	137.04
223.105	8.02
223.323	-2.22
223.541	65.36
223.759	83.8
223.977	-0.17
224.195	137.04
224.413	48.98
224.631	48.98
224.849	38.74
225.067	135
225.285	51.03
225.503	38.74
225.721	-0.17
225.939	104.28
226.157	96.08
226.375	73.56
226.592	18.26
226.81	14.17
227.028	67.41
227.246	169.81
227.464	26.45
227.682	87.89
227.9	14.17
228.117	38.74
228.335	67.41
228.553	-59.56
228.771	67.41
228.989	79.7
229.206	34.64
229.424	65.36
229.642	-20.65
229.86	48.98
230.077	57.17
230.295	10.07
230.513	46.93
230.731	48.98
230.948	-18.6
231.166	73.56
231.384	63.32
231.601	38.74
231.819	149.33
232.037	30.55
232.254	-10.41
232.472	51.03
232.689	71.51
232.907	34.64
233.125	-26.79
233.342	-6.31
233.56	-0.17
233.777	44.88
233.995	22.36
234.213	141.14
234.43	38.74
234.648	55.12
234.865	1.88
235.083	77.65
235.3	-0.17
235.518	-24.75
235.735	85.84
235.953	106.32
236.17	20.31
236.388	79.7
236.605	55.12
236.822	114.52
237.04	89.94
237.257	63.32
237.475	20.31
237.692	122.71
237.909	16.21
238.127	46.93
238.344	30.55
238.562	112.47
238.779	-14.51
238.996	42.84
239.214	71.51
239.431	32.6
239.648	40.79
239.865	87.89
240.083	-8.36
240.3	-18.6
240.517	16.21
240.735	38.74
240.952	153.43
241.169	-10.41
241.386	-6.31
241.603	5.97
241.821	26.45
242.038	30.55
242.255	75.6
242.472	30.55
242.689	10.07
242.907	81.75
243.124	5.97
243.341	-49.32
243.558	-37.03
243.775	46.93
243.992	-10.41
244.209	87.89
244.426	57.17
244.643	63.32
244.86	42.84
245.078	-24.75
245.295	122.71
245.512	55.12
245.729	55.12
245.946	124.76
246.163	8.02
246.38	32.6
246.597	145.24
246.814	51.03
247.031	53.08
247.248	18.26
247.464	89.94
247.681	5.97
247.898	22.36
248.115	81.75
248.332	12.12
248.549	79.7
248.766	83.8
248.983	1.88
249.2	102.23
249.417	30.55
249.633	59.22
249.85	5.97
250.067	30.55
250.284	14.17
250.501	20.31
250.717	87.89
250.934	94.04
251.151	-26.79
251.368	14.17
251.585	-10.41
251.801	-10.41
252.018	-10.41
252.235	40.79
252.451	75.6
252.668	46.93
252.885	81.75
253.102	-18.6
253.318	59.22
253.535	-14.51
253.752	40.79
253.968	8.02
254.185	-20.65
254.401	36.69
254.618	96.08
254.835	63.32
255.051	73.56
255.268	5.97
255.484	51.03
255.701	38.74
255.917	59.22
256.134	44.88
256.351	24.4
256.567	-12.46
256.784	34.64
257	8.02
257.217	-51.37
257.433	71.51
257.65	-18.6
257.866	71.51
258.082	55.12
258.299	-63.66
258.515	53.08
258.732	20.31
258.948	75.6
259.165	8.02
259.381	24.4
259.597	38.74
259.814	57.17
260.03	96.08
260.246	81.75
260.463	96.08
260.679	63.32
260.895	38.74
261.112	46.93
261.328	5.97
261.544	1.88
261.761	55.12
261.977	-2.22
262.193	42.84
262.409	-16.55
262.626	10.07
262.842	18.26
263.058	-18.6
263.274	-0.17
263.49	40.79
263.707	79.7
263.923	65.36
264.139	26.45
264.355	104.28
264.571	40.79
264.787	32.6
265.004	40.79
265.22	-43.18
265.436	67.41
265.652	-14.51
265.868	14.17
266.084	8.02
266.3	57.17
266.516	14.17
266.732	8.02
266.948	-12.46
267.164	91.99
267.38	34.64
267.596	112.47
267.812	55.12
268.028	87.89
268.244	8.02
268.46	53.08
268.676	79.7
268.892	65.36
269.108	55.12
269.324	38.74
269.54	-59.56
269.756	38.74
269.972	34.64
270.188	24.4
270.403	96.08
270.619	75.6
270.835	81.75
271.051	24.4
271.267	75.6
271.483	38.74
271.698	57.17
271.914	-32.94
272.13	30.55
272.346	83.8
272.562	65.36
272.777	130.9
272.993	8.02
273.209	42.84
273.425	106.32
273.64	36.69
273.856	-10.41
274.072	46.93
274.287	-30.89
274.503	16.21
274.719	14.17
274.934	57.17
275.15	30.55
275.366	22.36
275.581	40.79
275.797	57.17
276.012	46.93
276.228	10.07
276.444	114.52
276.659	63.32
276.875	14.17
277.09	32.6
277.306	100.18
277.521	65.36
277.737	55.12
277.952	-20.65
278.168	94.04
278.383	-24.75
278.599	128.85
278.814	89.94
279.03	28.5
279.245	100.18
279.461	85.84
279.676	100.18
279.892	-26.79
280.107	8.02
280.322	32.6
280.538	22.36
280.753	55.12
280.969	59.22
281.184	8.02
281.399	22.36
281.615	63.32
281.83	77.65
282.045	-22.7
282.26	5.97
282.476	-2.22
282.691	42.84
282.906	81.75
283.122	46.93
283.337	26.45
283.552	112.47
283.767	40.79
283.983	28.5
284.198	5.97
284.413	26.45
284.628	-12.46
284.843	14.17
285.058	53.08
285.274	22.36
285.489	-34.99
285.704	55.12
285.919	55.12
286.134	16.21
286.349	30.55
286.564	-34.99
286.779	59.22
286.995	16.21
287.21	8.02
287.425	102.23
287.64	71.51
287.855	8.02
288.07	-6.31
288.285	18.26
288.5	40.79
288.715	87.89
288.93	1.88
289.145	32.6
289.36	36.69
289.575	8.02
289.79	98.13
290.004	79.7
290.219	42.84
290.434	-24.75
290.649	-12.46
290.864	-26.79
291.079	20.31
291.294	34.64
291.509	42.84
291.724	-26.79
291.938	61.27
292.153	40.79
292.368	26.45
292.583	55.12
292.798	63.32
293.012	-4.27
293.227	16.21
293.442	22.36
293.657	44.88
293.871	114.52
294.086	1.88
294.301	124.76
294.516	153.43
294.73	89.94
294.945	-32.94
295.16	1.88
295.374	36.69
295.589	14.17
295.804	1.88
296.018	38.74
296.233	55.12
296.447	69.46
296.662	-2.22
296.877	-24.75
297.091	42.84
297.306	22.36
297.52	18.26
297.735	-14.51
297.949	-2.22
298.164	30.55
298.378	34.64
298.593	3.93
298.807	38.74
299.022	14.17
299.236	73.56
299.451	122.71
299.665	77.65
299.88	42.84
300.094	5.97
300.309	8.02
300.523	75.6
300.737	-26.79
300.952	48.98
301.166	94.04
301.381	10.07
301.595	51.03
301.809	65.36
302.024	30.55
302.238	53.08
302.452	79.7
302.667	14.17
302.881	87.89
303.095	73.56
303.309	149.33
303.524	73.56
303.738	-2.22
303.952	24.4
304.166	38.74
304.381	-2.22
304.595	71.51
304.809	-0.17
305.023	75.6
305.237	24.4
305.452	-2.22
305.666	55.12
305.88	34.64
306.094	75.6
306.308	-24.75
306.522	-12.46
306.736	98.13
306.95	94.04
307.164	24.4
307.379	65.36
307.593	128.85
307.807	22.36
308.021	22.36
308.235	65.36
308.449	-26.79
308.663	8.02
308.877	128.85
309.091	40.79
309.305	77.65
309.519	5.97
309.733	104.28
309.947	10.07
310.161	55.12
310.374	87.89
310.588	63.32
310.802	5.97
311.016	-12.46
311.23	89.94
311.444	14.17
311.658	38.74
311.872	63.32
312.085	34.64
312.299	36.69
312.513	104.28
312.727	40.79
312.941	48.98
313.154	46.93
313.368	34.64
313.582	61.27
313.796	14.17
314.009	24.4
314.223	94.04
314.437	-22.7
314.651	18.26
314.864	-2.22
315.078	89.94
315.292	-26.79
315.505	75.6
315.719	46.93
315.933	46.93
316.146	71.51
316.36	5.97
316.573	18.26
316.787	63.32
317.001	51.03
317.214	55.12
317.428	32.6
317.641	38.74
317.855	-10.41
318.068	30.55
318.282	71.51
318.495	108.37
318.709	91.99
318.922	32.6
319.136	22.36
319.349	108.37
319.563	46.93
319.776	96.08
319.99	-2.22
320.203	89.94
320.417	73.56
320.63	59.22
320.843	38.74
321.057	63.32
321.27	46.93
321.483	-12.46
321.697	18.26
321.91	96.08
322.124	42.84
322.337	65.36
322.55	87.89
322.763	75.6
322.977	-8.36
323.19	-6.31
323.403	55.12
323.617	87.89
323.83	-2.22
324.043	59.22
324.256	55.12
324.469	87.89
324.683	48.98
324.896	5.97
325.109	57.17
325.322	5.97
325.535	38.74
325.748	5.97
325.962	63.32
326.175	14.17
326.388	14.17
326.601	32.6
326.814	51.03
327.027	132.95
327.24	116.56
327.453	3.93
327.666	28.5
327.879	55.12
328.092	42.84
328.305	100.18
328.518	-8.36
328.731	-24.75
328.944	63.32
329.157	20.31
329.37	130.9
329.583	79.7
329.796	61.27
330.009	8.02
330.222	126.8
330.435	40.79
330.648	34.64
330.861	77.65
331.073	51.03
331.286	79.7
331.499	14.17
331.712	38.74
331.925	-0.17
332.138	75.6
332.35	51.03
332.563	5.97
332.776	118.61
332.989	42.84
333.202	18.26
333.414	8.02
333.627	14.17
333.84	-49.32
334.053	14.17
334.265	48.98
334.478	18.26
334.691	65.36
334.903	8.02
335.116	-10.41
335.329	87.89
335.541	22.36
335.754	147.28
335.966	34.64
336.179	104.28
336.392	57.17
336.604	104.28
336.817	24.4
337.029	59.22
337.242	85.84
337.454	3.93
337.667	24.4
337.88	36.69
338.092	38.74
338.305	-0.17
338.517	59.22
338.729	1.88
338.942	14.17
339.154	-0.17
339.367	22.36
339.579	126.8
339.792	-4.27
340.004	85.84
340.217	5.97
340.429	104.28
340.641	22.36
340.854	63.32
341.066	96.08
341.278	67.41
341.491	98.13
341.703	8.02
341.915	161.62
342.128	85.84
342.34	14.17
342.552	18.26
342.764	55.12
342.977	-67.75
343.189	65.36
343.401	96.08
343.613	-6.31
343.826	104.28
344.038	-24.75
344.25	65.36
344.462	-2.22
344.674	18.26
344.886	67.41
345.099	55.12
345.311	-0.17
345.523	-28.84
345.735	-10.41
345.947	42.84
346.159	96.08
346.371	22.36
346.583	-10.41
346.795	91.99
347.007	67.41
347.219	73.56
347.431	55.12
347.643	161.62
347.855	30.55
348.067	124.76
348.279	51.03
348.491	26.45
348.703	5.97
348.915	128.85
349.127	-14.51
349.339	57.17
349.551	26.45
349.763	46.93
349.975	63.32
350.187	1.88
350.399	57.17
350.61	67.41
350.822	-47.27
351.034	46.93
351.246	5.97
351.458	96.08
351.669	159.57
351.881	67.41
352.093	61.27
352.305	96.08
352.517	59.22
352.728	57.17
352.94	108.37
353.152	128.85
353.363	-20.65
353.575	73.56
353.787	102.23
353.999	14.17
354.21	91.99
354.422	59.22
354.633	16.21
354.845	-10.41
355.057	-24.75
355.268	65.36
355.48	10.07
355.692	-20.65
355.903	-26.79
356.115	22.36
356.326	46.93
356.538	128.85
356.749	46.93
356.961	139.09
357.172	63.32
357.384	48.98
357.595	32.6
357.807	71.51
358.018	-6.31
358.23	30.55
358.441	153.43
358.653	69.46
358.864	98.13
359.075	10.07
359.287	5.97
359.498	55.12
359.709	24.4
359.921	81.75
360.132	46.93
360.344	36.69
360.555	8.02
360.766	104.28
360.977	22.36
361.189	-14.51
361.4	-8.36
361.611	71.51
361.823	81.75
362.034	98.13
362.245	110.42
362.456	34.64
362.667	38.74
362.879	22.36
363.09	-18.6
363.301	79.7
363.512	63.32
363.723	112.47
363.935	63.32
364.146	147.28
364.357	10.07
364.568	46.93
364.779	-32.94
364.99	128.85
365.201	-18.6
365.412	79.7
365.623	38.74
365.834	83.8
366.045	55.12
366.256	122.71
366.467	10.07
366.678	55.12
366.889	75.6
367.1	73.56
367.311	8.02
367.522	5.97
367.733	46.93
367.944	79.7
368.155	-8.36
368.366	96.08
368.577	98.13
368.788	91.99
368.999	46.93
369.209	28.5
369.42	132.95
369.631	124.76
369.842	71.51
370.053	22.36
370.264	75.6
370.474	67.41
370.685	59.22
370.896	26.45
371.107	63.32
371.317	94.04
371.528	-30.89
371.739	96.08
371.95	106.32
372.16	65.36
372.371	-0.17
372.582	40.79
372.792	79.7
373.003	108.37
373.214	26.45
373.424	79.7
373.635	5.97
373.846	18.26
374.056	34.64
374.267	51.03
374.477	48.98
374.688	63.32
374.898	38.74
375.109	91.99
375.319	100.18
375.53	38.74
375.74	79.7
375.951	10.07
376.161	71.51
376.372	44.88
376.582	71.51
376.793	73.56
377.003	-10.41
377.214	10.07
377.424	75.6
377.635	30.55
377.845	-0.17
378.055	24.4
378.266	16.21
378.476	22.36
378.686	5.97
378.897	65.36
379.107	1.88
379.317	5.97
379.528	-30.89
379.738	98.13
379.948	14.17
380.158	79.7
380.369	-24.75
380.579	112.47
380.789	51.03
380.999	26.45
381.21	112.47
381.42	102.23
381.63	114.52
381.84	63.32
382.05	57.17
382.261	73.56
382.471	100.18
382.681	-0.17
382.891	24.4
383.101	48.98
383.311	8.02
383.521	55.12
383.731	69.46
383.941	73.56
384.151	79.7
384.361	100.18
384.571	46.93
384.781	44.88
384.991	69.46
385.201	79.7
385.411	57.17
385.621	46.93
385.831	67.41
386.041	85.84
386.251	65.36
386.461	57.17
386.671	34.64
386.881	114.52
387.091	14.17
387.301	122.71
387.511	89.94
387.72	128.85
387.93	-18.6
388.14	24.4
388.35	-28.84
388.56	65.36
388.769	100.18
388.979	20.31
389.189	14.17
389.399	145.24
389.609	12.12
389.818	34.64
390.028	-10.41
390.238	40.79
390.447	24.4
390.657	61.27
390.867	77.65
391.076	120.66
391.286	98.13
391.496	81.75
391.705	85.84
391.915	46.93
392.125	26.45
392.334	51.03
392.544	44.88
392.753	71.51
392.963	16.21
393.172	87.89
393.382	-34.99
393.591	83.8
393.801	36.69
394.01	112.47
394.22	67.41
394.429	10.07
394.639	149.33
394.848	40.79
395.058	130.9
395.267	98.13
395.477	55.12
395.686	67.41
395.895	137.04
396.105	120.66
396.314	122.71
396.524	63.32
396.733	102.23
396.942	104.28
397.152	96.08
397.361	149.33
397.57	89.94
397.78	79.7
397.989	34.64
398.198	145.24
398.407	120.66
398.617	98.13
398.826	73.56
399.035	55.12
399.244	96.08
399.453	63.32
399.663	137.04
399.872	116.56
400.081	81.75
400.29	118.61
400.499	87.89
400.708	100.18
400.917	75.6
401.127	34.64
401.336	28.5
401.545	153.43
401.754	100.18
401.963	178
402.172	34.64
402.381	36.69
402.59	132.95
402.799	96.08
403.008	67.41
403.217	114.52
403.426	128.85
403.635	100.18
403.844	165.71
404.053	163.67
404.262	165.71
404.471	210.77
404.68	114.52
404.888	141.14
405.097	130.9
405.306	126.8
405.515	202.58
405.724	141.14
405.933	112.47
406.142	173.91
406.35	182.1
406.559	145.24
406.768	155.47
406.977	221.01
407.185	264.02
407.394	235.35
407.603	231.25
407.812	165.71
408.02	180.05
408.229	206.67
408.438	194.39
408.646	137.04
408.855	251.73
409.064	294.74
409.272	196.43
409.481	272.21
409.69	194.39
409.898	206.67
410.107	268.11
410.315	309.07
410.524	235.35
410.733	292.69
410.941	302.93
411.15	292.69
411.358	270.16
411.567	429.9
411.775	321.36
411.984	356.18
412.192	409.42
412.401	374.61
412.609	425.81
412.818	436.05
413.026	489.29
413.234	390.99
413.443	487.25
413.651	423.76
413.86	546.64
414.068	515.92
414.276	575.31
414.485	542.54
414.693	530.25
414.901	606.03
415.11	657.23
415.318	622.41
415.526	591.69
415.734	659.28
415.943	640.84
416.151	739.15
416.359	712.52
416.567	730.95
416.776	808.78
416.984	880.46
417.192	866.12
417.4	784.2
417.608	800.59
417.817	958.28
418.025	943.94
418.233	1001.29
418.441	993.09
418.649	1062.73
418.857	1226.56
419.065	1185.6
419.273	1128.26
419.481	1156.93
419.689	1193.8
419.897	1302.34
420.105	1247.04
420.313	1365.82
420.521	1431.36
420.729	1449.79
420.937	1521.47
421.145	1580.86
421.353	1656.64
421.561	1570.62
421.769	1759.03
421.977	1832.76
422.185	1744.7
422.393	1847.1
422.601	1972.02
422.809	1982.26
423.017	1974.07
423.224	2017.08
423.432	2117.43
423.64	2072.37
423.848	2258.74
424.056	2352.95
424.263	2461.49
424.471	2373.43
424.679	2479.92
424.887	2580.27
425.094	2684.72
425.302	2856.75
425.51	2971.43
425.718	2914.09
425.925	2928.42
426.133	3065.64
426.341	3307.3
426.548	3352.35
426.756	3243.81
426.964	3376.93
427.171	3692.32
427.379	3757.85
427.586	3737.37
427.794	3823.39
428.001	4044.57
428.209	4151.06
428.417	4187.93
428.624	4531.98
428.832	4417.3
429.039	4405.01
429.247	4462.35
429.454	4738.83
429.662	5179.14
429.869	4849.42
430.076	5181.19
430.284	5058.31
430.491	5287.68
430.699	5377.8
430.906	5588.74
431.114	5416.71
431.321	5971.71
431.528	5742.33
431.736	6225.65
431.943	6504.18
432.15	6287.09
432.358	6381.3
432.565	6766.32
432.772	6717.17
432.979	7120.62
433.187	7266.02
433.394	7149.29
433.601	7892.7
433.808	7694.05
434.016	7640.8
434.223	8175.32
434.43	8361.69
434.637	8459.99
434.844	9033.42
435.052	8910.54
435.259	8986.32
435.466	9230.02
435.673	9002.7
435.88	9586.37
436.087	10069.69
436.294	10182.33
436.501	9866.94
436.708	10157.75
436.915	10503.86
437.122	11085.48
437.329	10663.6
437.537	11136.68
437.743	11269.8
437.95	11329.19
438.157	11675.3
438.364	12066.46
438.571	12170.91
438.778	12199.58
438.985	13334.15
439.192	12736.15
439.399	13278.86
439.606	12861.07
439.813	13719.17
440.02	14438.01
440.227	14214.78
440.433	14124.67
440.64	14132.86
440.847	14464.63
441.054	14780.02
441.261	15666.79
441.467	15871.59
441.674	15896.16
441.881	16428.63
442.088	16133.73
442.294	16483.93
442.501	16518.75
442.708	16811.6
442.914	17825.35
443.121	18462.27
443.328	17784.39
443.534	19265.07
443.741	18607.67
443.948	18394.68
444.154	19666.47
444.361	19609.13
444.568	19809.83
444.774	19877.41
444.981	20121.12
445.187	20385.31
445.394	21497.36
445.6	20995.6
445.807	23346.67
446.013	22111.75
446.22	22640.12
446.426	23418.35
446.633	23805.42
446.839	24845.79
447.046	23528.94
447.252	24872.41
447.459	25013.72
447.665	24743.39
447.871	25789.9
448.078	26830.27
448.284	25486.8
448.491	26381.76
448.697	27329.97
448.903	27751.85
449.11	28171.69
449.316	27645.36
449.522	28112.3
449.728	29111.71
449.935	29216.15
450.141	29035.93
450.347	29494.68
450.553	28997.02
450.76	29031.83
450.966	30170.5
451.172	29785.49
451.378	30623.11
451.584	29826.45
451.791	31059.32
451.997	30383.49
452.203	31026.56
452.409	31341.94
452.615	30958.97
452.821	29738.38
453.027	29822.35
453.233	30993.79
453.44	30055.82
453.646	30561.67
453.852	30659.97
454.058	31044.99
454.264	29711.76
454.47	30850.43
454.676	29502.87
454.882	30829.95
455.088	28523.94
455.294	29003.16
455.5	29236.63
455.705	29797.77
455.911	28106.15
456.117	27897.26
456.323	27559.34
456.529	26283.46
456.735	27506.1
456.941	26645.95
457.147	26299.84
457.352	25499.09
457.558	25058.77
457.764	25322.96
457.97	24751.58
458.176	24352.23
458.381	24163.81
458.587	22894.07
458.793	23039.48
458.999	22042.12
459.204	23719.4
459.41	22765.05
459.616	21374.48
459.821	21378.58
460.027	21360.14
460.233	20717.08
460.438	20008.48
460.644	19893.8
460.85	19177.01
461.055	18863.67
461.261	19076.66
461.466	17419.85
461.672	16903.76
461.878	18124.35
462.083	16946.77
462.289	16533.08
462.494	16336.48
462.7	15629.93
462.905	15251.05
463.111	16023.14
463.316	15652.45
463.522	15552.1
463.727	15623.78
463.932	15492.71
464.138	15400.55
464.343	15570.54
464.549	14816.88
464.754	15294.06
464.959	15203.95
465.165	15191.66
465.37	14714.48
465.575	14190.2
465.781	14761.59
465.986	14796.4
466.191	14308.99
466.397	14112.38
466.602	13250.19
466.807	13840
467.012	13756.04
467.218	13645.45
467.423	13424.26
467.628	13489.8
