Data from USB4F104151__178__14-45-04-233.txt Node

Date: Thu Mar 13 14:45:04 EDT 2025
User: louis
Spectrometer: USB4F10415
Trigger mode: 4
Integration Time (sec): 2.000000E-2
Scans to average: 1
Electric dark correction enabled: true
Nonlinearity correction enabled: false
Boxcar width: 0
XAxis mode: Wavelengths
Number of Pixels in Spectrum: 3648
>>>>>Begin Spectral Data<<<<<
178.204	-68.78
178.424	-68.78
178.644	-68.78
178.864	-115.88
179.084	-91.31
179.304	-44.2
179.524	9.05
179.744	25.43
179.964	82.77
180.184	-36.01
180.404	43.86
180.624	-54.44
180.844	43.86
181.064	-74.92
181.283	4.95
181.503	11.09
181.723	-11.43
181.943	17.24
182.163	107.35
182.383	9.05
182.602	74.58
182.822	13.14
183.042	35.67
183.262	70.48
183.482	-15.53
183.701	66.39
183.921	33.62
184.141	17.24
184.361	76.63
184.58	84.82
184.8	66.39
185.02	15.19
185.239	99.16
185.459	45.91
185.679	-15.53
185.898	-1.19
186.118	54.1
186.338	-38.06
186.557	101.2
186.777	-7.34
186.997	84.82
187.216	-5.29
187.436	66.39
187.655	62.29
187.875	140.12
188.095	17.24
188.314	27.48
188.534	45.91
188.753	99.16
188.973	-9.39
189.192	107.35
189.412	2.9
189.631	37.72
189.851	43.86
190.07	154.45
190.29	17.24
190.509	25.43
190.729	0.85
190.948	107.35
191.168	172.88
191.387	50
191.607	60.24
191.826	47.96
192.045	37.72
192.265	-11.43
192.484	-29.87
192.704	19.29
192.923	52.05
193.142	119.64
193.362	86.87
193.581	82.77
193.8	41.81
194.02	62.29
194.239	82.77
194.458	39.76
194.678	103.25
194.897	76.63
195.116	58.2
195.335	17.24
195.555	-36.01
195.774	37.72
195.993	74.58
196.212	76.63
196.432	54.1
196.651	19.29
196.87	41.81
197.089	68.44
197.308	25.43
197.528	99.16
197.747	-60.59
197.966	93.01
198.185	131.92
198.404	74.58
198.623	78.68
198.842	140.12
199.062	58.2
199.281	58.2
199.5	80.72
199.719	99.16
199.938	60.24
200.157	74.58
200.376	31.57
200.595	68.44
200.814	0.85
201.033	-42.15
201.252	35.67
201.471	107.35
201.69	39.76
201.909	45.91
202.128	-62.63
202.347	0.85
202.566	45.91
202.785	52.05
203.004	74.58
203.223	52.05
203.442	19.29
203.661	33.62
203.879	66.39
204.098	68.44
204.317	4.95
204.536	68.44
204.755	90.96
204.974	90.96
205.193	11.09
205.411	136.02
205.63	72.53
205.849	78.68
206.068	-46.25
206.287	37.72
206.505	84.82
206.724	68.44
206.943	25.43
207.162	52.05
207.381	66.39
207.599	58.2
207.818	17.24
208.037	29.52
208.255	68.44
208.474	4.95
208.693	56.15
208.911	-38.06
209.13	62.29
209.349	52.05
209.567	111.44
209.786	43.86
210.005	64.34
210.223	39.76
210.442	31.57
210.661	41.81
210.879	25.43
211.098	17.24
211.316	-9.39
211.535	160.59
211.753	56.15
211.972	72.53
212.191	-13.48
212.409	-15.53
212.628	52.05
212.846	0.85
213.065	52.05
213.283	144.21
213.502	19.29
213.72	-15.53
213.938	97.11
214.157	123.73
214.375	-11.43
214.594	29.52
214.812	33.62
215.031	66.39
215.249	19.29
215.467	27.48
215.686	33.62
215.904	-1.19
216.122	58.2
216.341	82.77
216.559	152.4
216.778	103.25
216.996	50
217.214	62.29
217.432	19.29
217.651	99.16
217.869	-29.87
218.087	17.24
218.306	70.48
218.524	50
218.742	35.67
218.96	129.88
219.179	-5.29
219.397	156.5
219.615	93.01
219.833	74.58
220.051	84.82
220.27	156.5
220.488	62.29
220.706	82.77
220.924	52.05
221.142	-7.34
221.36	-7.34
221.578	109.4
221.796	39.76
222.015	33.62
222.233	52.05
222.451	86.87
222.669	43.86
222.887	43.86
223.105	-38.06
223.323	13.14
223.541	21.33
223.759	78.68
223.977	37.72
224.195	90.96
224.413	-23.72
224.631	90.96
224.849	45.91
225.067	78.68
225.285	43.86
225.503	41.81
225.721	33.62
225.939	39.76
226.157	60.24
226.375	109.4
226.592	-19.63
226.81	-21.67
227.028	33.62
227.246	101.2
227.464	121.68
227.682	60.24
227.9	27.48
228.117	50
228.335	58.2
228.553	58.2
228.771	7
228.989	41.81
229.206	25.43
229.424	17.24
229.642	66.39
229.86	19.29
230.077	0.85
230.295	64.34
230.513	21.33
230.731	56.15
230.948	113.49
231.166	107.35
231.384	2.9
231.601	35.67
231.819	133.97
232.037	-21.67
232.254	37.72
232.472	-5.29
232.689	13.14
232.907	52.05
233.125	25.43
233.342	80.72
233.56	86.87
233.777	21.33
233.995	-31.91
234.213	123.73
234.43	123.73
234.648	-3.24
234.865	9.05
235.083	115.54
235.3	86.87
235.518	111.44
235.735	88.92
235.953	99.16
236.17	-27.82
236.388	66.39
236.605	4.95
236.822	70.48
237.04	58.2
237.257	-72.87
237.475	17.24
237.692	62.29
237.909	27.48
238.127	-17.58
238.344	74.58
238.562	62.29
238.779	54.1
238.996	-31.91
239.214	25.43
239.431	11.09
239.648	21.33
239.865	82.77
240.083	111.44
240.3	2.9
240.517	43.86
240.735	15.19
240.952	140.12
241.169	82.77
241.386	68.44
241.603	25.43
241.821	-21.67
242.038	127.83
242.255	84.82
242.472	-21.67
242.689	27.48
242.907	74.58
243.124	56.15
243.341	131.92
243.558	17.24
243.775	52.05
243.992	-29.87
244.209	140.12
244.426	37.72
244.643	41.81
244.86	-40.11
245.078	109.4
245.295	136.02
245.512	70.48
245.729	52.05
245.946	37.72
246.163	33.62
246.38	33.62
246.597	17.24
246.814	9.05
247.031	9.05
247.248	86.87
247.464	58.2
247.681	31.57
247.898	111.44
248.115	66.39
248.332	2.9
248.549	103.25
248.766	115.54
248.983	119.64
249.2	90.96
249.417	4.95
249.633	60.24
249.85	37.72
250.067	-72.87
250.284	-1.19
250.501	107.35
250.717	-11.43
250.934	58.2
251.151	76.63
251.368	68.44
251.585	27.48
251.801	21.33
252.018	15.19
252.235	66.39
252.451	39.76
252.668	33.62
252.885	74.58
253.102	82.77
253.318	9.05
253.535	50
253.752	99.16
253.968	41.81
254.185	11.09
254.401	19.29
254.618	43.86
254.835	37.72
255.051	68.44
255.268	66.39
255.484	60.24
255.701	52.05
255.917	160.59
256.134	52.05
256.351	4.95
256.567	17.24
256.784	37.72
257	56.15
257.217	43.86
257.433	136.02
257.65	125.78
257.866	41.81
258.082	56.15
258.299	-21.67
258.515	103.25
258.732	64.34
258.948	-23.72
259.165	50
259.381	56.15
259.597	68.44
259.814	50
260.03	52.05
260.246	0.85
260.463	54.1
260.679	93.01
260.895	27.48
261.112	-15.53
261.328	17.24
261.544	37.72
261.761	82.77
261.977	-15.53
262.193	33.62
262.409	95.06
262.626	37.72
262.842	99.16
263.058	60.24
263.274	-15.53
263.49	54.1
263.707	138.07
263.923	101.2
264.139	41.81
264.355	41.81
264.571	103.25
264.787	17.24
265.004	90.96
265.22	84.82
265.436	-21.67
265.652	86.87
265.868	29.52
266.084	-7.34
266.3	70.48
266.516	23.38
266.732	50
266.948	9.05
267.164	19.29
267.38	15.19
267.596	19.29
267.812	113.49
268.028	41.81
268.244	9.05
268.46	23.38
268.676	90.96
268.892	58.2
269.108	4.95
269.324	-13.48
269.54	-27.82
269.756	97.11
269.972	78.68
270.188	43.86
270.403	43.86
270.619	90.96
270.835	50
271.051	31.57
271.267	11.09
271.483	25.43
271.698	84.82
271.914	35.67
272.13	9.05
272.346	41.81
272.562	39.76
272.777	54.1
272.993	-56.49
273.209	80.72
273.425	68.44
273.64	82.77
273.856	45.91
274.072	33.62
274.287	-19.63
274.503	21.33
274.719	84.82
274.934	37.72
275.15	-64.68
275.366	78.68
275.581	58.2
275.797	142.16
276.012	25.43
276.228	-31.91
276.444	58.2
276.659	33.62
276.875	17.24
277.09	68.44
277.306	62.29
277.521	21.33
277.737	113.49
277.952	95.06
278.168	0.85
278.383	50
278.599	35.67
278.814	37.72
279.03	27.48
279.245	11.09
279.461	86.87
279.676	78.68
279.892	13.14
280.107	41.81
280.322	13.14
280.538	105.3
280.753	0.85
280.969	80.72
281.184	76.63
281.399	70.48
281.615	-11.43
281.83	37.72
282.045	-23.72
282.26	27.48
282.476	35.67
282.691	103.25
282.906	105.3
283.122	52.05
283.337	62.29
283.552	-9.39
283.767	60.24
283.983	66.39
284.198	66.39
284.413	29.52
284.628	21.33
284.843	58.2
285.058	95.06
285.274	33.62
285.489	-1.19
285.704	66.39
285.919	43.86
286.134	52.05
286.349	47.96
286.564	-11.43
286.779	25.43
286.995	54.1
287.21	29.52
287.425	41.81
287.64	4.95
287.855	27.48
288.07	43.86
288.285	52.05
288.5	156.5
288.715	136.02
288.93	21.33
289.145	68.44
289.36	76.63
289.575	9.05
289.79	90.96
290.004	37.72
290.219	119.64
290.434	56.15
290.649	11.09
290.864	62.29
291.079	-15.53
291.294	58.2
291.509	-21.67
291.724	60.24
291.938	45.91
292.153	35.67
292.368	25.43
292.583	45.91
292.798	119.64
293.012	-46.25
293.227	21.33
293.442	33.62
293.657	47.96
293.871	68.44
294.086	74.58
294.301	25.43
294.516	50
294.73	50
294.945	45.91
295.16	25.43
295.374	54.1
295.589	93.01
295.804	50
296.018	82.77
296.233	64.34
296.447	56.15
296.662	-11.43
296.877	125.78
297.091	78.68
297.306	97.11
297.52	68.44
297.735	90.96
297.949	-7.34
298.164	101.2
298.378	93.01
298.593	2.9
298.807	-13.48
299.022	-23.72
299.236	33.62
299.451	88.92
299.665	50
299.88	105.3
300.094	33.62
300.309	0.85
300.523	21.33
300.737	-21.67
300.952	60.24
301.166	25.43
301.381	41.81
301.595	33.62
301.809	107.35
302.024	2.9
302.238	27.48
302.452	27.48
302.667	84.82
302.881	82.77
303.095	82.77
303.309	64.34
303.524	9.05
303.738	37.72
303.952	41.81
304.166	90.96
304.381	-27.82
304.595	74.58
304.809	-15.53
305.023	66.39
305.237	41.81
305.452	45.91
305.666	50
305.88	93.01
306.094	43.86
306.308	84.82
306.522	41.81
306.736	76.63
306.95	70.48
307.164	-21.67
307.379	41.81
307.593	86.87
307.807	66.39
308.021	123.73
308.235	43.86
308.449	47.96
308.663	66.39
308.877	113.49
309.091	62.29
309.305	131.92
309.519	60.24
309.733	33.62
309.947	33.62
310.161	15.19
310.374	11.09
310.588	84.82
310.802	-23.72
311.016	43.86
311.23	23.38
311.444	41.81
311.658	13.14
311.872	74.58
312.085	52.05
312.299	107.35
312.513	82.77
312.727	33.62
312.941	29.52
313.154	60.24
313.368	33.62
313.582	76.63
313.796	50
314.009	13.14
314.223	88.92
314.437	60.24
314.651	37.72
314.864	117.59
315.078	41.81
315.292	0.85
315.505	76.63
315.719	82.77
315.933	35.67
316.146	25.43
316.36	7
316.573	27.48
316.787	31.57
317.001	58.2
317.214	17.24
317.428	58.2
317.641	70.48
317.855	66.39
318.068	54.1
318.282	0.85
318.495	74.58
318.709	111.44
318.922	90.96
319.136	103.25
319.349	64.34
319.563	-31.91
319.776	78.68
319.99	43.86
320.203	41.81
320.417	43.86
320.63	66.39
320.843	90.96
321.057	37.72
321.27	-29.87
321.483	39.76
321.697	31.57
321.91	37.72
322.124	4.95
322.337	21.33
322.55	-7.34
322.763	-23.72
322.977	17.24
323.19	68.44
323.403	11.09
323.617	56.15
323.83	62.29
324.043	60.24
324.256	43.86
324.469	-17.58
324.683	58.2
324.896	58.2
325.109	52.05
325.322	41.81
325.535	125.78
325.748	33.62
325.962	99.16
326.175	93.01
326.388	-15.53
326.601	31.57
326.814	-15.53
327.027	58.2
327.24	70.48
327.453	4.95
327.666	37.72
327.879	-13.48
328.092	123.73
328.305	37.72
328.518	45.91
328.731	-15.53
328.944	21.33
329.157	13.14
329.37	27.48
329.583	68.44
329.796	146.26
330.009	45.91
330.222	11.09
330.435	62.29
330.648	58.2
330.861	27.48
331.073	103.25
331.286	54.1
331.499	31.57
331.712	33.62
331.925	17.24
332.138	58.2
332.35	29.52
332.563	54.1
332.776	78.68
332.989	11.09
333.202	-7.34
333.414	43.86
333.627	9.05
333.84	50
334.053	82.77
334.265	35.67
334.478	0.85
334.691	13.14
334.903	27.48
335.116	62.29
335.329	19.29
335.541	50
335.754	41.81
335.966	9.05
336.179	17.24
336.392	19.29
336.604	82.77
336.817	35.67
337.029	74.58
337.242	-23.72
337.454	74.58
337.667	41.81
337.88	117.59
338.092	95.06
338.305	17.24
338.517	43.86
338.729	64.34
338.942	78.68
339.154	13.14
339.367	78.68
339.579	4.95
339.792	21.33
340.004	84.82
340.217	82.77
340.429	45.91
340.641	95.06
340.854	58.2
341.066	21.33
341.278	93.01
341.491	74.58
341.703	33.62
341.915	17.24
342.128	25.43
342.34	115.54
342.552	74.58
342.764	25.43
342.977	58.2
343.189	56.15
343.401	93.01
343.613	41.81
343.826	74.58
344.038	27.48
344.25	0.85
344.462	62.29
344.674	33.62
344.886	68.44
345.099	66.39
345.311	76.63
345.523	27.48
345.735	31.57
345.947	35.67
346.159	-36.01
346.371	62.29
346.583	-15.53
346.795	76.63
347.007	50
347.219	88.92
347.431	56.15
347.643	140.12
347.855	37.72
348.067	60.24
348.279	50
348.491	27.48
348.703	41.81
348.915	74.58
349.127	68.44
349.339	50
349.551	-50.35
349.763	52.05
349.975	-9.39
350.187	29.52
350.399	17.24
350.61	111.44
350.822	105.3
351.034	0.85
351.246	25.43
351.458	115.54
351.669	-19.63
351.881	82.77
352.093	33.62
352.305	4.95
352.517	-7.34
352.728	90.96
352.94	82.77
353.152	4.95
353.363	25.43
353.575	17.24
353.787	90.96
353.999	72.53
354.21	68.44
354.422	31.57
354.633	25.43
354.845	35.67
355.057	58.2
355.268	115.54
355.48	54.1
355.692	11.09
355.903	33.62
356.115	52.05
356.326	109.4
356.538	41.81
356.749	41.81
356.961	115.54
357.172	58.2
357.384	66.39
357.595	80.72
357.807	41.81
358.018	45.91
358.23	93.01
358.441	119.64
358.653	13.14
358.864	35.67
359.075	103.25
359.287	50
359.498	115.54
359.709	78.68
359.921	37.72
360.132	93.01
360.344	66.39
360.555	99.16
360.766	62.29
360.977	17.24
361.189	90.96
361.4	-19.63
361.611	37.72
361.823	66.39
362.034	84.82
362.245	-13.48
362.456	62.29
362.667	54.1
362.879	-3.24
363.09	68.44
363.301	11.09
363.512	13.14
363.723	25.43
363.935	33.62
364.146	103.25
364.357	7
364.568	115.54
364.779	93.01
364.99	119.64
365.201	64.34
365.412	113.49
365.623	2.9
365.834	115.54
366.045	21.33
366.256	58.2
366.467	56.15
366.678	41.81
366.889	37.72
367.1	84.82
367.311	86.87
367.522	25.43
367.733	58.2
367.944	82.77
368.155	27.48
368.366	21.33
368.577	129.88
368.788	54.1
368.999	25.43
369.209	78.68
369.42	54.1
369.631	123.73
369.842	84.82
370.053	13.14
370.264	131.92
370.474	21.33
370.685	64.34
370.896	0.85
371.107	66.39
371.317	103.25
371.528	58.2
371.739	90.96
371.95	41.81
372.16	37.72
372.371	68.44
372.582	95.06
372.792	68.44
373.003	90.96
373.214	21.33
373.424	84.82
373.635	-29.87
373.846	58.2
374.056	70.48
374.267	127.83
374.477	35.67
374.688	35.67
374.898	50
375.109	17.24
375.319	21.33
375.53	17.24
375.74	101.2
375.951	41.81
376.161	43.86
376.372	82.77
376.582	-15.53
376.793	58.2
377.003	-36.01
377.214	-21.67
377.424	131.92
377.635	41.81
377.845	58.2
378.055	115.54
378.266	17.24
378.476	50
378.686	54.1
378.897	-9.39
379.107	0.85
379.317	62.29
379.528	68.44
379.738	21.33
379.948	41.81
380.158	109.4
380.369	27.48
380.579	52.05
380.789	144.21
380.999	140.12
381.21	97.11
381.42	123.73
381.63	43.86
381.84	56.15
382.05	131.92
382.261	78.68
382.471	58.2
382.681	62.29
382.891	66.39
383.101	37.72
383.311	88.92
383.521	17.24
383.731	17.24
383.941	131.92
384.151	56.15
384.361	-5.29
384.571	82.77
384.781	21.33
384.991	142.16
385.201	158.55
385.411	74.58
385.621	66.39
385.831	21.33
386.041	50
386.251	93.01
386.461	56.15
386.671	50
386.881	39.76
387.091	54.1
387.301	66.39
387.511	109.4
387.72	52.05
387.93	56.15
388.14	35.67
388.35	111.44
388.56	140.12
388.769	115.54
388.979	76.63
389.189	58.2
389.399	68.44
389.609	11.09
389.818	68.44
390.028	68.44
390.238	150.36
390.447	-19.63
390.657	84.82
390.867	-9.39
391.076	-7.34
391.286	129.88
391.496	68.44
391.705	107.35
391.915	54.1
392.125	0.85
392.334	58.2
392.544	58.2
392.753	70.48
392.963	90.96
393.172	25.43
393.382	62.29
393.591	142.16
393.801	-15.53
394.01	86.87
394.22	107.35
394.429	66.39
394.639	56.15
394.848	62.29
395.058	82.77
395.267	123.73
395.477	107.35
395.686	101.2
395.895	131.92
396.105	164.69
396.314	166.74
396.524	60.24
396.733	86.87
396.942	45.91
397.152	109.4
397.361	70.48
397.57	117.59
397.78	60.24
397.989	90.96
398.198	117.59
398.407	74.58
398.617	-7.34
398.826	76.63
399.035	117.59
399.244	50
399.453	113.49
399.663	107.35
399.872	99.16
400.081	21.33
400.29	127.83
400.499	47.96
400.708	185.17
400.917	58.2
401.127	107.35
401.336	90.96
401.545	119.64
401.754	123.73
401.963	123.73
402.172	66.39
402.381	99.16
402.59	58.2
402.799	125.78
403.008	17.24
403.217	115.54
403.426	133.97
403.635	140.12
403.844	74.58
404.053	50
404.262	60.24
404.471	158.55
404.68	99.16
404.888	107.35
405.097	125.78
405.306	170.83
405.515	185.17
405.724	193.36
405.933	201.55
406.142	144.21
406.35	215.89
406.559	127.83
406.768	103.25
406.977	174.93
407.185	117.59
407.394	205.65
407.603	97.11
407.812	215.89
408.02	179.03
408.229	150.36
408.438	211.79
408.646	170.83
408.855	127.83
409.064	185.17
409.272	197.46
409.481	258.9
409.69	205.65
409.898	248.66
410.107	254.8
410.315	279.38
410.524	183.12
410.733	336.72
410.941	324.43
411.15	265.04
411.358	326.48
411.567	312.14
411.775	273.23
411.984	312.14
412.192	336.72
412.401	340.82
412.609	396.11
412.818	351.06
413.026	416.59
413.234	447.31
413.443	330.58
413.651	238.42
413.86	338.77
414.068	394.06
414.276	473.93
414.485	443.21
414.693	500.56
414.901	582.48
415.11	484.17
415.318	457.55
415.526	463.69
415.734	582.48
415.943	549.71
416.151	635.72
416.359	525.13
416.567	617.29
416.776	623.44
416.984	707.4
417.192	699.21
417.4	723.79
417.608	664.4
417.817	760.65
418.025	793.42
418.233	883.53
418.441	770.89
418.649	854.86
418.857	916.3
419.065	904.01
419.273	901.96
419.481	965.45
419.689	1000.26
419.897	1028.93
420.105	1035.08
420.313	1000.26
420.521	1147.72
420.729	1117
420.937	1184.58
421.145	1174.34
421.353	1241.92
421.561	1297.22
421.769	1391.42
421.977	1399.62
422.185	1338.18
422.393	1524.54
422.601	1540.93
422.809	1631.04
423.017	1657.66
423.224	1647.42
423.432	1678.14
423.64	1727.29
423.848	1917.75
424.056	1872.7
424.263	1930.04
424.471	2044.73
424.679	1958.71
424.887	2083.64
425.094	2149.17
425.302	2155.32
425.51	2124.6
425.718	2343.73
425.925	2390.83
426.133	2419.5
426.341	2581.29
426.548	2646.83
426.756	2667.31
426.964	2757.42
427.171	2798.38
427.379	3015.46
427.586	2956.07
427.794	3101.48
428.001	3255.08
428.209	3351.33
428.417	3300.13
428.624	3588.89
428.832	3539.74
429.039	3586.85
429.247	3523.36
429.454	3805.98
429.662	4066.07
429.869	3951.39
430.076	4000.54
430.284	4037.4
430.491	4209.43
430.699	4502.29
430.906	4360.98
431.114	4516.62
431.321	4592.4
431.528	4739.85
431.736	4893.45
431.943	5210.89
432.15	5055.24
432.358	5186.31
432.565	5432.07
432.772	5366.53
432.979	5593.86
433.187	5876.48
433.394	5835.52
433.601	6273.78
433.808	6273.78
434.016	6218.49
434.223	6427.38
434.43	6793.97
434.637	6693.62
434.844	7176.94
435.052	7191.27
435.259	7090.92
435.466	7162.6
435.673	7135.98
435.88	7600.87
436.087	7942.88
436.294	8090.33
436.501	7594.72
436.708	7946.97
436.915	8170.2
437.122	8622.8
437.329	8612.56
437.537	8766.16
437.743	9001.68
437.95	8901.33
438.157	9333.45
438.364	9454.28
438.571	9751.23
438.778	9642.69
438.985	10435.25
439.192	10142.39
439.399	10425.01
439.606	10150.59
439.813	10904.24
440.02	11356.84
440.227	11125.42
440.433	11109.04
440.64	11520.68
440.847	11354.79
441.054	11813.54
441.261	12554.9
441.467	12470.94
441.674	12544.66
441.881	13077.13
442.088	13025.93
442.294	12980.88
442.501	13216.4
442.708	13458.06
442.914	13970.05
443.121	14670.45
443.328	14465.66
443.534	15196.78
443.741	14500.47
443.948	14477.94
444.154	15673.96
444.361	15684.2
444.568	15698.53
444.774	15438.44
444.981	15719.01
445.187	16566.87
445.394	17001.04
445.6	16884.31
445.807	18453.05
446.013	17404.49
446.22	17744.45
446.426	18627.13
446.633	18496.06
446.839	19405.36
447.046	18389.56
447.252	19735.08
447.459	19632.68
447.665	19563.05
447.871	20351.52
448.078	21301.78
448.284	20273.7
448.491	20906.52
448.697	21445.13
448.903	21959.17
449.11	22057.48
449.316	21611.02
449.522	21922.31
449.728	22565.37
449.935	22843.9
450.141	22991.35
450.347	23454.19
450.553	22553.09
450.76	22835.7
450.966	23480.82
451.172	23323.12
451.378	24044.01
451.584	23296.5
451.791	24324.58
451.997	24150.5
452.203	24523.23
452.409	24328.67
452.615	24146.4
452.821	23284.21
453.027	23087.61
453.233	24310.24
453.44	23624.17
453.646	23878.12
453.852	24009.19
454.058	24277.47
454.264	23532.01
454.47	23968.23
454.676	23290.35
454.882	24275.43
455.088	22399.49
455.294	22639.1
455.5	22731.26
455.705	23155.19
455.911	22151.68
456.117	22055.43
456.323	21332.5
456.529	20511.26
456.735	21242.39
456.941	20675.1
457.147	20247.07
457.352	19931.69
457.558	19595.82
457.764	19497.52
457.97	19538.48
458.176	18821.69
458.381	18795.06
458.587	17881.67
458.793	18031.17
458.999	16984.66
459.204	18195.01
459.41	17674.82
459.616	16712.28
459.821	16517.72
460.027	16607.83
460.233	16220.77
460.438	15612.52
460.644	15571.56
460.85	14953.07
461.055	14586.49
461.261	14848.63
461.466	13542.02
461.672	13124.24
461.878	14054.01
462.083	13124.24
462.289	13079.18
462.494	12905.1
462.7	12354.2
462.905	11944.61
463.111	12264.09
463.316	12364.44
463.522	12014.24
463.727	11995.81
463.932	12153.5
464.138	11979.42
464.343	12102.3
464.549	11752.1
464.754	11872.93
464.959	11844.26
465.165	11874.98
465.37	11231.91
465.575	11141.8
465.781	11418.28
465.986	11580.07
466.191	11014.83
466.397	11016.88
466.602	10404.53
466.807	10910.38
467.012	10928.81
467.218	10695.35
467.423	10635.96
467.628	10662.58
467.833	11109.04
468.038	10719.92
468.244	10433.21
468.449	10738.35
468.654	10371.77
