Data from USB4F104151__135__14-44-07-726.txt Node

Date: Thu Mar 13 14:44:07 EDT 2025
User: louis
Spectrometer: USB4F10415
Trigger mode: 4
Integration Time (sec): 2.000000E-2
Scans to average: 1
Electric dark correction enabled: true
Nonlinearity correction enabled: false
Boxcar width: 0
XAxis mode: Wavelengths
Number of Pixels in Spectrum: 3648
>>>>>Begin Spectral Data<<<<<
178.204	-76.46
178.424	-76.46
178.644	-76.46
178.864	-160.42
179.084	-172.71
179.304	3.41
179.524	-8.87
179.744	-37.55
179.964	19.8
180.184	11.61
180.404	71
180.624	-37.55
180.844	-10.92
181.064	-70.31
181.283	-0.68
181.503	-25.26
181.723	85.33
181.943	15.7
182.163	87.38
182.383	9.56
182.602	62.8
182.822	48.47
183.042	44.37
183.262	-35.5
183.482	64.85
183.701	-0.68
183.921	23.89
184.141	73.04
184.361	52.56
184.58	27.99
184.8	-37.55
185.02	60.76
185.239	-21.16
185.459	68.95
185.679	27.99
185.898	7.51
186.118	103.76
186.338	44.37
186.557	36.18
186.777	3.41
186.997	9.56
187.216	30.04
187.436	60.76
187.655	-43.69
187.875	48.47
188.095	34.13
188.314	27.99
188.534	13.65
188.753	11.61
188.973	81.24
189.192	134.48
189.412	36.18
189.631	56.66
189.851	25.94
190.07	177.49
190.29	-6.83
190.509	77.14
190.729	93.52
190.948	150.87
191.168	200.02
191.387	32.08
191.607	48.47
191.826	56.66
192.045	48.47
192.265	44.37
192.484	36.18
192.704	-15.02
192.923	56.66
193.142	13.65
193.362	40.28
193.581	114
193.8	36.18
194.02	62.8
194.239	3.41
194.458	56.66
194.678	11.61
194.897	27.99
195.116	-4.78
195.335	46.42
195.555	48.47
195.774	-8.87
195.993	68.95
196.212	-19.11
196.432	15.7
196.651	44.37
196.87	3.41
197.089	64.85
197.308	105.81
197.528	93.52
197.747	-35.5
197.966	79.19
198.185	136.53
198.404	-19.11
198.623	3.41
198.842	52.56
199.062	58.71
199.281	32.08
199.5	-23.21
199.719	25.94
199.938	11.61
200.157	44.37
200.376	17.75
200.595	-0.68
200.814	64.85
201.033	52.56
201.252	56.66
201.471	-2.73
201.69	79.19
201.909	85.33
202.128	23.89
202.347	19.8
202.566	13.65
202.785	-19.11
203.004	-31.4
203.223	71
203.442	-17.07
203.661	46.42
203.879	-12.97
204.098	73.04
204.317	-51.88
204.536	54.61
204.755	68.95
204.974	48.47
205.193	-21.16
205.411	114
205.63	-6.83
205.849	36.18
206.068	48.47
206.287	19.8
206.505	66.9
206.724	19.8
206.943	21.85
207.162	-10.92
207.381	21.85
207.599	11.61
207.818	-41.64
208.037	60.76
208.255	32.08
208.474	60.76
208.693	1.37
208.911	103.76
209.13	-0.68
209.349	60.76
209.567	75.09
209.786	101.72
210.005	48.47
210.223	5.46
210.442	-51.88
210.661	19.8
210.879	73.04
211.098	-4.78
211.316	-31.4
211.535	64.85
211.753	52.56
211.972	52.56
212.191	-4.78
212.409	77.14
212.628	27.99
212.846	60.76
213.065	81.24
213.283	56.66
213.502	13.65
213.72	54.61
213.938	15.7
214.157	11.61
214.375	-43.69
214.594	46.42
214.812	134.48
215.031	60.76
215.249	-4.78
215.467	79.19
215.686	73.04
215.904	3.41
216.122	-6.83
216.341	152.92
216.559	44.37
216.778	118.1
216.996	32.08
217.214	79.19
217.432	64.85
217.651	40.28
217.869	27.99
218.087	5.46
218.306	13.65
218.524	32.08
218.742	40.28
218.96	13.65
219.179	19.8
219.397	15.7
219.615	21.85
219.833	21.85
220.051	52.56
220.27	46.42
220.488	46.42
220.706	66.9
220.924	5.46
221.142	38.23
221.36	44.37
221.578	-10.92
221.796	13.65
222.015	19.8
222.233	71
222.451	36.18
222.669	-25.26
222.887	-12.97
223.105	19.8
223.323	54.61
223.541	11.61
223.759	32.08
223.977	27.99
224.195	111.96
224.413	54.61
224.631	93.52
224.849	-41.64
225.067	30.04
225.285	21.85
225.503	52.56
225.721	103.76
225.939	-2.73
226.157	142.68
226.375	75.09
226.592	19.8
226.81	7.51
227.028	60.76
227.246	71
227.464	30.04
227.682	81.24
227.9	-12.97
228.117	118.1
228.335	32.08
228.553	-17.07
228.771	-39.59
228.989	38.23
229.206	11.61
229.424	46.42
229.642	13.65
229.86	-4.78
230.077	27.99
230.295	-2.73
230.513	21.85
230.731	68.95
230.948	13.65
231.166	71
231.384	73.04
231.601	21.85
231.819	-2.73
232.037	5.46
232.254	50.52
232.472	27.99
232.689	-23.21
232.907	19.8
233.125	38.23
233.342	75.09
233.56	-10.92
233.777	118.1
233.995	21.85
234.213	50.52
234.43	34.13
234.648	19.8
234.865	85.33
235.083	27.99
235.3	48.47
235.518	52.56
235.735	42.32
235.953	38.23
236.17	-0.68
236.388	118.1
236.605	68.95
236.822	32.08
237.04	42.32
237.257	97.62
237.475	21.85
237.692	54.61
237.909	-53.93
238.127	-25.26
238.344	-17.07
238.562	60.76
238.779	-19.11
238.996	58.71
239.214	19.8
239.431	21.85
239.648	19.8
239.865	52.56
240.083	13.65
240.3	109.91
240.517	21.85
240.735	44.37
240.952	21.85
241.169	62.8
241.386	-10.92
241.603	11.61
241.821	89.43
242.038	79.19
242.255	7.51
242.472	60.76
242.689	111.96
242.907	40.28
243.124	44.37
243.341	32.08
243.558	-2.73
243.775	3.41
243.992	3.41
244.209	-19.11
244.426	52.56
244.643	44.37
244.86	-4.78
245.078	60.76
245.295	-37.55
245.512	25.94
245.729	60.76
245.946	34.13
246.163	-10.92
246.38	5.46
246.597	38.23
246.814	19.8
247.031	-29.35
247.248	50.52
247.464	54.61
247.681	56.66
247.898	52.56
248.115	71
248.332	25.94
248.549	73.04
248.766	66.9
248.983	52.56
249.2	-4.78
249.417	50.52
249.633	60.76
249.85	101.72
250.067	42.32
250.284	85.33
250.501	13.65
250.717	52.56
250.934	36.18
251.151	77.14
251.368	30.04
251.585	62.8
251.801	13.65
252.018	95.57
252.235	126.29
252.451	23.89
252.668	-19.11
252.885	30.04
253.102	15.7
253.318	52.56
253.535	1.37
253.752	5.46
253.968	11.61
254.185	-47.79
254.401	30.04
254.618	85.33
254.835	-2.73
255.051	68.95
255.268	30.04
255.484	40.28
255.701	-17.07
255.917	99.67
256.134	73.04
256.351	62.8
256.567	-58.03
256.784	40.28
257	-21.16
257.217	95.57
257.433	15.7
257.65	3.41
257.866	30.04
258.082	3.41
258.299	52.56
258.515	85.33
258.732	32.08
258.948	15.7
259.165	15.7
259.381	93.52
259.597	27.99
259.814	21.85
260.03	32.08
260.246	19.8
260.463	46.42
260.679	87.38
260.895	56.66
261.112	-45.74
261.328	13.65
261.544	13.65
261.761	163.15
261.977	5.46
262.193	-29.35
262.409	30.04
262.626	42.32
262.842	27.99
263.058	23.89
263.274	5.46
263.49	40.28
263.707	58.71
263.923	25.94
264.139	38.23
264.355	64.85
264.571	3.41
264.787	-12.97
265.004	109.91
265.22	3.41
265.436	83.28
265.652	19.8
265.868	81.24
266.084	21.85
266.3	56.66
266.516	-10.92
266.732	68.95
266.948	46.42
267.164	60.76
267.38	-53.93
267.596	-19.11
267.812	105.81
268.028	85.33
268.244	-29.35
268.46	95.57
268.676	15.7
268.892	21.85
269.108	25.94
269.324	-68.27
269.54	36.18
269.756	97.62
269.972	77.14
270.188	21.85
270.403	7.51
270.619	62.8
270.835	19.8
271.051	85.33
271.267	38.23
271.483	-21.16
271.698	27.99
271.914	89.43
272.13	107.86
272.346	-27.31
272.562	23.89
272.777	111.96
272.993	62.8
273.209	-15.02
273.425	77.14
273.64	36.18
273.856	54.61
274.072	13.65
274.287	13.65
274.503	54.61
274.719	-2.73
274.934	3.41
275.15	40.28
275.366	60.76
275.581	15.7
275.797	46.42
276.012	-25.26
276.228	-2.73
276.444	13.65
276.659	30.04
276.875	-15.02
277.09	5.46
277.306	38.23
277.521	68.95
277.737	71
277.952	50.52
278.168	91.48
278.383	11.61
278.599	5.46
278.814	68.95
279.03	62.8
279.245	7.51
279.461	-27.31
279.676	36.18
279.892	15.7
280.107	52.56
280.322	52.56
280.538	71
280.753	52.56
280.969	19.8
281.184	-21.16
281.399	68.95
281.615	44.37
281.83	-39.59
282.045	73.04
282.26	15.7
282.476	3.41
282.691	64.85
282.906	83.28
283.122	-12.97
283.337	73.04
283.552	44.37
283.767	44.37
283.983	58.71
284.198	21.85
284.413	19.8
284.628	5.46
284.843	99.67
285.058	64.85
285.274	44.37
285.489	34.13
285.704	-78.51
285.919	58.71
286.134	44.37
286.349	-6.83
286.564	46.42
286.779	62.8
286.995	27.99
287.21	-45.74
287.425	5.46
287.64	13.65
287.855	9.56
288.07	44.37
288.285	71
288.5	56.66
288.715	83.28
288.93	36.18
289.145	32.08
289.36	89.43
289.575	15.7
289.79	75.09
290.004	44.37
290.219	13.65
290.434	7.51
290.649	-8.87
290.864	-53.93
291.079	13.65
291.294	52.56
291.509	85.33
291.724	60.76
291.938	-90.79
292.153	23.89
292.368	56.66
292.583	175.44
292.798	77.14
293.012	46.42
293.227	27.99
293.442	52.56
293.657	60.76
293.871	85.33
294.086	-10.92
294.301	50.52
294.516	120.15
294.73	46.42
294.945	32.08
295.16	27.99
295.374	85.33
295.589	81.24
295.804	-8.87
296.018	7.51
296.233	91.48
296.447	38.23
296.662	48.47
296.877	101.72
297.091	36.18
297.306	73.04
297.52	44.37
297.735	48.47
297.949	13.65
298.164	52.56
298.378	32.08
298.593	-19.11
298.807	73.04
299.022	64.85
299.236	60.76
299.451	11.61
299.665	97.62
299.88	48.47
300.094	71
300.309	-17.07
300.523	48.47
300.737	93.52
300.952	34.13
301.166	27.99
301.381	17.75
301.595	44.37
301.809	-4.78
302.024	52.56
302.238	44.37
302.452	85.33
302.667	36.18
302.881	60.76
303.095	54.61
303.309	32.08
303.524	30.04
303.738	-29.35
303.952	-4.78
304.166	32.08
304.381	3.41
304.595	85.33
304.809	-2.73
305.023	62.8
305.237	19.8
305.452	13.65
305.666	36.18
305.88	44.37
306.094	36.18
306.308	19.8
306.522	27.99
306.736	89.43
306.95	126.29
307.164	60.76
307.379	85.33
307.593	77.14
307.807	71
308.021	21.85
308.235	38.23
308.449	52.56
308.663	46.42
308.877	77.14
309.091	77.14
309.305	36.18
309.519	-0.68
309.733	79.19
309.947	11.61
310.161	27.99
310.374	60.76
310.588	89.43
310.802	52.56
311.016	54.61
311.23	11.61
311.444	77.14
311.658	77.14
311.872	44.37
312.085	99.67
312.299	68.95
312.513	68.95
312.727	-2.73
312.941	21.85
313.154	36.18
313.368	36.18
313.582	21.85
313.796	3.41
314.009	136.53
314.223	68.95
314.437	95.57
314.651	60.76
314.864	36.18
315.078	42.32
315.292	-8.87
315.505	-27.31
315.719	-4.78
315.933	5.46
316.146	68.95
316.36	-33.45
316.573	101.72
316.787	38.23
317.001	60.76
317.214	81.24
317.428	48.47
317.641	-10.92
317.855	30.04
318.068	-0.68
318.282	97.62
318.495	38.23
318.709	36.18
318.922	66.9
319.136	111.96
319.349	169.3
319.563	13.65
319.776	48.47
319.99	19.8
320.203	44.37
320.417	3.41
320.63	3.41
320.843	105.81
321.057	27.99
321.27	62.8
321.483	68.95
321.697	7.51
321.91	42.32
322.124	93.52
322.337	46.42
322.55	95.57
322.763	46.42
322.977	32.08
323.19	-6.83
323.403	62.8
323.617	77.14
323.83	52.56
324.043	27.99
324.256	89.43
324.469	11.61
324.683	93.52
324.896	36.18
325.109	13.65
325.322	44.37
325.535	66.9
325.748	95.57
325.962	89.43
326.175	21.85
326.388	75.09
326.601	68.95
326.814	32.08
327.027	-25.26
327.24	64.85
327.453	-45.74
327.666	48.47
327.879	62.8
328.092	83.28
328.305	54.61
328.518	13.65
328.731	-12.97
328.944	5.46
329.157	-4.78
329.37	30.04
329.583	17.75
329.796	103.76
330.009	-12.97
330.222	36.18
330.435	118.1
330.648	52.56
330.861	46.42
331.073	32.08
331.286	87.38
331.499	40.28
331.712	-55.98
331.925	101.72
332.138	19.8
332.35	19.8
332.563	32.08
332.776	114
332.989	3.41
333.202	79.19
333.414	56.66
333.627	52.56
333.84	-12.97
334.053	71
334.265	3.41
334.478	105.81
334.691	-31.4
334.903	27.99
335.116	11.61
335.329	21.85
335.541	105.81
335.754	68.95
335.966	40.28
336.179	73.04
336.392	38.23
336.604	-8.87
336.817	-8.87
337.029	48.47
337.242	44.37
337.454	148.82
337.667	7.51
337.88	-0.68
338.092	13.65
338.305	83.28
338.517	58.71
338.729	95.57
338.942	56.66
339.154	-21.16
339.367	-39.59
339.579	52.56
339.792	27.99
340.004	38.23
340.217	52.56
340.429	126.29
340.641	34.13
340.854	44.37
341.066	62.8
341.278	152.92
341.491	85.33
341.703	81.24
341.915	-10.92
342.128	44.37
342.34	-0.68
342.552	97.62
342.764	68.95
342.977	23.89
343.189	89.43
343.401	68.95
343.613	15.7
343.826	15.7
344.038	68.95
344.25	7.51
344.462	19.8
344.674	77.14
344.886	54.61
345.099	58.71
345.311	71
345.523	97.62
345.735	3.41
345.947	13.65
346.159	36.18
346.371	48.47
346.583	27.99
346.795	103.76
347.007	91.48
347.219	85.33
347.431	27.99
347.643	87.38
347.855	27.99
348.067	68.95
348.279	46.42
348.491	60.76
348.703	17.75
348.915	3.41
349.127	-17.07
349.339	91.48
349.551	-21.16
349.763	48.47
349.975	79.19
350.187	32.08
350.399	91.48
350.61	122.2
350.822	11.61
351.034	93.52
351.246	58.71
351.458	-2.73
351.669	44.37
351.881	105.81
352.093	30.04
352.305	95.57
352.517	126.29
352.728	79.19
352.94	34.13
353.152	60.76
353.363	3.41
353.575	77.14
353.787	60.76
353.999	60.76
354.21	27.99
354.422	27.99
354.633	3.41
354.845	1.37
355.057	15.7
355.268	128.34
355.48	68.95
355.692	-37.55
355.903	1.37
356.115	46.42
356.326	-62.12
356.538	85.33
356.749	21.85
356.961	126.29
357.172	46.42
357.384	44.37
357.595	128.34
357.807	36.18
358.018	36.18
358.23	21.85
358.441	50.52
358.653	109.91
358.864	36.18
359.075	68.95
359.287	48.47
359.498	89.43
359.709	68.95
359.921	36.18
360.132	15.7
360.344	81.24
360.555	-8.87
360.766	-12.97
360.977	19.8
361.189	68.95
361.4	-2.73
361.611	62.8
361.823	79.19
362.034	46.42
362.245	27.99
362.456	-10.92
362.667	-0.68
362.879	38.23
363.09	15.7
363.301	60.76
363.512	30.04
363.723	79.19
363.935	19.8
364.146	3.41
364.357	105.81
364.568	85.33
364.779	-37.55
364.99	40.28
365.201	34.13
365.412	87.38
365.623	30.04
365.834	5.46
366.045	-2.73
366.256	44.37
366.467	87.38
366.678	52.56
366.889	54.61
367.1	3.41
367.311	42.32
367.522	79.19
367.733	66.9
367.944	68.95
368.155	7.51
368.366	44.37
368.577	105.81
368.788	11.61
368.999	11.61
369.209	60.76
369.42	105.81
369.631	103.76
369.842	105.81
370.053	13.65
370.264	97.62
370.474	-2.73
370.685	91.48
370.896	36.18
371.107	77.14
371.317	60.76
371.528	38.23
371.739	75.09
371.95	-10.92
372.16	101.72
372.371	126.29
372.582	32.08
372.792	83.28
373.003	44.37
373.214	9.56
373.424	23.89
373.635	-35.5
373.846	103.76
374.056	-33.45
374.267	5.46
374.477	77.14
374.688	36.18
374.898	89.43
375.109	44.37
375.319	79.19
375.53	44.37
375.74	68.95
375.951	105.81
376.161	54.61
376.372	97.62
376.582	-8.87
376.793	85.33
377.003	-29.35
377.214	19.8
377.424	34.13
377.635	64.85
377.845	17.75
378.055	23.89
378.266	30.04
378.476	118.1
378.686	27.99
378.897	17.75
379.107	15.7
379.317	85.33
379.528	-37.55
379.738	52.56
379.948	73.04
380.158	17.75
380.369	27.99
380.579	3.41
380.789	44.37
380.999	87.38
381.21	62.8
381.42	58.71
381.63	23.89
381.84	21.85
382.05	40.28
382.261	87.38
382.471	60.76
382.681	15.7
382.891	148.82
383.101	44.37
383.311	-17.07
383.521	-29.35
383.731	77.14
383.941	101.72
384.151	97.62
384.361	77.14
384.571	38.23
384.781	77.14
384.991	93.52
385.201	85.33
385.411	87.38
385.621	81.24
385.831	91.48
386.041	13.65
386.251	77.14
386.461	118.1
386.671	-10.92
386.881	52.56
387.091	54.61
387.301	93.52
387.511	111.96
387.72	36.18
387.93	101.72
388.14	48.47
388.35	101.72
388.56	56.66
388.769	83.28
388.979	79.19
389.189	34.13
389.399	105.81
389.609	93.52
389.818	60.76
390.028	36.18
390.238	116.05
390.447	60.76
390.657	68.95
390.867	136.53
391.076	19.8
391.286	85.33
391.496	64.85
391.705	126.29
391.915	36.18
392.125	62.8
392.334	77.14
392.544	128.34
392.753	30.04
392.963	52.56
393.172	30.04
393.382	97.62
393.591	97.62
393.801	79.19
394.01	89.43
394.22	89.43
394.429	71
394.639	13.65
394.848	34.13
395.058	109.91
395.267	79.19
395.477	120.15
395.686	107.86
395.895	42.32
396.105	193.87
396.314	109.91
396.524	71
396.733	154.96
396.942	118.1
397.152	42.32
397.361	79.19
397.57	99.67
397.78	107.86
397.989	159.06
398.198	154.96
398.407	73.04
398.617	97.62
398.826	126.29
399.035	87.38
399.244	105.81
399.453	175.44
399.663	64.85
399.872	68.95
400.081	68.95
400.29	111.96
400.499	116.05
400.708	91.48
400.917	68.95
401.127	44.37
401.336	60.76
401.545	134.48
401.754	159.06
401.963	134.48
402.172	56.66
402.381	68.95
402.59	48.47
402.799	77.14
403.008	126.29
403.217	87.38
403.426	132.44
403.635	95.57
403.844	120.15
404.053	144.72
404.262	175.44
404.471	165.2
404.68	187.73
404.888	128.34
405.097	101.72
405.306	109.91
405.515	128.34
405.724	118.1
405.933	138.58
406.142	64.85
406.35	183.63
406.559	126.29
406.768	144.72
406.977	175.44
407.185	263.51
407.394	175.44
407.603	181.59
407.812	191.83
408.02	267.6
408.229	187.73
408.438	218.45
408.646	175.44
408.855	249.17
409.064	202.07
409.272	257.36
409.481	275.79
409.69	261.46
409.898	220.5
410.107	243.03
410.315	245.07
410.524	243.03
410.733	267.6
410.941	322.9
411.15	339.28
411.358	306.51
411.567	380.24
411.775	394.58
411.984	437.58
412.192	300.37
412.401	390.48
412.609	439.63
412.818	466.25
413.026	382.29
413.234	499.02
413.443	347.47
413.651	486.73
413.86	486.73
414.068	539.98
414.276	603.47
414.485	593.23
414.693	650.57
414.901	669
415.11	740.68
415.318	646.48
415.526	638.28
415.734	666.96
415.943	634.19
416.151	783.69
416.359	750.92
416.567	748.87
416.776	695.63
416.984	798.03
417.192	896.33
417.4	902.47
417.608	849.22
417.817	920.9
418.025	1021.25
418.233	1027.4
418.441	994.63
418.649	980.29
418.857	1205.57
419.065	1191.24
419.273	1174.85
419.481	1197.38
419.689	1326.4
419.897	1273.15
420.105	1381.7
420.313	1375.55
420.521	1389.89
420.729	1420.61
420.937	1428.8
421.145	1641.79
421.353	1535.29
421.561	1641.79
421.769	1613.12
421.977	1791.29
422.185	1748.28
422.393	1746.23
422.601	1944.89
422.809	1987.9
423.017	1905.98
423.224	2135.35
423.432	2110.77
423.64	2125.11
423.848	2370.87
424.056	2346.29
424.263	2471.22
424.471	2643.24
424.679	2561.33
424.887	2678.06
425.094	2829.61
425.302	2729.26
425.51	2800.94
425.718	2995.5
425.925	3046.69
426.133	3130.66
426.341	3153.19
426.548	3364.13
426.756	3339.55
426.964	3534.11
427.171	3591.45
427.379	3681.57
427.586	3763.48
427.794	3826.97
428.001	4156.69
428.209	4322.58
428.417	4316.44
428.624	4445.46
428.832	4424.98
429.039	4500.75
429.247	4525.33
429.454	4799.76
429.662	5242.12
429.869	4830.48
430.076	5238.02
430.284	5041.42
430.491	5336.32
430.699	5666.05
430.906	5623.04
431.114	5549.31
431.321	5846.27
431.528	6071.54
431.736	6180.09
431.943	6606.06
432.15	6348.02
432.358	6528.24
432.565	6847.72
432.772	6884.59
432.979	7316.71
433.187	7384.29
433.394	7240.93
433.601	7884
433.808	7628
434.016	7683.3
434.223	8041.69
434.43	8639.7
434.637	8428.76
434.844	8918.22
435.052	9032.91
435.259	9129.16
435.466	9168.07
435.673	8813.77
435.88	9630.91
436.087	10169.53
436.294	10237.11
436.501	9817.28
436.708	10112.19
436.915	10321.08
437.122	11033.77
437.329	10824.88
437.537	11109.55
437.743	11431.08
437.95	11379.88
438.157	11910.3
438.364	12313.75
438.571	12461.21
438.778	12334.23
438.985	13515.91
439.192	13081.74
439.399	13280.39
439.606	12948.62
439.813	13970.56
440.02	14687.35
440.227	14396.54
440.433	14312.57
440.64	14621.81
440.847	14617.72
441.054	15021.17
441.261	15987.81
441.467	15643.75
441.674	16133.22
441.881	16561.24
442.088	16501.85
442.294	16409.69
442.501	16675.93
442.708	17286.22
442.914	17810.5
443.121	18547.77
443.328	17957.96
443.534	19258.42
443.741	18934.84
443.948	18373.69
444.154	19872.81
444.361	19778.6
444.568	19786.79
444.774	20114.47
444.981	19799.08
445.187	20763.67
445.394	21584.91
445.6	21341.2
445.807	23464.94
446.013	22371.33
446.22	22782.97
446.426	23493.61
446.633	23524.33
446.839	24380.39
447.046	23593.97
447.252	24640.48
447.459	25195.48
447.665	24853.47
447.871	25631.69
448.078	26932.15
448.284	25850.83
448.491	26328
448.697	27438
448.903	28410.79
449.11	27796.4
449.316	27730.86
449.522	28189.61
449.728	28855.2
449.935	29434.77
450.141	29027.23
450.347	29821.84
450.553	28851.1
450.76	29064.09
450.966	30088.07
451.172	29858.7
451.378	30913.41
451.584	30628.74
451.791	30722.94
451.997	30782.34
452.203	31316.86
452.409	31261.56
452.615	31214.46
452.821	29944.72
453.027	29688.72
453.233	31392.63
453.44	30380.93
453.646	30831.49
453.852	30569.35
454.058	31189.88
454.264	30231.43
454.47	30942.08
454.676	29916.04
454.882	30964.6
455.088	28375.97
455.294	28875.68
455.5	29621.14
455.705	29604.75
455.911	28556.19
456.117	28087.21
456.323	27354.04
456.529	26219.46
456.735	27216.82
456.941	26620.86
457.147	26274.76
457.352	25467.86
457.558	25213.91
457.764	24957.91
457.97	24933.34
458.176	24572.89
458.381	24267.75
458.587	22746.11
458.793	23397.36
458.999	22043.65
459.204	23192.56
459.41	22520.83
459.616	21427.21
459.821	21212.18
460.027	21279.76
460.233	21031.96
460.438	20024.36
460.644	20118.56
460.85	19065.91
461.055	18695.22
461.261	18906.16
461.466	17359.95
461.672	17067.09
461.878	18017.35
462.083	16741.46
462.289	16675.93
462.494	16362.59
462.7	15627.37
462.905	15238.25
463.111	15715.43
463.316	15977.57
463.522	15490.15
463.727	15776.87
463.932	15363.18
464.138	15426.67
464.343	15445.1
464.549	15172.72
464.754	15602.79
464.959	15156.33
465.165	15215.73
465.37	14548.09
465.575	14417.02
465.781	14855.28
465.986	14718.07
466.191	14099.58
466.397	13999.23
466.602	13464.71
466.807	13794.43
467.012	13747.33
467.218	13724.8
467.423	13581.45
467.628	13687.94
467.833	14083.2
468.038	13888.64
468.244	13479.05
468.449	13849.73
