Data from USB4F104151__38__14-42-53-504.txt Node

Date: Thu Mar 13 14:42:53 EDT 2025
User: louis
Spectrometer: USB4F10415
Trigger mode: 4
Integration Time (sec): 2.000000E-2
Scans to average: 1
Electric dark correction enabled: true
Nonlinearity correction enabled: false
Boxcar width: 0
XAxis mode: Wavelengths
Number of Pixels in Spectrum: 3648
>>>>>Begin Spectral Data<<<<<
178.204	-89.09
178.424	-89.09
178.644	-89.09
178.864	-91.13
179.084	-117.76
179.304	62.46
179.524	3.07
179.744	1.02
179.964	5.12
180.184	-23.55
180.404	19.46
180.624	54.27
180.844	-39.94
181.064	-5.12
181.283	-21.5
181.503	-56.32
181.723	1.02
181.943	-46.08
182.163	27.65
182.383	119.81
182.602	56.32
182.822	113.66
183.042	41.98
183.262	9.22
183.482	-9.22
183.701	-17.41
183.921	23.55
184.141	-48.13
184.361	58.37
184.58	91.13
184.8	60.42
185.02	-7.17
185.239	91.13
185.459	5.12
185.679	66.56
185.898	82.94
186.118	25.6
186.338	66.56
186.557	13.31
186.777	5.12
186.997	29.7
187.216	5.12
187.436	50.18
187.655	46.08
187.875	44.03
188.095	58.37
188.314	60.42
188.534	70.65
188.753	41.98
188.973	13.31
189.192	66.56
189.412	13.31
189.631	62.46
189.851	-1.02
190.07	54.27
190.29	-7.17
190.509	89.09
190.729	48.13
190.948	44.03
191.168	152.57
191.387	91.13
191.607	9.22
191.826	-25.6
192.045	44.03
192.265	25.6
192.484	91.13
192.704	54.27
192.923	72.7
193.142	84.99
193.362	33.79
193.581	58.37
193.8	58.37
194.02	91.13
194.239	17.41
194.458	54.27
194.678	41.98
194.897	97.28
195.116	44.03
195.335	93.18
195.555	50.18
195.774	27.65
195.993	87.04
196.212	44.03
196.432	-15.36
196.651	35.84
196.87	-9.22
197.089	146.43
197.308	66.56
197.528	109.57
197.747	-5.12
197.966	29.7
198.185	84.99
198.404	41.98
198.623	58.37
198.842	50.18
199.062	105.47
199.281	80.89
199.5	35.84
199.719	60.42
199.938	91.13
200.157	140.29
200.376	17.41
200.595	60.42
200.814	11.26
201.033	52.22
201.252	91.13
201.471	84.99
201.69	66.56
201.909	21.5
202.128	-11.26
202.347	41.98
202.566	-5.12
202.785	46.08
203.004	1.02
203.223	119.81
203.442	46.08
203.661	21.5
203.879	17.41
204.098	66.56
204.317	62.46
204.536	37.89
204.755	52.22
204.974	123.9
205.193	78.85
205.411	125.95
205.63	5.12
205.849	21.5
206.068	62.46
206.287	1.02
206.505	58.37
206.724	25.6
206.943	23.55
207.162	-56.32
207.381	60.42
207.599	-48.13
207.818	107.52
208.037	99.33
208.255	76.8
208.474	-7.17
208.693	50.18
208.911	-3.07
209.13	35.84
209.349	37.89
209.567	21.5
209.786	54.27
210.005	93.18
210.223	60.42
210.442	-7.17
210.661	58.37
210.879	80.89
211.098	41.98
211.316	44.03
211.535	25.6
211.753	11.26
211.972	52.22
212.191	87.04
212.409	-15.36
212.628	46.08
212.846	74.75
213.065	-3.07
213.283	70.65
213.502	46.08
213.72	33.79
213.938	41.98
214.157	11.26
214.375	27.65
214.594	11.26
214.812	50.18
215.031	9.22
215.249	27.65
215.467	41.98
215.686	-23.55
215.904	74.75
216.122	-39.94
216.341	107.52
216.559	84.99
216.778	52.22
216.996	152.57
217.214	41.98
217.432	50.18
217.651	50.18
217.869	31.74
218.087	25.6
218.306	44.03
218.524	33.79
218.742	44.03
218.96	74.75
219.179	33.79
219.397	37.89
219.615	152.57
219.833	31.74
220.051	72.7
220.27	56.32
220.488	7.17
220.706	56.32
220.924	27.65
221.142	17.41
221.36	-31.74
221.578	93.18
221.796	9.22
222.015	60.42
222.233	-3.07
222.451	95.23
222.669	-70.65
222.887	52.22
223.105	-39.94
223.323	87.04
223.541	9.22
223.759	52.22
223.977	9.22
224.195	17.41
224.413	21.5
224.631	35.84
224.849	41.98
225.067	58.37
225.285	-5.12
225.503	117.76
225.721	31.74
225.939	84.99
226.157	39.94
226.375	66.56
226.592	37.89
226.81	33.79
227.028	41.98
227.246	87.04
227.464	-9.22
227.682	89.09
227.9	37.89
228.117	80.89
228.335	37.89
228.553	60.42
228.771	54.27
228.989	130.05
229.206	50.18
229.424	35.84
229.642	25.6
229.86	-56.32
230.077	140.29
230.295	60.42
230.513	46.08
230.731	101.37
230.948	70.65
231.166	101.37
231.384	46.08
231.601	1.02
231.819	25.6
232.037	-13.31
232.254	13.31
232.472	84.99
232.689	52.22
232.907	99.33
233.125	76.8
233.342	-27.65
233.56	-21.5
233.777	-31.74
233.995	50.18
234.213	44.03
234.43	37.89
234.648	27.65
234.865	50.18
235.083	74.75
235.3	-13.31
235.518	123.9
235.735	9.22
235.953	33.79
236.17	91.13
236.388	1.02
236.605	-9.22
236.822	66.56
237.04	21.5
237.257	46.08
237.475	46.08
237.692	46.08
237.909	33.79
238.127	-31.74
238.344	87.04
238.562	93.18
238.779	5.12
238.996	91.13
239.214	19.46
239.431	74.75
239.648	-19.46
239.865	13.31
240.083	56.32
240.3	-7.17
240.517	52.22
240.735	41.98
240.952	74.75
241.169	82.94
241.386	58.37
241.603	41.98
241.821	-11.26
242.038	70.65
242.255	-5.12
242.472	5.12
242.689	37.89
242.907	121.85
243.124	50.18
243.341	17.41
243.558	15.36
243.775	-21.5
243.992	-23.55
244.209	50.18
244.426	95.23
244.643	41.98
244.86	125.95
245.078	19.46
245.295	27.65
245.512	1.02
245.729	-39.94
245.946	35.84
246.163	27.65
246.38	58.37
246.597	54.27
246.814	44.03
247.031	-15.36
247.248	1.02
247.464	25.6
247.681	-1.02
247.898	56.32
248.115	-3.07
248.332	9.22
248.549	66.56
248.766	76.8
248.983	46.08
249.2	123.9
249.417	58.37
249.633	13.31
249.85	44.03
250.067	62.46
250.284	58.37
250.501	52.22
250.717	50.18
250.934	21.5
251.151	13.31
251.368	29.7
251.585	27.65
251.801	-74.75
252.018	25.6
252.235	35.84
252.451	-27.65
252.668	-15.36
252.885	84.99
253.102	19.46
253.318	107.52
253.535	3.07
253.752	70.65
253.968	113.66
254.185	33.79
254.401	-15.36
254.618	11.26
254.835	3.07
255.051	119.81
255.268	74.75
255.484	84.99
255.701	74.75
255.917	41.98
256.134	-44.03
256.351	52.22
256.567	31.74
256.784	33.79
257	-15.36
257.217	35.84
257.433	76.8
257.65	17.41
257.866	17.41
258.082	33.79
258.299	13.31
258.515	58.37
258.732	13.31
258.948	-39.94
259.165	31.74
259.381	17.41
259.597	103.42
259.814	-5.12
260.03	58.37
260.246	-39.94
260.463	95.23
260.679	54.27
260.895	19.46
261.112	-15.36
261.328	21.5
261.544	-5.12
261.761	91.13
261.977	66.56
262.193	17.41
262.409	66.56
262.626	44.03
262.842	87.04
263.058	19.46
263.274	9.22
263.49	48.13
263.707	37.89
263.923	25.6
264.139	-60.42
264.355	37.89
264.571	50.18
264.787	1.02
265.004	60.42
265.22	-15.36
265.436	136.19
265.652	25.6
265.868	50.18
266.084	33.79
266.3	27.65
266.516	35.84
266.732	25.6
266.948	-31.74
267.164	35.84
267.38	33.79
267.596	58.37
267.812	82.94
268.028	68.61
268.244	17.41
268.46	115.71
268.676	123.9
268.892	1.02
269.108	50.18
269.324	15.36
269.54	-13.31
269.756	166.91
269.972	-37.89
270.188	54.27
270.403	9.22
270.619	27.65
270.835	25.6
271.051	189.44
271.267	-29.7
271.483	25.6
271.698	64.51
271.914	121.85
272.13	107.52
272.346	25.6
272.562	41.98
272.777	52.22
272.993	-21.5
273.209	1.02
273.425	60.42
273.64	37.89
273.856	72.7
274.072	-15.36
274.287	-7.17
274.503	111.61
274.719	58.37
274.934	-29.7
275.15	1.02
275.366	82.94
275.581	31.74
275.797	82.94
276.012	41.98
276.228	91.13
276.444	-9.22
276.659	78.85
276.875	-25.6
277.09	1.02
277.306	5.12
277.521	44.03
277.737	33.79
277.952	50.18
278.168	17.41
278.383	3.07
278.599	17.41
278.814	19.46
279.03	11.26
279.245	68.61
279.461	5.12
279.676	21.5
279.892	-7.17
280.107	-13.31
280.322	58.37
280.538	89.09
280.753	3.07
280.969	-1.02
281.184	97.28
281.399	95.23
281.615	9.22
281.83	50.18
282.045	9.22
282.26	27.65
282.476	58.37
282.691	21.5
282.906	56.32
283.122	33.79
283.337	62.46
283.552	41.98
283.767	-31.74
283.983	54.27
284.198	54.27
284.413	115.71
284.628	52.22
284.843	87.04
285.058	17.41
285.274	99.33
285.489	-39.94
285.704	76.8
285.919	44.03
286.134	-7.17
286.349	-7.17
286.564	93.18
286.779	54.27
286.995	44.03
287.21	3.07
287.425	19.46
287.64	62.46
287.855	82.94
288.07	66.56
288.285	99.33
288.5	46.08
288.715	9.22
288.93	17.41
289.145	58.37
289.36	64.51
289.575	99.33
289.79	66.56
290.004	13.31
290.219	99.33
290.434	41.98
290.649	33.79
290.864	107.52
291.079	41.98
291.294	121.85
291.509	84.99
291.724	70.65
291.938	74.75
292.153	50.18
292.368	33.79
292.583	35.84
292.798	29.7
293.012	5.12
293.227	82.94
293.442	17.41
293.657	52.22
293.871	56.32
294.086	64.51
294.301	74.75
294.516	82.94
294.73	68.61
294.945	-70.65
295.16	68.61
295.374	74.75
295.589	142.33
295.804	9.22
296.018	33.79
296.233	21.5
296.447	46.08
296.662	-19.46
296.877	15.36
297.091	87.04
297.306	41.98
297.52	-19.46
297.735	78.85
297.949	17.41
298.164	25.6
298.378	9.22
298.593	68.61
298.807	-21.5
299.022	91.13
299.236	70.65
299.451	19.46
299.665	82.94
299.88	21.5
300.094	52.22
300.309	-7.17
300.523	3.07
300.737	23.55
300.952	41.98
301.166	82.94
301.381	-19.46
301.595	27.65
301.809	82.94
302.024	17.41
302.238	29.7
302.452	74.75
302.667	50.18
302.881	50.18
303.095	78.85
303.309	21.5
303.524	11.26
303.738	58.37
303.952	93.18
304.166	123.9
304.381	-31.74
304.595	41.98
304.809	-23.55
305.023	66.56
305.237	66.56
305.452	44.03
305.666	91.13
305.88	27.65
306.094	11.26
306.308	37.89
306.522	54.27
306.736	50.18
306.95	11.26
307.164	66.56
307.379	66.56
307.593	109.57
307.807	78.85
308.021	101.37
308.235	52.22
308.449	17.41
308.663	3.07
308.877	179.2
309.091	101.37
309.305	70.65
309.519	-3.07
309.733	78.85
309.947	-23.55
310.161	70.65
310.374	80.89
310.588	41.98
310.802	-44.03
311.016	50.18
311.23	44.03
311.444	33.79
311.658	52.22
311.872	82.94
312.085	76.8
312.299	89.09
312.513	50.18
312.727	103.42
312.941	25.6
313.154	97.28
313.368	-23.55
313.582	39.94
313.796	-25.6
314.009	-39.94
314.223	33.79
314.437	33.79
314.651	50.18
314.864	125.95
315.078	70.65
315.292	19.46
315.505	46.08
315.719	-46.08
315.933	13.31
316.146	107.52
316.36	74.75
316.573	68.61
316.787	78.85
317.001	37.89
317.214	-15.36
317.428	72.7
317.641	9.22
317.855	50.18
318.068	-23.55
318.282	25.6
318.495	35.84
318.709	64.51
318.922	66.56
319.136	109.57
319.349	1.02
319.563	-52.22
319.776	119.81
319.99	52.22
320.203	121.85
320.417	48.13
320.63	62.46
320.843	119.81
321.057	11.26
321.27	15.36
321.483	93.18
321.697	162.81
321.91	33.79
322.124	64.51
322.337	62.46
322.55	21.5
322.763	-3.07
322.977	66.56
323.19	17.41
323.403	-13.31
323.617	68.61
323.83	95.23
324.043	35.84
324.256	70.65
324.469	27.65
324.683	111.61
324.896	3.07
325.109	89.09
325.322	-56.32
325.535	70.65
325.748	99.33
325.962	74.75
326.175	35.84
326.388	64.51
326.601	91.13
326.814	66.56
327.027	82.94
327.24	117.76
327.453	-48.13
327.666	101.37
327.879	80.89
328.092	115.71
328.305	50.18
328.518	-23.55
328.731	80.89
328.944	103.42
329.157	93.18
329.37	33.79
329.583	140.29
329.796	82.94
330.009	41.98
330.222	58.37
330.435	54.27
330.648	35.84
330.861	78.85
331.073	35.84
331.286	41.98
331.499	-35.84
331.712	17.41
331.925	29.7
332.138	84.99
332.35	93.18
332.563	50.18
332.776	66.56
332.989	33.79
333.202	27.65
333.414	-15.36
333.627	44.03
333.84	-15.36
334.053	33.79
334.265	35.84
334.478	39.94
334.691	3.07
334.903	-15.36
335.116	7.17
335.329	66.56
335.541	82.94
335.754	87.04
335.966	13.31
336.179	87.04
336.392	76.8
336.604	39.94
336.817	-37.89
337.029	107.52
337.242	56.32
337.454	128
337.667	50.18
337.88	74.75
338.092	80.89
338.305	27.65
338.517	33.79
338.729	-7.17
338.942	68.61
339.154	-48.13
339.367	54.27
339.579	123.9
339.792	25.6
340.004	74.75
340.217	25.6
340.429	58.37
340.641	-13.31
340.854	70.65
341.066	27.65
341.278	50.18
341.491	109.57
341.703	68.61
341.915	37.89
342.128	9.22
342.34	-13.31
342.552	66.56
342.764	-1.02
342.977	107.52
343.189	25.6
343.401	109.57
343.613	-5.12
343.826	11.26
344.038	72.7
344.25	82.94
344.462	15.36
344.674	50.18
344.886	68.61
345.099	117.76
345.311	48.13
345.523	33.79
345.735	9.22
345.947	58.37
346.159	41.98
346.371	82.94
346.583	-13.31
346.795	66.56
347.007	56.32
347.219	11.26
347.431	95.23
347.643	117.76
347.855	17.41
348.067	103.42
348.279	37.89
348.491	11.26
348.703	199.68
348.915	-15.36
349.127	31.74
349.339	44.03
349.551	17.41
349.763	58.37
349.975	66.56
350.187	44.03
350.399	41.98
350.61	-37.89
350.822	-13.31
351.034	-64.51
351.246	33.79
351.458	107.52
351.669	136.19
351.881	74.75
352.093	27.65
352.305	68.61
352.517	46.08
352.728	142.33
352.94	41.98
353.152	13.31
353.363	70.65
353.575	58.37
353.787	76.8
353.999	66.56
354.21	52.22
354.422	11.26
354.633	44.03
354.845	91.13
355.057	101.37
355.268	91.13
355.48	44.03
355.692	60.42
355.903	17.41
356.115	9.22
356.326	-70.65
356.538	132.09
356.749	82.94
356.961	70.65
357.172	-27.65
357.384	35.84
357.595	128
357.807	89.09
358.018	19.46
358.23	9.22
358.441	89.09
358.653	25.6
358.864	107.52
359.075	136.19
359.287	66.56
359.498	115.71
359.709	35.84
359.921	25.6
360.132	95.23
360.344	21.5
360.555	95.23
360.766	62.46
360.977	23.55
361.189	68.61
361.4	-31.74
361.611	60.42
361.823	76.8
362.034	33.79
362.245	-7.17
362.456	27.65
362.667	44.03
362.879	-7.17
363.09	99.33
363.301	50.18
363.512	27.65
363.723	33.79
363.935	17.41
364.146	68.61
364.357	82.94
364.568	5.12
364.779	-13.31
364.99	74.75
365.201	-23.55
365.412	78.85
365.623	1.02
365.834	33.79
366.045	48.13
366.256	115.71
366.467	56.32
366.678	35.84
366.889	117.76
367.1	3.07
367.311	74.75
367.522	41.98
367.733	23.55
367.944	84.99
368.155	23.55
368.366	128
368.577	48.13
368.788	46.08
368.999	-7.17
369.209	27.65
369.42	156.67
369.631	183.29
369.842	37.89
370.053	50.18
370.264	76.8
370.474	82.94
370.685	64.51
370.896	113.66
371.107	123.9
371.317	21.5
371.528	27.65
371.739	128
371.95	54.27
372.16	17.41
372.371	33.79
372.582	25.6
372.792	107.52
373.003	58.37
373.214	74.75
373.424	87.04
373.635	-7.17
373.846	111.61
374.056	25.6
374.267	41.98
374.477	25.6
374.688	15.36
374.898	91.13
375.109	-15.36
375.319	25.6
375.53	70.65
375.74	91.13
375.951	33.79
376.161	58.37
376.372	80.89
376.582	54.27
376.793	17.41
377.003	1.02
377.214	-48.13
377.424	27.65
377.635	37.89
377.845	101.37
378.055	101.37
378.266	50.18
378.476	50.18
378.686	93.18
378.897	117.76
379.107	66.56
379.317	95.23
379.528	25.6
379.738	9.22
379.948	3.07
380.158	66.56
380.369	91.13
380.579	58.37
380.789	66.56
380.999	125.95
381.21	123.9
381.42	66.56
381.63	33.79
381.84	58.37
382.05	46.08
382.261	68.61
382.471	21.5
382.681	-52.22
382.891	107.52
383.101	29.7
383.311	-27.65
383.521	-7.17
383.731	33.79
383.941	3.07
384.151	9.22
384.361	44.03
384.571	76.8
384.781	66.56
384.991	62.46
385.201	82.94
385.411	58.37
385.621	91.13
385.831	91.13
386.041	117.76
386.251	33.79
386.461	132.09
386.671	99.33
386.881	58.37
387.091	25.6
387.301	101.37
387.511	13.31
387.72	35.84
387.93	35.84
388.14	-17.41
388.35	48.13
388.56	132.09
388.769	68.61
388.979	31.74
389.189	25.6
389.399	95.23
389.609	50.18
389.818	80.89
390.028	27.65
390.238	50.18
390.447	103.42
390.657	144.38
390.867	56.32
391.076	1.02
391.286	123.9
391.496	60.42
391.705	37.89
391.915	82.94
392.125	93.18
392.334	121.85
392.544	150.53
392.753	39.94
392.963	7.17
393.172	21.5
393.382	58.37
393.591	103.42
393.801	33.79
394.01	99.33
394.22	41.98
394.429	58.37
394.639	99.33
394.848	74.75
395.058	168.96
395.267	27.65
395.477	84.99
395.686	41.98
395.895	146.43
396.105	132.09
396.314	105.47
396.524	44.03
396.733	11.26
396.942	99.33
397.152	144.38
397.361	150.53
397.57	62.46
397.78	119.81
397.989	119.81
398.198	115.71
398.407	87.04
398.617	89.09
398.826	117.76
399.035	142.33
399.244	115.71
399.453	70.65
399.663	132.09
399.872	140.29
400.081	50.18
400.29	134.14
400.499	99.33
400.708	76.8
400.917	17.41
401.127	95.23
401.336	93.18
401.545	101.37
401.754	111.61
401.963	117.76
402.172	150.53
402.381	82.94
402.59	121.85
402.799	103.42
403.008	148.48
403.217	44.03
403.426	99.33
403.635	103.42
403.844	52.22
404.053	123.9
404.262	107.52
404.471	222.2
404.68	164.86
404.888	93.18
405.097	107.52
405.306	125.95
405.515	164.86
405.724	156.67
405.933	226.3
406.142	152.57
406.35	181.25
406.559	218.11
406.768	128
406.977	230.4
407.185	211.96
407.394	283.64
407.603	156.67
407.812	173.05
408.02	144.38
408.229	240.64
408.438	136.19
408.646	193.53
408.855	150.53
409.064	242.68
409.272	320.51
409.481	295.93
409.69	205.82
409.898	295.93
410.107	230.4
410.315	328.7
410.524	281.6
410.733	291.84
410.941	306.17
411.15	306.17
411.358	386.04
411.567	414.71
411.775	353.27
411.984	373.75
412.192	402.43
412.401	400.38
412.609	490.49
412.818	531.45
413.026	402.43
413.234	504.82
413.443	476.15
413.651	470.01
413.86	553.98
414.068	533.5
414.276	541.69
414.485	533.5
414.693	586.74
414.901	623.61
415.11	574.46
415.318	623.61
415.526	574.46
415.734	781.3
415.943	769.01
416.151	707.57
416.359	691.19
416.567	812.02
416.776	793.59
416.984	859.12
417.192	926.71
417.4	816.12
417.608	885.75
417.817	877.55
418.025	1043.44
418.233	1065.97
418.441	1020.91
418.649	1022.96
418.857	1082.35
419.065	1133.55
419.273	1151.98
419.481	1135.6
419.689	1192.94
419.897	1205.23
420.105	1332.2
420.313	1352.68
420.521	1311.72
420.729	1450.99
420.937	1442.79
421.145	1608.68
421.353	1649.64
421.561	1639.4
421.769	1715.17
421.977	1786.85
422.185	1745.89
422.393	1821.67
422.601	2073.57
422.809	1934.31
423.017	2008.03
423.224	2051.04
423.432	2151.39
423.64	2225.12
423.848	2337.76
424.056	2307.04
424.263	2354.14
424.471	2481.11
424.679	2577.37
424.887	2499.55
425.094	2759.64
425.302	2849.75
425.51	2915.28
425.718	2941.91
425.925	2980.82
426.133	3050.45
426.341	3361.74
426.548	3443.66
426.756	3386.32
426.964	3515.34
427.171	3556.3
427.379	3718.09
427.586	3785.67
427.794	3697.61
428.001	4127.68
428.209	4316.09
428.417	4117.44
428.624	4572.09
428.832	4559.8
429.039	4535.23
429.247	4510.65
429.454	4850.61
429.662	5241.78
429.869	4795.32
430.076	5305.26
430.284	4899.77
430.491	5282.74
430.699	5657.51
430.906	5524.4
431.114	5706.66
431.321	5829.54
431.528	5991.33
431.736	6124.45
431.943	6575
432.15	6316.96
432.358	6450.08
432.565	6908.82
432.772	6947.73
432.979	7197.59
433.187	7328.66
433.394	7342.99
433.601	7883.66
433.808	7734.15
434.016	7697.29
434.223	8084.36
434.43	8672.12
434.637	8293.25
434.844	8897.4
435.052	9257.84
435.259	9102.2
435.466	9112.44
435.673	9196.4
435.88	9540.46
436.087	10167.14
436.294	10267.49
436.501	10040.17
436.708	10216.29
436.915	10412.9
437.122	11053.91
437.329	10994.52
437.537	11408.21
437.743	11504.46
437.95	11354.96
438.157	12034.89
438.364	12372.8
438.571	12235.59
438.778	12378.95
438.985	13396.79
439.192	12979
439.399	13624.11
439.606	13222.71
439.813	13763.37
440.02	14709.54
440.227	14439.2
440.433	14172.97
440.64	14787.36
440.847	14627.62
441.054	15145.75
441.261	16210.7
441.467	15868.69
441.674	16034.57
441.881	16685.83
442.088	16696.07
442.294	16503.56
442.501	17060.6
442.708	17359.61
442.914	18082.54
443.121	19024.61
443.328	18170.6
443.534	19276.51
443.741	18830.05
443.948	18698.98
444.154	19860.18
444.361	20046.54
444.568	20118.22
444.774	19964.62
444.981	20376.27
445.187	20841.15
445.394	21523.13
445.6	21471.93
445.807	23513.75
446.013	22438.57
446.22	23005.86
446.426	23650.97
446.633	24386.19
446.839	24707.72
447.046	23837.33
447.252	25133.7
447.459	25389.69
447.665	25037.44
447.871	26251.89
448.078	27241.06
448.284	25756.28
448.491	26655.34
448.697	27712.09
448.903	28219.99
449.11	28654.15
449.316	27927.13
449.522	28394.06
449.728	29297.22
449.935	29555.26
450.141	29278.79
450.347	29753.91
450.553	29241.92
450.76	29491.77
450.966	30583.34
451.172	30298.67
451.378	31011.37
451.584	30261.81
451.791	31402.53
451.997	31050.28
452.203	31601.18
452.409	31887.9
452.615	31492.64
452.821	30370.35
453.027	30177.84
453.233	31466.02
453.44	30308.91
453.646	30652.97
453.852	30931.5
454.058	31543.84
454.264	30601.77
454.47	31154.72
454.676	30095.92
454.882	31273.51
455.088	29022.79
455.294	29078.08
455.5	30065.21
455.705	30083.64
455.911	28662.35
456.117	28320.34
456.323	27837.02
456.529	26530.41
456.735	27576.92
456.941	27040.36
457.147	26305.13
457.352	25735.8
457.558	25406.08
457.764	25549.43
457.97	24976
458.176	24623.75
458.381	24816.26
458.587	23286.43
458.793	23372.44
458.999	22053.55
459.204	23784.09
459.41	22966.95
459.616	21367.48
459.821	21619.38
460.027	21570.23
460.233	21199.55
460.438	20161.23
460.644	20189.9
460.85	19251.93
461.055	19245.79
461.261	19004.13
461.466	17529.59
461.672	16866.05
461.878	18600.68
462.083	17437.43
462.289	16485.12
462.494	16526.08
462.7	16001.8
462.905	15434.52
463.111	16073.48
463.316	15919.89
463.522	15559.44
463.727	15622.93
463.932	15627.03
464.138	15463.19
464.343	15493.91
464.549	15053.59
464.754	15504.15
464.959	15487.76
465.165	15319.83
465.37	14996.25
465.575	14435.11
465.781	14764.83
465.986	15174.42
466.191	14404.39
466.397	14209.83
466.602	13288.25
466.807	14066.47
467.012	14039.85
467.218	13923.12
467.423	13730.61
467.628	13982.51
