Data from USB4F104151__103__14-43-41-592.txt Node

Date: Thu Mar 13 14:43:41 EDT 2025
User: louis
Spectrometer: USB4F10415
Trigger mode: 4
Integration Time (sec): 2.000000E-2
Scans to average: 1
Electric dark correction enabled: true
Nonlinearity correction enabled: false
Boxcar width: 0
XAxis mode: Wavelengths
Number of Pixels in Spectrum: 3648
>>>>>Begin Spectral Data<<<<<
178.204	-134.14
178.424	-134.14
178.644	-134.14
178.864	-171.01
179.084	-162.81
179.304	-54.27
179.524	1.02
179.744	-44.03
179.964	-3.07
180.184	27.65
180.404	-60.42
180.624	19.46
180.844	44.03
181.064	-21.5
181.283	101.37
181.503	-21.5
181.723	11.26
181.943	-31.74
182.163	95.23
182.383	23.55
182.602	13.31
182.822	66.56
183.042	3.07
183.262	1.02
183.482	-29.7
183.701	13.31
183.921	-21.5
184.141	-39.94
184.361	9.22
184.58	-35.84
184.8	-3.07
185.02	3.07
185.239	1.02
185.459	46.08
185.679	91.13
185.898	17.41
186.118	11.26
186.338	-80.89
186.557	29.7
186.777	-56.32
186.997	44.03
187.216	-33.79
187.436	15.36
187.655	3.07
187.875	1.02
188.095	-58.37
188.314	76.8
188.534	62.46
188.753	-7.17
188.973	66.56
189.192	44.03
189.412	27.65
189.631	-19.46
189.851	-44.03
190.07	54.27
190.29	-13.31
190.509	41.98
190.729	-56.32
190.948	50.18
191.168	99.33
191.387	19.46
191.607	-56.32
191.826	33.79
192.045	33.79
192.265	-87.04
192.484	-41.98
192.704	19.46
192.923	74.75
193.142	97.28
193.362	54.27
193.581	-9.22
193.8	5.12
194.02	29.7
194.239	13.31
194.458	-7.17
194.678	19.46
194.897	-39.94
195.116	33.79
195.335	17.41
195.555	-23.55
195.774	-15.36
195.993	39.94
196.212	58.37
196.432	35.84
196.651	25.6
196.87	-11.26
197.089	74.75
197.308	29.7
197.528	5.12
197.747	-15.36
197.966	25.6
198.185	84.99
198.404	29.7
198.623	99.33
198.842	62.46
199.062	64.51
199.281	72.7
199.5	19.46
199.719	9.22
199.938	25.6
200.157	125.95
200.376	66.56
200.595	3.07
200.814	72.7
201.033	23.55
201.252	31.74
201.471	-17.41
201.69	1.02
201.909	33.79
202.128	68.61
202.347	-21.5
202.566	9.22
202.785	19.46
203.004	29.7
203.223	78.85
203.442	-13.31
203.661	-13.31
203.879	103.42
204.098	78.85
204.317	-103.42
204.536	-25.6
204.755	-3.07
204.974	44.03
205.193	68.61
205.411	91.13
205.63	-13.31
205.849	68.61
206.068	33.79
206.287	119.81
206.505	5.12
206.724	5.12
206.943	-62.46
207.162	-39.94
207.381	-29.7
207.599	-21.5
207.818	-7.17
208.037	9.22
208.255	58.37
208.474	58.37
208.693	-52.22
208.911	25.6
209.13	-19.46
209.349	103.42
209.567	33.79
209.786	128
210.005	-21.5
210.223	-37.89
210.442	-13.31
210.661	117.76
210.879	-70.65
211.098	41.98
211.316	1.02
211.535	-31.74
211.753	11.26
211.972	58.37
212.191	-17.41
212.409	-29.7
212.628	46.08
212.846	3.07
213.065	1.02
213.283	41.98
213.502	-39.94
213.72	9.22
213.938	9.22
214.157	25.6
214.375	58.37
214.594	9.22
214.812	3.07
215.031	-29.7
215.249	33.79
215.467	29.7
215.686	27.65
215.904	19.46
216.122	27.65
216.341	50.18
216.559	13.31
216.778	-44.03
216.996	41.98
217.214	-27.65
217.432	-89.09
217.651	9.22
217.869	35.84
218.087	-39.94
218.306	5.12
218.524	50.18
218.742	-89.09
218.96	-7.17
219.179	-13.31
219.397	9.22
219.615	35.84
219.833	1.02
220.051	23.55
220.27	29.7
220.488	74.75
220.706	9.22
220.924	-21.5
221.142	27.65
221.36	-1.02
221.578	50.18
221.796	66.56
222.015	27.65
222.233	25.6
222.451	62.46
222.669	-93.18
222.887	82.94
223.105	-46.08
223.323	3.07
223.541	-62.46
223.759	7.17
223.977	33.79
224.195	48.13
224.413	44.03
224.631	-7.17
224.849	-13.31
225.067	9.22
225.285	-44.03
225.503	25.6
225.721	-11.26
225.939	-62.46
226.157	-25.6
226.375	87.04
226.592	-17.41
226.81	17.41
227.028	41.98
227.246	-3.07
227.464	-19.46
227.682	91.13
227.9	39.94
228.117	82.94
228.335	33.79
228.553	1.02
228.771	19.46
228.989	1.02
229.206	-58.37
229.424	44.03
229.642	21.5
229.86	1.02
230.077	17.41
230.295	78.85
230.513	3.07
230.731	9.22
230.948	113.66
231.166	58.37
231.384	3.07
231.601	-13.31
231.819	-29.7
232.037	37.89
232.254	5.12
232.472	-15.36
232.689	5.12
232.907	35.84
233.125	-27.65
233.342	33.79
233.56	-11.26
233.777	76.8
233.995	-5.12
234.213	33.79
234.43	91.13
234.648	27.65
234.865	-1.02
235.083	46.08
235.3	68.61
235.518	-37.89
235.735	62.46
235.953	48.13
236.17	19.46
236.388	-15.36
236.605	9.22
236.822	91.13
237.04	13.31
237.257	-13.31
237.475	-5.12
237.692	52.22
237.909	-82.94
238.127	-7.17
238.344	17.41
238.562	68.61
238.779	5.12
238.996	46.08
239.214	-50.18
239.431	19.46
239.648	-58.37
239.865	46.08
240.083	33.79
240.3	-13.31
240.517	-52.22
240.735	-44.03
240.952	19.46
241.169	52.22
241.386	35.84
241.603	25.6
241.821	19.46
242.038	76.8
242.255	11.26
242.472	-23.55
242.689	21.5
242.907	33.79
243.124	3.07
243.341	-21.5
243.558	-23.55
243.775	11.26
243.992	-5.12
244.209	-62.46
244.426	33.79
244.643	25.6
244.86	23.55
245.078	-15.36
245.295	-23.55
245.512	52.22
245.729	33.79
245.946	29.7
246.163	-25.6
246.38	33.79
246.597	-7.17
246.814	-39.94
247.031	23.55
247.248	-23.55
247.464	29.7
247.681	-56.32
247.898	-11.26
248.115	-11.26
248.332	1.02
248.549	27.65
248.766	54.27
248.983	3.07
249.2	-11.26
249.417	58.37
249.633	-3.07
249.85	-7.17
250.067	11.26
250.284	52.22
250.501	9.22
250.717	33.79
250.934	-23.55
251.151	-15.36
251.368	-48.13
251.585	17.41
251.801	25.6
252.018	54.27
252.235	-7.17
252.451	15.36
252.668	-7.17
252.885	50.18
253.102	-31.74
253.318	-23.55
253.535	3.07
253.752	-60.42
253.968	-19.46
254.185	7.17
254.401	33.79
254.618	25.6
254.835	-29.7
255.051	76.8
255.268	-15.36
255.484	-31.74
255.701	7.17
255.917	-21.5
256.134	-82.94
256.351	-21.5
256.567	-89.09
256.784	-3.07
257	19.46
257.217	44.03
257.433	17.41
257.65	64.51
257.866	44.03
258.082	17.41
258.299	-9.22
258.515	-23.55
258.732	1.02
258.948	-56.32
259.165	-31.74
259.381	-41.98
259.597	80.89
259.814	-11.26
260.03	19.46
260.246	66.56
260.463	70.65
260.679	46.08
260.895	21.5
261.112	11.26
261.328	50.18
261.544	-72.7
261.761	66.56
261.977	-11.26
262.193	-39.94
262.409	1.02
262.626	23.55
262.842	78.85
263.058	-39.94
263.274	50.18
263.49	52.22
263.707	3.07
263.923	-7.17
264.139	-72.7
264.355	-13.31
264.571	1.02
264.787	39.94
265.004	82.94
265.22	17.41
265.436	-19.46
265.652	25.6
265.868	-13.31
266.084	-46.08
266.3	44.03
266.516	17.41
266.732	13.31
266.948	25.6
267.164	-48.13
267.38	52.22
267.596	46.08
267.812	44.03
268.028	-58.37
268.244	-5.12
268.46	-21.5
268.676	-5.12
268.892	7.17
269.108	41.98
269.324	1.02
269.54	-9.22
269.756	-44.03
269.972	-17.41
270.188	52.22
270.403	-1.02
270.619	23.55
270.835	5.12
271.051	-29.7
271.267	-68.61
271.483	-72.7
271.698	50.18
271.914	29.7
272.13	70.65
272.346	3.07
272.562	-39.94
272.777	31.74
272.993	-11.26
273.209	1.02
273.425	19.46
273.64	-31.74
273.856	44.03
274.072	-27.65
274.287	-17.41
274.503	19.46
274.719	107.52
274.934	1.02
275.15	-54.27
275.366	35.84
275.581	-1.02
275.797	44.03
276.012	-74.75
276.228	-11.26
276.444	39.94
276.659	29.7
276.875	9.22
277.09	-7.17
277.306	-89.09
277.521	9.22
277.737	-3.07
277.952	82.94
278.168	15.36
278.383	1.02
278.599	52.22
278.814	25.6
279.03	-15.36
279.245	46.08
279.461	9.22
279.676	-39.94
279.892	-44.03
280.107	3.07
280.322	-21.5
280.538	1.02
280.753	-56.32
280.969	13.31
281.184	-15.36
281.399	37.89
281.615	17.41
281.83	87.04
282.045	-15.36
282.26	-29.7
282.476	74.75
282.691	25.6
282.906	-25.6
283.122	-23.55
283.337	-31.74
283.552	-31.74
283.767	-37.89
283.983	21.5
284.198	-1.02
284.413	70.65
284.628	-52.22
284.843	-23.55
285.058	44.03
285.274	9.22
285.489	-31.74
285.704	41.98
285.919	-5.12
286.134	-23.55
286.349	41.98
286.564	35.84
286.779	66.56
286.995	19.46
287.21	25.6
287.425	-7.17
287.64	-5.12
287.855	1.02
288.07	-7.17
288.285	84.99
288.5	99.33
288.715	50.18
288.93	17.41
289.145	9.22
289.36	21.5
289.575	-68.61
289.79	21.5
290.004	-56.32
290.219	-29.7
290.434	-11.26
290.649	15.36
290.864	-13.31
291.079	-27.65
291.294	41.98
291.509	74.75
291.724	41.98
291.938	25.6
292.153	-3.07
292.368	35.84
292.583	13.31
292.798	33.79
293.012	3.07
293.227	17.41
293.442	-80.89
293.657	27.65
293.871	99.33
294.086	9.22
294.301	25.6
294.516	9.22
294.73	23.55
294.945	50.18
295.16	11.26
295.374	-15.36
295.589	76.8
295.804	-62.46
296.018	-35.84
296.233	9.22
296.447	1.02
296.662	35.84
296.877	111.61
297.091	33.79
297.306	-13.31
297.52	-60.42
297.735	-13.31
297.949	-9.22
298.164	99.33
298.378	35.84
298.593	-3.07
298.807	-19.46
299.022	58.37
299.236	-15.36
299.451	29.7
299.665	-19.46
299.88	-39.94
300.094	-3.07
300.309	33.79
300.523	-46.08
300.737	41.98
300.952	3.07
301.166	33.79
301.381	-84.99
301.595	33.79
301.809	72.7
302.024	35.84
302.238	1.02
302.452	41.98
302.667	44.03
302.881	58.37
303.095	-46.08
303.309	3.07
303.524	9.22
303.738	46.08
303.952	35.84
304.166	66.56
304.381	-70.65
304.595	19.46
304.809	-76.8
305.023	-23.55
305.237	-15.36
305.452	27.65
305.666	17.41
305.88	-9.22
306.094	-25.6
306.308	29.7
306.522	-5.12
306.736	41.98
306.95	33.79
307.164	-17.41
307.379	-52.22
307.593	11.26
307.807	-15.36
308.021	37.89
308.235	35.84
308.449	58.37
308.663	3.07
308.877	11.26
309.091	1.02
309.305	17.41
309.519	9.22
309.733	25.6
309.947	-3.07
310.161	29.7
310.374	70.65
310.588	46.08
310.802	-3.07
311.016	-7.17
311.23	-19.46
311.444	17.41
311.658	1.02
311.872	-48.13
312.085	37.89
312.299	62.46
312.513	-7.17
312.727	52.22
312.941	9.22
313.154	-3.07
313.368	37.89
313.582	74.75
313.796	3.07
314.009	-27.65
314.223	37.89
314.437	68.61
314.651	46.08
314.864	17.41
315.078	-15.36
315.292	-15.36
315.505	41.98
315.719	-21.5
315.933	-21.5
316.146	33.79
316.36	-27.65
316.573	68.61
316.787	23.55
317.001	70.65
317.214	23.55
317.428	-7.17
317.641	19.46
317.855	-1.02
318.068	74.75
318.282	-21.5
318.495	-15.36
318.709	-5.12
318.922	-39.94
319.136	70.65
319.349	74.75
319.563	-23.55
319.776	9.22
319.99	-39.94
320.203	31.74
320.417	66.56
320.63	-3.07
320.843	70.65
321.057	-58.37
321.27	72.7
321.483	11.26
321.697	1.02
321.91	17.41
322.124	9.22
322.337	-1.02
322.55	17.41
322.763	21.5
322.977	-3.07
323.19	39.94
323.403	-5.12
323.617	21.5
323.83	13.31
324.043	68.61
324.256	17.41
324.469	-52.22
324.683	41.98
324.896	-29.7
325.109	41.98
325.322	33.79
325.535	27.65
325.748	35.84
325.962	50.18
326.175	46.08
326.388	58.37
326.601	80.89
326.814	41.98
327.027	9.22
327.24	105.47
327.453	23.55
327.666	80.89
327.879	-15.36
328.092	23.55
328.305	11.26
328.518	-7.17
328.731	-23.55
328.944	-27.65
329.157	33.79
329.37	-5.12
329.583	33.79
329.796	29.7
330.009	-37.89
330.222	27.65
330.435	-48.13
330.648	54.27
330.861	1.02
331.073	33.79
331.286	29.7
331.499	-7.17
331.712	-11.26
331.925	-29.7
332.138	60.42
332.35	64.51
332.563	52.22
332.776	-21.5
332.989	1.02
333.202	9.22
333.414	29.7
333.627	27.65
333.84	41.98
334.053	41.98
334.265	-5.12
334.478	5.12
334.691	121.85
334.903	41.98
335.116	17.41
335.329	58.37
335.541	64.51
335.754	41.98
335.966	29.7
336.179	11.26
336.392	-21.5
336.604	-15.36
336.817	76.8
337.029	19.46
337.242	5.12
337.454	46.08
337.667	5.12
337.88	148.48
338.092	74.75
338.305	-7.17
338.517	62.46
338.729	-3.07
338.942	19.46
339.154	-3.07
339.367	9.22
339.579	-9.22
339.792	-115.71
340.004	25.6
340.217	5.12
340.429	46.08
340.641	-15.36
340.854	-23.55
341.066	33.79
341.278	41.98
341.491	95.23
341.703	48.13
341.915	-82.94
342.128	25.6
342.34	50.18
342.552	58.37
342.764	9.22
342.977	-13.31
343.189	50.18
343.401	-54.27
343.613	-35.84
343.826	50.18
344.038	-27.65
344.25	35.84
344.462	17.41
344.674	33.79
344.886	9.22
345.099	82.94
345.311	-29.7
345.523	76.8
345.735	-19.46
345.947	27.65
346.159	39.94
346.371	1.02
346.583	-103.42
346.795	46.08
347.007	66.56
347.219	11.26
347.431	17.41
347.643	33.79
347.855	-1.02
348.067	13.31
348.279	-5.12
348.491	25.6
348.703	23.55
348.915	27.65
349.127	-66.56
349.339	-31.74
349.551	39.94
349.763	-13.31
349.975	-27.65
350.187	80.89
350.399	76.8
350.61	58.37
350.822	35.84
351.034	17.41
351.246	72.7
351.458	15.36
351.669	-3.07
351.881	39.94
352.093	37.89
352.305	62.46
352.517	25.6
352.728	101.37
352.94	-35.84
353.152	35.84
353.363	78.85
353.575	66.56
353.787	70.65
353.999	17.41
354.21	72.7
354.422	-54.27
354.633	-80.89
354.845	41.98
355.057	-19.46
355.268	70.65
355.48	-27.65
355.692	-23.55
355.903	91.13
356.115	-7.17
356.326	25.6
356.538	91.13
356.749	68.61
356.961	46.08
357.172	-3.07
357.384	-48.13
357.595	105.47
357.807	-13.31
358.018	13.31
358.23	-3.07
358.441	68.61
358.653	21.5
358.864	25.6
359.075	46.08
359.287	82.94
359.498	33.79
359.709	33.79
359.921	54.27
360.132	91.13
360.344	-39.94
360.555	-5.12
360.766	-56.32
360.977	5.12
361.189	103.42
361.4	23.55
361.611	9.22
361.823	89.09
362.034	37.89
362.245	-74.75
362.456	-7.17
362.667	78.85
362.879	72.7
363.09	95.23
363.301	76.8
363.512	37.89
363.723	25.6
363.935	66.56
364.146	27.65
364.357	84.99
364.568	41.98
364.779	52.22
364.99	91.13
365.201	52.22
365.412	52.22
365.623	-44.03
365.834	50.18
366.045	19.46
366.256	41.98
366.467	9.22
366.678	19.46
366.889	13.31
367.1	17.41
367.311	66.56
367.522	119.81
367.733	37.89
367.944	-31.74
368.155	3.07
368.366	50.18
368.577	89.09
368.788	-37.89
368.999	13.31
369.209	58.37
369.42	41.98
369.631	56.32
369.842	-39.94
370.053	35.84
370.264	101.37
370.474	-56.32
370.685	9.22
370.896	66.56
371.107	66.56
371.317	13.31
371.528	3.07
371.739	44.03
371.95	-19.46
372.16	19.46
372.371	58.37
372.582	27.65
372.792	41.98
373.003	46.08
373.214	58.37
373.424	76.8
373.635	-5.12
373.846	66.56
374.056	-39.94
374.267	82.94
374.477	33.79
374.688	-13.31
374.898	-21.5
375.109	58.37
375.319	-15.36
375.53	37.89
375.74	31.74
375.951	80.89
376.161	27.65
376.372	-29.7
376.582	3.07
376.793	-11.26
377.003	37.89
377.214	-27.65
377.424	-3.07
377.635	91.13
377.845	-17.41
378.055	66.56
378.266	19.46
378.476	9.22
378.686	-23.55
378.897	41.98
379.107	93.18
379.317	33.79
379.528	-13.31
379.738	60.42
379.948	-7.17
380.158	99.33
380.369	66.56
380.579	9.22
380.789	3.07
380.999	91.13
381.21	93.18
381.42	107.52
381.63	33.79
381.84	107.52
382.05	35.84
382.261	82.94
382.471	-7.17
382.681	46.08
382.891	33.79
383.101	17.41
383.311	-31.74
383.521	17.41
383.731	41.98
383.941	1.02
384.151	23.55
384.361	17.41
384.571	58.37
384.781	44.03
384.991	62.46
385.201	123.9
385.411	33.79
385.621	74.75
385.831	-7.17
386.041	62.46
386.251	44.03
386.461	27.65
386.671	-5.12
386.881	11.26
387.091	39.94
387.301	103.42
387.511	41.98
387.72	29.7
387.93	3.07
388.14	-1.02
388.35	33.79
388.56	58.37
388.769	103.42
388.979	46.08
389.189	-3.07
389.399	29.7
389.609	50.18
389.818	62.46
390.028	19.46
390.238	115.71
390.447	-23.55
390.657	82.94
390.867	-15.36
391.076	48.13
391.286	60.42
391.496	39.94
391.705	37.89
391.915	13.31
392.125	-25.6
392.334	41.98
392.544	82.94
392.753	9.22
392.963	58.37
393.172	64.51
393.382	46.08
393.591	76.8
393.801	5.12
394.01	27.65
394.22	58.37
394.429	21.5
394.639	50.18
394.848	128
395.058	91.13
395.267	115.71
395.477	111.61
395.686	31.74
395.895	62.46
396.105	97.28
396.314	54.27
396.524	103.42
396.733	91.13
396.942	68.61
397.152	156.67
397.361	91.13
397.57	103.42
397.78	33.79
397.989	46.08
398.198	52.22
398.407	44.03
398.617	93.18
398.826	101.37
399.035	52.22
399.244	99.33
399.453	113.66
399.663	78.85
399.872	74.75
400.081	41.98
400.29	140.29
400.499	27.65
400.708	119.81
400.917	41.98
401.127	134.14
401.336	99.33
401.545	35.84
401.754	80.89
401.963	91.13
402.172	21.5
402.381	41.98
402.59	-5.12
402.799	58.37
403.008	82.94
403.217	132.09
403.426	60.42
403.635	74.75
403.844	84.99
404.053	175.1
404.262	50.18
404.471	132.09
404.68	160.77
404.888	115.71
405.097	44.03
405.306	191.49
405.515	146.43
405.724	107.52
405.933	128
406.142	99.33
406.35	125.95
406.559	93.18
406.768	72.7
406.977	144.38
407.185	164.86
407.394	160.77
407.603	154.62
407.812	179.2
408.02	197.63
408.229	160.77
408.438	197.63
408.646	142.33
408.855	138.24
409.064	246.78
409.272	222.2
409.481	246.78
409.69	265.21
409.898	230.4
410.107	197.63
410.315	246.78
410.524	238.59
410.733	232.44
410.941	183.29
411.15	246.78
411.358	316.41
411.567	347.13
411.775	261.12
411.984	353.27
412.192	377.85
412.401	324.6
412.609	445.43
412.818	437.24
413.026	345.08
413.234	316.41
413.443	377.85
413.651	357.37
413.86	562.17
414.068	455.67
414.276	459.77
414.485	517.11
414.693	533.5
414.901	525.3
415.11	584.7
415.318	592.89
415.526	574.46
415.734	582.65
415.943	625.65
416.151	568.31
416.359	590.84
416.567	689.14
416.776	728.05
416.984	754.68
417.192	871.41
417.4	828.4
417.608	795.64
417.817	740.34
418.025	898.03
418.233	988.14
418.441	910.32
418.649	959.47
418.857	992.24
419.065	1098.74
419.273	1065.97
419.481	1055.73
419.689	1242.09
419.897	1297.39
420.105	1225.71
420.313	1207.28
420.521	1311.72
420.729	1276.91
420.937	1422.31
421.145	1373.16
421.353	1385.45
421.561	1557.48
421.769	1577.96
421.977	1567.72
422.185	1616.87
422.393	1700.84
422.601	1852.39
422.809	1815.52
423.017	1829.86
423.224	1803.24
423.432	1856.48
423.64	2098.14
423.848	2137.06
424.056	2032.61
424.263	2190.3
424.471	2313.18
424.679	2348
424.887	2540.51
425.094	2511.83
425.302	2581.46
425.51	2616.28
425.718	2683.86
425.925	2737.11
426.133	2786.26
426.341	2974.67
426.548	3148.75
426.756	3062.74
426.964	3122.13
427.171	3345.36
427.379	3531.72
427.586	3437.52
427.794	3468.24
428.001	3777.48
428.209	3875.78
428.417	3949.51
428.624	4150.21
428.832	4076.48
429.039	4195.26
429.247	4121.54
429.454	4520.89
429.662	4717.5
429.869	4504.51
430.076	4838.33
430.284	4674.49
430.491	4989.88
430.699	5178.29
430.906	5149.62
431.114	5075.89
431.321	5350.32
431.528	5604.27
431.736	5876.65
431.943	6206.37
432.15	5989.28
432.358	5960.61
432.565	6261.66
432.772	6194.08
432.979	6779.8
433.187	6685.59
433.394	6808.47
433.601	7320.46
433.808	7220.11
434.016	7220.11
434.223	7553.93
434.43	7902.09
434.637	7725.96
434.844	8225.67
435.052	8594.3
435.259	8432.51
435.466	8612.73
435.673	8434.56
435.88	9096.05
436.087	9659.24
436.294	9280.37
436.501	9161.59
436.708	9456.5
436.915	9632.62
437.122	9993.06
437.329	10007.4
437.537	10396.51
437.743	10589.02
437.95	10472.29
438.157	11213.65
438.364	11338.58
438.571	11494.22
438.778	11420.5
438.985	12493.63
439.192	12002.12
439.399	12282.69
439.606	12026.7
439.813	12723.01
440.02	13390.64
440.227	13355.83
440.433	13253.43
440.64	13603.63
440.847	13474.61
441.054	13847.34
441.261	14947.1
441.467	14826.27
441.674	15014.68
441.881	15483.67
442.088	15262.49
442.294	15319.83
442.501	15514.39
442.708	16042.76
442.914	16868.09
443.121	17111.8
443.328	16655.11
443.534	17783.54
443.741	17472.25
443.948	16968.45
444.154	18428.65
444.361	18473.7
444.568	18479.85
444.774	18322.15
444.981	18711.27
445.187	19270.36
445.394	19811.03
445.6	19798.74
445.807	21664.44
446.013	20695.75
446.22	21095.1
446.426	21908.15
446.633	22301.36
446.839	23210.65
447.046	22020.78
447.252	23241.37
447.459	23222.94
447.665	23227.04
447.871	24062.61
448.078	25295.49
448.284	23966.35
448.491	24650.38
448.697	25569.91
448.903	26235.5
449.11	26317.42
449.316	25664.12
449.522	26524.27
449.728	26681.96
449.935	27261.54
450.141	26946.15
450.347	28009.04
450.553	26985.06
450.76	27458.14
450.966	28310.1
451.172	27953.75
451.378	28660.3
451.584	28383.82
451.791	28465.74
451.997	28621.39
452.203	29428.29
452.409	29278.79
452.615	29266.5
452.821	28179.03
453.027	27945.56
453.233	29188.67
453.44	28244.56
453.646	28648.01
453.852	29004.36
454.058	28983.88
454.264	28467.79
454.47	29319.74
454.676	28150.35
454.882	29026.89
455.088	26749.54
455.294	27099.75
455.5	27517.53
455.705	28232.27
455.911	26868.33
456.117	26061.43
456.323	25870.97
456.529	24568.46
456.735	25604.73
456.941	24818.31
457.147	24568.46
457.352	24013.46
457.558	23726.74
457.764	23794.32
457.97	23415.45
458.176	23108.26
458.381	22907.55
458.587	21535.42
458.793	21686.97
458.999	20685.51
459.204	22225.58
459.41	21314.23
459.616	20163.28
459.821	20376.27
460.027	19886.8
460.233	19944.14
460.438	18817.76
460.644	19030.75
460.85	18068.2
461.055	17668.85
461.261	17834.74
461.466	16065.29
461.672	15854.35
461.878	17185.53
462.083	15901.45
462.289	15756.05
462.494	15467.28
462.7	14693.15
462.905	14347.05
463.111	14805.79
463.316	14807.84
463.522	14705.44
463.727	14424.87
463.932	14541.6
464.138	14451.49
464.343	14267.17
464.549	14091.05
464.754	14406.44
464.959	14250.79
465.165	14250.79
465.37	13765.42
465.575	13243.19
465.781	13904.68
465.986	14084.91
466.191	13353.78
466.397	13060.92
466.602	12487.49
466.807	12991.29
467.012	13046.58
467.218	13026.11
467.423	12776.25
467.628	13013.82
