Data from USB4F104151__232__14-45-39-269.txt Node

Date: Thu Mar 13 14:45:39 EDT 2025
User: louis
Spectrometer: USB4F10415
Trigger mode: 4
Integration Time (sec): 2.000000E-2
Scans to average: 1
Electric dark correction enabled: true
Nonlinearity correction enabled: false
Boxcar width: 0
XAxis mode: Wavelengths
Number of Pixels in Spectrum: 3648
>>>>>Begin Spectral Data<<<<<
178.204	-85.33
178.424	-85.33
178.644	-85.33
178.864	-148.82
179.084	-140.63
179.304	25.26
179.524	31.4
179.744	-91.48
179.964	33.45
180.184	8.87
180.404	-3.41
180.624	4.78
180.844	53.93
181.064	-48.47
181.283	-11.61
181.503	-71
181.723	68.27
181.943	-23.89
182.163	49.83
182.383	-19.8
182.602	76.46
182.822	47.79
183.042	4.78
183.262	-19.8
183.482	12.97
183.701	6.83
183.921	-15.7
184.141	-44.37
184.361	70.31
184.58	4.78
184.8	45.74
185.02	-11.61
185.239	25.26
185.459	-27.99
185.679	-32.08
185.898	-7.51
186.118	74.41
186.338	43.69
186.557	55.98
186.777	10.92
186.997	51.88
187.216	25.26
187.436	70.31
187.655	33.45
187.875	15.02
188.095	12.97
188.314	-13.65
188.534	74.41
188.753	12.97
188.973	12.97
189.192	70.31
189.412	-17.75
189.631	-34.13
189.851	21.16
190.07	35.5
190.29	-11.61
190.509	-44.37
190.729	4.78
190.948	74.41
191.168	105.13
191.387	135.85
191.607	-23.89
191.826	4.78
192.045	-27.99
192.265	58.03
192.484	12.97
192.704	31.4
192.923	-19.8
193.142	62.12
193.362	45.74
193.581	105.13
193.8	29.35
194.02	-3.41
194.239	15.02
194.458	21.16
194.678	8.87
194.897	29.35
195.116	64.17
195.335	25.26
195.555	21.16
195.774	-36.18
195.993	45.74
196.212	-1.37
196.432	-13.65
196.651	-15.7
196.87	33.45
197.089	119.46
197.308	-68.95
197.528	45.74
197.747	-77.14
197.966	-79.19
198.185	-1.37
198.404	-9.56
198.623	-25.94
198.842	21.16
199.062	15.02
199.281	105.13
199.5	78.51
199.719	78.51
199.938	47.79
200.157	-7.51
200.376	27.31
200.595	80.55
200.814	103.08
201.033	21.16
201.252	-52.56
201.471	2.73
201.69	37.55
201.909	29.35
202.128	-23.89
202.347	-11.61
202.566	-34.13
202.785	-11.61
203.004	21.16
203.223	131.75
203.442	72.36
203.661	49.83
203.879	39.59
204.098	31.4
204.317	0.68
204.536	4.78
204.755	23.21
204.974	-77.14
205.193	33.45
205.411	90.79
205.63	-1.37
205.849	-21.85
206.068	-34.13
206.287	21.16
206.505	82.6
206.724	-48.47
206.943	-44.37
207.162	-17.75
207.381	21.16
207.599	10.92
207.818	17.07
208.037	-56.66
208.255	86.7
208.474	-9.56
208.693	10.92
208.911	23.21
209.13	25.26
209.349	39.59
209.567	-34.13
209.786	88.75
210.005	19.11
210.223	31.4
210.442	-27.99
210.661	43.69
210.879	41.64
211.098	23.21
211.316	23.21
211.535	70.31
211.753	-27.99
211.972	37.55
212.191	39.59
212.409	53.93
212.628	39.59
212.846	-13.65
213.065	27.31
213.283	33.45
213.502	37.55
213.72	0.68
213.938	-36.18
214.157	49.83
214.375	53.93
214.594	-17.75
214.812	109.22
215.031	25.26
215.249	6.83
215.467	-36.18
215.686	37.55
215.904	41.64
216.122	17.07
216.341	74.41
216.559	37.55
216.778	8.87
216.996	4.78
217.214	25.26
217.432	25.26
217.651	-9.56
217.869	27.31
218.087	21.16
218.306	-44.37
218.524	-25.94
218.742	-36.18
218.96	-9.56
219.179	-3.41
219.397	39.59
219.615	41.64
219.833	6.83
220.051	17.07
220.27	64.17
220.488	94.89
220.706	39.59
220.924	2.73
221.142	-3.41
221.36	-1.37
221.578	58.03
221.796	29.35
222.015	21.16
222.233	53.93
222.451	58.03
222.669	-21.85
222.887	39.59
223.105	-7.51
223.323	31.4
223.541	4.78
223.759	66.22
223.977	47.79
224.195	49.83
224.413	-34.13
224.631	55.98
224.849	62.12
225.067	111.27
225.285	-68.95
225.503	96.94
225.721	-114
225.939	37.55
226.157	29.35
226.375	86.7
226.592	-42.32
226.81	-27.99
227.028	74.41
227.246	53.93
227.464	-66.9
227.682	-11.61
227.9	-1.37
228.117	47.79
228.335	-23.89
228.553	45.74
228.771	68.27
228.989	45.74
229.206	-1.37
229.424	53.93
229.642	-27.99
229.86	-17.75
230.077	29.35
230.295	25.26
230.513	37.55
230.731	35.5
230.948	70.31
231.166	-7.51
231.384	-3.41
231.601	45.74
231.819	88.75
232.037	-66.9
232.254	-15.7
232.472	53.93
232.689	39.59
232.907	58.03
233.125	0.68
233.342	53.93
233.56	-34.13
233.777	23.21
233.995	-11.61
234.213	90.79
234.43	-54.61
234.648	0.68
234.865	45.74
235.083	29.35
235.3	35.5
235.518	98.99
235.735	94.89
235.953	-15.7
236.17	-17.75
236.388	-23.89
236.605	31.4
236.822	27.31
237.04	47.79
237.257	74.41
237.475	41.64
237.692	-9.56
237.909	29.35
238.127	29.35
238.344	-7.51
238.562	-30.04
238.779	-68.95
238.996	-15.7
239.214	53.93
239.431	-7.51
239.648	-30.04
239.865	21.16
240.083	53.93
240.3	-3.41
240.517	-17.75
240.735	23.21
240.952	68.27
241.169	72.36
241.386	31.4
241.603	41.64
241.821	-36.18
242.038	0.68
242.255	6.83
242.472	-60.76
242.689	66.22
242.907	82.6
243.124	98.99
243.341	37.55
243.558	33.45
243.775	-52.56
243.992	53.93
244.209	-19.8
244.426	41.64
244.643	43.69
244.86	-3.41
245.078	37.55
245.295	43.69
245.512	-5.46
245.729	12.97
245.946	-15.7
246.163	-11.61
246.38	-25.94
246.597	-50.52
246.814	31.4
247.031	-25.94
247.248	125.61
247.464	-13.65
247.681	-36.18
247.898	-19.8
248.115	-27.99
248.332	-23.89
248.549	45.74
248.766	72.36
248.983	74.41
249.2	-13.65
249.417	72.36
249.633	-25.94
249.85	-32.08
250.067	-13.65
250.284	23.21
250.501	-7.51
250.717	25.26
250.934	-27.99
251.151	37.55
251.368	6.83
251.585	-27.99
251.801	47.79
252.018	-1.37
252.235	-21.85
252.451	19.11
252.668	64.17
252.885	-44.37
253.102	17.07
253.318	6.83
253.535	-15.7
253.752	0.68
253.968	107.18
254.185	-85.33
254.401	-34.13
254.618	-23.89
254.835	29.35
255.051	88.75
255.268	82.6
255.484	37.55
255.701	-1.37
255.917	-27.99
256.134	-44.37
256.351	17.07
256.567	-66.9
256.784	-7.51
257	96.94
257.217	98.99
257.433	-19.8
257.65	39.59
257.866	12.97
258.082	-15.7
258.299	-58.71
258.515	86.7
258.732	-9.56
258.948	37.55
259.165	53.93
259.381	-17.75
259.597	86.7
259.814	8.87
260.03	4.78
260.246	45.74
260.463	15.02
260.679	39.59
260.895	29.35
261.112	15.02
261.328	37.55
261.544	-11.61
261.761	94.89
261.977	-38.23
262.193	-11.61
262.409	55.98
262.626	78.51
262.842	2.73
263.058	-107.86
263.274	23.21
263.49	-19.8
263.707	-5.46
263.923	78.51
264.139	-36.18
264.355	-44.37
264.571	94.89
264.787	-50.52
265.004	55.98
265.22	-11.61
265.436	53.93
265.652	58.03
265.868	29.35
266.084	62.12
266.3	78.51
266.516	-3.41
266.732	41.64
266.948	-17.75
267.164	29.35
267.38	31.4
267.596	80.55
267.812	94.89
268.028	15.02
268.244	-5.46
268.46	45.74
268.676	17.07
268.892	80.55
269.108	-19.8
269.324	-79.19
269.54	-38.23
269.756	62.12
269.972	-44.37
270.188	17.07
270.403	-44.37
270.619	39.59
270.835	39.59
271.051	-54.61
271.267	6.83
271.483	-44.37
271.698	-7.51
271.914	12.97
272.13	41.64
272.346	70.31
272.562	53.93
272.777	70.31
272.993	8.87
273.209	4.78
273.425	31.4
273.64	-48.47
273.856	8.87
274.072	12.97
274.287	8.87
274.503	4.78
274.719	12.97
274.934	15.02
275.15	-36.18
275.366	19.11
275.581	33.45
275.797	12.97
276.012	29.35
276.228	-7.51
276.444	-73.04
276.659	45.74
276.875	-23.89
277.09	41.64
277.306	37.55
277.521	39.59
277.737	-60.76
277.952	-27.99
278.168	37.55
278.383	21.16
278.599	6.83
278.814	51.88
279.03	-23.89
279.245	23.21
279.461	-3.41
279.676	53.93
279.892	4.78
280.107	0.68
280.322	-32.08
280.538	-5.46
280.753	-7.51
280.969	39.59
281.184	-58.71
281.399	4.78
281.615	0.68
281.83	-27.99
282.045	37.55
282.26	15.02
282.476	15.02
282.691	31.4
282.906	96.94
283.122	23.21
283.337	8.87
283.552	10.92
283.767	41.64
283.983	23.21
284.198	-3.41
284.413	64.17
284.628	-68.95
284.843	23.21
285.058	103.08
285.274	-21.85
285.489	-44.37
285.704	8.87
285.919	-3.41
286.134	29.35
286.349	4.78
286.564	70.31
286.779	10.92
286.995	15.02
287.21	-19.8
287.425	19.11
287.64	86.7
287.855	-5.46
288.07	-77.14
288.285	86.7
288.5	111.27
288.715	78.51
288.93	62.12
289.145	33.45
289.36	74.41
289.575	8.87
289.79	43.69
290.004	-17.75
290.219	58.03
290.434	-56.66
290.649	53.93
290.864	45.74
291.079	23.21
291.294	94.89
291.509	47.79
291.724	45.74
291.938	4.78
292.153	45.74
292.368	12.97
292.583	82.6
292.798	47.79
293.012	62.12
293.227	49.83
293.442	-34.13
293.657	-15.7
293.871	12.97
294.086	12.97
294.301	86.7
294.516	-1.37
294.73	19.11
294.945	43.69
295.16	6.83
295.374	29.35
295.589	-1.37
295.804	-11.61
296.018	4.78
296.233	4.78
296.447	-19.8
296.662	-81.24
296.877	78.51
297.091	-19.8
297.306	-1.37
297.52	17.07
297.735	49.83
297.949	0.68
298.164	21.16
298.378	78.51
298.593	-23.89
298.807	23.21
299.022	70.31
299.236	37.55
299.451	-1.37
299.665	-27.99
299.88	-27.99
300.094	12.97
300.309	-27.99
300.523	53.93
300.737	10.92
300.952	60.07
301.166	45.74
301.381	31.4
301.595	29.35
301.809	-34.13
302.024	-27.99
302.238	-11.61
302.452	86.7
302.667	-1.37
302.881	8.87
303.095	45.74
303.309	70.31
303.524	-30.04
303.738	29.35
303.952	45.74
304.166	94.89
304.381	29.35
304.595	137.9
304.809	-9.56
305.023	-60.76
305.237	-7.51
305.452	39.59
305.666	60.07
305.88	45.74
306.094	12.97
306.308	10.92
306.522	127.66
306.736	29.35
306.95	41.64
307.164	17.07
307.379	-11.61
307.593	-25.94
307.807	101.03
308.021	25.26
308.235	0.68
308.449	-17.75
308.663	-11.61
308.877	121.51
309.091	0.68
309.305	96.94
309.519	-32.08
309.733	-11.61
309.947	37.55
310.161	-3.41
310.374	-13.65
310.588	29.35
310.802	-68.95
311.016	33.45
311.23	25.26
311.444	-3.41
311.658	-25.94
311.872	33.45
312.085	25.26
312.299	0.68
312.513	58.03
312.727	86.7
312.941	15.02
313.154	94.89
313.368	111.27
313.582	15.02
313.796	43.69
314.009	-25.94
314.223	41.64
314.437	27.31
314.651	70.31
314.864	53.93
315.078	-68.95
315.292	-44.37
315.505	8.87
315.719	39.59
315.933	51.88
316.146	47.79
316.36	33.45
316.573	29.35
316.787	-5.46
317.001	45.74
317.214	-17.75
317.428	35.5
317.641	58.03
317.855	-9.56
318.068	37.55
318.282	41.64
318.495	105.13
318.709	-36.18
318.922	70.31
319.136	127.66
319.349	-25.94
319.563	-3.41
319.776	4.78
319.99	37.55
320.203	4.78
320.417	4.78
320.63	0.68
320.843	121.51
321.057	0.68
321.27	-1.37
321.483	111.27
321.697	113.32
321.91	-42.32
322.124	-58.71
322.337	21.16
322.55	21.16
322.763	47.79
322.977	12.97
323.19	41.64
323.403	148.14
323.617	29.35
323.83	37.55
324.043	12.97
324.256	-44.37
324.469	-25.94
324.683	70.31
324.896	-48.47
325.109	27.31
325.322	-11.61
325.535	19.11
325.748	49.83
325.962	-40.28
326.175	21.16
326.388	55.98
326.601	17.07
326.814	4.78
327.027	58.03
327.24	-11.61
327.453	-64.85
327.666	45.74
327.879	-9.56
328.092	21.16
328.305	23.21
328.518	62.12
328.731	-32.08
328.944	76.46
329.157	4.78
329.37	43.69
329.583	90.79
329.796	29.35
330.009	90.79
330.222	70.31
330.435	17.07
330.648	19.11
330.861	23.21
331.073	4.78
331.286	43.69
331.499	29.35
331.712	-19.8
331.925	21.16
332.138	6.83
332.35	74.41
332.563	-36.18
332.776	64.17
332.989	19.11
333.202	45.74
333.414	37.55
333.627	33.45
333.84	31.4
334.053	49.83
334.265	-23.89
334.478	41.64
334.691	6.83
334.903	8.87
335.116	21.16
335.329	43.69
335.541	49.83
335.754	37.55
335.966	4.78
336.179	45.74
336.392	-68.95
336.604	17.07
336.817	-1.37
337.029	31.4
337.242	78.51
337.454	-13.65
337.667	45.74
337.88	39.59
338.092	39.59
338.305	55.98
338.517	4.78
338.729	64.17
338.942	-1.37
339.154	-25.94
339.367	12.97
339.579	55.98
339.792	-46.42
340.004	23.21
340.217	-9.56
340.429	72.36
340.641	-21.85
340.854	6.83
341.066	4.78
341.278	45.74
341.491	98.99
341.703	2.73
341.915	-15.7
342.128	47.79
342.34	135.85
342.552	58.03
342.764	25.26
342.977	4.78
343.189	39.59
343.401	15.02
343.613	-27.99
343.826	41.64
344.038	-68.95
344.25	12.97
344.462	-23.89
344.674	-9.56
344.886	-3.41
345.099	19.11
345.311	29.35
345.523	15.02
345.735	-13.65
345.947	23.21
346.159	-56.66
346.371	127.66
346.583	-34.13
346.795	103.08
347.007	15.02
347.219	-30.04
347.431	12.97
347.643	150.18
347.855	70.31
348.067	72.36
348.279	62.12
348.491	-11.61
348.703	88.75
348.915	37.55
349.127	58.03
349.339	37.55
349.551	58.03
349.763	12.97
349.975	-15.7
350.187	64.17
350.399	49.83
350.61	62.12
350.822	62.12
351.034	47.79
351.246	107.18
351.458	4.78
351.669	84.65
351.881	17.07
352.093	47.79
352.305	72.36
352.517	10.92
352.728	-1.37
352.94	2.73
353.152	74.41
353.363	29.35
353.575	86.7
353.787	103.08
353.999	-27.99
354.21	111.27
354.422	-17.75
354.633	10.92
354.845	2.73
355.057	12.97
355.268	-40.28
355.48	58.03
355.692	55.98
355.903	53.93
356.115	66.22
356.326	-40.28
356.538	64.17
356.749	103.08
356.961	53.93
357.172	-3.41
357.384	-1.37
357.595	125.61
357.807	53.93
358.018	21.16
358.23	96.94
358.441	90.79
358.653	-1.37
358.864	4.78
359.075	-3.41
359.287	39.59
359.498	4.78
359.709	12.97
359.921	0.68
360.132	8.87
360.344	-11.61
360.555	29.35
360.766	60.07
360.977	15.02
361.189	21.16
361.4	29.35
361.611	31.4
361.823	92.84
362.034	23.21
362.245	41.64
362.456	25.26
362.667	17.07
362.879	-7.51
363.09	45.74
363.301	72.36
363.512	62.12
363.723	-32.08
363.935	-7.51
364.146	12.97
364.357	-19.8
364.568	37.55
364.779	-85.33
364.99	-1.37
365.201	12.97
365.412	-7.51
365.623	4.78
365.834	37.55
366.045	33.45
366.256	55.98
366.467	94.89
366.678	74.41
366.889	45.74
367.1	10.92
367.311	25.26
367.522	86.7
367.733	21.16
367.944	37.55
368.155	45.74
368.366	76.46
368.577	90.79
368.788	94.89
368.999	4.78
369.209	12.97
369.42	64.17
369.631	127.66
369.842	-34.13
370.053	29.35
370.264	55.98
370.474	-11.61
370.685	49.83
370.896	82.6
371.107	41.64
371.317	66.22
371.528	-7.51
371.739	72.36
371.95	-36.18
372.16	60.07
372.371	-27.99
372.582	21.16
372.792	33.45
373.003	47.79
373.214	0.68
373.424	45.74
373.635	6.83
373.846	66.22
374.056	45.74
374.267	25.26
374.477	45.74
374.688	-9.56
374.898	23.21
375.109	-9.56
375.319	37.55
375.53	98.99
375.74	-1.37
375.951	-3.41
376.161	37.55
376.372	43.69
376.582	33.45
376.793	53.93
377.003	49.83
377.214	70.31
377.424	21.16
377.635	53.93
377.845	62.12
378.055	68.27
378.266	39.59
378.476	70.31
378.686	21.16
378.897	49.83
379.107	78.51
379.317	105.13
379.528	4.78
379.738	39.59
379.948	47.79
380.158	64.17
380.369	15.02
380.579	117.42
380.789	49.83
380.999	86.7
381.21	-23.89
381.42	86.7
381.63	-19.8
381.84	37.55
382.05	29.35
382.261	139.94
382.471	53.93
382.681	72.36
382.891	58.03
383.101	53.93
383.311	-3.41
383.521	-30.04
383.731	119.46
383.941	19.11
384.151	-25.94
384.361	-23.89
384.571	19.11
384.781	70.31
384.991	111.27
385.201	70.31
385.411	45.74
385.621	-23.89
385.831	27.31
386.041	23.21
386.251	-11.61
386.461	-1.37
386.671	33.45
386.881	-9.56
387.091	74.41
387.301	-19.8
387.511	76.46
387.72	45.74
387.93	62.12
388.14	0.68
388.35	33.45
388.56	113.32
388.769	131.75
388.979	27.31
389.189	15.02
389.399	60.07
389.609	-7.51
389.818	86.7
390.028	47.79
390.238	4.78
390.447	33.45
390.657	21.16
390.867	12.97
391.076	2.73
391.286	0.68
391.496	-7.51
391.705	33.45
391.915	19.11
392.125	78.51
392.334	12.97
392.544	68.27
392.753	49.83
392.963	90.79
393.172	8.87
393.382	-9.56
393.591	25.26
393.801	88.75
394.01	4.78
394.22	111.27
394.429	19.11
394.639	-36.18
394.848	23.21
395.058	66.22
395.267	-17.75
395.477	4.78
395.686	107.18
395.895	182.95
396.105	139.94
396.314	35.5
396.524	60.07
396.733	47.79
396.942	94.89
397.152	68.27
397.361	70.31
397.57	29.35
397.78	115.37
397.989	74.41
398.198	148.14
398.407	86.7
398.617	115.37
398.826	90.79
399.035	39.59
399.244	80.55
399.453	49.83
399.663	88.75
399.872	66.22
400.081	53.93
400.29	131.75
400.499	-7.51
400.708	121.51
400.917	113.32
401.127	86.7
401.336	-3.41
401.545	191.14
401.754	144.04
401.963	88.75
402.172	45.74
402.381	98.99
402.59	68.27
402.799	125.61
403.008	0.68
403.217	88.75
403.426	82.6
403.635	103.08
403.844	55.98
404.053	178.86
404.262	119.46
404.471	168.62
404.68	144.04
404.888	94.89
405.097	94.89
405.306	131.75
405.515	66.22
405.724	113.32
405.933	94.89
406.142	53.93
406.35	96.94
406.559	141.99
406.768	144.04
406.977	236.2
407.185	164.52
407.394	176.81
407.603	164.52
407.812	166.57
408.02	180.9
408.229	180.9
408.438	168.62
408.646	176.81
408.855	193.19
409.064	242.34
409.272	219.82
409.481	209.58
409.69	303.78
409.898	291.49
410.107	289.45
410.315	211.62
410.524	203.43
410.733	273.06
410.941	221.86
411.15	316.07
411.358	230.06
411.567	348.84
411.775	303.78
411.984	340.65
412.192	365.22
412.401	375.46
412.609	359.08
412.818	469.67
413.026	397.99
413.234	412.32
413.443	389.8
413.651	475.81
413.86	432.8
414.068	524.96
414.276	488.1
414.485	438.95
414.693	557.73
414.901	578.21
415.11	506.53
415.318	539.3
415.526	567.97
415.734	660.13
415.943	588.45
416.151	641.7
416.359	615.07
416.567	692.9
416.776	660.13
416.984	864.93
417.192	748.19
417.4	762.53
417.608	686.75
417.817	752.29
418.025	934.56
418.233	887.45
418.441	907.93
418.649	918.17
418.857	1149.59
419.065	1061.53
419.273	996
419.481	1065.63
419.689	1094.3
419.897	1196.7
420.105	1159.83
420.313	1165.98
420.521	1276.57
420.729	1309.33
420.937	1391.25
421.145	1325.72
421.353	1417.88
421.561	1577.62
421.769	1520.28
421.977	1553.04
422.185	1616.53
422.393	1741.46
422.601	1710.74
422.809	1843.85
423.017	1741.46
423.224	1905.29
423.432	1948.3
423.64	2028.17
423.848	2245.26
424.056	1987.21
424.263	2286.22
424.471	2300.55
424.679	2255.5
424.887	2527.88
425.094	2470.53
425.302	2370.18
425.51	2648.71
425.718	2595.46
425.925	2644.61
426.133	2855.55
426.341	3021.44
426.548	3052.16
426.756	3119.74
426.964	3177.08
427.171	3220.09
427.379	3379.83
427.586	3471.99
427.794	3609.2
428.001	3803.76
428.209	3928.69
428.417	3910.26
428.624	4237.93
428.832	4190.83
429.039	3838.58
429.247	4174.44
429.454	4391.53
429.662	4776.55
429.869	4446.82
430.076	4903.52
430.284	4731.49
430.491	4874.85
430.699	5061.21
430.906	5134.94
431.114	5177.95
431.321	5405.27
431.528	5489.24
431.736	5769.81
431.943	6152.78
432.15	5970.51
432.358	5939.79
432.565	6390.35
432.772	6167.12
432.979	6640.2
433.187	6722.12
433.394	6828.61
433.601	7221.82
433.808	7189.05
434.016	7123.52
434.223	7412.28
434.43	7963.19
434.637	7930.42
434.844	8340.01
435.052	8559.14
435.259	8348.2
435.466	8509.99
435.673	8272.43
435.88	8948.26
436.087	9343.52
436.294	9378.33
436.501	9118.24
436.708	9484.83
436.915	9736.73
437.122	10218
437.329	10228.24
437.537	10396.17
437.743	10564.11
437.95	10500.62
438.157	11147.78
438.364	11268.61
438.571	11344.38
438.778	11588.09
438.985	12495.34
439.192	12112.37
439.399	12546.54
439.606	12048.88
439.813	12902.89
440.02	13740.5
440.227	13212.13
440.433	13390.3
440.64	13529.56
440.847	13760.98
441.054	13973.97
441.261	14827.98
441.467	14676.43
441.674	14862.79
441.881	15573.44
442.088	15352.26
442.294	15276.48
442.501	15593.92
442.708	16077.24
442.914	16816.55
443.121	17367.46
443.328	16816.55
443.534	17944.98
443.741	17584.54
443.948	17125.8
444.154	18643.34
444.361	18583.95
444.568	18614.67
444.774	18504.08
444.981	18868.62
445.187	19267.97
445.394	20087.16
445.6	19976.57
445.807	22061.4
446.013	20746.61
446.22	21254.5
446.426	22188.38
446.633	22468.95
446.839	23329.09
447.046	21985.63
447.252	23417.16
447.459	23595.33
447.665	23484.74
447.871	24265.02
448.078	25229.61
448.284	24168.76
448.491	24869.17
448.697	25772.32
448.903	26214.68
449.11	26597.65
449.316	26159.39
449.522	26405.14
449.728	27363.59
449.935	27339.02
450.141	27625.73
450.347	28211.45
450.553	27392.26
450.76	27783.43
450.966	28666.1
451.172	28336.38
451.378	28735.73
451.584	28170.49
451.791	29171.95
451.997	28879.09
452.203	29518.06
452.409	29749.48
452.615	29626.6
452.821	28508.41
453.027	28180.73
453.233	29612.26
453.44	28473.59
453.646	28616.95
453.852	29116.65
454.058	29237.48
454.264	28500.22
454.47	29360.36
454.676	28610.81
454.882	29698.28
455.088	26925.33
455.294	27646.21
455.5	28006.66
455.705	28061.95
455.911	26931.47
456.117	26626.32
456.323	26487.06
456.529	24850.74
456.735	26024.22
456.941	25272.62
457.147	25190.7
457.352	24355.13
457.558	24086.84
457.764	23755.07
457.97	23298.38
458.176	23173.45
458.381	23165.26
458.587	22278.49
458.793	22016.35
458.999	21166.44
459.204	22571.35
459.41	21731.68
459.616	20455.79
459.821	20523.38
460.027	20705.65
460.233	20103.54
460.438	19067.27
460.644	19028.36
460.85	18233.75
461.055	17996.18
461.261	18203.03
461.466	16470.45
461.672	16384.43
461.878	17267.11
462.083	16218.55
462.289	15880.63
462.494	15790.52
462.7	15126.98
462.905	14881.22
463.111	15143.36
463.316	15313.34
463.522	14946.76
463.727	15038.92
463.932	14873.03
464.138	14764.49
464.343	14731.72
464.549	14338.51
464.754	14608.84
464.959	14672.33
465.165	14537.16
465.37	13900.25
465.575	13652.44
465.781	14090.71
465.986	14019.03
466.191	13744.6
466.397	13433.31
466.602	12691.94
466.807	13009.38
467.012	13238.75
