Data from USB4F104151__181__14-45-07-113.txt Node

Date: Thu Mar 13 14:45:07 EDT 2025
User: louis
Spectrometer: USB4F10415
Trigger mode: 4
Integration Time (sec): 2.000000E-2
Scans to average: 1
Electric dark correction enabled: true
Nonlinearity correction enabled: false
Boxcar width: 0
XAxis mode: Wavelengths
Number of Pixels in Spectrum: 3648
>>>>>Begin Spectral Data<<<<<
178.204	-137.73
178.424	-137.73
178.644	-137.73
178.864	-131.58
179.084	-145.92
179.304	-29.18
179.524	-27.14
179.744	28.16
179.964	67.07
180.184	60.93
180.404	9.73
180.624	32.26
180.844	-20.99
181.064	-41.47
181.283	7.68
181.503	-94.72
181.723	7.68
181.943	-31.23
182.163	48.64
182.383	22.02
182.602	44.54
182.822	89.6
183.042	3.58
183.262	-57.86
183.482	3.58
183.701	-33.28
183.921	44.54
184.141	-18.94
184.361	44.54
184.58	48.64
184.8	-64
185.02	69.12
185.239	40.45
185.459	-12.8
185.679	22.02
185.898	65.02
186.118	11.78
186.338	42.5
186.557	32.26
186.777	15.87
186.997	-0.51
187.216	-0.51
187.436	73.21
187.655	65.02
187.875	-20.99
188.095	-8.7
188.314	42.5
188.534	-16.9
188.753	50.69
188.973	40.45
189.192	40.45
189.412	30.21
189.631	-35.33
189.851	34.3
190.07	44.54
190.29	67.07
190.509	19.97
190.729	9.73
190.948	40.45
191.168	169.47
191.387	42.5
191.607	69.12
191.826	73.21
192.045	-25.09
192.265	34.3
192.484	79.36
192.704	9.73
192.923	7.68
193.142	67.07
193.362	15.87
193.581	-20.99
193.8	7.68
194.02	32.26
194.239	15.87
194.458	-14.85
194.678	54.78
194.897	7.68
195.116	28.16
195.335	24.06
195.555	3.58
195.774	32.26
195.993	60.93
196.212	40.45
196.432	42.5
196.651	40.45
196.87	3.58
197.089	89.6
197.308	130.56
197.528	15.87
197.747	13.82
197.966	28.16
198.185	34.3
198.404	15.87
198.623	60.93
198.842	97.79
199.062	99.84
199.281	81.41
199.5	17.92
199.719	97.79
199.938	28.16
200.157	48.64
200.376	67.07
200.595	28.16
200.814	-2.56
201.033	40.45
201.252	56.83
201.471	-41.47
201.69	24.06
201.909	36.35
202.128	44.54
202.347	9.73
202.566	-100.86
202.785	19.97
203.004	-4.61
203.223	26.11
203.442	-16.9
203.661	15.87
203.879	89.6
204.098	44.54
204.317	28.16
204.536	48.64
204.755	24.06
204.974	-0.51
205.193	32.26
205.411	101.89
205.63	95.74
205.849	22.02
206.068	17.92
206.287	7.68
206.505	75.26
206.724	28.16
206.943	48.64
207.162	-18.94
207.381	1.54
207.599	-14.85
207.818	48.64
208.037	11.78
208.255	-12.8
208.474	50.69
208.693	17.92
208.911	50.69
209.13	-8.7
209.349	24.06
209.567	56.83
209.786	56.83
210.005	-25.09
210.223	89.6
210.442	-78.33
210.661	-8.7
210.879	11.78
211.098	26.11
211.316	112.13
211.535	11.78
211.753	-33.28
211.972	7.68
212.191	40.45
212.409	42.5
212.628	73.21
212.846	-31.23
213.065	-12.8
213.283	69.12
213.502	-53.76
213.72	-33.28
213.938	44.54
214.157	7.68
214.375	56.83
214.594	58.88
214.812	56.83
215.031	-14.85
215.249	-45.57
215.467	-8.7
215.686	85.5
215.904	101.89
216.122	-57.86
216.341	44.54
216.559	11.78
216.778	-14.85
216.996	7.68
217.214	65.02
217.432	5.63
217.651	48.64
217.869	32.26
218.087	32.26
218.306	60.93
218.524	15.87
218.742	44.54
218.96	56.83
219.179	24.06
219.397	-23.04
219.615	71.17
219.833	15.87
220.051	-25.09
220.27	73.21
220.488	9.73
220.706	26.11
220.924	44.54
221.142	-8.7
221.36	30.21
221.578	60.93
221.796	36.35
222.015	-31.23
222.233	28.16
222.451	105.98
222.669	65.02
222.887	75.26
223.105	-43.52
223.323	17.92
223.541	-20.99
223.759	85.5
223.977	-2.56
224.195	73.21
224.413	73.21
224.631	89.6
224.849	7.68
225.067	48.64
225.285	3.58
225.503	-14.85
225.721	-0.51
225.939	11.78
226.157	50.69
226.375	140.8
226.592	-43.52
226.81	-25.09
227.028	15.87
227.246	105.98
227.464	17.92
227.682	-33.28
227.9	112.13
228.117	-23.04
228.335	5.63
228.553	3.58
228.771	54.78
228.989	38.4
229.206	56.83
229.424	-51.71
229.642	7.68
229.86	24.06
230.077	69.12
230.295	48.64
230.513	28.16
230.731	26.11
230.948	38.4
231.166	9.73
231.384	5.63
231.601	30.21
231.819	93.69
232.037	1.54
232.254	5.63
232.472	32.26
232.689	3.58
232.907	11.78
233.125	75.26
233.342	-8.7
233.56	17.92
233.777	56.83
233.995	-49.66
234.213	136.7
234.43	73.21
234.648	-39.42
234.865	-16.9
235.083	32.26
235.3	48.64
235.518	-8.7
235.735	58.88
235.953	44.54
236.17	11.78
236.388	-6.66
236.605	56.83
236.822	34.3
237.04	24.06
237.257	-14.85
237.475	-70.14
237.692	67.07
237.909	40.45
238.127	-53.76
238.344	-23.04
238.562	26.11
238.779	-39.42
238.996	9.73
239.214	46.59
239.431	58.88
239.648	-8.7
239.865	24.06
240.083	-47.62
240.3	11.78
240.517	36.35
240.735	40.45
240.952	58.88
241.169	89.6
241.386	24.06
241.603	65.02
241.821	-39.42
242.038	26.11
242.255	-31.23
242.472	36.35
242.689	110.08
242.907	42.5
243.124	44.54
243.341	1.54
243.558	-16.9
243.775	-23.04
243.992	-41.47
244.209	46.59
244.426	99.84
244.643	58.88
244.86	17.92
245.078	7.68
245.295	56.83
245.512	46.59
245.729	-37.38
245.946	108.03
246.163	81.41
246.38	3.58
246.597	30.21
246.814	-0.51
247.031	140.8
247.248	48.64
247.464	28.16
247.681	48.64
247.898	-20.99
248.115	93.69
248.332	56.83
248.549	81.41
248.766	30.21
248.983	67.07
249.2	7.68
249.417	89.6
249.633	-16.9
249.85	26.11
250.067	-86.53
250.284	7.68
250.501	9.73
250.717	56.83
250.934	15.87
251.151	48.64
251.368	42.5
251.585	30.21
251.801	15.87
252.018	60.93
252.235	97.79
252.451	-74.24
252.668	3.58
252.885	108.03
253.102	122.37
253.318	75.26
253.535	-35.33
253.752	3.58
253.968	-8.7
254.185	40.45
254.401	44.54
254.618	-14.85
254.835	3.58
255.051	99.84
255.268	56.83
255.484	-4.61
255.701	-43.52
255.917	15.87
256.134	3.58
256.351	40.45
256.567	-33.28
256.784	9.73
257	-33.28
257.217	-41.47
257.433	-23.04
257.65	-18.94
257.866	56.83
258.082	3.58
258.299	-16.9
258.515	26.11
258.732	-0.51
258.948	81.41
259.165	-8.7
259.381	-31.23
259.597	42.5
259.814	-14.85
260.03	-8.7
260.246	56.83
260.463	-14.85
260.679	36.35
260.895	-57.86
261.112	99.84
261.328	44.54
261.544	24.06
261.761	34.3
261.977	-37.38
262.193	5.63
262.409	15.87
262.626	56.83
262.842	65.02
263.058	24.06
263.274	112.13
263.49	-41.47
263.707	34.3
263.923	67.07
264.139	48.64
264.355	9.73
264.571	7.68
264.787	1.54
265.004	44.54
265.22	36.35
265.436	50.69
265.652	22.02
265.868	65.02
266.084	56.83
266.3	-14.85
266.516	11.78
266.732	28.16
266.948	40.45
267.164	81.41
267.38	5.63
267.596	56.83
267.812	108.03
268.028	24.06
268.244	7.68
268.46	79.36
268.676	7.68
268.892	-10.75
269.108	7.68
269.324	7.68
269.54	118.27
269.756	97.79
269.972	-16.9
270.188	77.31
270.403	-14.85
270.619	24.06
270.835	73.21
271.051	28.16
271.267	-12.8
271.483	81.41
271.698	-4.61
271.914	81.41
272.13	3.58
272.346	134.65
272.562	-12.8
272.777	48.64
272.993	44.54
273.209	-8.7
273.425	40.45
273.64	11.78
273.856	50.69
274.072	7.68
274.287	7.68
274.503	69.12
274.719	-0.51
274.934	7.68
275.15	-0.51
275.366	24.06
275.581	-0.51
275.797	85.5
276.012	48.64
276.228	44.54
276.444	15.87
276.659	87.55
276.875	-4.61
277.09	11.78
277.306	58.88
277.521	48.64
277.737	-29.18
277.952	56.83
278.168	40.45
278.383	-33.28
278.599	1.54
278.814	17.92
279.03	9.73
279.245	32.26
279.461	40.45
279.676	50.69
279.892	7.68
280.107	28.16
280.322	-41.47
280.538	60.93
280.753	-8.7
280.969	17.92
281.184	32.26
281.399	32.26
281.615	34.3
281.83	81.41
282.045	-4.61
282.26	-25.09
282.476	24.06
282.691	36.35
282.906	-16.9
283.122	110.08
283.337	44.54
283.552	48.64
283.767	-53.76
283.983	130.56
284.198	-23.04
284.413	54.78
284.628	-78.33
284.843	77.31
285.058	67.07
285.274	15.87
285.489	-6.66
285.704	44.54
285.919	48.64
286.134	77.31
286.349	42.5
286.564	17.92
286.779	58.88
286.995	44.54
287.21	-12.8
287.425	26.11
287.64	13.82
287.855	-14.85
288.07	-27.14
288.285	32.26
288.5	67.07
288.715	73.21
288.93	60.93
289.145	15.87
289.36	-2.56
289.575	-4.61
289.79	-12.8
290.004	75.26
290.219	-4.61
290.434	26.11
290.649	67.07
290.864	19.97
291.079	15.87
291.294	85.5
291.509	34.3
291.724	28.16
291.938	28.16
292.153	-18.94
292.368	-6.66
292.583	48.64
292.798	11.78
293.012	65.02
293.227	28.16
293.442	-2.56
293.657	42.5
293.871	60.93
294.086	9.73
294.301	56.83
294.516	36.35
294.73	26.11
294.945	28.16
295.16	91.65
295.374	108.03
295.589	128.51
295.804	-8.7
296.018	15.87
296.233	75.26
296.447	-6.66
296.662	-23.04
296.877	124.41
297.091	28.16
297.306	30.21
297.52	50.69
297.735	-4.61
297.949	-31.23
298.164	50.69
298.378	7.68
298.593	-35.33
298.807	-41.47
299.022	-16.9
299.236	60.93
299.451	-90.62
299.665	1.54
299.88	69.12
300.094	105.98
300.309	30.21
300.523	38.4
300.737	26.11
300.952	81.41
301.166	89.6
301.381	40.45
301.595	-10.75
301.809	-49.66
302.024	1.54
302.238	34.3
302.452	32.26
302.667	118.27
302.881	122.37
303.095	36.35
303.309	15.87
303.524	-23.04
303.738	-33.28
303.952	-57.86
304.166	15.87
304.381	3.58
304.595	99.84
304.809	-64
305.023	-8.7
305.237	48.64
305.452	93.69
305.666	38.4
305.88	11.78
306.094	15.87
306.308	-20.99
306.522	9.73
306.736	93.69
306.95	56.83
307.164	85.5
307.379	-16.9
307.593	50.69
307.807	58.88
308.021	42.5
308.235	26.11
308.449	19.97
308.663	44.54
308.877	52.74
309.091	52.74
309.305	58.88
309.519	-23.04
309.733	75.26
309.947	1.54
310.161	85.5
310.374	58.88
310.588	-0.51
310.802	36.35
311.016	11.78
311.23	48.64
311.444	44.54
311.658	7.68
311.872	36.35
312.085	83.45
312.299	73.21
312.513	-8.7
312.727	105.98
312.941	-53.76
313.154	15.87
313.368	15.87
313.582	-29.18
313.796	28.16
314.009	42.5
314.223	44.54
314.437	9.73
314.651	15.87
314.864	-0.51
315.078	60.93
315.292	9.73
315.505	-25.09
315.719	40.45
315.933	48.64
316.146	26.11
316.36	17.92
316.573	132.61
316.787	-0.51
317.001	34.3
317.214	40.45
317.428	73.21
317.641	7.68
317.855	-16.9
318.068	24.06
318.282	62.98
318.495	42.5
318.709	101.89
318.922	15.87
319.136	138.75
319.349	52.74
319.563	65.02
319.776	65.02
319.99	-41.47
320.203	126.46
320.417	-66.05
320.63	81.41
320.843	50.69
321.057	42.5
321.27	24.06
321.483	-25.09
321.697	48.64
321.91	42.5
322.124	17.92
322.337	17.92
322.55	32.26
322.763	36.35
322.977	46.59
323.19	-8.7
323.403	17.92
323.617	-6.66
323.83	65.02
324.043	-39.42
324.256	65.02
324.469	-14.85
324.683	148.99
324.896	1.54
325.109	15.87
325.322	-25.09
325.535	81.41
325.748	36.35
325.962	-55.81
326.175	11.78
326.388	7.68
326.601	42.5
326.814	26.11
327.027	67.07
327.24	65.02
327.453	15.87
327.666	36.35
327.879	83.45
328.092	73.21
328.305	-12.8
328.518	-0.51
328.731	67.07
328.944	24.06
329.157	38.4
329.37	48.64
329.583	44.54
329.796	7.68
330.009	-31.23
330.222	71.17
330.435	56.83
330.648	32.26
330.861	-47.62
331.073	65.02
331.286	32.26
331.499	77.31
331.712	40.45
331.925	81.41
332.138	-8.7
332.35	108.03
332.563	-33.28
332.776	-14.85
332.989	9.73
333.202	65.02
333.414	15.87
333.627	81.41
333.84	9.73
334.053	81.41
334.265	17.92
334.478	50.69
334.691	32.26
334.903	19.97
335.116	9.73
335.329	58.88
335.541	40.45
335.754	26.11
335.966	-0.51
336.179	-8.7
336.392	1.54
336.604	-18.94
336.817	60.93
337.029	83.45
337.242	24.06
337.454	167.42
337.667	50.69
337.88	56.83
338.092	32.26
338.305	22.02
338.517	32.26
338.729	56.83
338.942	81.41
339.154	-0.51
339.367	28.16
339.579	-29.18
339.792	3.58
340.004	89.6
340.217	97.79
340.429	7.68
340.641	40.45
340.854	60.93
341.066	40.45
341.278	132.61
341.491	48.64
341.703	69.12
341.915	-14.85
342.128	36.35
342.34	-25.09
342.552	15.87
342.764	5.63
342.977	56.83
343.189	77.31
343.401	40.45
343.613	-41.47
343.826	44.54
344.038	24.06
344.25	56.83
344.462	3.58
344.674	40.45
344.886	30.21
345.099	114.17
345.311	165.37
345.523	81.41
345.735	-86.53
345.947	89.6
346.159	44.54
346.371	52.74
346.583	13.82
346.795	124.41
347.007	97.79
347.219	9.73
347.431	65.02
347.643	34.3
347.855	3.58
348.067	36.35
348.279	44.54
348.491	56.83
348.703	73.21
348.915	-6.66
349.127	7.68
349.339	56.83
349.551	3.58
349.763	108.03
349.975	-41.47
350.187	42.5
350.399	44.54
350.61	38.4
350.822	97.79
351.034	60.93
351.246	-23.04
351.458	60.93
351.669	1.54
351.881	58.88
352.093	56.83
352.305	24.06
352.517	73.21
352.728	50.69
352.94	-41.47
353.152	42.5
353.363	79.36
353.575	58.88
353.787	97.79
353.999	46.59
354.21	101.89
354.422	50.69
354.633	34.3
354.845	1.54
355.057	-8.7
355.268	40.45
355.48	97.79
355.692	13.82
355.903	75.26
356.115	-39.42
356.326	7.68
356.538	93.69
356.749	24.06
356.961	95.74
357.172	17.92
357.384	50.69
357.595	38.4
357.807	17.92
358.018	-4.61
358.23	19.97
358.441	56.83
358.653	56.83
358.864	9.73
359.075	48.64
359.287	17.92
359.498	75.26
359.709	32.26
359.921	110.08
360.132	22.02
360.344	50.69
360.555	28.16
360.766	-0.51
360.977	77.31
361.189	118.27
361.4	13.82
361.611	89.6
361.823	97.79
362.034	24.06
362.245	65.02
362.456	85.5
362.667	73.21
362.879	75.26
363.09	97.79
363.301	17.92
363.512	15.87
363.723	-4.61
363.935	60.93
364.146	105.98
364.357	26.11
364.568	24.06
364.779	1.54
364.99	105.98
365.201	48.64
365.412	110.08
365.623	1.54
365.834	24.06
366.045	48.64
366.256	67.07
366.467	24.06
366.678	-14.85
366.889	44.54
367.1	48.64
367.311	73.21
367.522	42.5
367.733	67.07
367.944	44.54
368.155	56.83
368.366	67.07
368.577	17.92
368.788	24.06
368.999	7.68
369.209	110.08
369.42	161.28
369.631	75.26
369.842	40.45
370.053	40.45
370.264	50.69
370.474	28.16
370.685	-8.7
370.896	71.17
371.107	22.02
371.317	-0.51
371.528	46.59
371.739	44.54
371.95	15.87
372.16	120.32
372.371	34.3
372.582	7.68
372.792	40.45
373.003	132.61
373.214	48.64
373.424	67.07
373.635	-14.85
373.846	83.45
374.056	26.11
374.267	75.26
374.477	32.26
374.688	75.26
374.898	50.69
375.109	34.3
375.319	5.63
375.53	91.65
375.74	85.5
375.951	26.11
376.161	114.17
376.372	85.5
376.582	44.54
376.793	32.26
377.003	71.17
377.214	110.08
377.424	73.21
377.635	24.06
377.845	48.64
378.055	126.46
378.266	-41.47
378.476	-33.28
378.686	36.35
378.897	11.78
379.107	-6.66
379.317	52.74
379.528	40.45
379.738	114.17
379.948	83.45
380.158	73.21
380.369	5.63
380.579	24.06
380.789	110.08
380.999	122.37
381.21	62.98
381.42	120.32
381.63	77.31
381.84	91.65
382.05	50.69
382.261	93.69
382.471	52.74
382.681	19.97
382.891	60.93
383.101	36.35
383.311	60.93
383.521	67.07
383.731	101.89
383.941	89.6
384.151	48.64
384.361	42.5
384.571	83.45
384.781	58.88
384.991	38.4
385.201	114.17
385.411	75.26
385.621	-8.7
385.831	5.63
386.041	44.54
386.251	26.11
386.461	69.12
386.671	42.5
386.881	42.5
387.091	-25.09
387.301	128.51
387.511	56.83
387.72	32.26
387.93	56.83
388.14	9.73
388.35	58.88
388.56	128.51
388.769	77.31
388.979	3.58
389.189	19.97
389.399	65.02
389.609	97.79
389.818	101.89
390.028	28.16
390.238	91.65
390.447	24.06
390.657	118.27
390.867	73.21
391.076	-18.94
391.286	87.55
391.496	108.03
391.705	58.88
391.915	32.26
392.125	56.83
392.334	28.16
392.544	134.65
392.753	97.79
392.963	105.98
393.172	91.65
393.382	114.17
393.591	146.94
393.801	79.36
394.01	67.07
394.22	67.07
394.429	116.22
394.639	122.37
394.848	69.12
395.058	69.12
395.267	32.26
395.477	165.37
395.686	105.98
395.895	58.88
396.105	81.41
396.314	73.21
396.524	60.93
396.733	91.65
396.942	77.31
397.152	138.75
397.361	120.32
397.57	91.65
397.78	73.21
397.989	83.45
398.198	179.71
398.407	-6.66
398.617	75.26
398.826	83.45
399.035	85.5
399.244	132.61
399.453	65.02
399.663	142.85
399.872	122.37
400.081	138.75
400.29	126.46
400.499	60.93
400.708	196.09
400.917	7.68
401.127	130.56
401.336	24.06
401.545	253.44
401.754	83.45
401.963	97.79
402.172	136.7
402.381	65.02
402.59	118.27
402.799	171.52
403.008	130.56
403.217	157.18
403.426	116.22
403.635	161.28
403.844	105.98
404.053	128.51
404.262	48.64
404.471	169.47
404.68	124.41
404.888	179.71
405.097	161.28
405.306	165.37
405.515	202.24
405.724	130.56
405.933	138.75
406.142	200.19
406.35	232.96
406.559	232.96
406.768	124.41
406.977	140.8
407.185	239.1
407.394	165.37
407.603	155.13
407.812	214.52
408.02	212.48
408.229	192
408.438	198.14
408.646	204.28
408.855	288.25
409.064	269.82
409.272	327.16
409.481	278.01
409.69	214.52
409.898	335.35
410.107	294.4
410.315	425.47
410.524	318.97
410.733	384.51
410.941	372.22
411.15	368.12
411.358	392.7
411.567	466.42
411.775	437.75
411.984	396.79
412.192	318.97
412.401	474.62
412.609	484.86
412.818	525.82
413.026	566.78
413.234	542.2
413.443	534.01
413.651	529.91
413.86	593.4
414.068	622.07
414.276	638.45
414.485	642.55
414.693	767.48
414.901	769.52
415.11	736.76
415.318	800.24
415.526	691.7
415.734	814.58
415.943	843.25
416.151	888.31
416.359	916.98
416.567	1041.9
416.776	1011.18
416.984	992.75
417.192	1048.05
417.4	1031.66
417.608	976.37
417.817	1121.77
418.025	1170.93
418.233	1263.08
418.441	1162.73
418.649	1224.17
418.857	1367.53
419.065	1383.91
419.273	1291.76
419.481	1342.96
419.689	1539.56
419.897	1523.18
420.105	1545.7
420.313	1551.85
420.521	1727.97
420.729	1754.6
420.937	1715.69
421.145	1828.32
421.353	1828.32
421.561	1990.11
421.769	2035.17
421.977	2102.75
422.185	2180.57
422.393	2287.07
422.601	2325.98
422.809	2412
423.017	2354.65
423.224	2420.19
423.432	2594.26
423.64	2682.33
423.848	2739.67
424.056	2825.68
424.263	3007.95
424.471	2977.23
424.679	3175.89
424.887	3161.55
425.094	3222.99
425.302	3288.53
425.51	3235.28
425.718	3448.27
425.925	3638.73
426.133	3675.59
426.341	3927.49
426.548	4066.75
426.756	4097.47
426.964	4130.24
427.171	4357.57
427.379	4324.8
427.586	4595.13
427.794	4777.4
428.001	4849.08
428.209	5150.13
428.417	4971.96
428.624	5330.35
428.832	5365.17
429.039	5313.97
429.247	5449.13
429.454	5914.02
429.662	6157.73
429.869	5793.19
430.076	6165.92
430.284	6186.4
430.491	6364.57
430.699	6636.95
430.906	6755.74
431.114	6700.44
431.321	6981.01
431.528	7146.9
431.736	7611.79
431.943	7781.77
432.15	7601.55
432.358	7808.39
432.565	8088.96
432.772	8050.05
432.979	8625.53
433.187	8666.49
433.394	8711.55
433.601	9491.82
433.808	9274.74
434.016	9344.37
434.223	9799.02
434.43	10386.79
434.637	10235.24
434.844	10616.16
435.052	10837.34
435.259	10771.8
435.466	10931.55
435.673	10837.34
435.88	11535.7
436.087	11910.47
436.294	12182.85
436.501	11771.21
436.708	12242.25
436.915	12617.02
437.122	13188.41
437.329	13147.45
437.537	13571.38
437.743	13708.59
437.95	13806.89
438.157	14071.08
438.364	14759.2
438.571	14675.23
438.778	14953.76
438.985	16282.89
439.192	15648.02
439.399	15918.35
439.606	15621.39
439.813	16510.21
440.02	17693.94
440.227	17235.19
440.433	17394.93
440.64	17663.22
440.847	17775.86
441.054	18070.76
441.261	19117.28
441.467	18853.09
441.674	19033.31
441.881	20131.02
442.088	19887.31
442.294	19713.24
442.501	20475.08
442.708	20411.59
442.914	21449.91
443.121	22273.2
443.328	21824.69
443.534	23432.35
443.741	22600.87
443.948	22451.37
444.154	23850.13
444.361	24032.4
444.568	24009.87
444.774	24028.31
444.981	24398.99
445.187	24978.56
445.394	26109.04
445.6	25771.13
445.807	28374.1
446.013	27094.11
446.22	27333.73
446.426	28404.81
446.633	28544.08
446.839	30280.75
447.046	28337.23
447.252	30434.35
447.459	30297.14
447.665	30223.41
447.871	31452.19
448.078	32877.58
448.284	31110.18
448.491	32168.98
448.697	33491.97
448.903	34079.74
449.11	34657.26
449.316	33872.89
449.522	34300.92
449.728	34950.12
449.935	35410.92
450.141	35361.76
450.347	36099.03
450.553	35228.65
450.76	35535.84
450.966	36979.66
451.172	36166.62
451.378	37366.73
451.584	36377.56
451.791	37307.33
451.997	37469.12
452.203	38132.67
452.409	38038.46
452.615	38103.99
452.821	36588.5
453.027	36103.13
453.233	38228.92
453.44	36645.84
453.646	37219.27
453.852	37336.01
454.058	37866.43
454.264	36682.7
454.47	37882.81
454.676	36703.18
454.882	38245.3
455.088	34626.54
455.294	35099.62
455.5	35961.82
455.705	36324.31
455.911	34497.52
456.117	34610.16
456.323	33676.29
456.529	32089.11
456.735	33412.1
456.941	32418.83
457.147	32367.63
457.352	31214.63
457.558	31257.64
457.764	31005.73
457.97	30434.35
458.176	29996.09
458.381	29744.19
458.587	28259.41
458.793	28257.36
458.999	27155.55
459.204	28935.24
459.41	27921.49
459.616	26104.95
459.821	26506.35
460.027	25996.4
460.233	25316.48
460.438	24116.37
460.644	24964.23
460.85	23444.63
461.055	23215.26
461.261	23397.53
461.466	21484.73
461.672	21101.76
461.878	22281.39
462.083	20823.23
462.289	20335.82
462.494	19975.38
462.7	19377.37
462.905	18697.44
463.111	19725.52
463.316	19631.32
463.522	19082.46
463.727	18844.9
463.932	19016.93
464.138	18892
464.343	18701.54
464.549	18425.06
464.754	19254.49
464.959	18941.15
465.165	18488.55
465.37	18177.26
465.575	17491.19
465.781	18189.55
465.986	18324.71
466.191	17470.71
466.397	17130.75
466.602	16268.55
466.807	17024.25
467.012	17097.98
467.218	16850.17
467.423	16499.97
467.628	16860.41
467.833	17577.2
