Data from USB4F104151__99__14-43-40-233.txt Node

Date: Thu Mar 13 14:43:40 EDT 2025
User: louis
Spectrometer: USB4F10415
Trigger mode: 4
Integration Time (sec): 2.000000E-2
Scans to average: 1
Electric dark correction enabled: true
Nonlinearity correction enabled: false
Boxcar width: 0
XAxis mode: Wavelengths
Number of Pixels in Spectrum: 3648
>>>>>Begin Spectral Data<<<<<
178.204	-136.87
178.424	-136.87
178.644	-136.87
178.864	-161.45
179.084	-95.91
179.304	-18.09
179.524	-13.99
179.744	-28.33
179.964	-5.8
180.184	59.73
180.404	-5.8
180.624	12.63
180.844	35.16
181.064	-42.67
181.283	29.01
181.503	-32.43
181.723	10.58
181.943	-30.38
182.163	59.73
182.383	-26.28
182.602	37.2
182.822	74.07
183.042	112.98
183.262	-26.28
183.482	-30.38
183.701	2.39
183.921	-5.8
184.141	49.49
184.361	35.16
184.58	-5.8
184.8	72.02
185.02	-32.43
185.239	43.35
185.459	47.44
185.679	35.16
185.898	-75.43
186.118	59.73
186.338	-22.19
186.557	20.82
186.777	55.64
186.997	4.44
187.216	29.01
187.436	72.02
187.655	31.06
187.875	20.82
188.095	49.49
188.314	14.68
188.534	98.64
188.753	59.73
188.973	-3.75
189.192	10.58
189.412	22.87
189.631	112.98
189.851	-30.38
190.07	31.06
190.29	-36.52
190.509	-77.48
190.729	33.11
190.948	104.79
191.168	166.23
191.387	-7.85
191.607	35.16
191.826	47.44
192.045	2.39
192.265	0.34
192.484	-11.95
192.704	67.92
192.923	-28.33
193.142	51.54
193.362	51.54
193.581	92.5
193.8	14.68
194.02	69.97
194.239	-71.34
194.458	59.73
194.678	-5.8
194.897	35.16
195.116	10.58
195.335	-16.04
195.555	0.34
195.774	33.11
195.993	59.73
196.212	63.83
196.432	-13.99
196.651	2.39
196.87	55.64
197.089	84.31
197.308	43.35
197.528	37.2
197.747	26.96
197.966	31.06
198.185	86.36
198.404	31.06
198.623	88.4
198.842	51.54
199.062	67.92
199.281	76.12
199.5	106.84
199.719	4.44
199.938	129.36
200.157	37.2
200.376	16.73
200.595	100.69
200.814	4.44
201.033	2.39
201.252	18.77
201.471	47.44
201.69	12.63
201.909	92.5
202.128	-3.75
202.347	80.21
202.566	18.77
202.785	-22.19
203.004	-20.14
203.223	61.78
203.442	49.49
203.661	-34.47
203.879	51.54
204.098	47.44
204.317	26.96
204.536	63.83
204.755	26.96
204.974	10.58
205.193	-26.28
205.411	59.73
205.63	69.97
205.849	47.44
206.068	-28.33
206.287	-5.8
206.505	51.54
206.724	57.68
206.943	20.82
207.162	18.77
207.381	31.06
207.599	4.44
207.818	41.3
208.037	18.77
208.255	67.92
208.474	67.92
208.693	45.4
208.911	43.35
209.13	10.58
209.349	26.96
209.567	26.96
209.786	106.84
210.005	29.01
210.223	22.87
210.442	24.92
210.661	-22.19
210.879	72.02
211.098	-7.85
211.316	18.77
211.535	69.97
211.753	10.58
211.972	-26.28
212.191	-18.09
212.409	43.35
212.628	12.63
212.846	-18.09
213.065	51.54
213.283	82.26
213.502	45.4
213.72	69.97
213.938	92.5
214.157	-42.67
214.375	18.77
214.594	-67.24
214.812	45.4
215.031	-9.9
215.249	-42.67
215.467	22.87
215.686	18.77
215.904	88.4
216.122	-16.04
216.341	57.68
216.559	26.96
216.778	84.31
216.996	18.77
217.214	45.4
217.432	55.64
217.651	31.06
217.869	10.58
218.087	6.49
218.306	31.06
218.524	67.92
218.742	-77.48
218.96	4.44
219.179	-22.19
219.397	6.49
219.615	20.82
219.833	76.12
220.051	-3.75
220.27	37.2
220.488	41.3
220.706	67.92
220.924	-26.28
221.142	29.01
221.36	35.16
221.578	47.44
221.796	-38.57
222.015	0.34
222.233	22.87
222.451	94.55
222.669	-50.86
222.887	59.73
223.105	20.82
223.323	-13.99
223.541	33.11
223.759	51.54
223.977	-46.76
224.195	86.36
224.413	-18.09
224.631	-13.99
224.849	-20.14
225.067	96.6
225.285	37.2
225.503	-5.8
225.721	-28.33
225.939	35.16
226.157	121.17
226.375	96.6
226.592	-54.95
226.81	47.44
227.028	43.35
227.246	67.92
227.464	-38.57
227.682	33.11
227.9	63.83
228.117	80.21
228.335	6.49
228.553	12.63
228.771	20.82
228.989	45.4
229.206	-16.04
229.424	2.39
229.642	63.83
229.86	20.82
230.077	63.83
230.295	-28.33
230.513	-18.09
230.731	108.88
230.948	65.88
231.166	53.59
231.384	80.21
231.601	6.49
231.819	12.63
232.037	35.16
232.254	-1.71
232.472	86.36
232.689	24.92
232.907	-1.71
233.125	26.96
233.342	-50.86
233.56	57.68
233.777	-22.19
233.995	49.49
234.213	61.78
234.43	67.92
234.648	20.82
234.865	-30.38
235.083	102.74
235.3	39.25
235.518	-3.75
235.735	94.55
235.953	98.64
236.17	18.77
236.388	-24.23
236.605	45.4
236.822	94.55
237.04	29.01
237.257	63.83
237.475	-22.19
237.692	86.36
237.909	29.01
238.127	-20.14
238.344	63.83
238.562	47.44
238.779	86.36
238.996	69.97
239.214	-13.99
239.431	53.59
239.648	-22.19
239.865	0.34
240.083	47.44
240.3	45.4
240.517	57.68
240.735	26.96
240.952	31.06
241.169	-30.38
241.386	35.16
241.603	10.58
241.821	35.16
242.038	39.25
242.255	14.68
242.472	-9.9
242.689	-5.8
242.907	-5.8
243.124	-20.14
243.341	88.4
243.558	2.39
243.775	35.16
243.992	-3.75
244.209	65.88
244.426	47.44
244.643	47.44
244.86	-20.14
245.078	-38.57
245.295	-3.75
245.512	41.3
245.729	-24.23
245.946	8.53
246.163	-13.99
246.38	-1.71
246.597	51.54
246.814	-11.95
247.031	-63.15
247.248	-5.8
247.464	96.6
247.681	-38.57
247.898	31.06
248.115	22.87
248.332	39.25
248.549	110.93
248.766	129.36
248.983	65.88
249.2	63.83
249.417	84.31
249.633	51.54
249.85	-13.99
250.067	22.87
250.284	29.01
250.501	76.12
250.717	110.93
250.934	-5.8
251.151	35.16
251.368	26.96
251.585	45.4
251.801	10.58
252.018	26.96
252.235	51.54
252.451	53.59
252.668	-22.19
252.885	55.64
253.102	18.77
253.318	-22.19
253.535	43.35
253.752	2.39
253.968	14.68
254.185	-79.53
254.401	35.16
254.618	14.68
254.835	-3.75
255.051	100.69
255.268	-48.81
255.484	92.5
255.701	31.06
255.917	61.78
256.134	-65.19
256.351	6.49
256.567	26.96
256.784	-50.86
257	-69.29
257.217	18.77
257.433	35.16
257.65	43.35
257.866	115.03
258.082	2.39
258.299	37.2
258.515	74.07
258.732	65.88
258.948	0.34
259.165	94.55
259.381	80.21
259.597	84.31
259.814	6.49
260.03	39.25
260.246	47.44
260.463	41.3
260.679	74.07
260.895	-5.8
261.112	37.2
261.328	10.58
261.544	37.2
261.761	51.54
261.977	84.31
262.193	-22.19
262.409	45.4
262.626	-9.9
262.842	4.44
263.058	51.54
263.274	10.58
263.49	92.5
263.707	51.54
263.923	102.74
264.139	22.87
264.355	2.39
264.571	84.31
264.787	53.59
265.004	59.73
265.22	10.58
265.436	47.44
265.652	-7.85
265.868	22.87
266.084	24.92
266.3	39.25
266.516	0.34
266.732	12.63
266.948	108.88
267.164	29.01
267.38	72.02
267.596	63.83
267.812	22.87
268.028	108.88
268.244	80.21
268.46	37.2
268.676	-81.58
268.892	96.6
269.108	-38.57
269.324	-63.15
269.54	4.44
269.756	84.31
269.972	-30.38
270.188	51.54
270.403	-34.47
270.619	-13.99
270.835	2.39
271.051	6.49
271.267	53.59
271.483	6.49
271.698	86.36
271.914	-20.14
272.13	39.25
272.346	92.5
272.562	-5.8
272.777	59.73
272.993	59.73
273.209	-32.43
273.425	4.44
273.64	20.82
273.856	43.35
274.072	59.73
274.287	8.53
274.503	-1.71
274.719	33.11
274.934	-5.8
275.15	-3.75
275.366	69.97
275.581	-5.8
275.797	2.39
276.012	49.49
276.228	-5.8
276.444	-20.14
276.659	-1.71
276.875	2.39
277.09	-28.33
277.306	67.92
277.521	18.77
277.737	69.97
277.952	55.64
278.168	102.74
278.383	59.73
278.599	55.64
278.814	18.77
279.03	4.44
279.245	67.92
279.461	57.68
279.676	-5.8
279.892	-5.8
280.107	29.01
280.322	-5.8
280.538	35.16
280.753	6.49
280.969	112.98
281.184	-13.99
281.399	-1.71
281.615	-28.33
281.83	-3.75
282.045	-36.52
282.26	33.11
282.476	-44.71
282.691	84.31
282.906	-13.99
283.122	4.44
283.337	4.44
283.552	43.35
283.767	37.2
283.983	43.35
284.198	-9.9
284.413	12.63
284.628	-52.91
284.843	59.73
285.058	74.07
285.274	10.58
285.489	-11.95
285.704	26.96
285.919	-46.76
286.134	47.44
286.349	-36.52
286.564	37.2
286.779	76.12
286.995	69.97
287.21	-52.91
287.425	119.12
287.64	63.83
287.855	-22.19
288.07	12.63
288.285	72.02
288.5	51.54
288.715	65.88
288.93	57.68
289.145	37.2
289.36	53.59
289.575	72.02
289.79	86.36
290.004	51.54
290.219	0.34
290.434	39.25
290.649	10.58
290.864	35.16
291.079	67.92
291.294	86.36
291.509	119.12
291.724	45.4
291.938	59.73
292.153	47.44
292.368	2.39
292.583	20.82
292.798	129.36
293.012	0.34
293.227	106.84
293.442	43.35
293.657	162.13
293.871	80.21
294.086	35.16
294.301	-9.9
294.516	41.3
294.73	37.2
294.945	-81.58
295.16	43.35
295.374	20.82
295.589	67.92
295.804	-5.8
296.018	51.54
296.233	76.12
296.447	18.77
296.662	10.58
296.877	76.12
297.091	35.16
297.306	-28.33
297.52	102.74
297.735	82.26
297.949	-20.14
298.164	14.68
298.378	14.68
298.593	55.64
298.807	-26.28
299.022	84.31
299.236	88.4
299.451	43.35
299.665	51.54
299.88	26.96
300.094	12.63
300.309	59.73
300.523	-28.33
300.737	-38.57
300.952	94.55
301.166	37.2
301.381	-38.57
301.595	10.58
301.809	53.59
302.024	10.58
302.238	24.92
302.452	55.64
302.667	-54.95
302.881	61.78
303.095	104.79
303.309	78.16
303.524	59.73
303.738	12.63
303.952	20.82
304.166	84.31
304.381	-5.8
304.595	127.32
304.809	37.2
305.023	16.73
305.237	92.5
305.452	18.77
305.666	39.25
305.88	67.92
306.094	76.12
306.308	61.78
306.522	43.35
306.736	14.68
306.95	76.12
307.164	43.35
307.379	29.01
307.593	59.73
307.807	49.49
308.021	100.69
308.235	37.2
308.449	10.58
308.663	-13.99
308.877	119.12
309.091	100.69
309.305	45.4
309.519	-18.09
309.733	51.54
309.947	-11.95
310.161	-24.23
310.374	43.35
310.588	84.31
310.802	10.58
311.016	43.35
311.23	47.44
311.444	67.92
311.658	18.77
311.872	63.83
312.085	51.54
312.299	-28.33
312.513	43.35
312.727	45.4
312.941	-30.38
313.154	31.06
313.368	86.36
313.582	29.01
313.796	6.49
314.009	-50.86
314.223	55.64
314.437	55.64
314.651	24.92
314.864	-11.95
315.078	-28.33
315.292	10.58
315.505	-20.14
315.719	47.44
315.933	78.16
316.146	-38.57
316.36	29.01
316.573	26.96
316.787	55.64
317.001	80.21
317.214	49.49
317.428	24.92
317.641	78.16
317.855	-30.38
318.068	53.59
318.282	45.4
318.495	121.17
318.709	53.59
318.922	14.68
319.136	67.92
319.349	57.68
319.563	4.44
319.776	29.01
319.99	0.34
320.203	76.12
320.417	26.96
320.63	72.02
320.843	43.35
321.057	59.73
321.27	59.73
321.483	86.36
321.697	-11.95
321.91	84.31
322.124	10.58
322.337	-24.23
322.55	20.82
322.763	29.01
322.977	-9.9
323.19	69.97
323.403	35.16
323.617	108.88
323.83	86.36
324.043	35.16
324.256	35.16
324.469	-38.57
324.683	39.25
324.896	-9.9
325.109	96.6
325.322	12.63
325.535	84.31
325.748	20.82
325.962	69.97
326.175	67.92
326.388	-36.52
326.601	133.46
326.814	-11.95
327.027	18.77
327.24	76.12
327.453	-26.28
327.666	176.47
327.879	90.45
328.092	74.07
328.305	14.68
328.518	53.59
328.731	65.88
328.944	100.69
329.157	-67.24
329.37	47.44
329.583	55.64
329.796	112.98
330.009	82.26
330.222	76.12
330.435	133.46
330.648	86.36
330.861	12.63
331.073	51.54
331.286	-11.95
331.499	26.96
331.712	78.16
331.925	45.4
332.138	86.36
332.35	76.12
332.563	-1.71
332.776	53.59
332.989	2.39
333.202	33.11
333.414	43.35
333.627	39.25
333.84	49.49
334.053	18.77
334.265	29.01
334.478	63.83
334.691	94.55
334.903	100.69
335.116	-28.33
335.329	-11.95
335.541	84.31
335.754	43.35
335.966	16.73
336.179	108.88
336.392	43.35
336.604	-5.8
336.817	82.26
337.029	100.69
337.242	10.58
337.454	59.73
337.667	31.06
337.88	31.06
338.092	133.46
338.305	67.92
338.517	37.2
338.729	26.96
338.942	-5.8
339.154	108.88
339.367	20.82
339.579	168.27
339.792	43.35
340.004	51.54
340.217	55.64
340.429	10.58
340.641	4.44
340.854	43.35
341.066	20.82
341.278	92.5
341.491	26.96
341.703	94.55
341.915	26.96
342.128	86.36
342.34	53.59
342.552	-34.47
342.764	-54.95
342.977	43.35
343.189	49.49
343.401	51.54
343.613	-54.95
343.826	16.73
344.038	-46.76
344.25	67.92
344.462	6.49
344.674	41.3
344.886	72.02
345.099	63.83
345.311	31.06
345.523	-13.99
345.735	55.64
345.947	84.31
346.159	26.96
346.371	31.06
346.583	20.82
346.795	117.08
347.007	43.35
347.219	53.59
347.431	-7.85
347.643	92.5
347.855	-22.19
348.067	108.88
348.279	-5.8
348.491	47.44
348.703	-54.95
348.915	-22.19
349.127	-9.9
349.339	51.54
349.551	119.12
349.763	108.88
349.975	-38.57
350.187	8.53
350.399	29.01
350.61	76.12
350.822	10.58
351.034	-16.04
351.246	4.44
351.458	18.77
351.669	104.79
351.881	-20.14
352.093	55.64
352.305	96.6
352.517	-7.85
352.728	67.92
352.94	76.12
353.152	18.77
353.363	61.78
353.575	84.31
353.787	43.35
353.999	53.59
354.21	125.27
354.422	-87.72
354.633	-42.67
354.845	59.73
355.057	-38.57
355.268	82.26
355.48	125.27
355.692	-5.8
355.903	26.96
356.115	39.25
356.326	-46.76
356.538	61.78
356.749	45.4
356.961	141.65
357.172	67.92
357.384	12.63
357.595	88.4
357.807	29.01
358.018	10.58
358.23	100.69
358.441	67.92
358.653	35.16
358.864	67.92
359.075	-1.71
359.287	20.82
359.498	43.35
359.709	22.87
359.921	10.58
360.132	29.01
360.344	53.59
360.555	-30.38
360.766	59.73
360.977	-5.8
361.189	22.87
361.4	-26.28
361.611	67.92
361.823	108.88
362.034	35.16
362.245	-22.19
362.456	8.53
362.667	67.92
362.879	61.78
363.09	76.12
363.301	-3.75
363.512	67.92
363.723	20.82
363.935	57.68
364.146	-11.95
364.357	35.16
364.568	59.73
364.779	-5.8
364.99	125.27
365.201	86.36
365.412	78.16
365.623	37.2
365.834	20.82
366.045	-38.57
366.256	37.2
366.467	86.36
366.678	86.36
366.889	51.54
367.1	-5.8
367.311	96.6
367.522	24.92
367.733	84.31
367.944	63.83
368.155	31.06
368.366	94.55
368.577	31.06
368.788	72.02
368.999	4.44
369.209	4.44
369.42	112.98
369.631	100.69
369.842	31.06
370.053	18.77
370.264	24.92
370.474	0.34
370.685	35.16
370.896	80.21
371.107	80.21
371.317	-5.8
371.528	10.58
371.739	84.31
371.95	33.11
372.16	14.68
372.371	18.77
372.582	18.77
372.792	31.06
373.003	65.88
373.214	26.96
373.424	10.58
373.635	-5.8
373.846	4.44
374.056	47.44
374.267	72.02
374.477	-18.09
374.688	14.68
374.898	76.12
375.109	43.35
375.319	43.35
375.53	59.73
375.74	67.92
375.951	35.16
376.161	-44.71
376.372	43.35
376.582	-18.09
376.793	47.44
377.003	10.58
377.214	-36.52
377.424	51.54
377.635	53.59
377.845	29.01
378.055	129.36
378.266	24.92
378.476	4.44
378.686	96.6
378.897	80.21
379.107	63.83
379.317	-13.99
379.528	51.54
379.738	8.53
379.948	51.54
380.158	18.77
380.369	117.08
380.579	84.31
380.789	55.64
380.999	59.73
381.21	112.98
381.42	78.16
381.63	-20.14
381.84	4.44
382.05	47.44
382.261	141.65
382.471	37.2
382.681	92.5
382.891	84.31
383.101	63.83
383.311	45.4
383.521	4.44
383.731	76.12
383.941	20.82
384.151	-71.34
384.361	53.59
384.571	10.58
384.781	22.87
384.991	45.4
385.201	84.31
385.411	51.54
385.621	78.16
385.831	14.68
386.041	84.31
386.251	37.2
386.461	55.64
386.671	10.58
386.881	94.55
387.091	35.16
387.301	65.88
387.511	51.54
387.72	164.18
387.93	51.54
388.14	0.34
388.35	47.44
388.56	59.73
388.769	82.26
388.979	51.54
389.189	22.87
389.399	47.44
389.609	-5.8
389.818	92.5
390.028	47.44
390.238	20.82
390.447	20.82
390.657	63.83
390.867	31.06
391.076	-54.95
391.286	53.59
391.496	18.77
391.705	-7.85
391.915	158.03
392.125	51.54
392.334	80.21
392.544	74.07
392.753	20.82
392.963	53.59
393.172	43.35
393.382	2.39
393.591	92.5
393.801	59.73
394.01	31.06
394.22	78.16
394.429	78.16
394.639	49.49
394.848	10.58
395.058	80.21
395.267	43.35
395.477	53.59
395.686	94.55
395.895	135.51
396.105	69.97
396.314	6.49
396.524	108.88
396.733	80.21
396.942	145.75
397.152	166.23
397.361	198.99
397.57	0.34
397.78	67.92
397.989	119.12
398.198	119.12
398.407	143.7
398.617	98.64
398.826	100.69
399.035	59.73
399.244	129.36
399.453	119.12
399.663	119.12
399.872	69.97
400.081	84.31
400.29	133.46
400.499	143.7
400.708	74.07
400.917	82.26
401.127	59.73
401.336	119.12
401.545	168.27
401.754	59.73
401.963	182.61
402.172	55.64
402.381	141.65
402.59	117.08
402.799	45.4
403.008	127.32
403.217	117.08
403.426	117.08
403.635	100.69
403.844	106.84
404.053	104.79
404.262	31.06
404.471	166.23
404.68	162.13
404.888	166.23
405.097	82.26
405.306	92.5
405.515	190.8
405.724	133.46
405.933	158.03
406.142	184.66
406.35	100.69
406.559	198.99
406.768	219.47
406.977	190.8
407.185	198.99
407.394	182.61
407.603	72.02
407.812	178.51
408.02	244.05
408.229	133.46
408.438	186.71
408.646	145.75
408.855	207.19
409.064	235.86
409.272	221.52
409.481	166.23
409.69	178.51
409.898	190.8
410.107	260.43
410.315	340.3
410.524	252.24
410.733	338.26
410.941	248.15
411.15	334.16
411.358	293.2
411.567	371.02
411.775	379.22
411.984	297.3
412.192	321.87
412.401	362.83
412.609	420.17
412.818	407.89
413.026	493.9
413.234	391.5
413.443	405.84
413.651	465.23
413.86	502.09
414.068	444.75
414.276	457.04
414.485	471.37
414.693	577.87
414.901	627.02
415.11	567.63
415.318	649.55
415.526	581.96
415.734	559.44
415.943	620.88
416.151	727.37
416.359	672.08
416.567	706.89
416.776	649.55
416.984	758.09
417.192	774.47
417.4	790.86
417.608	858.44
417.817	833.86
418.025	864.58
418.233	950.6
418.441	911.69
418.649	1034.57
418.857	1063.24
419.065	1120.58
419.273	1081.67
419.481	1063.24
419.689	1177.92
419.897	1165.64
420.105	1265.99
420.313	1313.09
420.521	1386.82
420.729	1378.62
420.937	1347.9
421.145	1491.26
421.353	1476.93
421.561	1542.46
421.769	1595.71
421.977	1716.54
422.185	1620.28
422.393	1794.36
422.601	1816.89
422.809	1788.22
423.017	1898.81
423.224	2013.49
423.432	2068.79
423.64	2144.56
423.848	2281.78
424.056	2189.62
424.263	2283.83
424.471	2281.78
424.679	2279.73
424.887	2470.19
425.094	2570.54
425.302	2548.01
425.51	2648.36
425.718	2715.95
425.925	2775.34
426.133	2830.63
426.341	3029.29
426.548	3098.92
426.756	3096.87
426.964	3299.62
427.171	3238.18
427.379	3434.78
427.586	3463.46
427.794	3627.29
428.001	3799.32
428.209	3934.49
428.417	3928.35
428.624	4192.53
428.832	4200.73
429.039	4122.9
429.247	4159.77
429.454	4573.46
429.662	4667.66
429.869	4585.74
430.076	4983.05
430.284	4673.81
430.491	4899.08
430.699	5255.43
430.906	5204.23
431.114	5230.85
431.321	5595.39
431.528	5595.39
431.736	5912.83
431.943	6131.96
432.15	5998.84
432.358	6138.1
432.565	6482.16
432.772	6334.71
432.979	6729.97
433.187	6818.03
433.394	6942.96
433.601	7461.09
433.808	7409.89
434.016	7301.35
434.223	7600.35
434.43	8073.43
434.637	7809.25
434.844	8450.26
435.052	8720.59
435.259	8321.24
435.466	8681.68
435.673	8437.97
435.88	9119.95
436.087	9414.85
436.294	9484.48
436.501	9251.02
436.708	9418.95
436.915	9818.3
437.122	10100.92
437.329	10119.35
437.537	10657.97
437.743	10672.31
437.95	10483.89
438.157	10862.77
438.364	11634.85
438.571	11333.8
438.778	11847.84
438.985	12683.41
439.192	12261.53
439.399	12662.93
439.606	12245.15
439.813	12691.6
440.02	13510.79
440.227	13451.4
440.433	13291.66
440.64	13748.36
440.847	13533.32
441.054	13930.62
441.261	15087.73
441.467	14594.17
441.674	15089.78
441.881	15544.42
442.088	15239.28
442.294	15315.05
442.501	15800.42
442.708	16320.6
442.914	16896.08
443.121	17238.09
443.328	16955.47
443.534	17952.84
443.741	17625.16
443.948	17393.74
444.154	18640.95
444.361	18559.03
444.568	18556.99
444.774	18487.36
444.981	18694.2
445.187	19236.91
445.394	20359.2
445.6	20039.72
445.807	21964.81
446.013	20883.48
446.22	21311.5
446.426	22177.79
446.633	22484.99
446.839	22956.02
447.046	22046.72
447.252	23537.65
447.459	23609.33
447.665	23807.98
447.871	24211.43
448.078	25429.97
448.284	24154.08
448.491	24698.84
448.697	26124.23
448.903	26597.31
449.11	26621.89
449.316	26187.72
449.522	26437.57
449.728	27269.05
449.935	27670.45
450.141	27133.88
450.347	28288.93
450.553	27295.67
450.76	27766.7
450.966	28825.5
451.172	28356.52
451.378	28727.2
451.584	28399.52
451.791	29312.92
451.997	29165.46
452.203	29314.97
452.409	29390.74
452.615	29675.41
452.821	28112.81
453.027	28137.38
453.233	29699.98
453.44	28405.67
453.646	28671.9
453.852	29079.45
454.058	29472.66
454.264	28551.07
454.47	29179.8
454.676	28549.03
454.882	29478.8
455.088	27035.58
455.294	27578.29
455.5	27805.61
455.705	28143.53
455.911	26808.25
456.117	26941.37
456.323	26036.17
456.529	25001.94
456.735	25903.05
456.941	25409.49
457.147	24909.79
457.352	24412.13
457.558	24059.88
457.764	23988.2
457.97	23590.89
458.176	22968.31
458.381	23130.1
458.587	22149.12
458.793	21989.38
458.999	20949.01
459.204	22480.89
459.41	21870.6
459.616	20615.19
459.821	20193.31
460.027	20156.45
460.233	19916.84
460.438	19009.59
460.644	19255.34
460.85	18141.25
461.055	17782.85
461.261	17692.74
461.466	16691.29
461.672	16181.34
461.878	17379.4
462.083	16265.31
462.289	15771.75
462.494	15612.01
462.7	15083.63
462.905	14592.12
463.111	15034.48
463.316	15224.94
463.522	14911.6
463.727	14846.07
463.932	14913.65
464.138	14805.11
464.343	14553.21
464.549	14239.87
464.754	14786.68
464.959	14485.62
465.165	14375.03
465.37	13936.77
465.575	13363.34
465.781	13799.55
465.986	13877.38
466.191	13559.94
466.397	13238.41
466.602	12548.25
466.807	13148.3
467.012	12939.41
467.218	12980.37
467.423	12855.44
