Data from USB4F104151__239__14-45-45-244.txt Node

Date: Thu Mar 13 14:45:45 EDT 2025
User: louis
Spectrometer: USB4F10415
Trigger mode: 4
Integration Time (sec): 2.000000E-2
Scans to average: 1
Electric dark correction enabled: true
Nonlinearity correction enabled: false
Boxcar width: 0
XAxis mode: Wavelengths
Number of Pixels in Spectrum: 3648
>>>>>Begin Spectral Data<<<<<
178.204	-151.38
178.424	-151.38
178.644	-151.38
178.864	-73.56
179.084	-126.8
179.304	4.27
179.524	-48.98
179.744	12.46
179.964	16.55
180.184	-14.17
180.404	-32.6
180.624	34.99
180.844	61.61
181.064	-73.56
181.283	-20.31
181.503	0.17
181.723	59.56
181.943	-38.74
182.163	24.75
182.383	-12.12
182.602	37.03
182.822	-8.02
183.042	-30.55
183.262	-30.55
183.482	0.17
183.701	-32.6
183.921	12.46
184.141	-40.79
184.361	16.55
184.58	26.79
184.8	28.84
185.02	-16.21
185.239	24.75
185.459	-69.46
185.679	45.23
185.898	0.17
186.118	110.76
186.338	55.47
186.557	0.17
186.777	-22.36
186.997	-34.64
187.216	-12.12
187.436	-30.55
187.655	43.18
187.875	37.03
188.095	30.89
188.314	8.36
188.534	67.75
188.753	-69.46
188.973	-22.36
189.192	75.95
189.412	45.23
189.631	32.94
189.851	57.51
190.07	123.05
190.29	18.6
190.509	41.13
190.729	-3.93
190.948	114.86
191.168	133.29
191.387	61.61
191.607	53.42
191.826	18.6
192.045	20.65
192.265	118.95
192.484	6.31
192.704	-8.02
192.923	-20.31
193.142	125.1
193.362	2.22
193.581	10.41
193.8	41.13
194.02	4.27
194.239	-3.93
194.458	20.65
194.678	57.51
194.897	2.22
195.116	-38.74
195.335	-32.6
195.555	2.22
195.774	2.22
195.993	-36.69
196.212	-104.28
196.432	-79.7
196.651	-36.69
196.87	24.75
197.089	49.32
197.308	53.42
197.528	-16.21
197.747	-16.21
197.966	0.17
198.185	6.31
198.404	4.27
198.623	67.75
198.842	10.41
199.062	2.22
199.281	94.38
199.5	16.55
199.719	73.9
199.938	49.32
200.157	57.51
200.376	77.99
200.595	57.51
200.814	20.65
201.033	18.6
201.252	18.6
201.471	32.94
201.69	32.94
201.909	24.75
202.128	26.79
202.347	24.75
202.566	-44.88
202.785	-8.02
203.004	-28.5
203.223	75.95
203.442	-26.45
203.661	-8.02
203.879	51.37
204.098	18.6
204.317	-42.84
204.536	98.47
204.755	84.14
204.974	-5.97
205.193	8.36
205.411	16.55
205.63	73.9
205.849	14.51
206.068	24.75
206.287	51.37
206.505	129.19
206.724	-8.02
206.943	-42.84
207.162	-20.31
207.381	24.75
207.599	22.7
207.818	-8.02
208.037	-46.93
208.255	-46.93
208.474	30.89
208.693	0.17
208.911	57.51
209.13	10.41
209.349	77.99
209.567	108.71
209.786	41.13
210.005	8.36
210.223	108.71
210.442	16.55
210.661	39.08
210.879	37.03
211.098	0.17
211.316	-53.08
211.535	0.17
211.753	10.41
211.972	20.65
212.191	-8.02
212.409	-36.69
212.628	-5.97
212.846	51.37
213.065	-12.12
213.283	90.28
213.502	-36.69
213.72	34.99
213.938	12.46
214.157	98.47
214.375	34.99
214.594	-32.6
214.812	2.22
215.031	-42.84
215.249	-32.6
215.467	-14.17
215.686	-16.21
215.904	84.14
216.122	-53.08
216.341	12.46
216.559	14.51
216.778	-36.69
216.996	32.94
217.214	-16.21
217.432	0.17
217.651	51.37
217.869	-16.21
218.087	-46.93
218.306	-77.65
218.524	28.84
218.742	-20.31
218.96	49.32
219.179	47.27
219.397	-14.17
219.615	37.03
219.833	67.75
220.051	-51.03
220.27	41.13
220.488	51.37
220.706	0.17
220.924	-16.21
221.142	26.79
221.36	-24.4
221.578	88.23
221.796	59.56
222.015	100.52
222.233	0.17
222.451	39.08
222.669	10.41
222.887	41.13
223.105	-32.6
223.323	-30.55
223.541	-40.79
223.759	0.17
223.977	30.89
224.195	37.03
224.413	39.08
224.631	34.99
224.849	34.99
225.067	49.32
225.285	16.55
225.503	4.27
225.721	-44.88
225.939	24.75
226.157	28.84
226.375	106.67
226.592	-14.17
226.81	59.56
227.028	8.36
227.246	49.32
227.464	57.51
227.682	43.18
227.9	26.79
228.117	73.9
228.335	61.61
228.553	-46.93
228.771	59.56
228.989	-3.93
229.206	10.41
229.424	16.55
229.642	47.27
229.86	-16.21
230.077	53.42
230.295	69.8
230.513	77.99
230.731	-30.55
230.948	114.86
231.166	45.23
231.384	59.56
231.601	55.47
231.819	-14.17
232.037	65.71
232.254	-18.26
232.472	37.03
232.689	43.18
232.907	-48.98
233.125	24.75
233.342	-28.5
233.56	12.46
233.777	26.79
233.995	-16.21
234.213	-3.93
234.43	30.89
234.648	8.36
234.865	4.27
235.083	26.79
235.3	22.7
235.518	2.22
235.735	41.13
235.953	65.71
236.17	37.03
236.388	22.7
236.605	-24.4
236.822	53.42
237.04	24.75
237.257	-8.02
237.475	2.22
237.692	53.42
237.909	-5.97
238.127	-16.21
238.344	-48.98
238.562	6.31
238.779	6.31
238.996	-48.98
239.214	43.18
239.431	-24.4
239.648	-16.21
239.865	-20.31
240.083	0.17
240.3	-53.08
240.517	-24.4
240.735	53.42
240.952	24.75
241.169	49.32
241.386	24.75
241.603	-36.69
241.821	32.94
242.038	77.99
242.255	-24.4
242.472	-32.6
242.689	51.37
242.907	98.47
243.124	20.65
243.341	26.79
243.558	-36.69
243.775	65.71
243.992	34.99
244.209	98.47
244.426	131.24
244.643	22.7
244.86	18.6
245.078	41.13
245.295	49.32
245.512	59.56
245.729	2.22
245.946	69.8
246.163	-3.93
246.38	32.94
246.597	-22.36
246.814	-16.21
247.031	-1.88
247.248	12.46
247.464	0.17
247.681	45.23
247.898	55.47
248.115	-8.02
248.332	-16.21
248.549	47.27
248.766	53.42
248.983	-40.79
249.2	-3.93
249.417	65.71
249.633	-20.31
249.85	43.18
250.067	32.94
250.284	59.56
250.501	43.18
250.717	-20.31
250.934	41.13
251.151	-5.97
251.368	8.36
251.585	41.13
251.801	0.17
252.018	-40.79
252.235	20.65
252.451	8.36
252.668	-30.55
252.885	-8.02
253.102	-3.93
253.318	34.99
253.535	106.67
253.752	45.23
253.968	0.17
254.185	-5.97
254.401	-5.97
254.618	90.28
254.835	-38.74
255.051	16.55
255.268	90.28
255.484	2.22
255.701	28.84
255.917	2.22
256.134	-24.4
256.351	2.22
256.567	-87.89
256.784	6.31
257	-18.26
257.217	82.09
257.433	16.55
257.65	73.9
257.866	8.36
258.082	-16.21
258.299	-61.27
258.515	0.17
258.732	-12.12
258.948	32.94
259.165	53.42
259.381	26.79
259.597	-10.07
259.814	-53.08
260.03	51.37
260.246	55.47
260.463	82.09
260.679	61.61
260.895	-40.79
261.112	-3.93
261.328	-3.93
261.544	-26.45
261.761	55.47
261.977	24.75
262.193	-36.69
262.409	0.17
262.626	16.55
262.842	-14.17
263.058	2.22
263.274	57.51
263.49	-24.4
263.707	45.23
263.923	16.55
264.139	-32.6
264.355	-10.07
264.571	10.41
264.787	20.65
265.004	106.67
265.22	49.32
265.436	41.13
265.652	73.9
265.868	57.51
266.084	-36.69
266.3	34.99
266.516	12.46
266.732	57.51
266.948	32.94
267.164	-8.02
267.38	-1.88
267.596	-8.02
267.812	92.33
268.028	51.37
268.244	-69.46
268.46	-8.02
268.676	-38.74
268.892	125.1
269.108	24.75
269.324	-5.97
269.54	20.65
269.756	-5.97
269.972	-57.17
270.188	-46.93
270.403	-24.4
270.619	86.19
270.835	-26.45
271.051	-3.93
271.267	12.46
271.483	-16.21
271.698	37.03
271.914	-22.36
272.13	32.94
272.346	16.55
272.562	45.23
272.777	8.36
272.993	-44.88
273.209	59.56
273.425	39.08
273.64	34.99
273.856	24.75
274.072	73.9
274.287	-40.79
274.503	108.71
274.719	41.13
274.934	22.7
275.15	-46.93
275.366	18.6
275.581	-16.21
275.797	24.75
276.012	-16.21
276.228	-8.02
276.444	14.51
276.659	73.9
276.875	-57.17
277.09	18.6
277.306	69.8
277.521	-8.02
277.737	34.99
277.952	10.41
278.168	2.22
278.383	26.79
278.599	-24.4
278.814	30.89
279.03	43.18
279.245	41.13
279.461	43.18
279.676	77.99
279.892	-67.41
280.107	57.51
280.322	-22.36
280.538	-20.31
280.753	12.46
280.969	32.94
281.184	63.66
281.399	6.31
281.615	55.47
281.83	51.37
282.045	-94.04
282.26	0.17
282.476	16.55
282.691	-48.98
282.906	67.75
283.122	-40.79
283.337	8.36
283.552	30.89
283.767	-48.98
283.983	-1.88
284.198	-14.17
284.413	65.71
284.628	-24.4
284.843	24.75
285.058	43.18
285.274	18.6
285.489	61.61
285.704	34.99
285.919	-20.31
286.134	-3.93
286.349	-48.98
286.564	-8.02
286.779	49.32
286.995	-10.07
287.21	10.41
287.425	-3.93
287.64	-14.17
287.855	75.95
288.07	32.94
288.285	55.47
288.5	-26.45
288.715	51.37
288.93	-32.6
289.145	-8.02
289.36	-32.6
289.575	32.94
289.79	49.32
290.004	2.22
290.219	0.17
290.434	53.42
290.649	12.46
290.864	-63.32
291.079	28.84
291.294	28.84
291.509	-36.69
291.724	18.6
291.938	-59.22
292.153	-34.64
292.368	18.6
292.583	49.32
292.798	57.51
293.012	49.32
293.227	106.67
293.442	106.67
293.657	82.09
293.871	-16.21
294.086	100.52
294.301	82.09
294.516	94.38
294.73	41.13
294.945	-63.32
295.16	65.71
295.374	2.22
295.589	61.61
295.804	-46.93
296.018	32.94
296.233	-1.88
296.447	28.84
296.662	24.75
296.877	-16.21
297.091	116.9
297.306	10.41
297.52	32.94
297.735	28.84
297.949	49.32
298.164	0.17
298.378	28.84
298.593	28.84
298.807	41.13
299.022	90.28
299.236	-20.31
299.451	24.75
299.665	73.9
299.88	0.17
300.094	10.41
300.309	65.71
300.523	55.47
300.737	-40.79
300.952	-12.12
301.166	14.51
301.381	-85.84
301.595	0.17
301.809	8.36
302.024	57.51
302.238	-14.17
302.452	16.55
302.667	-16.21
302.881	10.41
303.095	-22.36
303.309	32.94
303.524	22.7
303.738	20.65
303.952	8.36
304.166	100.52
304.381	-112.47
304.595	55.47
304.809	16.55
305.023	59.56
305.237	49.32
305.452	-46.93
305.666	28.84
305.88	49.32
306.094	-81.75
306.308	49.32
306.522	24.75
306.736	94.38
306.95	34.99
307.164	61.61
307.379	49.32
307.593	102.57
307.807	10.41
308.021	37.03
308.235	108.71
308.449	53.42
308.663	49.32
308.877	77.99
309.091	24.75
309.305	80.04
309.519	-40.79
309.733	98.47
309.947	-24.4
310.161	82.09
310.374	-12.12
310.588	16.55
310.802	-69.46
311.016	43.18
311.23	-28.5
311.444	-24.4
311.658	14.51
311.872	-20.31
312.085	75.95
312.299	57.51
312.513	12.46
312.727	22.7
312.941	-5.97
313.154	8.36
313.368	143.53
313.582	84.14
313.796	8.36
314.009	-46.93
314.223	71.85
314.437	18.6
314.651	18.6
314.864	24.75
315.078	32.94
315.292	65.71
315.505	32.94
315.719	-32.6
315.933	24.75
316.146	-38.74
316.36	41.13
316.573	73.9
316.787	49.32
317.001	65.71
317.214	0.17
317.428	24.75
317.641	-12.12
317.855	24.75
318.068	4.27
318.282	16.55
318.495	77.99
318.709	51.37
318.922	-28.5
319.136	106.67
319.349	-22.36
319.563	12.46
319.776	51.37
319.99	57.51
320.203	16.55
320.417	41.13
320.63	65.71
320.843	8.36
321.057	10.41
321.27	65.71
321.483	73.9
321.697	-8.02
321.91	-57.17
322.124	-8.02
322.337	-16.21
322.55	32.94
322.763	-14.17
322.977	59.56
323.19	10.41
323.403	59.56
323.617	-24.4
323.83	41.13
324.043	-32.6
324.256	-8.02
324.469	-3.93
324.683	45.23
324.896	55.47
325.109	67.75
325.322	-8.02
325.535	41.13
325.748	37.03
325.962	0.17
326.175	-8.02
326.388	75.95
326.601	49.32
326.814	45.23
327.027	53.42
327.24	32.94
327.453	-48.98
327.666	32.94
327.879	49.32
328.092	-12.12
328.305	32.94
328.518	86.19
328.731	-40.79
328.944	2.22
329.157	82.09
329.37	43.18
329.583	77.99
329.796	57.51
330.009	2.22
330.222	69.8
330.435	49.32
330.648	-3.93
330.861	-16.21
331.073	12.46
331.286	16.55
331.499	2.22
331.712	-36.69
331.925	57.51
332.138	-71.51
332.35	0.17
332.563	-36.69
332.776	65.71
332.989	22.7
333.202	14.51
333.414	67.75
333.627	8.36
333.84	86.19
334.053	65.71
334.265	20.65
334.478	16.55
334.691	51.37
334.903	26.79
335.116	10.41
335.329	32.94
335.541	24.75
335.754	12.46
335.966	49.32
336.179	43.18
336.392	104.62
336.604	-36.69
336.817	20.65
337.029	-65.36
337.242	-12.12
337.454	88.23
337.667	43.18
337.88	67.75
338.092	-63.32
338.305	45.23
338.517	32.94
338.729	98.47
338.942	49.32
339.154	32.94
339.367	49.32
339.579	28.84
339.792	-16.21
340.004	41.13
340.217	8.36
340.429	53.42
340.641	-42.84
340.854	-55.12
341.066	-59.22
341.278	98.47
341.491	0.17
341.703	-40.79
341.915	-36.69
342.128	18.6
342.34	65.71
342.552	-24.4
342.764	20.65
342.977	53.42
343.189	-1.88
343.401	24.75
343.613	-96.08
343.826	65.71
344.038	8.36
344.25	22.7
344.462	41.13
344.674	-5.97
344.886	34.99
345.099	57.51
345.311	77.99
345.523	-5.97
345.735	14.51
345.947	65.71
346.159	59.56
346.371	53.42
346.583	14.51
346.795	8.36
347.007	4.27
347.219	77.99
347.431	45.23
347.643	80.04
347.855	-30.55
348.067	77.99
348.279	26.79
348.491	-53.08
348.703	26.79
348.915	-20.31
349.127	32.94
349.339	65.71
349.551	-1.88
349.763	41.13
349.975	32.94
350.187	0.17
350.399	123.05
350.61	0.17
350.822	-16.21
351.034	43.18
351.246	65.71
351.458	45.23
351.669	84.14
351.881	92.33
352.093	34.99
352.305	84.14
352.517	86.19
352.728	92.33
352.94	37.03
353.152	28.84
353.363	0.17
353.575	16.55
353.787	69.8
353.999	16.55
354.21	-8.02
354.422	43.18
354.633	39.08
354.845	82.09
355.057	123.05
355.268	41.13
355.48	73.9
355.692	12.46
355.903	32.94
356.115	-3.93
356.326	-30.55
356.538	-32.6
356.749	0.17
356.961	75.95
357.172	24.75
357.384	-30.55
357.595	20.65
357.807	82.09
358.018	-81.75
358.23	49.32
358.441	24.75
358.653	32.94
358.864	4.27
359.075	24.75
359.287	57.51
359.498	106.67
359.709	28.84
359.921	-8.02
360.132	53.42
360.344	96.43
360.555	28.84
360.766	16.55
360.977	-22.36
361.189	8.36
361.4	39.08
361.611	73.9
361.823	135.34
362.034	30.89
362.245	-14.17
362.456	18.6
362.667	30.89
362.879	8.36
363.09	0.17
363.301	92.33
363.512	49.32
363.723	41.13
363.935	-20.31
364.146	123.05
364.357	57.51
364.568	41.13
364.779	-40.79
364.99	149.67
365.201	41.13
365.412	73.9
365.623	12.46
365.834	45.23
366.045	77.99
366.256	18.6
366.467	53.42
366.678	-38.74
366.889	65.71
367.1	41.13
367.311	32.94
367.522	-46.93
367.733	41.13
367.944	118.95
368.155	37.03
368.366	139.43
368.577	96.43
368.788	86.19
368.999	53.42
369.209	53.42
369.42	116.9
369.631	49.32
369.842	-16.21
370.053	-36.69
370.264	77.99
370.474	51.37
370.685	73.9
370.896	-81.75
371.107	55.47
371.317	30.89
371.528	-59.22
371.739	32.94
371.95	26.79
372.16	16.55
372.371	-28.5
372.582	32.94
372.792	32.94
373.003	49.32
373.214	57.51
373.424	49.32
373.635	6.31
373.846	123.05
374.056	18.6
374.267	-3.93
374.477	53.42
374.688	-14.17
374.898	75.95
375.109	45.23
375.319	106.67
375.53	24.75
375.74	69.8
375.951	61.61
376.161	96.43
376.372	96.43
376.582	41.13
376.793	92.33
377.003	43.18
377.214	73.9
377.424	0.17
377.635	39.08
377.845	-5.97
378.055	57.51
378.266	24.75
378.476	61.61
378.686	96.43
378.897	57.51
379.107	16.55
379.317	82.09
379.528	-24.4
379.738	67.75
379.948	34.99
380.158	-16.21
380.369	63.66
380.579	28.84
380.789	28.84
380.999	92.33
381.21	20.65
381.42	168.1
381.63	-12.12
381.84	116.9
382.05	34.99
382.261	43.18
382.471	20.65
382.681	37.03
382.891	98.47
383.101	34.99
383.311	-24.4
383.521	10.41
383.731	28.84
383.941	65.71
384.151	20.65
384.361	16.55
384.571	-12.12
384.781	98.47
384.991	73.9
385.201	20.65
385.411	92.33
385.621	73.9
385.831	2.22
386.041	22.7
386.251	86.19
386.461	73.9
386.671	73.9
386.881	37.03
387.091	-18.26
387.301	100.52
387.511	61.61
387.72	-5.97
387.93	-36.69
388.14	10.41
388.35	-3.93
388.56	28.84
388.769	75.95
388.979	61.61
389.189	-8.02
389.399	16.55
389.609	65.71
389.818	118.95
390.028	84.14
390.238	43.18
390.447	24.75
390.657	34.99
390.867	51.37
391.076	0.17
391.286	75.95
391.496	55.47
391.705	24.75
391.915	75.95
392.125	51.37
392.334	69.8
392.544	98.47
392.753	73.9
392.963	71.85
393.172	61.61
393.382	24.75
393.591	151.72
393.801	73.9
394.01	131.24
394.22	-8.02
394.429	-8.02
394.639	32.94
394.848	94.38
395.058	-10.07
395.267	123.05
395.477	65.71
395.686	43.18
395.895	114.86
396.105	82.09
396.314	75.95
396.524	59.56
396.733	59.56
396.942	73.9
397.152	90.28
397.361	73.9
397.57	118.95
397.78	32.94
397.989	98.47
398.198	51.37
398.407	41.13
398.617	41.13
398.826	118.95
399.035	94.38
399.244	69.8
399.453	77.99
399.663	82.09
399.872	98.47
400.081	100.52
400.29	82.09
400.499	41.13
400.708	133.29
400.917	75.95
401.127	100.52
401.336	100.52
401.545	133.29
401.754	112.81
401.963	106.67
402.172	90.28
402.381	59.56
402.59	2.22
402.799	168.1
403.008	116.9
403.217	147.62
403.426	176.3
403.635	53.42
403.844	118.95
404.053	49.32
404.262	139.43
404.471	198.82
404.68	106.67
404.888	161.96
405.097	98.47
405.306	139.43
405.515	116.9
405.724	188.58
405.933	164.01
406.142	174.25
406.35	147.62
406.559	149.67
406.768	159.91
406.977	213.16
407.185	100.52
407.394	121
407.603	127.14
407.812	215.21
408.02	145.58
408.229	110.76
408.438	254.12
408.646	196.78
408.855	213.16
409.064	190.63
409.272	123.05
409.481	258.21
409.69	280.74
409.898	221.35
410.107	260.26
410.315	211.11
410.524	180.39
410.733	243.88
410.941	266.41
411.15	307.37
411.358	260.26
411.567	340.13
411.775	362.66
411.984	299.17
412.192	272.55
412.401	327.85
412.609	401.57
412.818	407.72
413.026	331.94
413.234	458.92
413.443	436.39
413.651	442.53
413.86	458.92
414.068	518.31
414.276	524.45
414.485	559.27
414.693	624.8
414.901	581.79
415.11	577.7
415.318	520.35
415.526	583.84
415.734	608.42
415.943	589.99
416.151	669.86
416.359	655.52
416.567	704.67
416.776	739.49
416.984	706.72
417.192	802.97
417.4	696.48
417.608	876.7
417.817	786.59
418.025	911.52
418.233	952.48
418.441	909.47
418.649	882.85
418.857	1007.77
419.065	1077.4
419.273	991.39
419.481	1138.84
419.689	1167.51
419.897	1253.53
420.105	1159.32
420.313	1278.1
420.521	1319.06
420.729	1282.2
420.937	1384.6
421.145	1417.37
421.353	1441.94
421.561	1530
421.769	1560.72
421.977	1695.89
422.185	1630.35
422.393	1663.12
422.601	1902.73
422.809	1814.67
423.017	1695.89
423.224	2003.08
423.432	2015.37
423.64	2064.52
423.848	2244.74
424.056	2134.15
424.263	2289.8
424.471	2322.57
424.679	2236.55
424.887	2488.45
425.094	2529.41
425.302	2447.49
425.51	2625.67
425.718	2732.16
425.925	2744.45
426.133	2787.46
426.341	2967.68
426.548	3229.82
426.756	3045.5
426.964	3186.81
427.171	3428.47
427.379	3420.28
427.586	3424.37
427.794	3620.98
428.001	3805.3
428.209	4028.53
428.417	3852.4
428.624	4108.4
428.832	4229.23
429.039	4110.44
429.247	4042.86
429.454	4571.24
429.662	4780.13
429.869	4526.18
430.076	4827.23
430.284	4694.12
430.491	4866.14
430.699	5089.37
430.906	5316.7
431.114	5398.62
431.321	5460.06
431.528	5570.65
431.736	5800.02
431.943	6174.8
432.15	5894.22
432.358	5902.42
432.565	6242.38
432.772	6318.15
432.979	6772.8
433.187	6758.47
433.394	6946.88
433.601	7182.4
433.808	7385.15
434.016	7184.45
434.223	7639.09
434.43	7983.15
434.637	7862.32
434.844	8319.02
435.052	8568.87
435.259	8378.41
435.466	8456.23
435.673	8364.08
435.88	8874.02
436.087	9414.68
436.294	9566.23
436.501	9338.91
436.708	9584.66
436.915	9580.57
437.122	10317.84
437.329	10166.29
437.537	10278.93
437.743	10813.45
437.95	10424.33
438.157	11214.85
438.364	11354.11
438.571	11624.44
438.778	11368.45
438.985	12691.43
439.192	12124.15
439.399	12374
439.606	12281.84
439.813	12910.57
440.02	13744.09
440.227	13277.15
440.433	13031.4
440.64	13852.63
440.847	13484
441.054	14045.14
441.261	14979.01
441.467	14680.01
441.674	15060.93
441.881	15607.74
442.088	15372.22
442.294	15505.34
442.501	15822.78
442.708	16150.45
442.914	16678.83
443.121	17442.72
443.328	17074.09
443.534	18075.54
443.741	17893.27
443.948	17579.93
444.154	18431.89
444.361	18620.3
444.568	18601.87
444.774	18554.77
444.981	18870.15
445.187	19263.36
445.394	20023.16
445.6	20094.84
445.807	21940.06
446.013	21063.53
446.22	21292.9
446.426	22075.23
446.633	22493.01
446.839	23220.04
447.046	22163.29
447.252	23457.6
447.459	23660.35
447.665	23766.85
447.871	24692.53
448.078	25489.19
448.284	24393.53
448.491	25233.19
448.697	25650.98
448.903	26597.14
449.11	26537.75
449.316	26089.24
449.522	26767.12
449.728	27354.89
449.935	27651.84
450.141	27557.64
450.347	27981.57
450.553	27485.96
450.76	27737.86
450.966	28536.57
451.172	28356.35
451.378	28991.22
451.584	28503.8
451.791	29032.18
451.997	29050.61
452.203	29740.77
452.409	29554.41
452.615	29564.65
452.821	28444.41
453.027	28002.05
453.233	29763.3
453.44	28489.46
453.646	28761.84
453.852	28894.96
454.058	29015.79
454.264	28507.9
454.47	29144.81
454.676	28536.57
454.882	29583.08
455.088	26967.82
455.294	27135.76
455.5	27754.24
455.705	28145.41
455.911	26742.55
456.117	26734.35
456.323	25902.88
456.529	24735.54
456.735	25900.83
456.941	25272.11
457.147	24751.92
457.352	23934.78
457.558	23748.42
457.764	23863.1
457.97	23330.63
458.176	22863.69
458.381	23058.25
458.587	21755.74
458.793	21808.99
458.999	20811.63
459.204	22302.55
459.41	21749.6
459.616	20064.12
459.821	19996.54
460.027	20166.52
460.233	19634.05
460.438	18823.05
460.644	19124.1
460.85	18196.37
461.055	17661.85
461.261	17774.49
461.466	16340.91
461.672	16269.23
461.878	17190.82
462.083	15933.37
462.289	16037.81
462.494	15628.22
462.7	15126.47
462.905	14688.2
463.111	14972.87
463.316	15204.29
463.522	14999.49
463.727	14704.59
463.932	14766.03
464.138	14663.63
464.343	14417.87
464.549	14475.21
464.754	14682.06
464.959	14372.82
465.165	14286.8
465.37	13737.95
465.575	13756.38
465.781	13920.21
465.986	14151.63
466.191	13727.71
466.397	13311.97
466.602	12822.5
466.807	12953.57
467.012	13254.62
467.218	13103.07
467.423	12855.27
