Data from USB4F104151__306__14-46-41-790.txt Node

Date: Thu Mar 13 14:46:41 EDT 2025
User: louis
Spectrometer: USB4F10415
Trigger mode: 4
Integration Time (sec): 2.000000E-2
Scans to average: 1
Electric dark correction enabled: true
Nonlinearity correction enabled: false
Boxcar width: 0
XAxis mode: Wavelengths
Number of Pixels in Spectrum: 3648
>>>>>Begin Spectral Data<<<<<
178.204	-113.66
178.424	-113.66
178.644	-113.66
178.864	-160.77
179.084	-44.03
179.304	-82.94
179.524	17.41
179.744	29.7
179.964	-1.02
180.184	-27.65
180.404	35.84
180.624	52.22
180.844	-5.12
181.064	-33.79
181.283	19.46
181.503	-41.98
181.723	37.89
181.943	-70.65
182.163	74.75
182.383	-35.84
182.602	-5.12
182.822	50.18
183.042	11.26
183.262	21.5
183.482	46.08
183.701	60.42
183.921	5.12
184.141	15.36
184.361	-13.31
184.58	35.84
184.8	5.12
185.02	19.46
185.239	29.7
185.459	-3.07
185.679	5.12
185.898	-19.46
186.118	56.32
186.338	-1.02
186.557	115.71
186.777	1.02
186.997	21.5
187.216	52.22
187.436	-25.6
187.655	-58.37
187.875	41.98
188.095	-78.85
188.314	3.07
188.534	11.26
188.753	-74.75
188.973	-27.65
189.192	60.42
189.412	29.7
189.631	44.03
189.851	11.26
190.07	11.26
190.29	11.26
190.509	21.5
190.729	11.26
190.948	80.89
191.168	128
191.387	91.13
191.607	-46.08
191.826	1.02
192.045	-11.26
192.265	62.46
192.484	7.17
192.704	60.42
192.923	11.26
193.142	11.26
193.362	64.51
193.581	54.27
193.8	52.22
194.02	76.8
194.239	60.42
194.458	56.32
194.678	-13.31
194.897	50.18
195.116	-19.46
195.335	15.36
195.555	84.99
195.774	25.6
195.993	-29.7
196.212	70.65
196.432	-60.42
196.651	-37.89
196.87	68.61
197.089	27.65
197.308	48.13
197.528	44.03
197.747	-25.6
197.966	29.7
198.185	80.89
198.404	-1.02
198.623	-17.41
198.842	60.42
199.062	64.51
199.281	27.65
199.5	113.66
199.719	-70.65
199.938	39.94
200.157	19.46
200.376	48.13
200.595	11.26
200.814	-13.31
201.033	15.36
201.252	15.36
201.471	21.5
201.69	3.07
201.909	-1.02
202.128	-7.17
202.347	87.04
202.566	37.89
202.785	-29.7
203.004	35.84
203.223	72.7
203.442	19.46
203.661	3.07
203.879	52.22
204.098	17.41
204.317	3.07
204.536	-5.12
204.755	-41.98
204.974	9.22
205.193	46.08
205.411	54.27
205.63	17.41
205.849	11.26
206.068	21.5
206.287	48.13
206.505	68.61
206.724	44.03
206.943	-52.22
207.162	87.04
207.381	29.7
207.599	-13.31
207.818	37.89
208.037	52.22
208.255	5.12
208.474	93.18
208.693	1.02
208.911	13.31
209.13	82.94
209.349	23.55
209.567	29.7
209.786	19.46
210.005	50.18
210.223	-3.07
210.442	-62.46
210.661	-44.03
210.879	-50.18
211.098	60.42
211.316	-56.32
211.535	11.26
211.753	-31.74
211.972	25.6
212.191	44.03
212.409	48.13
212.628	-68.61
212.846	-19.46
213.065	19.46
213.283	72.7
213.502	-68.61
213.72	11.26
213.938	-15.36
214.157	-5.12
214.375	3.07
214.594	46.08
214.812	46.08
215.031	41.98
215.249	-11.26
215.467	37.89
215.686	11.26
215.904	-66.56
216.122	-54.27
216.341	84.99
216.559	31.74
216.778	52.22
216.996	70.65
217.214	44.03
217.432	-66.56
217.651	39.94
217.869	-54.27
218.087	-37.89
218.306	-21.5
218.524	80.89
218.742	29.7
218.96	-17.41
219.179	19.46
219.397	7.17
219.615	138.24
219.833	60.42
220.051	13.31
220.27	15.36
220.488	27.65
220.706	-27.65
220.924	52.22
221.142	21.5
221.36	21.5
221.578	37.89
221.796	-13.31
222.015	19.46
222.233	-35.84
222.451	48.13
222.669	78.85
222.887	-13.31
223.105	-29.7
223.323	-91.13
223.541	11.26
223.759	-3.07
223.977	-52.22
224.195	-9.22
224.413	35.84
224.631	72.7
224.849	1.02
225.067	-62.46
225.285	46.08
225.503	21.5
225.721	-15.36
225.939	-11.26
226.157	66.56
226.375	62.46
226.592	1.02
226.81	58.37
227.028	17.41
227.246	-21.5
227.464	-17.41
227.682	21.5
227.9	35.84
228.117	23.55
228.335	78.85
228.553	15.36
228.771	41.98
228.989	23.55
229.206	21.5
229.424	11.26
229.642	15.36
229.86	-29.7
230.077	21.5
230.295	5.12
230.513	-31.74
230.731	35.84
230.948	31.74
231.166	54.27
231.384	-11.26
231.601	-17.41
231.819	31.74
232.037	3.07
232.254	-29.7
232.472	44.03
232.689	-5.12
232.907	27.65
233.125	35.84
233.342	80.89
233.56	-1.02
233.777	35.84
233.995	-21.5
234.213	-11.26
234.43	48.13
234.648	13.31
234.865	9.22
235.083	35.84
235.3	21.5
235.518	-1.02
235.735	62.46
235.953	52.22
236.17	23.55
236.388	15.36
236.605	87.04
236.822	76.8
237.04	-13.31
237.257	-13.31
237.475	-11.26
237.692	27.65
237.909	-37.89
238.127	-29.7
238.344	35.84
238.562	-35.84
238.779	-117.76
238.996	19.46
239.214	62.46
239.431	31.74
239.648	5.12
239.865	35.84
240.083	27.65
240.3	5.12
240.517	-25.6
240.735	-1.02
240.952	93.18
241.169	76.8
241.386	60.42
241.603	11.26
241.821	-35.84
242.038	17.41
242.255	-62.46
242.472	11.26
242.689	68.61
242.907	48.13
243.124	-17.41
243.341	-25.6
243.558	21.5
243.775	-44.03
243.992	-41.98
244.209	3.07
244.426	93.18
244.643	39.94
244.86	-25.6
245.078	62.46
245.295	52.22
245.512	31.74
245.729	-29.7
245.946	52.22
246.163	52.22
246.38	66.56
246.597	80.89
246.814	-54.27
247.031	21.5
247.248	11.26
247.464	-9.22
247.681	56.32
247.898	130.05
248.115	27.65
248.332	7.17
248.549	54.27
248.766	-35.84
248.983	54.27
249.2	3.07
249.417	13.31
249.633	-11.26
249.85	89.09
250.067	-37.89
250.284	35.84
250.501	-33.79
250.717	15.36
250.934	58.37
251.151	31.74
251.368	7.17
251.585	84.99
251.801	35.84
252.018	11.26
252.235	7.17
252.451	-68.61
252.668	-3.07
252.885	15.36
253.102	41.98
253.318	-54.27
253.535	17.41
253.752	44.03
253.968	-37.89
254.185	-29.7
254.401	56.32
254.618	93.18
254.835	-29.7
255.051	35.84
255.268	66.56
255.484	76.8
255.701	-29.7
255.917	48.13
256.134	11.26
256.351	-21.5
256.567	5.12
256.784	117.76
257	13.31
257.217	50.18
257.433	60.42
257.65	76.8
257.866	-11.26
258.082	27.65
258.299	23.55
258.515	21.5
258.732	48.13
258.948	-1.02
259.165	-50.18
259.381	-29.7
259.597	-17.41
259.814	15.36
260.03	5.12
260.246	39.94
260.463	44.03
260.679	37.89
260.895	-27.65
261.112	-9.22
261.328	11.26
261.544	-29.7
261.761	62.46
261.977	64.51
262.193	37.89
262.409	58.37
262.626	35.84
262.842	80.89
263.058	44.03
263.274	62.46
263.49	11.26
263.707	-37.89
263.923	-21.5
264.139	-58.37
264.355	62.46
264.571	31.74
264.787	-58.37
265.004	-25.6
265.22	48.13
265.436	19.46
265.652	-9.22
265.868	-29.7
266.084	-15.36
266.3	23.55
266.516	31.74
266.732	-58.37
266.948	117.76
267.164	15.36
267.38	-25.6
267.596	-19.46
267.812	56.32
268.028	-13.31
268.244	-33.79
268.46	84.99
268.676	21.5
268.892	41.98
269.108	72.7
269.324	60.42
269.54	27.65
269.756	58.37
269.972	-37.89
270.188	-19.46
270.403	-62.46
270.619	35.84
270.835	11.26
271.051	27.65
271.267	-1.02
271.483	-29.7
271.698	31.74
271.914	-54.27
272.13	-29.7
272.346	41.98
272.562	27.65
272.777	68.61
272.993	15.36
273.209	-3.07
273.425	31.74
273.64	52.22
273.856	7.17
274.072	-13.31
274.287	1.02
274.503	11.26
274.719	-1.02
274.934	56.32
275.15	-78.85
275.366	-33.79
275.581	-37.89
275.797	25.6
276.012	33.79
276.228	82.94
276.444	33.79
276.659	-1.02
276.875	13.31
277.09	-5.12
277.306	15.36
277.521	-5.12
277.737	-52.22
277.952	-23.55
278.168	5.12
278.383	-48.13
278.599	25.6
278.814	44.03
279.03	17.41
279.245	56.32
279.461	46.08
279.676	-11.26
279.892	-7.17
280.107	23.55
280.322	-1.02
280.538	-17.41
280.753	-54.27
280.969	68.61
281.184	48.13
281.399	-19.46
281.615	35.84
281.83	64.51
282.045	-44.03
282.26	-11.26
282.476	23.55
282.691	46.08
282.906	48.13
283.122	-1.02
283.337	-44.03
283.552	117.76
283.767	-19.46
283.983	31.74
284.198	-33.79
284.413	11.26
284.628	1.02
284.843	44.03
285.058	44.03
285.274	-13.31
285.489	5.12
285.704	89.09
285.919	37.89
286.134	-11.26
286.349	-39.94
286.564	-39.94
286.779	-1.02
286.995	-50.18
287.21	-11.26
287.425	37.89
287.64	37.89
287.855	15.36
288.07	-41.98
288.285	80.89
288.5	-1.02
288.715	29.7
288.93	11.26
289.145	15.36
289.36	29.7
289.575	-29.7
289.79	89.09
290.004	19.46
290.219	54.27
290.434	52.22
290.649	19.46
290.864	21.5
291.079	13.31
291.294	64.51
291.509	19.46
291.724	-37.89
291.938	-9.22
292.153	54.27
292.368	-13.31
292.583	-78.85
292.798	48.13
293.012	35.84
293.227	-54.27
293.442	48.13
293.657	35.84
293.871	31.74
294.086	76.8
294.301	52.22
294.516	11.26
294.73	-44.03
294.945	78.85
295.16	-13.31
295.374	-44.03
295.589	117.76
295.804	35.84
296.018	-27.65
296.233	-11.26
296.447	78.85
296.662	-25.6
296.877	56.32
297.091	-27.65
297.306	44.03
297.52	5.12
297.735	19.46
297.949	62.46
298.164	93.18
298.378	84.99
298.593	62.46
298.807	7.17
299.022	25.6
299.236	-78.85
299.451	-17.41
299.665	-11.26
299.88	84.99
300.094	29.7
300.309	25.6
300.523	15.36
300.737	50.18
300.952	-3.07
301.166	87.04
301.381	-41.98
301.595	93.18
301.809	-11.26
302.024	19.46
302.238	11.26
302.452	11.26
302.667	19.46
302.881	35.84
303.095	-25.6
303.309	27.65
303.524	19.46
303.738	62.46
303.952	-33.79
304.166	44.03
304.381	-29.7
304.595	5.12
304.809	132.09
305.023	7.17
305.237	-21.5
305.452	23.55
305.666	31.74
305.88	44.03
306.094	-27.65
306.308	39.94
306.522	19.46
306.736	48.13
306.95	37.89
307.164	-3.07
307.379	72.7
307.593	52.22
307.807	23.55
308.021	44.03
308.235	27.65
308.449	-25.6
308.663	44.03
308.877	76.8
309.091	35.84
309.305	54.27
309.519	23.55
309.733	84.99
309.947	84.99
310.161	60.42
310.374	7.17
310.588	31.74
310.802	-48.13
311.016	35.84
311.23	78.85
311.444	-52.22
311.658	-64.51
311.872	-11.26
312.085	21.5
312.299	105.47
312.513	-3.07
312.727	3.07
312.941	80.89
313.154	35.84
313.368	-5.12
313.582	-29.7
313.796	72.7
314.009	31.74
314.223	27.65
314.437	27.65
314.651	13.31
314.864	3.07
315.078	-121.85
315.292	27.65
315.505	-5.12
315.719	54.27
315.933	5.12
316.146	15.36
316.36	60.42
316.573	80.89
316.787	-52.22
317.001	35.84
317.214	23.55
317.428	-41.98
317.641	-3.07
317.855	-25.6
318.068	-62.46
318.282	-35.84
318.495	3.07
318.709	78.85
318.922	48.13
319.136	60.42
319.349	15.36
319.563	-29.7
319.776	11.26
319.99	1.02
320.203	35.84
320.417	15.36
320.63	48.13
320.843	56.32
321.057	60.42
321.27	-46.08
321.483	-54.27
321.697	19.46
321.91	60.42
322.124	52.22
322.337	46.08
322.55	41.98
322.763	21.5
322.977	35.84
323.19	-41.98
323.403	-44.03
323.617	3.07
323.83	111.61
324.043	48.13
324.256	60.42
324.469	-44.03
324.683	33.79
324.896	29.7
325.109	-17.41
325.322	11.26
325.535	64.51
325.748	64.51
325.962	-25.6
326.175	21.5
326.388	80.89
326.601	113.66
326.814	48.13
327.027	37.89
327.24	72.7
327.453	-11.26
327.666	-17.41
327.879	-15.36
328.092	50.18
328.305	9.22
328.518	29.7
328.731	-13.31
328.944	-13.31
329.157	-1.02
329.37	-64.51
329.583	84.99
329.796	37.89
330.009	-35.84
330.222	44.03
330.435	-33.79
330.648	60.42
330.861	3.07
331.073	15.36
331.286	44.03
331.499	19.46
331.712	-29.7
331.925	52.22
332.138	27.65
332.35	78.85
332.563	-9.22
332.776	-3.07
332.989	-52.22
333.202	-5.12
333.414	-15.36
333.627	41.98
333.84	13.31
334.053	5.12
334.265	-41.98
334.478	58.37
334.691	37.89
334.903	-46.08
335.116	66.56
335.329	58.37
335.541	19.46
335.754	62.46
335.966	-44.03
336.179	-29.7
336.392	23.55
336.604	-5.12
336.817	3.07
337.029	13.31
337.242	-3.07
337.454	93.18
337.667	-3.07
337.88	-1.02
338.092	-23.55
338.305	13.31
338.517	29.7
338.729	13.31
338.942	-11.26
339.154	-17.41
339.367	68.61
339.579	46.08
339.792	15.36
340.004	-17.41
340.217	31.74
340.429	41.98
340.641	19.46
340.854	82.94
341.066	-15.36
341.278	125.95
341.491	-13.31
341.703	13.31
341.915	-1.02
342.128	7.17
342.34	52.22
342.552	11.26
342.764	7.17
342.977	-11.26
343.189	-37.89
343.401	-29.7
343.613	-76.8
343.826	15.36
344.038	84.99
344.25	11.26
344.462	41.98
344.674	11.26
344.886	41.98
345.099	52.22
345.311	76.8
345.523	48.13
345.735	-39.94
345.947	-5.12
346.159	-11.26
346.371	19.46
346.583	27.65
346.795	93.18
347.007	19.46
347.219	19.46
347.431	-48.13
347.643	58.37
347.855	-19.46
348.067	23.55
348.279	21.5
348.491	23.55
348.703	35.84
348.915	54.27
349.127	13.31
349.339	3.07
349.551	-52.22
349.763	-54.27
349.975	5.12
350.187	89.09
350.399	109.57
350.61	5.12
350.822	33.79
351.034	52.22
351.246	-13.31
351.458	97.28
351.669	21.5
351.881	76.8
352.093	56.32
352.305	48.13
352.517	91.13
352.728	97.28
352.94	39.94
353.152	5.12
353.363	-21.5
353.575	5.12
353.787	44.03
353.999	-5.12
354.21	89.09
354.422	134.14
354.633	-3.07
354.845	-15.36
355.057	21.5
355.268	-21.5
355.48	13.31
355.692	-29.7
355.903	23.55
356.115	76.8
356.326	44.03
356.538	21.5
356.749	48.13
356.961	35.84
357.172	3.07
357.384	11.26
357.595	44.03
357.807	52.22
358.018	46.08
358.23	-17.41
358.441	109.57
358.653	27.65
358.864	3.07
359.075	-5.12
359.287	64.51
359.498	74.75
359.709	52.22
359.921	-7.17
360.132	11.26
360.344	-13.31
360.555	19.46
360.766	50.18
360.977	-11.26
361.189	117.76
361.4	-50.18
361.611	91.13
361.823	52.22
362.034	1.02
362.245	-17.41
362.456	48.13
362.667	72.7
362.879	15.36
363.09	-7.17
363.301	-21.5
363.512	17.41
363.723	89.09
363.935	9.22
364.146	91.13
364.357	52.22
364.568	72.7
364.779	-66.56
364.99	35.84
365.201	50.18
365.412	89.09
365.623	15.36
365.834	46.08
366.045	37.89
366.256	44.03
366.467	27.65
366.678	103.42
366.889	52.22
367.1	97.28
367.311	-13.31
367.522	93.18
367.733	35.84
367.944	52.22
368.155	27.65
368.366	-21.5
368.577	72.7
368.788	87.04
368.999	-13.31
369.209	19.46
369.42	1.02
369.631	103.42
369.842	44.03
370.053	13.31
370.264	46.08
370.474	-37.89
370.685	7.17
370.896	31.74
371.107	74.75
371.317	-5.12
371.528	27.65
371.739	52.22
371.95	60.42
372.16	21.5
372.371	-46.08
372.582	13.31
372.792	72.7
373.003	52.22
373.214	3.07
373.424	-35.84
373.635	9.22
373.846	52.22
374.056	33.79
374.267	93.18
374.477	52.22
374.688	3.07
374.898	13.31
375.109	52.22
375.319	-7.17
375.53	46.08
375.74	21.5
375.951	39.94
376.161	68.61
376.372	37.89
376.582	101.37
376.793	-15.36
377.003	-1.02
377.214	-11.26
377.424	56.32
377.635	44.03
377.845	60.42
378.055	37.89
378.266	-9.22
378.476	62.46
378.686	-27.65
378.897	60.42
379.107	89.09
379.317	44.03
379.528	-21.5
379.738	52.22
379.948	17.41
380.158	62.46
380.369	46.08
380.579	31.74
380.789	62.46
380.999	-3.07
381.21	64.51
381.42	66.56
381.63	9.22
381.84	105.47
382.05	-19.46
382.261	37.89
382.471	95.23
382.681	17.41
382.891	48.13
383.101	70.65
383.311	-21.5
383.521	-5.12
383.731	-13.31
383.941	35.84
384.151	23.55
384.361	25.6
384.571	121.85
384.781	15.36
384.991	103.42
385.201	60.42
385.411	93.18
385.621	-11.26
385.831	54.27
386.041	78.85
386.251	64.51
386.461	72.7
386.671	78.85
386.881	78.85
387.091	-1.02
387.301	56.32
387.511	66.56
387.72	109.57
387.93	84.99
388.14	39.94
388.35	46.08
388.56	48.13
388.769	48.13
388.979	60.42
389.189	-19.46
389.399	76.8
389.609	35.84
389.818	101.37
390.028	84.99
390.238	60.42
390.447	11.26
390.657	15.36
390.867	54.27
391.076	-56.32
391.286	125.95
391.496	48.13
391.705	11.26
391.915	-37.89
392.125	44.03
392.334	3.07
392.544	91.13
392.753	101.37
392.963	-46.08
393.172	9.22
393.382	-17.41
393.591	72.7
393.801	23.55
394.01	95.23
394.22	111.61
394.429	11.26
394.639	56.32
394.848	76.8
395.058	31.74
395.267	39.94
395.477	91.13
395.686	68.61
395.895	144.38
396.105	95.23
396.314	19.46
396.524	11.26
396.733	70.65
396.942	128
397.152	105.47
397.361	101.37
397.57	62.46
397.78	70.65
397.989	160.77
398.198	175.1
398.407	-21.5
398.617	117.76
398.826	76.8
399.035	136.19
399.244	99.33
399.453	19.46
399.663	44.03
399.872	121.85
400.081	21.5
400.29	23.55
400.499	111.61
400.708	37.89
400.917	72.7
401.127	136.19
401.336	99.33
401.545	99.33
401.754	109.57
401.963	111.61
402.172	39.94
402.381	119.81
402.59	91.13
402.799	91.13
403.008	103.42
403.217	89.09
403.426	60.42
403.635	144.38
403.844	140.29
404.053	144.38
404.262	87.04
404.471	191.49
404.68	78.85
404.888	119.81
405.097	64.51
405.306	84.99
405.515	191.49
405.724	50.18
405.933	166.91
406.142	136.19
406.35	216.06
406.559	162.81
406.768	187.39
406.977	177.15
407.185	134.14
407.394	199.68
407.603	87.04
407.812	166.91
408.02	248.83
408.229	136.19
408.438	236.54
408.646	175.1
408.855	211.96
409.064	283.64
409.272	201.72
409.481	320.51
409.69	236.54
409.898	297.98
410.107	332.79
410.315	330.75
410.524	193.53
410.733	244.73
410.941	297.98
411.15	291.84
411.358	371.71
411.567	338.94
411.775	324.6
411.984	379.9
412.192	398.33
412.401	330.75
412.609	375.8
412.818	427
413.026	386.04
413.234	478.2
413.443	396.28
413.651	472.06
413.86	519.16
414.068	558.07
414.276	527.35
414.485	537.59
414.693	617.46
414.901	476.15
415.11	623.61
415.318	578.55
415.526	535.54
415.734	644.09
415.943	707.57
416.151	705.53
416.359	691.19
416.567	834.55
416.776	791.54
416.984	848.88
417.192	838.64
417.4	855.03
417.608	834.55
417.817	916.47
418.025	973.81
418.233	996.34
418.441	1020.91
418.649	1059.82
418.857	1096.69
419.065	1190.89
419.273	1137.65
419.481	1233.9
419.689	1229.81
419.897	1262.57
420.105	1350.64
420.313	1301.48
420.521	1338.35
420.729	1534.95
420.937	1403.88
421.145	1616.87
421.353	1565.67
421.561	1706.98
421.769	1678.31
421.977	1833.96
422.185	1846.24
422.393	1893.35
422.601	1919.97
422.809	2036.7
423.017	1952.74
423.224	2272.22
423.432	2259.93
423.64	2186.21
423.848	2268.13
424.056	2233.31
424.263	2442.2
424.471	2452.44
424.679	2657.24
424.887	2651.1
425.094	2802.65
425.302	2806.74
425.51	2796.5
425.718	2919.38
425.925	3115.98
426.133	3058.64
426.341	3271.63
426.548	3363.79
426.756	3349.45
426.964	3445.71
427.171	3662.79
427.379	3779.53
427.586	3765.19
427.794	3888.07
428.001	4092.87
428.209	4316.09
428.417	4139.97
428.624	4402.11
428.832	4391.87
429.039	4363.2
429.247	4393.92
429.454	4826.04
429.662	5149.62
429.869	4885.43
430.076	5016.5
430.284	5032.88
430.491	5360.56
430.699	5452.72
430.906	5569.45
431.114	5598.12
431.321	5745.58
431.528	5909.41
431.736	6298.53
431.943	6376.35
432.15	6503.32
432.358	6523.8
432.565	6982.55
432.772	6753.18
432.979	7119.76
433.187	7381.9
433.394	7275.41
433.601	7875.46
433.808	8018.82
434.016	7789.45
434.223	8246.15
434.43	8661.88
434.637	8409.98
434.844	8754.04
435.052	9239.41
435.259	9067.38
435.466	9153.4
435.673	8907.64
435.88	9644.91
436.087	10161
436.294	10150.76
436.501	9786.22
436.708	9982.82
436.915	10335.07
437.122	10920.79
437.329	11117.4
437.537	11092.82
437.743	11391.83
437.95	11287.38
438.157	12016.46
438.364	12348.23
438.571	12286.79
438.778	12243.78
438.985	13263.67
439.192	12976.95
439.399	13396.79
439.606	13079.35
439.813	13804.33
440.02	14709.54
440.227	14471.97
440.433	14209.83
440.64	14633.76
440.847	14674.72
441.054	14832.41
441.261	16083.72
441.467	15766.29
441.674	15903.5
441.881	16706.31
442.088	16646.91
442.294	16378.63
442.501	16798.46
442.708	17187.58
442.914	17855.22
443.121	18393.83
443.328	18146.03
443.534	19374.81
443.741	18627.3
443.948	18285.29
444.154	19761.87
444.361	19661.52
444.568	19860.18
444.774	19632.85
444.981	20282.06
445.187	20460.23
445.394	21643.96
445.6	21189.31
445.807	23517.85
446.013	22385.32
446.22	22733.48
446.426	23620.25
446.633	23728.79
446.839	24474.25
447.046	23513.75
447.252	24865.41
447.459	24871.56
447.665	25211.52
447.871	25690.74
448.078	27241.06
448.284	25510.52
448.491	26544.75
448.697	27193.95
448.903	28232.27
449.11	28412.49
449.316	27662.94
449.522	28021.33
449.728	28729.93
449.935	29325.89
450.141	29026.89
450.347	29747.77
450.553	28719.69
450.76	29387.33
450.966	30085.68
451.172	29766.2
451.378	30704.17
451.584	29991.48
451.791	30730.8
451.997	30630.44
452.203	31070.76
452.409	31293.99
452.615	31013.41
452.821	30040.63
453.027	29764.15
453.233	31306.27
453.44	30102.07
453.646	30548.53
453.852	30581.29
454.058	30888.49
454.264	30040.63
454.47	30775.85
454.676	30003.77
454.882	31175.2
455.088	28834.38
455.294	29006.41
455.5	29588.03
455.705	29780.54
455.911	28144.21
456.117	27714.14
456.323	27677.27
456.529	26255.98
456.735	27073.12
456.941	26804.84
457.147	26432.11
457.352	25549.43
457.558	25420.41
457.764	25246.33
457.97	24883.84
458.176	24421
458.381	24504.97
458.587	23186.08
458.793	23274.14
458.999	22088.37
459.204	23673.49
459.41	22813.35
459.616	21373.63
459.821	21174.97
460.027	21336.76
460.233	20966.08
460.438	20198.09
460.644	20280.01
460.85	19233.5
461.055	18809.57
461.261	18963.17
461.466	17378.04
461.672	16919.29
461.878	18189.03
462.083	17085.18
462.289	16683.78
462.494	16468.74
462.7	15909.65
462.905	15354.65
463.111	15747.86
463.316	15870.73
463.522	15600.4
463.727	15627.03
463.932	15672.08
464.138	15110.94
464.343	15190.81
464.549	14897.95
464.754	15528.72
464.959	15510.29
465.165	15043.35
465.37	14457.64
465.575	14226.21
465.781	14816.03
465.986	14856.99
466.191	14168.87
466.397	14068.52
466.602	13284.15
466.807	14027.56
467.012	13955.88
467.218	13738.8
