Data from USB4F104151__293__14-46-29-273.txt Node

Date: Thu Mar 13 14:46:29 EDT 2025
User: louis
Spectrometer: USB4F10415
Trigger mode: 4
Integration Time (sec): 2.000000E-2
Scans to average: 1
Electric dark correction enabled: true
Nonlinearity correction enabled: false
Boxcar width: 0
XAxis mode: Wavelengths
Number of Pixels in Spectrum: 3648
>>>>>Begin Spectral Data<<<<<
178.204	-133.63
178.424	-133.63
178.644	-133.63
178.864	-125.44
179.084	-72.19
179.304	3.58
179.524	1.54
179.744	-0.51
179.964	32.26
180.184	-27.14
180.404	-20.99
180.624	-2.56
180.844	3.58
181.064	-12.8
181.283	11.78
181.503	-12.8
181.723	24.06
181.943	-35.33
182.163	65.02
182.383	-20.99
182.602	40.45
182.822	44.54
183.042	-10.75
183.262	50.69
183.482	-27.14
183.701	1.54
183.921	-25.09
184.141	-4.61
184.361	24.06
184.58	-12.8
184.8	19.97
185.02	-2.56
185.239	42.5
185.459	54.78
185.679	85.5
185.898	-29.18
186.118	44.54
186.338	13.82
186.557	87.55
186.777	-35.33
186.997	3.58
187.216	46.59
187.436	5.63
187.655	56.83
187.875	196.09
188.095	-4.61
188.314	52.74
188.534	-12.8
188.753	3.58
188.973	60.93
189.192	56.83
189.412	40.45
189.631	-0.51
189.851	79.36
190.07	126.46
190.29	7.68
190.509	15.87
190.729	-4.61
190.948	30.21
191.168	124.41
191.387	85.5
191.607	1.54
191.826	-51.71
192.045	-23.04
192.265	46.59
192.484	65.02
192.704	120.32
192.923	-35.33
193.142	50.69
193.362	54.78
193.581	69.12
193.8	60.93
194.02	62.98
194.239	5.63
194.458	36.35
194.678	-86.53
194.897	15.87
195.116	60.93
195.335	62.98
195.555	24.06
195.774	83.45
195.993	36.35
196.212	-8.7
196.432	46.59
196.651	-0.51
196.87	60.93
197.089	81.41
197.308	9.73
197.528	19.97
197.747	9.73
197.966	73.21
198.185	62.98
198.404	-4.61
198.623	19.97
198.842	19.97
199.062	36.35
199.281	60.93
199.5	44.54
199.719	13.82
199.938	11.78
200.157	52.74
200.376	85.5
200.595	5.63
200.814	73.21
201.033	-37.38
201.252	71.17
201.471	19.97
201.69	36.35
201.909	-16.9
202.128	22.02
202.347	97.79
202.566	-25.09
202.785	11.78
203.004	-6.66
203.223	62.98
203.442	52.74
203.661	-12.8
203.879	-14.85
204.098	9.73
204.317	52.74
204.536	52.74
204.755	28.16
204.974	101.89
205.193	40.45
205.411	24.06
205.63	52.74
205.849	52.74
206.068	32.26
206.287	5.63
206.505	28.16
206.724	38.4
206.943	19.97
207.162	69.12
207.381	48.64
207.599	13.82
207.818	34.3
208.037	56.83
208.255	11.78
208.474	3.58
208.693	-12.8
208.911	5.63
209.13	91.65
209.349	52.74
209.567	-18.94
209.786	58.88
210.005	-10.75
210.223	32.26
210.442	11.78
210.661	15.87
210.879	-20.99
211.098	36.35
211.316	52.74
211.535	-12.8
211.753	91.65
211.972	40.45
212.191	28.16
212.409	-4.61
212.628	19.97
212.846	11.78
213.065	-20.99
213.283	22.02
213.502	11.78
213.72	130.56
213.938	24.06
214.157	15.87
214.375	-18.94
214.594	13.82
214.812	69.12
215.031	32.26
215.249	-10.75
215.467	54.78
215.686	46.59
215.904	73.21
216.122	46.59
216.341	56.83
216.559	-0.51
216.778	-18.94
216.996	54.78
217.214	52.74
217.432	44.54
217.651	19.97
217.869	-12.8
218.087	28.16
218.306	60.93
218.524	11.78
218.742	30.21
218.96	44.54
219.179	-25.09
219.397	42.5
219.615	30.21
219.833	52.74
220.051	-16.9
220.27	138.75
220.488	-0.51
220.706	5.63
220.924	13.82
221.142	36.35
221.36	-33.28
221.578	71.17
221.796	56.83
222.015	95.74
222.233	65.02
222.451	87.55
222.669	75.26
222.887	48.64
223.105	48.64
223.323	-27.14
223.541	60.93
223.759	30.21
223.977	-4.61
224.195	19.97
224.413	-16.9
224.631	30.21
224.849	75.26
225.067	28.16
225.285	28.16
225.503	7.68
225.721	-37.38
225.939	-29.18
226.157	62.98
226.375	110.08
226.592	-39.42
226.81	40.45
227.028	19.97
227.246	151.04
227.464	69.12
227.682	58.88
227.9	24.06
228.117	-37.38
228.335	11.78
228.553	-14.85
228.771	73.21
228.989	38.4
229.206	9.73
229.424	-14.85
229.642	38.4
229.86	-6.66
230.077	52.74
230.295	46.59
230.513	36.35
230.731	38.4
230.948	30.21
231.166	48.64
231.384	22.02
231.601	26.11
231.819	89.6
232.037	-4.61
232.254	69.12
232.472	85.5
232.689	38.4
232.907	52.74
233.125	77.31
233.342	3.58
233.56	22.02
233.777	50.69
233.995	-76.29
234.213	69.12
234.43	122.37
234.648	32.26
234.865	50.69
235.083	15.87
235.3	-43.52
235.518	15.87
235.735	95.74
235.953	69.12
236.17	62.98
236.388	46.59
236.605	7.68
236.822	56.83
237.04	67.07
237.257	81.41
237.475	-12.8
237.692	77.31
237.909	13.82
238.127	-27.14
238.344	-4.61
238.562	-4.61
238.779	3.58
238.996	36.35
239.214	40.45
239.431	101.89
239.648	5.63
239.865	-14.85
240.083	24.06
240.3	46.59
240.517	28.16
240.735	17.92
240.952	93.69
241.169	28.16
241.386	52.74
241.603	-12.8
241.821	36.35
242.038	69.12
242.255	13.82
242.472	13.82
242.689	48.64
242.907	126.46
243.124	30.21
243.341	-23.04
243.558	-2.56
243.775	32.26
243.992	-12.8
244.209	71.17
244.426	91.65
244.643	87.55
244.86	-55.81
245.078	69.12
245.295	-53.76
245.512	34.3
245.729	-20.99
245.946	9.73
246.163	69.12
246.38	30.21
246.597	83.45
246.814	36.35
247.031	77.31
247.248	112.13
247.464	7.68
247.681	69.12
247.898	89.6
248.115	30.21
248.332	69.12
248.549	32.26
248.766	99.84
248.983	22.02
249.2	9.73
249.417	-20.99
249.633	28.16
249.85	-14.85
250.067	-27.14
250.284	48.64
250.501	-12.8
250.717	30.21
250.934	44.54
251.151	105.98
251.368	34.3
251.585	40.45
251.801	30.21
252.018	15.87
252.235	-10.75
252.451	-70.14
252.668	11.78
252.885	-25.09
253.102	83.45
253.318	-8.7
253.535	13.82
253.752	54.78
253.968	3.58
254.185	3.58
254.401	93.69
254.618	62.98
254.835	54.78
255.051	73.21
255.268	15.87
255.484	-37.38
255.701	34.3
255.917	65.02
256.134	15.87
256.351	-10.75
256.567	38.4
256.784	83.45
257	-49.66
257.217	11.78
257.433	56.83
257.65	30.21
257.866	40.45
258.082	-0.51
258.299	-4.61
258.515	36.35
258.732	-45.57
258.948	-41.47
259.165	-16.9
259.381	-23.04
259.597	52.74
259.814	24.06
260.03	-33.28
260.246	17.92
260.463	46.59
260.679	103.93
260.895	17.92
261.112	44.54
261.328	52.74
261.544	28.16
261.761	69.12
261.977	22.02
262.193	3.58
262.409	60.93
262.626	-4.61
262.842	-45.57
263.058	5.63
263.274	73.21
263.49	44.54
263.707	56.83
263.923	-12.8
264.139	-35.33
264.355	30.21
264.571	83.45
264.787	54.78
265.004	42.5
265.22	34.3
265.436	71.17
265.652	103.93
265.868	13.82
266.084	11.78
266.3	1.54
266.516	-25.09
266.732	81.41
266.948	19.97
267.164	110.08
267.38	40.45
267.596	85.5
267.812	134.65
268.028	7.68
268.244	36.35
268.46	75.26
268.676	26.11
268.892	11.78
269.108	-20.99
269.324	-92.67
269.54	38.4
269.756	75.26
269.972	44.54
270.188	-6.66
270.403	40.45
270.619	54.78
270.835	28.16
271.051	89.6
271.267	30.21
271.483	56.83
271.698	38.4
271.914	48.64
272.13	7.68
272.346	60.93
272.562	-12.8
272.777	52.74
272.993	-12.8
273.209	69.12
273.425	40.45
273.64	30.21
273.856	101.89
274.072	28.16
274.287	87.55
274.503	36.35
274.719	75.26
274.934	77.31
275.15	-29.18
275.366	54.78
275.581	-14.85
275.797	38.4
276.012	38.4
276.228	19.97
276.444	11.78
276.659	34.3
276.875	-45.57
277.09	73.21
277.306	1.54
277.521	9.73
277.737	3.58
277.952	44.54
278.168	42.5
278.383	73.21
278.599	60.93
278.814	-27.14
279.03	-14.85
279.245	56.83
279.461	38.4
279.676	62.98
279.892	5.63
280.107	24.06
280.322	-41.47
280.538	24.06
280.753	-43.52
280.969	75.26
281.184	28.16
281.399	71.17
281.615	19.97
281.83	3.58
282.045	-25.09
282.26	77.31
282.476	-12.8
282.691	65.02
282.906	40.45
283.122	19.97
283.337	-66.05
283.552	97.79
283.767	36.35
283.983	103.93
284.198	42.5
284.413	60.93
284.628	-8.7
284.843	19.97
285.058	-4.61
285.274	87.55
285.489	52.74
285.704	81.41
285.919	56.83
286.134	28.16
286.349	-4.61
286.564	50.69
286.779	60.93
286.995	32.26
287.21	48.64
287.425	-16.9
287.64	128.51
287.855	13.82
288.07	-82.43
288.285	11.78
288.5	3.58
288.715	60.93
288.93	-25.09
289.145	36.35
289.36	40.45
289.575	85.5
289.79	54.78
290.004	60.93
290.219	44.54
290.434	44.54
290.649	-76.29
290.864	38.4
291.079	71.17
291.294	48.64
291.509	48.64
291.724	50.69
291.938	-18.94
292.153	38.4
292.368	19.97
292.583	77.31
292.798	-43.52
293.012	42.5
293.227	48.64
293.442	19.97
293.657	79.36
293.871	54.78
294.086	52.74
294.301	97.79
294.516	118.27
294.73	36.35
294.945	-25.09
295.16	28.16
295.374	-8.7
295.589	11.78
295.804	13.82
296.018	24.06
296.233	-29.18
296.447	19.97
296.662	-16.9
296.877	44.54
297.091	22.02
297.306	67.07
297.52	73.21
297.735	15.87
297.949	48.64
298.164	-10.75
298.378	24.06
298.593	15.87
298.807	-0.51
299.022	19.97
299.236	81.41
299.451	-0.51
299.665	-49.66
299.88	11.78
300.094	46.59
300.309	5.63
300.523	52.74
300.737	85.5
300.952	22.02
301.166	19.97
301.381	24.06
301.595	11.78
301.809	-4.61
302.024	48.64
302.238	19.97
302.452	110.08
302.667	38.4
302.881	46.59
303.095	56.83
303.309	36.35
303.524	-29.18
303.738	48.64
303.952	-6.66
304.166	7.68
304.381	-49.66
304.595	110.08
304.809	9.73
305.023	93.69
305.237	15.87
305.452	-66.05
305.666	28.16
305.88	36.35
306.094	-12.8
306.308	75.26
306.522	28.16
306.736	134.65
306.95	22.02
307.164	44.54
307.379	-66.05
307.593	54.78
307.807	32.26
308.021	-43.52
308.235	60.93
308.449	1.54
308.663	46.59
308.877	91.65
309.091	48.64
309.305	44.54
309.519	-37.38
309.733	56.83
309.947	-0.51
310.161	54.78
310.374	-0.51
310.588	48.64
310.802	-27.14
311.016	65.02
311.23	9.73
311.444	-16.9
311.658	48.64
311.872	93.69
312.085	126.46
312.299	85.5
312.513	-8.7
312.727	38.4
312.941	5.63
313.154	-12.8
313.368	13.82
313.582	36.35
313.796	32.26
314.009	52.74
314.223	-39.42
314.437	58.88
314.651	-4.61
314.864	-49.66
315.078	13.82
315.292	46.59
315.505	7.68
315.719	77.31
315.933	15.87
316.146	-10.75
316.36	28.16
316.573	60.93
316.787	30.21
317.001	58.88
317.214	-61.95
317.428	65.02
317.641	79.36
317.855	32.26
318.068	-35.33
318.282	83.45
318.495	22.02
318.709	11.78
318.922	42.5
319.136	60.93
319.349	73.21
319.563	5.63
319.776	11.78
319.99	-2.56
320.203	42.5
320.417	5.63
320.63	26.11
320.843	69.12
321.057	60.93
321.27	52.74
321.483	19.97
321.697	11.78
321.91	32.26
322.124	65.02
322.337	44.54
322.55	-12.8
322.763	65.02
322.977	-33.28
323.19	17.92
323.403	73.21
323.617	46.59
323.83	62.98
324.043	13.82
324.256	40.45
324.469	-53.76
324.683	34.3
324.896	-8.7
325.109	-8.7
325.322	3.58
325.535	42.5
325.748	48.64
325.962	9.73
326.175	24.06
326.388	69.12
326.601	120.32
326.814	28.16
327.027	17.92
327.24	71.17
327.453	-25.09
327.666	65.02
327.879	28.16
328.092	85.5
328.305	-14.85
328.518	22.02
328.731	69.12
328.944	46.59
329.157	118.27
329.37	19.97
329.583	85.5
329.796	42.5
330.009	19.97
330.222	44.54
330.435	34.3
330.648	85.5
330.861	42.5
331.073	-12.8
331.286	62.98
331.499	48.64
331.712	3.58
331.925	60.93
332.138	44.54
332.35	19.97
332.563	-37.38
332.776	103.93
332.989	-41.47
333.202	75.26
333.414	69.12
333.627	71.17
333.84	3.58
334.053	28.16
334.265	3.58
334.478	67.07
334.691	65.02
334.903	79.36
335.116	-33.28
335.329	5.63
335.541	77.31
335.754	69.12
335.966	36.35
336.179	83.45
336.392	-12.8
336.604	24.06
336.817	87.55
337.029	-4.61
337.242	65.02
337.454	85.5
337.667	34.3
337.88	128.51
338.092	3.58
338.305	28.16
338.517	-27.14
338.729	77.31
338.942	77.31
339.154	-20.99
339.367	62.98
339.579	19.97
339.792	-10.75
340.004	101.89
340.217	36.35
340.429	40.45
340.641	54.78
340.854	15.87
341.066	38.4
341.278	52.74
341.491	60.93
341.703	9.73
341.915	28.16
342.128	120.32
342.34	85.5
342.552	5.63
342.764	38.4
342.977	-4.61
343.189	36.35
343.401	11.78
343.613	-2.56
343.826	44.54
344.038	13.82
344.25	81.41
344.462	24.06
344.674	54.78
344.886	38.4
345.099	105.98
345.311	87.55
345.523	-2.56
345.735	-2.56
345.947	122.37
346.159	-12.8
346.371	52.74
346.583	-10.75
346.795	19.97
347.007	69.12
347.219	-18.94
347.431	-8.7
347.643	9.73
347.855	30.21
348.067	52.74
348.279	-27.14
348.491	-18.94
348.703	28.16
348.915	36.35
349.127	48.64
349.339	17.92
349.551	1.54
349.763	15.87
349.975	32.26
350.187	97.79
350.399	89.6
350.61	118.27
350.822	60.93
351.034	28.16
351.246	22.02
351.458	48.64
351.669	-35.33
351.881	19.97
352.093	13.82
352.305	67.07
352.517	77.31
352.728	73.21
352.94	30.21
353.152	69.12
353.363	19.97
353.575	77.31
353.787	87.55
353.999	-35.33
354.21	71.17
354.422	42.5
354.633	36.35
354.845	11.78
355.057	28.16
355.268	54.78
355.48	46.59
355.692	1.54
355.903	-18.94
356.115	7.68
356.326	-33.28
356.538	50.69
356.749	40.45
356.961	44.54
357.172	85.5
357.384	24.06
357.595	175.61
357.807	-10.75
358.018	60.93
358.23	-12.8
358.441	79.36
358.653	48.64
358.864	-18.94
359.075	3.58
359.287	15.87
359.498	11.78
359.709	75.26
359.921	-29.18
360.132	67.07
360.344	69.12
360.555	60.93
360.766	-8.7
360.977	-0.51
361.189	30.21
361.4	36.35
361.611	28.16
361.823	-20.99
362.034	32.26
362.245	-92.67
362.456	3.58
362.667	65.02
362.879	79.36
363.09	36.35
363.301	22.02
363.512	-16.9
363.723	-59.9
363.935	-49.66
364.146	71.17
364.357	7.68
364.568	79.36
364.779	75.26
364.99	122.37
365.201	5.63
365.412	75.26
365.623	36.35
365.834	163.33
366.045	38.4
366.256	153.09
366.467	93.69
366.678	-14.85
366.889	19.97
367.1	3.58
367.311	-20.99
367.522	40.45
367.733	85.5
367.944	60.93
368.155	26.11
368.366	22.02
368.577	77.31
368.788	30.21
368.999	5.63
369.209	54.78
369.42	75.26
369.631	97.79
369.842	101.89
370.053	112.13
370.264	19.97
370.474	120.32
370.685	32.26
370.896	-29.18
371.107	144.89
371.317	52.74
371.528	48.64
371.739	52.74
371.95	32.26
372.16	101.89
372.371	-29.18
372.582	87.55
372.792	71.17
373.003	77.31
373.214	3.58
373.424	77.31
373.635	19.97
373.846	122.37
374.056	-4.61
374.267	44.54
374.477	65.02
374.688	38.4
374.898	7.68
375.109	132.61
375.319	11.78
375.53	3.58
375.74	38.4
375.951	1.54
376.161	7.68
376.372	126.46
376.582	19.97
376.793	89.6
377.003	52.74
377.214	40.45
377.424	11.78
377.635	15.87
377.845	48.64
378.055	128.51
378.266	13.82
378.476	-8.7
378.686	44.54
378.897	11.78
379.107	36.35
379.317	79.36
379.528	44.54
379.738	71.17
379.948	32.26
380.158	85.5
380.369	73.21
380.579	93.69
380.789	13.82
380.999	60.93
381.21	48.64
381.42	44.54
381.63	77.31
381.84	50.69
382.05	7.68
382.261	56.83
382.471	-25.09
382.681	-37.38
382.891	120.32
383.101	52.74
383.311	-4.61
383.521	3.58
383.731	69.12
383.941	142.85
384.151	5.63
384.361	101.89
384.571	83.45
384.781	60.93
384.991	91.65
385.201	138.75
385.411	110.08
385.621	48.64
385.831	77.31
386.041	85.5
386.251	-59.9
386.461	46.59
386.671	75.26
386.881	69.12
387.091	50.69
387.301	19.97
387.511	62.98
387.72	40.45
387.93	32.26
388.14	46.59
388.35	73.21
388.56	-4.61
388.769	42.5
388.979	77.31
389.189	3.58
389.399	36.35
389.609	60.93
389.818	36.35
390.028	28.16
390.238	44.54
390.447	22.02
390.657	114.17
390.867	-35.33
391.076	118.27
391.286	85.5
391.496	44.54
391.705	38.4
391.915	93.69
392.125	69.12
392.334	112.13
392.544	69.12
392.753	73.21
392.963	13.82
393.172	19.97
393.382	-59.9
393.591	77.31
393.801	73.21
394.01	44.54
394.22	28.16
394.429	52.74
394.639	-4.61
394.848	44.54
395.058	38.4
395.267	56.83
395.477	101.89
395.686	42.5
395.895	144.89
396.105	54.78
396.314	118.27
396.524	87.55
396.733	11.78
396.942	93.69
397.152	3.58
397.361	77.31
397.57	95.74
397.78	56.83
397.989	40.45
398.198	22.02
398.407	60.93
398.617	38.4
398.826	67.07
399.035	118.27
399.244	124.41
399.453	48.64
399.663	101.89
399.872	118.27
400.081	36.35
400.29	13.82
400.499	40.45
400.708	103.93
400.917	79.36
401.127	-2.56
401.336	-10.75
401.545	206.33
401.754	130.56
401.963	89.6
402.172	56.83
402.381	71.17
402.59	32.26
402.799	97.79
403.008	1.54
403.217	112.13
403.426	60.93
403.635	-16.9
403.844	54.78
404.053	103.93
404.262	24.06
404.471	103.93
404.68	126.46
404.888	69.12
405.097	65.02
405.306	87.55
405.515	52.74
405.724	112.13
405.933	103.93
406.142	120.32
406.35	103.93
406.559	67.07
406.768	148.99
406.977	151.04
407.185	183.81
407.394	132.61
407.603	124.41
407.812	62.98
408.02	177.66
408.229	192
408.438	99.84
408.646	101.89
408.855	177.66
409.064	192
409.272	146.94
409.481	136.7
409.69	101.89
409.898	192
410.107	140.8
410.315	175.61
410.524	116.22
410.733	194.05
410.941	245.24
411.15	204.28
411.358	239.1
411.567	218.62
411.775	275.96
411.984	245.24
412.192	200.19
412.401	196.09
412.609	306.68
412.818	282.11
413.026	325.12
413.234	249.34
413.443	282.11
413.651	269.82
413.86	249.34
414.068	339.45
414.276	351.74
414.485	343.55
414.693	308.73
414.901	409.08
415.11	306.68
415.318	417.27
415.526	388.6
415.734	505.34
415.943	531.96
416.151	411.13
416.359	374.27
416.567	409.08
416.776	478.71
416.984	513.53
417.192	493.05
417.4	470.52
417.608	472.57
417.817	429.56
418.025	599.54
418.233	634.36
418.441	601.59
418.649	527.86
418.857	642.55
419.065	773.62
419.273	613.88
419.481	601.59
419.689	740.85
419.897	699.89
420.105	798.2
420.313	833.01
420.521	726.52
420.729	814.58
420.937	933.36
421.145	835.06
421.353	923.12
421.561	996.85
421.769	996.85
421.977	933.36
422.185	1080.82
422.393	1117.68
422.601	1172.97
422.809	1101.3
423.017	1168.88
423.224	1267.18
423.432	1316.33
423.64	1242.61
423.848	1390.06
424.056	1283.56
424.263	1367.53
424.471	1471.98
424.679	1410.54
424.887	1482.22
425.094	1506.79
425.302	1486.31
425.51	1723.88
425.718	1578.47
425.925	1756.65
426.133	1830.37
426.341	1809.89
426.548	1842.66
426.756	1902.05
426.964	2037.22
427.171	2029.03
427.379	2151.9
427.586	2135.52
427.794	2276.83
428.001	2276.83
428.209	2440.67
428.417	2330.08
428.624	2471.39
428.832	2567.64
429.039	2545.11
429.247	2545.11
429.454	2764.25
429.662	3053.01
429.869	2854.36
430.076	2958.8
430.284	2971.09
430.491	2919.89
430.699	3358.16
430.906	3126.74
431.114	3222.99
431.321	3423.69
431.528	3356.11
431.736	3677.64
431.943	3788.23
432.15	3648.97
432.358	3784.13
432.565	3986.88
432.772	3882.44
432.979	4087.23
433.187	4191.68
433.394	4171.2
433.601	4457.92
433.808	4470.2
434.016	4517.31
434.223	4765.11
434.43	4861.37
434.637	4748.73
434.844	5117.36
435.052	5096.88
435.259	5139.89
435.466	5213.62
435.673	5248.43
435.88	5447.08
436.087	5762.47
436.294	5690.79
436.501	5445.04
436.708	5754.28
436.915	5977.51
437.122	6282.66
437.329	6108.58
437.537	6413.73
437.743	6372.77
437.95	6686.11
438.157	6778.26
438.364	7036.31
438.571	7044.5
438.778	6921.62
438.985	7832.97
439.192	7277.97
439.399	7431.57
439.606	7556.49
439.813	7798.15
440.02	8387.97
440.227	8351.1
440.433	8269.19
440.64	8347.01
440.847	8506.75
441.054	8416.64
441.261	9260.4
441.467	8863.1
441.674	9082.23
441.881	9491.82
442.088	9305.46
442.294	9252.21
442.501	9502.06
442.708	9899.37
442.914	10136.93
443.121	10360.16
443.328	10433.89
443.534	11060.57
443.741	10458.46
443.948	10515.81
444.154	11363.67
444.361	11269.46
444.568	11136.34
444.774	11464.02
444.981	11236.69
445.187	11773.26
445.394	12119.37
445.6	12201.29
445.807	13161.78
446.013	12897.6
446.22	13110.58
446.426	13565.23
446.633	13403.44
446.839	13923.63
447.046	13464.88
447.252	14261.54
447.459	14298.41
447.665	14052.65
447.871	14771.49
448.078	15293.72
448.284	14789.92
448.491	15072.54
448.697	15408.4
448.903	16196.87
449.11	16207.11
449.316	15854.86
449.522	16325.89
449.728	16571.65
449.935	16669.95
450.141	16569.6
450.347	17077.5
450.553	16239.88
450.76	16733.44
450.966	17491.19
451.172	16911.61
451.378	17431.8
451.584	17085.69
451.791	17407.22
451.997	17644.79
452.203	17798.38
452.409	18021.61
452.615	17593.59
452.821	17212.67
453.027	16940.29
453.233	18042.09
453.44	17161.47
453.646	17313.02
453.852	17485.05
454.058	17695.99
454.264	17104.12
454.47	17609.97
454.676	17255.67
454.882	17732.85
455.088	16141.58
455.294	16493.83
455.5	16987.39
455.705	16962.81
455.911	16112.91
456.117	16123.15
456.323	16170.25
456.529	15113.5
456.735	15664.4
456.941	15273.24
457.147	15019.29
457.352	14615.84
457.558	14370.08
457.764	14488.87
457.97	14234.92
458.176	13968.68
458.381	13890.86
458.587	13268.28
458.793	13237.56
458.999	12817.72
459.204	13475.12
459.41	13255.99
459.616	12217.67
459.821	12340.55
460.027	12254.53
460.233	12000.58
460.438	11433.3
460.644	11527.5
460.85	11062.62
461.055	10788.19
461.261	10722.65
461.466	9999.72
461.672	9725.29
461.878	10530.14
462.083	10001.77
462.289	9614.7
462.494	9385.33
462.7	9022.84
462.905	8893.82
463.111	9155.96
463.316	9194.87
463.522	9057.65
463.727	8916.34
463.932	8879.48
464.138	9018.74
464.343	8758.65
464.549	8594.81
464.754	8883.58
464.959	8887.67
465.165	8621.44
465.37	8408.45
465.575	8377.73
465.781	8652.16
465.986	8641.92
466.191	8162.69
466.397	8166.79
466.602	7624.08
466.807	8023.43
467.012	7857.54
467.218	7742.86
467.423	7818.63
467.628	7826.82
467.833	8193.41
468.038	7732.62
468.244	7753.1
468.449	8007.05
468.654	7699.85
468.859	7538.06
469.064	7603.6
