Data from USB4F104151__27__14-42-46-166.txt Node

Date: Thu Mar 13 14:42:46 EDT 2025
User: louis
Spectrometer: USB4F10415
Trigger mode: 4
Integration Time (sec): 2.000000E-2
Scans to average: 1
Electric dark correction enabled: true
Nonlinearity correction enabled: false
Boxcar width: 0
XAxis mode: Wavelengths
Number of Pixels in Spectrum: 3648
>>>>>Begin Spectral Data<<<<<
178.204	-54.61
178.424	-54.61
178.644	-54.61
178.864	-157.01
179.084	-85.33
179.304	6.83
179.524	-58.71
179.744	21.16
179.964	27.31
180.184	-15.7
180.404	37.55
180.624	-5.46
180.844	-38.23
181.064	-15.7
181.283	23.21
181.503	-25.94
181.723	43.69
181.943	-30.04
182.163	68.27
182.383	27.31
182.602	76.46
182.822	78.51
183.042	66.22
183.262	43.69
183.482	-3.41
183.701	4.78
183.921	21.16
184.141	4.78
184.361	60.07
184.58	12.97
184.8	76.46
185.02	43.69
185.239	107.18
185.459	88.75
185.679	12.97
185.898	-1.37
186.118	113.32
186.338	80.55
186.557	-1.37
186.777	62.12
186.997	10.92
187.216	68.27
187.436	-3.41
187.655	62.12
187.875	39.59
188.095	2.73
188.314	60.07
188.534	37.55
188.753	53.93
188.973	10.92
189.192	105.13
189.412	17.07
189.631	19.11
189.851	76.46
190.07	78.51
190.29	-27.99
190.509	62.12
190.729	53.93
190.948	92.84
191.168	137.9
191.387	6.83
191.607	8.87
191.826	27.31
192.045	10.92
192.265	6.83
192.484	-17.75
192.704	43.69
192.923	-85.33
193.142	103.08
193.362	103.08
193.581	68.27
193.8	64.17
194.02	10.92
194.239	-9.56
194.458	2.73
194.678	43.69
194.897	-38.23
195.116	37.55
195.335	21.16
195.555	103.08
195.774	76.46
195.993	82.6
196.212	6.83
196.432	39.59
196.651	-44.37
196.87	0.68
197.089	139.94
197.308	43.69
197.528	76.46
197.747	-58.71
197.966	43.69
198.185	105.13
198.404	70.31
198.623	12.97
198.842	105.13
199.062	43.69
199.281	148.14
199.5	-36.18
199.719	68.27
199.938	25.26
200.157	80.55
200.376	64.17
200.595	105.13
200.814	2.73
201.033	84.65
201.252	60.07
201.471	-11.61
201.69	12.97
201.909	27.31
202.128	29.35
202.347	0.68
202.566	43.69
202.785	86.7
203.004	-13.65
203.223	76.46
203.442	35.5
203.661	129.7
203.879	17.07
204.098	2.73
204.317	45.74
204.536	43.69
204.755	19.11
204.974	2.73
205.193	-25.94
205.411	125.61
205.63	115.37
205.849	68.27
206.068	-36.18
206.287	51.88
206.505	94.89
206.724	-11.61
206.943	51.88
207.162	43.69
207.381	27.31
207.599	12.97
207.818	101.03
208.037	12.97
208.255	60.07
208.474	47.79
208.693	31.4
208.911	35.5
209.13	2.73
209.349	43.69
209.567	105.13
209.786	37.55
210.005	35.5
210.223	60.07
210.442	10.92
210.661	94.89
210.879	12.97
211.098	-5.46
211.316	31.4
211.535	62.12
211.753	51.88
211.972	4.78
212.191	82.6
212.409	-9.56
212.628	53.93
212.846	53.93
213.065	78.51
213.283	76.46
213.502	21.16
213.72	29.35
213.938	47.79
214.157	-21.85
214.375	6.83
214.594	0.68
214.812	84.65
215.031	10.92
215.249	35.5
215.467	29.35
215.686	74.41
215.904	125.61
216.122	-44.37
216.341	51.88
216.559	94.89
216.778	98.99
216.996	47.79
217.214	-15.7
217.432	6.83
217.651	27.31
217.869	23.21
218.087	72.36
218.306	49.83
218.524	47.79
218.742	-5.46
218.96	23.21
219.179	10.92
219.397	10.92
219.615	94.89
219.833	78.51
220.051	47.79
220.27	72.36
220.488	-1.37
220.706	101.03
220.924	-44.37
221.142	-5.46
221.36	8.87
221.578	80.55
221.796	64.17
222.015	4.78
222.233	29.35
222.451	45.74
222.669	-3.41
222.887	80.55
223.105	-30.04
223.323	66.22
223.541	64.17
223.759	62.12
223.977	68.27
224.195	-30.04
224.413	92.84
224.631	86.7
224.849	45.74
225.067	80.55
225.285	72.36
225.503	76.46
225.721	43.69
225.939	80.55
226.157	21.16
226.375	119.46
226.592	31.4
226.81	-13.65
227.028	-19.8
227.246	39.59
227.464	72.36
227.682	33.45
227.9	53.93
228.117	45.74
228.335	-3.41
228.553	29.35
228.771	-7.51
228.989	51.88
229.206	129.7
229.424	-34.13
229.642	53.93
229.86	45.74
230.077	10.92
230.295	-5.46
230.513	31.4
230.731	133.8
230.948	-19.8
231.166	103.08
231.384	35.5
231.601	25.26
231.819	92.84
232.037	4.78
232.254	-3.41
232.472	29.35
232.689	4.78
232.907	117.42
233.125	27.31
233.342	64.17
233.56	-21.85
233.777	-44.37
233.995	43.69
234.213	29.35
234.43	47.79
234.648	60.07
234.865	45.74
235.083	53.93
235.3	58.03
235.518	60.07
235.735	90.79
235.953	86.7
236.17	29.35
236.388	-19.8
236.605	21.16
236.822	35.5
237.04	78.51
237.257	35.5
237.475	-36.18
237.692	58.03
237.909	19.11
238.127	-13.65
238.344	-38.23
238.562	64.17
238.779	25.26
238.996	4.78
239.214	12.97
239.431	-17.75
239.648	27.31
239.865	2.73
240.083	29.35
240.3	51.88
240.517	-30.04
240.735	-5.46
240.952	60.07
241.169	62.12
241.386	107.18
241.603	27.31
241.821	2.73
242.038	66.22
242.255	-11.61
242.472	88.75
242.689	78.51
242.907	-27.99
243.124	12.97
243.341	-34.13
243.558	21.16
243.775	-3.41
243.992	-3.41
244.209	39.59
244.426	62.12
244.643	70.31
244.86	4.78
245.078	74.41
245.295	6.83
245.512	31.4
245.729	-5.46
245.946	29.35
246.163	47.79
246.38	15.02
246.597	23.21
246.814	-27.99
247.031	29.35
247.248	60.07
247.464	21.16
247.681	-36.18
247.898	111.27
248.115	29.35
248.332	-54.61
248.549	78.51
248.766	21.16
248.983	53.93
249.2	51.88
249.417	76.46
249.633	17.07
249.85	-3.41
250.067	-56.66
250.284	76.46
250.501	60.07
250.717	103.08
250.934	-30.04
251.151	6.83
251.368	96.94
251.585	62.12
251.801	4.78
252.018	62.12
252.235	111.27
252.451	37.55
252.668	84.65
252.885	39.59
253.102	96.94
253.318	68.27
253.535	-56.66
253.752	23.21
253.968	37.55
254.185	51.88
254.401	-3.41
254.618	37.55
254.835	-21.85
255.051	19.11
255.268	10.92
255.484	72.36
255.701	41.64
255.917	45.74
256.134	-46.42
256.351	68.27
256.567	60.07
256.784	21.16
257	-52.56
257.217	47.79
257.433	39.59
257.65	43.69
257.866	17.07
258.082	-30.04
258.299	35.5
258.515	19.11
258.732	68.27
258.948	35.5
259.165	82.6
259.381	51.88
259.597	76.46
259.814	51.88
260.03	111.27
260.246	2.73
260.463	6.83
260.679	78.51
260.895	51.88
261.112	60.07
261.328	113.32
261.544	-50.52
261.761	27.31
261.977	109.22
262.193	47.79
262.409	-9.56
262.626	-1.37
262.842	80.55
263.058	-5.46
263.274	45.74
263.49	60.07
263.707	78.51
263.923	4.78
264.139	25.26
264.355	19.11
264.571	117.42
264.787	49.83
265.004	101.03
265.22	0.68
265.436	4.78
265.652	8.87
265.868	62.12
266.084	53.93
266.3	27.31
266.516	-3.41
266.732	19.11
266.948	70.31
267.164	60.07
267.38	-3.41
267.596	86.7
267.812	76.46
268.028	45.74
268.244	-27.99
268.46	64.17
268.676	58.03
268.892	68.27
269.108	-17.75
269.324	-17.75
269.54	92.84
269.756	117.42
269.972	12.97
270.188	60.07
270.403	37.55
270.619	21.16
270.835	39.59
271.051	51.88
271.267	19.11
271.483	43.69
271.698	74.41
271.914	72.36
272.13	-17.75
272.346	60.07
272.562	23.21
272.777	141.99
272.993	25.26
273.209	62.12
273.425	76.46
273.64	-5.46
273.856	29.35
274.072	68.27
274.287	-13.65
274.503	53.93
274.719	37.55
274.934	-58.71
275.15	-27.99
275.366	27.31
275.581	-3.41
275.797	94.89
276.012	39.59
276.228	2.73
276.444	84.65
276.659	76.46
276.875	-40.28
277.09	35.5
277.306	17.07
277.521	68.27
277.737	27.31
277.952	101.03
278.168	90.79
278.383	119.46
278.599	49.83
278.814	74.41
279.03	45.74
279.245	27.31
279.461	-27.99
279.676	133.8
279.892	4.78
280.107	86.7
280.322	-3.41
280.538	51.88
280.753	-13.65
280.969	19.11
281.184	55.98
281.399	96.94
281.615	-1.37
281.83	15.02
282.045	-17.75
282.26	-44.37
282.476	39.59
282.691	-1.37
282.906	-62.8
283.122	78.51
283.337	19.11
283.552	78.51
283.767	47.79
283.983	58.03
284.198	70.31
284.413	10.92
284.628	-36.18
284.843	27.31
285.058	74.41
285.274	35.5
285.489	19.11
285.704	51.88
285.919	-5.46
286.134	19.11
286.349	39.59
286.564	-17.75
286.779	-9.56
286.995	12.97
287.21	-60.76
287.425	-62.8
287.64	6.83
287.855	23.21
288.07	0.68
288.285	64.17
288.5	84.65
288.715	92.84
288.93	29.35
289.145	2.73
289.36	51.88
289.575	62.12
289.79	55.98
290.004	29.35
290.219	88.75
290.434	4.78
290.649	21.16
290.864	35.5
291.079	4.78
291.294	2.73
291.509	27.31
291.724	43.69
291.938	27.31
292.153	84.65
292.368	-5.46
292.583	137.9
292.798	101.03
293.012	62.12
293.227	43.69
293.442	78.51
293.657	51.88
293.871	35.5
294.086	-27.99
294.301	53.93
294.516	62.12
294.73	47.79
294.945	-9.56
295.16	-1.37
295.374	94.89
295.589	129.7
295.804	51.88
296.018	-34.13
296.233	185
296.447	60.07
296.662	10.92
296.877	78.51
297.091	101.03
297.306	129.7
297.52	51.88
297.735	55.98
297.949	-21.85
298.164	39.59
298.378	84.65
298.593	94.89
298.807	6.83
299.022	60.07
299.236	-5.46
299.451	76.46
299.665	86.7
299.88	37.55
300.094	94.89
300.309	-19.8
300.523	43.69
300.737	29.35
300.952	70.31
301.166	31.4
301.381	-50.52
301.595	68.27
301.809	70.31
302.024	23.21
302.238	68.27
302.452	76.46
302.667	-7.51
302.881	55.98
303.095	88.75
303.309	33.45
303.524	84.65
303.738	43.69
303.952	-1.37
304.166	68.27
304.381	-38.23
304.595	60.07
304.809	23.21
305.023	123.56
305.237	35.5
305.452	31.4
305.666	-3.41
305.88	70.31
306.094	68.27
306.308	21.16
306.522	27.31
306.736	51.88
306.95	86.7
307.164	-54.61
307.379	111.27
307.593	68.27
307.807	105.13
308.021	86.7
308.235	27.31
308.449	-1.37
308.663	-9.56
308.877	105.13
309.091	51.88
309.305	84.65
309.519	-13.65
309.733	117.42
309.947	-34.13
310.161	86.7
310.374	92.84
310.588	74.41
310.802	25.26
311.016	31.4
311.23	101.03
311.444	45.74
311.658	35.5
311.872	70.31
312.085	43.69
312.299	117.42
312.513	60.07
312.727	27.31
312.941	-13.65
313.154	41.64
313.368	90.79
313.582	31.4
313.796	51.88
314.009	35.5
314.223	29.35
314.437	101.03
314.651	43.69
314.864	-36.18
315.078	-30.04
315.292	27.31
315.505	17.07
315.719	31.4
315.933	60.07
316.146	84.65
316.36	-13.65
316.573	43.69
316.787	23.21
317.001	144.04
317.214	43.69
317.428	62.12
317.641	-11.61
317.855	23.21
318.068	53.93
318.282	101.03
318.495	41.64
318.709	98.99
318.922	60.07
319.136	101.03
319.349	51.88
319.563	23.21
319.776	31.4
319.99	-3.41
320.203	84.65
320.417	35.5
320.63	80.55
320.843	60.07
321.057	35.5
321.27	41.64
321.483	72.36
321.697	68.27
321.91	47.79
322.124	-23.89
322.337	55.98
322.55	113.32
322.763	45.74
322.977	92.84
323.19	39.59
323.403	27.31
323.617	29.35
323.83	76.46
324.043	66.22
324.256	174.76
324.469	94.89
324.683	39.59
324.896	53.93
325.109	92.84
325.322	-11.61
325.535	74.41
325.748	84.65
325.962	68.27
326.175	92.84
326.388	35.5
326.601	25.26
326.814	-25.94
327.027	60.07
327.24	45.74
327.453	-15.7
327.666	78.51
327.879	45.74
328.092	-71
328.305	2.73
328.518	29.35
328.731	4.78
328.944	23.21
329.157	45.74
329.37	68.27
329.583	21.16
329.796	92.84
330.009	-23.89
330.222	76.46
330.435	45.74
330.648	35.5
330.861	68.27
331.073	21.16
331.286	27.31
331.499	62.12
331.712	78.51
331.925	51.88
332.138	10.92
332.35	27.31
332.563	35.5
332.776	76.46
332.989	-3.41
333.202	92.84
333.414	39.59
333.627	37.55
333.84	90.79
334.053	72.36
334.265	103.08
334.478	60.07
334.691	-40.28
334.903	-34.13
335.116	19.11
335.329	-9.56
335.541	86.7
335.754	84.65
335.966	47.79
336.179	2.73
336.392	-5.46
336.604	15.02
336.817	45.74
337.029	117.42
337.242	27.31
337.454	66.22
337.667	47.79
337.88	127.66
338.092	62.12
338.305	60.07
338.517	68.27
338.729	60.07
338.942	119.46
339.154	10.92
339.367	60.07
339.579	68.27
339.792	0.68
340.004	53.93
340.217	19.11
340.429	39.59
340.641	-5.46
340.854	37.55
341.066	51.88
341.278	-5.46
341.491	31.4
341.703	72.36
341.915	68.27
342.128	35.5
342.34	86.7
342.552	92.84
342.764	-30.04
342.977	35.5
343.189	31.4
343.401	78.51
343.613	27.31
343.826	80.55
344.038	88.75
344.25	43.69
344.462	53.93
344.674	60.07
344.886	4.78
345.099	21.16
345.311	105.13
345.523	45.74
345.735	-38.23
345.947	70.31
346.159	68.27
346.371	39.59
346.583	27.31
346.795	84.65
347.007	64.17
347.219	6.83
347.431	55.98
347.643	94.89
347.855	43.69
348.067	27.31
348.279	15.02
348.491	25.26
348.703	-27.99
348.915	17.07
349.127	60.07
349.339	127.66
349.551	-15.7
349.763	19.11
349.975	-13.65
350.187	53.93
350.399	51.88
350.61	105.13
350.822	47.79
351.034	-5.46
351.246	-5.46
351.458	53.93
351.669	-25.94
351.881	43.69
352.093	15.02
352.305	131.75
352.517	51.88
352.728	76.46
352.94	74.41
353.152	-30.04
353.363	-23.89
353.575	70.31
353.787	68.27
353.999	2.73
354.21	51.88
354.422	-1.37
354.633	-21.85
354.845	70.31
355.057	-11.61
355.268	43.69
355.48	70.31
355.692	31.4
355.903	23.21
356.115	31.4
356.326	15.02
356.538	137.9
356.749	49.83
356.961	98.99
357.172	2.73
357.384	-36.18
357.595	53.93
357.807	19.11
358.018	19.11
358.23	62.12
358.441	117.42
358.653	64.17
358.864	62.12
359.075	35.5
359.287	166.57
359.498	158.38
359.709	17.07
359.921	78.51
360.132	-60.76
360.344	43.69
360.555	10.92
360.766	109.22
360.977	-3.41
361.189	55.98
361.4	-9.56
361.611	105.13
361.823	92.84
362.034	78.51
362.245	-17.75
362.456	43.69
362.667	109.22
362.879	-58.71
363.09	39.59
363.301	109.22
363.512	43.69
363.723	8.87
363.935	4.78
364.146	86.7
364.357	80.55
364.568	174.76
364.779	-25.94
364.99	96.94
365.201	19.11
365.412	107.18
365.623	-36.18
365.834	107.18
366.045	51.88
366.256	84.65
366.467	70.31
366.678	45.74
366.889	86.7
367.1	51.88
367.311	43.69
367.522	53.93
367.733	-3.41
367.944	21.16
368.155	68.27
368.366	101.03
368.577	133.8
368.788	117.42
368.999	78.51
369.209	115.37
369.42	176.81
369.631	137.9
369.842	72.36
370.053	25.26
370.264	96.94
370.474	51.88
370.685	19.11
370.896	84.65
371.107	25.26
371.317	27.31
371.528	19.11
371.739	29.35
371.95	94.89
372.16	43.69
372.371	47.79
372.582	76.46
372.792	-36.18
373.003	31.4
373.214	35.5
373.424	88.75
373.635	60.07
373.846	127.66
374.056	92.84
374.267	88.75
374.477	29.35
374.688	19.11
374.898	-3.41
375.109	10.92
375.319	58.03
375.53	43.69
375.74	29.35
375.951	107.18
376.161	117.42
376.372	86.7
376.582	86.7
376.793	62.12
377.003	-9.56
377.214	84.65
377.424	-5.46
377.635	12.97
377.845	51.88
378.055	62.12
378.266	-30.04
378.476	45.74
378.686	72.36
378.897	51.88
379.107	109.22
379.317	12.97
379.528	144.04
379.738	43.69
379.948	43.69
380.158	39.59
380.369	60.07
380.579	76.46
380.789	103.08
380.999	55.98
381.21	123.56
381.42	19.11
381.63	-15.7
381.84	53.93
382.05	60.07
382.261	166.57
382.471	31.4
382.681	12.97
382.891	84.65
383.101	53.93
383.311	78.51
383.521	6.83
383.731	55.98
383.941	160.42
384.151	129.7
384.361	105.13
384.571	86.7
384.781	-1.37
384.991	64.17
385.201	53.93
385.411	47.79
385.621	76.46
385.831	78.51
386.041	105.13
386.251	-13.65
386.461	121.51
386.671	-1.37
386.881	88.75
387.091	74.41
387.301	27.31
387.511	39.59
387.72	78.51
387.93	21.16
388.14	60.07
388.35	76.46
388.56	80.55
388.769	84.65
388.979	96.94
389.189	27.31
389.399	68.27
389.609	68.27
389.818	160.42
390.028	127.66
390.238	70.31
390.447	55.98
390.657	168.62
390.867	45.74
391.076	35.5
391.286	29.35
391.496	60.07
391.705	45.74
391.915	62.12
392.125	217.77
392.334	62.12
392.544	101.03
392.753	2.73
392.963	111.27
393.172	21.16
393.382	60.07
393.591	207.53
393.801	45.74
394.01	19.11
394.22	23.21
394.429	80.55
394.639	-1.37
394.848	78.51
395.058	139.94
395.267	37.55
395.477	84.65
395.686	76.46
395.895	129.7
396.105	178.86
396.314	105.13
396.524	109.22
396.733	113.32
396.942	88.75
397.152	150.18
397.361	166.57
397.57	68.27
397.78	64.17
397.989	160.42
398.198	70.31
398.407	160.42
398.617	111.27
398.826	76.46
399.035	21.16
399.244	70.31
399.453	84.65
399.663	60.07
399.872	76.46
400.081	101.03
400.29	96.94
400.499	2.73
400.708	76.46
400.917	43.69
401.127	92.84
401.336	98.99
401.545	109.22
401.754	107.18
401.963	119.46
402.172	125.61
402.381	101.03
402.59	150.18
402.799	96.94
403.008	160.42
403.217	72.36
403.426	182.95
403.635	90.79
403.844	109.22
404.053	150.18
404.262	78.51
404.471	141.99
404.68	119.46
404.888	68.27
405.097	109.22
405.306	88.75
405.515	172.71
405.724	92.84
405.933	191.14
406.142	199.34
406.35	176.81
406.559	193.19
406.768	86.7
406.977	154.28
407.185	119.46
407.394	152.23
407.603	146.09
407.812	176.81
408.02	146.09
408.229	219.82
408.438	127.66
408.646	168.62
408.855	168.62
409.064	166.57
409.272	154.28
409.481	260.77
409.69	166.57
409.898	211.62
410.107	324.26
410.315	232.1
410.524	225.96
410.733	223.91
410.941	240.3
411.15	299.69
411.358	264.87
411.567	316.07
411.775	314.02
411.984	264.87
412.192	314.02
412.401	248.49
412.609	340.65
412.818	371.36
413.026	346.79
413.234	338.6
413.443	371.36
413.651	314.02
413.86	496.29
414.068	471.72
414.276	481.96
414.485	486.05
414.693	449.19
414.901	567.97
415.11	416.42
415.318	518.82
415.526	455.33
415.734	535.2
415.943	527.01
416.151	570.02
416.359	592.55
416.567	578.21
416.776	717.47
416.984	641.7
417.192	723.62
417.4	699.04
417.608	613.03
417.817	740
418.025	750.24
418.233	920.22
418.441	725.66
418.649	899.74
418.857	920.22
419.065	965.28
419.273	989.85
419.481	936.6
419.689	987.8
419.897	955.04
420.105	1065.63
420.313	1108.63
420.521	1114.78
420.729	1100.44
420.937	1149.59
421.145	1182.36
421.353	1280.66
421.561	1452.69
421.769	1344.15
421.977	1358.49
422.185	1436.31
422.393	1553.04
422.601	1594
422.809	1563.28
423.017	1649.3
423.224	1610.39
423.432	1700.5
423.64	1649.3
423.848	1962.64
424.056	1780.37
424.263	2001.55
424.471	1864.33
424.679	2034.32
424.887	2058.89
425.094	2189.96
425.302	2257.54
425.51	2292.36
425.718	2353.8
425.925	2198.15
426.133	2427.53
426.341	2562.69
426.548	2783.87
426.756	2777.73
426.964	2622.08
427.171	2863.74
427.379	3000.96
427.586	2964.09
427.794	2957.95
428.001	3193.47
428.209	3500.66
428.417	3279.48
428.624	3488.37
428.832	3365.5
429.039	3541.62
429.247	3424.89
429.454	3828.34
429.662	4043.37
429.869	3857.01
430.076	4129.39
430.284	3975.79
430.491	4192.87
430.699	4475.49
430.906	4379.24
431.114	4424.3
431.321	4727.39
431.528	4696.68
431.736	4938.34
431.943	5202.52
432.15	5157.47
432.358	5204.57
432.565	5548.63
432.772	5485.14
432.979	5659.22
433.187	5884.5
433.394	5732.95
433.601	6339.15
433.808	6132.3
434.016	6220.36
434.223	6400.59
434.43	6621.77
434.637	6732.36
434.844	7103.04
435.052	7080.51
435.259	7076.41
435.466	7178.81
435.673	7119.42
435.88	7688.76
436.087	8043.06
436.294	8028.72
436.501	7797.3
436.708	7852.59
436.915	8188.46
437.122	8682.02
437.329	8778.28
437.537	8802.85
437.743	9077.28
437.95	8907.3
438.157	9546.26
438.364	9650.71
438.571	9796.12
438.778	9753.11
438.985	10689.03
439.192	10166.8
439.399	10570.25
439.606	10230.29
439.813	10979.84
440.02	11450.88
440.227	11371.01
440.433	11395.58
440.64	11803.13
440.847	11594.23
441.054	11874.81
441.261	12511.72
441.467	12626.41
441.674	12726.76
441.881	13251.04
442.088	13216.22
442.294	13101.54
442.501	13414.88
442.708	13820.38
442.914	14371.28
443.121	14559.69
443.328	14176.72
443.534	15444.41
443.741	14666.19
443.948	14862.79
444.154	15862.2
444.361	15888.82
444.568	15964.6
444.774	15661.5
444.981	15999.41
445.187	16673.2
445.394	17244.58
445.6	16794.03
445.807	18581.9
446.013	17658.27
446.22	18164.12
446.426	18729.36
446.633	19110.28
446.839	19595.65
447.046	18889.1
447.252	19892.6
447.459	19974.52
447.665	19939.71
447.871	20605.3
448.078	21578.08
448.284	20506.99
448.491	21172.58
448.697	21883.23
448.903	22276.44
449.11	22362.45
449.316	22208.86
449.522	22581.59
449.728	23202.12
449.935	23243.08
450.141	23304.52
450.347	23939.39
450.553	23355.72
450.76	23462.21
450.966	24361.27
451.172	23843.13
451.378	24658.23
451.584	24078.65
451.791	24721.71
451.997	24842.54
452.203	25016.62
452.409	25223.47
452.615	24873.26
452.821	23998.78
453.027	23566.66
453.233	25168.17
453.44	23841.09
453.646	24267.06
453.852	24592.69
454.058	24990
454.264	24203.58
454.47	24549.68
454.676	23808.32
454.882	25192.75
455.088	22579.54
455.294	23277.9
455.5	23638.34
455.705	23707.97
455.911	22806.86
456.117	22464.85
456.323	22223.19
456.529	20894.06
456.735	21885.28
456.941	21350.76
457.147	21234.02
457.352	20244.85
457.558	20310.39
457.764	20185.46
457.97	19872.12
458.176	19270.02
458.381	19573.12
458.587	18534.8
458.793	18446.74
458.999	17279.39
459.204	18518.42
459.41	18164.12
459.616	17140.13
459.821	17230.24
460.027	17205.67
460.233	16755.11
460.438	15937.98
460.644	16138.68
460.85	15473.09
461.055	14954.95
461.261	15090.12
461.466	13978.07
461.672	13445.6
461.878	14571.98
462.083	13644.25
462.289	13466.08
462.494	13042.15
462.7	12511.72
462.905	12130.8
463.111	12906.98
463.316	12376.56
463.522	12521.96
463.727	12415.47
463.932	12524.01
464.138	12134.9
464.343	12376.56
464.549	12091.89
464.754	12386.8
464.959	12306.93
465.165	12063.22
465.37	11633.15
465.575	11643.39
465.781	11883
465.986	12016.12
466.191	11653.62
466.397	11276.8
466.602	10672.65
466.807	11405.82
467.012	11127.3
467.218	10963.46
467.423	10742.28
467.628	11151.87
467.833	11545.08
