Data from USB4F104151__172__14-45-00-201.txt Node

Date: Thu Mar 13 14:45:00 EDT 2025
User: louis
Spectrometer: USB4F10415
Trigger mode: 4
Integration Time (sec): 2.000000E-2
Scans to average: 1
Electric dark correction enabled: true
Nonlinearity correction enabled: false
Boxcar width: 0
XAxis mode: Wavelengths
Number of Pixels in Spectrum: 3648
>>>>>Begin Spectral Data<<<<<
178.204	-164.01
178.424	-164.01
178.644	-164.01
178.864	-188.58
179.084	-176.3
179.304	-57.51
179.524	24.4
179.744	-51.37
179.964	71.51
180.184	-47.27
180.404	12.12
180.624	-10.41
180.844	61.27
181.064	5.97
181.283	-10.41
181.503	48.98
181.723	-47.27
181.943	-32.94
182.163	20.31
182.383	5.97
182.602	-28.84
182.822	69.46
183.042	-34.99
183.262	-49.32
183.482	-34.99
183.701	-100.52
183.921	36.69
184.141	-20.65
184.361	22.36
184.58	69.46
184.8	40.79
185.02	-67.75
185.239	-20.65
185.459	-20.65
185.679	14.17
185.898	32.6
186.118	26.45
186.338	8.02
186.557	-18.6
186.777	-12.46
186.997	-4.27
187.216	-2.22
187.436	69.46
187.655	22.36
187.875	36.69
188.095	38.74
188.314	77.65
188.534	-26.79
188.753	40.79
188.973	57.17
189.192	36.69
189.412	-47.27
189.631	128.85
189.851	67.41
190.07	81.75
190.29	-61.61
190.509	1.88
190.729	-51.37
190.948	36.69
191.168	126.8
191.387	12.12
191.607	-2.22
191.826	-32.94
192.045	5.97
192.265	-34.99
192.484	36.69
192.704	-10.41
192.923	-16.55
193.142	89.94
193.362	-49.32
193.581	53.08
193.8	63.32
194.02	79.7
194.239	44.88
194.458	8.02
194.678	-69.8
194.897	-18.6
195.116	-43.18
195.335	-0.17
195.555	20.31
195.774	-12.46
195.993	81.75
196.212	12.12
196.432	59.22
196.651	-34.99
196.87	-4.27
197.089	77.65
197.308	-73.9
197.528	69.46
197.747	-53.42
197.966	-2.22
198.185	87.89
198.404	-12.46
198.623	3.93
198.842	24.4
199.062	-0.17
199.281	28.5
199.5	32.6
199.719	38.74
199.938	63.32
200.157	61.27
200.376	16.21
200.595	-20.65
200.814	63.32
201.033	-53.42
201.252	71.51
201.471	30.55
201.69	94.04
201.909	-16.55
202.128	40.79
202.347	-34.99
202.566	-8.36
202.785	20.31
203.004	46.93
203.223	87.89
203.442	-16.55
203.661	53.08
203.879	5.97
204.098	69.46
204.317	-57.51
204.536	20.31
204.755	73.56
204.974	-0.17
205.193	14.17
205.411	85.84
205.63	63.32
205.849	20.31
206.068	20.31
206.287	-2.22
206.505	32.6
206.724	20.31
206.943	40.79
207.162	24.4
207.381	16.21
207.599	-49.32
207.818	36.69
208.037	-67.75
208.255	-53.42
208.474	38.74
208.693	73.56
208.911	5.97
209.13	61.27
209.349	-69.8
209.567	-8.36
209.786	55.12
210.005	-18.6
210.223	-10.41
210.442	-20.65
210.661	22.36
210.879	83.8
211.098	28.5
211.316	18.26
211.535	10.07
211.753	14.17
211.972	-45.23
212.191	-12.46
212.409	-20.65
212.628	-4.27
212.846	-53.42
213.065	14.17
213.283	-10.41
213.502	8.02
213.72	-8.36
213.938	-34.99
214.157	-28.84
214.375	16.21
214.594	28.5
214.812	89.94
215.031	12.12
215.249	-2.22
215.467	14.17
215.686	8.02
215.904	36.69
216.122	-10.41
216.341	87.89
216.559	-45.23
216.778	44.88
216.996	59.22
217.214	-10.41
217.432	-39.08
217.651	-69.8
217.869	36.69
218.087	79.7
218.306	-20.65
218.524	28.5
218.742	8.02
218.96	-12.46
219.179	73.56
219.397	1.88
219.615	22.36
219.833	22.36
220.051	3.93
220.27	22.36
220.488	69.46
220.706	28.5
220.924	-53.42
221.142	67.41
221.36	-16.55
221.578	24.4
221.796	-20.65
222.015	12.12
222.233	8.02
222.451	44.88
222.669	22.36
222.887	20.31
223.105	-2.22
223.323	55.12
223.541	-49.32
223.759	24.4
223.977	5.97
224.195	94.04
224.413	67.41
224.631	-16.55
224.849	-12.46
225.067	114.52
225.285	-24.75
225.503	-0.17
225.721	-12.46
225.939	20.31
226.157	42.84
226.375	20.31
226.592	-10.41
226.81	-24.75
227.028	87.89
227.246	14.17
227.464	-16.55
227.682	-69.8
227.9	16.21
228.117	-4.27
228.335	30.55
228.553	12.12
228.771	12.12
228.989	22.36
229.206	10.07
229.424	-4.27
229.642	-37.03
229.86	-41.13
230.077	-45.23
230.295	46.93
230.513	63.32
230.731	-12.46
230.948	-45.23
231.166	36.69
231.384	-6.31
231.601	32.6
231.819	59.22
232.037	-37.03
232.254	-2.22
232.472	48.98
232.689	-30.89
232.907	-20.65
233.125	10.07
233.342	-10.41
233.56	-45.23
233.777	-45.23
233.995	38.74
234.213	16.21
234.43	12.12
234.648	-65.71
234.865	-41.13
235.083	61.27
235.3	-24.75
235.518	14.17
235.735	28.5
235.953	16.21
236.17	10.07
236.388	20.31
236.605	18.26
236.822	32.6
237.04	20.31
237.257	3.93
237.475	-37.03
237.692	-61.61
237.909	53.08
238.127	3.93
238.344	16.21
238.562	20.31
238.779	-118.95
238.996	20.31
239.214	-69.8
239.431	55.12
239.648	-16.55
239.865	51.03
240.083	-12.46
240.3	5.97
240.517	-18.6
240.735	44.88
240.952	36.69
241.169	5.97
241.386	-24.75
241.603	-20.65
241.821	-96.43
242.038	38.74
242.255	87.89
242.472	-18.6
242.689	-77.99
242.907	20.31
243.124	8.02
243.341	1.88
243.558	28.5
243.775	-26.79
243.992	-10.41
244.209	94.04
244.426	69.46
244.643	-2.22
244.86	-69.8
245.078	-45.23
245.295	-16.55
245.512	32.6
245.729	-12.46
245.946	-16.55
246.163	-14.51
246.38	36.69
246.597	22.36
246.814	5.97
247.031	-37.03
247.248	-10.41
247.464	12.12
247.681	-43.18
247.898	-4.27
248.115	14.17
248.332	-26.79
248.549	8.02
248.766	135
248.983	44.88
249.2	14.17
249.417	-12.46
249.633	-10.41
249.85	-2.22
250.067	-4.27
250.284	77.65
250.501	57.17
250.717	12.12
250.934	-47.27
251.151	85.84
251.368	-61.61
251.585	28.5
251.801	-10.41
252.018	-32.94
252.235	44.88
252.451	-39.08
252.668	-45.23
252.885	22.36
253.102	-2.22
253.318	46.93
253.535	-57.51
253.752	-2.22
253.968	10.07
254.185	-98.47
254.401	-32.94
254.618	61.27
254.835	-77.99
255.051	8.02
255.268	-0.17
255.484	71.51
255.701	-39.08
255.917	77.65
256.134	-20.65
256.351	-26.79
256.567	1.88
256.784	40.79
257	12.12
257.217	3.93
257.433	30.55
257.65	10.07
257.866	57.17
258.082	32.6
258.299	-4.27
258.515	26.45
258.732	-20.65
258.948	61.27
259.165	-2.22
259.381	-28.84
259.597	-28.84
259.814	-28.84
260.03	-53.42
260.246	-30.89
260.463	-12.46
260.679	20.31
260.895	12.12
261.112	-18.6
261.328	-57.51
261.544	-0.17
261.761	102.23
261.977	-65.71
262.193	-24.75
262.409	44.88
262.626	69.46
262.842	48.98
263.058	-41.13
263.274	12.12
263.49	-4.27
263.707	-20.65
263.923	-39.08
264.139	-20.65
264.355	16.21
264.571	36.69
264.787	46.93
265.004	69.46
265.22	-26.79
265.436	-53.42
265.652	57.17
265.868	36.69
266.084	14.17
266.3	3.93
266.516	24.4
266.732	46.93
266.948	53.08
267.164	24.4
267.38	48.98
267.596	20.31
267.812	16.21
268.028	-10.41
268.244	-12.46
268.46	-18.6
268.676	20.31
268.892	65.36
269.108	-2.22
269.324	-49.32
269.54	-65.71
269.756	36.69
269.972	-12.46
270.188	-12.46
270.403	-6.31
270.619	48.98
270.835	-32.94
271.051	36.69
271.267	-49.32
271.483	-4.27
271.698	85.84
271.914	38.74
272.13	-20.65
272.346	-53.42
272.562	-28.84
272.777	96.08
272.993	24.4
273.209	94.04
273.425	57.17
273.64	1.88
273.856	44.88
274.072	28.5
274.287	28.5
274.503	61.27
274.719	18.26
274.934	-28.84
275.15	-10.41
275.366	38.74
275.581	-26.79
275.797	98.13
276.012	-77.99
276.228	-12.46
276.444	1.88
276.659	116.56
276.875	-53.42
277.09	36.69
277.306	-20.65
277.521	10.07
277.737	12.12
277.952	3.93
278.168	22.36
278.383	-28.84
278.599	-4.27
278.814	-16.55
279.03	-26.79
279.245	73.56
279.461	-26.79
279.676	-41.13
279.892	-32.94
280.107	3.93
280.322	-2.22
280.538	-22.7
280.753	-69.8
280.969	12.12
281.184	5.97
281.399	53.08
281.615	14.17
281.83	102.23
282.045	-34.99
282.26	-34.99
282.476	-16.55
282.691	71.51
282.906	24.4
283.122	18.26
283.337	10.07
283.552	3.93
283.767	8.02
283.983	36.69
284.198	3.93
284.413	24.4
284.628	-96.43
284.843	-12.46
285.058	16.21
285.274	-49.32
285.489	-10.41
285.704	-26.79
285.919	28.5
286.134	98.13
286.349	-0.17
286.564	-28.84
286.779	-20.65
286.995	28.5
287.21	12.12
287.425	38.74
287.64	-94.38
287.855	36.69
288.07	30.55
288.285	-10.41
288.5	38.74
288.715	55.12
288.93	46.93
289.145	-32.94
289.36	94.04
289.575	8.02
289.79	-16.55
290.004	69.46
290.219	-12.46
290.434	40.79
290.649	-2.22
290.864	-49.32
291.079	63.32
291.294	-34.99
291.509	22.36
291.724	12.12
291.938	24.4
292.153	26.45
292.368	28.5
292.583	28.5
292.798	22.36
293.012	22.36
293.227	3.93
293.442	65.36
293.657	44.88
293.871	75.6
294.086	8.02
294.301	94.04
294.516	53.08
294.73	32.6
294.945	-41.13
295.16	-41.13
295.374	1.88
295.589	24.4
295.804	69.46
296.018	-51.37
296.233	1.88
296.447	-6.31
296.662	-45.23
296.877	-12.46
297.091	-2.22
297.306	-12.46
297.52	18.26
297.735	57.17
297.949	48.98
298.164	-14.51
298.378	-37.03
298.593	69.46
298.807	12.12
299.022	14.17
299.236	-8.36
299.451	3.93
299.665	51.03
299.88	8.02
300.094	-67.75
300.309	-4.27
300.523	-14.51
300.737	85.84
300.952	-8.36
301.166	-28.84
301.381	-32.94
301.595	-26.79
301.809	-59.56
302.024	-8.36
302.238	-30.89
302.452	-69.8
302.667	-49.32
302.881	71.51
303.095	40.79
303.309	-20.65
303.524	12.12
303.738	-2.22
303.952	-12.46
304.166	-0.17
304.381	18.26
304.595	77.65
304.809	-0.17
305.023	32.6
305.237	-18.6
305.452	-32.94
305.666	16.21
305.88	-18.6
306.094	77.65
306.308	12.12
306.522	44.88
306.736	73.56
306.95	-69.8
307.164	44.88
307.379	28.5
307.593	59.22
307.807	22.36
308.021	-12.46
308.235	8.02
308.449	36.69
308.663	8.02
308.877	79.7
309.091	-61.61
309.305	12.12
309.519	20.31
309.733	5.97
309.947	-86.19
310.161	67.41
310.374	-4.27
310.588	-10.41
310.802	-10.41
311.016	-2.22
311.23	28.5
311.444	-65.71
311.658	-71.85
311.872	36.69
312.085	5.97
312.299	3.93
312.513	48.98
312.727	28.5
312.941	5.97
313.154	-4.27
313.368	-12.46
313.582	73.56
313.796	48.98
314.009	-12.46
314.223	38.74
314.437	55.12
314.651	-10.41
314.864	3.93
315.078	53.08
315.292	-0.17
315.505	16.21
315.719	14.17
315.933	36.69
316.146	-34.99
316.36	-61.61
316.573	81.75
316.787	44.88
317.001	12.12
317.214	44.88
317.428	12.12
317.641	16.21
317.855	-28.84
318.068	-0.17
318.282	77.65
318.495	87.89
318.709	-12.46
318.922	40.79
319.136	28.5
319.349	-82.09
319.563	-14.51
319.776	-30.89
319.99	57.17
320.203	-63.66
320.417	-12.46
320.63	44.88
320.843	28.5
321.057	12.12
321.27	14.17
321.483	5.97
321.697	-20.65
321.91	-0.17
322.124	-16.55
322.337	28.5
322.55	-55.47
322.763	3.93
322.977	53.08
323.19	36.69
323.403	-10.41
323.617	-34.99
323.83	28.5
324.043	32.6
324.256	22.36
324.469	-34.99
324.683	51.03
324.896	44.88
325.109	24.4
325.322	59.22
325.535	57.17
325.748	40.79
325.962	55.12
326.175	-32.94
326.388	46.93
326.601	8.02
326.814	40.79
327.027	-24.75
327.24	-49.32
327.453	-69.8
327.666	-12.46
327.879	5.97
328.092	14.17
328.305	20.31
328.518	3.93
328.731	20.31
328.944	-77.99
329.157	46.93
329.37	3.93
329.583	110.42
329.796	28.5
330.009	-24.75
330.222	53.08
330.435	57.17
330.648	-24.75
330.861	-39.08
331.073	53.08
331.286	22.36
331.499	24.4
331.712	1.88
331.925	20.31
332.138	8.02
332.35	-28.84
332.563	-39.08
332.776	-51.37
332.989	3.93
333.202	-4.27
333.414	3.93
333.627	28.5
333.84	-24.75
334.053	5.97
334.265	-2.22
334.478	16.21
334.691	-10.41
334.903	55.12
335.116	-32.94
335.329	-12.46
335.541	-18.6
335.754	30.55
335.966	16.21
336.179	28.5
336.392	-41.13
336.604	85.84
336.817	12.12
337.029	61.27
337.242	61.27
337.454	-26.79
337.667	30.55
337.88	65.36
338.092	-12.46
338.305	81.75
338.517	-26.79
338.729	-32.94
338.942	122.71
339.154	-2.22
339.367	5.97
339.579	36.69
339.792	85.84
340.004	22.36
340.217	-8.36
340.429	65.36
340.641	14.17
340.854	-43.18
341.066	-43.18
341.278	5.97
341.491	61.27
341.703	51.03
341.915	61.27
342.128	55.12
342.34	-30.89
342.552	-53.42
342.764	34.64
342.977	-16.55
343.189	32.6
343.401	-34.99
343.613	-26.79
343.826	44.88
344.038	-4.27
344.25	85.84
344.462	-30.89
344.674	48.98
344.886	46.93
345.099	81.75
345.311	73.56
345.523	-20.65
345.735	-20.65
345.947	8.02
346.159	24.4
346.371	-20.65
346.583	-28.84
346.795	28.5
347.007	-2.22
347.219	20.31
347.431	-37.03
347.643	12.12
347.855	-16.55
348.067	87.89
348.279	-4.27
348.491	12.12
348.703	12.12
348.915	-12.46
349.127	32.6
349.339	85.84
349.551	-43.18
349.763	-34.99
349.975	69.46
350.187	51.03
350.399	-61.61
350.61	63.32
350.822	77.65
351.034	-14.51
351.246	59.22
351.458	32.6
351.669	-37.03
351.881	69.46
352.093	42.84
352.305	20.31
352.517	-12.46
352.728	77.65
352.94	65.36
353.152	20.31
353.363	-51.37
353.575	30.55
353.787	14.17
353.999	48.98
354.21	3.93
354.422	-55.47
354.633	-53.42
354.845	-4.27
355.057	85.84
355.268	-4.27
355.48	65.36
355.692	-2.22
355.903	20.31
356.115	59.22
356.326	26.45
356.538	30.55
356.749	24.4
356.961	32.6
357.172	28.5
357.384	14.17
357.595	55.12
357.807	36.69
358.018	40.79
358.23	28.5
358.441	57.17
358.653	94.04
358.864	-20.65
359.075	-10.41
359.287	22.36
359.498	42.84
359.709	-20.65
359.921	-94.38
360.132	77.65
360.344	28.5
360.555	18.26
360.766	20.31
360.977	34.64
361.189	77.65
361.4	67.41
361.611	36.69
361.823	30.55
362.034	-28.84
362.245	-8.36
362.456	-6.31
362.667	26.45
362.879	-8.36
363.09	55.12
363.301	-6.31
363.512	28.5
363.723	-18.6
363.935	-37.03
364.146	-0.17
364.357	44.88
364.568	69.46
364.779	-110.76
364.99	53.08
365.201	20.31
365.412	16.21
365.623	30.55
365.834	61.27
366.045	5.97
366.256	20.31
366.467	30.55
366.678	44.88
366.889	-0.17
367.1	46.93
367.311	5.97
367.522	22.36
367.733	73.56
367.944	28.5
368.155	-16.55
368.366	32.6
368.577	-8.36
368.788	135
368.999	71.51
369.209	-28.84
369.42	96.08
369.631	44.88
369.842	12.12
370.053	-49.32
370.264	75.6
370.474	-8.36
370.685	38.74
370.896	30.55
371.107	-43.18
371.317	-32.94
371.528	-77.99
371.739	36.69
371.95	-12.46
372.16	65.36
372.371	-67.75
372.582	32.6
372.792	-10.41
373.003	-8.36
373.214	-12.46
373.424	-8.36
373.635	-69.8
373.846	44.88
374.056	-20.65
374.267	104.28
374.477	44.88
374.688	-18.6
374.898	12.12
375.109	10.07
375.319	20.31
375.53	53.08
375.74	-6.31
375.951	126.8
376.161	28.5
376.372	38.74
376.582	-53.42
376.793	20.31
377.003	-8.36
377.214	-51.37
377.424	5.97
377.635	20.31
377.845	-14.51
378.055	28.5
378.266	-41.13
378.476	61.27
378.686	63.32
378.897	-43.18
379.107	75.6
379.317	28.5
379.528	-63.66
379.738	51.03
379.948	-86.19
380.158	94.04
380.369	-4.27
380.579	44.88
380.789	30.55
380.999	-2.22
381.21	53.08
381.42	87.89
381.63	-0.17
381.84	73.56
382.05	20.31
382.261	3.93
382.471	-90.28
382.681	40.79
382.891	44.88
383.101	30.55
383.311	-43.18
383.521	40.79
383.731	12.12
383.941	120.66
384.151	55.12
384.361	28.5
384.571	-37.03
384.781	69.46
384.991	118.61
385.201	91.99
385.411	20.31
385.621	-4.27
385.831	28.5
386.041	87.89
386.251	-4.27
386.461	87.89
386.671	22.36
386.881	3.93
387.091	-10.41
387.301	14.17
387.511	-16.55
387.72	-4.27
387.93	55.12
388.14	-34.99
388.35	53.08
388.56	36.69
388.769	3.93
388.979	32.6
389.189	61.27
389.399	-2.22
389.609	53.08
389.818	18.26
390.028	77.65
390.238	59.22
390.447	-2.22
390.657	3.93
390.867	36.69
391.076	-67.75
391.286	-18.6
391.496	-0.17
391.705	20.31
391.915	53.08
392.125	112.47
392.334	65.36
392.544	28.5
392.753	20.31
392.963	-18.6
393.172	63.32
393.382	-2.22
393.591	159.57
393.801	-12.46
394.01	94.04
394.22	44.88
394.429	28.5
394.639	32.6
394.848	-20.65
395.058	24.4
395.267	61.27
395.477	-4.27
395.686	96.08
395.895	44.88
396.105	143.19
396.314	61.27
396.524	36.69
396.733	14.17
396.942	87.89
397.152	67.41
397.361	69.46
397.57	44.88
397.78	-12.46
397.989	48.98
398.198	55.12
398.407	22.36
398.617	112.47
398.826	63.32
399.035	-0.17
399.244	61.27
399.453	44.88
399.663	91.99
399.872	24.4
400.081	-4.27
400.29	42.84
400.499	-4.27
400.708	151.38
400.917	8.02
401.127	73.56
401.336	18.26
401.545	153.43
401.754	38.74
401.963	53.08
402.172	34.64
402.381	38.74
402.59	71.51
402.799	53.08
403.008	61.27
403.217	63.32
403.426	85.84
403.635	14.17
403.844	77.65
404.053	126.8
404.262	100.18
404.471	85.84
404.68	20.31
404.888	89.94
405.097	77.65
405.306	36.69
405.515	114.52
405.724	-4.27
405.933	143.19
406.142	73.56
406.35	120.66
406.559	108.37
406.768	155.47
406.977	155.47
407.185	153.43
407.394	159.57
407.603	89.94
407.812	149.33
408.02	184.15
408.229	98.13
408.438	139.09
408.646	145.24
408.855	126.8
409.064	83.8
409.272	69.46
409.481	151.38
409.69	233.3
409.898	145.24
410.107	102.23
410.315	227.15
410.524	161.62
410.733	225.11
410.941	137.04
411.15	204.63
411.358	274.26
411.567	243.54
411.775	272.21
411.984	280.4
412.192	259.92
412.401	229.2
412.609	292.69
412.818	343.89
413.026	229.2
413.234	317.26
413.443	307.02
413.651	290.64
413.86	274.26
414.068	356.18
414.276	386.9
414.485	421.71
414.693	413.52
414.901	438.09
415.11	442.19
415.318	431.95
415.526	390.99
415.734	489.29
415.943	468.81
416.151	456.53
416.359	522.06
416.567	536.4
416.776	556.88
416.984	565.07
417.192	644.94
417.4	628.56
417.608	606.03
417.817	618.32
418.025	601.93
418.233	733
418.441	636.75
418.649	726.86
418.857	776.01
419.065	843.59
419.273	810.82
419.481	894.79
419.689	925.51
419.897	937.8
420.105	974.66
420.313	964.42
420.521	984.9
420.729	1068.87
420.937	1072.96
421.145	1044.29
421.353	1134.4
421.561	1234.75
421.769	1273.67
421.977	1204.03
422.185	1271.62
422.393	1316.67
422.601	1314.63
422.809	1376.06
423.017	1386.3
423.224	1519.42
423.432	1468.22
423.64	1564.48
423.848	1709.88
424.056	1652.54
424.263	1718.08
424.471	1793.85
424.679	1781.56
424.887	1806.14
425.094	1974.07
425.302	2047.8
425.51	2080.57
425.718	2017.08
425.925	2154.29
426.133	2113.33
426.341	2273.07
426.548	2529.07
426.756	2383.66
426.964	2463.54
427.171	2475.82
427.379	2613.04
427.586	2684.72
427.794	2793.26
428.001	2987.82
428.209	3028.78
428.417	2979.62
428.624	3252
428.832	3225.38
429.039	3282.72
429.247	3303.2
429.454	3477.28
429.662	3684.13
429.869	3454.75
430.076	3700.51
430.284	3583.77
430.491	3718.94
430.699	4173.59
430.906	3981.08
431.114	4026.14
431.321	4298.52
431.528	4323.09
431.736	4529.94
431.943	4716.3
432.15	4585.23
432.358	4667.15
432.565	4949.77
432.772	4980.49
432.979	5224.2
433.187	5238.53
433.394	5295.88
433.601	5484.29
433.808	5576.45
434.016	5607.17
434.223	5906.17
434.43	6133.5
434.637	6115.06
434.844	6401.78
435.052	6487.79
435.259	6612.72
435.466	6762.22
435.673	6569.71
435.88	6856.43
436.087	7294.69
436.294	7202.54
436.501	7149.29
436.708	7329.51
436.915	7470.82
437.122	7956.19
437.329	7831.26
437.537	8091.35
437.743	8371.93
437.95	8335.06
438.157	8556.24
438.364	8974.03
438.571	8935.12
438.778	9098.95
438.985	9617.09
439.192	9514.69
439.399	9549.51
439.606	9428.68
439.813	9948.86
440.02	10436.28
440.227	10397.37
440.433	10491.57
440.64	10743.47
440.847	10626.74
441.054	10776.24
441.261	11411.11
441.467	11382.44
441.674	11677.35
441.881	12435.1
442.088	11908.77
442.294	12078.75
442.501	12320.41
442.708	12301.98
442.914	12848.79
443.121	13342.35
443.328	13430.41
443.534	14161.53
443.741	13389.45
443.948	13356.68
444.154	14470.78
444.361	14325.37
444.568	14409.34
444.774	14306.94
444.981	14513.78
445.187	14915.19
445.394	15672.93
445.6	15617.64
445.807	17043.03
446.013	16191.07
446.22	16420.44
446.426	17051.22
446.633	17206.86
446.839	17819.21
447.046	17165.9
447.252	18124.35
447.459	18126.4
447.665	18075.2
447.871	18880.05
448.078	19867.17
448.284	18646.58
448.491	19144.24
448.697	19844.65
448.903	20450.85
449.11	20633.11
449.316	19912.23
449.522	20393.5
449.728	20866.58
449.935	21304.85
450.141	20981.27
450.347	21542.41
450.553	21055
450.76	21491.21
450.966	21861.9
451.172	21931.53
451.378	22418.94
451.584	21825.03
451.791	22339.07
451.997	22523.39
452.203	22787.58
452.409	22705.66
452.615	22760.95
452.821	21857.8
453.027	21843.46
453.233	22980.09
453.44	21890.57
453.646	22054.4
453.852	22076.93
454.058	22799.87
454.264	21812.74
454.47	22470.14
454.676	21818.89
454.882	22584.83
455.088	20719.13
455.294	20946.45
455.5	21483.02
455.705	21491.21
455.911	20846.1
456.117	20389.41
456.323	20016.68
456.529	19228.21
456.735	19762.73
456.941	19217.97
457.147	19136.05
457.352	18552.38
457.558	18570.81
457.764	18402.88
457.97	18206.27
458.176	17815.11
458.381	17708.62
458.587	16899.67
458.793	16825.94
458.999	16066.14
459.204	17172.05
459.41	16799.32
459.616	15615.59
459.821	15570.54
460.027	15638.12
460.233	15019.63
460.438	14417.53
460.644	14794.36
460.85	13960.83
461.055	13629.06
461.261	13688.45
461.466	12680.85
461.672	12226.2
461.878	13059.73
462.083	12267.16
462.289	12136.09
462.494	11904.67
462.7	11538.09
462.905	11187.88
463.111	11478.69
463.316	11431.59
463.522	11423.4
463.727	11277.99
463.932	11431.59
464.138	11275.95
464.343	11171.5
464.549	10827.44
464.754	11185.83
464.959	11261.61
465.165	11116.2
465.37	10708.66
465.575	10348.22
465.781	10694.32
465.986	10718.9
466.191	10471.09
466.397	10256.06
466.602	9817.79
466.807	10161.85
467.012	10108.6
