Data from USB4F104151__255__14-45-56-041.txt Node

Date: Thu Mar 13 14:45:56 EDT 2025
User: louis
Spectrometer: USB4F10415
Trigger mode: 4
Integration Time (sec): 2.000000E-2
Scans to average: 1
Electric dark correction enabled: true
Nonlinearity correction enabled: false
Boxcar width: 0
XAxis mode: Wavelengths
Number of Pixels in Spectrum: 3648
>>>>>Begin Spectral Data<<<<<
178.204	-120.32
178.424	-120.32
178.644	-120.32
178.864	-114.17
179.084	-93.69
179.304	4.61
179.524	8.7
179.744	-7.68
179.964	-5.63
180.184	-36.35
180.404	-50.69
180.624	70.14
180.844	45.57
181.064	-36.35
181.283	-3.58
181.503	33.28
181.723	-22.02
181.943	-69.12
182.163	29.18
182.383	39.42
182.602	12.8
182.822	6.66
183.042	45.57
183.262	-34.3
183.482	16.9
183.701	20.99
183.921	53.76
184.141	70.14
184.361	29.18
184.58	-19.97
184.8	-7.68
185.02	-15.87
185.239	61.95
185.459	-11.78
185.679	10.75
185.898	45.57
186.118	74.24
186.338	39.42
186.557	-11.78
186.777	-24.06
186.997	33.28
187.216	8.7
187.436	-3.58
187.655	59.9
187.875	-3.58
188.095	-11.78
188.314	86.53
188.534	70.14
188.753	-62.98
188.973	61.95
189.192	80.38
189.412	29.18
189.631	57.86
189.851	41.47
190.07	55.81
190.29	-42.5
190.509	-28.16
190.729	45.57
190.948	29.18
191.168	178.69
191.387	-44.54
191.607	16.9
191.826	29.18
192.045	2.56
192.265	-42.5
192.484	14.85
192.704	68.09
192.923	-3.58
193.142	59.9
193.362	-28.16
193.581	82.43
193.8	64
194.02	53.76
194.239	23.04
194.458	55.81
194.678	-65.02
194.897	-38.4
195.116	-3.58
195.335	4.61
195.555	-19.97
195.774	-34.3
195.993	-15.87
196.212	-11.78
196.432	-44.54
196.651	-17.92
196.87	14.85
197.089	76.29
197.308	80.38
197.528	8.7
197.747	-3.58
197.966	-44.54
198.185	-11.78
198.404	-36.35
198.623	29.18
198.842	47.62
199.062	68.09
199.281	45.57
199.5	14.85
199.719	-11.78
199.938	37.38
200.157	96.77
200.376	14.85
200.595	25.09
200.814	8.7
201.033	-9.73
201.252	31.23
201.471	74.24
201.69	20.99
201.909	47.62
202.128	57.86
202.347	-58.88
202.566	27.14
202.785	33.28
203.004	-32.26
203.223	45.57
203.442	0.51
203.661	23.04
203.879	88.57
204.098	49.66
204.317	-28.16
204.536	6.66
204.755	4.61
204.974	84.48
205.193	-9.73
205.411	6.66
205.63	74.24
205.849	4.61
206.068	20.99
206.287	37.38
206.505	14.85
206.724	-50.69
206.943	12.8
207.162	49.66
207.381	-15.87
207.599	45.57
207.818	20.99
208.037	57.86
208.255	37.38
208.474	-7.68
208.693	-3.58
208.911	4.61
209.13	66.05
209.349	8.7
209.567	-11.78
209.786	82.43
210.005	4.61
210.223	14.85
210.442	-44.54
210.661	8.7
210.879	37.38
211.098	-50.69
211.316	90.62
211.535	90.62
211.753	-19.97
211.972	-7.68
212.191	29.18
212.409	94.72
212.628	45.57
212.846	12.8
213.065	70.14
213.283	4.61
213.502	4.61
213.72	-13.82
213.938	-19.97
214.157	66.05
214.375	20.99
214.594	-17.92
214.812	27.14
215.031	14.85
215.249	12.8
215.467	102.91
215.686	-3.58
215.904	107.01
216.122	-50.69
216.341	137.73
216.559	57.86
216.778	88.57
216.996	35.33
217.214	47.62
217.432	14.85
217.651	-48.64
217.869	78.33
218.087	6.66
218.306	33.28
218.524	31.23
218.742	49.66
218.96	31.23
219.179	-69.12
219.397	45.57
219.615	47.62
219.833	14.85
220.051	14.85
220.27	86.53
220.488	37.38
220.706	53.76
220.924	-3.58
221.142	-3.58
221.36	29.18
221.578	-36.35
221.796	43.52
222.015	37.38
222.233	6.66
222.451	55.81
222.669	10.75
222.887	86.53
223.105	-46.59
223.323	-17.92
223.541	-44.54
223.759	55.81
223.977	-32.26
224.195	72.19
224.413	6.66
224.631	14.85
224.849	-46.59
225.067	0.51
225.285	-54.78
225.503	74.24
225.721	-11.78
225.939	-26.11
226.157	80.38
226.375	94.72
226.592	14.85
226.81	23.04
227.028	66.05
227.246	94.72
227.464	61.95
227.682	39.42
227.9	4.61
228.117	74.24
228.335	8.7
228.553	-5.63
228.771	61.95
228.989	23.04
229.206	39.42
229.424	70.14
229.642	53.76
229.86	-3.58
230.077	-9.73
230.295	-15.87
230.513	16.9
230.731	111.1
230.948	-28.16
231.166	33.28
231.384	82.43
231.601	-22.02
231.819	12.8
232.037	-13.82
232.254	16.9
232.472	10.75
232.689	-3.58
232.907	27.14
233.125	4.61
233.342	-19.97
233.56	53.76
233.777	-9.73
233.995	-5.63
234.213	76.29
234.43	53.76
234.648	20.99
234.865	39.42
235.083	-11.78
235.3	12.8
235.518	37.38
235.735	96.77
235.953	61.95
236.17	84.48
236.388	-38.4
236.605	-36.35
236.822	41.47
237.04	-9.73
237.257	-1.54
237.475	-32.26
237.692	29.18
237.909	37.38
238.127	64
238.344	-3.58
238.562	20.99
238.779	-36.35
238.996	-11.78
239.214	14.85
239.431	55.81
239.648	25.09
239.865	-32.26
240.083	70.14
240.3	16.9
240.517	-19.97
240.735	23.04
240.952	37.38
241.169	4.61
241.386	39.42
241.603	0.51
241.821	29.18
242.038	45.57
242.255	57.86
242.472	-3.58
242.689	59.9
242.907	12.8
243.124	25.09
243.341	20.99
243.558	37.38
243.775	20.99
243.992	-26.11
244.209	-11.78
244.426	123.39
244.643	41.47
244.86	-58.88
245.078	-24.06
245.295	33.28
245.512	-52.74
245.729	12.8
245.946	-19.97
246.163	29.18
246.38	33.28
246.597	41.47
246.814	-26.11
247.031	23.04
247.248	12.8
247.464	107.01
247.681	16.9
247.898	68.09
248.115	-5.63
248.332	-26.11
248.549	98.81
248.766	47.62
248.983	74.24
249.2	-7.68
249.417	29.18
249.633	41.47
249.85	49.66
250.067	43.52
250.284	45.57
250.501	-15.87
250.717	90.62
250.934	-28.16
251.151	-42.5
251.368	-56.83
251.585	143.87
251.801	-26.11
252.018	8.7
252.235	31.23
252.451	-11.78
252.668	2.56
252.885	47.62
253.102	70.14
253.318	53.76
253.535	-19.97
253.752	8.7
253.968	-19.97
254.185	-1.54
254.401	119.29
254.618	-69.12
254.835	-19.97
255.051	127.49
255.268	55.81
255.484	78.33
255.701	4.61
255.917	20.99
256.134	39.42
256.351	70.14
256.567	23.04
256.784	14.85
257	-93.69
257.217	-9.73
257.433	53.76
257.65	16.9
257.866	53.76
258.082	-36.35
258.299	-28.16
258.515	76.29
258.732	-19.97
258.948	57.86
259.165	61.95
259.381	47.62
259.597	57.86
259.814	64
260.03	-36.35
260.246	57.86
260.463	59.9
260.679	53.76
260.895	102.91
261.112	53.76
261.328	-56.83
261.544	4.61
261.761	88.57
261.977	23.04
262.193	10.75
262.409	61.95
262.626	53.76
262.842	53.76
263.058	-7.68
263.274	90.62
263.49	14.85
263.707	-44.54
263.923	23.04
264.139	14.85
264.355	49.66
264.571	74.24
264.787	12.8
265.004	-3.58
265.22	33.28
265.436	41.47
265.652	-13.82
265.868	25.09
266.084	-11.78
266.3	41.47
266.516	37.38
266.732	-1.54
266.948	20.99
267.164	45.57
267.38	51.71
267.596	4.61
267.812	57.86
268.028	-11.78
268.244	-32.26
268.46	53.76
268.676	66.05
268.892	39.42
269.108	-42.5
269.324	35.33
269.54	4.61
269.756	4.61
269.972	-3.58
270.188	-36.35
270.403	23.04
270.619	70.14
270.835	61.95
271.051	82.43
271.267	4.61
271.483	12.8
271.698	29.18
271.914	88.57
272.13	-62.98
272.346	23.04
272.562	23.04
272.777	37.38
272.993	8.7
273.209	14.85
273.425	-36.35
273.64	47.62
273.856	39.42
274.072	14.85
274.287	-9.73
274.503	16.9
274.719	61.95
274.934	35.33
275.15	70.14
275.366	35.33
275.581	-48.64
275.797	-28.16
276.012	68.09
276.228	-9.73
276.444	76.29
276.659	94.72
276.875	-1.54
277.09	-1.54
277.306	61.95
277.521	39.42
277.737	-17.92
277.952	4.61
278.168	-26.11
278.383	-11.78
278.599	84.48
278.814	61.95
279.03	12.8
279.245	43.52
279.461	-85.5
279.676	-26.11
279.892	6.66
280.107	-22.02
280.322	31.23
280.538	53.76
280.753	14.85
280.969	0.51
281.184	-36.35
281.399	86.53
281.615	-9.73
281.83	20.99
282.045	-22.02
282.26	6.66
282.476	-71.17
282.691	12.8
282.906	-30.21
283.122	10.75
283.337	8.7
283.552	57.86
283.767	39.42
283.983	12.8
284.198	-9.73
284.413	-26.11
284.628	-3.58
284.843	2.56
285.058	31.23
285.274	-32.26
285.489	-52.74
285.704	121.34
285.919	18.94
286.134	-32.26
286.349	-17.92
286.564	20.99
286.779	70.14
286.995	23.04
287.21	14.85
287.425	12.8
287.64	-11.78
287.855	16.9
288.07	29.18
288.285	92.67
288.5	37.38
288.715	76.29
288.93	-36.35
289.145	-42.5
289.36	37.38
289.575	2.56
289.79	-1.54
290.004	23.04
290.219	104.96
290.434	-1.54
290.649	-19.97
290.864	25.09
291.079	39.42
291.294	59.9
291.509	-11.78
291.724	8.7
291.938	61.95
292.153	35.33
292.368	86.53
292.583	72.19
292.798	47.62
293.012	49.66
293.227	72.19
293.442	16.9
293.657	96.77
293.871	53.76
294.086	37.38
294.301	94.72
294.516	29.18
294.73	-15.87
294.945	18.94
295.16	70.14
295.374	88.57
295.589	39.42
295.804	61.95
296.018	45.57
296.233	39.42
296.447	115.2
296.662	-11.78
296.877	61.95
297.091	25.09
297.306	2.56
297.52	-28.16
297.735	0.51
297.949	45.57
298.164	4.61
298.378	27.14
298.593	-11.78
298.807	10.75
299.022	20.99
299.236	33.28
299.451	-11.78
299.665	-9.73
299.88	-9.73
300.094	4.61
300.309	14.85
300.523	4.61
300.737	47.62
300.952	33.28
301.166	14.85
301.381	64
301.595	27.14
301.809	33.28
302.024	0.51
302.238	8.7
302.452	-17.92
302.667	20.99
302.881	12.8
303.095	10.75
303.309	64
303.524	55.81
303.738	-7.68
303.952	39.42
304.166	8.7
304.381	29.18
304.595	-11.78
304.809	51.71
305.023	88.57
305.237	0.51
305.452	29.18
305.666	49.66
305.88	37.38
306.094	-11.78
306.308	20.99
306.522	16.9
306.736	55.81
306.95	-1.54
307.164	6.66
307.379	-19.97
307.593	29.18
307.807	-3.58
308.021	43.52
308.235	-36.35
308.449	-3.58
308.663	59.9
308.877	29.18
309.091	37.38
309.305	47.62
309.519	20.99
309.733	90.62
309.947	-1.54
310.161	43.52
310.374	23.04
310.588	74.24
310.802	6.66
311.016	12.8
311.23	31.23
311.444	-7.68
311.658	25.09
311.872	-15.87
312.085	74.24
312.299	135.68
312.513	113.15
312.727	0.51
312.941	-28.16
313.154	39.42
313.368	6.66
313.582	119.29
313.796	-9.73
314.009	41.47
314.223	78.33
314.437	12.8
314.651	-34.3
314.864	53.76
315.078	14.85
315.292	45.57
315.505	57.86
315.719	82.43
315.933	14.85
316.146	37.38
316.36	4.61
316.573	66.05
316.787	20.99
317.001	20.99
317.214	-11.78
317.428	57.86
317.641	-3.58
317.855	-11.78
318.068	-60.93
318.282	55.81
318.495	31.23
318.709	33.28
318.922	119.29
319.136	39.42
319.349	53.76
319.563	20.99
319.776	82.43
319.99	6.66
320.203	45.57
320.417	-26.11
320.63	20.99
320.843	78.33
321.057	61.95
321.27	41.47
321.483	-11.78
321.697	14.85
321.91	-19.97
322.124	25.09
322.337	27.14
322.55	117.25
322.763	37.38
322.977	10.75
323.19	90.62
323.403	4.61
323.617	61.95
323.83	70.14
324.043	64
324.256	4.61
324.469	90.62
324.683	86.53
324.896	0.51
325.109	49.66
325.322	25.09
325.535	53.76
325.748	37.38
325.962	25.09
326.175	4.61
326.388	-44.54
326.601	25.09
326.814	-26.11
327.027	59.9
327.24	131.58
327.453	-60.93
327.666	61.95
327.879	20.99
328.092	-9.73
328.305	6.66
328.518	12.8
328.731	-42.5
328.944	41.47
329.157	-11.78
329.37	4.61
329.583	125.44
329.796	72.19
330.009	-7.68
330.222	72.19
330.435	47.62
330.648	45.57
330.861	33.28
331.073	29.18
331.286	0.51
331.499	6.66
331.712	-3.58
331.925	98.81
332.138	39.42
332.35	104.96
332.563	8.7
332.776	-3.58
332.989	2.56
333.202	61.95
333.414	111.1
333.627	4.61
333.84	2.56
334.053	6.66
334.265	39.42
334.478	-9.73
334.691	-77.31
334.903	4.61
335.116	20.99
335.329	31.23
335.541	94.72
335.754	70.14
335.966	76.29
336.179	-1.54
336.392	115.2
336.604	74.24
336.817	90.62
337.029	20.99
337.242	66.05
337.454	72.19
337.667	37.38
337.88	47.62
338.092	23.04
338.305	57.86
338.517	12.8
338.729	64
338.942	29.18
339.154	-24.06
339.367	-7.68
339.579	94.72
339.792	-3.58
340.004	47.62
340.217	61.95
340.429	94.72
340.641	-3.58
340.854	6.66
341.066	20.99
341.278	78.33
341.491	37.38
341.703	31.23
341.915	-71.17
342.128	92.67
342.34	31.23
342.552	25.09
342.764	-1.54
342.977	45.57
343.189	45.57
343.401	6.66
343.613	20.99
343.826	29.18
344.038	59.9
344.25	39.42
344.462	70.14
344.674	25.09
344.886	47.62
345.099	20.99
345.311	78.33
345.523	16.9
345.735	33.28
345.947	72.19
346.159	37.38
346.371	4.61
346.583	-15.87
346.795	33.28
347.007	-42.5
347.219	104.96
347.431	12.8
347.643	61.95
347.855	-26.11
348.067	72.19
348.279	-11.78
348.491	33.28
348.703	-54.78
348.915	-3.58
349.127	45.57
349.339	6.66
349.551	6.66
349.763	92.67
349.975	-9.73
350.187	119.29
350.399	6.66
350.61	78.33
350.822	6.66
351.034	39.42
351.246	-24.06
351.458	4.61
351.669	6.66
351.881	107.01
352.093	72.19
352.305	152.06
352.517	35.33
352.728	78.33
352.94	53.76
353.152	86.53
353.363	-58.88
353.575	-9.73
353.787	39.42
353.999	53.76
354.21	66.05
354.422	53.76
354.633	2.56
354.845	37.38
355.057	29.18
355.268	6.66
355.48	14.85
355.692	-17.92
355.903	4.61
356.115	45.57
356.326	-38.4
356.538	74.24
356.749	55.81
356.961	86.53
357.172	68.09
357.384	53.76
357.595	86.53
357.807	45.57
358.018	70.14
358.23	47.62
358.441	113.15
358.653	4.61
358.864	-9.73
359.075	20.99
359.287	33.28
359.498	80.38
359.709	-3.58
359.921	23.04
360.132	47.62
360.344	66.05
360.555	0.51
360.766	41.47
360.977	47.62
361.189	61.95
361.4	61.95
361.611	76.29
361.823	66.05
362.034	37.38
362.245	-15.87
362.456	-28.16
362.667	72.19
362.879	-11.78
363.09	31.23
363.301	72.19
363.512	16.9
363.723	4.61
363.935	33.28
364.146	76.29
364.357	12.8
364.568	96.77
364.779	29.18
364.99	152.06
365.201	33.28
365.412	121.34
365.623	39.42
365.834	78.33
366.045	23.04
366.256	80.38
366.467	37.38
366.678	55.81
366.889	-3.58
367.1	25.09
367.311	102.91
367.522	127.49
367.733	14.85
367.944	45.57
368.155	-28.16
368.366	86.53
368.577	29.18
368.788	53.76
368.999	25.09
369.209	-17.92
369.42	51.71
369.631	70.14
369.842	33.28
370.053	31.23
370.264	121.34
370.474	43.52
370.685	86.53
370.896	102.91
371.107	94.72
371.317	119.29
371.528	14.85
371.739	59.9
371.95	-1.54
372.16	55.81
372.371	53.76
372.582	78.33
372.792	23.04
373.003	98.81
373.214	6.66
373.424	-3.58
373.635	43.52
373.846	115.2
374.056	-9.73
374.267	141.82
374.477	35.33
374.688	14.85
374.898	45.57
375.109	6.66
375.319	-1.54
375.53	23.04
375.74	74.24
375.951	14.85
376.161	0.51
376.372	49.66
376.582	37.38
376.793	64
377.003	70.14
377.214	-1.54
377.424	47.62
377.635	29.18
377.845	23.04
378.055	135.68
378.266	70.14
378.476	31.23
378.686	96.77
378.897	29.18
379.107	61.95
379.317	33.28
379.528	-9.73
379.738	135.68
379.948	-44.54
380.158	123.39
380.369	14.85
380.579	61.95
380.789	0.51
380.999	66.05
381.21	113.15
381.42	76.29
381.63	33.28
381.84	33.28
382.05	53.76
382.261	88.57
382.471	43.52
382.681	-32.26
382.891	68.09
383.101	94.72
383.311	-3.58
383.521	16.9
383.731	61.95
383.941	-26.11
384.151	66.05
384.361	53.76
384.571	64
384.781	45.57
384.991	86.53
385.201	127.49
385.411	-1.54
385.621	35.33
385.831	84.48
386.041	68.09
386.251	94.72
386.461	39.42
386.671	66.05
386.881	104.96
387.091	31.23
387.301	131.58
387.511	86.53
387.72	37.38
387.93	18.94
388.14	45.57
388.35	70.14
388.56	133.63
388.769	12.8
388.979	-26.11
389.189	-7.68
389.399	37.38
389.609	86.53
389.818	23.04
390.028	29.18
390.238	76.29
390.447	-24.06
390.657	47.62
390.867	94.72
391.076	96.77
391.286	53.76
391.496	94.72
391.705	8.7
391.915	39.42
392.125	41.47
392.334	49.66
392.544	31.23
392.753	80.38
392.963	-3.58
393.172	57.86
393.382	-32.26
393.591	8.7
393.801	66.05
394.01	109.05
394.22	111.1
394.429	57.86
394.639	37.38
394.848	107.01
395.058	64
395.267	23.04
395.477	-9.73
395.686	57.86
395.895	94.72
396.105	102.91
396.314	72.19
396.524	72.19
396.733	90.62
396.942	45.57
397.152	76.29
397.361	119.29
397.57	98.81
397.78	61.95
397.989	70.14
398.198	70.14
398.407	33.28
398.617	53.76
398.826	133.63
399.035	41.47
399.244	78.33
399.453	137.73
399.663	127.49
399.872	121.34
400.081	111.1
400.29	104.96
400.499	113.15
400.708	78.33
400.917	35.33
401.127	25.09
401.336	113.15
401.545	111.1
401.754	20.99
401.963	156.16
402.172	-1.54
402.381	98.81
402.59	51.71
402.799	78.33
403.008	61.95
403.217	133.63
403.426	152.06
403.635	53.76
403.844	111.1
404.053	109.05
404.262	152.06
404.471	143.87
404.68	111.1
404.888	86.53
405.097	158.21
405.306	104.96
405.515	86.53
405.724	135.68
405.933	100.86
406.142	113.15
406.35	123.39
406.559	201.21
406.768	178.69
406.977	180.73
407.185	178.69
407.394	86.53
407.603	176.64
407.812	160.25
408.02	238.08
408.229	233.98
408.438	96.77
408.646	8.7
408.855	195.07
409.064	250.36
409.272	207.36
409.481	242.17
409.69	236.03
409.898	193.02
410.107	258.56
410.315	293.37
410.524	190.97
410.733	283.13
410.941	274.94
411.15	262.65
411.358	233.98
411.567	260.6
411.775	336.38
411.984	307.71
412.192	348.67
412.401	344.57
412.609	399.87
412.818	459.26
413.026	416.25
413.234	434.68
413.443	430.59
413.651	373.24
413.86	410.11
414.068	489.98
414.276	387.58
414.485	469.5
414.693	500.22
414.901	559.61
415.11	479.74
415.318	530.94
415.526	545.27
415.734	639.48
415.943	602.61
416.151	580.09
416.359	608.76
416.567	645.62
416.776	717.3
416.984	741.88
417.192	694.77
417.4	803.32
417.608	717.3
417.817	813.56
418.025	776.69
418.233	877.04
418.441	811.51
418.649	885.23
418.857	913.91
419.065	995.82
419.273	934.39
419.481	1004.02
419.689	1077.74
419.897	1110.51
420.105	1128.94
420.313	1163.76
420.521	1217.01
420.729	1167.85
420.937	1284.59
421.145	1231.34
421.353	1389.03
421.561	1538.54
421.769	1489.39
421.977	1530.34
422.185	1532.39
422.393	1647.08
422.601	1720.81
422.809	1724.9
423.017	1688.04
423.224	1782.24
423.432	1792.48
423.64	1882.6
423.848	2068.96
424.056	2103.78
424.263	2052.58
424.471	2064.86
424.679	2077.15
424.887	2286.05
425.094	2339.29
425.302	2327
425.51	2402.78
425.718	2564.57
425.925	2425.31
426.133	2699.73
426.341	2752.98
426.548	2882
426.756	2920.92
426.964	2945.49
427.171	3152.34
427.379	3086.8
427.586	3264.97
427.794	3246.54
428.001	3494.35
428.209	3615.18
428.417	3465.68
428.624	3738.05
428.832	3695.05
429.039	3875.27
429.247	3758.53
429.454	4110.79
429.662	4495.8
429.869	4098.5
430.076	4272.57
430.284	4411.84
430.491	4528.57
430.699	4729.27
430.906	4669.88
431.114	4932.02
431.321	5034.42
431.528	5069.23
431.736	5392.81
431.943	5550.51
432.15	5544.36
432.358	5755.3
432.565	5958.05
432.772	5857.7
432.979	6117.79
433.187	6197.67
433.394	6435.23
433.601	6734.23
433.808	6666.65
434.016	6605.21
434.223	6986.13
434.43	7422.35
434.637	7231.89
434.844	7575.95
435.052	7713.16
435.259	7737.74
435.466	7778.7
435.673	7717.26
435.88	8178.05
436.087	8739.19
436.294	8642.94
436.501	8475.01
436.708	8612.22
436.915	8984.95
437.122	9412.98
437.329	9316.72
437.537	9736.56
437.743	9898.34
437.95	9716.08
438.157	10260.84
438.364	10375.52
438.571	10658.14
438.778	10879.32
438.985	11495.76
439.192	11204.95
439.399	11594.06
439.606	11084.12
439.813	11927.88
440.02	12753.21
440.227	12304.71
440.433	12171.59
440.64	12482.88
440.847	12675.39
441.054	12984.63
441.261	13762.86
441.467	13443.38
441.674	13807.92
441.881	14080.3
442.088	14326.05
442.294	14350.63
442.501	14520.61
442.708	14852.38
442.914	15522.07
443.121	15978.76
443.328	15673.62
443.534	16892.16
443.741	16326.92
443.948	16034.06
444.154	17178.87
444.361	17541.36
444.568	17182.97
444.774	17047.8
444.981	17565.94
445.187	18010.35
445.394	18690.27
445.6	18647.27
445.807	20371.66
446.013	19497.17
446.22	19593.43
446.426	20775.11
446.633	20601.03
446.839	21493.94
447.046	20508.87
447.252	21672.12
447.459	21846.19
447.665	21860.53
447.871	22675.62
448.078	24064.14
448.284	22728.87
448.491	23488.67
448.697	24072.34
448.903	24547.47
449.11	24737.93
449.316	24449.16
449.522	24862.85
449.728	25536.63
449.935	25835.64
450.141	25698.42
450.347	26400.88
450.553	25469.05
450.76	25485.44
450.966	26839.14
451.172	26552.43
451.378	27281.5
451.584	26761.32
451.791	27363.42
451.997	27123.81
452.203	27529.31
452.409	27850.84
452.615	27508.83
452.821	26116.21
453.027	26241.14
453.233	27781.21
453.44	26947.68
453.646	27177.06
453.852	26925.16
454.058	27766.87
454.264	26728.55
454.47	27596.89
454.676	26972.26
454.882	27668.57
455.088	25118.85
455.294	25669.75
455.5	25983.09
455.705	26112.11
455.911	25389.18
456.117	24766.6
456.323	24326.28
456.529	22925.47
456.735	24694.92
456.941	23900.31
457.147	23474.33
457.352	22722.73
457.558	22470.83
457.764	22417.58
457.97	21985.46
458.176	21555.38
458.381	21459.13
458.587	20644.04
458.793	20463.82
458.999	19638.48
459.204	20959.42
459.41	20267.21
459.616	19095.77
459.821	19118.3
460.027	19052.77
460.233	18538.73
460.438	18090.22
460.644	17869.04
460.85	17201.4
461.055	16730.37
461.261	16754.94
461.466	15499.54
461.672	15018.27
461.878	16425.22
462.083	15350.04
462.289	14973.21
462.494	14686.5
462.7	14166.31
462.905	13740.33
463.111	14176.55
463.316	14416.16
463.522	14029.1
463.727	13971.75
463.932	14194.98
464.138	13840.68
464.343	13965.61
464.549	13652.27
464.754	14123.3
464.959	13660.46
465.165	13938.99
465.37	13033.79
465.575	12972.35
465.781	13482.29
465.986	13349.17
466.191	12996.92
466.397	12800.32
466.602	12052.81
466.807	12622.14
467.012	12716.35
467.218	12333.38
467.423	12171.59
467.628	12370.24
467.833	12810.56
468.038	12497.22
468.244	12165.45
