Data from USB4F104151__170__14-44-56-175.txt Node

Date: Thu Mar 13 14:44:56 EDT 2025
User: louis
Spectrometer: USB4F10415
Trigger mode: 4
Integration Time (sec): 2.000000E-2
Scans to average: 1
Electric dark correction enabled: true
Nonlinearity correction enabled: false
Boxcar width: 0
XAxis mode: Wavelengths
Number of Pixels in Spectrum: 3648
>>>>>Begin Spectral Data<<<<<
178.204	-51.54
178.424	-51.54
178.644	-51.54
178.864	-121.17
179.084	-117.08
179.304	-55.64
179.524	79.53
179.744	-37.2
179.964	-6.49
180.184	38.57
180.404	3.75
180.624	3.75
180.844	-6.49
181.064	5.8
181.283	-14.68
181.503	-24.92
181.723	13.99
181.943	-67.92
182.163	59.05
182.383	-31.06
182.602	-45.4
182.822	9.9
183.042	40.62
183.262	54.95
183.482	20.14
183.701	-31.06
183.921	22.19
184.141	-37.2
184.361	79.53
184.58	-10.58
184.8	-14.68
185.02	-43.35
185.239	85.67
185.459	34.47
185.679	18.09
185.898	-88.4
186.118	63.15
186.338	22.19
186.557	16.04
186.777	3.75
186.997	50.86
187.216	26.28
187.436	106.15
187.655	75.43
187.875	83.63
188.095	50.86
188.314	-6.49
188.534	83.63
188.753	-4.44
188.973	9.9
189.192	28.33
189.412	63.15
189.631	42.67
189.851	-2.39
190.07	36.52
190.29	20.14
190.509	63.15
190.729	-6.49
190.948	13.99
191.168	145.06
191.387	63.15
191.607	-6.49
191.826	24.23
192.045	32.43
192.265	-22.87
192.484	-4.44
192.704	20.14
192.923	-6.49
193.142	69.29
193.362	26.28
193.581	28.33
193.8	59.05
194.02	42.67
194.239	13.99
194.458	40.62
194.678	13.99
194.897	-22.87
195.116	-12.63
195.335	77.48
195.555	38.57
195.774	59.05
195.993	1.71
196.212	11.95
196.432	50.86
196.651	-10.58
196.87	3.75
197.089	38.57
197.308	-14.68
197.528	38.57
197.747	67.24
197.966	67.24
198.185	67.24
198.404	20.14
198.623	22.19
198.842	75.43
199.062	24.23
199.281	22.19
199.5	30.38
199.719	75.43
199.938	20.14
200.157	128.68
200.376	42.67
200.595	59.05
200.814	36.52
201.033	-26.96
201.252	75.43
201.471	38.57
201.69	79.53
201.909	65.19
202.128	57
202.347	50.86
202.566	61.1
202.785	13.99
203.004	-12.63
203.223	91.82
203.442	-12.63
203.661	-18.77
203.879	50.86
204.098	59.05
204.317	-20.82
204.536	38.57
204.755	42.67
204.974	-43.35
205.193	-26.96
205.411	71.34
205.63	38.57
205.849	104.11
206.068	28.33
206.287	42.67
206.505	61.1
206.724	18.09
206.943	38.57
207.162	-6.49
207.381	30.38
207.599	20.14
207.818	-22.87
208.037	18.09
208.255	38.57
208.474	114.34
208.693	67.24
208.911	-4.44
209.13	30.38
209.349	5.8
209.567	18.09
209.786	24.23
210.005	36.52
210.223	67.24
210.442	-18.77
210.661	50.86
210.879	65.19
211.098	-53.59
211.316	7.85
211.535	28.33
211.753	87.72
211.972	54.95
212.191	18.09
212.409	67.24
212.628	30.38
212.846	22.19
213.065	102.06
213.283	85.67
213.502	38.57
213.72	61.1
213.938	5.8
214.157	52.91
214.375	11.95
214.594	-4.44
214.812	54.95
215.031	42.67
215.249	-12.63
215.467	3.75
215.686	-37.2
215.904	91.82
216.122	28.33
216.341	38.57
216.559	30.38
216.778	-10.58
216.996	83.63
217.214	-6.49
217.432	-31.06
217.651	63.15
217.869	-12.63
218.087	69.29
218.306	18.09
218.524	34.47
218.742	26.28
218.96	1.71
219.179	104.11
219.397	38.57
219.615	-10.58
219.833	30.38
220.051	-63.83
220.27	22.19
220.488	26.28
220.706	75.43
220.924	24.23
221.142	48.81
221.36	18.09
221.578	36.52
221.796	59.05
222.015	30.38
222.233	-6.49
222.451	11.95
222.669	-22.87
222.887	42.67
223.105	42.67
223.323	59.05
223.541	20.14
223.759	42.67
223.977	16.04
224.195	36.52
224.413	9.9
224.631	-8.53
224.849	3.75
225.067	116.39
225.285	-35.16
225.503	11.95
225.721	36.52
225.939	67.24
226.157	46.76
226.375	54.95
226.592	-43.35
226.81	91.82
227.028	-18.77
227.246	104.11
227.464	1.71
227.682	57
227.9	9.9
228.117	34.47
228.335	26.28
228.553	28.33
228.771	20.14
228.989	11.95
229.206	77.48
229.424	104.11
229.642	-37.2
229.86	-47.44
230.077	50.86
230.295	18.09
230.513	22.19
230.731	77.48
230.948	73.39
231.166	9.9
231.384	40.62
231.601	9.9
231.819	61.1
232.037	22.19
232.254	-55.64
232.472	52.91
232.689	93.87
232.907	3.75
233.125	63.15
233.342	73.39
233.56	1.71
233.777	71.34
233.995	1.71
234.213	59.05
234.43	36.52
234.648	75.43
234.865	67.24
235.083	106.15
235.3	-14.68
235.518	61.1
235.735	116.39
235.953	24.23
236.17	71.34
236.388	18.09
236.605	-39.25
236.822	83.63
237.04	95.91
237.257	63.15
237.475	-31.06
237.692	-14.68
237.909	97.96
238.127	20.14
238.344	77.48
238.562	13.99
238.779	26.28
238.996	-22.87
239.214	-26.96
239.431	-0.34
239.648	59.05
239.865	9.9
240.083	9.9
240.3	24.23
240.517	-0.34
240.735	34.47
240.952	22.19
241.169	91.82
241.386	79.53
241.603	-12.63
241.821	-39.25
242.038	50.86
242.255	-4.44
242.472	50.86
242.689	95.91
242.907	46.76
243.124	5.8
243.341	-14.68
243.558	-29.01
243.775	20.14
243.992	20.14
244.209	-14.68
244.426	75.43
244.643	24.23
244.86	36.52
245.078	-22.87
245.295	118.44
245.512	20.14
245.729	-8.53
245.946	79.53
246.163	63.15
246.38	-20.82
246.597	52.91
246.814	1.71
247.031	-22.87
247.248	-8.53
247.464	61.1
247.681	32.43
247.898	77.48
248.115	67.24
248.332	13.99
248.549	-14.68
248.766	30.38
248.983	18.09
249.2	9.9
249.417	54.95
249.633	71.34
249.85	77.48
250.067	-39.25
250.284	67.24
250.501	38.57
250.717	77.48
250.934	11.95
251.151	50.86
251.368	83.63
251.585	-4.44
251.801	9.9
252.018	1.71
252.235	11.95
252.451	22.19
252.668	-22.87
252.885	-0.34
253.102	13.99
253.318	100.01
253.535	28.33
253.752	-59.73
253.968	20.14
254.185	28.33
254.401	-12.63
254.618	54.95
254.835	-8.53
255.051	42.67
255.268	5.8
255.484	52.91
255.701	-47.44
255.917	-14.68
256.134	-26.96
256.351	44.71
256.567	-39.25
256.784	36.52
257	-31.06
257.217	75.43
257.433	59.05
257.65	1.71
257.866	-14.68
258.082	16.04
258.299	-6.49
258.515	75.43
258.732	30.38
258.948	3.75
259.165	44.71
259.381	-4.44
259.597	83.63
259.814	38.57
260.03	-22.87
260.246	1.71
260.463	128.68
260.679	3.75
260.895	1.71
261.112	42.67
261.328	-6.49
261.544	11.95
261.761	71.34
261.977	-84.31
262.193	54.95
262.409	124.58
262.626	18.09
262.842	42.67
263.058	24.23
263.274	61.1
263.49	-4.44
263.707	59.05
263.923	-31.06
264.139	-22.87
264.355	93.87
264.571	50.86
264.787	-45.4
265.004	59.05
265.22	54.95
265.436	5.8
265.652	63.15
265.868	71.34
266.084	91.82
266.3	-24.92
266.516	-4.44
266.732	59.05
266.948	59.05
267.164	54.95
267.38	20.14
267.596	83.63
267.812	67.24
268.028	1.71
268.244	20.14
268.46	42.67
268.676	77.48
268.892	75.43
269.108	-80.21
269.324	9.9
269.54	1.71
269.756	18.09
269.972	-35.16
270.188	-53.59
270.403	36.52
270.619	18.09
270.835	108.2
271.051	34.47
271.267	18.09
271.483	61.1
271.698	34.47
271.914	102.06
272.13	44.71
272.346	-14.68
272.562	-96.6
272.777	116.39
272.993	30.38
273.209	54.95
273.425	-6.49
273.64	50.86
273.856	28.33
274.072	38.57
274.287	1.71
274.503	52.91
274.719	50.86
274.934	-14.68
275.15	-8.53
275.366	32.43
275.581	-45.4
275.797	-14.68
276.012	-2.39
276.228	36.52
276.444	61.1
276.659	36.52
276.875	20.14
277.09	-6.49
277.306	-33.11
277.521	85.67
277.737	50.86
277.952	79.53
278.168	-16.73
278.383	-24.92
278.599	-49.49
278.814	71.34
279.03	63.15
279.245	9.9
279.461	67.24
279.676	59.05
279.892	-0.34
280.107	-2.39
280.322	42.67
280.538	11.95
280.753	-14.68
280.969	30.38
281.184	67.24
281.399	34.47
281.615	-12.63
281.83	120.49
282.045	26.28
282.26	44.71
282.476	-2.39
282.691	100.01
282.906	11.95
283.122	20.14
283.337	1.71
283.552	30.38
283.767	16.04
283.983	79.53
284.198	57
284.413	9.9
284.628	-4.44
284.843	52.91
285.058	89.77
285.274	63.15
285.489	-43.35
285.704	34.47
285.919	-12.63
286.134	59.05
286.349	36.52
286.564	18.09
286.779	91.82
286.995	44.71
287.21	22.19
287.425	-14.68
287.64	-51.54
287.855	36.52
288.07	50.86
288.285	26.28
288.5	-12.63
288.715	34.47
288.93	-6.49
289.145	-4.44
289.36	18.09
289.575	18.09
289.79	140.97
290.004	11.95
290.219	38.57
290.434	44.71
290.649	44.71
290.864	79.53
291.079	-14.68
291.294	13.99
291.509	36.52
291.724	18.09
291.938	34.47
292.153	-43.35
292.368	16.04
292.583	1.71
292.798	85.67
293.012	-39.25
293.227	3.75
293.442	44.71
293.657	26.28
293.871	18.09
294.086	26.28
294.301	42.67
294.516	-4.44
294.73	50.86
294.945	26.28
295.16	-18.77
295.374	54.95
295.589	69.29
295.804	26.28
296.018	34.47
296.233	67.24
296.447	50.86
296.662	52.91
296.877	67.24
297.091	63.15
297.306	-8.53
297.52	18.09
297.735	71.34
297.949	-33.11
298.164	-4.44
298.378	-53.59
298.593	-0.34
298.807	-20.82
299.022	18.09
299.236	91.82
299.451	50.86
299.665	26.28
299.88	42.67
300.094	75.43
300.309	-22.87
300.523	22.19
300.737	69.29
300.952	11.95
301.166	50.86
301.381	34.47
301.595	69.29
301.809	20.14
302.024	11.95
302.238	-31.06
302.452	140.97
302.667	48.81
302.881	30.38
303.095	18.09
303.309	50.86
303.524	-31.06
303.738	-29.01
303.952	-0.34
304.166	30.38
304.381	9.9
304.595	153.26
304.809	46.76
305.023	57
305.237	36.52
305.452	59.05
305.666	18.09
305.88	-4.44
306.094	42.67
306.308	-14.68
306.522	-18.77
306.736	61.1
306.95	-6.49
307.164	11.95
307.379	26.28
307.593	34.47
307.807	22.19
308.021	26.28
308.235	59.05
308.449	11.95
308.663	110.25
308.877	126.63
309.091	44.71
309.305	26.28
309.519	-47.44
309.733	28.33
309.947	-4.44
310.161	91.82
310.374	104.11
310.588	-12.63
310.802	11.95
311.016	16.04
311.23	9.9
311.444	22.19
311.658	5.8
311.872	28.33
312.085	30.38
312.299	38.57
312.513	136.87
312.727	20.14
312.941	-22.87
313.154	91.82
313.368	-31.06
313.582	61.1
313.796	34.47
314.009	71.34
314.223	91.82
314.437	100.01
314.651	73.39
314.864	46.76
315.078	-22.87
315.292	-2.39
315.505	61.1
315.719	34.47
315.933	50.86
316.146	-6.49
316.36	32.43
316.573	36.52
316.787	75.43
317.001	34.47
317.214	-43.35
317.428	-31.06
317.641	-31.06
317.855	54.95
318.068	5.8
318.282	28.33
318.495	151.21
318.709	46.76
318.922	5.8
319.136	67.24
319.349	-4.44
319.563	38.57
319.776	42.67
319.99	-35.16
320.203	44.71
320.417	67.24
320.63	61.1
320.843	93.87
321.057	79.53
321.27	46.76
321.483	69.29
321.697	83.63
321.91	85.67
322.124	5.8
322.337	44.71
322.55	18.09
322.763	-61.78
322.977	-0.34
323.19	-10.58
323.403	77.48
323.617	-24.92
323.83	140.97
324.043	-10.58
324.256	67.24
324.469	50.86
324.683	97.96
324.896	-10.58
325.109	61.1
325.322	26.28
325.535	126.63
325.748	124.58
325.962	24.23
326.175	87.72
326.388	108.2
326.601	85.67
326.814	79.53
327.027	48.81
327.24	132.78
327.453	32.43
327.666	26.28
327.879	59.05
328.092	75.43
328.305	34.47
328.518	52.91
328.731	59.05
328.944	11.95
329.157	-4.44
329.37	91.82
329.583	57
329.796	91.82
330.009	46.76
330.222	38.57
330.435	22.19
330.648	69.29
330.861	46.76
331.073	77.48
331.286	22.19
331.499	18.09
331.712	28.33
331.925	11.95
332.138	102.06
332.35	83.63
332.563	-80.21
332.776	102.06
332.989	1.71
333.202	52.91
333.414	18.09
333.627	34.47
333.84	-2.39
334.053	42.67
334.265	52.91
334.478	28.33
334.691	-14.68
334.903	-4.44
335.116	-20.82
335.329	77.48
335.541	57
335.754	48.81
335.966	-18.77
336.179	83.63
336.392	118.44
336.604	52.91
336.817	91.82
337.029	34.47
337.242	48.81
337.454	91.82
337.667	16.04
337.88	79.53
338.092	79.53
338.305	42.67
338.517	-45.4
338.729	34.47
338.942	7.85
339.154	71.34
339.367	26.28
339.579	69.29
339.792	-16.73
340.004	102.06
340.217	9.9
340.429	9.9
340.641	11.95
340.854	44.71
341.066	1.71
341.278	67.24
341.491	108.2
341.703	75.43
341.915	59.05
342.128	112.3
342.34	97.96
342.552	11.95
342.764	44.71
342.977	-26.96
343.189	67.24
343.401	-45.4
343.613	-57.68
343.826	26.28
344.038	-35.16
344.25	87.72
344.462	-53.59
344.674	93.87
344.886	-16.73
345.099	59.05
345.311	54.95
345.523	63.15
345.735	-39.25
345.947	22.19
346.159	108.2
346.371	24.23
346.583	69.29
346.795	22.19
347.007	42.67
347.219	54.95
347.431	34.47
347.643	11.95
347.855	50.86
348.067	57
348.279	-16.73
348.491	54.95
348.703	67.24
348.915	44.71
349.127	30.38
349.339	-2.39
349.551	1.71
349.763	34.47
349.975	18.09
350.187	26.28
350.399	26.28
350.61	140.97
350.822	13.99
351.034	50.86
351.246	24.23
351.458	71.34
351.669	75.43
351.881	77.48
352.093	34.47
352.305	52.91
352.517	-10.58
352.728	143.02
352.94	67.24
353.152	28.33
353.363	-8.53
353.575	61.1
353.787	110.25
353.999	85.67
354.21	75.43
354.422	9.9
354.633	50.86
354.845	69.29
355.057	26.28
355.268	59.05
355.48	59.05
355.692	-4.44
355.903	50.86
356.115	-45.4
356.326	-63.83
356.538	81.58
356.749	22.19
356.961	120.49
357.172	-45.4
357.384	3.75
357.595	52.91
357.807	-2.39
358.018	3.75
358.23	20.14
358.441	132.78
358.653	65.19
358.864	36.52
359.075	1.71
359.287	54.95
359.498	61.1
359.709	42.67
359.921	20.14
360.132	59.05
360.344	18.09
360.555	1.71
360.766	30.38
360.977	69.29
361.189	50.86
361.4	9.9
361.611	40.62
361.823	89.77
362.034	46.76
362.245	36.52
362.456	71.34
362.667	44.71
362.879	46.76
363.09	52.91
363.301	30.38
363.512	30.38
363.723	102.06
363.935	-18.77
364.146	67.24
364.357	22.19
364.568	1.71
364.779	40.62
364.99	32.43
365.201	-10.58
365.412	110.25
365.623	9.9
365.834	63.15
366.045	59.05
366.256	104.11
366.467	1.71
366.678	126.63
366.889	38.57
367.1	34.47
367.311	104.11
367.522	59.05
367.733	24.23
367.944	54.95
368.155	1.71
368.366	20.14
368.577	95.91
368.788	20.14
368.999	71.34
369.209	71.34
369.42	52.91
369.631	83.63
369.842	20.14
370.053	73.39
370.264	54.95
370.474	75.43
370.685	75.43
370.896	42.67
371.107	108.2
371.317	22.19
371.528	59.05
371.739	59.05
371.95	108.2
372.16	20.14
372.371	-6.49
372.582	52.91
372.792	75.43
373.003	44.71
373.214	28.33
373.424	67.24
373.635	20.14
373.846	75.43
374.056	81.58
374.267	102.06
374.477	75.43
374.688	-22.87
374.898	1.71
375.109	-39.25
375.319	5.8
375.53	128.68
375.74	151.21
375.951	28.33
376.161	38.57
376.372	118.44
376.582	38.57
376.793	102.06
377.003	61.1
377.214	26.28
377.424	106.15
377.635	18.09
377.845	-4.44
378.055	132.78
378.266	75.43
378.476	44.71
378.686	22.19
378.897	40.62
379.107	30.38
379.317	-39.25
379.528	73.39
379.738	52.91
379.948	28.33
380.158	42.67
380.369	26.28
380.579	110.25
380.789	102.06
380.999	102.06
381.21	30.38
381.42	110.25
381.63	52.91
381.84	22.19
382.05	67.24
382.261	118.44
382.471	44.71
382.681	34.47
382.891	42.67
383.101	-4.44
383.311	36.52
383.521	50.86
383.731	34.47
383.941	57
384.151	-10.58
384.361	50.86
384.571	-4.44
384.781	50.86
384.991	48.81
385.201	34.47
385.411	40.62
385.621	79.53
385.831	7.85
386.041	48.81
386.251	34.47
386.461	108.2
386.671	73.39
386.881	159.4
387.091	67.24
387.301	67.24
387.511	69.29
387.72	30.38
387.93	67.24
388.14	36.52
388.35	59.05
388.56	108.2
388.769	120.49
388.979	91.82
389.189	-29.01
389.399	-20.82
389.609	61.1
389.818	69.29
390.028	42.67
390.238	46.76
390.447	69.29
390.657	120.49
390.867	46.76
391.076	28.33
391.286	18.09
391.496	11.95
391.705	145.06
391.915	79.53
392.125	124.58
392.334	-20.82
392.544	77.48
392.753	93.87
392.963	-4.44
393.172	75.43
393.382	-4.44
393.591	91.82
393.801	32.43
394.01	36.52
394.22	75.43
394.429	22.19
394.639	108.2
394.848	50.86
395.058	116.39
395.267	77.48
395.477	93.87
395.686	93.87
395.895	108.2
396.105	93.87
396.314	91.82
396.524	104.11
396.733	57
396.942	104.11
397.152	83.63
397.361	91.82
397.57	38.57
397.78	44.71
397.989	100.01
398.198	65.19
398.407	89.77
398.617	143.02
398.826	83.63
399.035	79.53
399.244	126.63
399.453	42.67
399.663	112.3
399.872	124.58
400.081	-0.34
400.29	165.54
400.499	42.67
400.708	100.01
400.917	87.72
401.127	128.68
401.336	102.06
401.545	153.26
401.754	108.2
401.963	235.18
402.172	128.68
402.381	26.28
402.59	95.91
402.799	100.01
403.008	69.29
403.217	108.2
403.426	151.21
403.635	183.98
403.844	128.68
404.053	59.05
404.262	75.43
404.471	122.54
404.68	91.82
404.888	134.82
405.097	126.63
405.306	110.25
405.515	122.54
405.724	89.77
405.933	165.54
406.142	190.12
406.35	132.78
406.559	108.2
406.768	140.97
406.977	171.69
407.185	167.59
407.394	177.83
407.603	161.45
407.812	190.12
408.02	231.08
408.229	251.56
408.438	206.5
408.646	214.7
408.855	216.74
409.064	255.65
409.272	263.85
409.481	315.05
409.69	192.17
409.898	235.18
410.107	374.44
410.315	321.19
410.524	249.51
410.733	304.81
410.941	323.24
411.15	345.77
411.358	341.67
411.567	396.96
411.775	327.33
411.984	337.57
412.192	378.53
412.401	437.92
412.609	376.48
412.818	429.73
413.026	399.01
413.234	413.35
413.443	476.84
413.651	462.5
413.86	509.6
414.068	607.91
414.276	566.95
414.485	513.7
414.693	634.53
414.901	577.19
415.11	636.58
415.318	581.28
415.526	620.19
415.734	710.3
415.943	708.26
416.151	738.98
416.359	732.83
416.567	755.36
416.776	839.33
416.984	874.14
417.192	882.33
417.4	890.53
417.608	870.05
417.817	863.9
418.025	1031.83
418.233	1040.03
418.441	902.81
418.649	939.68
418.857	1279.64
419.065	1064.6
419.273	1134.23
419.481	1183.38
419.689	1310.36
419.897	1345.17
420.105	1273.5
420.313	1423
420.521	1480.34
420.729	1423
420.937	1470.1
421.145	1617.55
421.353	1638.03
421.561	1640.08
421.769	1738.38
421.977	1914.51
422.185	1773.2
422.393	1846.93
422.601	2008.72
422.809	2023.05
423.017	2016.91
423.224	2090.63
423.432	2205.32
423.64	2160.27
423.848	2328.2
424.056	2258.57
424.263	2453.13
424.471	2485.89
424.679	2653.83
424.887	2561.67
425.094	2819.71
425.302	2791.04
425.51	2963.07
425.718	3016.32
425.925	3024.51
426.133	3147.39
426.341	3286.65
426.548	3348.09
426.756	3378.81
426.964	3532.4
427.171	3686
427.379	3780.21
427.586	3794.54
427.794	3974.77
428.001	4144.75
428.209	4290.15
428.417	4230.76
428.624	4466.28
428.832	4486.76
429.039	4511.33
429.247	4509.29
429.454	4990.56
429.662	5080.67
429.869	4963.93
430.076	5320.28
430.284	5181.02
430.491	5412.44
430.699	5647.96
430.906	5637.72
431.114	5815.89
431.321	5895.76
431.528	6084.17
431.736	6530.63
431.943	6717
432.15	6510.15
432.358	6694.47
432.565	6999.62
432.772	6934.08
432.979	7263.8
433.187	7425.59
433.394	7431.74
433.601	8021.55
433.808	7964.21
434.016	7894.58
434.223	8306.22
434.43	8642.09
434.637	8465.96
434.844	9117.22
435.052	9324.06
435.259	9291.29
435.466	9317.92
435.673	9057.82
435.88	9817.62
436.087	10022.42
436.294	10391.05
436.501	10167.82
436.708	10143.25
436.915	10520.07
437.122	11077.12
437.329	10923.52
437.537	11519.48
437.743	11709.94
437.95	11509.24
438.157	12054
438.364	12545.52
438.571	12563.95
438.778	12584.43
438.985	13645.27
439.192	13172.19
439.399	13420
439.606	13293.02
439.813	13964.76
440.02	14996.93
440.227	14560.72
440.433	14468.56
440.64	14826.95
440.847	14691.79
441.054	15099.33
441.261	16092.6
441.467	15848.89
441.674	16330.16
441.881	16907.69
442.088	16782.76
442.294	16813.48
442.501	17081.77
442.708	17309.09
442.914	18046.36
443.121	18933.13
443.328	18148.76
443.534	19588.48
443.741	19049.86
443.948	18673.04
444.154	20460.91
444.361	20022.65
444.568	20290.93
444.774	20227.45
444.981	20364.66
445.187	20895.08
445.394	22009.18
445.6	21654.88
445.807	23842.11
446.013	22791.5
446.22	22955.34
446.426	23987.52
446.633	24026.43
446.839	25105.71
447.046	24048.96
447.252	25163.05
447.459	25251.11
447.665	25103.66
447.871	26488.09
448.078	27673.86
448.284	26117.4
448.491	26699.03
448.697	27843.84
448.903	28480.76
449.11	28423.42
449.316	27938.05
449.522	28583.16
449.728	29471.98
449.935	29506.79
450.141	29555.94
450.347	30117.09
450.553	29316.33
450.76	29859.04
450.966	30737.62
451.172	30379.23
451.378	31386.83
451.584	30756.05
451.791	31524.04
451.997	31315.15
452.203	31575.24
452.409	31608.01
452.615	32044.23
452.821	30457.05
453.027	30207.2
453.233	31995.07
453.44	30500.06
453.646	30780.63
453.852	30899.41
454.058	31618.25
454.264	30581.98
454.47	31603.91
454.676	30672.09
454.882	31476.94
455.088	28794.1
455.294	29332.72
455.5	29705.45
455.705	30334.17
455.911	28964.08
456.117	28443.9
456.323	27997.44
456.529	26713.36
456.735	27794.69
456.941	26952.98
457.147	26379.54
457.352	25779.49
457.558	25802.02
457.764	25842.98
457.97	25113.9
458.176	24556.85
458.381	24509.75
458.587	23551.3
458.793	23422.28
458.999	22312.28
459.204	23887.17
459.41	23104.84
459.616	21646.69
459.821	21605.73
460.027	21540.19
460.233	20931.95
460.438	20221.3
460.644	20456.82
460.85	19400.07
461.055	18902.41
461.261	19271.04
461.466	17776.03
461.672	17223.08
461.878	18363.79
462.083	17229.22
462.289	16756.14
462.494	16442.8
462.7	16008.63
462.905	15390.14
463.111	15875.51
463.316	15914.42
463.522	15730.11
463.727	15566.27
463.932	15795.64
464.138	15486.4
464.343	15754.68
464.549	15304.13
464.754	15754.68
464.959	15453.63
465.165	15658.43
465.37	14833.1
465.575	14331.34
465.781	14908.87
465.986	15027.65
466.191	14673.35
466.397	14153.17
466.602	13587.93
466.807	14011.86
467.012	13813.21
467.218	13710.81
467.423	13682.14
467.628	13608.41
