Data from USB4F104151__197__14-45-16-771.txt Node

Date: Thu Mar 13 14:45:16 EDT 2025
User: louis
Spectrometer: USB4F10415
Trigger mode: 4
Integration Time (sec): 2.000000E-2
Scans to average: 1
Electric dark correction enabled: true
Nonlinearity correction enabled: false
Boxcar width: 0
XAxis mode: Wavelengths
Number of Pixels in Spectrum: 3648
>>>>>Begin Spectral Data<<<<<
178.204	-109.57
178.424	-109.57
178.644	-109.57
178.864	-119.81
179.084	-132.09
179.304	19.46
179.524	13.31
179.744	-27.65
179.964	52.22
180.184	-68.61
180.404	3.07
180.624	19.46
180.844	-37.89
181.064	7.17
181.283	11.26
181.503	-15.36
181.723	23.55
181.943	-111.61
182.163	64.51
182.383	60.42
182.602	44.03
182.822	-13.31
183.042	-13.31
183.262	-33.79
183.482	80.89
183.701	46.08
183.921	11.26
184.141	-17.41
184.361	113.66
184.58	31.74
184.8	41.98
185.02	23.55
185.239	62.46
185.459	5.12
185.679	48.13
185.898	-21.5
186.118	60.42
186.338	-19.46
186.557	21.5
186.777	21.5
186.997	-13.31
187.216	-7.17
187.436	78.85
187.655	-5.12
187.875	35.84
188.095	7.17
188.314	11.26
188.534	46.08
188.753	-5.12
188.973	84.99
189.192	101.37
189.412	52.22
189.631	101.37
189.851	7.17
190.07	52.22
190.29	1.02
190.509	21.5
190.729	-29.7
190.948	-66.56
191.168	119.81
191.387	109.57
191.607	-33.79
191.826	11.26
192.045	9.22
192.265	19.46
192.484	23.55
192.704	-5.12
192.923	-3.07
193.142	64.51
193.362	48.13
193.581	60.42
193.8	35.84
194.02	27.65
194.239	35.84
194.458	-37.89
194.678	13.31
194.897	-87.04
195.116	52.22
195.335	15.36
195.555	52.22
195.774	46.08
195.993	-11.26
196.212	-17.41
196.432	-5.12
196.651	15.36
196.87	11.26
197.089	93.18
197.308	76.8
197.528	27.65
197.747	-54.27
197.966	-19.46
198.185	19.46
198.404	-5.12
198.623	-52.22
198.842	64.51
199.062	-11.26
199.281	19.46
199.5	68.61
199.719	7.17
199.938	31.74
200.157	-27.65
200.376	52.22
200.595	-15.36
200.814	35.84
201.033	41.98
201.252	-35.84
201.471	44.03
201.69	109.57
201.909	72.7
202.128	95.23
202.347	-19.46
202.566	-37.89
202.785	37.89
203.004	-46.08
203.223	39.94
203.442	103.42
203.661	39.94
203.879	60.42
204.098	5.12
204.317	3.07
204.536	-54.27
204.755	29.7
204.974	-1.02
205.193	68.61
205.411	93.18
205.63	-17.41
205.849	44.03
206.068	-64.51
206.287	-37.89
206.505	-5.12
206.724	-25.6
206.943	-11.26
207.162	-23.55
207.381	3.07
207.599	25.6
207.818	52.22
208.037	21.5
208.255	27.65
208.474	21.5
208.693	-13.31
208.911	15.36
209.13	-13.31
209.349	39.94
209.567	121.85
209.786	76.8
210.005	1.02
210.223	23.55
210.442	-41.98
210.661	-74.75
210.879	-19.46
211.098	-1.02
211.316	37.89
211.535	44.03
211.753	21.5
211.972	35.84
212.191	-70.65
212.409	7.17
212.628	11.26
212.846	-11.26
213.065	84.99
213.283	58.37
213.502	-9.22
213.72	-21.5
213.938	-1.02
214.157	93.18
214.375	60.42
214.594	-27.65
214.812	19.46
215.031	46.08
215.249	-37.89
215.467	74.75
215.686	-5.12
215.904	-3.07
216.122	11.26
216.341	7.17
216.559	15.36
216.778	-5.12
216.996	58.37
217.214	11.26
217.432	87.04
217.651	-44.03
217.869	29.7
218.087	-29.7
218.306	5.12
218.524	-54.27
218.742	37.89
218.96	44.03
219.179	-29.7
219.397	-19.46
219.615	87.04
219.833	33.79
220.051	-25.6
220.27	-3.07
220.488	-5.12
220.706	23.55
220.924	11.26
221.142	84.99
221.36	-13.31
221.578	-13.31
221.796	-3.07
222.015	27.65
222.233	46.08
222.451	60.42
222.669	54.27
222.887	37.89
223.105	-13.31
223.323	15.36
223.541	-3.07
223.759	-29.7
223.977	72.7
224.195	33.79
224.413	44.03
224.631	-5.12
224.849	-1.02
225.067	39.94
225.285	-46.08
225.503	-84.99
225.721	-35.84
225.939	1.02
226.157	62.46
226.375	19.46
226.592	35.84
226.81	48.13
227.028	48.13
227.246	37.89
227.464	-37.89
227.682	103.42
227.9	9.22
228.117	29.7
228.335	-27.65
228.553	17.41
228.771	5.12
228.989	-13.31
229.206	-5.12
229.424	19.46
229.642	-58.37
229.86	19.46
230.077	11.26
230.295	78.85
230.513	15.36
230.731	29.7
230.948	150.53
231.166	37.89
231.384	3.07
231.601	31.74
231.819	3.07
232.037	27.65
232.254	84.99
232.472	35.84
232.689	-48.13
232.907	35.84
233.125	-35.84
233.342	-60.42
233.56	-17.41
233.777	48.13
233.995	48.13
234.213	21.5
234.43	-25.6
234.648	-1.02
234.865	27.65
235.083	52.22
235.3	23.55
235.518	3.07
235.735	39.94
235.953	93.18
236.17	3.07
236.388	-11.26
236.605	11.26
236.822	15.36
237.04	64.51
237.257	-72.7
237.475	-97.28
237.692	5.12
237.909	19.46
238.127	27.65
238.344	107.52
238.562	44.03
238.779	-29.7
238.996	37.89
239.214	-21.5
239.431	66.56
239.648	-44.03
239.865	-29.7
240.083	-33.79
240.3	39.94
240.517	-9.22
240.735	-13.31
240.952	-29.7
241.169	39.94
241.386	27.65
241.603	23.55
241.821	68.61
242.038	52.22
242.255	35.84
242.472	-35.84
242.689	99.33
242.907	19.46
243.124	-31.74
243.341	-13.31
243.558	-13.31
243.775	-1.02
243.992	44.03
244.209	44.03
244.426	37.89
244.643	-5.12
244.86	52.22
245.078	76.8
245.295	103.42
245.512	-1.02
245.729	76.8
245.946	46.08
246.163	44.03
246.38	-29.7
246.597	-5.12
246.814	-13.31
247.031	29.7
247.248	66.56
247.464	44.03
247.681	48.13
247.898	7.17
248.115	68.61
248.332	37.89
248.549	60.42
248.766	21.5
248.983	113.66
249.2	-33.79
249.417	62.46
249.633	52.22
249.85	64.51
250.067	19.46
250.284	19.46
250.501	-19.46
250.717	35.84
250.934	-21.5
251.151	27.65
251.368	-39.94
251.585	13.31
251.801	93.18
252.018	60.42
252.235	-17.41
252.451	29.7
252.668	-27.65
252.885	17.41
253.102	31.74
253.318	-5.12
253.535	-5.12
253.752	7.17
253.968	31.74
254.185	-41.98
254.401	-19.46
254.618	-78.85
254.835	-19.46
255.051	37.89
255.268	13.31
255.484	29.7
255.701	-21.5
255.917	52.22
256.134	-17.41
256.351	5.12
256.567	-54.27
256.784	-33.79
257	-5.12
257.217	54.27
257.433	-25.6
257.65	9.22
257.866	62.46
258.082	41.98
258.299	-44.03
258.515	19.46
258.732	60.42
258.948	-54.27
259.165	15.36
259.381	58.37
259.597	-5.12
259.814	21.5
260.03	89.09
260.246	-15.36
260.463	31.74
260.679	74.75
260.895	27.65
261.112	-46.08
261.328	-5.12
261.544	31.74
261.761	68.61
261.977	29.7
262.193	19.46
262.409	58.37
262.626	-5.12
262.842	35.84
263.058	1.02
263.274	23.55
263.49	-25.6
263.707	44.03
263.923	119.81
264.139	37.89
264.355	-27.65
264.571	35.84
264.787	41.98
265.004	68.61
265.22	-1.02
265.436	19.46
265.652	23.55
265.868	-5.12
266.084	27.65
266.3	-33.79
266.516	52.22
266.732	21.5
266.948	29.7
267.164	27.65
267.38	15.36
267.596	31.74
267.812	70.65
268.028	27.65
268.244	97.28
268.46	91.13
268.676	-13.31
268.892	31.74
269.108	-33.79
269.324	41.98
269.54	-3.07
269.756	105.47
269.972	23.55
270.188	52.22
270.403	11.26
270.619	-17.41
270.835	17.41
271.051	29.7
271.267	-3.07
271.483	68.61
271.698	66.56
271.914	66.56
272.13	80.89
272.346	-60.42
272.562	64.51
272.777	93.18
272.993	-60.42
273.209	23.55
273.425	68.61
273.64	-52.22
273.856	101.37
274.072	66.56
274.287	1.02
274.503	39.94
274.719	-5.12
274.934	1.02
275.15	46.08
275.366	27.65
275.581	-46.08
275.797	13.31
276.012	-9.22
276.228	21.5
276.444	25.6
276.659	60.42
276.875	21.5
277.09	3.07
277.306	29.7
277.521	-21.5
277.737	37.89
277.952	3.07
278.168	46.08
278.383	-29.7
278.599	-7.17
278.814	62.46
279.03	13.31
279.245	60.42
279.461	27.65
279.676	23.55
279.892	37.89
280.107	-37.89
280.322	-70.65
280.538	35.84
280.753	-54.27
280.969	60.42
281.184	80.89
281.399	48.13
281.615	46.08
281.83	76.8
282.045	-99.33
282.26	-5.12
282.476	-1.02
282.691	58.37
282.906	-29.7
283.122	76.8
283.337	23.55
283.552	-17.41
283.767	13.31
283.983	-62.46
284.198	9.22
284.413	60.42
284.628	1.02
284.843	-5.12
285.058	107.52
285.274	-29.7
285.489	27.65
285.704	144.38
285.919	60.42
286.134	7.17
286.349	-46.08
286.564	-37.89
286.779	54.27
286.995	-5.12
287.21	-50.18
287.425	60.42
287.64	48.13
287.855	37.89
288.07	-78.85
288.285	-29.7
288.5	111.61
288.715	56.32
288.93	41.98
289.145	27.65
289.36	27.65
289.575	11.26
289.79	76.8
290.004	19.46
290.219	84.99
290.434	19.46
290.649	23.55
290.864	-33.79
291.079	84.99
291.294	76.8
291.509	3.07
291.724	39.94
291.938	68.61
292.153	58.37
292.368	44.03
292.583	60.42
292.798	31.74
293.012	-13.31
293.227	78.85
293.442	-11.26
293.657	-11.26
293.871	13.31
294.086	-13.31
294.301	119.81
294.516	64.51
294.73	27.65
294.945	-17.41
295.16	-13.31
295.374	68.61
295.589	64.51
295.804	-9.22
296.018	19.46
296.233	35.84
296.447	80.89
296.662	13.31
296.877	29.7
297.091	84.99
297.306	72.7
297.52	19.46
297.735	68.61
297.949	-33.79
298.164	31.74
298.378	-31.74
298.593	64.51
298.807	-54.27
299.022	44.03
299.236	64.51
299.451	23.55
299.665	-123.9
299.88	11.26
300.094	23.55
300.309	31.74
300.523	-66.56
300.737	84.99
300.952	9.22
301.166	27.65
301.381	-39.94
301.595	-46.08
301.809	-21.5
302.024	48.13
302.238	9.22
302.452	17.41
302.667	44.03
302.881	58.37
303.095	91.13
303.309	35.84
303.524	29.7
303.738	11.26
303.952	-9.22
304.166	13.31
304.381	-15.36
304.595	84.99
304.809	13.31
305.023	56.32
305.237	62.46
305.452	-19.46
305.666	13.31
305.88	31.74
306.094	44.03
306.308	31.74
306.522	23.55
306.736	54.27
306.95	60.42
307.164	-1.02
307.379	-11.26
307.593	111.61
307.807	19.46
308.021	150.53
308.235	-19.46
308.449	46.08
308.663	-25.6
308.877	117.76
309.091	7.17
309.305	103.42
309.519	-7.17
309.733	95.23
309.947	37.89
310.161	29.7
310.374	52.22
310.588	29.7
310.802	-5.12
311.016	37.89
311.23	5.12
311.444	5.12
311.658	15.36
311.872	60.42
312.085	78.85
312.299	7.17
312.513	27.65
312.727	35.84
312.941	-41.98
313.154	52.22
313.368	44.03
313.582	60.42
313.796	-25.6
314.009	-17.41
314.223	91.13
314.437	-5.12
314.651	48.13
314.864	-17.41
315.078	-29.7
315.292	-11.26
315.505	23.55
315.719	3.07
315.933	41.98
316.146	72.7
316.36	62.46
316.573	93.18
316.787	19.46
317.001	64.51
317.214	-3.07
317.428	35.84
317.641	-19.46
317.855	27.65
318.068	19.46
318.282	72.7
318.495	70.65
318.709	80.89
318.922	68.61
319.136	74.75
319.349	150.53
319.563	64.51
319.776	-1.02
319.99	-9.22
320.203	33.79
320.417	-9.22
320.63	60.42
320.843	68.61
321.057	44.03
321.27	27.65
321.483	-7.17
321.697	44.03
321.91	39.94
322.124	33.79
322.337	21.5
322.55	-35.84
322.763	7.17
322.977	1.02
323.19	27.65
323.403	62.46
323.617	46.08
323.83	117.76
324.043	21.5
324.256	44.03
324.469	-13.31
324.683	7.17
324.896	33.79
325.109	-33.79
325.322	31.74
325.535	9.22
325.748	68.61
325.962	-5.12
326.175	-3.07
326.388	-3.07
326.601	80.89
326.814	5.12
327.027	46.08
327.24	-3.07
327.453	-7.17
327.666	80.89
327.879	11.26
328.092	27.65
328.305	9.22
328.518	3.07
328.731	35.84
328.944	11.26
329.157	50.18
329.37	-13.31
329.583	84.99
329.796	78.85
330.009	23.55
330.222	23.55
330.435	-17.41
330.648	52.22
330.861	15.36
331.073	15.36
331.286	35.84
331.499	44.03
331.712	3.07
331.925	-11.26
332.138	-13.31
332.35	-17.41
332.563	25.6
332.776	5.12
332.989	44.03
333.202	-1.02
333.414	64.51
333.627	3.07
333.84	50.18
334.053	19.46
334.265	68.61
334.478	-21.5
334.691	60.42
334.903	3.07
335.116	19.46
335.329	35.84
335.541	68.61
335.754	97.28
335.966	68.61
336.179	72.7
336.392	3.07
336.604	-5.12
336.817	35.84
337.029	19.46
337.242	60.42
337.454	101.37
337.667	9.22
337.88	37.89
338.092	3.07
338.305	39.94
338.517	-33.79
338.729	27.65
338.942	76.8
339.154	39.94
339.367	52.22
339.579	60.42
339.792	-58.37
340.004	19.46
340.217	9.22
340.429	-7.17
340.641	-1.02
340.854	37.89
341.066	7.17
341.278	37.89
341.491	117.76
341.703	-37.89
341.915	44.03
342.128	33.79
342.34	48.13
342.552	-78.85
342.764	-33.79
342.977	21.5
343.189	76.8
343.401	-13.31
343.613	9.22
343.826	9.22
344.038	54.27
344.25	1.02
344.462	52.22
344.674	-70.65
344.886	74.75
345.099	62.46
345.311	-1.02
345.523	-27.65
345.735	27.65
345.947	5.12
346.159	15.36
346.371	27.65
346.583	54.27
346.795	-3.07
347.007	48.13
347.219	35.84
347.431	-17.41
347.643	93.18
347.855	-3.07
348.067	84.99
348.279	35.84
348.491	62.46
348.703	46.08
348.915	52.22
349.127	44.03
349.339	150.53
349.551	-13.31
349.763	134.14
349.975	27.65
350.187	97.28
350.399	68.61
350.61	41.98
350.822	7.17
351.034	60.42
351.246	39.94
351.458	-3.07
351.669	11.26
351.881	117.76
352.093	89.09
352.305	25.6
352.517	134.14
352.728	68.61
352.94	37.89
353.152	11.26
353.363	-50.18
353.575	52.22
353.787	70.65
353.999	-5.12
354.21	80.89
354.422	113.66
354.633	31.74
354.845	39.94
355.057	-68.61
355.268	-5.12
355.48	142.33
355.692	37.89
355.903	15.36
356.115	44.03
356.326	-21.5
356.538	68.61
356.749	54.27
356.961	105.47
357.172	33.79
357.384	15.36
357.595	134.14
357.807	21.5
358.018	-19.46
358.23	52.22
358.441	37.89
358.653	76.8
358.864	39.94
359.075	27.65
359.287	35.84
359.498	91.13
359.709	11.26
359.921	84.99
360.132	48.13
360.344	37.89
360.555	13.31
360.766	44.03
360.977	5.12
361.189	60.42
361.4	35.84
361.611	52.22
361.823	117.76
362.034	13.31
362.245	-17.41
362.456	52.22
362.667	68.61
362.879	11.26
363.09	60.42
363.301	97.28
363.512	27.65
363.723	31.74
363.935	60.42
364.146	39.94
364.357	31.74
364.568	68.61
364.779	7.17
364.99	60.42
365.201	35.84
365.412	84.99
365.623	-5.12
365.834	27.65
366.045	84.99
366.256	130.05
366.467	84.99
366.678	11.26
366.889	21.5
367.1	5.12
367.311	52.22
367.522	37.89
367.733	19.46
367.944	35.84
368.155	-9.22
368.366	17.41
368.577	60.42
368.788	41.98
368.999	-15.36
369.209	72.7
369.42	27.65
369.631	150.53
369.842	60.42
370.053	3.07
370.264	66.56
370.474	-23.55
370.685	-5.12
370.896	21.5
371.107	52.22
371.317	93.18
371.528	50.18
371.739	132.09
371.95	60.42
372.16	101.37
372.371	19.46
372.582	31.74
372.792	64.51
373.003	70.65
373.214	17.41
373.424	150.53
373.635	97.28
373.846	89.09
374.056	19.46
374.267	46.08
374.477	80.89
374.688	21.5
374.898	23.55
375.109	39.94
375.319	48.13
375.53	144.38
375.74	-35.84
375.951	31.74
376.161	37.89
376.372	39.94
376.582	19.46
376.793	48.13
377.003	31.74
377.214	19.46
377.424	70.65
377.635	56.32
377.845	70.65
378.055	56.32
378.266	21.5
378.476	-46.08
378.686	1.02
378.897	-7.17
379.107	95.23
379.317	136.19
379.528	-37.89
379.738	23.55
379.948	70.65
380.158	101.37
380.369	52.22
380.579	29.7
380.789	-54.27
380.999	-5.12
381.21	62.46
381.42	62.46
381.63	48.13
381.84	35.84
382.05	84.99
382.261	64.51
382.471	97.28
382.681	48.13
382.891	66.56
383.101	70.65
383.311	39.94
383.521	54.27
383.731	68.61
383.941	3.07
384.151	97.28
384.361	62.46
384.571	17.41
384.781	11.26
384.991	125.95
385.201	101.37
385.411	58.37
385.621	52.22
385.831	89.09
386.041	101.37
386.251	76.8
386.461	78.85
386.671	76.8
386.881	70.65
387.091	113.66
387.301	119.81
387.511	11.26
387.72	68.61
387.93	97.28
388.14	-7.17
388.35	87.04
388.56	150.53
388.769	123.9
388.979	109.57
389.189	-29.7
389.399	64.51
389.609	97.28
389.818	97.28
390.028	31.74
390.238	99.33
390.447	54.27
390.657	105.47
390.867	41.98
391.076	97.28
391.286	68.61
391.496	-1.02
391.705	87.04
391.915	109.57
392.125	144.38
392.334	27.65
392.544	52.22
392.753	39.94
392.963	-3.07
393.172	27.65
393.382	27.65
393.591	60.42
393.801	3.07
394.01	95.23
394.22	7.17
394.429	50.18
394.639	11.26
394.848	52.22
395.058	46.08
395.267	48.13
395.477	109.57
395.686	105.47
395.895	142.33
396.105	152.57
396.314	105.47
396.524	3.07
396.733	93.18
396.942	76.8
397.152	109.57
397.361	93.18
397.57	93.18
397.78	162.81
397.989	31.74
398.198	37.89
398.407	109.57
398.617	82.94
398.826	136.19
399.035	41.98
399.244	168.96
399.453	70.65
399.663	68.61
399.872	54.27
400.081	156.67
400.29	134.14
400.499	44.03
400.708	150.53
400.917	103.42
401.127	68.61
401.336	52.22
401.545	142.33
401.754	119.81
401.963	154.62
402.172	89.09
402.381	109.57
402.59	109.57
402.799	142.33
403.008	70.65
403.217	76.8
403.426	54.27
403.635	52.22
403.844	154.62
404.053	150.53
404.262	125.95
404.471	187.39
404.68	115.71
404.888	125.95
405.097	175.1
405.306	150.53
405.515	91.13
405.724	101.37
405.933	183.29
406.142	181.25
406.35	218.11
406.559	173.05
406.768	158.72
406.977	240.64
407.185	130.05
407.394	150.53
407.603	166.91
407.812	183.29
408.02	240.64
408.229	216.06
408.438	220.16
408.646	232.44
408.855	216.06
409.064	240.64
409.272	216.06
409.481	273.4
409.69	257.02
409.898	177.15
410.107	416.76
410.315	349.18
410.524	211.96
410.733	388.09
410.941	310.27
411.15	369.66
411.358	355.32
411.567	412.67
411.775	332.79
411.984	429.05
412.192	498.68
412.401	412.67
412.609	441.34
412.818	486.39
413.026	424.95
413.234	463.86
413.443	519.16
413.651	486.39
413.86	545.78
414.068	564.22
414.276	680.95
414.485	617.46
414.693	723.96
414.901	668.66
415.11	660.47
415.318	650.23
415.526	683
415.734	760.82
415.943	683
416.151	803.83
416.359	826.36
416.567	793.59
416.776	848.88
416.984	932.85
417.192	986.1
417.4	994.29
417.608	967.67
417.817	1020.91
418.025	1088.5
418.233	1100.78
418.441	1162.22
418.649	1158.13
418.857	1244.14
419.065	1213.42
419.273	1172.46
419.481	1313.77
419.689	1453.03
419.897	1465.32
420.105	1526.76
420.313	1471.47
420.521	1547.24
420.729	1602.54
420.937	1651.69
421.145	1696.74
421.353	1829.86
421.561	1866.72
421.769	1903.59
421.977	1932.26
422.185	2110.43
422.393	2120.67
422.601	2257.89
422.809	2188.25
423.017	2362.33
423.224	2268.13
423.432	2329.56
423.64	2362.33
423.848	2632.66
424.056	2577.37
424.263	2806.74
424.471	2784.21
424.679	2878.42
424.887	2929.62
425.094	3142.61
425.302	3128.27
425.51	3234.77
425.718	3419.08
425.925	3304.4
426.133	3584.97
426.341	3689.42
426.548	3838.92
426.756	3830.73
426.964	3906.5
427.171	4117.44
427.379	4123.59
427.586	4225.98
427.794	4412.35
428.001	4676.54
428.209	4819.89
428.417	4725.69
428.624	5049.27
428.832	5180.34
429.039	5049.27
429.247	5102.51
429.454	5565.36
429.662	6079.4
429.869	5413.81
430.076	5942.18
430.284	5827.5
430.491	6179.75
430.699	6362.01
430.906	6462.37
431.114	6566.81
431.321	6814.62
431.528	6863.77
431.736	7197.59
431.943	7586.7
432.15	7281.55
432.358	7588.75
432.565	8004.49
432.772	7897.99
432.979	8115.08
433.187	8235.91
433.394	8401.79
433.601	9161.59
433.808	9194.36
434.016	8876.92
434.223	9335.67
434.43	9845.61
434.637	9735.02
434.844	10263.4
435.052	10451.81
435.259	10443.62
435.466	10488.67
435.673	10562.4
435.88	11352.91
436.087	11735.88
436.294	11885.39
436.501	11432.79
436.708	11629.39
436.915	11998.02
437.122	12628.8
437.329	12540.74
437.537	12981.05
437.743	13144.89
437.95	13267.77
438.157	14005.03
438.364	14070.57
438.571	14203.69
438.778	14205.74
438.985	15692.56
439.192	15059.74
439.399	15760.14
439.606	15344.41
439.813	16167.69
440.02	16966.4
440.227	16898.81
440.433	16714.5
440.64	17083.13
440.847	17007.36
441.054	17486.58
441.261	18582.24
441.467	18572
441.674	18744.03
441.881	19501.78
442.088	19491.54
442.294	19487.45
442.501	19903.18
442.708	20003.53
442.914	20888.26
443.121	21654.2
443.328	21220.03
443.534	23102.11
443.741	21908.15
443.948	21938.87
444.154	23300.76
444.361	23356.06
444.568	23196.32
444.774	23282.33
444.981	23431.83
445.187	24371.85
445.394	25432.7
445.6	24828.55
445.807	27740.76
446.013	26251.89
446.22	26720.87
446.426	27972.18
446.633	27783.77
446.839	29090.37
447.046	27865.69
447.252	29717.05
447.459	29221.44
447.665	29461.05
447.871	30640.68
448.078	31959.58
448.284	30630.44
448.491	31265.31
448.697	32406.03
448.903	32868.87
449.11	33352.2
449.316	32500.24
449.522	33290.76
449.728	33880.57
449.935	34378.23
450.141	34298.36
450.347	35389.92
450.553	34187.77
450.76	34597.36
450.966	35983.83
451.172	35555.81
451.378	36266.45
451.584	35658.21
451.791	36288.98
451.997	36768.21
452.203	37077.45
452.409	37161.42
452.615	37210.57
452.821	35516.9
453.027	35494.37
453.233	37220.81
453.44	36055.51
453.646	36389.33
453.852	36162.01
454.058	36899.28
454.264	36098.52
454.47	36874.7
454.676	35815.9
454.882	37054.92
455.088	33841.66
455.294	34210.29
455.5	34714.09
455.705	35019.24
455.911	33686.01
456.117	32891.4
456.323	32946.7
456.529	31187.49
456.735	32668.17
456.941	31762.97
457.147	31255.08
457.352	30595.63
457.558	29934.14
457.764	29856.31
457.97	29117
458.176	28820.04
458.381	29065.8
458.587	27497.05
458.793	27308.64
458.999	26370.67
459.204	27701.85
459.41	27460.19
459.616	25442.94
459.821	25436.8
460.027	25432.7
460.233	25082.5
460.438	23650.97
460.644	24021.65
460.85	22809.25
461.055	22602.41
461.261	22446.76
461.466	20775.62
461.672	20136.65
461.878	21973.68
462.083	20327.11
462.289	19917.52
462.494	19692.24
462.7	18920.16
462.905	18320.1
463.111	19210.97
463.316	19106.52
463.522	18748.13
463.727	18643.68
463.932	18877.15
464.138	18455.27
464.343	18789.09
464.549	18148.08
464.754	18668.26
464.959	18420.45
465.165	18434.79
465.37	17660.66
465.575	17279.74
465.781	17777.39
465.986	17980.14
466.191	17580.79
466.397	16872.19
466.602	16290.57
466.807	16857.85
467.012	16642.82
