Data from USB4F104151__50__14-43-05-921.txt Node

Date: Thu Mar 13 14:43:05 EDT 2025
User: louis
Spectrometer: USB4F10415
Trigger mode: 4
Integration Time (sec): 2.000000E-2
Scans to average: 1
Electric dark correction enabled: true
Nonlinearity correction enabled: false
Boxcar width: 0
XAxis mode: Wavelengths
Number of Pixels in Spectrum: 3648
>>>>>Begin Spectral Data<<<<<
178.204	-124.93
178.424	-124.93
178.644	-124.93
178.864	-18.43
179.084	-90.11
179.304	-2.05
179.524	-18.43
179.744	2.05
179.964	26.62
180.184	38.91
180.404	14.34
180.624	47.1
180.844	36.86
181.064	-57.34
181.283	-38.91
181.503	-47.1
181.723	-2.05
181.943	-16.38
182.163	75.77
182.383	51.2
182.602	10.24
182.822	67.58
183.042	79.87
183.262	-32.77
183.482	43.01
183.701	81.92
183.921	71.68
184.141	-81.92
184.361	73.73
184.58	55.3
184.8	2.05
185.02	79.87
185.239	75.77
185.459	14.34
185.679	86.01
185.898	-2.05
186.118	30.72
186.338	51.2
186.557	14.34
186.777	20.48
186.997	-0
187.216	-14.34
187.436	69.63
187.655	63.49
187.875	34.82
188.095	40.96
188.314	145.41
188.534	106.49
188.753	-14.34
188.973	90.11
189.192	92.16
189.412	71.68
189.631	32.77
189.851	38.91
190.07	100.35
190.29	38.91
190.509	-30.72
190.729	129.02
190.948	71.68
191.168	188.41
191.387	147.45
191.607	14.34
191.826	38.91
192.045	-14.34
192.265	34.82
192.484	24.58
192.704	98.3
192.923	16.38
193.142	120.83
193.362	30.72
193.581	55.3
193.8	90.11
194.02	49.15
194.239	18.43
194.458	92.16
194.678	26.62
194.897	10.24
195.116	120.83
195.335	40.96
195.555	57.34
195.774	26.62
195.993	14.34
196.212	24.58
196.432	79.87
196.651	73.73
196.87	34.82
197.089	86.01
197.308	69.63
197.528	55.3
197.747	73.73
197.966	47.1
198.185	106.49
198.404	51.2
198.623	79.87
198.842	49.15
199.062	59.39
199.281	51.2
199.5	30.72
199.719	38.91
199.938	53.25
200.157	120.83
200.376	-16.38
200.595	100.35
200.814	112.64
201.033	2.05
201.252	57.34
201.471	100.35
201.69	22.53
201.909	71.68
202.128	30.72
202.347	88.06
202.566	73.73
202.785	16.38
203.004	36.86
203.223	163.84
203.442	63.49
203.661	34.82
203.879	47.1
204.098	79.87
204.317	65.53
204.536	81.92
204.755	88.06
204.974	63.49
205.193	94.21
205.411	96.25
205.63	55.3
205.849	92.16
206.068	57.34
206.287	24.58
206.505	14.34
206.724	51.2
206.943	40.96
207.162	88.06
207.381	100.35
207.599	49.15
207.818	77.82
208.037	-2.05
208.255	71.68
208.474	30.72
208.693	92.16
208.911	55.3
209.13	40.96
209.349	57.34
209.567	53.25
209.786	57.34
210.005	88.06
210.223	2.05
210.442	28.67
210.661	75.77
210.879	57.34
211.098	55.3
211.316	86.01
211.535	63.49
211.753	-24.58
211.972	55.3
212.191	22.53
212.409	90.11
212.628	79.87
212.846	30.72
213.065	65.53
213.283	47.1
213.502	34.82
213.72	73.73
213.938	75.77
214.157	26.62
214.375	6.14
214.594	-43.01
214.812	40.96
215.031	112.64
215.249	22.53
215.467	-34.82
215.686	120.83
215.904	122.88
216.122	-8.19
216.341	118.78
216.559	96.25
216.778	38.91
216.996	34.82
217.214	-6.14
217.432	-75.77
217.651	59.39
217.869	18.43
218.087	83.97
218.306	30.72
218.524	96.25
218.742	16.38
218.96	55.3
219.179	65.53
219.397	65.53
219.615	137.21
219.833	131.07
220.051	22.53
220.27	96.25
220.488	18.43
220.706	51.2
220.924	30.72
221.142	59.39
221.36	92.16
221.578	30.72
221.796	14.34
222.015	79.87
222.233	38.91
222.451	126.97
222.669	-45.06
222.887	104.45
223.105	16.38
223.323	55.3
223.541	90.11
223.759	53.25
223.977	59.39
224.195	-10.24
224.413	112.64
224.631	137.21
224.849	43.01
225.067	153.6
225.285	-98.3
225.503	30.72
225.721	38.91
225.939	34.82
226.157	38.91
226.375	110.59
226.592	22.53
226.81	67.58
227.028	47.1
227.246	38.91
227.464	53.25
227.682	30.72
227.9	69.63
228.117	120.83
228.335	51.2
228.553	18.43
228.771	51.2
228.989	47.1
229.206	47.1
229.424	14.34
229.642	30.72
229.86	26.62
230.077	114.69
230.295	63.49
230.513	71.68
230.731	32.77
230.948	59.39
231.166	71.68
231.384	83.97
231.601	40.96
231.819	108.54
232.037	79.87
232.254	-2.05
232.472	63.49
232.689	26.62
232.907	73.73
233.125	30.72
233.342	43.01
233.56	18.43
233.777	38.91
233.995	-8.19
234.213	71.68
234.43	124.93
234.648	30.72
234.865	6.14
235.083	92.16
235.3	73.73
235.518	40.96
235.735	104.45
235.953	24.58
236.17	120.83
236.388	30.72
236.605	79.87
236.822	73.73
237.04	26.62
237.257	22.53
237.475	30.72
237.692	38.91
237.909	79.87
238.127	102.4
238.344	96.25
238.562	129.02
238.779	79.87
238.996	47.1
239.214	-32.77
239.431	55.3
239.648	90.11
239.865	67.58
240.083	114.69
240.3	69.63
240.517	55.3
240.735	38.91
240.952	45.06
241.169	40.96
241.386	63.49
241.603	153.6
241.821	2.05
242.038	100.35
242.255	88.06
242.472	57.34
242.689	47.1
242.907	67.58
243.124	-69.63
243.341	73.73
243.558	2.05
243.775	24.58
243.992	6.14
244.209	14.34
244.426	112.64
244.643	104.45
244.86	-12.29
245.078	88.06
245.295	104.45
245.512	81.92
245.729	14.34
245.946	96.25
246.163	81.92
246.38	96.25
246.597	94.21
246.814	67.58
247.031	67.58
247.248	40.96
247.464	-16.38
247.681	38.91
247.898	43.01
248.115	67.58
248.332	34.82
248.549	88.06
248.766	137.21
248.983	38.91
249.2	79.87
249.417	22.53
249.633	-81.92
249.85	10.24
250.067	36.86
250.284	38.91
250.501	55.3
250.717	40.96
250.934	20.48
251.151	43.01
251.368	83.97
251.585	90.11
251.801	104.45
252.018	79.87
252.235	135.17
252.451	129.02
252.668	-10.24
252.885	30.72
253.102	8.19
253.318	-38.91
253.535	30.72
253.752	18.43
253.968	-26.62
254.185	55.3
254.401	71.68
254.618	16.38
254.835	22.53
255.051	69.63
255.268	36.86
255.484	79.87
255.701	63.49
255.917	69.63
256.134	14.34
256.351	-16.38
256.567	83.97
256.784	34.82
257	-6.14
257.217	83.97
257.433	36.86
257.65	63.49
257.866	106.49
258.082	-26.62
258.299	65.53
258.515	110.59
258.732	73.73
258.948	6.14
259.165	8.19
259.381	59.39
259.597	22.53
259.814	133.12
260.03	55.3
260.246	145.41
260.463	55.3
260.679	55.3
260.895	38.91
261.112	63.49
261.328	34.82
261.544	51.2
261.761	165.89
261.977	63.49
262.193	71.68
262.409	122.88
262.626	94.21
262.842	106.49
263.058	26.62
263.274	106.49
263.49	32.77
263.707	104.45
263.923	88.06
264.139	73.73
264.355	20.48
264.571	120.83
264.787	73.73
265.004	81.92
265.22	106.49
265.436	30.72
265.652	51.2
265.868	8.19
266.084	-12.29
266.3	36.86
266.516	71.68
266.732	81.92
266.948	14.34
267.164	30.72
267.38	112.64
267.596	-12.29
267.812	112.64
268.028	61.44
268.244	24.58
268.46	83.97
268.676	38.91
268.892	-2.05
269.108	59.39
269.324	8.19
269.54	-2.05
269.756	90.11
269.972	14.34
270.188	49.15
270.403	88.06
270.619	67.58
270.835	43.01
271.051	63.49
271.267	-34.82
271.483	65.53
271.698	36.86
271.914	108.54
272.13	112.64
272.346	88.06
272.562	75.77
272.777	63.49
272.993	-45.06
273.209	26.62
273.425	45.06
273.64	18.43
273.856	120.83
274.072	57.34
274.287	26.62
274.503	38.91
274.719	63.49
274.934	131.07
275.15	8.19
275.366	55.3
275.581	81.92
275.797	2.05
276.012	18.43
276.228	75.77
276.444	24.58
276.659	59.39
276.875	43.01
277.09	65.53
277.306	69.63
277.521	81.92
277.737	38.91
277.952	67.58
278.168	83.97
278.383	79.87
278.599	2.05
278.814	104.45
279.03	75.77
279.245	188.41
279.461	18.43
279.676	43.01
279.892	81.92
280.107	47.1
280.322	4.1
280.538	43.01
280.753	67.58
280.969	36.86
281.184	53.25
281.399	112.64
281.615	49.15
281.83	104.45
282.045	57.34
282.26	73.73
282.476	-6.14
282.691	57.34
282.906	6.14
283.122	106.49
283.337	4.1
283.552	96.25
283.767	67.58
283.983	96.25
284.198	59.39
284.413	57.34
284.628	8.19
284.843	59.39
285.058	-40.96
285.274	120.83
285.489	92.16
285.704	12.29
285.919	47.1
286.134	45.06
286.349	71.68
286.564	69.63
286.779	73.73
286.995	22.53
287.21	-4.1
287.425	96.25
287.64	-10.24
287.855	38.91
288.07	24.58
288.285	96.25
288.5	104.45
288.715	65.53
288.93	67.58
289.145	86.01
289.36	96.25
289.575	47.1
289.79	118.78
290.004	88.06
290.219	88.06
290.434	98.3
290.649	40.96
290.864	26.62
291.079	45.06
291.294	-30.72
291.509	83.97
291.724	81.92
291.938	-43.01
292.153	100.35
292.368	14.34
292.583	14.34
292.798	38.91
293.012	83.97
293.227	59.39
293.442	124.93
293.657	30.72
293.871	149.5
294.086	96.25
294.301	120.83
294.516	114.69
294.73	24.58
294.945	26.62
295.16	38.91
295.374	55.3
295.589	90.11
295.804	24.58
296.018	176.13
296.233	24.58
296.447	34.82
296.662	40.96
296.877	81.92
297.091	59.39
297.306	67.58
297.52	63.49
297.735	83.97
297.949	16.38
298.164	65.53
298.378	83.97
298.593	40.96
298.807	-22.53
299.022	63.49
299.236	65.53
299.451	63.49
299.665	55.3
299.88	-32.77
300.094	77.82
300.309	51.2
300.523	96.25
300.737	79.87
300.952	-8.19
301.166	20.48
301.381	-2.05
301.595	30.72
301.809	49.15
302.024	47.1
302.238	96.25
302.452	30.72
302.667	40.96
302.881	67.58
303.095	112.64
303.309	79.87
303.524	55.3
303.738	67.58
303.952	133.12
304.166	71.68
304.381	26.62
304.595	79.87
304.809	22.53
305.023	49.15
305.237	-14.34
305.452	14.34
305.666	51.2
305.88	69.63
306.094	51.2
306.308	79.87
306.522	71.68
306.736	73.73
306.95	49.15
307.164	-34.82
307.379	81.92
307.593	120.83
307.807	55.3
308.021	90.11
308.235	65.53
308.449	34.82
308.663	86.01
308.877	108.54
309.091	12.29
309.305	34.82
309.519	20.48
309.733	57.34
309.947	14.34
310.161	32.77
310.374	12.29
310.588	55.3
310.802	-2.05
311.016	63.49
311.23	75.77
311.444	32.77
311.658	43.01
311.872	104.45
312.085	137.21
312.299	98.3
312.513	106.49
312.727	65.53
312.941	59.39
313.154	-10.24
313.368	63.49
313.582	16.38
313.796	88.06
314.009	8.19
314.223	96.25
314.437	88.06
314.651	112.64
314.864	8.19
315.078	45.06
315.292	32.77
315.505	96.25
315.719	40.96
315.933	26.62
316.146	-2.05
316.36	83.97
316.573	63.49
316.787	114.69
317.001	47.1
317.214	26.62
317.428	49.15
317.641	34.82
317.855	61.44
318.068	6.14
318.282	43.01
318.495	47.1
318.709	43.01
318.922	6.14
319.136	65.53
319.349	139.26
319.563	49.15
319.776	77.82
319.99	-10.24
320.203	-14.34
320.417	131.07
320.63	63.49
320.843	129.02
321.057	55.3
321.27	69.63
321.483	79.87
321.697	30.72
321.91	38.91
322.124	16.38
322.337	6.14
322.55	63.49
322.763	63.49
322.977	14.34
323.19	61.44
323.403	155.65
323.617	61.44
323.83	59.39
324.043	67.58
324.256	22.53
324.469	30.72
324.683	61.44
324.896	-30.72
325.109	73.73
325.322	88.06
325.535	90.11
325.748	149.5
325.962	63.49
326.175	34.82
326.388	110.59
326.601	73.73
326.814	6.14
327.027	24.58
327.24	151.55
327.453	79.87
327.666	24.58
327.879	96.25
328.092	100.35
328.305	112.64
328.518	24.58
328.731	55.3
328.944	83.97
329.157	32.77
329.37	34.82
329.583	100.35
329.796	157.69
330.009	30.72
330.222	38.91
330.435	79.87
330.648	24.58
330.861	59.39
331.073	79.87
331.286	53.25
331.499	32.77
331.712	75.77
331.925	43.01
332.138	36.86
332.35	63.49
332.563	10.24
332.776	57.34
332.989	90.11
333.202	120.83
333.414	12.29
333.627	43.01
333.84	124.93
334.053	57.34
334.265	47.1
334.478	30.72
334.691	30.72
334.903	79.87
335.116	-2.05
335.329	75.77
335.541	4.1
335.754	30.72
335.966	67.58
336.179	51.2
336.392	124.93
336.604	83.97
336.817	49.15
337.029	22.53
337.242	-24.58
337.454	14.34
337.667	-30.72
337.88	118.78
338.092	129.02
338.305	77.82
338.517	59.39
338.729	88.06
338.942	59.39
339.154	26.62
339.367	26.62
339.579	40.96
339.792	-0
340.004	73.73
340.217	106.49
340.429	55.3
340.641	51.2
340.854	51.2
341.066	-2.05
341.278	98.3
341.491	79.87
341.703	55.3
341.915	16.38
342.128	124.93
342.34	79.87
342.552	38.91
342.764	49.15
342.977	-0
343.189	40.96
343.401	20.48
343.613	2.05
343.826	81.92
344.038	98.3
344.25	86.01
344.462	-8.19
344.674	75.77
344.886	2.05
345.099	90.11
345.311	83.97
345.523	51.2
345.735	40.96
345.947	18.43
346.159	59.39
346.371	30.72
346.583	86.01
346.795	75.77
347.007	36.86
347.219	32.77
347.431	88.06
347.643	79.87
347.855	-26.62
348.067	71.68
348.279	47.1
348.491	51.2
348.703	73.73
348.915	57.34
349.127	47.1
349.339	149.5
349.551	114.69
349.763	104.45
349.975	34.82
350.187	108.54
350.399	83.97
350.61	79.87
350.822	8.19
351.034	120.83
351.246	-16.38
351.458	79.87
351.669	100.35
351.881	98.3
352.093	57.34
352.305	133.12
352.517	51.2
352.728	122.88
352.94	63.49
353.152	96.25
353.363	-14.34
353.575	59.39
353.787	161.79
353.999	14.34
354.21	71.68
354.422	36.86
354.633	63.49
354.845	129.02
355.057	137.21
355.268	112.64
355.48	69.63
355.692	57.34
355.903	32.77
356.115	34.82
356.326	57.34
356.538	151.55
356.749	-14.34
356.961	161.79
357.172	51.2
357.384	59.39
357.595	65.53
357.807	22.53
358.018	104.45
358.23	133.12
358.441	49.15
358.653	79.87
358.864	53.25
359.075	28.67
359.287	47.1
359.498	30.72
359.709	59.39
359.921	79.87
360.132	116.73
360.344	75.77
360.555	6.14
360.766	141.31
360.977	26.62
361.189	104.45
361.4	36.86
361.611	104.45
361.823	108.54
362.034	73.73
362.245	145.41
362.456	59.39
362.667	57.34
362.879	63.49
363.09	43.01
363.301	96.25
363.512	-8.19
363.723	116.73
363.935	51.2
364.146	137.21
364.357	38.91
364.568	106.49
364.779	34.82
364.99	96.25
365.201	55.3
365.412	122.88
365.623	63.49
365.834	51.2
366.045	71.68
366.256	139.26
366.467	22.53
366.678	57.34
366.889	67.58
367.1	71.68
367.311	145.41
367.522	88.06
367.733	112.64
367.944	63.49
368.155	51.2
368.366	24.58
368.577	98.3
368.788	55.3
368.999	38.91
369.209	124.93
369.42	100.35
369.631	145.41
369.842	169.98
370.053	2.05
370.264	57.34
370.474	53.25
370.685	92.16
370.896	96.25
371.107	88.06
371.317	114.69
371.528	51.2
371.739	106.49
371.95	104.45
372.16	88.06
372.371	18.43
372.582	92.16
372.792	47.1
373.003	10.24
373.214	24.58
373.424	112.64
373.635	120.83
373.846	139.26
374.056	145.41
374.267	139.26
374.477	71.68
374.688	71.68
374.898	59.39
375.109	104.45
375.319	104.45
375.53	73.73
375.74	65.53
375.951	57.34
376.161	28.67
376.372	118.78
376.582	65.53
376.793	129.02
377.003	18.43
377.214	69.63
377.424	8.19
377.635	26.62
377.845	90.11
378.055	79.87
378.266	-16.38
378.476	98.3
378.686	112.64
378.897	75.77
379.107	67.58
379.317	79.87
379.528	65.53
379.738	14.34
379.948	63.49
380.158	61.44
380.369	-2.05
380.579	51.2
380.789	108.54
380.999	124.93
381.21	108.54
381.42	112.64
381.63	57.34
381.84	81.92
382.05	59.39
382.261	92.16
382.471	75.77
382.681	57.34
382.891	135.17
383.101	98.3
383.311	-14.34
383.521	-16.38
383.731	90.11
383.941	67.58
384.151	81.92
384.361	71.68
384.571	69.63
384.781	98.3
384.991	43.01
385.201	120.83
385.411	100.35
385.621	30.72
385.831	43.01
386.041	122.88
386.251	18.43
386.461	47.1
386.671	96.25
386.881	92.16
387.091	79.87
387.301	90.11
387.511	129.02
387.72	131.07
387.93	108.54
388.14	47.1
388.35	65.53
388.56	79.87
388.769	47.1
388.979	63.49
389.189	88.06
389.399	129.02
389.609	59.39
389.818	90.11
390.028	10.24
390.238	133.12
390.447	6.14
390.657	143.36
390.867	32.77
391.076	47.1
391.286	120.83
391.496	102.4
391.705	79.87
391.915	71.68
392.125	112.64
392.334	96.25
392.544	86.01
392.753	75.77
392.963	73.73
393.172	98.3
393.382	67.58
393.591	100.35
393.801	73.73
394.01	120.83
394.22	43.01
394.429	65.53
394.639	98.3
394.848	139.26
395.058	102.4
395.267	88.06
395.477	120.83
395.686	63.49
395.895	139.26
396.105	200.7
396.314	47.1
396.524	163.84
396.733	129.02
396.942	98.3
397.152	90.11
397.361	88.06
397.57	135.17
397.78	120.83
397.989	53.25
398.198	155.65
398.407	88.06
398.617	196.6
398.826	55.3
399.035	215.04
399.244	90.11
399.453	169.98
399.663	79.87
399.872	63.49
400.081	83.97
400.29	129.02
400.499	98.3
400.708	172.03
400.917	112.64
401.127	88.06
401.336	124.93
401.545	131.07
401.754	112.64
401.963	120.83
402.172	178.17
402.381	63.49
402.59	126.97
402.799	145.41
403.008	122.88
403.217	192.51
403.426	182.27
403.635	112.64
403.844	174.08
404.053	157.69
404.262	92.16
404.471	196.6
404.68	137.21
404.888	186.37
405.097	161.79
405.306	186.37
405.515	157.69
405.724	169.98
405.933	204.8
406.142	278.52
406.35	153.6
406.559	231.42
406.768	215.04
406.977	184.32
407.185	237.56
407.394	180.22
407.603	210.94
407.812	180.22
408.02	286.72
408.229	253.95
408.438	251.9
408.646	204.8
408.855	223.23
409.064	292.86
409.272	270.33
409.481	350.2
409.69	307.2
409.898	276.48
410.107	344.06
410.315	317.44
410.524	223.23
410.733	370.68
410.941	370.68
411.15	274.43
411.358	350.2
411.567	417.79
411.775	352.25
411.984	415.74
412.192	423.93
412.401	423.93
412.609	468.98
412.818	538.62
413.026	456.7
413.234	428.03
413.443	440.31
413.651	530.42
413.86	509.94
414.068	528.38
414.276	598.01
414.485	591.86
414.693	694.26
414.901	638.97
415.11	653.3
415.318	677.88
415.526	712.69
415.734	704.5
415.943	776.18
416.151	765.94
416.359	759.8
416.567	772.08
416.776	806.9
416.984	894.96
417.192	968.69
417.4	987.12
417.608	960.5
417.817	886.77
418.025	956.4
418.233	1187.82
418.441	1112.05
418.649	1136.62
418.857	1202.16
419.065	1196.01
419.273	1138.67
419.481	1187.82
419.689	1296.36
419.897	1402.86
420.105	1474.54
420.313	1513.45
420.521	1458.15
420.729	1488.87
420.937	1533.93
421.145	1693.67
421.353	1683.43
421.561	1812.45
421.769	1779.68
421.977	1931.23
422.185	1857.51
422.393	2082.78
422.601	2009.06
422.809	2090.98
423.017	2160.61
423.224	2154.46
423.432	2193.37
423.64	2310.11
423.848	2496.47
424.056	2377.69
424.263	2697.17
424.471	2523.1
424.679	2605.02
424.887	2779.09
425.094	2820.05
425.302	2834.39
425.51	2781.14
425.718	3078.1
425.925	3049.43
426.133	3194.83
426.341	3403.72
426.548	3499.98
426.756	3469.26
426.964	3602.38
427.171	3647.43
427.379	3995.59
427.586	3942.34
427.794	4161.47
428.001	4231.1
428.209	4364.22
428.417	4452.28
428.624	4702.14
428.832	4573.11
429.039	4630.46
429.247	4732.86
429.454	5105.59
429.662	5420.97
429.869	5062.58
430.076	5277.62
430.284	5220.27
430.491	5449.64
430.699	5750.7
430.906	5801.9
431.114	5937.06
431.321	6051.75
431.528	6123.43
431.736	6668.19
431.943	6858.65
432.15	6635.42
432.358	6909.85
432.565	7157.65
432.772	6952.85
432.979	7579.53
433.187	7589.77
433.394	7694.22
433.601	8206.21
433.808	8183.68
434.016	8003.46
434.223	8531.84
434.43	8998.77
434.637	8810.36
434.844	9271.15
435.052	9566.06
435.259	9592.69
435.466	9566.06
435.673	9367.41
435.88	10250.08
436.087	10747.74
436.294	10598.24
436.501	10336.1
436.708	10602.33
436.915	10917.72
437.122	11427.67
437.329	11411.28
437.537	11644.75
437.743	12191.56
437.95	11745.1
438.157	12418.88
438.364	12697.41
438.571	12805.95
438.778	12877.63
438.985	13934.38
439.192	13459.25
439.399	13954.86
439.606	13557.55
439.813	14485.28
440.02	15476.5
440.227	15144.73
440.433	15079.19
440.64	15390.49
440.847	15202.07
441.054	15826.7
441.261	16623.36
441.467	16631.55
441.674	16762.62
441.881	17350.39
442.088	17315.58
442.294	17051.39
442.501	17637.11
442.708	17698.55
442.914	18630.37
443.121	19457.75
443.328	18958.05
443.534	20002.51
443.741	19541.72
443.948	19584.73
444.154	20739.78
444.361	20733.64
444.568	20842.18
444.774	20926.14
444.981	21069.5
445.187	21585.59
445.394	22507.18
445.6	21929.65
445.807	24389.26
446.013	23344.8
446.22	23871.12
446.426	24440.46
446.633	24891.01
446.839	25814.65
447.046	24749.7
447.252	26236.53
447.459	25835.13
447.665	26058.35
447.871	27008.61
448.078	28071.51
448.284	26812.01
448.491	27747.93
448.697	28569.16
448.903	29220.42
449.11	29544
449.316	28874.31
449.522	29445.69
449.728	30103.09
449.935	30336.56
450.141	30430.77
450.347	31090.21
450.553	30428.72
450.76	30819.88
450.966	31276.58
451.172	30946.86
451.378	32165.4
451.584	31553.05
451.791	32247.32
451.997	32235.03
452.203	32433.68
452.409	32687.63
452.615	32357.91
452.821	31268.39
453.027	31196.71
453.233	32902.67
453.44	31366.69
453.646	31661.6
453.852	31886.87
454.058	32552.46
454.264	31366.69
454.47	32192.02
454.676	31272.48
454.882	32718.35
455.088	29335.1
455.294	30133.81
455.5	30791.21
455.705	31237.67
455.911	29756.99
456.117	29288
456.323	29025.86
456.529	27156.07
456.735	28601.93
456.941	27876.95
457.147	27598.43
457.352	26414.7
457.558	26297.97
457.764	26343.02
457.97	26218.1
458.176	25046.66
458.381	25144.96
458.587	24032.91
458.793	24159.89
458.999	22908.58
459.204	24536.71
459.41	23768.73
459.616	22286
459.821	22654.63
460.027	22226.6
460.233	21749.43
460.438	20557.51
460.644	21327.55
460.85	19676.88
461.055	19433.18
461.261	19635.92
461.466	18269.93
461.672	17815.28
461.878	19166.94
462.083	17749.75
462.289	17503.99
462.494	16975.61
462.7	16420.61
462.905	16062.22
463.111	16293.64
463.316	16582.4
463.522	16316.17
463.727	16115.47
463.932	16197.38
464.138	15972.11
464.343	16209.67
464.549	15869.71
464.754	16121.61
464.959	16074.51
465.165	15697.68
465.37	15243.03
465.575	14698.27
465.781	15185.69
465.986	15507.22
466.191	15073.05
466.397	14487.33
466.602	13854.51
466.807	14464.8
467.012	14616.35
467.218	14364.45
