Data from USB4F104151__310__14-46-44-610.txt Node

Date: Thu Mar 13 14:46:44 EDT 2025
User: louis
Spectrometer: USB4F10415
Trigger mode: 4
Integration Time (sec): 2.000000E-2
Scans to average: 1
Electric dark correction enabled: true
Nonlinearity correction enabled: false
Boxcar width: 0
XAxis mode: Wavelengths
Number of Pixels in Spectrum: 3648
>>>>>Begin Spectral Data<<<<<
178.204	-148.99
178.424	-148.99
178.644	-148.99
178.864	-87.55
179.084	-101.89
179.304	61.95
179.524	-24.06
179.744	-17.92
179.964	39.42
180.184	84.48
180.404	-22.02
180.624	-5.63
180.844	-46.59
181.064	-36.35
181.283	-69.12
181.503	-44.54
181.723	80.38
181.943	-52.74
182.163	53.76
182.383	-46.59
182.602	29.18
182.822	84.48
183.042	70.14
183.262	-58.88
183.482	12.8
183.701	43.52
183.921	20.99
184.141	-58.88
184.361	64
184.58	66.05
184.8	35.33
185.02	-22.02
185.239	-30.21
185.459	45.57
185.679	-1.54
185.898	12.8
186.118	86.53
186.338	61.95
186.557	20.99
186.777	-26.11
186.997	43.52
187.216	20.99
187.436	10.75
187.655	59.9
187.875	29.18
188.095	74.24
188.314	49.66
188.534	41.47
188.753	-52.74
188.973	4.61
189.192	25.09
189.412	70.14
189.631	55.81
189.851	37.38
190.07	43.52
190.29	-30.21
190.509	6.66
190.729	27.14
190.948	43.52
191.168	166.4
191.387	8.7
191.607	4.61
191.826	-15.87
192.045	-24.06
192.265	53.76
192.484	-5.63
192.704	35.33
192.923	0.51
193.142	43.52
193.362	47.62
193.581	43.52
193.8	53.76
194.02	53.76
194.239	37.38
194.458	4.61
194.678	45.57
194.897	-36.35
195.116	4.61
195.335	20.99
195.555	-11.78
195.774	18.94
195.993	-1.54
196.212	68.09
196.432	14.85
196.651	8.7
196.87	35.33
197.089	76.29
197.308	68.09
197.528	31.23
197.747	18.94
197.966	45.57
198.185	86.53
198.404	31.23
198.623	37.38
198.842	18.94
199.062	86.53
199.281	-17.92
199.5	-30.21
199.719	107.01
199.938	29.18
200.157	-3.58
200.376	39.42
200.595	72.19
200.814	98.81
201.033	55.81
201.252	64
201.471	53.76
201.69	-19.97
201.909	12.8
202.128	53.76
202.347	-1.54
202.566	10.75
202.785	23.04
203.004	-11.78
203.223	109.05
203.442	20.99
203.661	29.18
203.879	-50.69
204.098	6.66
204.317	10.75
204.536	18.94
204.755	35.33
204.974	86.53
205.193	35.33
205.411	45.57
205.63	45.57
205.849	-9.73
206.068	74.24
206.287	20.99
206.505	-50.69
206.724	-36.35
206.943	2.56
207.162	-22.02
207.381	33.28
207.599	18.94
207.818	0.51
208.037	6.66
208.255	12.8
208.474	-26.11
208.693	6.66
208.911	39.42
209.13	31.23
209.349	2.56
209.567	111.1
209.786	53.76
210.005	25.09
210.223	117.25
210.442	4.61
210.661	14.85
210.879	84.48
211.098	100.86
211.316	-5.63
211.535	41.47
211.753	-13.82
211.972	20.99
212.191	10.75
212.409	10.75
212.628	0.51
212.846	0.51
213.065	104.96
213.283	59.9
213.502	-26.11
213.72	61.95
213.938	-1.54
214.157	41.47
214.375	2.56
214.594	12.8
214.812	68.09
215.031	2.56
215.249	14.85
215.467	14.85
215.686	-28.16
215.904	10.75
216.122	33.28
216.341	68.09
216.559	41.47
216.778	27.14
216.996	14.85
217.214	-30.21
217.432	45.57
217.651	-19.97
217.869	-28.16
218.087	53.76
218.306	-1.54
218.524	53.76
218.742	-9.73
218.96	72.19
219.179	-22.02
219.397	84.48
219.615	102.91
219.833	72.19
220.051	2.56
220.27	117.25
220.488	-3.58
220.706	80.38
220.924	20.99
221.142	35.33
221.36	68.09
221.578	41.47
221.796	45.57
222.015	35.33
222.233	12.8
222.451	39.42
222.669	-26.11
222.887	-3.58
223.105	-36.35
223.323	20.99
223.541	-1.54
223.759	12.8
223.977	2.56
224.195	90.62
224.413	31.23
224.631	88.57
224.849	4.61
225.067	137.73
225.285	-28.16
225.503	25.09
225.721	8.7
225.939	-38.4
226.157	20.99
226.375	37.38
226.592	14.85
226.81	43.52
227.028	51.71
227.246	37.38
227.464	41.47
227.682	109.05
227.9	59.9
228.117	10.75
228.335	-22.02
228.553	35.33
228.771	-5.63
228.989	-22.02
229.206	84.48
229.424	18.94
229.642	18.94
229.86	-58.88
230.077	-9.73
230.295	31.23
230.513	51.71
230.731	102.91
230.948	59.9
231.166	127.49
231.384	20.99
231.601	31.23
231.819	-3.58
232.037	12.8
232.254	31.23
232.472	10.75
232.689	18.94
232.907	76.29
233.125	-5.63
233.342	51.71
233.56	12.8
233.777	12.8
233.995	59.9
234.213	68.09
234.43	68.09
234.648	76.29
234.865	59.9
235.083	47.62
235.3	2.56
235.518	-13.82
235.735	53.76
235.953	80.38
236.17	4.61
236.388	43.52
236.605	27.14
236.822	92.67
237.04	70.14
237.257	23.04
237.475	49.66
237.692	68.09
237.909	10.75
238.127	64
238.344	35.33
238.562	-5.63
238.779	16.9
238.996	-19.97
239.214	27.14
239.431	29.18
239.648	43.52
239.865	35.33
240.083	43.52
240.3	-1.54
240.517	-71.17
240.735	-11.78
240.952	33.28
241.169	64
241.386	59.9
241.603	39.42
241.821	-32.26
242.038	59.9
242.255	-3.58
242.472	55.81
242.689	72.19
242.907	20.99
243.124	-1.54
243.341	59.9
243.558	-9.73
243.775	25.09
243.992	-24.06
244.209	55.81
244.426	51.71
244.643	82.43
244.86	-17.92
245.078	47.62
245.295	59.9
245.512	100.86
245.729	37.38
245.946	59.9
246.163	74.24
246.38	43.52
246.597	35.33
246.814	12.8
247.031	31.23
247.248	39.42
247.464	113.15
247.681	-30.21
247.898	10.75
248.115	12.8
248.332	55.81
248.549	49.66
248.766	125.44
248.983	102.91
249.2	33.28
249.417	68.09
249.633	-54.78
249.85	-24.06
250.067	27.14
250.284	-13.82
250.501	29.18
250.717	100.86
250.934	-38.4
251.151	-30.21
251.368	-58.88
251.585	98.81
251.801	39.42
252.018	6.66
252.235	61.95
252.451	18.94
252.668	14.85
252.885	41.47
253.102	-5.63
253.318	2.56
253.535	33.28
253.752	-7.68
253.968	0.51
254.185	-38.4
254.401	-52.74
254.618	8.7
254.835	12.8
255.051	117.25
255.268	18.94
255.484	4.61
255.701	53.76
255.917	70.14
256.134	29.18
256.351	35.33
256.567	-28.16
256.784	33.28
257	-5.63
257.217	84.48
257.433	51.71
257.65	12.8
257.866	68.09
258.082	72.19
258.299	-42.5
258.515	43.52
258.732	72.19
258.948	35.33
259.165	10.75
259.381	23.04
259.597	-38.4
259.814	43.52
260.03	59.9
260.246	-5.63
260.463	-36.35
260.679	20.99
260.895	35.33
261.112	51.71
261.328	-9.73
261.544	12.8
261.761	72.19
261.977	-1.54
262.193	18.94
262.409	35.33
262.626	76.29
262.842	2.56
263.058	-17.92
263.274	6.66
263.49	64
263.707	10.75
263.923	53.76
264.139	27.14
264.355	-9.73
264.571	109.05
264.787	14.85
265.004	111.1
265.22	55.81
265.436	84.48
265.652	55.81
265.868	92.67
266.084	18.94
266.3	47.62
266.516	29.18
266.732	47.62
266.948	27.14
267.164	35.33
267.38	-5.63
267.596	14.85
267.812	137.73
268.028	-79.36
268.244	33.28
268.46	27.14
268.676	20.99
268.892	86.53
269.108	29.18
269.324	-9.73
269.54	-40.45
269.756	10.75
269.972	-50.69
270.188	4.61
270.403	-38.4
270.619	45.57
270.835	43.52
271.051	39.42
271.267	29.18
271.483	-56.83
271.698	43.52
271.914	6.66
272.13	-34.3
272.346	10.75
272.562	8.7
272.777	66.05
272.993	-1.54
273.209	82.43
273.425	20.99
273.64	6.66
273.856	47.62
274.072	43.52
274.287	64
274.503	27.14
274.719	84.48
274.934	43.52
275.15	-28.16
275.366	14.85
275.581	-60.93
275.797	18.94
276.012	-5.63
276.228	61.95
276.444	29.18
276.659	2.56
276.875	35.33
277.09	-46.59
277.306	-73.21
277.521	0.51
277.737	18.94
277.952	14.85
278.168	-50.69
278.383	37.38
278.599	100.86
278.814	68.09
279.03	61.95
279.245	68.09
279.461	51.71
279.676	23.04
279.892	-58.88
280.107	6.66
280.322	-54.78
280.538	23.04
280.753	10.75
280.969	27.14
281.184	78.33
281.399	18.94
281.615	-91.65
281.83	-30.21
282.045	43.52
282.26	64
282.476	-38.4
282.691	25.09
282.906	49.66
283.122	53.76
283.337	-17.92
283.552	39.42
283.767	0.51
283.983	72.19
284.198	29.18
284.413	-3.58
284.628	27.14
284.843	84.48
285.058	80.38
285.274	68.09
285.489	-13.82
285.704	20.99
285.919	18.94
286.134	96.77
286.349	18.94
286.564	111.1
286.779	135.68
286.995	39.42
287.21	-15.87
287.425	76.29
287.64	-13.82
287.855	27.14
288.07	-9.73
288.285	27.14
288.5	37.38
288.715	-22.02
288.93	10.75
289.145	78.33
289.36	55.81
289.575	35.33
289.79	10.75
290.004	23.04
290.219	4.61
290.434	12.8
290.649	70.14
290.864	18.94
291.079	2.56
291.294	25.09
291.509	39.42
291.724	70.14
291.938	-15.87
292.153	102.91
292.368	-5.63
292.583	10.75
292.798	72.19
293.012	37.38
293.227	94.72
293.442	39.42
293.657	4.61
293.871	88.57
294.086	2.56
294.301	4.61
294.516	20.99
294.73	49.66
294.945	-5.63
295.16	-13.82
295.374	86.53
295.589	23.04
295.804	14.85
296.018	18.94
296.233	129.53
296.447	-22.02
296.662	64
296.877	45.57
297.091	2.56
297.306	27.14
297.52	20.99
297.735	31.23
297.949	39.42
298.164	-13.82
298.378	107.01
298.593	6.66
298.807	25.09
299.022	2.56
299.236	68.09
299.451	51.71
299.665	2.56
299.88	80.38
300.094	51.71
300.309	18.94
300.523	20.99
300.737	51.71
300.952	35.33
301.166	53.76
301.381	55.81
301.595	33.28
301.809	61.95
302.024	-11.78
302.238	-13.82
302.452	39.42
302.667	18.94
302.881	102.91
303.095	43.52
303.309	35.33
303.524	33.28
303.738	23.04
303.952	27.14
304.166	2.56
304.381	4.61
304.595	94.72
304.809	41.47
305.023	-34.3
305.237	43.52
305.452	4.61
305.666	25.09
305.88	29.18
306.094	10.75
306.308	84.48
306.522	104.96
306.736	18.94
306.95	10.75
307.164	-34.3
307.379	-11.78
307.593	49.66
307.807	94.72
308.021	80.38
308.235	23.04
308.449	2.56
308.663	29.18
308.877	68.09
309.091	-52.74
309.305	51.71
309.519	-110.08
309.733	53.76
309.947	82.43
310.161	72.19
310.374	-44.54
310.588	59.9
310.802	14.85
311.016	51.71
311.23	45.57
311.444	29.18
311.658	-5.63
311.872	100.86
312.085	57.86
312.299	-13.82
312.513	47.62
312.727	27.14
312.941	-19.97
313.154	-5.63
313.368	23.04
313.582	61.95
313.796	141.82
314.009	43.52
314.223	35.33
314.437	47.62
314.651	102.91
314.864	-52.74
315.078	55.81
315.292	70.14
315.505	84.48
315.719	45.57
315.933	53.76
316.146	31.23
316.36	-5.63
316.573	70.14
316.787	39.42
317.001	37.38
317.214	76.29
317.428	47.62
317.641	-1.54
317.855	29.18
318.068	39.42
318.282	45.57
318.495	84.48
318.709	53.76
318.922	88.57
319.136	51.71
319.349	-11.78
319.563	66.05
319.776	64
319.99	35.33
320.203	72.19
320.417	29.18
320.63	31.23
320.843	90.62
321.057	45.57
321.27	43.52
321.483	53.76
321.697	10.75
321.91	27.14
322.124	53.76
322.337	53.76
322.55	12.8
322.763	27.14
322.977	78.33
323.19	-62.98
323.403	59.9
323.617	31.23
323.83	-36.35
324.043	6.66
324.256	76.29
324.469	-50.69
324.683	59.9
324.896	-30.21
325.109	37.38
325.322	14.85
325.535	27.14
325.748	-1.54
325.962	12.8
326.175	51.71
326.388	53.76
326.601	-3.58
326.814	-30.21
327.027	74.24
327.24	-5.63
327.453	-28.16
327.666	-40.45
327.879	27.14
328.092	84.48
328.305	12.8
328.518	53.76
328.731	27.14
328.944	96.77
329.157	20.99
329.37	16.9
329.583	72.19
329.796	84.48
330.009	2.56
330.222	27.14
330.435	59.9
330.648	12.8
330.861	64
331.073	-22.02
331.286	51.71
331.499	-1.54
331.712	8.7
331.925	-22.02
332.138	-9.73
332.35	102.91
332.563	4.61
332.776	76.29
332.989	4.61
333.202	20.99
333.414	61.95
333.627	41.47
333.84	47.62
334.053	66.05
334.265	78.33
334.478	29.18
334.691	-26.11
334.903	68.09
335.116	39.42
335.329	51.71
335.541	45.57
335.754	18.94
335.966	33.28
336.179	70.14
336.392	29.18
336.604	76.29
336.817	61.95
337.029	18.94
337.242	80.38
337.454	18.94
337.667	35.33
337.88	2.56
338.092	51.71
338.305	109.05
338.517	-13.82
338.729	20.99
338.942	55.81
339.154	-17.92
339.367	-1.54
339.579	86.53
339.792	-44.54
340.004	96.77
340.217	80.38
340.429	-5.63
340.641	80.38
340.854	-62.98
341.066	31.23
341.278	35.33
341.491	139.77
341.703	55.81
341.915	-22.02
342.128	109.05
342.34	35.33
342.552	4.61
342.764	59.9
342.977	2.56
343.189	0.51
343.401	2.56
343.613	12.8
343.826	111.1
344.038	59.9
344.25	10.75
344.462	27.14
344.674	59.9
344.886	107.01
345.099	-5.63
345.311	100.86
345.523	6.66
345.735	49.66
345.947	84.48
346.159	-30.21
346.371	10.75
346.583	31.23
346.795	80.38
347.007	27.14
347.219	68.09
347.431	6.66
347.643	59.9
347.855	84.48
348.067	12.8
348.279	-9.73
348.491	25.09
348.703	64
348.915	109.05
349.127	-3.58
349.339	64
349.551	20.99
349.763	55.81
349.975	-46.59
350.187	117.25
350.399	25.09
350.61	55.81
350.822	39.42
351.034	47.62
351.246	39.42
351.458	59.9
351.669	64
351.881	78.33
352.093	31.23
352.305	23.04
352.517	37.38
352.728	78.33
352.94	68.09
353.152	29.18
353.363	47.62
353.575	61.95
353.787	45.57
353.999	92.67
354.21	59.9
354.422	10.75
354.633	90.62
354.845	49.66
355.057	12.8
355.268	76.29
355.48	43.52
355.692	2.56
355.903	-5.63
356.115	70.14
356.326	-7.68
356.538	47.62
356.749	53.76
356.961	92.67
357.172	104.96
357.384	51.71
357.595	121.34
357.807	72.19
358.018	33.28
358.23	14.85
358.441	76.29
358.653	82.43
358.864	43.52
359.075	64
359.287	61.95
359.498	-5.63
359.709	64
359.921	18.94
360.132	72.19
360.344	35.33
360.555	43.52
360.766	51.71
360.977	-11.78
361.189	70.14
361.4	-17.92
361.611	20.99
361.823	86.53
362.034	35.33
362.245	18.94
362.456	43.52
362.667	68.09
362.879	8.7
363.09	-7.68
363.301	80.38
363.512	-5.63
363.723	96.77
363.935	-1.54
364.146	127.49
364.357	35.33
364.568	78.33
364.779	14.85
364.99	-9.73
365.201	33.28
365.412	109.05
365.623	41.47
365.834	39.42
366.045	39.42
366.256	18.94
366.467	84.48
366.678	59.9
366.889	-22.02
367.1	55.81
367.311	12.8
367.522	8.7
367.733	35.33
367.944	8.7
368.155	-5.63
368.366	88.57
368.577	117.25
368.788	84.48
368.999	-26.11
369.209	-5.63
369.42	139.77
369.631	82.43
369.842	76.29
370.053	76.29
370.264	51.71
370.474	94.72
370.685	47.62
370.896	45.57
371.107	49.66
371.317	88.57
371.528	-13.82
371.739	68.09
371.95	31.23
372.16	59.9
372.371	20.99
372.582	100.86
372.792	55.81
373.003	92.67
373.214	61.95
373.424	150.01
373.635	-13.82
373.846	53.76
374.056	35.33
374.267	70.14
374.477	37.38
374.688	33.28
374.898	29.18
375.109	51.71
375.319	78.33
375.53	12.8
375.74	39.42
375.951	70.14
376.161	84.48
376.372	29.18
376.582	20.99
376.793	27.14
377.003	33.28
377.214	78.33
377.424	23.04
377.635	2.56
377.845	-28.16
378.055	76.29
378.266	47.62
378.476	10.75
378.686	92.67
378.897	55.81
379.107	82.43
379.317	27.14
379.528	109.05
379.738	59.9
379.948	115.2
380.158	94.72
380.369	14.85
380.579	27.14
380.789	78.33
380.999	86.53
381.21	20.99
381.42	145.92
381.63	2.56
381.84	43.52
382.05	-36.35
382.261	68.09
382.471	88.57
382.681	37.38
382.891	117.25
383.101	53.76
383.311	29.18
383.521	45.57
383.731	18.94
383.941	45.57
384.151	70.14
384.361	6.66
384.571	35.33
384.781	-13.82
384.991	125.44
385.201	100.86
385.411	92.67
385.621	25.09
385.831	76.29
386.041	86.53
386.251	35.33
386.461	72.19
386.671	-32.26
386.881	-7.68
387.091	12.8
387.301	2.56
387.511	80.38
387.72	141.82
387.93	84.48
388.14	-1.54
388.35	45.57
388.56	68.09
388.769	20.99
388.979	-3.58
389.189	39.42
389.399	76.29
389.609	59.9
389.818	20.99
390.028	135.68
390.238	-5.63
390.447	68.09
390.657	102.91
390.867	78.33
391.076	10.75
391.286	39.42
391.496	23.04
391.705	18.94
391.915	55.81
392.125	39.42
392.334	20.99
392.544	39.42
392.753	113.15
392.963	20.99
393.172	115.2
393.382	39.42
393.591	64
393.801	33.28
394.01	100.86
394.22	100.86
394.429	127.49
394.639	23.04
394.848	100.86
395.058	-3.58
395.267	61.95
395.477	20.99
395.686	68.09
395.895	107.01
396.105	111.1
396.314	78.33
396.524	102.91
396.733	64
396.942	72.19
397.152	109.05
397.361	96.77
397.57	41.47
397.78	129.53
397.989	80.38
398.198	160.25
398.407	31.23
398.617	29.18
398.826	61.95
399.035	107.01
399.244	109.05
399.453	78.33
399.663	90.62
399.872	162.3
400.081	74.24
400.29	113.15
400.499	94.72
400.708	125.44
400.917	68.09
401.127	82.43
401.336	29.18
401.545	125.44
401.754	70.14
401.963	86.53
402.172	59.9
402.381	18.94
402.59	178.69
402.799	109.05
403.008	74.24
403.217	18.94
403.426	137.73
403.635	111.1
403.844	145.92
404.053	102.91
404.262	49.66
404.471	201.21
404.68	107.01
404.888	188.93
405.097	57.86
405.306	133.63
405.515	166.4
405.724	119.29
405.933	115.2
406.142	129.53
406.35	104.96
406.559	190.97
406.768	154.11
406.977	252.41
407.185	203.26
407.394	178.69
407.603	176.64
407.812	248.32
408.02	225.79
408.229	117.25
408.438	215.55
408.646	129.53
408.855	231.93
409.064	236.03
409.272	193.02
409.481	229.88
409.69	264.7
409.898	233.98
410.107	219.64
410.315	291.32
410.524	328.19
410.733	293.37
410.941	309.76
411.15	354.81
411.358	442.87
411.567	346.62
411.775	332.28
411.984	395.77
412.192	397.82
412.401	430.59
412.609	485.88
412.818	412.15
413.026	430.59
413.234	494.07
413.443	457.21
413.651	455.16
413.86	465.4
414.068	596.47
414.276	543.22
414.485	553.46
414.693	518.65
414.901	543.22
415.11	598.52
415.318	592.37
415.526	594.42
415.734	735.73
415.943	608.76
416.151	731.64
416.359	727.54
416.567	776.69
416.776	766.45
416.984	801.27
417.192	809.46
417.4	809.46
417.608	840.18
417.817	909.81
418.025	897.52
418.233	1034.74
418.441	993.78
418.649	938.48
418.857	1075.7
419.065	1124.85
419.273	1124.85
419.481	1182.19
419.689	1206.77
419.897	1208.81
420.105	1235.44
420.313	1331.69
420.521	1407.47
420.729	1323.5
420.937	1350.12
421.145	1419.75
421.353	1581.54
421.561	1765.86
421.769	1688.04
421.977	1651.17
422.185	1612.26
422.393	1812.96
422.601	1817.06
422.809	1886.69
423.017	1911.27
423.224	1956.32
423.432	2197.98
423.64	2154.98
423.848	2341.34
424.056	2261.47
424.263	2333.15
424.471	2413.02
424.679	2453.98
424.887	2494.94
425.094	2597.34
425.302	2685.4
425.51	2718.17
425.718	2779.61
425.925	2920.92
426.133	2914.77
426.341	3312.08
426.548	3344.84
426.756	3154.38
426.964	3312.08
427.171	3484.11
427.379	3602.89
427.586	3654.09
427.794	3844.55
428.001	3850.69
428.209	4020.67
428.417	4116.93
428.624	4237.76
428.832	4291.01
429.039	4319.68
429.247	4202.94
429.454	4676.02
429.662	5030.32
429.869	4645.31
430.076	4854.2
430.284	4852.15
430.491	5083.57
430.699	5466.54
430.906	5517.74
431.114	5271.98
431.321	5663.15
431.528	5845.41
431.736	6060.45
431.943	6386.08
432.15	6207.91
432.358	6379.93
432.565	6605.21
432.772	6576.54
432.979	6893.97
433.187	6918.55
433.394	7106.96
433.601	7557.52
433.808	7616.91
434.016	7547.28
434.223	7727.5
434.43	8284.55
434.637	7989.64
434.844	8597.88
435.052	8849.78
435.259	8644.99
435.466	9011.57
435.673	8761.72
435.88	9408.88
436.087	9632.11
436.294	9646.44
436.501	9738.6
436.708	9474.42
436.915	10013.03
437.122	10279.27
437.329	10441.06
437.537	10690.91
437.743	11252.05
437.95	10973.53
438.157	11333.97
438.364	11966.79
438.571	11821.39
438.778	11893.07
438.985	12841.28
439.192	12396.87
439.399	12972.35
439.606	12538.18
439.813	13152.57
440.02	13902.12
440.227	13613.36
440.433	13816.11
440.64	14100.78
440.847	13850.92
441.054	14541.09
441.261	15368.47
441.467	15198.49
441.674	15560.98
441.881	15892.75
442.088	15927.56
442.294	15659.28
442.501	16158.99
442.708	16404.74
442.914	17008.89
443.121	17877.23
443.328	17314.04
443.534	18723.04
443.741	17957.1
443.948	18008.3
444.154	19208.41
444.361	19001.57
444.568	18913.5
444.774	19116.25
444.981	19106.01
445.187	19585.24
445.394	21022.91
445.6	20416.71
445.807	22417.58
446.013	21176.51
446.22	21647.54
446.426	22700.2
446.633	22999.2
446.839	23578.78
447.046	22810.79
447.252	23791.76
447.459	24328.33
447.665	23974.03
447.871	24946.82
448.078	25956.47
448.284	24707.21
448.491	25720.95
448.697	26609.77
448.903	27232.35
449.11	27248.74
449.316	26499.18
449.522	26759.27
449.728	27865.17
449.935	27883.61
450.141	28371.02
450.347	28676.17
450.553	27598.94
450.76	28215.38
450.966	29464.64
451.172	28557.39
451.378	29751.35
451.584	28923.97
451.791	29780.03
451.997	29548.61
452.203	29919.29
452.409	30316.59
452.615	30128.18
452.821	28827.72
453.027	28751.95
453.233	30240.82
453.44	28913.73
453.646	29478.97
453.852	29589.56
454.058	29851.7
454.264	29423.68
454.47	29728.83
454.676	28686.41
454.882	29880.38
455.088	27453.53
455.294	27889.75
455.5	28248.14
455.705	28782.66
455.911	27091.04
456.117	26830.95
456.323	26617.96
456.529	25174.14
456.735	26325.1
456.941	25944.18
457.147	25454.72
457.352	24662.15
457.558	24332.43
457.764	24660.1
457.97	23998.61
458.176	23584.92
458.381	23701.65
458.587	22347.95
458.793	22526.12
458.999	21254.33
459.204	22802.6
459.41	22139.05
459.616	20746.44
459.821	20897.99
460.027	20957.38
460.233	20205.77
460.438	19267.8
460.644	19448.02
460.85	18680.03
461.055	18362.6
461.261	18333.93
461.466	16824.58
461.672	16611.59
461.878	17340.66
462.083	16376.07
462.289	16140.55
462.494	15796.49
462.7	15378.71
462.905	14760.22
463.111	15364.37
463.316	15315.22
463.522	14919.96
463.727	14936.35
463.932	15159.58
464.138	14864.67
464.343	14819.61
464.549	14514.47
464.754	14952.73
464.959	14672.16
465.165	14844.19
465.37	14192.94
465.575	13691.18
465.781	14334.25
465.986	14291.24
466.191	13844.78
466.397	13707.57
466.602	12888.38
466.807	13543.73
467.012	13357.36
467.218	13338.93
467.423	12906.81
467.628	13207.86
467.833	13732.14
468.038	13396.28
