Data from USB4F104151__285__14-46-25-414.txt Node

Date: Thu Mar 13 14:46:25 EDT 2025
User: louis
Spectrometer: USB4F10415
Trigger mode: 4
Integration Time (sec): 2.000000E-2
Scans to average: 1
Electric dark correction enabled: true
Nonlinearity correction enabled: false
Boxcar width: 0
XAxis mode: Wavelengths
Number of Pixels in Spectrum: 3648
>>>>>Begin Spectral Data<<<<<
178.204	-59.22
178.424	-59.22
178.644	-59.22
178.864	-188.24
179.084	-141.14
179.304	-22.36
179.524	-18.26
179.744	12.46
179.964	63.66
180.184	30.89
180.404	39.08
180.624	-44.88
180.844	6.31
181.064	-40.79
181.283	34.99
181.503	-18.26
181.723	-42.84
181.943	39.08
182.163	127.14
182.383	-24.4
182.602	-10.07
182.822	69.8
183.042	51.37
183.262	59.56
183.482	32.94
183.701	-96.08
183.921	16.55
184.141	-16.21
184.361	39.08
184.58	49.32
184.8	57.51
185.02	-12.12
185.239	80.04
185.459	-8.02
185.679	51.37
185.898	-8.02
186.118	-1.88
186.338	28.84
186.557	71.85
186.777	-10.07
186.997	6.31
187.216	49.32
187.436	67.75
187.655	59.56
187.875	-40.79
188.095	-24.4
188.314	55.47
188.534	75.95
188.753	-18.26
188.973	-20.31
189.192	114.86
189.412	-48.98
189.631	-8.02
189.851	-1.88
190.07	135.34
190.29	37.03
190.509	30.89
190.729	26.79
190.948	6.31
191.168	49.32
191.387	102.57
191.607	-51.03
191.826	55.47
192.045	-18.26
192.265	-1.88
192.484	104.62
192.704	12.46
192.923	-79.7
193.142	96.43
193.362	10.41
193.581	108.71
193.8	30.89
194.02	75.95
194.239	71.85
194.458	39.08
194.678	0.17
194.897	18.6
195.116	28.84
195.335	30.89
195.555	80.04
195.774	-65.36
195.993	63.66
196.212	-18.26
196.432	32.94
196.651	39.08
196.87	24.75
197.089	30.89
197.308	14.51
197.528	80.04
197.747	-42.84
197.966	-8.02
198.185	80.04
198.404	-5.97
198.623	30.89
198.842	10.41
199.062	-1.88
199.281	8.36
199.5	-24.4
199.719	53.42
199.938	47.27
200.157	-8.02
200.376	88.23
200.595	-22.36
200.814	96.43
201.033	-22.36
201.252	73.9
201.471	47.27
201.69	84.14
201.909	6.31
202.128	49.32
202.347	43.18
202.566	0.17
202.785	-10.07
203.004	-3.93
203.223	98.47
203.442	-34.64
203.661	14.51
203.879	20.65
204.098	73.9
204.317	-16.21
204.536	39.08
204.755	53.42
204.974	-8.02
205.193	-30.55
205.411	137.38
205.63	-16.21
205.849	0.17
206.068	-22.36
206.287	43.18
206.505	-8.02
206.724	-69.46
206.943	18.6
207.162	6.31
207.381	71.85
207.599	37.03
207.818	34.99
208.037	32.94
208.255	-10.07
208.474	88.23
208.693	20.65
208.911	-51.03
209.13	71.85
209.349	10.41
209.567	73.9
209.786	57.51
210.005	73.9
210.223	-5.97
210.442	-20.31
210.661	6.31
210.879	-26.45
211.098	32.94
211.316	-1.88
211.535	6.31
211.753	-42.84
211.972	86.19
212.191	39.08
212.409	14.51
212.628	39.08
212.846	14.51
213.065	41.13
213.283	45.23
213.502	18.6
213.72	26.79
213.938	18.6
214.157	-8.02
214.375	22.7
214.594	-38.74
214.812	41.13
215.031	47.27
215.249	-24.4
215.467	6.31
215.686	14.51
215.904	59.56
216.122	14.51
216.341	22.7
216.559	6.31
216.778	39.08
216.996	86.19
217.214	63.66
217.432	-3.93
217.651	-30.55
217.869	92.33
218.087	22.7
218.306	-42.84
218.524	4.27
218.742	-65.36
218.96	80.04
219.179	-24.4
219.397	49.32
219.615	37.03
219.833	63.66
220.051	63.66
220.27	71.85
220.488	59.56
220.706	49.32
220.924	2.22
221.142	-34.64
221.36	51.37
221.578	39.08
221.796	100.52
222.015	-1.88
222.233	-18.26
222.451	55.47
222.669	30.89
222.887	57.51
223.105	34.99
223.323	-8.02
223.541	-5.97
223.759	28.84
223.977	-12.12
224.195	-38.74
224.413	55.47
224.631	-22.36
224.849	47.27
225.067	-8.02
225.285	-14.17
225.503	16.55
225.721	14.51
225.939	-10.07
226.157	-18.26
226.375	16.55
226.592	-10.07
226.81	22.7
227.028	0.17
227.246	41.13
227.464	-55.12
227.682	-3.93
227.9	34.99
228.117	65.71
228.335	-63.32
228.553	39.08
228.771	30.89
228.989	-8.02
229.206	14.51
229.424	14.51
229.642	16.55
229.86	8.36
230.077	82.09
230.295	104.62
230.513	22.7
230.731	10.41
230.948	73.9
231.166	71.85
231.384	-24.4
231.601	6.31
231.819	30.89
232.037	-36.69
232.254	-63.32
232.472	39.08
232.689	-10.07
232.907	127.14
233.125	-14.17
233.342	12.46
233.56	71.85
233.777	-30.55
233.995	57.51
234.213	61.61
234.43	16.55
234.648	26.79
234.865	88.23
235.083	51.37
235.3	-48.98
235.518	32.94
235.735	71.85
235.953	49.32
236.17	-32.6
236.388	10.41
236.605	-10.07
236.822	-22.36
237.04	73.9
237.257	10.41
237.475	30.89
237.692	59.56
237.909	22.7
238.127	30.89
238.344	57.51
238.562	22.7
238.779	24.75
238.996	22.7
239.214	34.99
239.431	49.32
239.648	2.22
239.865	39.08
240.083	12.46
240.3	57.51
240.517	-34.64
240.735	88.23
240.952	6.31
241.169	121
241.386	34.99
241.603	30.89
241.821	-24.4
242.038	57.51
242.255	34.99
242.472	0.17
242.689	55.47
242.907	61.61
243.124	-40.79
243.341	-1.88
243.558	24.75
243.775	47.27
243.992	-34.64
244.209	41.13
244.426	86.19
244.643	-51.03
244.86	-1.88
245.078	8.36
245.295	65.71
245.512	6.31
245.729	24.75
245.946	43.18
246.163	24.75
246.38	14.51
246.597	-42.84
246.814	59.56
247.031	59.56
247.248	55.47
247.464	24.75
247.681	-3.93
247.898	88.23
248.115	32.94
248.332	26.79
248.549	30.89
248.766	41.13
248.983	73.9
249.2	39.08
249.417	80.04
249.633	22.7
249.85	22.7
250.067	-59.22
250.284	45.23
250.501	80.04
250.717	-26.45
250.934	86.19
251.151	16.55
251.368	-46.93
251.585	112.81
251.801	10.41
252.018	-10.07
252.235	73.9
252.451	-8.02
252.668	51.37
252.885	30.89
253.102	34.99
253.318	2.22
253.535	-1.88
253.752	-8.02
253.968	26.79
254.185	39.08
254.401	41.13
254.618	10.41
254.835	-51.03
255.051	39.08
255.268	24.75
255.484	32.94
255.701	-26.45
255.917	112.81
256.134	20.65
256.351	137.38
256.567	59.56
256.784	-5.97
257	28.84
257.217	139.43
257.433	53.42
257.65	-8.02
257.866	139.43
258.082	-18.26
258.299	10.41
258.515	8.36
258.732	71.85
258.948	0.17
259.165	-22.36
259.381	-40.79
259.597	-24.4
259.814	8.36
260.03	-26.45
260.246	37.03
260.463	18.6
260.679	-16.21
260.895	-24.4
261.112	-14.17
261.328	43.18
261.544	28.84
261.761	75.95
261.977	55.47
262.193	-10.07
262.409	-1.88
262.626	2.22
262.842	63.66
263.058	-34.64
263.274	43.18
263.49	20.65
263.707	-38.74
263.923	24.75
264.139	-61.27
264.355	30.89
264.571	59.56
264.787	57.51
265.004	4.27
265.22	-34.64
265.436	2.22
265.652	-26.45
265.868	-8.02
266.084	88.23
266.3	16.55
266.516	-34.64
266.732	22.7
266.948	51.37
267.164	84.14
267.38	-18.26
267.596	14.51
267.812	114.86
268.028	84.14
268.244	-5.97
268.46	22.7
268.676	51.37
268.892	75.95
269.108	22.7
269.324	65.71
269.54	75.95
269.756	67.75
269.972	-34.64
270.188	16.55
270.403	34.99
270.619	59.56
270.835	16.55
271.051	53.42
271.267	-5.97
271.483	45.23
271.698	14.51
271.914	16.55
272.13	67.75
272.346	28.84
272.562	30.89
272.777	-8.02
272.993	41.13
273.209	28.84
273.425	41.13
273.64	6.31
273.856	18.6
274.072	73.9
274.287	-42.84
274.503	41.13
274.719	45.23
274.934	6.31
275.15	73.9
275.366	16.55
275.581	-26.45
275.797	45.23
276.012	51.37
276.228	14.51
276.444	-59.22
276.659	2.22
276.875	12.46
277.09	47.27
277.306	-14.17
277.521	2.22
277.737	-34.64
277.952	39.08
278.168	63.66
278.383	-75.6
278.599	80.04
278.814	43.18
279.03	22.7
279.245	90.28
279.461	0.17
279.676	30.89
279.892	34.99
280.107	47.27
280.322	22.7
280.538	-40.79
280.753	32.94
280.969	-71.51
281.184	2.22
281.399	90.28
281.615	-14.17
281.83	22.7
282.045	51.37
282.26	-20.31
282.476	-18.26
282.691	30.89
282.906	10.41
283.122	92.33
283.337	-26.45
283.552	32.94
283.767	0.17
283.983	63.66
284.198	-12.12
284.413	22.7
284.628	-55.12
284.843	71.85
285.058	28.84
285.274	6.31
285.489	-32.6
285.704	51.37
285.919	-16.21
286.134	-10.07
286.349	57.51
286.564	-67.41
286.779	39.08
286.995	30.89
287.21	-59.22
287.425	37.03
287.64	-36.69
287.855	22.7
288.07	-30.55
288.285	153.77
288.5	43.18
288.715	57.51
288.93	51.37
289.145	-38.74
289.36	90.28
289.575	6.31
289.79	41.13
290.004	-14.17
290.219	30.89
290.434	0.17
290.649	20.65
290.864	114.86
291.079	-5.97
291.294	90.28
291.509	16.55
291.724	28.84
291.938	2.22
292.153	0.17
292.368	-1.88
292.583	26.79
292.798	90.28
293.012	55.47
293.227	-8.02
293.442	-1.88
293.657	34.99
293.871	178.34
294.086	12.46
294.301	45.23
294.516	-1.88
294.73	39.08
294.945	14.51
295.16	-5.97
295.374	41.13
295.589	65.71
295.804	18.6
296.018	-46.93
296.233	12.46
296.447	-24.4
296.662	28.84
296.877	20.65
297.091	32.94
297.306	16.55
297.52	-1.88
297.735	6.31
297.949	4.27
298.164	-16.21
298.378	34.99
298.593	-24.4
298.807	6.31
299.022	2.22
299.236	6.31
299.451	8.36
299.665	0.17
299.88	51.37
300.094	-51.03
300.309	22.7
300.523	-14.17
300.737	63.66
300.952	55.47
301.166	37.03
301.381	-63.32
301.595	-40.79
301.809	30.89
302.024	55.47
302.238	10.41
302.452	47.27
302.667	-10.07
302.881	22.7
303.095	67.75
303.309	-28.5
303.524	24.75
303.738	-36.69
303.952	22.7
304.166	-36.69
304.381	-34.64
304.595	24.75
304.809	47.27
305.023	32.94
305.237	43.18
305.452	-55.12
305.666	-1.88
305.88	57.51
306.094	-1.88
306.308	88.23
306.522	47.27
306.736	69.8
306.95	8.36
307.164	49.32
307.379	39.08
307.593	67.75
307.807	-24.4
308.021	63.66
308.235	47.27
308.449	24.75
308.663	22.7
308.877	49.32
309.091	10.41
309.305	30.89
309.519	14.51
309.733	55.47
309.947	51.37
310.161	20.65
310.374	-61.27
310.588	96.43
310.802	16.55
311.016	-51.03
311.23	12.46
311.444	-14.17
311.658	49.32
311.872	75.95
312.085	47.27
312.299	77.99
312.513	20.65
312.727	18.6
312.941	71.85
313.154	-34.64
313.368	55.47
313.582	41.13
313.796	-32.6
314.009	0.17
314.223	-24.4
314.437	8.36
314.651	73.9
314.864	-16.21
315.078	63.66
315.292	2.22
315.505	30.89
315.719	80.04
315.933	75.95
316.146	14.51
316.36	-75.6
316.573	84.14
316.787	41.13
317.001	-1.88
317.214	0.17
317.428	-8.02
317.641	55.47
317.855	-12.12
318.068	2.22
318.282	32.94
318.495	65.71
318.709	24.75
318.922	-79.7
319.136	125.1
319.349	59.56
319.563	108.71
319.776	55.47
319.99	-28.5
320.203	55.47
320.417	16.55
320.63	82.09
320.843	-10.07
321.057	96.43
321.27	-53.08
321.483	75.95
321.697	34.99
321.91	49.32
322.124	16.55
322.337	53.42
322.55	-34.64
322.763	47.27
322.977	-30.55
323.19	6.31
323.403	80.04
323.617	-3.93
323.83	69.8
324.043	-18.26
324.256	53.42
324.469	14.51
324.683	73.9
324.896	32.94
325.109	94.38
325.322	-46.93
325.535	2.22
325.748	47.27
325.962	-10.07
326.175	63.66
326.388	28.84
326.601	71.85
326.814	96.43
327.027	26.79
327.24	80.04
327.453	-34.64
327.666	34.99
327.879	16.55
328.092	41.13
328.305	6.31
328.518	-26.45
328.731	-3.93
328.944	96.43
329.157	-28.5
329.37	39.08
329.583	43.18
329.796	55.47
330.009	24.75
330.222	63.66
330.435	84.14
330.648	-1.88
330.861	24.75
331.073	-42.84
331.286	84.14
331.499	39.08
331.712	22.7
331.925	112.81
332.138	69.8
332.35	32.94
332.563	-44.88
332.776	30.89
332.989	47.27
333.202	2.22
333.414	-38.74
333.627	51.37
333.84	-8.02
334.053	55.47
334.265	26.79
334.478	14.51
334.691	30.89
334.903	-22.36
335.116	-1.88
335.329	37.03
335.541	39.08
335.754	63.66
335.966	8.36
336.179	24.75
336.392	73.9
336.604	-16.21
336.817	0.17
337.029	-14.17
337.242	0.17
337.454	32.94
337.667	10.41
337.88	34.99
338.092	22.7
338.305	55.47
338.517	-18.26
338.729	-24.4
338.942	41.13
339.154	-5.97
339.367	-55.12
339.579	92.33
339.792	-89.94
340.004	30.89
340.217	30.89
340.429	26.79
340.641	43.18
340.854	22.7
341.066	63.66
341.278	16.55
341.491	98.47
341.703	59.56
341.915	80.04
342.128	51.37
342.34	57.51
342.552	47.27
342.764	80.04
342.977	96.43
343.189	-5.97
343.401	55.47
343.613	22.7
343.826	32.94
344.038	22.7
344.25	116.9
344.462	-18.26
344.674	121
344.886	-16.21
345.099	39.08
345.311	0.17
345.523	39.08
345.735	37.03
345.947	22.7
346.159	80.04
346.371	-16.21
346.583	-51.03
346.795	92.33
347.007	30.89
347.219	57.51
347.431	-30.55
347.643	-14.17
347.855	2.22
348.067	26.79
348.279	0.17
348.491	63.66
348.703	61.61
348.915	-34.64
349.127	26.79
349.339	41.13
349.551	6.31
349.763	55.47
349.975	-22.36
350.187	61.61
350.399	22.7
350.61	22.7
350.822	32.94
351.034	8.36
351.246	24.75
351.458	123.05
351.669	39.08
351.881	63.66
352.093	88.23
352.305	98.47
352.517	-14.17
352.728	-34.64
352.94	16.55
353.152	43.18
353.363	34.99
353.575	57.51
353.787	104.62
353.999	53.42
354.21	47.27
354.422	22.7
354.633	63.66
354.845	-34.64
355.057	71.85
355.268	-14.17
355.48	55.47
355.692	65.71
355.903	96.43
356.115	-8.02
356.326	-40.79
356.538	88.23
356.749	55.47
356.961	84.14
357.172	24.75
357.384	131.24
357.595	106.67
357.807	-16.21
358.018	-8.02
358.23	0.17
358.441	71.85
358.653	96.43
358.864	24.75
359.075	-18.26
359.287	24.75
359.498	57.51
359.709	51.37
359.921	73.9
360.132	104.62
360.344	-3.93
360.555	-26.45
360.766	14.51
360.977	-30.55
361.189	39.08
361.4	-51.03
361.611	55.47
361.823	121
362.034	92.33
362.245	71.85
362.456	26.79
362.667	106.67
362.879	-59.22
363.09	16.55
363.301	32.94
363.512	41.13
363.723	6.31
363.935	47.27
364.146	22.7
364.357	-34.64
364.568	67.75
364.779	10.41
364.99	47.27
365.201	63.66
365.412	71.85
365.623	-71.51
365.834	45.23
366.045	75.95
366.256	63.66
366.467	-55.12
366.678	0.17
366.889	-42.84
367.1	57.51
367.311	43.18
367.522	18.6
367.733	-10.07
367.944	-5.97
368.155	2.22
368.366	32.94
368.577	10.41
368.788	41.13
368.999	2.22
369.209	-1.88
369.42	166.06
369.631	67.75
369.842	2.22
370.053	143.53
370.264	4.27
370.474	-14.17
370.685	6.31
370.896	75.95
371.107	41.13
371.317	80.04
371.528	-30.55
371.739	55.47
371.95	30.89
372.16	43.18
372.371	-1.88
372.582	16.55
372.792	88.23
373.003	80.04
373.214	88.23
373.424	6.31
373.635	-1.88
373.846	-18.26
374.056	94.38
374.267	-22.36
374.477	18.6
374.688	4.27
374.898	0.17
375.109	67.75
375.319	55.47
375.53	47.27
375.74	59.56
375.951	43.18
376.161	-22.36
376.372	32.94
376.582	30.89
376.793	98.47
377.003	63.66
377.214	0.17
377.424	121
377.635	22.7
377.845	30.89
378.055	170.15
378.266	26.79
378.476	112.81
378.686	10.41
378.897	39.08
379.107	106.67
379.317	37.03
379.528	63.66
379.738	-10.07
379.948	-42.84
380.158	22.7
380.369	-67.41
380.579	37.03
380.789	6.31
380.999	88.23
381.21	26.79
381.42	80.04
381.63	-24.4
381.84	73.9
382.05	73.9
382.261	90.28
382.471	32.94
382.681	0.17
382.891	43.18
383.101	-67.41
383.311	63.66
383.521	14.51
383.731	41.13
383.941	22.7
384.151	61.61
384.361	30.89
384.571	14.51
384.781	6.31
384.991	73.9
385.201	39.08
385.411	41.13
385.621	63.66
385.831	22.7
386.041	96.43
386.251	67.75
386.461	82.09
386.671	73.9
386.881	71.85
387.091	30.89
387.301	63.66
387.511	39.08
387.72	80.04
387.93	22.7
388.14	-24.4
388.35	16.55
388.56	88.23
388.769	63.66
388.979	84.14
389.189	47.27
389.399	55.47
389.609	-46.93
389.818	49.32
390.028	39.08
390.238	39.08
390.447	84.14
390.657	34.99
390.867	0.17
391.076	39.08
391.286	90.28
391.496	-34.64
391.705	55.47
391.915	80.04
392.125	151.72
392.334	104.62
392.544	77.99
392.753	59.56
392.963	14.51
393.172	-12.12
393.382	-46.93
393.591	75.95
393.801	14.51
394.01	90.28
394.22	22.7
394.429	6.31
394.639	75.95
394.848	147.62
395.058	121
395.267	73.9
395.477	82.09
395.686	67.75
395.895	116.9
396.105	98.47
396.314	71.85
396.524	69.8
396.733	110.76
396.942	61.61
397.152	8.36
397.361	61.61
397.57	32.94
397.78	51.37
397.989	112.81
398.198	194.73
398.407	47.27
398.617	55.47
398.826	37.03
399.035	47.27
399.244	98.47
399.453	55.47
399.663	57.51
399.872	139.43
400.081	34.99
400.29	131.24
400.499	49.32
400.708	75.95
400.917	77.99
401.127	6.31
401.336	53.42
401.545	45.23
401.754	75.95
401.963	129.19
402.172	-22.36
402.381	96.43
402.59	88.23
402.799	202.92
403.008	153.77
403.217	90.28
403.426	-16.21
403.635	90.28
403.844	149.67
404.053	131.24
404.262	161.96
404.471	123.05
404.68	137.38
404.888	106.67
405.097	73.9
405.306	104.62
405.515	110.76
405.724	98.47
405.933	108.71
406.142	145.58
406.35	166.06
406.559	114.86
406.768	112.81
406.977	71.85
407.185	114.86
407.394	161.96
407.603	133.29
407.812	106.67
408.02	239.78
408.229	131.24
408.438	180.39
408.646	121
408.855	100.52
409.064	182.44
409.272	202.92
409.481	204.97
409.69	108.71
409.898	237.74
410.107	235.69
410.315	245.93
410.524	161.96
410.733	198.82
410.941	274.6
411.15	352.42
411.358	254.12
411.567	264.36
411.775	284.84
411.984	243.88
412.192	317.61
412.401	284.84
412.609	252.07
412.818	301.22
413.026	342.18
413.234	389.28
413.443	366.76
413.651	387.24
413.86	432.29
414.068	407.72
414.276	409.76
414.485	424.1
414.693	442.53
414.901	499.88
415.11	567.46
415.318	506.02
415.526	532.64
415.734	626.85
415.943	579.75
416.151	630.95
416.359	567.46
416.567	649.38
416.776	602.27
416.984	606.37
417.192	680.1
417.4	559.27
417.608	661.66
417.817	729.25
418.025	841.89
418.233	735.39
418.441	745.63
418.649	770.21
418.857	856.22
419.065	940.19
419.273	839.84
419.481	940.19
419.689	932
419.897	936.09
420.105	1018.01
420.313	1087.64
420.521	1089.69
420.729	1069.21
420.937	1128.6
421.145	1183.9
421.353	1177.75
421.561	1302.68
421.769	1235.1
421.977	1351.83
422.185	1347.73
422.393	1480.85
422.601	1546.39
422.809	1581.2
423.017	1425.56
423.224	1630.35
423.432	1742.99
423.64	1693.84
423.848	1806.48
424.056	1714.32
424.263	1874.06
424.471	1837.2
424.679	1984.65
424.887	2080.91
425.094	2185.35
425.302	2113.67
425.51	2228.36
425.718	2318.47
425.925	2291.85
426.133	2420.87
426.341	2662.53
426.548	2580.61
426.756	2607.23
426.964	2627.71
427.171	2736.26
427.379	2859.14
427.586	2865.28
427.794	2928.77
428.001	3123.32
428.209	3176.57
428.417	3168.38
428.624	3477.62
428.832	3430.52
429.039	3467.38
429.247	3451
429.454	3850.35
429.662	3911.79
429.869	3692.66
430.076	4053.1
430.284	3905.65
430.491	4085.87
430.699	4290.67
430.906	4180.07
431.114	4282.47
431.321	4503.65
431.528	4503.65
431.736	4751.46
431.943	5027.93
432.15	4925.54
432.358	5054.56
432.565	5263.45
432.772	5269.59
432.979	5503.06
433.187	5523.54
433.394	5562.45
433.601	5941.33
433.808	6076.49
434.016	6148.17
434.223	6295.63
434.43	6656.07
434.637	6506.57
434.844	6993.98
435.052	6953.02
435.259	7043.14
435.466	7075.9
435.673	7118.91
435.88	7610.42
436.087	7747.64
436.294	7755.83
436.501	7714.87
436.708	7747.64
436.915	8142.89
437.122	8685.61
437.329	8327.21
437.537	8751.14
437.743	8800.29
437.95	8759.33
438.157	9222.17
438.364	9422.87
438.571	9512.99
438.778	9396.25
438.985	10510.35
439.192	9791.51
439.399	10223.63
439.606	10041.36
439.813	10590.22
440.02	11337.73
440.227	11239.42
440.433	10934.28
440.64	11401.21
440.847	11116.55
441.054	11474.94
441.261	12433.39
441.467	12257.26
441.674	12543.98
441.881	12998.63
442.088	12824.55
442.294	12662.76
442.501	12720.1
442.708	13260.77
442.914	13641.69
443.121	14323.66
443.328	13752.28
443.534	15054.79
443.741	14464.97
443.948	14323.66
444.154	15304.64
444.361	15325.12
444.568	15200.19
444.774	15120.32
444.981	15456.19
445.187	15812.54
445.394	16881.58
445.6	16392.11
445.807	18143.13
446.013	17272.74
446.22	17547.17
446.426	18306.96
446.633	18550.67
446.839	19007.37
447.046	18200.47
447.252	19029.9
447.459	19255.17
447.665	19216.26
447.871	20219.77
448.078	20889.45
448.284	19556.22
448.491	20416.37
448.697	21374.82
448.903	21614.43
449.11	21815.13
449.316	21256.04
449.522	21741.41
449.728	22005.59
449.935	22484.82
450.141	22632.27
450.347	22978.38
450.553	22624.08
450.76	22669.14
450.966	23625.54
451.172	23152.46
451.378	23435.08
451.584	23332.68
451.791	24110.91
451.997	23498.56
452.203	24082.24
452.409	24143.67
452.615	23887.68
452.821	23215.94
453.027	22746.96
453.233	24092.48
453.44	23189.32
453.646	23502.66
453.852	23805.76
454.058	24024.89
454.264	23191.37
454.47	23793.47
454.676	23060.3
454.882	23965.5
455.088	21921.63
455.294	22359.89
455.5	22675.28
455.705	22820.69
455.911	21925.72
456.117	21778.27
456.323	21376.87
456.529	20266.87
456.735	21305.19
456.941	20549.49
457.147	20526.96
457.352	19691.39
457.558	19507.07
457.764	19478.4
457.97	19367.81
458.176	18669.45
458.381	18796.43
458.587	17936.28
458.793	18132.89
458.999	16879.53
459.204	18419.6
459.41	17649.57
459.616	16594.86
459.821	16598.96
460.027	16498.61
460.233	16168.88
460.438	15523.77
460.644	15638.46
460.85	14931.91
461.055	14600.14
461.261	14350.29
461.466	13473.76
461.672	13090.79
461.878	14016.47
462.083	13060.07
462.289	12951.53
462.494	12711.91
462.7	12189.68
462.905	11687.93
463.111	12302.32
463.316	12253.17
463.522	11843.57
463.727	11958.26
463.932	11945.97
464.138	11692.02
464.343	11847.67
464.549	11767.8
464.754	11868.15
464.959	11843.57
465.165	11532.28
465.37	11481.08
465.575	11016.19
465.781	11556.86
465.986	11534.33
466.191	10938.37
466.397	10921.99
466.602	10170.38
466.807	10469.39
467.012	10766.34
467.218	10633.22
467.423	10541.07
467.628	10917.89
467.833	11108.35
