Data from USB4F104151__105__14-43-43-932.txt Node

Date: Thu Mar 13 14:43:43 EDT 2025
User: louis
Spectrometer: USB4F10415
Trigger mode: 4
Integration Time (sec): 2.000000E-2
Scans to average: 1
Electric dark correction enabled: true
Nonlinearity correction enabled: false
Boxcar width: 0
XAxis mode: Wavelengths
Number of Pixels in Spectrum: 3648
>>>>>Begin Spectral Data<<<<<
178.204	-148.99
178.424	-148.99
178.644	-148.99
178.864	-91.65
179.084	-83.45
179.304	-75.26
179.524	39.42
179.744	-38.4
179.964	27.14
180.184	-1.54
180.404	-34.3
180.624	6.66
180.844	37.38
181.064	-38.4
181.283	-30.21
181.503	27.14
181.723	80.38
181.943	-5.63
182.163	-1.54
182.383	27.14
182.602	-24.06
182.822	80.38
183.042	47.62
183.262	100.86
183.482	55.81
183.701	27.14
183.921	23.04
184.141	-17.92
184.361	43.52
184.58	-7.68
184.8	66.05
185.02	53.76
185.239	72.19
185.459	47.62
185.679	98.81
185.898	-5.63
186.118	74.24
186.338	-62.98
186.557	51.71
186.777	49.66
186.997	-13.82
187.216	6.66
187.436	74.24
187.655	16.9
187.875	66.05
188.095	-19.97
188.314	2.56
188.534	88.57
188.753	115.2
188.973	66.05
189.192	49.66
189.412	104.96
189.631	29.18
189.851	45.57
190.07	80.38
190.29	31.23
190.509	-34.3
190.729	-9.73
190.948	74.24
191.168	137.73
191.387	61.95
191.607	41.47
191.826	84.48
192.045	31.23
192.265	-17.92
192.484	-26.11
192.704	53.76
192.923	-19.97
193.142	162.3
193.362	27.14
193.581	25.09
193.8	-9.73
194.02	33.28
194.239	35.33
194.458	84.48
194.678	14.85
194.897	74.24
195.116	51.71
195.335	64
195.555	8.7
195.774	-9.73
195.993	18.94
196.212	39.42
196.432	-28.16
196.651	43.52
196.87	-1.54
197.089	111.1
197.308	-30.21
197.528	78.33
197.747	23.04
197.966	47.62
198.185	80.38
198.404	98.81
198.623	43.52
198.842	49.66
199.062	39.42
199.281	47.62
199.5	96.77
199.719	-15.87
199.938	39.42
200.157	49.66
200.376	57.86
200.595	-1.54
200.814	68.09
201.033	23.04
201.252	18.94
201.471	92.67
201.69	104.96
201.909	90.62
202.128	27.14
202.347	39.42
202.566	55.81
202.785	51.71
203.004	14.85
203.223	129.53
203.442	31.23
203.661	88.57
203.879	25.09
204.098	121.34
204.317	27.14
204.536	31.23
204.755	90.62
204.974	47.62
205.193	137.73
205.411	156.16
205.63	23.04
205.849	57.86
206.068	33.28
206.287	96.77
206.505	47.62
206.724	59.9
206.943	-26.11
207.162	104.96
207.381	-24.06
207.599	6.66
207.818	18.94
208.037	29.18
208.255	-3.58
208.474	68.09
208.693	80.38
208.911	31.23
209.13	23.04
209.349	82.43
209.567	92.67
209.786	61.95
210.005	25.09
210.223	25.09
210.442	43.52
210.661	96.77
210.879	-17.92
211.098	39.42
211.316	64
211.535	74.24
211.753	37.38
211.972	-7.68
212.191	31.23
212.409	88.57
212.628	64
212.846	27.14
213.065	51.71
213.283	180.73
213.502	27.14
213.72	37.38
213.938	23.04
214.157	57.86
214.375	92.67
214.594	47.62
214.812	27.14
215.031	39.42
215.249	14.85
215.467	14.85
215.686	53.76
215.904	139.77
216.122	119.29
216.341	29.18
216.559	147.97
216.778	113.15
216.996	100.86
217.214	51.71
217.432	-38.4
217.651	27.14
217.869	74.24
218.087	6.66
218.306	2.56
218.524	-22.02
218.742	74.24
218.96	0.51
219.179	35.33
219.397	-30.21
219.615	43.52
219.833	-46.59
220.051	27.14
220.27	121.34
220.488	121.34
220.706	-44.54
220.924	84.48
221.142	51.71
221.36	57.86
221.578	16.9
221.796	14.85
222.015	84.48
222.233	41.47
222.451	43.52
222.669	64
222.887	64
223.105	41.47
223.323	0.51
223.541	25.09
223.759	18.94
223.977	-5.63
224.195	47.62
224.413	14.85
224.631	14.85
224.849	2.56
225.067	186.88
225.285	59.9
225.503	72.19
225.721	-62.98
225.939	51.71
226.157	4.61
226.375	123.39
226.592	10.75
226.81	117.25
227.028	94.72
227.246	14.85
227.464	61.95
227.682	23.04
227.9	16.9
228.117	33.28
228.335	96.77
228.553	35.33
228.771	39.42
228.989	66.05
229.206	55.81
229.424	41.47
229.642	31.23
229.86	-34.3
230.077	20.99
230.295	16.9
230.513	74.24
230.731	35.33
230.948	78.33
231.166	104.96
231.384	35.33
231.601	6.66
231.819	104.96
232.037	66.05
232.254	51.71
232.472	47.62
232.689	-24.06
232.907	66.05
233.125	2.56
233.342	-1.54
233.56	6.66
233.777	23.04
233.995	53.76
234.213	39.42
234.43	61.95
234.648	49.66
234.865	-5.63
235.083	55.81
235.3	82.43
235.518	76.29
235.735	104.96
235.953	125.44
236.17	31.23
236.388	102.91
236.605	57.86
236.822	43.52
237.04	55.81
237.257	92.67
237.475	6.66
237.692	154.11
237.909	-9.73
238.127	49.66
238.344	31.23
238.562	80.38
238.779	6.66
238.996	-34.3
239.214	-3.58
239.431	59.9
239.648	14.85
239.865	-7.68
240.083	33.28
240.3	55.81
240.517	76.29
240.735	14.85
240.952	29.18
241.169	88.57
241.386	4.61
241.603	47.62
241.821	23.04
242.038	0.51
242.255	16.9
242.472	80.38
242.689	39.42
242.907	43.52
243.124	49.66
243.341	76.29
243.558	2.56
243.775	-26.11
243.992	-13.82
244.209	57.86
244.426	88.57
244.643	76.29
244.86	64
245.078	-13.82
245.295	98.81
245.512	94.72
245.729	74.24
245.946	74.24
246.163	53.76
246.38	-11.78
246.597	8.7
246.814	96.77
247.031	47.62
247.248	-5.63
247.464	6.66
247.681	111.1
247.898	39.42
248.115	-24.06
248.332	47.62
248.549	104.96
248.766	35.33
248.983	107.01
249.2	59.9
249.417	6.66
249.633	18.94
249.85	72.19
250.067	-48.64
250.284	39.42
250.501	-1.54
250.717	74.24
250.934	12.8
251.151	33.28
251.368	55.81
251.585	57.86
251.801	-17.92
252.018	76.29
252.235	145.92
252.451	0.51
252.668	68.09
252.885	39.42
253.102	117.25
253.318	39.42
253.535	18.94
253.752	-13.82
253.968	115.2
254.185	109.05
254.401	0.51
254.618	23.04
254.835	57.86
255.051	150.01
255.268	-1.54
255.484	129.53
255.701	14.85
255.917	64
256.134	-32.26
256.351	-34.3
256.567	-32.26
256.784	143.87
257	0.51
257.217	88.57
257.433	80.38
257.65	66.05
257.866	72.19
258.082	47.62
258.299	131.58
258.515	113.15
258.732	27.14
258.948	72.19
259.165	6.66
259.381	47.62
259.597	57.86
259.814	64
260.03	72.19
260.246	-50.69
260.463	4.61
260.679	86.53
260.895	25.09
261.112	55.81
261.328	31.23
261.544	35.33
261.761	82.43
261.977	107.01
262.193	16.9
262.409	6.66
262.626	-1.54
262.842	80.38
263.058	0.51
263.274	141.82
263.49	2.56
263.707	16.9
263.923	98.81
264.139	23.04
264.355	23.04
264.571	88.57
264.787	43.52
265.004	84.48
265.22	10.75
265.436	47.62
265.652	25.09
265.868	16.9
266.084	-26.11
266.3	39.42
266.516	39.42
266.732	49.66
266.948	12.8
267.164	14.85
267.38	51.71
267.596	49.66
267.812	10.75
268.028	14.85
268.244	96.77
268.46	88.57
268.676	68.09
268.892	66.05
269.108	131.58
269.324	0.51
269.54	-13.82
269.756	94.72
269.972	39.42
270.188	2.56
270.403	8.7
270.619	-17.92
270.835	20.99
271.051	-1.54
271.267	16.9
271.483	-13.82
271.698	6.66
271.914	10.75
272.13	14.85
272.346	23.04
272.562	68.09
272.777	49.66
272.993	-40.45
273.209	35.33
273.425	96.77
273.64	-22.02
273.856	53.76
274.072	14.85
274.287	25.09
274.503	59.9
274.719	57.86
274.934	8.7
275.15	39.42
275.366	74.24
275.581	-24.06
275.797	14.85
276.012	129.53
276.228	107.01
276.444	55.81
276.659	115.2
276.875	61.95
277.09	80.38
277.306	88.57
277.521	31.23
277.737	-17.92
277.952	66.05
278.168	27.14
278.383	51.71
278.599	55.81
278.814	33.28
279.03	-13.82
279.245	74.24
279.461	16.9
279.676	-89.6
279.892	-9.73
280.107	31.23
280.322	-15.87
280.538	88.57
280.753	-42.5
280.969	41.47
281.184	82.43
281.399	72.19
281.615	-7.68
281.83	76.29
282.045	35.33
282.26	-5.63
282.476	74.24
282.691	84.48
282.906	84.48
283.122	55.81
283.337	78.33
283.552	57.86
283.767	51.71
283.983	162.3
284.198	-40.45
284.413	27.14
284.628	23.04
284.843	92.67
285.058	107.01
285.274	47.62
285.489	25.09
285.704	53.76
285.919	2.56
286.134	43.52
286.349	-67.07
286.564	39.42
286.779	29.18
286.995	-3.58
287.21	-42.5
287.425	55.81
287.64	-17.92
287.855	29.18
288.07	-1.54
288.285	31.23
288.5	8.7
288.715	39.42
288.93	53.76
289.145	8.7
289.36	139.77
289.575	47.62
289.79	55.81
290.004	8.7
290.219	72.19
290.434	55.81
290.649	10.75
290.864	41.47
291.079	33.28
291.294	102.91
291.509	-22.02
291.724	68.09
291.938	23.04
292.153	49.66
292.368	129.53
292.583	-13.82
292.798	84.48
293.012	55.81
293.227	20.99
293.442	43.52
293.657	80.38
293.871	-1.54
294.086	47.62
294.301	84.48
294.516	37.38
294.73	88.57
294.945	31.23
295.16	33.28
295.374	31.23
295.589	72.19
295.804	-26.11
296.018	39.42
296.233	107.01
296.447	88.57
296.662	-26.11
296.877	141.82
297.091	47.62
297.306	84.48
297.52	41.47
297.735	14.85
297.949	35.33
298.164	59.9
298.378	16.9
298.593	-26.11
298.807	45.57
299.022	61.95
299.236	33.28
299.451	102.91
299.665	25.09
299.88	68.09
300.094	29.18
300.309	37.38
300.523	35.33
300.737	74.24
300.952	47.62
301.166	23.04
301.381	59.9
301.595	35.33
301.809	96.77
302.024	66.05
302.238	43.52
302.452	10.75
302.667	88.57
302.881	100.86
303.095	74.24
303.309	64
303.524	76.29
303.738	39.42
303.952	88.57
304.166	31.23
304.381	57.86
304.595	47.62
304.809	68.09
305.023	88.57
305.237	-32.26
305.452	43.52
305.666	127.49
305.88	55.81
306.094	47.62
306.308	68.09
306.522	98.81
306.736	27.14
306.95	76.29
307.164	14.85
307.379	-58.88
307.593	74.24
307.807	25.09
308.021	57.86
308.235	23.04
308.449	35.33
308.663	74.24
308.877	59.9
309.091	-54.78
309.305	104.96
309.519	-26.11
309.733	66.05
309.947	84.48
310.161	96.77
310.374	92.67
310.588	82.43
310.802	61.95
311.016	76.29
311.23	55.81
311.444	0.51
311.658	31.23
311.872	41.47
312.085	57.86
312.299	47.62
312.513	39.42
312.727	47.62
312.941	31.23
313.154	10.75
313.368	90.62
313.582	104.96
313.796	18.94
314.009	39.42
314.223	68.09
314.437	59.9
314.651	92.67
314.864	76.29
315.078	2.56
315.292	64
315.505	64
315.719	39.42
315.933	72.19
316.146	72.19
316.36	-58.88
316.573	27.14
316.787	39.42
317.001	45.57
317.214	41.47
317.428	80.38
317.641	35.33
317.855	-38.4
318.068	61.95
318.282	59.9
318.495	70.14
318.709	47.62
318.922	10.75
319.136	31.23
319.349	39.42
319.563	41.47
319.776	57.86
319.99	-1.54
320.203	43.52
320.417	76.29
320.63	98.81
320.843	18.94
321.057	57.86
321.27	33.28
321.483	64
321.697	129.53
321.91	18.94
322.124	49.66
322.337	47.62
322.55	18.94
322.763	43.52
322.977	12.8
323.19	61.95
323.403	39.42
323.617	10.75
323.83	43.52
324.043	18.94
324.256	78.33
324.469	-19.97
324.683	39.42
324.896	92.67
325.109	14.85
325.322	61.95
325.535	76.29
325.748	72.19
325.962	49.66
326.175	39.42
326.388	47.62
326.601	47.62
326.814	31.23
327.027	113.15
327.24	139.77
327.453	-17.92
327.666	76.29
327.879	59.9
328.092	90.62
328.305	2.56
328.518	-56.83
328.731	104.96
328.944	0.51
329.157	35.33
329.37	61.95
329.583	74.24
329.796	6.66
330.009	33.28
330.222	82.43
330.435	35.33
330.648	-24.06
330.861	-50.69
331.073	2.56
331.286	82.43
331.499	33.28
331.712	-36.35
331.925	80.38
332.138	-50.69
332.35	6.66
332.563	18.94
332.776	139.77
332.989	14.85
333.202	31.23
333.414	6.66
333.627	68.09
333.84	-3.58
334.053	39.42
334.265	64
334.478	70.14
334.691	55.81
334.903	102.91
335.116	107.01
335.329	39.42
335.541	96.77
335.754	145.92
335.966	-24.06
336.179	39.42
336.392	-5.63
336.604	25.09
336.817	10.75
337.029	14.85
337.242	8.7
337.454	92.67
337.667	-22.02
337.88	-1.54
338.092	47.62
338.305	86.53
338.517	23.04
338.729	80.38
338.942	64
339.154	64
339.367	31.23
339.579	31.23
339.792	55.81
340.004	-3.58
340.217	84.48
340.429	104.96
340.641	-15.87
340.854	-42.5
341.066	70.14
341.278	107.01
341.491	137.73
341.703	55.81
341.915	43.52
342.128	41.47
342.34	64
342.552	45.57
342.764	41.47
342.977	82.43
343.189	88.57
343.401	80.38
343.613	23.04
343.826	20.99
344.038	-15.87
344.25	39.42
344.462	94.72
344.674	41.47
344.886	72.19
345.099	80.38
345.311	64
345.523	76.29
345.735	-34.3
345.947	64
346.159	45.57
346.371	25.09
346.583	45.57
346.795	66.05
347.007	51.71
347.219	74.24
347.431	100.86
347.643	92.67
347.855	10.75
348.067	88.57
348.279	-7.68
348.491	-1.54
348.703	76.29
348.915	57.86
349.127	0.51
349.339	88.57
349.551	96.77
349.763	33.28
349.975	12.8
350.187	90.62
350.399	125.44
350.61	141.82
350.822	-50.69
351.034	49.66
351.246	29.18
351.458	39.42
351.669	31.23
351.881	145.92
352.093	104.96
352.305	2.56
352.517	31.23
352.728	68.09
352.94	16.9
353.152	-1.54
353.363	-7.68
353.575	31.23
353.787	68.09
353.999	57.86
354.21	43.52
354.422	47.62
354.633	10.75
354.845	55.81
355.057	74.24
355.268	156.16
355.48	90.62
355.692	80.38
355.903	41.47
356.115	94.72
356.326	18.94
356.538	125.44
356.749	49.66
356.961	129.53
357.172	55.81
357.384	88.57
357.595	131.58
357.807	0.51
358.018	43.52
358.23	-54.78
358.441	88.57
358.653	57.86
358.864	72.19
359.075	47.62
359.287	47.62
359.498	49.66
359.709	66.05
359.921	76.29
360.132	98.81
360.344	64
360.555	10.75
360.766	96.77
360.977	14.85
361.189	74.24
361.4	68.09
361.611	68.09
361.823	55.81
362.034	39.42
362.245	35.33
362.456	53.76
362.667	-5.63
362.879	14.85
363.09	51.71
363.301	8.7
363.512	-22.02
363.723	8.7
363.935	49.66
364.146	59.9
364.357	47.62
364.568	27.14
364.779	-17.92
364.99	74.24
365.201	31.23
365.412	84.48
365.623	-9.73
365.834	68.09
366.045	64
366.256	59.9
366.467	100.86
366.678	0.51
366.889	94.72
367.1	55.81
367.311	98.81
367.522	-1.54
367.733	66.05
367.944	59.9
368.155	-26.11
368.366	-15.87
368.577	45.57
368.788	74.24
368.999	66.05
369.209	129.53
369.42	104.96
369.631	86.53
369.842	-26.11
370.053	59.9
370.264	96.77
370.474	23.04
370.685	57.86
370.896	31.23
371.107	80.38
371.317	113.15
371.528	6.66
371.739	98.81
371.95	25.09
372.16	82.43
372.371	-1.54
372.582	57.86
372.792	41.47
373.003	74.24
373.214	49.66
373.424	41.47
373.635	6.66
373.846	162.3
374.056	0.51
374.267	104.96
374.477	-13.82
374.688	74.24
374.898	107.01
375.109	16.9
375.319	29.18
375.53	41.47
375.74	61.95
375.951	74.24
376.161	80.38
376.372	14.85
376.582	10.75
376.793	96.77
377.003	39.42
377.214	10.75
377.424	23.04
377.635	18.94
377.845	94.72
378.055	86.53
378.266	35.33
378.476	64
378.686	90.62
378.897	76.29
379.107	43.52
379.317	29.18
379.528	31.23
379.738	145.92
379.948	43.52
380.158	31.23
380.369	47.62
380.579	68.09
380.789	23.04
380.999	14.85
381.21	57.86
381.42	154.11
381.63	92.67
381.84	72.19
382.05	84.48
382.261	55.81
382.471	43.52
382.681	96.77
382.891	90.62
383.101	37.38
383.311	119.29
383.521	164.35
383.731	68.09
383.941	74.24
384.151	80.38
384.361	29.18
384.571	41.47
384.781	145.92
384.991	119.29
385.201	80.38
385.411	8.7
385.621	92.67
385.831	33.28
386.041	70.14
386.251	37.38
386.461	121.34
386.671	0.51
386.881	96.77
387.091	6.66
387.301	33.28
387.511	-28.16
387.72	88.57
387.93	72.19
388.14	-54.78
388.35	107.01
388.56	96.77
388.769	45.57
388.979	88.57
389.189	-19.97
389.399	121.34
389.609	61.95
389.818	39.42
390.028	35.33
390.238	133.63
390.447	80.38
390.657	33.28
390.867	23.04
391.076	80.38
391.286	121.34
391.496	113.15
391.705	29.18
391.915	64
392.125	47.62
392.334	39.42
392.544	121.34
392.753	53.76
392.963	43.52
393.172	88.57
393.382	90.62
393.591	49.66
393.801	43.52
394.01	133.63
394.22	143.87
394.429	80.38
394.639	47.62
394.848	133.63
395.058	47.62
395.267	59.9
395.477	39.42
395.686	94.72
395.895	76.29
396.105	98.81
396.314	59.9
396.524	72.19
396.733	86.53
396.942	133.63
397.152	115.2
397.361	88.57
397.57	31.23
397.78	125.44
397.989	39.42
398.198	115.2
398.407	18.94
398.617	98.81
398.826	57.86
399.035	147.97
399.244	115.2
399.453	107.01
399.663	129.53
399.872	80.38
400.081	55.81
400.29	121.34
400.499	18.94
400.708	123.39
400.917	115.2
401.127	80.38
401.336	47.62
401.545	190.97
401.754	100.86
401.963	158.21
402.172	88.57
402.381	27.14
402.59	61.95
402.799	172.54
403.008	109.05
403.217	107.01
403.426	125.44
403.635	64
403.844	137.73
404.053	98.81
404.262	76.29
404.471	133.63
404.68	121.34
404.888	45.57
405.097	113.15
405.306	115.2
405.515	129.53
405.724	137.73
405.933	113.15
406.142	186.88
406.35	174.59
406.559	188.93
406.768	186.88
406.977	131.58
407.185	139.77
407.394	158.21
407.603	158.21
407.812	188.93
408.02	178.69
408.229	262.65
408.438	227.84
408.646	64
408.855	201.21
409.064	252.41
409.272	246.27
409.481	236.03
409.69	217.6
409.898	123.39
410.107	254.46
410.315	283.13
410.524	213.5
410.733	293.37
410.941	283.13
411.15	313.85
411.358	256.51
411.567	276.99
411.775	303.61
411.984	274.94
412.192	342.52
412.401	262.65
412.609	440.83
412.818	358.91
413.026	352.76
413.234	344.57
413.443	385.53
413.651	440.83
413.86	367.1
414.068	422.39
414.276	438.78
414.485	457.21
414.693	588.28
414.901	584.18
415.11	539.13
415.318	473.59
415.526	518.65
415.734	596.47
415.943	500.22
416.151	563.7
416.359	694.77
416.567	584.18
416.776	666.1
416.984	731.64
417.192	709.11
417.4	788.98
417.608	723.44
417.817	815.6
418.025	805.36
418.233	899.57
418.441	770.55
418.649	926.19
418.857	973.3
419.065	969.2
419.273	965.11
419.481	1049.07
419.689	991.73
419.897	1124.85
420.105	1153.52
420.313	1145.33
420.521	1186.29
420.729	1253.87
420.937	1178.09
421.145	1237.49
421.353	1360.36
421.561	1366.51
421.769	1423.85
421.977	1505.77
422.185	1458.67
422.393	1542.63
422.601	1724.9
422.809	1683.94
423.017	1661.41
423.224	1833.44
423.432	1866.21
423.64	1739.24
423.848	2021.86
424.056	1956.32
424.263	2079.2
424.471	2056.67
424.679	2120.16
424.887	2185.69
425.094	2226.65
425.302	2284
425.51	2382.3
425.718	2370.01
425.925	2544.09
426.133	2578.9
426.341	2738.65
426.548	2798.04
426.756	2828.76
426.964	2890.2
427.171	3015.12
427.379	3135.95
427.586	3156.43
427.794	3140.05
428.001	3307.98
428.209	3441.1
428.417	3488.2
428.624	3717.58
428.832	3701.19
429.039	3801.54
429.247	3758.53
429.454	4159.94
429.662	4254.14
429.869	4151.74
430.076	4301.25
430.284	4299.2
430.491	4553.15
430.699	4673.98
430.906	4608.44
431.114	4700.6
431.321	4835.77
431.528	4950.45
431.736	5224.88
431.943	5579.18
432.15	5347.76
432.358	5437.87
432.565	5704.1
432.772	5689.77
432.979	5994.92
433.187	5849.51
433.394	6191.52
433.601	6431.13
433.808	6740.38
434.016	6482.33
434.223	6738.33
434.43	7344.53
434.637	7250.32
434.844	7360.91
435.052	7403.92
435.259	7391.63
435.466	7485.84
435.673	7393.68
435.88	7856.52
436.087	8571.26
436.294	8569.21
436.501	8153.48
436.708	8419.71
436.915	8706.43
437.122	9150.84
437.329	9081.21
437.537	9480.56
437.743	9525.61
437.95	9505.13
438.157	9929.06
438.364	10250.6
438.571	10140.01
438.778	10242.4
438.985	11514.19
439.192	10836.31
439.399	11090.26
439.606	10746.2
439.813	11622.73
440.02	12325.19
440.227	12052.81
440.433	11809.1
440.64	12142.92
440.847	12192.07
441.054	12679.49
441.261	13306.16
441.467	13326.64
441.674	13416.76
441.881	13867.31
442.088	13967.66
442.294	13519.15
442.501	14266.66
442.708	14326.05
442.914	15089.95
443.121	15567.12
443.328	15137.05
443.534	16130.31
443.741	15868.17
443.948	15487.25
444.154	16474.37
444.361	16556.29
444.568	16791.81
444.774	16787.71
444.981	16779.52
445.187	17510.64
445.394	18026.73
445.6	18045.16
445.807	19849.43
446.013	18716.9
446.22	19034.33
446.426	19929.3
446.633	20103.37
446.839	20783.3
447.046	19781.84
447.252	21082.3
447.459	21274.81
447.665	20725.96
447.871	21911.73
448.078	22792.36
448.284	21921.97
448.491	22356.14
448.697	23339.16
448.903	23890.07
449.11	24144.02
449.316	23503
449.522	23967.89
449.728	24473.74
449.935	24950.92
450.141	24862.85
450.347	25653.37
450.553	24838.28
450.76	25002.11
450.966	25749.62
451.172	25469.05
451.378	26300.53
451.584	25798.77
451.791	26347.63
451.997	26314.86
452.203	26697.83
452.409	27123.81
452.615	26941.54
452.821	25503.87
453.027	25794.68
453.233	26904.68
453.44	25905.27
453.646	26087.54
453.852	26300.53
454.058	26959.97
454.264	26126.45
454.47	26470.51
454.676	25837.69
454.882	26992.74
455.088	24524.94
455.294	25022.59
455.5	25569.4
455.705	25686.14
455.911	24340.62
456.117	24082.58
456.323	23828.63
456.529	22466.73
456.735	23656.6
456.941	23019.68
457.147	22610.09
457.352	21930.16
457.558	21586.1
457.764	21751.99
457.97	21448.89
458.176	20840.64
458.381	21018.82
458.587	20173
458.793	20189.39
458.999	18882.78
459.204	20412.62
459.41	19951.82
459.616	18465
459.821	18313.45
460.027	18348.26
460.233	18077.93
460.438	17086.72
460.644	17367.29
460.85	16711.94
461.055	16417.03
461.261	16408.84
461.466	14987.55
461.672	14717.22
461.878	15743.25
462.083	14678.3
462.289	14309.67
462.494	14151.98
462.7	13678.9
462.905	13152.57
463.111	13867.31
463.316	13822.25
463.522	13609.26
463.727	13631.79
463.932	13637.94
464.138	13302.07
464.343	13486.39
464.549	13066.55
464.754	13410.61
464.959	13449.52
465.165	13209.91
465.37	12728.64
465.575	12271.94
465.781	12796.22
465.986	12863.8
466.191	12271.94
466.397	12253.51
466.602	11602.25
466.807	12159.3
467.012	12020.04
467.218	11934.03
467.423	12017.99
467.628	11860.3
467.833	12329.28
468.038	11884.87
468.244	11675.98
468.449	12157.25
