Data from USB4F104151__303__14-46-39-548.txt Node

Date: Thu Mar 13 14:46:39 EDT 2025
User: louis
Spectrometer: USB4F10415
Trigger mode: 4
Integration Time (sec): 2.000000E-2
Scans to average: 1
Electric dark correction enabled: true
Nonlinearity correction enabled: false
Boxcar width: 0
XAxis mode: Wavelengths
Number of Pixels in Spectrum: 3648
>>>>>Begin Spectral Data<<<<<
178.204	-88.75
178.424	-88.75
178.644	-88.75
178.864	-187.05
179.084	-113.32
179.304	13.65
179.524	-6.83
179.744	-90.79
179.964	83.28
180.184	-45.74
180.404	34.13
180.624	54.61
180.844	-29.35
181.064	-23.21
181.283	42.32
181.503	-17.07
181.723	-15.02
181.943	-23.21
182.163	21.85
182.383	17.75
182.602	7.51
182.822	34.13
183.042	-37.55
183.262	-0.68
183.482	30.04
183.701	27.99
183.921	25.94
184.141	7.51
184.361	71
184.58	62.8
184.8	50.52
185.02	-21.16
185.239	109.91
185.459	19.8
185.679	52.56
185.898	-72.36
186.118	-2.73
186.338	17.75
186.557	-19.11
186.777	91.48
186.997	75.09
187.216	-45.74
187.436	107.86
187.655	9.56
187.875	77.14
188.095	9.56
188.314	101.72
188.534	54.61
188.753	34.13
188.973	13.65
189.192	21.85
189.412	13.65
189.631	-6.83
189.851	1.37
190.07	101.72
190.29	-25.26
190.509	34.13
190.729	38.23
190.948	52.56
191.168	173.39
191.387	42.32
191.607	48.47
191.826	-2.73
192.045	30.04
192.265	-12.97
192.484	71
192.704	1.37
192.923	1.37
193.142	134.48
193.362	144.72
193.581	71
193.8	1.37
194.02	75.09
194.239	1.37
194.458	36.18
194.678	-15.02
194.897	54.61
195.116	34.13
195.335	99.67
195.555	25.94
195.774	32.08
195.993	50.52
196.212	62.8
196.432	34.13
196.651	27.99
196.87	-39.59
197.089	103.76
197.308	50.52
197.528	38.23
197.747	48.47
197.966	52.56
198.185	48.47
198.404	81.24
198.623	-15.02
198.842	64.85
199.062	124.24
199.281	40.28
199.5	-12.97
199.719	91.48
199.938	109.91
200.157	83.28
200.376	7.51
200.595	56.66
200.814	101.72
201.033	11.61
201.252	9.56
201.471	36.18
201.69	48.47
201.909	1.37
202.128	75.09
202.347	25.94
202.566	21.85
202.785	52.56
203.004	-8.87
203.223	150.87
203.442	19.8
203.661	23.89
203.879	-19.11
204.098	19.8
204.317	9.56
204.536	34.13
204.755	38.23
204.974	52.56
205.193	17.75
205.411	107.86
205.63	34.13
205.849	54.61
206.068	-23.21
206.287	-6.83
206.505	50.52
206.724	1.37
206.943	-19.11
207.162	36.18
207.381	66.9
207.599	11.61
207.818	34.13
208.037	-39.59
208.255	19.8
208.474	9.56
208.693	19.8
208.911	50.52
209.13	38.23
209.349	30.04
209.567	-6.83
209.786	89.43
210.005	17.75
210.223	91.48
210.442	-21.16
210.661	42.32
210.879	71
211.098	34.13
211.316	144.72
211.535	93.52
211.753	17.75
211.972	21.85
212.191	-29.35
212.409	38.23
212.628	46.42
212.846	-37.55
213.065	42.32
213.283	30.04
213.502	38.23
213.72	93.52
213.938	66.9
214.157	77.14
214.375	62.8
214.594	25.94
214.812	-6.83
215.031	30.04
215.249	-2.73
215.467	-2.73
215.686	54.61
215.904	97.62
216.122	-4.78
216.341	116.05
216.559	56.66
216.778	11.61
216.996	44.37
217.214	83.28
217.432	-25.26
217.651	27.99
217.869	-21.16
218.087	1.37
218.306	-12.97
218.524	23.89
218.742	101.72
218.96	50.52
219.179	25.94
219.397	54.61
219.615	116.05
219.833	50.52
220.051	-19.11
220.27	68.95
220.488	58.71
220.706	75.09
220.924	66.9
221.142	-6.83
221.36	9.56
221.578	-6.83
221.796	40.28
222.015	1.37
222.233	56.66
222.451	30.04
222.669	-4.78
222.887	91.48
223.105	38.23
223.323	50.52
223.541	83.28
223.759	50.52
223.977	25.94
224.195	77.14
224.413	42.32
224.631	52.56
224.849	68.95
225.067	34.13
225.285	75.09
225.503	50.52
225.721	-31.4
225.939	109.91
226.157	95.57
226.375	130.39
226.592	60.76
226.81	19.8
227.028	-0.68
227.246	79.19
227.464	66.9
227.682	91.48
227.9	52.56
228.117	77.14
228.335	-29.35
228.553	21.85
228.771	62.8
228.989	38.23
229.206	34.13
229.424	5.46
229.642	34.13
229.86	25.94
230.077	50.52
230.295	-21.16
230.513	95.57
230.731	99.67
230.948	93.52
231.166	91.48
231.384	17.75
231.601	-37.55
231.819	87.38
232.037	11.61
232.254	-19.11
232.472	62.8
232.689	-6.83
232.907	44.37
233.125	5.46
233.342	38.23
233.56	21.85
233.777	25.94
233.995	38.23
234.213	97.62
234.43	-51.88
234.648	27.99
234.865	-4.78
235.083	50.52
235.3	-12.97
235.518	27.99
235.735	91.48
235.953	116.05
236.17	-2.73
236.388	42.32
236.605	27.99
236.822	-23.21
237.04	32.08
237.257	-2.73
237.475	36.18
237.692	79.19
237.909	54.61
238.127	3.41
238.344	75.09
238.562	21.85
238.779	-39.59
238.996	66.9
239.214	-23.21
239.431	85.33
239.648	-23.21
239.865	13.65
240.083	13.65
240.3	5.46
240.517	11.61
240.735	32.08
240.952	-35.5
241.169	36.18
241.386	58.71
241.603	11.61
241.821	-51.88
242.038	68.95
242.255	34.13
242.472	9.56
242.689	44.37
242.907	58.71
243.124	87.38
243.341	13.65
243.558	27.99
243.775	50.52
243.992	-53.93
244.209	25.94
244.426	87.38
244.643	77.14
244.86	68.95
245.078	60.76
245.295	54.61
245.512	25.94
245.729	3.41
245.946	83.28
246.163	62.8
246.38	50.52
246.597	154.96
246.814	27.99
247.031	9.56
247.248	60.76
247.464	50.52
247.681	25.94
247.898	66.9
248.115	27.99
248.332	25.94
248.549	83.28
248.766	109.91
248.983	52.56
249.2	54.61
249.417	-6.83
249.633	52.56
249.85	9.56
250.067	71
250.284	30.04
250.501	71
250.717	-15.02
250.934	-43.69
251.151	-10.92
251.368	21.85
251.585	116.05
251.801	75.09
252.018	42.32
252.235	99.67
252.451	-2.73
252.668	15.7
252.885	54.61
253.102	13.65
253.318	3.41
253.535	52.56
253.752	11.61
253.968	19.8
254.185	-23.21
254.401	3.41
254.618	-15.02
254.835	46.42
255.051	21.85
255.268	66.9
255.484	130.39
255.701	19.8
255.917	42.32
256.134	-10.92
256.351	48.47
256.567	-21.16
256.784	62.8
257	46.42
257.217	1.37
257.433	87.38
257.65	95.57
257.866	60.76
258.082	83.28
258.299	5.46
258.515	17.75
258.732	11.61
258.948	60.76
259.165	25.94
259.381	-0.68
259.597	19.8
259.814	79.19
260.03	-10.92
260.246	62.8
260.463	34.13
260.679	62.8
260.895	-6.83
261.112	79.19
261.328	30.04
261.544	25.94
261.761	124.24
261.977	17.75
262.193	-4.78
262.409	27.99
262.626	-19.11
262.842	52.56
263.058	19.8
263.274	13.65
263.49	21.85
263.707	17.75
263.923	30.04
264.139	38.23
264.355	-19.11
264.571	83.28
264.787	30.04
265.004	109.91
265.22	77.14
265.436	1.37
265.652	93.52
265.868	50.52
266.084	-53.93
266.3	17.75
266.516	17.75
266.732	46.42
266.948	13.65
267.164	48.47
267.38	-19.11
267.596	-0.68
267.812	9.56
268.028	93.52
268.244	25.94
268.46	62.8
268.676	50.52
268.892	27.99
269.108	-15.02
269.324	-43.69
269.54	13.65
269.756	105.81
269.972	9.56
270.188	52.56
270.403	44.37
270.619	9.56
270.835	50.52
271.051	25.94
271.267	5.46
271.483	25.94
271.698	9.56
271.914	60.76
272.13	46.42
272.346	34.13
272.562	68.95
272.777	38.23
272.993	64.85
273.209	11.61
273.425	73.04
273.64	34.13
273.856	54.61
274.072	13.65
274.287	27.99
274.503	71
274.719	-21.16
274.934	83.28
275.15	21.85
275.366	1.37
275.581	-39.59
275.797	44.37
276.012	21.85
276.228	75.09
276.444	60.76
276.659	66.9
276.875	9.56
277.09	-47.79
277.306	-51.88
277.521	15.7
277.737	87.38
277.952	27.99
278.168	99.67
278.383	81.24
278.599	21.85
278.814	134.48
279.03	-2.73
279.245	118.1
279.461	58.71
279.676	11.61
279.892	-2.73
280.107	64.85
280.322	15.7
280.538	91.48
280.753	-21.16
280.969	48.47
281.184	75.09
281.399	50.52
281.615	25.94
281.83	62.8
282.045	19.8
282.26	13.65
282.476	42.32
282.691	85.33
282.906	85.33
283.122	42.32
283.337	-15.02
283.552	50.52
283.767	-8.87
283.983	42.32
284.198	71
284.413	58.71
284.628	-49.83
284.843	17.75
285.058	50.52
285.274	-6.83
285.489	-19.11
285.704	3.41
285.919	-31.4
286.134	40.28
286.349	-37.55
286.564	50.52
286.779	66.9
286.995	-51.88
287.21	-6.83
287.425	60.76
287.64	17.75
287.855	99.67
288.07	60.76
288.285	107.86
288.5	83.28
288.715	25.94
288.93	-21.16
289.145	9.56
289.36	83.28
289.575	25.94
289.79	42.32
290.004	9.56
290.219	71
290.434	-15.02
290.649	46.42
290.864	30.04
291.079	64.85
291.294	99.67
291.509	34.13
291.724	13.65
291.938	66.9
292.153	34.13
292.368	81.24
292.583	36.18
292.798	46.42
293.012	124.24
293.227	58.71
293.442	50.52
293.657	1.37
293.871	107.86
294.086	79.19
294.301	93.52
294.516	83.28
294.73	42.32
294.945	-8.87
295.16	1.37
295.374	107.86
295.589	83.28
295.804	21.85
296.018	77.14
296.233	17.75
296.447	116.05
296.662	40.28
296.877	95.57
297.091	105.81
297.306	15.7
297.52	23.89
297.735	13.65
297.949	46.42
298.164	34.13
298.378	11.61
298.593	13.65
298.807	95.57
299.022	50.52
299.236	97.62
299.451	21.85
299.665	5.46
299.88	77.14
300.094	21.85
300.309	25.94
300.523	38.23
300.737	81.24
300.952	50.52
301.166	46.42
301.381	89.43
301.595	60.76
301.809	50.52
302.024	-27.31
302.238	42.32
302.452	62.8
302.667	32.08
302.881	91.48
303.095	42.32
303.309	38.23
303.524	34.13
303.738	42.32
303.952	19.8
304.166	52.56
304.381	-31.4
304.595	111.96
304.809	-10.92
305.023	34.13
305.237	-15.02
305.452	89.43
305.666	87.38
305.88	75.09
306.094	38.23
306.308	34.13
306.522	83.28
306.736	60.76
306.95	46.42
307.164	68.95
307.379	15.7
307.593	46.42
307.807	13.65
308.021	19.8
308.235	97.62
308.449	-27.31
308.663	66.9
308.877	136.53
309.091	9.56
309.305	-15.02
309.519	3.41
309.733	-6.83
309.947	17.75
310.161	1.37
310.374	77.14
310.588	38.23
310.802	1.37
311.016	25.94
311.23	13.65
311.444	1.37
311.658	81.24
311.872	138.58
312.085	-19.11
312.299	60.76
312.513	101.72
312.727	3.41
312.941	44.37
313.154	36.18
313.368	34.13
313.582	-43.69
313.796	56.66
314.009	52.56
314.223	77.14
314.437	105.81
314.651	142.68
314.864	99.67
315.078	62.8
315.292	40.28
315.505	77.14
315.719	25.94
315.933	19.8
316.146	27.99
316.36	32.08
316.573	93.52
316.787	25.94
317.001	87.38
317.214	19.8
317.428	42.32
317.641	54.61
317.855	85.33
318.068	1.37
318.282	71
318.495	83.28
318.709	85.33
318.922	-8.87
319.136	34.13
319.349	103.76
319.563	66.9
319.776	38.23
319.99	17.75
320.203	66.9
320.417	54.61
320.63	87.38
320.843	87.38
321.057	25.94
321.27	66.9
321.483	58.71
321.697	50.52
321.91	36.18
322.124	52.56
322.337	38.23
322.55	64.85
322.763	54.61
322.977	54.61
323.19	-10.92
323.403	34.13
323.617	83.28
323.83	9.56
324.043	60.76
324.256	66.9
324.469	11.61
324.683	44.37
324.896	13.65
325.109	36.18
325.322	13.65
325.535	116.05
325.748	-10.92
325.962	130.39
326.175	75.09
326.388	17.75
326.601	97.62
326.814	75.09
327.027	13.65
327.24	77.14
327.453	34.13
327.666	50.52
327.879	34.13
328.092	126.29
328.305	-33.45
328.518	71
328.731	50.52
328.944	21.85
329.157	99.67
329.37	-23.21
329.583	42.32
329.796	71
330.009	17.75
330.222	11.61
330.435	34.13
330.648	50.52
330.861	1.37
331.073	3.41
331.286	27.99
331.499	11.61
331.712	19.8
331.925	103.76
332.138	-4.78
332.35	36.18
332.563	-12.97
332.776	50.52
332.989	1.37
333.202	99.67
333.414	81.24
333.627	62.8
333.84	17.75
334.053	27.99
334.265	34.13
334.478	17.75
334.691	85.33
334.903	85.33
335.116	75.09
335.329	23.89
335.541	87.38
335.754	83.28
335.966	25.94
336.179	44.37
336.392	-23.21
336.604	48.47
336.817	77.14
337.029	13.65
337.242	52.56
337.454	118.1
337.667	-6.83
337.88	58.71
338.092	34.13
338.305	58.71
338.517	-19.11
338.729	109.91
338.942	103.76
339.154	116.05
339.367	27.99
339.579	87.38
339.792	58.71
340.004	19.8
340.217	17.75
340.429	11.61
340.641	25.94
340.854	73.04
341.066	34.13
341.278	54.61
341.491	132.44
341.703	54.61
341.915	17.75
342.128	38.23
342.34	-10.92
342.552	9.56
342.764	58.71
342.977	42.32
343.189	52.56
343.401	52.56
343.613	-12.97
343.826	44.37
344.038	-10.92
344.25	93.52
344.462	44.37
344.674	30.04
344.886	-10.92
345.099	54.61
345.311	-23.21
345.523	-15.02
345.735	54.61
345.947	44.37
346.159	79.19
346.371	-10.92
346.583	17.75
346.795	93.52
347.007	46.42
347.219	50.52
347.431	21.85
347.643	27.99
347.855	-6.83
348.067	36.18
348.279	19.8
348.491	42.32
348.703	107.86
348.915	17.75
349.127	1.37
349.339	17.75
349.551	58.71
349.763	44.37
349.975	34.13
350.187	107.86
350.399	60.76
350.61	87.38
350.822	42.32
351.034	60.76
351.246	38.23
351.458	66.9
351.669	42.32
351.881	52.56
352.093	-47.79
352.305	85.33
352.517	91.48
352.728	83.28
352.94	50.52
353.152	56.66
353.363	25.94
353.575	71
353.787	44.37
353.999	134.48
354.21	46.42
354.422	79.19
354.633	56.66
354.845	42.32
355.057	60.76
355.268	-4.78
355.48	77.14
355.692	-6.83
355.903	42.32
356.115	3.41
356.326	19.8
356.538	111.96
356.749	120.15
356.961	109.91
357.172	5.46
357.384	19.8
357.595	83.28
357.807	34.13
358.018	-62.12
358.23	44.37
358.441	-10.92
358.653	56.66
358.864	66.9
359.075	44.37
359.287	17.75
359.498	58.71
359.709	17.75
359.921	107.86
360.132	109.91
360.344	21.85
360.555	54.61
360.766	79.19
360.977	68.95
361.189	50.52
361.4	9.56
361.611	7.51
361.823	58.71
362.034	105.81
362.245	17.75
362.456	109.91
362.667	68.95
362.879	17.75
363.09	27.99
363.301	62.8
363.512	13.65
363.723	-47.79
363.935	62.8
364.146	25.94
364.357	19.8
364.568	85.33
364.779	-4.78
364.99	95.57
365.201	-47.79
365.412	77.14
365.623	34.13
365.834	46.42
366.045	11.61
366.256	58.71
366.467	66.9
366.678	58.71
366.889	38.23
367.1	25.94
367.311	64.85
367.522	75.09
367.733	107.86
367.944	79.19
368.155	66.9
368.366	68.95
368.577	1.37
368.788	101.72
368.999	40.28
369.209	58.71
369.42	83.28
369.631	126.29
369.842	136.53
370.053	32.08
370.264	46.42
370.474	3.41
370.685	40.28
370.896	44.37
371.107	-0.68
371.317	109.91
371.528	-4.78
371.739	44.37
371.95	75.09
372.16	75.09
372.371	60.76
372.582	44.37
372.792	66.9
373.003	25.94
373.214	17.75
373.424	71
373.635	1.37
373.846	150.87
374.056	75.09
374.267	19.8
374.477	25.94
374.688	-12.97
374.898	50.52
375.109	-19.11
375.319	52.56
375.53	91.48
375.74	42.32
375.951	25.94
376.161	21.85
376.372	161.11
376.582	25.94
376.793	58.71
377.003	46.42
377.214	-2.73
377.424	36.18
377.635	73.04
377.845	34.13
378.055	114
378.266	58.71
378.476	71
378.686	62.8
378.897	91.48
379.107	99.67
379.317	30.04
379.528	27.99
379.738	85.33
379.948	-6.83
380.158	66.9
380.369	-6.83
380.579	46.42
380.789	11.61
380.999	50.52
381.21	13.65
381.42	99.67
381.63	-15.02
381.84	68.95
382.05	-2.73
382.261	128.34
382.471	42.32
382.681	15.7
382.891	52.56
383.101	60.76
383.311	62.8
383.521	97.62
383.731	66.9
383.941	75.09
384.151	124.24
384.361	58.71
384.571	83.28
384.781	87.38
384.991	79.19
385.201	107.86
385.411	44.37
385.621	58.71
385.831	32.08
386.041	48.47
386.251	-6.83
386.461	50.52
386.671	128.34
386.881	66.9
387.091	34.13
387.301	132.44
387.511	38.23
387.72	62.8
387.93	52.56
388.14	54.61
388.35	30.04
388.56	128.34
388.769	85.33
388.979	126.29
389.189	60.76
389.399	54.61
389.609	32.08
389.818	116.05
390.028	75.09
390.238	159.06
390.447	83.28
390.657	17.75
390.867	77.14
391.076	-25.26
391.286	144.72
391.496	132.44
391.705	15.7
391.915	124.24
392.125	79.19
392.334	52.56
392.544	109.91
392.753	75.09
392.963	148.82
393.172	42.32
393.382	75.09
393.591	111.96
393.801	93.52
394.01	173.39
394.22	42.32
394.429	77.14
394.639	103.76
394.848	36.18
395.058	27.99
395.267	124.24
395.477	71
395.686	95.57
395.895	89.43
396.105	134.48
396.314	87.38
396.524	38.23
396.733	111.96
396.942	91.48
397.152	75.09
397.361	91.48
397.57	138.58
397.78	124.24
397.989	95.57
398.198	183.63
398.407	99.67
398.617	85.33
398.826	73.04
399.035	132.44
399.244	91.48
399.453	91.48
399.663	118.1
399.872	91.48
400.081	116.05
400.29	116.05
400.499	95.57
400.708	161.11
400.917	132.44
401.127	142.68
401.336	50.52
401.545	183.63
401.754	159.06
401.963	146.77
402.172	52.56
402.381	95.57
402.59	116.05
402.799	107.86
403.008	124.24
403.217	101.72
403.426	165.2
403.635	77.14
403.844	159.06
404.053	-2.73
404.262	54.61
404.471	238.93
404.68	187.73
404.888	116.05
405.097	197.97
405.306	200.02
405.515	165.2
405.724	197.97
405.933	134.48
406.142	189.78
406.35	210.26
406.559	167.25
406.768	195.92
406.977	255.31
407.185	214.35
407.394	216.4
407.603	214.35
407.812	230.74
408.02	304.46
408.229	173.39
408.438	230.74
408.646	222.55
408.855	230.74
409.064	275.79
409.272	247.12
409.481	361.81
409.69	255.31
409.898	308.56
410.107	324.94
410.315	357.71
410.524	372.05
410.733	341.33
410.941	361.81
411.15	353.62
411.358	486.73
411.567	427.34
411.775	386.38
411.984	501.07
412.192	501.07
412.401	537.93
412.609	535.89
412.818	558.41
413.026	591.18
413.234	550.22
413.443	476.49
413.651	527.69
413.86	574.8
414.068	605.52
414.276	589.13
414.485	691.53
414.693	697.67
414.901	695.63
415.11	775.5
415.318	734.54
415.526	808.27
415.734	724.3
415.943	732.49
416.151	894.28
416.359	791.88
416.567	820.55
416.776	1000.77
416.984	1045.83
417.192	1027.4
417.4	1027.4
417.608	1084.74
417.817	1070.4
418.025	1125.7
418.233	1246.53
418.441	1254.72
418.649	1256.77
418.857	1344.83
419.065	1377.6
419.273	1336.64
419.481	1332.54
419.689	1445.18
419.897	1537.34
420.105	1516.86
420.313	1609.02
420.521	1664.32
420.729	1627.45
420.937	1738.04
421.145	1733.95
421.353	1862.97
421.561	1901.88
421.769	2008.37
421.977	2141.49
422.185	2045.24
422.393	2151.73
422.601	2278.71
422.809	2383.15
423.017	2336.05
423.224	2551.09
423.432	2575.66
423.64	2655.53
423.848	2843.95
424.056	2716.97
424.263	2936.1
424.471	2966.82
424.679	2968.87
424.887	3214.63
425.094	3220.77
425.302	3304.74
425.51	3310.88
425.718	3425.57
425.925	3505.44
426.133	3773.72
426.341	3822.88
426.548	3949.85
426.756	3990.81
426.964	4173.08
427.171	4300.05
427.379	4379.92
427.586	4394.26
427.794	4615.44
428.001	4769.04
428.209	5010.7
428.417	4853
428.624	5141.77
428.832	5215.49
429.039	5303.56
429.247	5219.59
429.454	5860.6
429.662	6147.32
429.869	5702.91
430.076	6126.84
430.284	5915.9
430.491	6239.48
430.699	6614.26
430.906	6620.4
431.114	6573.3
431.321	6876.4
431.528	7144.68
431.736	7501.03
431.943	7714.02
432.15	7640.29
432.358	7744.74
432.565	8133.85
432.772	8084.7
432.979	8572.11
433.187	8582.35
433.394	8541.4
433.601	9039.05
433.808	9364.68
434.016	9231.56
434.223	9512.13
434.43	10300.6
434.637	9895.1
434.844	10585.27
435.052	10818.74
435.259	10751.15
435.466	10708.15
435.673	10845.36
435.88	11408.55
436.087	11926.69
436.294	12010.65
436.501	11576.48
436.708	11879.58
436.915	12233.88
437.122	12952.72
437.329	12950.67
437.537	13329.55
437.743	13493.38
437.95	13491.34
438.157	14009.47
438.364	14488.7
438.571	14275.71
438.778	14593.14
438.985	15770.72
439.192	15199.34
439.399	15608.94
439.606	15232.11
439.813	16311.39
440.02	17392.72
440.227	16778.33
440.433	16931.92
440.64	17329.23
440.847	17214.54
441.054	17796.17
441.261	18822.2
441.467	18824.25
441.674	19051.57
441.881	19491.88
442.088	19504.17
442.294	19264.56
442.501	19967.01
442.708	20364.32
442.914	20882.45
443.121	21820.42
443.328	21337.1
443.534	22862.84
443.741	22148.1
443.948	21914.63
444.154	23395.31
444.361	23237.62
444.568	23405.55
444.774	23358.45
444.981	23714.8
445.187	24257.51
445.394	25318.35
445.6	25207.76
445.807	27737.01
446.013	26227.65
446.22	26844.09
446.426	27859.88
446.633	28085.16
446.839	28896.16
447.046	27876.27
447.252	29164.44
447.459	29442.96
447.665	29299.61
447.871	30641.03
448.078	31886.19
448.284	30178.18
448.491	31056.76
448.697	32426.85
448.903	33094.49
449.11	32775.01
449.316	32742.24
449.522	33045.34
449.728	34032.46
449.935	34411.34
450.141	34390.86
450.347	34642.76
450.553	34143.05
450.76	34437.96
450.966	35623.73
451.172	35277.63
451.378	35894.07
451.584	35605.3
451.791	36385.58
451.997	36014.9
452.203	36514.6
452.409	37059.36
452.615	36881.19
452.821	35310.39
453.027	34724.68
453.233	36895.52
453.44	35318.59
453.646	35908.4
453.852	36158.25
454.058	36573.99
454.264	35359.55
454.47	36350.76
454.676	35527.48
454.882	36748.07
455.088	33393.5
455.294	34474.82
455.5	34372.42
455.705	34865.99
455.911	33262.43
456.117	32846.69
456.323	32715.62
456.529	30911.36
456.735	32367.46
456.941	31456.12
457.147	31095.67
457.352	30065.55
457.558	29948.81
457.764	29918.09
457.97	29289.37
458.176	28550.05
458.381	28990.36
458.587	27521.97
458.793	27124.66
458.999	25904.07
459.204	28054.44
459.41	26852.28
459.616	25066.45
459.821	25238.48
460.027	25168.85
460.233	24499.17
460.438	23653.36
460.644	23962.6
460.85	22709.24
461.055	22328.32
461.261	22270.98
461.466	20577.31
461.672	19860.52
461.878	21429.26
462.083	20079.65
462.289	19874.85
462.494	19622.95
462.7	18494.52
462.905	18058.31
463.111	18809.91
463.316	18711.61
463.522	18740.28
463.727	18146.37
463.932	18246.72
464.138	18025.54
464.343	18353.21
464.549	17679.43
464.754	18318.4
464.959	17695.82
465.165	17812.55
465.37	17362
465.575	16731.22
465.781	17607.75
465.986	17409.1
466.191	17093.71
466.397	16655.45
466.602	15737.96
466.807	16407.64
467.012	16405.6
467.218	16247.9
467.423	15950.95
467.628	16174.17
467.833	16876.63
468.038	16008.29
