Data from USB4F104151__53__14-43-07-181.txt Node

Date: Thu Mar 13 14:43:07 EDT 2025
User: louis
Spectrometer: USB4F10415
Trigger mode: 4
Integration Time (sec): 2.000000E-2
Scans to average: 1
Electric dark correction enabled: true
Nonlinearity correction enabled: false
Boxcar width: 0
XAxis mode: Wavelengths
Number of Pixels in Spectrum: 3648
>>>>>Begin Spectral Data<<<<<
178.204	-108.03
178.424	-108.03
178.644	-108.03
178.864	-62.98
179.084	-71.17
179.304	29.18
179.524	-24.06
179.744	-1.54
179.964	27.14
180.184	18.94
180.404	59.9
180.624	-1.54
180.844	16.9
181.064	-40.45
181.283	-54.78
181.503	-38.4
181.723	8.7
181.943	35.33
182.163	72.19
182.383	188.93
182.602	-15.87
182.822	96.77
183.042	59.9
183.262	23.04
183.482	-9.73
183.701	51.71
183.921	51.71
184.141	-34.3
184.361	23.04
184.58	-50.69
184.8	6.66
185.02	16.9
185.239	-32.26
185.459	47.62
185.679	145.92
185.898	-5.63
186.118	-5.63
186.338	47.62
186.557	80.38
186.777	-7.68
186.997	57.86
187.216	57.86
187.436	113.15
187.655	-1.54
187.875	25.09
188.095	-50.69
188.314	8.7
188.534	4.61
188.753	-1.54
188.973	47.62
189.192	10.75
189.412	14.85
189.631	10.75
189.851	14.85
190.07	64
190.29	10.75
190.509	88.57
190.729	6.66
190.948	64
191.168	129.53
191.387	59.9
191.607	6.66
191.826	-13.82
192.045	68.09
192.265	57.86
192.484	23.04
192.704	57.86
192.923	59.9
193.142	115.2
193.362	49.66
193.581	41.47
193.8	25.09
194.02	39.42
194.239	-17.92
194.458	14.85
194.678	72.19
194.897	74.24
195.116	-17.92
195.335	53.76
195.555	53.76
195.774	16.9
195.993	0.51
196.212	23.04
196.432	59.9
196.651	47.62
196.87	66.05
197.089	82.43
197.308	96.77
197.528	80.38
197.747	-32.26
197.966	47.62
198.185	80.38
198.404	-30.21
198.623	80.38
198.842	43.52
199.062	80.38
199.281	113.15
199.5	-24.06
199.719	47.62
199.938	4.61
200.157	104.96
200.376	33.28
200.595	14.85
200.814	72.19
201.033	33.28
201.252	90.62
201.471	55.81
201.69	107.01
201.909	25.09
202.128	59.9
202.347	55.81
202.566	82.43
202.785	41.47
203.004	-54.78
203.223	96.77
203.442	-1.54
203.661	55.81
203.879	74.24
204.098	39.42
204.317	70.14
204.536	4.61
204.755	88.57
204.974	129.53
205.193	96.77
205.411	72.19
205.63	57.86
205.849	88.57
206.068	70.14
206.287	49.66
206.505	98.81
206.724	2.56
206.943	55.81
207.162	-32.26
207.381	33.28
207.599	47.62
207.818	39.42
208.037	14.85
208.255	47.62
208.474	31.23
208.693	41.47
208.911	78.33
209.13	35.33
209.349	23.04
209.567	33.28
209.786	-22.02
210.005	-9.73
210.223	39.42
210.442	16.9
210.661	-1.54
210.879	16.9
211.098	92.67
211.316	37.38
211.535	109.05
211.753	53.76
211.972	88.57
212.191	68.09
212.409	6.66
212.628	100.86
212.846	-24.06
213.065	23.04
213.283	168.45
213.502	29.18
213.72	55.81
213.938	-9.73
214.157	4.61
214.375	90.62
214.594	31.23
214.812	-30.21
215.031	55.81
215.249	43.52
215.467	23.04
215.686	16.9
215.904	80.38
216.122	23.04
216.341	51.71
216.559	59.9
216.778	18.94
216.996	129.53
217.214	41.47
217.432	10.75
217.651	80.38
217.869	72.19
218.087	55.81
218.306	-13.82
218.524	82.43
218.742	35.33
218.96	51.71
219.179	82.43
219.397	0.51
219.615	121.34
219.833	80.38
220.051	2.56
220.27	23.04
220.488	98.81
220.706	37.38
220.924	59.9
221.142	14.85
221.36	-7.68
221.578	70.14
221.796	39.42
222.015	31.23
222.233	33.28
222.451	135.68
222.669	-11.78
222.887	80.38
223.105	-13.82
223.323	35.33
223.541	-42.5
223.759	64
223.977	27.14
224.195	129.53
224.413	76.29
224.631	39.42
224.849	-22.02
225.067	133.63
225.285	43.52
225.503	98.81
225.721	29.18
225.939	47.62
226.157	14.85
226.375	43.52
226.592	-11.78
226.81	64
227.028	72.19
227.246	96.77
227.464	2.56
227.682	76.29
227.9	113.15
228.117	33.28
228.335	39.42
228.553	80.38
228.771	25.09
228.989	123.39
229.206	47.62
229.424	68.09
229.642	64
229.86	-3.58
230.077	23.04
230.295	12.8
230.513	92.67
230.731	25.09
230.948	80.38
231.166	147.97
231.384	-19.97
231.601	64
231.819	6.66
232.037	-15.87
232.254	-28.16
232.472	64
232.689	-7.68
232.907	72.19
233.125	16.9
233.342	55.81
233.56	23.04
233.777	41.47
233.995	92.67
234.213	76.29
234.43	18.94
234.648	88.57
234.865	76.29
235.083	49.66
235.3	59.9
235.518	16.9
235.735	80.38
235.953	107.01
236.17	47.62
236.388	39.42
236.605	84.48
236.822	-1.54
237.04	39.42
237.257	6.66
237.475	23.04
237.692	-15.87
237.909	-46.59
238.127	57.86
238.344	66.05
238.562	31.23
238.779	90.62
238.996	27.14
239.214	-3.58
239.431	47.62
239.648	29.18
239.865	76.29
240.083	86.53
240.3	18.94
240.517	33.28
240.735	37.38
240.952	92.67
241.169	2.56
241.386	33.28
241.603	57.86
241.821	23.04
242.038	47.62
242.255	94.72
242.472	4.61
242.689	31.23
242.907	100.86
243.124	0.51
243.341	88.57
243.558	18.94
243.775	23.04
243.992	72.19
244.209	139.77
244.426	143.87
244.643	39.42
244.86	55.81
245.078	64
245.295	23.04
245.512	39.42
245.729	-5.63
245.946	31.23
246.163	27.14
246.38	-17.92
246.597	59.9
246.814	31.23
247.031	55.81
247.248	88.57
247.464	39.42
247.681	59.9
247.898	96.77
248.115	72.19
248.332	-5.63
248.549	72.19
248.766	125.44
248.983	55.81
249.2	43.52
249.417	55.81
249.633	51.71
249.85	72.19
250.067	31.23
250.284	43.52
250.501	39.42
250.717	59.9
250.934	33.28
251.151	61.95
251.368	64
251.585	47.62
251.801	23.04
252.018	39.42
252.235	-7.68
252.451	104.96
252.668	45.57
252.885	102.91
253.102	31.23
253.318	18.94
253.535	4.61
253.752	16.9
253.968	-19.97
254.185	55.81
254.401	-15.87
254.618	29.18
254.835	43.52
255.051	98.81
255.268	49.66
255.484	-1.54
255.701	90.62
255.917	74.24
256.134	76.29
256.351	23.04
256.567	-17.92
256.784	27.14
257	-7.68
257.217	45.57
257.433	0.51
257.65	-22.02
257.866	6.66
258.082	-54.78
258.299	-1.54
258.515	49.66
258.732	68.09
258.948	-22.02
259.165	43.52
259.381	66.05
259.597	51.71
259.814	129.53
260.03	96.77
260.246	4.61
260.463	37.38
260.679	55.81
260.895	109.05
261.112	66.05
261.328	39.42
261.544	-17.92
261.761	141.82
261.977	23.04
262.193	39.42
262.409	31.23
262.626	43.52
262.842	6.66
263.058	76.29
263.274	131.58
263.49	64
263.707	90.62
263.923	45.57
264.139	-1.54
264.355	107.01
264.571	72.19
264.787	119.29
265.004	39.42
265.22	43.52
265.436	8.7
265.652	39.42
265.868	66.05
266.084	49.66
266.3	59.9
266.516	66.05
266.732	55.81
266.948	70.14
267.164	47.62
267.38	86.53
267.596	29.18
267.812	113.15
268.028	41.47
268.244	66.05
268.46	78.33
268.676	150.01
268.892	-3.58
269.108	-9.73
269.324	-22.02
269.54	47.62
269.756	147.97
269.972	0.51
270.188	98.81
270.403	125.44
270.619	-38.4
270.835	80.38
271.051	31.23
271.267	64
271.483	31.23
271.698	31.23
271.914	29.18
272.13	57.86
272.346	72.19
272.562	82.43
272.777	23.04
272.993	84.48
273.209	45.57
273.425	59.9
273.64	68.09
273.856	80.38
274.072	76.29
274.287	33.28
274.503	18.94
274.719	49.66
274.934	55.81
275.15	51.71
275.366	-17.92
275.581	47.62
275.797	78.33
276.012	10.75
276.228	49.66
276.444	80.38
276.659	139.77
276.875	27.14
277.09	35.33
277.306	25.09
277.521	45.57
277.737	-5.63
277.952	107.01
278.168	133.63
278.383	88.57
278.599	47.62
278.814	66.05
279.03	45.57
279.245	129.53
279.461	55.81
279.676	66.05
279.892	51.71
280.107	70.14
280.322	23.04
280.538	31.23
280.753	61.95
280.969	80.38
281.184	29.18
281.399	49.66
281.615	-22.02
281.83	68.09
282.045	18.94
282.26	104.96
282.476	57.86
282.691	39.42
282.906	64
283.122	68.09
283.337	27.14
283.552	35.33
283.767	-9.73
283.983	76.29
284.198	37.38
284.413	0.51
284.628	92.67
284.843	64
285.058	156.16
285.274	104.96
285.489	55.81
285.704	100.86
285.919	39.42
286.134	178.69
286.349	23.04
286.564	64
286.779	74.24
286.995	113.15
287.21	16.9
287.425	80.38
287.64	64
287.855	41.47
288.07	72.19
288.285	100.86
288.5	-17.92
288.715	107.01
288.93	41.47
289.145	-15.87
289.36	64
289.575	39.42
289.79	35.33
290.004	59.9
290.219	45.57
290.434	-19.97
290.649	72.19
290.864	57.86
291.079	-7.68
291.294	8.7
291.509	39.42
291.724	2.56
291.938	-40.45
292.153	80.38
292.368	10.75
292.583	129.53
292.798	107.01
293.012	16.9
293.227	37.38
293.442	-11.78
293.657	33.28
293.871	29.18
294.086	14.85
294.301	115.2
294.516	111.1
294.73	23.04
294.945	-22.02
295.16	25.09
295.374	113.15
295.589	76.29
295.804	55.81
296.018	61.95
296.233	115.2
296.447	74.24
296.662	31.23
296.877	131.58
297.091	55.81
297.306	80.38
297.52	43.52
297.735	-22.02
297.949	80.38
298.164	76.29
298.378	-7.68
298.593	41.47
298.807	104.96
299.022	92.67
299.236	23.04
299.451	59.9
299.665	82.43
299.88	-38.4
300.094	49.66
300.309	64
300.523	29.18
300.737	100.86
300.952	49.66
301.166	66.05
301.381	72.19
301.595	23.04
301.809	84.48
302.024	49.66
302.238	43.52
302.452	74.24
302.667	98.81
302.881	4.61
303.095	33.28
303.309	55.81
303.524	84.48
303.738	96.77
303.952	53.76
304.166	72.19
304.381	64
304.595	43.52
304.809	35.33
305.023	20.99
305.237	14.85
305.452	107.01
305.666	51.71
305.88	61.95
306.094	86.53
306.308	27.14
306.522	47.62
306.736	68.09
306.95	72.19
307.164	-22.02
307.379	10.75
307.593	131.58
307.807	104.96
308.021	102.91
308.235	72.19
308.449	39.42
308.663	80.38
308.877	92.67
309.091	6.66
309.305	84.48
309.519	-1.54
309.733	25.09
309.947	2.56
310.161	76.29
310.374	76.29
310.588	51.71
310.802	-52.74
311.016	78.33
311.23	109.05
311.444	2.56
311.658	47.62
311.872	57.86
312.085	88.57
312.299	113.15
312.513	66.05
312.727	25.09
312.941	53.76
313.154	23.04
313.368	49.66
313.582	23.04
313.796	88.57
314.009	0.51
314.223	39.42
314.437	74.24
314.651	66.05
314.864	59.9
315.078	49.66
315.292	-26.11
315.505	-54.78
315.719	68.09
315.933	98.81
316.146	27.14
316.36	55.81
316.573	55.81
316.787	-22.02
317.001	55.81
317.214	47.62
317.428	137.73
317.641	-3.58
317.855	6.66
318.068	4.61
318.282	41.47
318.495	80.38
318.709	10.75
318.922	39.42
319.136	123.39
319.349	80.38
319.563	49.66
319.776	53.76
319.99	-30.21
320.203	92.67
320.417	23.04
320.63	72.19
320.843	150.01
321.057	82.43
321.27	88.57
321.483	49.66
321.697	109.05
321.91	88.57
322.124	27.14
322.337	76.29
322.55	64
322.763	90.62
322.977	98.81
323.19	23.04
323.403	80.38
323.617	0.51
323.83	49.66
324.043	-1.54
324.256	72.19
324.469	-9.73
324.683	25.09
324.896	-13.82
325.109	125.44
325.322	70.14
325.535	64
325.748	55.81
325.962	51.71
326.175	33.28
326.388	20.99
326.601	121.34
326.814	23.04
327.027	68.09
327.24	92.67
327.453	18.94
327.666	33.28
327.879	-1.54
328.092	2.56
328.305	35.33
328.518	-1.54
328.731	66.05
328.944	25.09
329.157	55.81
329.37	25.09
329.583	-5.63
329.796	137.73
330.009	33.28
330.222	72.19
330.435	20.99
330.648	88.57
330.861	78.33
331.073	111.1
331.286	70.14
331.499	35.33
331.712	47.62
331.925	66.05
332.138	80.38
332.35	145.92
332.563	59.9
332.776	66.05
332.989	43.52
333.202	64
333.414	0.51
333.627	66.05
333.84	43.52
334.053	86.53
334.265	123.39
334.478	-9.73
334.691	51.71
334.903	43.52
335.116	55.81
335.329	6.66
335.541	137.73
335.754	88.57
335.966	-1.54
336.179	10.75
336.392	39.42
336.604	-5.63
336.817	96.77
337.029	25.09
337.242	6.66
337.454	82.43
337.667	68.09
337.88	88.57
338.092	72.19
338.305	104.96
338.517	70.14
338.729	80.38
338.942	8.7
339.154	31.23
339.367	-9.73
339.579	27.14
339.792	-7.68
340.004	78.33
340.217	113.15
340.429	129.53
340.641	-75.26
340.854	14.85
341.066	37.38
341.278	37.38
341.491	59.9
341.703	35.33
341.915	80.38
342.128	98.81
342.34	84.48
342.552	49.66
342.764	47.62
342.977	129.53
343.189	66.05
343.401	125.44
343.613	27.14
343.826	100.86
344.038	100.86
344.25	39.42
344.462	23.04
344.674	55.81
344.886	41.47
345.099	113.15
345.311	80.38
345.523	-44.54
345.735	-26.11
345.947	88.57
346.159	-15.87
346.371	84.48
346.583	39.42
346.795	68.09
347.007	72.19
347.219	96.77
347.431	94.72
347.643	117.25
347.855	20.99
348.067	33.28
348.279	61.95
348.491	12.8
348.703	72.19
348.915	41.47
349.127	14.85
349.339	88.57
349.551	35.33
349.763	43.52
349.975	68.09
350.187	72.19
350.399	145.92
350.61	51.71
350.822	55.81
351.034	59.9
351.246	4.61
351.458	14.85
351.669	123.39
351.881	107.01
352.093	92.67
352.305	125.44
352.517	74.24
352.728	39.42
352.94	109.05
353.152	80.38
353.363	2.56
353.575	37.38
353.787	-9.73
353.999	76.29
354.21	107.01
354.422	70.14
354.633	125.44
354.845	41.47
355.057	66.05
355.268	115.2
355.48	59.9
355.692	45.57
355.903	10.75
356.115	55.81
356.326	0.51
356.538	166.4
356.749	35.33
356.961	96.77
357.172	107.01
357.384	72.19
357.595	121.34
357.807	6.66
358.018	-38.4
358.23	2.56
358.441	37.38
358.653	86.53
358.864	49.66
359.075	-11.78
359.287	39.42
359.498	57.86
359.709	37.38
359.921	39.42
360.132	59.9
360.344	31.23
360.555	16.9
360.766	104.96
360.977	90.62
361.189	68.09
361.4	49.66
361.611	43.52
361.823	31.23
362.034	37.38
362.245	39.42
362.456	8.7
362.667	55.81
362.879	57.86
363.09	96.77
363.301	150.01
363.512	6.66
363.723	74.24
363.935	51.71
364.146	104.96
364.357	31.23
364.568	115.2
364.779	16.9
364.99	90.62
365.201	90.62
365.412	43.52
365.623	-5.63
365.834	152.06
366.045	64
366.256	51.71
366.467	51.71
366.678	66.05
366.889	88.57
367.1	104.96
367.311	4.61
367.522	6.66
367.733	27.14
367.944	117.25
368.155	61.95
368.366	90.62
368.577	76.29
368.788	72.19
368.999	-1.54
369.209	47.62
369.42	104.96
369.631	113.15
369.842	117.25
370.053	35.33
370.264	31.23
370.474	8.7
370.685	33.28
370.896	-9.73
371.107	102.91
371.317	107.01
371.528	115.2
371.739	41.47
371.95	72.19
372.16	49.66
372.371	49.66
372.582	51.71
372.792	76.29
373.003	150.01
373.214	35.33
373.424	84.48
373.635	-9.73
373.846	158.21
374.056	39.42
374.267	109.05
374.477	109.05
374.688	74.24
374.898	64
375.109	33.28
375.319	64
375.53	82.43
375.74	14.85
375.951	143.87
376.161	90.62
376.372	53.76
376.582	16.9
376.793	74.24
377.003	41.47
377.214	64
377.424	-24.06
377.635	-5.63
377.845	59.9
378.055	96.77
378.266	-26.11
378.476	72.19
378.686	29.18
378.897	121.34
379.107	119.29
379.317	47.62
379.528	104.96
379.738	117.25
379.948	2.56
380.158	41.47
380.369	80.38
380.579	-1.54
380.789	41.47
380.999	94.72
381.21	8.7
381.42	137.73
381.63	-1.54
381.84	57.86
382.05	64
382.261	92.67
382.471	53.76
382.681	47.62
382.891	0.51
383.101	47.62
383.311	14.85
383.521	23.04
383.731	70.14
383.941	74.24
384.151	-17.92
384.361	72.19
384.571	104.96
384.781	66.05
384.991	41.47
385.201	66.05
385.411	55.81
385.621	104.96
385.831	68.09
386.041	55.81
386.251	-3.58
386.461	72.19
386.671	29.18
386.881	119.29
387.091	23.04
387.301	129.53
387.511	68.09
387.72	64
387.93	117.25
388.14	61.95
388.35	84.48
388.56	66.05
388.769	47.62
388.979	41.47
389.189	14.85
389.399	133.63
389.609	23.04
389.818	39.42
390.028	41.47
390.238	23.04
390.447	117.25
390.657	68.09
390.867	74.24
391.076	137.73
391.286	66.05
391.496	123.39
391.705	59.9
391.915	96.77
392.125	109.05
392.334	92.67
392.544	150.01
392.753	90.62
392.963	27.14
393.172	154.11
393.382	23.04
393.591	115.2
393.801	8.7
394.01	172.54
394.22	23.04
394.429	49.66
394.639	88.57
394.848	92.67
395.058	117.25
395.267	107.01
395.477	119.29
395.686	121.34
395.895	162.3
396.105	150.01
396.314	178.69
396.524	154.11
396.733	121.34
396.942	147.97
397.152	137.73
397.361	96.77
397.57	76.29
397.78	64
397.989	86.53
398.198	129.53
398.407	131.58
398.617	139.77
398.826	139.77
399.035	164.35
399.244	137.73
399.453	90.62
399.663	47.62
399.872	129.53
400.081	53.76
400.29	80.38
400.499	82.43
400.708	123.39
400.917	76.29
401.127	82.43
401.336	41.47
401.545	137.73
401.754	129.53
401.963	117.25
402.172	111.1
402.381	70.14
402.59	94.72
402.799	117.25
403.008	186.88
403.217	133.63
403.426	147.97
403.635	125.44
403.844	141.82
404.053	107.01
404.262	209.4
404.471	203.26
404.68	158.21
404.888	115.2
405.097	115.2
405.306	213.5
405.515	205.31
405.724	166.4
405.933	64
406.142	227.84
406.35	205.31
406.559	150.01
406.768	123.39
406.977	219.64
407.185	205.31
407.394	252.41
407.603	139.77
407.812	256.51
408.02	254.46
408.229	174.59
408.438	236.03
408.646	197.12
408.855	244.22
409.064	227.84
409.272	303.61
409.481	264.7
409.69	260.6
409.898	279.04
410.107	268.8
410.315	301.56
410.524	330.23
410.733	313.85
410.941	350.71
411.15	377.34
411.358	432.63
411.567	434.68
411.775	350.71
411.984	322.04
412.192	457.21
412.401	453.11
412.609	481.78
412.818	498.17
413.026	500.22
413.234	522.74
413.443	518.65
413.651	444.92
413.86	524.79
414.068	561.66
414.276	680.44
414.485	596.47
414.693	596.47
414.901	735.73
415.11	672.25
415.318	596.47
415.526	811.51
415.734	692.73
415.943	795.12
416.151	862.71
416.359	743.92
416.567	870.9
416.776	844.28
416.984	922.1
417.192	844.28
417.4	883.19
417.608	836.08
417.817	975.35
418.025	1059.31
418.233	1165.81
418.441	1024.5
418.649	1049.07
418.857	1145.33
419.065	1178.09
419.273	1143.28
419.481	1239.53
419.689	1321.45
419.897	1311.21
420.105	1391.08
420.313	1432.04
420.521	1493.48
420.729	1589.74
420.937	1522.15
421.145	1532.39
421.353	1745.38
421.561	1759.72
421.769	1782.24
421.977	1901.03
422.185	1972.71
422.393	2021.86
422.601	1911.27
422.809	2064.86
423.017	2238.94
423.224	2214.37
423.432	2310.62
423.64	2337.24
423.848	2423.26
424.056	2394.59
424.263	2517.47
424.471	2517.47
424.679	2646.49
424.887	2912.72
425.094	2939.35
425.302	2961.87
425.51	3021.27
425.718	3047.89
425.925	3072.47
426.133	3189.2
426.341	3310.03
426.548	3557.83
426.756	3615.18
426.964	3625.42
427.171	3762.63
427.379	3805.64
427.586	4153.79
427.794	4075.97
428.001	4293.05
428.209	4528.57
428.417	4403.64
428.624	4766.14
428.832	4733.37
429.039	4702.65
429.247	4723.13
429.454	5069.23
429.662	5310.89
429.869	5028.28
430.076	5462.44
430.284	5194.16
430.491	5527.98
430.699	5816.74
430.906	5896.61
431.114	5826.98
431.321	6013.35
431.528	6224.29
431.736	6629.79
431.943	6953.37
432.15	6617.5
432.358	6793.62
432.565	7051.67
432.772	7094.68
432.979	7719.31
433.187	7813.51
433.394	7768.46
433.601	8266.11
433.808	8225.15
434.016	8212.87
434.223	8530.3
434.43	8919.42
434.637	8857.98
434.844	9460.08
435.052	9701.74
435.259	9398.64
435.466	9656.68
435.673	9697.64
435.88	10049.89
436.087	10824.03
436.294	10676.57
436.501	10385.76
436.708	10570.08
436.915	10961.24
437.122	11520.34
437.329	11606.35
437.537	11811.15
437.743	12073.29
437.95	11972.94
438.157	12622.14
438.364	12812.6
438.571	12810.56
438.778	12994.87
438.985	14088.49
439.192	13498.67
439.399	13895.98
439.606	13736.24
439.813	14569.76
440.02	15479.06
440.227	15059.23
440.433	15204.63
440.64	15603.99
440.847	15352.09
441.054	15651.09
441.261	16808.19
441.467	16488.71
441.674	16908.54
441.881	17541.36
442.088	17418.49
442.294	17547.51
442.501	17674.48
442.708	17948.91
442.914	18639.08
443.121	19126.49
443.328	19126.49
443.534	20639.94
443.741	19720.4
443.948	19384.54
444.154	20820.16
444.361	20650.18
444.568	20689.09
444.774	21078.21
444.981	20902.08
445.187	21514.42
445.394	22460.59
445.6	22388.91
445.807	24580.23
446.013	23287.96
446.22	23568.54
446.426	24656.01
446.633	24705.16
446.839	26167.41
447.046	24869
447.252	26196.08
447.459	25993.33
447.665	25974.9
447.871	27396.19
448.078	28571.72
448.284	27088.99
448.491	28069.97
448.697	28858.44
448.903	29378.62
449.11	29577.28
449.316	28665.93
449.522	29608
449.728	30470.19
449.935	30910.5
450.141	30736.43
450.347	31342.63
450.553	30453.81
450.76	30828.59
450.966	31717.4
451.172	31420.45
451.378	32503.82
451.584	31889.43
451.791	32331.79
451.997	32575.5
452.203	32913.42
452.409	32741.39
452.615	32921.61
452.821	31434.78
453.027	31078.44
453.233	32868.36
453.44	31479.84
453.646	31883.29
453.852	32047.13
454.058	32348.18
454.264	31576.09
454.47	32385.04
454.676	31221.8
454.882	32948.23
455.088	29880.38
455.294	30543.92
455.5	30718
455.705	31330.34
455.911	29704.25
456.117	28977.22
456.323	28966.98
456.529	27848.79
456.735	28631.12
456.941	27746.39
457.147	27535.45
457.352	26775.66
457.558	26452.08
457.764	26529.9
457.97	25815.16
458.176	25409.66
458.381	25194.62
458.587	24307.85
458.793	24461.45
458.999	22982.82
459.204	24522.89
459.41	23869.59
459.616	22485.16
459.821	22388.91
460.027	22266.03
460.233	21881.01
460.438	20920.51
460.644	21311.67
460.85	19998.93
461.055	19513.56
461.261	19730.64
461.466	18133.23
461.672	17674.48
461.878	18929.89
462.083	17766.64
462.289	17574.13
462.494	17524.98
462.7	16441.61
462.905	16066.83
463.111	16615.68
463.316	16673.03
463.522	16388.36
463.727	16371.97
463.932	16425.22
464.138	15884.56
464.343	16072.97
464.549	15655.19
464.754	15902.99
464.959	16072.97
465.165	15874.32
465.37	15268.12
465.575	14907.68
465.781	15493.4
465.986	15464.72
466.191	14901.53
466.397	14700.83
466.602	14053.67
466.807	14649.63
467.012	14483.75
467.218	14186.79
467.423	14403.88
467.628	14174.5
467.833	14709.02
468.038	14395.68
