Data from USB4F104151__20__14-42-42-187.txt Node

Date: Thu Mar 13 14:42:42 EDT 2025
User: louis
Spectrometer: USB4F10415
Trigger mode: 4
Integration Time (sec): 2.000000E-2
Scans to average: 1
Electric dark correction enabled: true
Nonlinearity correction enabled: false
Boxcar width: 0
XAxis mode: Wavelengths
Number of Pixels in Spectrum: 3648
>>>>>Begin Spectral Data<<<<<
178.204	-159.91
178.424	-159.91
178.644	-159.91
178.864	-90.28
179.084	-133.29
179.304	32.6
179.524	-37.03
179.744	32.6
179.964	55.12
180.184	12.12
180.404	-4.27
180.624	-8.36
180.844	-12.46
181.064	-53.42
181.283	3.93
181.503	-2.22
181.723	-18.6
181.943	-94.38
182.163	77.65
182.383	-28.84
182.602	8.02
182.822	28.5
183.042	20.31
183.262	-18.6
183.482	-77.99
183.701	-12.46
183.921	14.17
184.141	-10.41
184.361	34.64
184.58	30.55
184.8	-12.46
185.02	-34.99
185.239	-4.27
185.459	-82.09
185.679	-16.55
185.898	-43.18
186.118	3.93
186.338	-20.65
186.557	89.94
186.777	-18.6
186.997	28.5
187.216	-32.94
187.436	75.6
187.655	8.02
187.875	36.69
188.095	-10.41
188.314	-4.27
188.534	3.93
188.753	77.65
188.973	79.7
189.192	24.4
189.412	-37.03
189.631	-53.42
189.851	22.36
190.07	53.08
190.29	-2.22
190.509	-4.27
190.729	30.55
190.948	22.36
191.168	108.37
191.387	-32.94
191.607	5.97
191.826	28.5
192.045	44.88
192.265	-20.65
192.484	-41.13
192.704	-51.37
192.923	28.5
193.142	61.27
193.362	57.17
193.581	87.89
193.8	8.02
194.02	-20.65
194.239	-8.36
194.458	-12.46
194.678	-67.75
194.897	-24.75
195.116	3.93
195.335	20.31
195.555	55.12
195.774	16.21
195.993	-14.51
196.212	32.6
196.432	-18.6
196.651	69.46
196.87	36.69
197.089	69.46
197.308	1.88
197.528	-10.41
197.747	-18.6
197.966	38.74
198.185	14.17
198.404	51.03
198.623	87.89
198.842	-37.03
199.062	79.7
199.281	3.93
199.5	8.02
199.719	12.12
199.938	-6.31
200.157	48.98
200.376	26.45
200.595	12.12
200.814	12.12
201.033	38.74
201.252	-37.03
201.471	-4.27
201.69	22.36
201.909	24.4
202.128	-26.79
202.347	-37.03
202.566	40.79
202.785	-20.65
203.004	-71.85
203.223	26.45
203.442	-20.65
203.661	46.93
203.879	-14.51
204.098	65.36
204.317	-24.75
204.536	61.27
204.755	-0.17
204.974	40.79
205.193	16.21
205.411	77.65
205.63	-28.84
205.849	22.36
206.068	16.21
206.287	-8.36
206.505	-8.36
206.724	61.27
206.943	14.17
207.162	44.88
207.381	44.88
207.599	-10.41
207.818	-59.56
208.037	-4.27
208.255	-20.65
208.474	-65.71
208.693	14.17
208.911	20.31
209.13	28.5
209.349	3.93
209.567	-14.51
209.786	20.31
210.005	-18.6
210.223	40.79
210.442	-71.85
210.661	28.5
210.879	32.6
211.098	77.65
211.316	-51.37
211.535	61.27
211.753	-20.65
211.972	3.93
212.191	-77.99
212.409	-24.75
212.628	24.4
212.846	-73.9
213.065	-6.31
213.283	46.93
213.502	8.02
213.72	-4.27
213.938	28.5
214.157	-63.66
214.375	-16.55
214.594	-6.31
214.812	-14.51
215.031	-32.94
215.249	-4.27
215.467	-106.67
215.686	10.07
215.904	-4.27
216.122	8.02
216.341	89.94
216.559	5.97
216.778	-2.22
216.996	69.46
217.214	-53.42
217.432	-41.13
217.651	-108.71
217.869	-75.95
218.087	20.31
218.306	-59.56
218.524	-4.27
218.742	-45.23
218.96	36.69
219.179	3.93
219.397	28.5
219.615	141.14
219.833	1.88
220.051	1.88
220.27	63.32
220.488	-10.41
220.706	-37.03
220.924	12.12
221.142	20.31
221.36	-2.22
221.578	22.36
221.796	24.4
222.015	3.93
222.233	-12.46
222.451	63.32
222.669	-8.36
222.887	-39.08
223.105	81.75
223.323	-24.75
223.541	-16.55
223.759	10.07
223.977	38.74
224.195	53.08
224.413	36.69
224.631	61.27
224.849	-45.23
225.067	28.5
225.285	-84.14
225.503	16.21
225.721	-61.61
225.939	5.97
226.157	20.31
226.375	112.47
226.592	3.93
226.81	-69.8
227.028	22.36
227.246	24.4
227.464	30.55
227.682	57.17
227.9	38.74
228.117	-8.36
228.335	44.88
228.553	-2.22
228.771	16.21
228.989	-34.99
229.206	12.12
229.424	-41.13
229.642	28.5
229.86	32.6
230.077	44.88
230.295	16.21
230.513	20.31
230.731	55.12
230.948	-2.22
231.166	53.08
231.384	-57.51
231.601	3.93
231.819	57.17
232.037	16.21
232.254	14.17
232.472	38.74
232.689	-86.19
232.907	-0.17
233.125	44.88
233.342	-32.94
233.56	-59.56
233.777	55.12
233.995	-67.75
234.213	126.8
234.43	3.93
234.648	44.88
234.865	42.84
235.083	63.32
235.3	44.88
235.518	-20.65
235.735	89.94
235.953	46.93
236.17	16.21
236.388	22.36
236.605	20.31
236.822	63.32
237.04	34.64
237.257	-28.84
237.475	65.36
237.692	-22.7
237.909	22.36
238.127	34.64
238.344	59.22
238.562	61.27
238.779	10.07
238.996	-16.55
239.214	-55.47
239.431	12.12
239.648	53.08
239.865	-39.08
240.083	71.51
240.3	-14.51
240.517	16.21
240.735	-61.61
240.952	22.36
241.169	87.89
241.386	36.69
241.603	-8.36
241.821	61.27
242.038	-8.36
242.255	8.02
242.472	-37.03
242.689	1.88
242.907	57.17
243.124	-16.55
243.341	-32.94
243.558	40.79
243.775	-43.18
243.992	-0.17
244.209	28.5
244.426	77.65
244.643	42.84
244.86	-18.6
245.078	55.12
245.295	14.17
245.512	-16.55
245.729	-77.99
245.946	-57.51
246.163	-28.84
246.38	3.93
246.597	24.4
246.814	-6.31
247.031	40.79
247.248	20.31
247.464	-55.47
247.681	-32.94
247.898	8.02
248.115	20.31
248.332	-51.37
248.549	12.12
248.766	81.75
248.983	-18.6
249.2	63.32
249.417	-12.46
249.633	48.98
249.85	20.31
250.067	34.64
250.284	-12.46
250.501	20.31
250.717	-8.36
250.934	-28.84
251.151	-18.6
251.368	18.26
251.585	22.36
251.801	36.69
252.018	40.79
252.235	-16.55
252.451	5.97
252.668	-4.27
252.885	59.22
253.102	-24.75
253.318	44.88
253.535	30.55
253.752	-34.99
253.968	-14.51
254.185	-28.84
254.401	12.12
254.618	30.55
254.835	-10.41
255.051	12.12
255.268	-34.99
255.484	8.02
255.701	3.93
255.917	32.6
256.134	46.93
256.351	34.64
256.567	44.88
256.784	-12.46
257	-24.75
257.217	28.5
257.433	-18.6
257.65	-18.6
257.866	36.69
258.082	-28.84
258.299	16.21
258.515	53.08
258.732	12.12
258.948	-39.08
259.165	8.02
259.381	3.93
259.597	-98.47
259.814	-4.27
260.03	32.6
260.246	46.93
260.463	69.46
260.679	12.12
260.895	8.02
261.112	20.31
261.328	-0.17
261.544	-34.99
261.761	94.04
261.977	-20.65
262.193	-49.32
262.409	3.93
262.626	63.32
262.842	5.97
263.058	8.02
263.274	36.69
263.49	-28.84
263.707	16.21
263.923	16.21
264.139	57.17
264.355	-51.37
264.571	-14.51
264.787	24.4
265.004	1.88
265.22	24.4
265.436	12.12
265.652	-30.89
265.868	-20.65
266.084	5.97
266.3	-4.27
266.516	14.17
266.732	36.69
266.948	-24.75
267.164	-67.75
267.38	16.21
267.596	5.97
267.812	-32.94
268.028	14.17
268.244	-2.22
268.46	18.26
268.676	-53.42
268.892	-32.94
269.108	16.21
269.324	-45.23
269.54	-8.36
269.756	61.27
269.972	-16.55
270.188	-51.37
270.403	-26.79
270.619	-16.55
270.835	53.08
271.051	46.93
271.267	-16.55
271.483	-2.22
271.698	-6.31
271.914	20.31
272.13	-0.17
272.346	-53.42
272.562	104.28
272.777	20.31
272.993	61.27
273.209	-18.6
273.425	-20.65
273.64	10.07
273.856	-24.75
274.072	-37.03
274.287	18.26
274.503	77.65
274.719	30.55
274.934	85.84
275.15	-39.08
275.366	-16.55
275.581	-18.6
275.797	26.45
276.012	-39.08
276.228	-77.99
276.444	36.69
276.659	-10.41
276.875	-28.84
277.09	-0.17
277.306	-18.6
277.521	46.93
277.737	-2.22
277.952	71.51
278.168	-24.75
278.383	22.36
278.599	-22.7
278.814	51.03
279.03	12.12
279.245	24.4
279.461	14.17
279.676	28.5
279.892	55.12
280.107	28.5
280.322	-71.85
280.538	36.69
280.753	-32.94
280.969	-2.22
281.184	48.98
281.399	67.41
281.615	5.97
281.83	73.56
282.045	-49.32
282.26	-8.36
282.476	3.93
282.691	32.6
282.906	-49.32
283.122	20.31
283.337	-18.6
283.552	-43.18
283.767	18.26
283.983	-16.55
284.198	1.88
284.413	3.93
284.628	-43.18
284.843	-18.6
285.058	40.79
285.274	20.31
285.489	20.31
285.704	59.22
285.919	20.31
286.134	3.93
286.349	-0.17
286.564	-28.84
286.779	40.79
286.995	36.69
287.21	-37.03
287.425	61.27
287.64	12.12
287.855	40.79
288.07	20.31
288.285	36.69
288.5	12.12
288.715	20.31
288.93	-28.84
289.145	-94.38
289.36	-45.23
289.575	30.55
289.79	-4.27
290.004	108.37
290.219	79.7
290.434	28.5
290.649	44.88
290.864	20.31
291.079	53.08
291.294	3.93
291.509	-22.7
291.724	16.21
291.938	-2.22
292.153	51.03
292.368	3.93
292.583	28.5
292.798	-43.18
293.012	20.31
293.227	5.97
293.442	-8.36
293.657	30.55
293.871	5.97
294.086	20.31
294.301	63.32
294.516	1.88
294.73	-18.6
294.945	-75.95
295.16	5.97
295.374	18.26
295.589	110.42
295.804	3.93
296.018	14.17
296.233	12.12
296.447	87.89
296.662	-0.17
296.877	46.93
297.091	14.17
297.306	30.55
297.52	44.88
297.735	14.17
297.949	-16.55
298.164	-16.55
298.378	22.36
298.593	-37.03
298.807	-12.46
299.022	-37.03
299.236	-6.31
299.451	-63.66
299.665	36.69
299.88	-26.79
300.094	-4.27
300.309	61.27
300.523	22.36
300.737	44.88
300.952	3.93
301.166	83.8
301.381	12.12
301.595	12.12
301.809	51.03
302.024	46.93
302.238	5.97
302.452	118.61
302.667	-34.99
302.881	16.21
303.095	26.45
303.309	75.6
303.524	-18.6
303.738	34.64
303.952	-6.31
304.166	61.27
304.381	-37.03
304.595	-2.22
304.809	14.17
305.023	36.69
305.237	-28.84
305.452	-2.22
305.666	65.36
305.88	-41.13
306.094	69.46
306.308	-10.41
306.522	-26.79
306.736	-34.99
306.95	71.51
307.164	18.26
307.379	-4.27
307.593	32.6
307.807	-0.17
308.021	98.13
308.235	5.97
308.449	-20.65
308.663	-0.17
308.877	98.13
309.091	3.93
309.305	8.02
309.519	-32.94
309.733	24.4
309.947	-18.6
310.161	26.45
310.374	59.22
310.588	28.5
310.802	8.02
311.016	-28.84
311.23	83.8
311.444	48.98
311.658	-57.51
311.872	51.03
312.085	-75.95
312.299	20.31
312.513	85.84
312.727	53.08
312.941	-20.65
313.154	46.93
313.368	53.08
313.582	3.93
313.796	18.26
314.009	-4.27
314.223	10.07
314.437	12.12
314.651	30.55
314.864	-34.99
315.078	-45.23
315.292	-47.27
315.505	-28.84
315.719	28.5
315.933	132.95
316.146	-12.46
316.36	75.6
316.573	20.31
316.787	1.88
317.001	-37.03
317.214	-2.22
317.428	69.46
317.641	-10.41
317.855	-18.6
318.068	53.08
318.282	12.12
318.495	-2.22
318.709	14.17
318.922	36.69
319.136	40.79
319.349	-65.71
319.563	16.21
319.776	10.07
319.99	-43.18
320.203	42.84
320.417	-16.55
320.63	-8.36
320.843	122.71
321.057	44.88
321.27	12.12
321.483	44.88
321.697	22.36
321.91	-45.23
322.124	-22.7
322.337	24.4
322.55	5.97
322.763	46.93
322.977	12.12
323.19	-28.84
323.403	-45.23
323.617	48.98
323.83	61.27
324.043	61.27
324.256	73.56
324.469	-26.79
324.683	116.56
324.896	44.88
325.109	-73.9
325.322	-18.6
325.535	77.65
325.748	3.93
325.962	-12.46
326.175	8.02
326.388	69.46
326.601	28.5
326.814	8.02
327.027	-0.17
327.24	79.7
327.453	-24.75
327.666	22.36
327.879	1.88
328.092	-20.65
328.305	12.12
328.518	48.98
328.731	40.79
328.944	1.88
329.157	112.47
329.37	61.27
329.583	53.08
329.796	65.36
330.009	-24.75
330.222	63.32
330.435	-24.75
330.648	36.69
330.861	-10.41
331.073	96.08
331.286	61.27
331.499	53.08
331.712	12.12
331.925	28.5
332.138	102.23
332.35	1.88
332.563	63.32
332.776	-12.46
332.989	-37.03
333.202	69.46
333.414	-12.46
333.627	-28.84
333.84	32.6
334.053	48.98
334.265	3.93
334.478	-12.46
334.691	12.12
334.903	-75.95
335.116	-8.36
335.329	44.88
335.541	20.31
335.754	12.12
335.966	-12.46
336.179	71.51
336.392	-57.51
336.604	3.93
336.817	-12.46
337.029	61.27
337.242	-18.6
337.454	96.08
337.667	14.17
337.88	65.36
338.092	22.36
338.305	57.17
338.517	32.6
338.729	-12.46
338.942	55.12
339.154	-24.75
339.367	-18.6
339.579	26.45
339.792	-51.37
340.004	128.85
340.217	24.4
340.429	61.27
340.641	-2.22
340.854	30.55
341.066	-45.23
341.278	71.51
341.491	34.64
341.703	-10.41
341.915	14.17
342.128	24.4
342.34	40.79
342.552	16.21
342.764	-77.99
342.977	-53.42
343.189	36.69
343.401	57.17
343.613	-41.13
343.826	71.51
344.038	12.12
344.25	-4.27
344.462	-4.27
344.674	12.12
344.886	-53.42
345.099	63.32
345.311	53.08
345.523	10.07
345.735	-0.17
345.947	-2.22
346.159	14.17
346.371	69.46
346.583	12.12
346.795	40.79
347.007	61.27
347.219	-45.23
347.431	-4.27
347.643	18.26
347.855	-30.89
348.067	-12.46
348.279	1.88
348.491	28.5
348.703	26.45
348.915	44.88
349.127	-8.36
349.339	46.93
349.551	-12.46
349.763	36.69
349.975	5.97
350.187	3.93
350.399	22.36
350.61	-18.6
350.822	-30.89
351.034	-32.94
351.246	91.99
351.458	16.21
351.669	104.28
351.881	44.88
352.093	16.21
352.305	-8.36
352.517	-12.46
352.728	-39.08
352.94	16.21
353.152	55.12
353.363	-6.31
353.575	20.31
353.787	73.56
353.999	-2.22
354.21	65.36
354.422	-94.38
354.633	-20.65
354.845	-8.36
355.057	3.93
355.268	-2.22
355.48	-12.46
355.692	-65.71
355.903	14.17
356.115	8.02
356.326	-28.84
356.538	14.17
356.749	-6.31
356.961	12.12
357.172	22.36
357.384	42.84
357.595	100.18
357.807	3.93
358.018	-69.8
358.23	3.93
358.441	36.69
358.653	91.99
358.864	-32.94
359.075	3.93
359.287	1.88
359.498	44.88
359.709	42.84
359.921	51.03
360.132	-37.03
360.344	3.93
360.555	26.45
360.766	46.93
360.977	-32.94
361.189	32.6
361.4	-28.84
361.611	53.08
361.823	46.93
362.034	28.5
362.245	-45.23
362.456	46.93
362.667	44.88
362.879	-20.65
363.09	-61.61
363.301	-77.99
363.512	20.31
363.723	-18.6
363.935	-45.23
364.146	8.02
364.357	-20.65
364.568	61.27
364.779	-82.09
364.99	44.88
365.201	-92.33
365.412	61.27
365.623	-18.6
365.834	24.4
366.045	3.93
366.256	22.36
366.467	77.65
366.678	38.74
366.889	-43.18
367.1	55.12
367.311	44.88
367.522	-32.94
367.733	28.5
367.944	44.88
368.155	-80.04
368.366	28.5
368.577	-57.51
368.788	85.84
368.999	20.31
369.209	-4.27
369.42	32.6
369.631	44.88
369.842	3.93
370.053	3.93
370.264	36.69
370.474	-26.79
370.685	53.08
370.896	-28.84
371.107	46.93
371.317	30.55
371.528	-37.03
371.739	44.88
371.95	-61.61
372.16	53.08
372.371	1.88
372.582	-16.55
372.792	10.07
373.003	63.32
373.214	-18.6
373.424	-37.03
373.635	16.21
373.846	73.56
374.056	20.31
374.267	-0.17
374.477	53.08
374.688	36.69
374.898	-86.19
375.109	36.69
375.319	-18.6
375.53	53.08
375.74	-4.27
375.951	-20.65
376.161	79.7
376.372	-8.36
376.582	22.36
376.793	-59.56
377.003	-4.27
377.214	12.12
377.424	24.4
377.635	53.08
377.845	69.46
378.055	5.97
378.266	61.27
378.476	-45.23
378.686	26.45
378.897	-24.75
379.107	24.4
379.317	44.88
379.528	48.98
379.738	20.31
379.948	-24.75
380.158	48.98
380.369	-4.27
380.579	44.88
380.789	-10.41
380.999	85.84
381.21	30.55
381.42	102.23
381.63	-18.6
381.84	53.08
382.05	44.88
382.261	3.93
382.471	89.94
382.681	3.93
382.891	102.23
383.101	-4.27
383.311	-12.46
383.521	-43.18
383.731	-28.84
383.941	28.5
384.151	-53.42
384.361	28.5
384.571	-8.36
384.781	46.93
384.991	59.22
385.201	69.46
385.411	104.28
385.621	36.69
385.831	63.32
386.041	96.08
386.251	14.17
386.461	61.27
386.671	28.5
386.881	-47.27
387.091	89.94
387.301	-67.75
387.511	48.98
387.72	38.74
387.93	3.93
388.14	-67.75
388.35	61.27
388.56	44.88
388.769	16.21
388.979	8.02
389.189	77.65
389.399	-12.46
389.609	61.27
389.818	3.93
390.028	44.88
390.238	51.03
390.447	-0.17
390.657	30.55
390.867	-10.41
391.076	14.17
391.286	-12.46
391.496	73.56
391.705	87.89
391.915	73.56
392.125	100.18
392.334	44.88
392.544	-0.17
392.753	-8.36
392.963	-94.38
393.172	3.93
393.382	44.88
393.591	44.88
393.801	10.07
394.01	53.08
394.22	118.61
394.429	1.88
394.639	36.69
394.848	145.24
395.058	44.88
395.267	48.98
395.477	-12.46
395.686	91.99
395.895	65.36
396.105	22.36
396.314	53.08
396.524	22.36
396.733	87.89
396.942	12.12
397.152	36.69
397.361	81.75
397.57	14.17
397.78	96.08
397.989	61.27
398.198	169.81
398.407	38.74
398.617	98.13
398.826	32.6
399.035	71.51
399.244	38.74
399.453	53.08
399.663	118.61
399.872	46.93
400.081	-4.27
400.29	65.36
400.499	20.31
400.708	44.88
400.917	65.36
401.127	118.61
401.336	12.12
401.545	151.38
401.754	96.08
401.963	44.88
402.172	28.5
402.381	12.12
402.59	-24.75
402.799	48.98
403.008	71.51
403.217	61.27
403.426	87.89
403.635	122.71
403.844	65.36
404.053	-18.6
404.262	65.36
404.471	135
404.68	135
404.888	71.51
405.097	32.6
405.306	77.65
405.515	63.32
405.724	135
405.933	79.7
406.142	122.71
406.35	130.9
406.559	118.61
406.768	61.27
406.977	114.52
407.185	85.84
407.394	223.06
407.603	83.8
407.812	102.23
408.02	180.05
408.229	139.09
408.438	137.04
408.646	118.61
408.855	147.28
409.064	151.38
409.272	130.9
409.481	165.71
409.69	167.76
409.898	175.95
410.107	178
410.315	122.71
410.524	178
410.733	208.72
410.941	147.28
411.15	204.63
411.358	200.53
411.567	218.96
411.775	235.35
411.984	188.24
412.192	180.05
412.401	284.5
412.609	237.39
412.818	282.45
413.026	261.97
413.234	304.98
413.443	225.11
413.651	356.18
413.86	298.83
414.068	358.22
414.276	405.33
414.485	468.81
414.693	413.52
414.901	429.9
415.11	423.76
415.318	417.61
415.526	456.53
415.734	456.53
415.943	487.25
416.151	499.53
416.359	454.48
416.567	520.01
416.776	563.02
416.984	536.4
417.192	630.6
417.4	497.49
417.608	513.87
417.817	577.36
418.025	636.75
418.233	708.43
418.441	603.98
418.649	728.91
418.857	782.15
419.065	784.2
419.273	759.63
419.481	808.78
419.689	798.54
419.897	870.22
420.105	915.27
420.313	1058.63
420.521	1064.77
420.729	995.14
420.937	1070.92
421.145	1027.91
421.353	1109.83
421.561	1177.41
421.769	1265.47
421.977	1224.51
422.185	1105.73
422.393	1267.52
422.601	1306.43
422.809	1345.34
423.017	1306.43
423.224	1421.12
423.432	1331.01
423.64	1529.66
423.848	1646.4
424.056	1578.81
424.263	1644.35
424.471	1732.41
424.679	1775.42
424.887	1742.65
425.094	1847.1
425.302	1847.1
425.51	1939.26
425.718	1980.22
425.925	2002.74
426.133	2068.28
426.341	2144.05
426.548	2418.48
426.756	2283.31
426.964	2395.95
427.171	2567.98
427.379	2576.17
427.586	2572.08
427.794	2746.16
428.001	2748.2
428.209	2850.6
428.417	2850.6
428.624	3022.63
428.832	2959.14
429.039	3028.78
429.247	2893.61
429.454	3276.58
429.662	3641.12
429.869	3340.07
430.076	3620.64
430.284	3454.75
430.491	3518.24
430.699	3720.99
430.906	3878.68
431.114	3890.97
431.321	4069.14
431.528	4099.86
431.736	4292.37
431.943	4681.49
432.15	4308.76
432.358	4558.61
432.565	4781.84
432.772	4585.23
432.979	4957.96
433.187	5123.85
433.394	4898.57
433.601	5414.66
433.808	5281.54
434.016	5314.31
434.223	5699.33
434.43	5762.81
434.637	5734.14
434.844	6239.99
435.052	6295.29
435.259	6272.76
435.466	6262.52
435.673	6373.11
435.88	6590.19
436.087	6993.64
436.294	6985.45
436.501	6971.11
436.708	7053.03
436.915	7173.86
437.122	7644.9
437.329	7638.75
437.537	7519.97
437.743	7950.04
437.95	7737.06
438.157	8369.88
438.364	8412.88
438.571	8584.91
438.778	8531.67
438.985	9406.15
439.192	8861.39
439.399	9164.49
439.606	8924.88
439.813	9563.84
440.02	10436.28
440.227	10090.17
440.433	9821.89
440.64	10211
440.847	10131.13
441.054	10309.3
441.261	11132.59
441.467	10833.58
441.674	11171.5
441.881	11521.7
442.088	11566.76
442.294	11718.31
442.501	11628.2
442.708	11773.6
442.914	12410.52
443.121	12932.75
443.328	12474.01
443.534	13618.82
443.741	13004.43
443.948	12945.04
444.154	13803.14
444.361	13975.17
444.568	13960.83
444.774	13850.24
444.981	14225.02
445.187	14587.51
445.394	15113.84
445.6	15070.83
445.807	16533.08
446.013	15597.16
446.22	15789.67
446.426	16731.73
446.633	16711.25
446.839	17378.89
447.046	16412.25
447.252	17806.92
447.459	17688.14
447.665	17690.18
447.871	18421.31
448.078	19250.74
448.284	18388.54
448.491	18837.05
448.697	19856.93
448.903	20002.34
449.11	19858.98
449.316	19789.35
449.522	19901.99
449.728	20629.02
449.935	20823.58
450.141	20827.67
450.347	21278.22
450.553	20858.39
450.76	20790.81
450.966	21714.44
451.172	21603.85
451.378	21954.05
451.584	21730.83
451.791	21984.77
451.997	22029.83
452.203	22210.05
452.409	22492.67
452.615	22541.82
452.821	21495.31
453.027	21552.65
453.233	22644.22
453.44	21859.85
453.646	21949.96
453.852	22011.4
454.058	22427.14
454.264	21792.26
454.47	22291.97
454.676	21757.45
454.882	22146.56
455.088	20753.94
455.294	20815.38
455.5	21028.37
455.705	21693.96
455.911	20551.2
456.117	20248.1
456.323	19949.09
456.529	18652.73
456.735	19715.62
456.941	19205.68
457.147	19150.39
457.352	18431.55
457.558	18175.55
457.764	18155.07
457.97	17802.82
458.176	17446.48
458.381	17643.08
458.587	16682.58
458.793	16752.21
458.999	16008.8
459.204	17206.86
459.41	16455.26
459.616	15316.59
459.821	15715.94
460.027	15408.75
460.233	14868.08
460.438	14581.37
460.644	14458.49
460.85	13862.53
461.055	13594.25
461.261	13753.99
461.466	12768.91
461.672	12250.78
461.878	13278.86
462.083	12324.51
462.289	12056.22
462.494	11906.72
462.7	11445.93
462.905	11185.83
463.111	11656.87
463.316	11548.33
463.522	11615.91
463.727	11286.19
463.932	11261.61
464.138	11357.86
464.343	11353.77
464.549	10811.06
464.754	11337.38
464.959	11228.84
465.165	11134.64
465.37	10747.57
465.575	10452.66
465.781	10958.51
465.986	10954.41
466.191	10350.26
466.397	10346.17
466.602	9948.86
466.807	10270.39
467.012	10299.06
467.218	10104.51
