Data from USB4F104151__76__14-43-24-723.txt Node

Date: Thu Mar 13 14:43:24 EDT 2025
User: louis
Spectrometer: USB4F10415
Trigger mode: 4
Integration Time (sec): 2.000000E-2
Scans to average: 1
Electric dark correction enabled: true
Nonlinearity correction enabled: false
Boxcar width: 0
XAxis mode: Wavelengths
Number of Pixels in Spectrum: 3648
>>>>>Begin Spectral Data<<<<<
178.204	-74.41
178.424	-74.41
178.644	-74.41
178.864	-170.66
179.084	-160.42
179.304	13.65
179.524	15.7
179.744	-66.22
179.964	60.76
180.184	-107.18
180.404	-72.36
180.624	11.61
180.844	-0.68
181.064	38.23
181.283	13.65
181.503	11.61
181.723	81.24
181.943	-6.83
182.163	42.32
182.383	-70.31
182.602	23.89
182.822	15.7
183.042	-10.92
183.262	-15.02
183.482	9.56
183.701	32.08
183.921	66.9
184.141	-23.21
184.361	71
184.58	-66.22
184.8	-43.69
185.02	9.56
185.239	21.85
185.459	32.08
185.679	48.47
185.898	-60.07
186.118	62.8
186.338	-31.4
186.557	21.85
186.777	-68.27
186.997	32.08
187.216	-37.55
187.436	77.14
187.655	5.46
187.875	27.99
188.095	17.75
188.314	83.28
188.534	30.04
188.753	17.75
188.973	23.89
189.192	-8.87
189.412	79.19
189.631	-2.73
189.851	62.8
190.07	38.23
190.29	-51.88
190.509	13.65
190.729	-19.11
190.948	13.65
191.168	134.48
191.387	66.9
191.607	25.94
191.826	5.46
192.045	7.51
192.265	-41.64
192.484	-43.69
192.704	-27.31
192.923	-27.31
193.142	111.96
193.362	30.04
193.581	62.8
193.8	21.85
194.02	60.76
194.239	13.65
194.458	95.57
194.678	27.99
194.897	132.44
195.116	62.8
195.335	32.08
195.555	105.81
195.774	77.14
195.993	40.28
196.212	7.51
196.432	-19.11
196.651	-43.69
196.87	-2.73
197.089	87.38
197.308	40.28
197.528	9.56
197.747	7.51
197.966	-31.4
198.185	109.91
198.404	54.61
198.623	32.08
198.842	87.38
199.062	128.34
199.281	95.57
199.5	5.46
199.719	38.23
199.938	66.9
200.157	5.46
200.376	71
200.595	-43.69
200.814	3.41
201.033	54.61
201.252	15.7
201.471	-6.83
201.69	5.46
201.909	32.08
202.128	114
202.347	23.89
202.566	36.18
202.785	5.46
203.004	-43.69
203.223	107.86
203.442	7.51
203.661	-60.07
203.879	40.28
204.098	56.66
204.317	-27.31
204.536	32.08
204.755	-2.73
204.974	79.19
205.193	-0.68
205.411	68.95
205.63	-12.97
205.849	-6.83
206.068	21.85
206.287	-10.92
206.505	79.19
206.724	103.76
206.943	5.46
207.162	58.71
207.381	-19.11
207.599	-84.65
207.818	21.85
208.037	23.89
208.255	13.65
208.474	73.04
208.693	62.8
208.911	46.42
209.13	46.42
209.349	15.7
209.567	60.76
209.786	50.52
210.005	38.23
210.223	38.23
210.442	5.46
210.661	-8.87
210.879	40.28
211.098	5.46
211.316	-17.07
211.535	15.7
211.753	75.09
211.972	-0.68
212.191	-10.92
212.409	-72.36
212.628	21.85
212.846	30.04
213.065	5.46
213.283	130.39
213.502	21.85
213.72	-27.31
213.938	40.28
214.157	17.75
214.375	-19.11
214.594	66.9
214.812	91.48
215.031	-19.11
215.249	23.89
215.467	-6.83
215.686	23.89
215.904	54.61
216.122	5.46
216.341	54.61
216.559	-55.98
216.778	34.13
216.996	71
217.214	-10.92
217.432	13.65
217.651	-84.65
217.869	66.9
218.087	50.52
218.306	40.28
218.524	-35.5
218.742	21.85
218.96	-33.45
219.179	-10.92
219.397	-15.02
219.615	111.96
219.833	-0.68
220.051	-0.68
220.27	85.33
220.488	75.09
220.706	54.61
220.924	-19.11
221.142	-8.87
221.36	-6.83
221.578	34.13
221.796	30.04
222.015	40.28
222.233	68.95
222.451	34.13
222.669	-43.69
222.887	87.38
223.105	21.85
223.323	-31.4
223.541	38.23
223.759	91.48
223.977	-23.21
224.195	36.18
224.413	5.46
224.631	13.65
224.849	54.61
225.067	148.82
225.285	48.47
225.503	5.46
225.721	11.61
225.939	9.56
226.157	46.42
226.375	81.24
226.592	105.81
226.81	-53.93
227.028	9.56
227.246	103.76
227.464	40.28
227.682	13.65
227.9	52.56
228.117	73.04
228.335	21.85
228.553	11.61
228.771	95.57
228.989	3.41
229.206	21.85
229.424	9.56
229.642	-15.02
229.86	62.8
230.077	25.94
230.295	23.89
230.513	50.52
230.731	71
230.948	54.61
231.166	97.62
231.384	-47.79
231.601	5.46
231.819	42.32
232.037	27.99
232.254	-10.92
232.472	81.24
232.689	11.61
232.907	144.72
233.125	-33.45
233.342	-0.68
233.56	-6.83
233.777	46.42
233.995	-6.83
234.213	-12.97
234.43	71
234.648	17.75
234.865	-23.21
235.083	42.32
235.3	-4.78
235.518	79.19
235.735	38.23
235.953	56.66
236.17	-19.11
236.388	66.9
236.605	30.04
236.822	54.61
237.04	3.41
237.257	68.95
237.475	-25.26
237.692	1.37
237.909	11.61
238.127	11.61
238.344	58.71
238.562	58.71
238.779	17.75
238.996	-17.07
239.214	17.75
239.431	23.89
239.648	-0.68
239.865	38.23
240.083	-27.31
240.3	32.08
240.517	38.23
240.735	-8.87
240.952	-31.4
241.169	54.61
241.386	-2.73
241.603	5.46
241.821	34.13
242.038	52.56
242.255	-19.11
242.472	-17.07
242.689	66.9
242.907	40.28
243.124	-27.31
243.341	19.8
243.558	-10.92
243.775	60.76
243.992	21.85
244.209	17.75
244.426	107.86
244.643	93.52
244.86	-6.83
245.078	-10.92
245.295	17.75
245.512	23.89
245.729	-21.16
245.946	40.28
246.163	79.19
246.38	44.37
246.597	-2.73
246.814	30.04
247.031	23.89
247.248	38.23
247.464	30.04
247.681	23.89
247.898	32.08
248.115	58.71
248.332	-15.02
248.549	107.86
248.766	13.65
248.983	116.05
249.2	-2.73
249.417	25.94
249.633	34.13
249.85	13.65
250.067	62.8
250.284	87.38
250.501	17.75
250.717	75.09
250.934	1.37
251.151	13.65
251.368	-2.73
251.585	38.23
251.801	38.23
252.018	21.85
252.235	21.85
252.451	25.94
252.668	62.8
252.885	40.28
253.102	7.51
253.318	-23.21
253.535	-10.92
253.752	-12.97
253.968	42.32
254.185	-35.5
254.401	-8.87
254.618	15.7
254.835	-43.69
255.051	71
255.268	42.32
255.484	93.52
255.701	40.28
255.917	64.85
256.134	-39.59
256.351	13.65
256.567	34.13
256.784	124.24
257	48.47
257.217	5.46
257.433	-2.73
257.65	-35.5
257.866	34.13
258.082	3.41
258.299	1.37
258.515	68.95
258.732	34.13
258.948	5.46
259.165	-4.78
259.381	30.04
259.597	66.9
259.814	23.89
260.03	15.7
260.246	62.8
260.463	40.28
260.679	50.52
260.895	30.04
261.112	66.9
261.328	-6.83
261.544	3.41
261.761	46.42
261.977	83.28
262.193	-55.98
262.409	23.89
262.626	109.91
262.842	50.52
263.058	87.38
263.274	-10.92
263.49	34.13
263.707	-2.73
263.923	19.8
264.139	-10.92
264.355	27.99
264.571	73.04
264.787	75.09
265.004	-0.68
265.22	54.61
265.436	30.04
265.652	-47.79
265.868	30.04
266.084	-19.11
266.3	19.8
266.516	-6.83
266.732	15.7
266.948	-0.68
267.164	-0.68
267.38	25.94
267.596	60.76
267.812	42.32
268.028	75.09
268.244	32.08
268.46	27.99
268.676	36.18
268.892	32.08
269.108	54.61
269.324	-4.78
269.54	-0.68
269.756	89.43
269.972	68.95
270.188	54.61
270.403	38.23
270.619	81.24
270.835	91.48
271.051	46.42
271.267	-17.07
271.483	17.75
271.698	85.33
271.914	46.42
272.13	-8.87
272.346	25.94
272.562	-10.92
272.777	11.61
272.993	-8.87
273.209	62.8
273.425	5.46
273.64	-17.07
273.856	7.51
274.072	1.37
274.287	54.61
274.503	-17.07
274.719	99.67
274.934	83.28
275.15	-98.99
275.366	-17.07
275.581	-8.87
275.797	64.85
276.012	83.28
276.228	15.7
276.444	81.24
276.659	54.61
276.875	-49.83
277.09	-2.73
277.306	58.71
277.521	30.04
277.737	5.46
277.952	38.23
278.168	9.56
278.383	-10.92
278.599	42.32
278.814	105.81
279.03	-29.35
279.245	3.41
279.461	64.85
279.676	-12.97
279.892	-37.55
280.107	-39.59
280.322	-92.84
280.538	-10.92
280.753	23.89
280.969	9.56
281.184	48.47
281.399	101.72
281.615	60.76
281.83	95.57
282.045	9.56
282.26	-12.97
282.476	1.37
282.691	17.75
282.906	95.57
283.122	71
283.337	9.56
283.552	46.42
283.767	54.61
283.983	21.85
284.198	-27.31
284.413	7.51
284.628	-33.45
284.843	32.08
285.058	-0.68
285.274	21.85
285.489	-10.92
285.704	13.65
285.919	-55.98
286.134	3.41
286.349	50.52
286.564	38.23
286.779	128.34
286.995	-25.26
287.21	46.42
287.425	25.94
287.64	-0.68
287.855	17.75
288.07	68.95
288.285	71
288.5	87.38
288.715	42.32
288.93	1.37
289.145	13.65
289.36	60.76
289.575	38.23
289.79	116.05
290.004	128.34
290.219	15.7
290.434	62.8
290.649	21.85
290.864	-43.69
291.079	-41.64
291.294	89.43
291.509	32.08
291.724	13.65
291.938	5.46
292.153	62.8
292.368	-17.07
292.583	-17.07
292.798	13.65
293.012	62.8
293.227	77.14
293.442	48.47
293.657	21.85
293.871	71
294.086	44.37
294.301	46.42
294.516	54.61
294.73	99.67
294.945	38.23
295.16	-62.12
295.374	-19.11
295.589	34.13
295.804	-68.27
296.018	54.61
296.233	58.71
296.447	30.04
296.662	54.61
296.877	46.42
297.091	19.8
297.306	-8.87
297.52	5.46
297.735	5.46
297.949	25.94
298.164	-10.92
298.378	17.75
298.593	-35.5
298.807	32.08
299.022	-23.21
299.236	120.15
299.451	21.85
299.665	-17.07
299.88	120.15
300.094	-43.69
300.309	46.42
300.523	19.8
300.737	54.61
300.952	34.13
301.166	-15.02
301.381	-101.03
301.595	54.61
301.809	11.61
302.024	13.65
302.238	19.8
302.452	87.38
302.667	71
302.881	62.8
303.095	64.85
303.309	23.89
303.524	25.94
303.738	-33.45
303.952	-8.87
304.166	17.75
304.381	-0.68
304.595	32.08
304.809	66.9
305.023	48.47
305.237	40.28
305.452	7.51
305.666	5.46
305.88	-0.68
306.094	-31.4
306.308	9.56
306.522	30.04
306.736	19.8
306.95	5.46
307.164	54.61
307.379	-2.73
307.593	30.04
307.807	56.66
308.021	60.76
308.235	34.13
308.449	7.51
308.663	-43.69
308.877	32.08
309.091	32.08
309.305	1.37
309.519	-10.92
309.733	64.85
309.947	1.37
310.161	62.8
310.374	25.94
310.588	48.47
310.802	-98.99
311.016	17.75
311.23	64.85
311.444	34.13
311.658	-12.97
311.872	68.95
312.085	30.04
312.299	62.8
312.513	5.46
312.727	60.76
312.941	5.46
313.154	-2.73
313.368	25.94
313.582	1.37
313.796	-39.59
314.009	71
314.223	25.94
314.437	54.61
314.651	56.66
314.864	32.08
315.078	7.51
315.292	77.14
315.505	-10.92
315.719	42.32
315.933	38.23
316.146	79.19
316.36	-17.07
316.573	75.09
316.787	7.51
317.001	36.18
317.214	-39.59
317.428	34.13
317.641	21.85
317.855	34.13
318.068	54.61
318.282	-82.6
318.495	52.56
318.709	152.92
318.922	87.38
319.136	103.76
319.349	66.9
319.563	38.23
319.776	30.04
319.99	50.52
320.203	5.46
320.417	17.75
320.63	75.09
320.843	54.61
321.057	40.28
321.27	56.66
321.483	64.85
321.697	107.86
321.91	62.8
322.124	30.04
322.337	-6.83
322.55	5.46
322.763	23.89
322.977	42.32
323.19	-37.55
323.403	81.24
323.617	-25.26
323.83	66.9
324.043	-10.92
324.256	-15.02
324.469	-15.02
324.683	17.75
324.896	27.99
325.109	120.15
325.322	-6.83
325.535	34.13
325.748	46.42
325.962	71
326.175	32.08
326.388	32.08
326.601	-2.73
326.814	25.94
327.027	7.51
327.24	15.7
327.453	-55.98
327.666	30.04
327.879	56.66
328.092	30.04
328.305	56.66
328.518	7.51
328.731	81.24
328.944	75.09
329.157	-6.83
329.37	54.61
329.583	21.85
329.796	85.33
330.009	-43.69
330.222	48.47
330.435	142.68
330.648	54.61
330.861	-47.79
331.073	-2.73
331.286	5.46
331.499	27.99
331.712	25.94
331.925	30.04
332.138	-21.16
332.35	89.43
332.563	66.9
332.776	114
332.989	13.65
333.202	91.48
333.414	13.65
333.627	21.85
333.84	13.65
334.053	116.05
334.265	46.42
334.478	46.42
334.691	71
334.903	-72.36
335.116	-49.83
335.329	30.04
335.541	159.06
335.754	34.13
335.966	62.8
336.179	81.24
336.392	7.51
336.604	68.95
336.817	83.28
337.029	38.23
337.242	83.28
337.454	-17.07
337.667	120.15
337.88	52.56
338.092	36.18
338.305	36.18
338.517	-10.92
338.729	13.65
338.942	103.76
339.154	-49.83
339.367	-0.68
339.579	89.43
339.792	-4.78
340.004	38.23
340.217	46.42
340.429	75.09
340.641	23.89
340.854	-27.31
341.066	-25.26
341.278	34.13
341.491	42.32
341.703	9.56
341.915	13.65
342.128	25.94
342.34	46.42
342.552	13.65
342.764	66.9
342.977	17.75
343.189	91.48
343.401	46.42
343.613	32.08
343.826	107.86
344.038	30.04
344.25	7.51
344.462	-68.27
344.674	73.04
344.886	1.37
345.099	-4.78
345.311	50.52
345.523	1.37
345.735	58.71
345.947	9.56
346.159	54.61
346.371	71
346.583	44.37
346.795	62.8
347.007	46.42
347.219	-10.92
347.431	77.14
347.643	38.23
347.855	13.65
348.067	122.2
348.279	-8.87
348.491	34.13
348.703	30.04
348.915	9.56
349.127	87.38
349.339	13.65
349.551	30.04
349.763	87.38
349.975	5.46
350.187	97.62
350.399	71
350.61	7.51
350.822	54.61
351.034	73.04
351.246	34.13
351.458	38.23
351.669	21.85
351.881	71
352.093	21.85
352.305	54.61
352.517	30.04
352.728	62.8
352.94	-41.64
353.152	42.32
353.363	54.61
353.575	91.48
353.787	71
353.999	23.89
354.21	48.47
354.422	71
354.633	-19.11
354.845	38.23
355.057	3.41
355.268	-19.11
355.48	30.04
355.692	30.04
355.903	-8.87
356.115	21.85
356.326	-27.31
356.538	30.04
356.749	25.94
356.961	83.28
357.172	38.23
357.384	25.94
357.595	81.24
357.807	71
358.018	120.15
358.23	50.52
358.441	25.94
358.653	111.96
358.864	68.95
359.075	15.7
359.287	71
359.498	52.56
359.709	-23.21
359.921	-33.45
360.132	9.56
360.344	97.62
360.555	62.8
360.766	1.37
360.977	13.65
361.189	66.9
361.4	-33.45
361.611	42.32
361.823	-15.02
362.034	60.76
362.245	68.95
362.456	15.7
362.667	52.56
362.879	-19.11
363.09	79.19
363.301	62.8
363.512	21.85
363.723	50.52
363.935	19.8
364.146	95.57
364.357	-10.92
364.568	58.71
364.779	-23.21
364.99	56.66
365.201	52.56
365.412	87.38
365.623	15.7
365.834	111.96
366.045	116.05
366.256	54.61
366.467	64.85
366.678	-23.21
366.889	32.08
367.1	25.94
367.311	19.8
367.522	13.65
367.733	44.37
367.944	40.28
368.155	68.95
368.366	167.25
368.577	97.62
368.788	62.8
368.999	-49.83
369.209	-2.73
369.42	120.15
369.631	64.85
369.842	87.38
370.053	-6.83
370.264	58.71
370.474	1.37
370.685	54.61
370.896	30.04
371.107	9.56
371.317	-0.68
371.528	54.61
371.739	7.51
371.95	144.72
372.16	111.96
372.371	7.51
372.582	32.08
372.792	122.2
373.003	19.8
373.214	7.51
373.424	44.37
373.635	34.13
373.846	128.34
374.056	13.65
374.267	120.15
374.477	79.19
374.688	68.95
374.898	54.61
375.109	146.77
375.319	46.42
375.53	25.94
375.74	83.28
375.951	42.32
376.161	54.61
376.372	83.28
376.582	46.42
376.793	13.65
377.003	-29.35
377.214	34.13
377.424	32.08
377.635	46.42
377.845	42.32
378.055	97.62
378.266	32.08
378.476	-2.73
378.686	58.71
378.897	32.08
379.107	30.04
379.317	42.32
379.528	19.8
379.738	38.23
379.948	38.23
380.158	34.13
380.369	-2.73
380.579	30.04
380.789	30.04
380.999	103.76
381.21	56.66
381.42	48.47
381.63	50.52
381.84	38.23
382.05	7.51
382.261	95.57
382.471	95.57
382.681	58.71
382.891	54.61
383.101	101.72
383.311	-0.68
383.521	30.04
383.731	66.9
383.941	46.42
384.151	15.7
384.361	-39.59
384.571	-27.31
384.781	116.05
384.991	91.48
385.201	128.34
385.411	93.52
385.621	62.8
385.831	25.94
386.041	54.61
386.251	89.43
386.461	75.09
386.671	66.9
386.881	48.47
387.091	30.04
387.301	-8.87
387.511	66.9
387.72	103.76
387.93	15.7
388.14	79.19
388.35	64.85
388.56	97.62
388.769	83.28
388.979	66.9
389.189	7.51
389.399	40.28
389.609	23.89
389.818	62.8
390.028	13.65
390.238	107.86
390.447	91.48
390.657	48.47
390.867	44.37
391.076	-10.92
391.286	89.43
391.496	46.42
391.705	30.04
391.915	91.48
392.125	87.38
392.334	38.23
392.544	38.23
392.753	87.38
392.963	-2.73
393.172	34.13
393.382	34.13
393.591	103.76
393.801	-25.26
394.01	132.44
394.22	103.76
394.429	71
394.639	66.9
394.848	95.57
395.058	38.23
395.267	105.81
395.477	89.43
395.686	81.24
395.895	146.77
396.105	87.38
396.314	136.53
396.524	30.04
396.733	32.08
396.942	54.61
397.152	146.77
397.361	62.8
397.57	54.61
397.78	13.65
397.989	103.76
398.198	114
398.407	99.67
398.617	105.81
398.826	56.66
399.035	87.38
399.244	68.95
399.453	136.53
399.663	91.48
399.872	138.58
400.081	13.65
400.29	40.28
400.499	157.01
400.708	210.26
400.917	95.57
401.127	75.09
401.336	87.38
401.545	161.11
401.754	193.87
401.963	130.39
402.172	50.52
402.381	161.11
402.59	122.2
402.799	111.96
403.008	206.16
403.217	99.67
403.426	97.62
403.635	103.76
403.844	58.71
404.053	103.76
404.262	34.13
404.471	169.3
404.68	185.68
404.888	148.82
405.097	177.49
405.306	171.35
405.515	107.86
405.724	228.69
405.933	218.45
406.142	157.01
406.35	169.3
406.559	159.06
406.768	173.39
406.977	157.01
407.185	165.2
407.394	283.99
407.603	222.55
407.812	179.54
408.02	226.64
408.229	251.22
408.438	247.12
408.646	171.35
408.855	222.55
409.064	249.17
409.272	277.84
409.481	324.94
409.69	245.07
409.898	259.41
410.107	255.31
410.315	392.53
410.524	302.42
410.733	359.76
410.941	269.65
411.15	308.56
411.358	335.18
411.567	376.14
411.775	341.33
411.984	398.67
412.192	456.01
412.401	400.72
412.609	396.62
412.818	456.01
413.026	392.53
413.234	478.54
413.443	492.88
413.651	451.92
413.86	570.7
414.068	611.66
414.276	669
414.485	556.36
414.693	556.36
414.901	611.66
415.11	628.04
415.318	662.86
415.526	662.86
415.734	785.74
415.943	673.1
416.151	767.31
416.359	677.2
416.567	763.21
416.776	843.08
416.984	892.23
417.192	879.94
417.4	927.05
417.608	877.9
417.817	947.53
418.025	963.91
418.233	1168.71
418.441	1039.69
418.649	1226.05
418.857	1187.14
419.065	1181
419.273	1181
419.481	1207.62
419.689	1285.44
419.897	1297.73
420.105	1359.17
420.313	1326.4
420.521	1547.58
420.729	1473.85
420.937	1496.38
421.145	1594.68
421.353	1684.8
421.561	1684.8
421.769	1824.06
421.977	1887.54
422.185	1924.41
422.393	2020.66
422.601	2159.92
422.809	2121.01
423.017	1969.46
423.224	2145.59
423.432	2209.08
423.64	2331.95
423.848	2522.41
424.056	2397.49
424.263	2594.09
424.471	2661.68
424.679	2745.64
424.887	2755.88
425.094	2706.73
425.302	2909.48
425.51	3028.26
425.718	3085.61
425.925	3071.27
426.133	3323.17
426.341	3482.91
426.548	3564.83
426.756	3519.78
426.964	3659.04
427.171	3853.59
427.379	3994.9
427.586	3888.41
427.794	4035.86
428.001	4248.85
428.209	4371.73
428.417	4371.73
428.624	4529.42
428.832	4828.43
429.039	4711.69
429.247	4627.73
429.454	5037.32
429.662	5596.42
429.869	5115.14
430.076	5453.06
430.284	5448.96
430.491	5539.07
430.699	6067.45
430.906	5913.85
431.114	5887.23
431.321	6274.29
431.528	6249.72
431.736	6552.82
431.943	7034.09
432.15	6692.08
432.358	6782.19
432.565	7036.14
432.772	7050.47
432.979	7564.51
433.187	7746.78
433.394	7699.68
433.601	8142.04
433.808	8344.79
434.016	8037.59
434.223	8426.71
434.43	8957.13
434.637	8965.32
434.844	9485.51
435.052	9659.59
435.259	9532.61
435.466	9688.26
435.673	9473.22
435.88	10179.77
436.087	10640.56
436.294	10839.22
436.501	10400.95
436.708	10808.5
436.915	10935.47
437.122	11402.41
437.329	11549.86
437.537	11971.74
437.743	12090.52
437.95	11816.1
438.157	12551.32
438.364	12969.1
438.571	12973.2
438.778	12905.62
438.985	14161.02
439.192	13427.85
439.399	14019.71
439.606	13800.58
439.813	14484.6
440.02	15201.39
440.227	15176.81
440.433	14883.95
440.64	15619.17
440.847	15291.5
441.054	15553.64
441.261	16585.82
441.467	16741.46
441.674	16888.92
441.881	17378.38
442.088	17470.54
442.294	17175.63
442.501	17757.25
442.708	18015.3
442.914	18908.21
443.121	19600.43
443.328	18936.88
443.534	20124.71
443.741	19774.5
443.948	19364.91
444.154	20966.42
444.361	20657.18
444.568	20958.23
444.774	20880.41
444.981	20821.02
445.187	21734.41
445.394	22748.15
445.6	22756.35
445.807	24706.01
446.013	23340.02
446.22	24245.22
446.426	25097.17
446.633	25199.57
446.839	26225.61
447.046	25017.3
447.252	26297.28
447.459	26700.73
447.665	26391.49
447.871	27417.52
448.078	28398.5
448.284	26960.83
448.491	27816.88
448.697	28771.23
448.903	29371.29
449.11	29375.38
449.316	29006.75
449.522	30088.07
449.728	30428.04
449.935	30567.3
450.141	30827.39
450.347	31665.01
450.553	30636.93
450.76	30888.83
450.966	31683.44
451.172	31409.01
451.378	32588.64
451.584	31748.98
451.791	32619.36
451.997	32453.48
452.203	33000.29
452.409	33133.4
452.615	32801.63
452.821	31867.76
453.027	31382.39
453.233	33092.44
453.44	31556.47
453.646	32064.36
453.852	32340.84
454.058	32787.3
454.264	31845.23
454.47	32584.55
454.676	31581.04
454.882	32879.46
455.088	30012.3
455.294	30540.68
455.5	30724.99
455.705	31255.42
455.911	29926.28
456.117	29375.38
456.323	29152.15
456.529	27532.21
456.735	28814.24
456.941	28042.15
457.147	27382.71
457.352	26733.5
457.558	26518.46
457.764	26387.39
457.97	26057.67
458.176	25261.01
458.381	25566.16
458.587	24159.2
458.793	24247.27
458.999	23090.17
459.204	24777.69
459.41	23933.93
459.616	22555.65
459.821	22631.42
460.027	22488.06
460.233	21986.31
460.438	20861.97
460.644	21081.11
460.85	20364.32
461.055	19887.14
461.261	19794.98
461.466	18461.76
461.672	17689.67
461.878	18848.82
462.083	17957.96
462.289	17640.52
462.494	17429.58
462.7	16503.9
462.905	16180.32
463.111	16753.75
463.316	16757.85
463.522	16376.92
463.727	16399.45
463.932	16178.27
464.138	16266.33
464.343	16256.09
464.549	15701.09
464.754	16139.36
464.959	16284.76
465.165	15946.85
465.37	15252.59
465.575	14898.29
465.781	15475.82
465.986	15467.63
466.191	14963.83
466.397	14603.38
466.602	13956.22
466.807	14439.54
467.012	14513.27
467.218	14490.74
467.423	14341.24
467.628	14539.9
467.833	15070.32
468.038	14357.63
468.244	14042.24
468.449	14716.02
