Data from USB4F104151__127__14-44-01-228.txt Node

Date: Thu Mar 13 14:44:01 EDT 2025
User: louis
Spectrometer: USB4F10415
Trigger mode: 4
Integration Time (sec): 2.000000E-2
Scans to average: 1
Electric dark correction enabled: true
Nonlinearity correction enabled: false
Boxcar width: 0
XAxis mode: Wavelengths
Number of Pixels in Spectrum: 3648
>>>>>Begin Spectral Data<<<<<
178.204	-69.63
178.424	-69.63
178.644	-69.63
178.864	-149.5
179.084	-124.93
179.304	-104.45
179.524	-47.1
179.744	-36.86
179.964	53.25
180.184	43.01
180.404	32.77
180.624	-6.14
180.844	43.01
181.064	-2.05
181.283	30.72
181.503	-18.43
181.723	12.29
181.943	18.43
182.163	43.01
182.383	-34.82
182.602	-16.38
182.822	-6.14
183.042	47.1
183.262	-51.2
183.482	-14.34
183.701	-26.62
183.921	-32.77
184.141	38.91
184.361	38.91
184.58	40.96
184.8	51.2
185.02	53.25
185.239	10.24
185.459	14.34
185.679	14.34
185.898	-86.01
186.118	45.06
186.338	4.1
186.557	34.82
186.777	18.43
186.997	36.86
187.216	10.24
187.436	20.48
187.655	36.86
187.875	65.54
188.095	51.2
188.314	-22.53
188.534	96.25
188.753	-96.25
188.973	67.58
189.192	30.72
189.412	16.38
189.631	26.62
189.851	-2.05
190.07	120.83
190.29	10.24
190.509	10.24
190.729	-28.67
190.948	43.01
191.168	124.93
191.387	43.01
191.607	10.24
191.826	12.29
192.045	45.06
192.265	18.43
192.484	4.1
192.704	77.82
192.923	-14.34
193.142	94.21
193.362	49.15
193.581	86.01
193.8	83.97
194.02	77.82
194.239	16.38
194.458	26.62
194.678	22.53
194.897	36.86
195.116	-12.29
195.335	10.24
195.555	28.67
195.774	77.82
195.993	-69.63
196.212	-53.25
196.432	-20.48
196.651	34.82
196.87	-12.29
197.089	102.4
197.308	28.67
197.528	-12.29
197.747	-6.14
197.966	-49.15
198.185	63.49
198.404	24.58
198.623	71.68
198.842	75.77
199.062	26.62
199.281	28.67
199.5	51.2
199.719	34.82
199.938	53.25
200.157	43.01
200.376	43.01
200.595	8.19
200.814	10.24
201.033	4.1
201.252	16.38
201.471	20.48
201.69	61.44
201.909	94.21
202.128	34.82
202.347	28.67
202.566	-10.24
202.785	28.67
203.004	4.1
203.223	67.58
203.442	34.82
203.661	22.53
203.879	90.11
204.098	38.91
204.317	2.05
204.536	51.2
204.755	-47.1
204.974	38.91
205.193	51.2
205.411	88.06
205.63	-14.34
205.849	45.06
206.068	61.44
206.287	-18.43
206.505	83.97
206.724	71.68
206.943	-2.05
207.162	36.86
207.381	4.1
207.599	10.24
207.818	59.39
208.037	-63.49
208.255	8.19
208.474	10.24
208.693	36.86
208.911	38.91
209.13	55.3
209.349	22.53
209.567	10.24
209.786	28.67
210.005	-4.1
210.223	6.14
210.442	-18.43
210.661	26.62
210.879	43.01
211.098	18.43
211.316	-10.24
211.535	43.01
211.753	2.05
211.972	10.24
212.191	18.43
212.409	10.24
212.628	61.44
212.846	47.1
213.065	12.29
213.283	45.06
213.502	4.1
213.72	14.34
213.938	-43.01
214.157	-6.14
214.375	-18.43
214.594	26.62
214.812	81.92
215.031	-10.24
215.249	30.72
215.467	6.14
215.686	-30.72
215.904	30.72
216.122	92.16
216.341	12.29
216.559	45.06
216.778	22.53
216.996	-18.43
217.214	-6.14
217.432	-75.77
217.651	2.05
217.869	34.82
218.087	45.06
218.306	-53.25
218.524	51.2
218.742	-28.67
218.96	79.87
219.179	-20.48
219.397	-10.24
219.615	63.49
219.833	34.82
220.051	26.62
220.27	98.3
220.488	51.2
220.706	30.72
220.924	-53.25
221.142	-36.86
221.36	-38.91
221.578	63.49
221.796	12.29
222.015	10.24
222.233	10.24
222.451	63.49
222.669	14.34
222.887	59.39
223.105	-36.86
223.323	96.25
223.541	6.14
223.759	34.82
223.977	102.4
224.195	57.34
224.413	38.91
224.631	92.16
224.849	10.24
225.067	102.4
225.285	-24.58
225.503	4.1
225.721	-53.25
225.939	2.05
226.157	4.1
226.375	92.16
226.592	65.54
226.81	26.62
227.028	43.01
227.246	59.39
227.464	2.05
227.682	8.19
227.9	0
228.117	51.2
228.335	-30.72
228.553	43.01
228.771	-38.91
228.989	-10.24
229.206	47.1
229.424	83.97
229.642	43.01
229.86	69.63
230.077	32.77
230.295	32.77
230.513	75.77
230.731	18.43
230.948	34.82
231.166	141.31
231.384	40.96
231.601	10.24
231.819	67.58
232.037	12.29
232.254	4.1
232.472	43.01
232.689	-4.1
232.907	47.1
233.125	0
233.342	100.35
233.56	2.05
233.777	-22.53
233.995	-12.29
234.213	-12.29
234.43	-4.1
234.648	-12.29
234.865	28.67
235.083	67.58
235.3	-40.96
235.518	34.82
235.735	28.67
235.953	116.73
236.17	20.48
236.388	-4.1
236.605	26.62
236.822	94.21
237.04	34.82
237.257	-18.43
237.475	36.86
237.692	18.43
237.909	83.97
238.127	26.62
238.344	30.72
238.562	10.24
238.779	-18.43
238.996	47.1
239.214	-40.96
239.431	83.97
239.648	-59.39
239.865	22.53
240.083	30.72
240.3	36.86
240.517	20.48
240.735	-6.14
240.952	75.77
241.169	59.39
241.386	-26.62
241.603	45.06
241.821	18.43
242.038	0
242.255	102.4
242.472	2.05
242.689	14.34
242.907	34.82
243.124	-6.14
243.341	-18.43
243.558	-67.58
243.775	53.25
243.992	-6.14
244.209	38.91
244.426	92.16
244.643	59.39
244.86	-6.14
245.078	-6.14
245.295	43.01
245.512	20.48
245.729	-18.43
245.946	-22.53
246.163	-8.19
246.38	34.82
246.597	59.39
246.814	12.29
247.031	-2.05
247.248	4.1
247.464	57.34
247.681	-14.34
247.898	-49.15
248.115	-18.43
248.332	-26.62
248.549	81.92
248.766	32.77
248.983	61.44
249.2	26.62
249.417	-6.14
249.633	86.01
249.85	45.06
250.067	36.86
250.284	22.53
250.501	67.58
250.717	51.2
250.934	-61.44
251.151	-20.48
251.368	-30.72
251.585	75.77
251.801	-12.29
252.018	12.29
252.235	92.16
252.451	28.67
252.668	-59.39
252.885	36.86
253.102	32.77
253.318	43.01
253.535	-36.86
253.752	-55.3
253.968	-18.43
254.185	-30.72
254.401	47.1
254.618	-26.62
254.835	2.05
255.051	83.97
255.268	26.62
255.484	75.77
255.701	92.16
255.917	-6.14
256.134	47.1
256.351	47.1
256.567	-4.1
256.784	79.87
257	-28.67
257.217	-2.05
257.433	28.67
257.65	43.01
257.866	112.64
258.082	0
258.299	-6.14
258.515	102.4
258.732	10.24
258.948	-20.48
259.165	22.53
259.381	20.48
259.597	98.3
259.814	-4.1
260.03	6.14
260.246	-2.05
260.463	8.19
260.679	55.3
260.895	-14.34
261.112	2.05
261.328	69.63
261.544	61.44
261.761	88.06
261.977	63.49
262.193	-53.25
262.409	106.49
262.626	53.25
262.842	67.58
263.058	24.58
263.274	79.87
263.49	34.82
263.707	75.77
263.923	67.58
264.139	-14.34
264.355	14.34
264.571	22.53
264.787	-2.05
265.004	79.87
265.22	-51.2
265.436	12.29
265.652	-47.1
265.868	51.2
266.084	4.1
266.3	-10.24
266.516	38.91
266.732	47.1
266.948	96.25
267.164	2.05
267.38	-26.62
267.596	10.24
267.812	92.16
268.028	51.2
268.244	12.29
268.46	88.06
268.676	-53.25
268.892	108.54
269.108	10.24
269.324	-30.72
269.54	63.49
269.756	61.44
269.972	12.29
270.188	83.97
270.403	-18.43
270.619	51.2
270.835	45.06
271.051	10.24
271.267	-30.72
271.483	-36.86
271.698	10.24
271.914	34.82
272.13	12.29
272.346	45.06
272.562	57.34
272.777	83.97
272.993	92.16
273.209	-71.68
273.425	-2.05
273.64	51.2
273.856	83.97
274.072	36.86
274.287	18.43
274.503	-14.34
274.719	104.45
274.934	51.2
275.15	32.77
275.366	18.43
275.581	45.06
275.797	18.43
276.012	-43.01
276.228	-30.72
276.444	-59.39
276.659	120.83
276.875	-22.53
277.09	18.43
277.306	10.24
277.521	-6.14
277.737	10.24
277.952	-45.06
278.168	-18.43
278.383	-4.1
278.599	86.01
278.814	4.1
279.03	18.43
279.245	34.82
279.461	-6.14
279.676	108.54
279.892	-30.72
280.107	102.4
280.322	-22.53
280.538	18.43
280.753	-22.53
280.969	51.2
281.184	26.62
281.399	139.26
281.615	32.77
281.83	-4.1
282.045	-43.01
282.26	-4.1
282.476	-26.62
282.691	59.39
282.906	40.96
283.122	8.19
283.337	69.63
283.552	-2.05
283.767	-18.43
283.983	53.25
284.198	4.1
284.413	55.3
284.628	34.82
284.843	10.24
285.058	-18.43
285.274	67.58
285.489	-38.91
285.704	43.01
285.919	18.43
286.134	-18.43
286.349	10.24
286.564	4.1
286.779	75.77
286.995	18.43
287.21	-71.68
287.425	-6.14
287.64	18.43
287.855	90.11
288.07	22.53
288.285	77.82
288.5	79.87
288.715	0
288.93	-32.77
289.145	-4.1
289.36	2.05
289.575	4.1
289.79	102.4
290.004	71.68
290.219	38.91
290.434	-10.24
290.649	57.34
290.864	-55.3
291.079	59.39
291.294	12.29
291.509	77.82
291.724	-6.14
291.938	10.24
292.153	-20.48
292.368	81.92
292.583	67.58
292.798	77.82
293.012	45.06
293.227	30.72
293.442	-10.24
293.657	38.91
293.871	143.36
294.086	10.24
294.301	26.62
294.516	77.82
294.73	124.93
294.945	-26.62
295.16	51.2
295.374	65.54
295.589	43.01
295.804	-51.2
296.018	-20.48
296.233	129.02
296.447	28.67
296.662	-67.58
296.877	47.1
297.091	-6.14
297.306	83.97
297.52	30.72
297.735	59.39
297.949	38.91
298.164	92.16
298.378	-20.48
298.593	32.77
298.807	-4.1
299.022	20.48
299.236	34.82
299.451	69.63
299.665	71.68
299.88	10.24
300.094	18.43
300.309	0
300.523	77.82
300.737	-40.96
300.952	-30.72
301.166	36.86
301.381	18.43
301.595	67.58
301.809	92.16
302.024	-6.14
302.238	-71.68
302.452	61.44
302.667	4.1
302.881	83.97
303.095	43.01
303.309	4.1
303.524	38.91
303.738	-4.1
303.952	47.1
304.166	14.34
304.381	4.1
304.595	59.39
304.809	-14.34
305.023	45.06
305.237	-10.24
305.452	-26.62
305.666	22.53
305.88	43.01
306.094	34.82
306.308	18.43
306.522	96.25
306.736	94.21
306.95	55.3
307.164	71.68
307.379	75.77
307.593	67.58
307.807	-32.77
308.021	8.19
308.235	-2.05
308.449	-2.05
308.663	26.62
308.877	59.39
309.091	34.82
309.305	10.24
309.519	16.38
309.733	79.87
309.947	-20.48
310.161	22.53
310.374	28.67
310.588	96.25
310.802	-36.86
311.016	10.24
311.23	36.86
311.444	16.38
311.658	55.3
311.872	59.39
312.085	61.44
312.299	71.68
312.513	67.58
312.727	26.62
312.941	-8.19
313.154	-69.63
313.368	38.91
313.582	71.68
313.796	-6.14
314.009	63.49
314.223	26.62
314.437	-4.1
314.651	26.62
314.864	12.29
315.078	-57.34
315.292	-28.67
315.505	20.48
315.719	75.77
315.933	81.92
316.146	-2.05
316.36	38.91
316.573	114.69
316.787	-71.68
317.001	10.24
317.214	69.63
317.428	69.63
317.641	2.05
317.855	67.58
318.068	47.1
318.282	51.2
318.495	71.68
318.709	28.67
318.922	18.43
319.136	77.82
319.349	-30.72
319.563	34.82
319.776	34.82
319.99	61.44
320.203	18.43
320.417	-8.19
320.63	45.06
320.843	77.82
321.057	38.91
321.27	67.58
321.483	10.24
321.697	-38.91
321.91	88.06
322.124	-4.1
322.337	-12.29
322.55	14.34
322.763	43.01
322.977	47.1
323.19	-47.1
323.403	-28.67
323.617	86.01
323.83	43.01
324.043	22.53
324.256	45.06
324.469	-51.2
324.683	112.64
324.896	26.62
325.109	-20.48
325.322	28.67
325.535	20.48
325.748	30.72
325.962	-18.43
326.175	-10.24
326.388	61.44
326.601	86.01
326.814	75.77
327.027	67.58
327.24	88.06
327.453	-55.3
327.666	55.3
327.879	10.24
328.092	59.39
328.305	32.77
328.518	-22.53
328.731	10.24
328.944	26.62
329.157	61.44
329.37	26.62
329.583	129.02
329.796	69.63
330.009	-14.34
330.222	108.54
330.435	-4.1
330.648	38.91
330.861	-10.24
331.073	20.48
331.286	18.43
331.499	67.58
331.712	-22.53
331.925	59.39
332.138	28.67
332.35	98.3
332.563	18.43
332.776	65.54
332.989	67.58
333.202	59.39
333.414	20.48
333.627	53.25
333.84	-18.43
334.053	55.3
334.265	59.39
334.478	34.82
334.691	51.2
334.903	26.62
335.116	86.01
335.329	4.1
335.541	49.15
335.754	104.45
335.966	6.14
336.179	6.14
336.392	77.82
336.604	20.48
336.817	43.01
337.029	55.3
337.242	-10.24
337.454	102.4
337.667	14.34
337.88	94.21
338.092	-2.05
338.305	112.64
338.517	43.01
338.729	36.86
338.942	75.77
339.154	18.43
339.367	0
339.579	53.25
339.792	-53.25
340.004	59.39
340.217	67.58
340.429	10.24
340.641	43.01
340.854	63.49
341.066	6.14
341.278	34.82
341.491	145.41
341.703	34.82
341.915	-49.15
342.128	6.14
342.34	14.34
342.552	20.48
342.764	-20.48
342.977	51.2
343.189	75.77
343.401	43.01
343.613	-30.72
343.826	26.62
344.038	73.73
344.25	34.82
344.462	-10.24
344.674	59.39
344.886	16.38
345.099	94.21
345.311	-10.24
345.523	83.97
345.735	16.38
345.947	63.49
346.159	10.24
346.371	30.72
346.583	22.53
346.795	18.43
347.007	-22.53
347.219	59.39
347.431	-22.53
347.643	-6.14
347.855	-28.67
348.067	71.68
348.279	51.2
348.491	-4.1
348.703	28.67
348.915	28.67
349.127	43.01
349.339	28.67
349.551	4.1
349.763	83.97
349.975	47.1
350.187	59.39
350.399	30.72
350.61	83.97
350.822	59.39
351.034	36.86
351.246	51.2
351.458	43.01
351.669	8.19
351.881	10.24
352.093	100.35
352.305	26.62
352.517	104.45
352.728	20.48
352.94	104.45
353.152	36.86
353.363	-2.05
353.575	14.34
353.787	71.68
353.999	57.34
354.21	-4.1
354.422	-6.14
354.633	6.14
354.845	34.82
355.057	-6.14
355.268	67.58
355.48	10.24
355.692	55.3
355.903	-38.91
356.115	45.06
356.326	-30.72
356.538	43.01
356.749	79.87
356.961	26.62
357.172	-2.05
357.384	-38.91
357.595	79.87
357.807	96.25
358.018	53.25
358.23	108.54
358.441	83.97
358.653	36.86
358.864	26.62
359.075	2.05
359.287	55.3
359.498	126.97
359.709	34.82
359.921	22.53
360.132	34.82
360.344	10.24
360.555	-28.67
360.766	43.01
360.977	94.21
361.189	8.19
361.4	36.86
361.611	10.24
361.823	124.93
362.034	67.58
362.245	59.39
362.456	-6.14
362.667	51.2
362.879	-16.38
363.09	36.86
363.301	112.64
363.512	36.86
363.723	12.29
363.935	18.43
364.146	63.49
364.357	67.58
364.568	51.2
364.779	30.72
364.99	124.93
365.201	8.19
365.412	116.73
365.623	-59.39
365.834	12.29
366.045	40.96
366.256	18.43
366.467	2.05
366.678	-10.24
366.889	14.34
367.1	59.39
367.311	61.44
367.522	-12.29
367.733	67.58
367.944	14.34
368.155	30.72
368.366	59.39
368.577	77.82
368.788	47.1
368.999	-47.1
369.209	108.54
369.42	133.12
369.631	2.05
369.842	34.82
370.053	112.64
370.264	47.1
370.474	10.24
370.685	83.97
370.896	14.34
371.107	61.44
371.317	67.58
371.528	67.58
371.739	18.43
371.95	67.58
372.16	83.97
372.371	-10.24
372.582	26.62
372.792	47.1
373.003	67.58
373.214	75.77
373.424	-12.29
373.635	34.82
373.846	108.54
374.056	61.44
374.267	43.01
374.477	73.73
374.688	0
374.898	55.3
375.109	36.86
375.319	10.24
375.53	61.44
375.74	55.3
375.951	51.2
376.161	4.1
376.372	43.01
376.582	2.05
376.793	81.92
377.003	49.15
377.214	38.91
377.424	-6.14
377.635	98.3
377.845	34.82
378.055	6.14
378.266	6.14
378.476	-38.91
378.686	26.62
378.897	77.82
379.107	110.59
379.317	98.3
379.528	26.62
379.738	55.3
379.948	81.92
380.158	10.24
380.369	-79.87
380.579	61.44
380.789	-22.53
380.999	75.77
381.21	63.49
381.42	141.31
381.63	26.62
381.84	112.64
382.05	100.35
382.261	88.06
382.471	77.82
382.681	28.67
382.891	0
383.101	24.58
383.311	-47.1
383.521	63.49
383.731	73.73
383.941	102.4
384.151	18.43
384.361	8.19
384.571	34.82
384.781	-55.3
384.991	55.3
385.201	106.49
385.411	94.21
385.621	4.1
385.831	14.34
386.041	34.82
386.251	57.34
386.461	6.14
386.671	36.86
386.881	67.58
387.091	110.59
387.301	-4.1
387.511	36.86
387.72	51.2
387.93	67.58
388.14	59.39
388.35	10.24
388.56	86.01
388.769	92.16
388.979	110.59
389.189	43.01
389.399	-6.14
389.609	145.41
389.818	98.3
390.028	98.3
390.238	77.82
390.447	100.35
390.657	69.63
390.867	12.29
391.076	55.3
391.286	63.49
391.496	40.96
391.705	28.67
391.915	133.12
392.125	131.07
392.334	110.59
392.544	98.3
392.753	104.45
392.963	-6.14
393.172	124.93
393.382	116.73
393.591	141.31
393.801	61.44
394.01	129.02
394.22	61.44
394.429	96.25
394.639	104.45
394.848	59.39
395.058	137.21
395.267	38.91
395.477	83.97
395.686	59.39
395.895	161.79
396.105	59.39
396.314	40.96
396.524	53.25
396.733	61.44
396.942	26.62
397.152	43.01
397.361	143.36
397.57	116.73
397.78	102.4
397.989	102.4
398.198	165.89
398.407	75.77
398.617	149.5
398.826	22.53
399.035	131.07
399.244	151.55
399.453	36.86
399.663	137.21
399.872	92.16
400.081	59.39
400.29	110.59
400.499	18.43
400.708	194.56
400.917	69.63
401.127	108.54
401.336	120.83
401.545	118.78
401.754	116.73
401.963	151.55
402.172	73.73
402.381	149.5
402.59	118.78
402.799	139.26
403.008	63.49
403.217	178.17
403.426	135.17
403.635	49.15
403.844	112.64
404.053	71.68
404.262	124.93
404.471	249.85
404.68	83.97
404.888	118.78
405.097	188.41
405.306	157.69
405.515	182.27
405.724	157.69
405.933	139.26
406.142	212.99
406.35	190.46
406.559	231.42
406.768	108.54
406.977	202.75
407.185	157.69
407.394	165.89
407.603	153.6
407.812	192.51
408.02	251.9
408.229	194.56
408.438	245.76
408.646	192.51
408.855	253.95
409.064	217.08
409.272	260.09
409.481	339.96
409.69	299
409.898	296.96
410.107	296.96
410.315	241.66
410.524	337.91
410.733	362.49
410.941	272.38
411.15	325.63
411.358	399.35
411.567	452.6
411.775	417.79
411.984	403.45
412.192	452.6
412.401	454.65
412.609	460.79
412.818	411.64
413.026	501.75
413.234	534.52
413.443	520.18
413.651	514.04
413.86	604.15
414.068	526.33
414.276	618.49
414.485	636.92
414.693	714.74
414.901	731.12
415.11	765.94
415.318	755.7
415.526	710.65
415.734	792.56
415.943	804.85
416.151	845.81
416.359	841.72
416.567	815.09
416.776	970.74
416.984	903.15
417.192	1050.61
417.4	890.87
417.608	890.87
417.817	993.26
418.025	1103.86
418.233	1210.35
418.441	1126.38
418.649	1173.49
418.857	1230.83
419.065	1306.6
419.273	1218.54
419.481	1308.65
419.689	1404.91
419.897	1464.3
420.105	1517.54
420.313	1460.2
420.521	1671.14
420.729	1644.52
420.937	1660.9
421.145	1742.82
421.353	1818.6
421.561	1943.52
421.769	1935.33
421.977	2148.32
422.185	2000.87
422.393	2181.09
422.601	2232.29
422.809	2271.2
423.017	2314.2
423.224	2306.01
423.432	2475.99
423.64	2443.23
423.848	2672.6
424.056	2656.22
424.263	2861.01
424.471	2795.48
424.679	2969.55
424.887	3092.43
425.094	3135.44
425.302	3246.03
425.51	3278.8
425.718	3405.77
425.925	3321.81
426.133	3647.43
426.341	3880.9
426.548	3905.48
426.756	4040.64
426.964	3872.71
427.171	4059.07
427.379	4368.32
427.586	4327.36
427.794	4370.37
428.001	4634.55
428.209	4847.54
428.417	4845.49
428.624	4970.42
428.832	5207.98
429.039	5226.42
429.247	5097.39
429.454	5541.8
429.662	5785.51
429.869	5588.91
430.076	5810.09
430.284	5912.49
430.491	5965.73
430.699	6191.01
430.906	6340.51
431.114	6461.34
431.321	6838.17
431.528	6975.38
431.736	7280.53
431.943	7638.92
432.15	7393.17
432.358	7432.08
432.565	7821.19
432.772	7800.71
432.979	8433.54
433.187	8333.18
433.394	8398.72
433.601	9088.89
433.808	9172.85
434.016	9277.3
434.223	9348.98
434.43	10041.19
434.637	9570.16
434.844	10327.91
435.052	10432.35
435.259	10438.5
435.466	10626.91
435.673	10643.29
435.88	11030.36
436.087	11687.76
436.294	11777.87
436.501	11509.58
436.708	11538.26
436.915	12117.83
437.122	12621.63
437.329	12525.38
437.537	13057.85
437.743	13135.67
437.95	12961.59
438.157	13625.14
438.364	14325.54
438.571	14044.97
438.778	14442.28
438.985	15585.04
439.192	14739.23
439.399	15247.13
439.606	14858.01
439.813	15838.99
440.02	16961.28
440.227	16578.31
440.433	16295.69
440.64	17010.43
440.847	16922.37
441.054	17116.92
441.261	18589.41
441.467	18226.92
441.674	18362.09
441.881	19207.9
442.088	19359.45
442.294	18769.63
442.501	19511
442.708	19904.21
442.914	20483.78
443.121	21622.45
443.328	20909.76
443.534	22380.2
443.741	21782.2
443.948	21333.69
444.154	22908.58
444.361	22824.61
444.568	22757.03
444.774	22957.73
444.981	23199.39
445.187	23950.99
445.394	24839.81
445.6	24505.99
445.807	27184.74
446.013	25869.94
446.22	26027.63
446.426	27489.88
446.633	27702.87
446.839	28466.77
447.046	27121.25
447.252	28757.58
447.459	28966.47
447.665	28593.74
447.871	29793.85
448.078	31292.96
448.284	29656.64
448.491	30334.51
448.697	31852.06
448.903	32198.16
449.11	32648.72
449.316	31942.17
449.522	32484.88
449.728	33123.85
449.935	33582.59
450.141	33631.74
450.347	34536.94
450.553	33164.81
450.76	33590.78
450.966	35171.82
451.172	34242.04
451.378	35519.97
451.584	34530.8
451.791	35378.66
451.997	35382.76
452.203	35847.64
452.409	36048.35
452.615	35843.55
452.821	34647.54
453.027	33918.46
453.233	36117.98
453.44	34747.89
453.646	35225.06
453.852	35274.21
454.058	35765.73
454.264	34807.28
454.47	35669.47
454.676	34835.95
454.882	35931.61
455.088	32777.74
455.294	33345.03
455.5	34135.54
455.705	34123.26
455.911	32908.81
456.117	32349.71
456.323	31659.55
456.529	29988.41
456.735	31508
456.941	30420.53
457.147	30387.76
457.352	29357.63
457.558	29003.33
457.764	29263.43
457.97	28730.95
458.176	28241.49
458.381	27803.22
458.587	26617.45
458.793	26482.28
458.999	25300.61
459.204	27119.2
459.41	26224.24
459.616	24716.93
459.821	24573.58
460.027	24518.28
460.233	23924.37
460.438	23019.17
460.644	23123.62
460.85	22222.51
461.055	21825.2
461.261	21626.55
461.466	19898.06
461.672	19594.96
461.878	20731.59
462.083	19779.28
462.289	18974.43
462.494	18722.53
462.7	18212.59
462.905	17837.81
463.111	18392.81
463.316	18067.18
463.522	17936.11
463.727	18044.65
463.932	17905.39
464.138	17696.5
464.343	17860.34
464.549	17256.18
464.754	17993.45
464.959	17579.76
465.165	17585.91
465.37	16623.36
465.575	16234.25
465.781	16815.87
465.986	17137.4
466.191	16420.61
466.397	16217.86
466.602	15384.34
466.807	15943.44
467.012	16051.98
467.218	15697.68
467.423	15652.63
467.628	15662.86
467.833	16596.74
