Data from USB4F104151__123__14-43-57-769.txt Node

Date: Thu Mar 13 14:43:57 EDT 2025
User: louis
Spectrometer: USB4F10415
Trigger mode: 4
Integration Time (sec): 2.000000E-2
Scans to average: 1
Electric dark correction enabled: true
Nonlinearity correction enabled: false
Boxcar width: 0
XAxis mode: Wavelengths
Number of Pixels in Spectrum: 3648
>>>>>Begin Spectral Data<<<<<
178.204	-151.04
178.424	-151.04
178.644	-151.04
178.864	-138.75
179.084	-99.84
179.304	-22.02
179.524	-54.78
179.744	6.66
179.964	37.38
180.184	39.42
180.404	-34.3
180.624	88.57
180.844	-34.3
181.064	-5.63
181.283	-38.4
181.503	12.8
181.723	4.61
181.943	10.75
182.163	117.25
182.383	18.94
182.602	10.75
182.822	80.38
183.042	-1.54
183.262	-1.54
183.482	18.94
183.701	51.71
183.921	-1.54
184.141	4.61
184.361	37.38
184.58	35.33
184.8	27.14
185.02	-26.11
185.239	57.86
185.459	18.94
185.679	113.15
185.898	45.57
186.118	29.18
186.338	88.57
186.557	68.09
186.777	35.33
186.997	-13.82
187.216	55.81
187.436	68.09
187.655	-5.63
187.875	37.38
188.095	37.38
188.314	29.18
188.534	37.38
188.753	4.61
188.973	-3.58
189.192	39.42
189.412	25.09
189.631	119.29
189.851	-24.06
190.07	29.18
190.29	-24.06
190.509	-17.92
190.729	39.42
190.948	47.62
191.168	100.86
191.387	10.75
191.607	-13.82
191.826	84.48
192.045	18.94
192.265	-26.11
192.484	31.23
192.704	45.57
192.923	-1.54
193.142	12.8
193.362	-19.97
193.581	88.57
193.8	45.57
194.02	92.67
194.239	35.33
194.458	51.71
194.678	23.04
194.897	-17.92
195.116	61.95
195.335	94.72
195.555	39.42
195.774	94.72
195.993	-36.35
196.212	14.85
196.432	-13.82
196.651	72.19
196.87	8.7
197.089	68.09
197.308	94.72
197.528	51.71
197.747	-17.92
197.966	-9.73
198.185	66.05
198.404	43.52
198.623	-11.78
198.842	119.29
199.062	43.52
199.281	64
199.5	27.14
199.719	2.56
199.938	18.94
200.157	96.77
200.376	2.56
200.595	4.61
200.814	-28.16
201.033	68.09
201.252	59.9
201.471	70.14
201.69	70.14
201.909	18.94
202.128	27.14
202.347	-15.87
202.566	27.14
202.785	4.61
203.004	35.33
203.223	45.57
203.442	88.57
203.661	-17.92
203.879	31.23
204.098	20.99
204.317	23.04
204.536	35.33
204.755	61.95
204.974	35.33
205.193	59.9
205.411	76.29
205.63	8.7
205.849	76.29
206.068	51.71
206.287	43.52
206.505	92.67
206.724	47.62
206.943	53.76
207.162	92.67
207.381	29.18
207.599	43.52
207.818	74.24
208.037	-5.63
208.255	12.8
208.474	2.56
208.693	20.99
208.911	25.09
209.13	20.99
209.349	23.04
209.567	82.43
209.786	100.86
210.005	135.68
210.223	10.75
210.442	-5.63
210.661	14.85
210.879	47.62
211.098	-13.82
211.316	70.14
211.535	84.48
211.753	76.29
211.972	86.53
212.191	78.33
212.409	16.9
212.628	41.47
212.846	-13.82
213.065	25.09
213.283	84.48
213.502	-5.63
213.72	64
213.938	27.14
214.157	29.18
214.375	10.75
214.594	82.43
214.812	68.09
215.031	-17.92
215.249	-22.02
215.467	18.94
215.686	18.94
215.904	43.52
216.122	20.99
216.341	76.29
216.559	76.29
216.778	100.86
216.996	-44.54
217.214	18.94
217.432	68.09
217.651	70.14
217.869	-13.82
218.087	14.85
218.306	18.94
218.524	141.82
218.742	41.47
218.96	59.9
219.179	18.94
219.397	41.47
219.615	217.6
219.833	35.33
220.051	-58.88
220.27	84.48
220.488	84.48
220.706	37.38
220.924	27.14
221.142	51.71
221.36	59.9
221.578	43.52
221.796	53.76
222.015	-26.11
222.233	35.33
222.451	84.48
222.669	96.77
222.887	18.94
223.105	-30.21
223.323	-28.16
223.541	12.8
223.759	20.99
223.977	68.09
224.195	35.33
224.413	45.57
224.631	70.14
224.849	100.86
225.067	76.29
225.285	-54.78
225.503	-26.11
225.721	37.38
225.939	76.29
226.157	31.23
226.375	113.15
226.592	2.56
226.81	29.18
227.028	111.1
227.246	51.71
227.464	-22.02
227.682	51.71
227.9	61.95
228.117	84.48
228.335	39.42
228.553	37.38
228.771	10.75
228.989	33.28
229.206	35.33
229.424	92.67
229.642	68.09
229.86	90.62
230.077	-19.97
230.295	-13.82
230.513	76.29
230.731	29.18
230.948	76.29
231.166	70.14
231.384	27.14
231.601	39.42
231.819	78.33
232.037	-5.63
232.254	-60.93
232.472	104.96
232.689	100.86
232.907	31.23
233.125	74.24
233.342	35.33
233.56	43.52
233.777	-26.11
233.995	61.95
234.213	57.86
234.43	18.94
234.648	31.23
234.865	-19.97
235.083	18.94
235.3	47.62
235.518	80.38
235.735	59.9
235.953	53.76
236.17	29.18
236.388	6.66
236.605	-9.73
236.822	37.38
237.04	104.96
237.257	45.57
237.475	-48.64
237.692	29.18
237.909	39.42
238.127	23.04
238.344	4.61
238.562	35.33
238.779	-44.54
238.996	12.8
239.214	-52.74
239.431	90.62
239.648	37.38
239.865	59.9
240.083	31.23
240.3	14.85
240.517	72.19
240.735	55.81
240.952	76.29
241.169	88.57
241.386	59.9
241.603	14.85
241.821	-1.54
242.038	88.57
242.255	135.68
242.472	20.99
242.689	59.9
242.907	68.09
243.124	68.09
243.341	98.81
243.558	49.66
243.775	-54.78
243.992	4.61
244.209	45.57
244.426	82.43
244.643	125.44
244.86	-30.21
245.078	51.71
245.295	31.23
245.512	59.9
245.729	-19.97
245.946	43.52
246.163	12.8
246.38	10.75
246.597	47.62
246.814	68.09
247.031	-65.02
247.248	45.57
247.464	-13.82
247.681	29.18
247.898	35.33
248.115	53.76
248.332	43.52
248.549	76.29
248.766	160.25
248.983	78.33
249.2	45.57
249.417	6.66
249.633	109.05
249.85	35.33
250.067	-36.35
250.284	68.09
250.501	53.76
250.717	68.09
250.934	-58.88
251.151	25.09
251.368	39.42
251.585	16.9
251.801	53.76
252.018	-11.78
252.235	39.42
252.451	-42.5
252.668	14.85
252.885	43.52
253.102	18.94
253.318	49.66
253.535	55.81
253.752	-60.93
253.968	45.57
254.185	76.29
254.401	37.38
254.618	-1.54
254.835	31.23
255.051	10.75
255.268	72.19
255.484	76.29
255.701	-46.59
255.917	61.95
256.134	-11.78
256.351	100.86
256.567	-11.78
256.784	92.67
257	41.47
257.217	78.33
257.433	64
257.65	-19.97
257.866	4.61
258.082	100.86
258.299	39.42
258.515	94.72
258.732	57.86
258.948	76.29
259.165	49.66
259.381	29.18
259.597	-30.21
259.814	16.9
260.03	80.38
260.246	16.9
260.463	35.33
260.679	88.57
260.895	45.57
261.112	45.57
261.328	37.38
261.544	35.33
261.761	100.86
261.977	10.75
262.193	-1.54
262.409	84.48
262.626	39.42
262.842	53.76
263.058	14.85
263.274	76.29
263.49	37.38
263.707	53.76
263.923	94.72
264.139	-28.16
264.355	100.86
264.571	109.05
264.787	39.42
265.004	129.53
265.22	55.81
265.436	-22.02
265.652	6.66
265.868	41.47
266.084	-1.54
266.3	2.56
266.516	45.57
266.732	57.86
266.948	53.76
267.164	-7.68
267.38	133.63
267.596	109.05
267.812	76.29
268.028	102.91
268.244	-44.54
268.46	76.29
268.676	45.57
268.892	49.66
269.108	41.47
269.324	29.18
269.54	43.52
269.756	-28.16
269.972	-11.78
270.188	-26.11
270.403	-13.82
270.619	33.28
270.835	61.95
271.051	23.04
271.267	84.48
271.483	39.42
271.698	59.9
271.914	-17.92
272.13	74.24
272.346	18.94
272.562	68.09
272.777	109.05
272.993	43.52
273.209	51.71
273.425	12.8
273.64	6.66
273.856	84.48
274.072	86.53
274.287	92.67
274.503	84.48
274.719	-13.82
274.934	96.77
275.15	31.23
275.366	18.94
275.581	23.04
275.797	102.91
276.012	-1.54
276.228	72.19
276.444	18.94
276.659	47.62
276.875	33.28
277.09	41.47
277.306	39.42
277.521	68.09
277.737	-5.63
277.952	53.76
278.168	10.75
278.383	43.52
278.599	86.53
278.814	166.4
279.03	23.04
279.245	84.48
279.461	55.81
279.676	80.38
279.892	10.75
280.107	43.52
280.322	-15.87
280.538	55.81
280.753	-52.74
280.969	104.96
281.184	-5.63
281.399	88.57
281.615	-19.97
281.83	2.56
282.045	27.14
282.26	-17.92
282.476	-58.88
282.691	166.4
282.906	31.23
283.122	-30.21
283.337	-11.78
283.552	90.62
283.767	18.94
283.983	84.48
284.198	59.9
284.413	43.52
284.628	-34.3
284.843	55.81
285.058	92.67
285.274	33.28
285.489	20.99
285.704	76.29
285.919	-28.16
286.134	47.62
286.349	47.62
286.564	43.52
286.779	33.28
286.995	78.33
287.21	-34.3
287.425	43.52
287.64	-13.82
287.855	68.09
288.07	-5.63
288.285	51.71
288.5	43.52
288.715	135.68
288.93	2.56
289.145	33.28
289.36	72.19
289.575	76.29
289.79	90.62
290.004	70.14
290.219	68.09
290.434	-17.92
290.649	76.29
290.864	-9.73
291.079	-13.82
291.294	-9.73
291.509	18.94
291.724	29.18
291.938	78.33
292.153	68.09
292.368	20.99
292.583	61.95
292.798	102.91
293.012	35.33
293.227	12.8
293.442	35.33
293.657	35.33
293.871	121.34
294.086	43.52
294.301	162.3
294.516	18.94
294.73	104.96
294.945	-54.78
295.16	23.04
295.374	51.71
295.589	117.25
295.804	29.18
296.018	14.85
296.233	25.09
296.447	84.48
296.662	31.23
296.877	66.05
297.091	59.9
297.306	59.9
297.52	14.85
297.735	35.33
297.949	-28.16
298.164	20.99
298.378	59.9
298.593	37.38
298.807	29.18
299.022	12.8
299.236	10.75
299.451	64
299.665	109.05
299.88	-22.02
300.094	27.14
300.309	53.76
300.523	20.99
300.737	20.99
300.952	51.71
301.166	53.76
301.381	8.7
301.595	4.61
301.809	-42.5
302.024	14.85
302.238	29.18
302.452	45.57
302.667	76.29
302.881	61.95
303.095	84.48
303.309	31.23
303.524	-3.58
303.738	35.33
303.952	-5.63
304.166	27.14
304.381	8.7
304.595	92.67
304.809	59.9
305.023	96.77
305.237	59.9
305.452	51.71
305.666	57.86
305.88	90.62
306.094	76.29
306.308	59.9
306.522	4.61
306.736	51.71
306.95	47.62
307.164	-34.3
307.379	31.23
307.593	94.72
307.807	20.99
308.021	29.18
308.235	47.62
308.449	-44.54
308.663	20.99
308.877	125.44
309.091	39.42
309.305	2.56
309.519	35.33
309.733	72.19
309.947	64
310.161	2.56
310.374	35.33
310.588	35.33
310.802	18.94
311.016	47.62
311.23	29.18
311.444	18.94
311.658	10.75
311.872	78.33
312.085	96.77
312.299	92.67
312.513	66.05
312.727	84.48
312.941	10.75
313.154	94.72
313.368	2.56
313.582	10.75
313.796	55.81
314.009	55.81
314.223	4.61
314.437	45.57
314.651	109.05
314.864	-5.63
315.078	18.94
315.292	68.09
315.505	51.71
315.719	100.86
315.933	4.61
316.146	68.09
316.36	-58.88
316.573	59.9
316.787	92.67
317.001	94.72
317.214	-19.97
317.428	43.52
317.641	80.38
317.855	43.52
318.068	-1.54
318.282	160.25
318.495	102.91
318.709	45.57
318.922	-13.82
319.136	12.8
319.349	86.53
319.563	31.23
319.776	2.56
319.99	47.62
320.203	82.43
320.417	10.75
320.63	-17.92
320.843	102.91
321.057	111.1
321.27	12.8
321.483	51.71
321.697	29.18
321.91	78.33
322.124	35.33
322.337	-9.73
322.55	43.52
322.763	39.42
322.977	-5.63
323.19	-13.82
323.403	35.33
323.617	23.04
323.83	18.94
324.043	61.95
324.256	92.67
324.469	2.56
324.683	43.52
324.896	25.09
325.109	53.76
325.322	39.42
325.535	104.96
325.748	70.14
325.962	6.66
326.175	33.28
326.388	72.19
326.601	14.85
326.814	94.72
327.027	10.75
327.24	55.81
327.453	18.94
327.666	74.24
327.879	-9.73
328.092	80.38
328.305	51.71
328.518	20.99
328.731	-5.63
328.944	111.1
329.157	47.62
329.37	43.52
329.583	100.86
329.796	51.71
330.009	31.23
330.222	-5.63
330.435	102.91
330.648	80.38
330.861	61.95
331.073	-11.78
331.286	6.66
331.499	8.7
331.712	18.94
331.925	29.18
332.138	100.86
332.35	96.77
332.563	102.91
332.776	109.05
332.989	39.42
333.202	-19.97
333.414	14.85
333.627	37.38
333.84	27.14
334.053	10.75
334.265	20.99
334.478	61.95
334.691	68.09
334.903	-1.54
335.116	35.33
335.329	12.8
335.541	-13.82
335.754	37.38
335.966	18.94
336.179	18.94
336.392	-38.4
336.604	-30.21
336.817	37.38
337.029	29.18
337.242	20.99
337.454	64
337.667	109.05
337.88	76.29
338.092	31.23
338.305	78.33
338.517	18.94
338.729	78.33
338.942	-38.4
339.154	-38.4
339.367	59.9
339.579	43.52
339.792	68.09
340.004	45.57
340.217	16.9
340.429	84.48
340.641	2.56
340.854	-13.82
341.066	-17.92
341.278	68.09
341.491	127.49
341.703	156.16
341.915	-3.58
342.128	68.09
342.34	20.99
342.552	64
342.764	14.85
342.977	70.14
343.189	104.96
343.401	39.42
343.613	2.56
343.826	-13.82
344.038	-52.74
344.25	-17.92
344.462	-42.5
344.674	-34.3
344.886	-11.78
345.099	29.18
345.311	100.86
345.523	55.81
345.735	8.7
345.947	-34.3
346.159	35.33
346.371	-1.54
346.583	14.85
346.795	111.1
347.007	68.09
347.219	47.62
347.431	8.7
347.643	59.9
347.855	-22.02
348.067	53.76
348.279	23.04
348.491	51.71
348.703	119.29
348.915	84.48
349.127	-7.68
349.339	51.71
349.551	70.14
349.763	113.15
349.975	18.94
350.187	8.7
350.399	102.91
350.61	18.94
350.822	64
351.034	18.94
351.246	-7.68
351.458	12.8
351.669	76.29
351.881	39.42
352.093	61.95
352.305	41.47
352.517	82.43
352.728	92.67
352.94	68.09
353.152	113.15
353.363	10.75
353.575	47.62
353.787	86.53
353.999	18.94
354.21	-9.73
354.422	111.1
354.633	70.14
354.845	102.91
355.057	55.81
355.268	123.39
355.48	57.86
355.692	10.75
355.903	66.05
356.115	23.04
356.326	-52.74
356.538	94.72
356.749	92.67
356.961	109.05
357.172	-46.59
357.384	-22.02
357.595	61.95
357.807	-26.11
358.018	12.8
358.23	-13.82
358.441	121.34
358.653	72.19
358.864	29.18
359.075	59.9
359.287	43.52
359.498	94.72
359.709	20.99
359.921	72.19
360.132	158.21
360.344	84.48
360.555	45.57
360.766	92.67
360.977	43.52
361.189	45.57
361.4	47.62
361.611	125.44
361.823	4.61
362.034	104.96
362.245	4.61
362.456	117.25
362.667	59.9
362.879	68.09
363.09	-13.82
363.301	92.67
363.512	-26.11
363.723	23.04
363.935	18.94
364.146	18.94
364.357	14.85
364.568	113.15
364.779	14.85
364.99	45.57
365.201	55.81
365.412	23.04
365.623	-3.58
365.834	76.29
366.045	80.38
366.256	12.8
366.467	55.81
366.678	35.33
366.889	84.48
367.1	51.71
367.311	55.81
367.522	-1.54
367.733	78.33
367.944	43.52
368.155	39.42
368.366	59.9
368.577	43.52
368.788	84.48
368.999	12.8
369.209	61.95
369.42	94.72
369.631	117.25
369.842	-1.54
370.053	68.09
370.264	49.66
370.474	2.56
370.685	-1.54
370.896	64
371.107	14.85
371.317	18.94
371.528	35.33
371.739	70.14
371.95	78.33
372.16	37.38
372.371	-38.4
372.582	23.04
372.792	84.48
373.003	47.62
373.214	8.7
373.424	59.9
373.635	45.57
373.846	70.14
374.056	35.33
374.267	70.14
374.477	43.52
374.688	70.14
374.898	27.14
375.109	14.85
375.319	84.48
375.53	135.68
375.74	80.38
375.951	25.09
376.161	33.28
376.372	96.77
376.582	35.33
376.793	35.33
377.003	94.72
377.214	76.29
377.424	92.67
377.635	45.57
377.845	-5.63
378.055	59.9
378.266	6.66
378.476	-13.82
378.686	61.95
378.897	39.42
379.107	94.72
379.317	12.8
379.528	59.9
379.738	35.33
379.948	25.09
380.158	92.67
380.369	88.57
380.579	133.63
380.789	39.42
380.999	98.81
381.21	78.33
381.42	121.34
381.63	29.18
381.84	127.49
382.05	27.14
382.261	20.99
382.471	98.81
382.681	41.47
382.891	113.15
383.101	107.01
383.311	-38.4
383.521	53.76
383.731	47.62
383.941	100.86
384.151	29.18
384.361	-15.87
384.571	86.53
384.781	111.1
384.991	80.38
385.201	29.18
385.411	109.05
385.621	-19.97
385.831	117.25
386.041	166.4
386.251	43.52
386.461	129.53
386.671	59.9
386.881	12.8
387.091	29.18
387.301	76.29
387.511	23.04
387.72	59.9
387.93	23.04
388.14	72.19
388.35	80.38
388.56	37.38
388.769	51.71
388.979	72.19
389.189	-19.97
389.399	6.66
389.609	57.86
389.818	18.94
390.028	86.53
390.238	18.94
390.447	88.57
390.657	76.29
390.867	76.29
391.076	70.14
391.286	84.48
391.496	29.18
391.705	14.85
391.915	49.66
392.125	82.43
392.334	16.9
392.544	94.72
392.753	125.44
392.963	0.51
393.172	168.45
393.382	53.76
393.591	162.3
393.801	43.52
394.01	113.15
394.22	18.94
394.429	43.52
394.639	10.75
394.848	47.62
395.058	80.38
395.267	61.95
395.477	84.48
395.686	80.38
395.895	129.53
396.105	137.73
396.314	59.9
396.524	102.91
396.733	68.09
396.942	139.77
397.152	82.43
397.361	47.62
397.57	117.25
397.78	80.38
397.989	135.68
398.198	119.29
398.407	84.48
398.617	117.25
398.826	125.44
399.035	109.05
399.244	94.72
399.453	178.69
399.663	49.66
399.872	92.67
400.081	33.28
400.29	72.19
400.499	102.91
400.708	137.73
400.917	61.95
401.127	45.57
401.336	61.95
401.545	82.43
401.754	193.02
401.963	59.9
402.172	84.48
402.381	39.42
402.59	141.82
402.799	193.02
403.008	102.91
403.217	129.53
403.426	145.92
403.635	123.39
403.844	70.14
404.053	59.9
404.262	150.01
404.471	68.09
404.68	150.01
404.888	78.33
405.097	133.63
405.306	166.4
405.515	127.49
405.724	100.86
405.933	145.92
406.142	135.68
406.35	223.74
406.559	141.82
406.768	133.63
406.977	190.97
407.185	193.02
407.394	137.73
407.603	143.87
407.812	168.45
408.02	174.59
408.229	242.17
408.438	158.21
408.646	158.21
408.855	129.53
409.064	268.8
409.272	213.5
409.481	182.78
409.69	242.17
409.898	258.56
410.107	258.56
410.315	293.37
410.524	299.52
410.733	291.32
410.941	240.12
411.15	313.85
411.358	360.95
411.567	408.06
411.775	326.14
411.984	340.47
412.192	406.01
412.401	379.39
412.609	506.36
412.818	494.07
413.026	375.29
413.234	436.73
413.443	414.2
413.651	420.35
413.86	559.61
414.068	571.9
414.276	516.6
414.485	485.88
414.693	612.85
414.901	580.09
415.11	586.23
415.318	612.85
415.526	623.09
415.734	707.06
415.943	674.29
416.151	725.49
416.359	748.02
416.567	748.02
416.776	846.32
416.984	870.9
417.192	793.08
417.4	823.8
417.608	924.15
417.817	879.09
418.025	924.15
418.233	977.39
418.441	920.05
418.649	1034.74
418.857	1034.74
419.065	1116.65
419.273	1100.27
419.481	1198.57
419.689	1159.66
419.897	1231.34
420.105	1305.07
420.313	1298.92
420.521	1309.16
420.729	1374.7
420.937	1378.79
421.145	1567.21
421.353	1559.02
421.561	1585.64
421.769	1595.88
421.977	1663.46
422.185	1751.53
422.393	1882.6
422.601	1901.03
422.809	1870.31
423.017	1984.99
423.224	2009.57
423.432	2124.26
423.64	2171.36
423.848	2343.39
424.056	2185.69
424.263	2333.15
424.471	2445.79
424.679	2468.31
424.887	2580.95
425.094	2542.04
425.302	2570.71
425.51	2707.93
425.718	2781.65
425.925	2908.63
426.133	2951.63
426.341	3076.56
426.548	3312.08
426.756	3258.83
426.964	3363.28
427.171	3451.34
427.379	3596.75
427.586	3693
427.794	3746.25
428.001	3977.67
428.209	4190.66
428.417	3901.89
428.624	4413.88
428.832	4149.7
429.039	4286.91
429.247	4323.77
429.454	4512.19
429.662	4897.21
429.869	4602.3
430.076	4942.26
430.284	4819.38
430.491	5018.04
430.699	5335.47
430.906	5331.37
431.114	5351.85
431.321	5452.2
431.528	5712.3
431.736	5999.01
431.943	6214.05
432.15	6195.62
432.358	6263.2
432.565	6541.72
432.772	6314.4
432.979	6785.43
433.187	6869.4
433.394	6961.56
433.601	7389.58
433.808	7612.81
434.016	7510.41
434.223	7776.65
434.43	8194.43
434.637	8106.37
434.844	8673.66
435.052	8698.24
435.259	8655.23
435.466	8796.54
435.673	8624.51
435.88	9107.83
436.087	9654.64
436.294	9613.68
436.501	9388.4
436.708	9752.94
436.915	9902.44
437.122	10357.09
437.329	10350.95
437.537	10725.72
437.743	10881.37
437.95	10889.56
438.157	11305.3
438.364	11807.05
438.571	11747.66
438.778	11907.4
438.985	12839.23
439.192	12448.07
439.399	12726.59
439.606	12562.75
439.813	13275.45
440.02	13826.35
440.227	13662.51
440.433	13498.67
440.64	13932.84
440.847	13977.9
441.054	14469.41
441.261	15417.62
441.467	15149.34
441.674	15395.09
441.881	16019.72
442.088	15835.41
442.294	15800.59
442.501	16038.16
442.708	16374.02
442.914	17099
443.121	17510.64
443.328	17109.24
443.534	18254.06
443.741	17985.77
443.948	17641.71
444.154	18995.42
444.361	18976.99
444.568	18936.03
444.774	18813.15
444.981	19114.2
445.187	19835.09
445.394	20717.76
445.6	20338.89
445.807	22507.69
446.013	21522.62
446.22	21887.15
446.426	22546.6
446.633	22945.95
446.839	23664.79
447.046	22317.23
447.252	23924.88
447.459	24017.04
447.665	23699.61
447.871	24879.24
448.078	26042.48
448.284	24707.21
448.491	25393.28
448.697	26220.66
448.903	26749.03
449.11	27037.8
449.316	26632.3
449.522	27175.01
449.728	27748.44
449.935	28063.83
450.141	28153.94
450.347	28772.42
450.553	27838.55
450.76	28090.45
450.966	29425.73
451.172	28866.63
451.378	29470.78
451.584	29007.94
451.791	29648.96
451.997	29665.34
452.203	30230.58
452.409	30027.83
452.615	29810.75
452.821	28921.93
453.027	28790.86
453.233	30380.08
453.44	28975.17
453.646	29261.89
453.852	29775.93
454.058	29827.13
454.264	29440.06
454.47	29837.37
454.676	28706.89
454.882	29933.62
455.088	27496.54
455.294	27998.29
455.5	28147.79
455.705	28600.4
455.911	27756.63
456.117	27019.36
456.323	26617.96
456.529	25141.38
456.735	26597.48
456.941	25659.51
457.147	25518.2
457.352	24676.49
457.558	24379.53
457.764	24699.02
457.97	23939.22
458.176	23400.6
458.381	23244.96
458.587	22528.17
458.793	22462.63
458.999	20963.52
459.204	22775.97
459.41	22304.94
459.616	20529.35
459.821	20588.74
460.027	20807.87
460.233	20009.17
460.438	19130.59
460.644	19548.37
460.85	18725.09
461.055	18311.4
461.261	18278.63
461.466	16726.27
461.672	16281.86
461.878	17545.46
462.083	16351.49
462.289	16128.27
462.494	15948.04
462.7	15286.55
462.905	14874.91
463.111	15141.14
463.316	15169.82
463.522	15038.75
463.727	15106.33
463.932	15036.7
464.138	15036.7
464.343	15042.84
464.549	14455.08
464.754	15067.42
464.959	14993.69
465.165	14723.36
465.37	14047.53
465.575	13795.63
465.781	14027.05
465.986	14393.64
466.191	13801.77
466.397	13543.73
466.602	13035.83
466.807	13443.38
467.012	13457.71
467.218	13326.64
467.423	13336.88
467.628	13193.53
