Data from USB4F104151__235__14-45-40-445.txt Node

Date: Thu Mar 13 14:45:40 EDT 2025
User: louis
Spectrometer: USB4F10415
Trigger mode: 4
Integration Time (sec): 2.000000E-2
Scans to average: 1
Electric dark correction enabled: true
Nonlinearity correction enabled: false
Boxcar width: 0
XAxis mode: Wavelengths
Number of Pixels in Spectrum: 3648
>>>>>Begin Spectral Data<<<<<
178.204	-105.13
178.424	-105.13
178.644	-105.13
178.864	-92.84
179.084	-86.7
179.304	-27.31
179.524	-39.59
179.744	-62.12
179.964	-6.83
180.184	17.75
180.404	-17.07
180.624	-2.73
180.844	23.89
181.064	40.28
181.283	79.19
181.503	-27.31
181.723	21.85
181.943	-51.88
182.163	107.86
182.383	66.9
182.602	34.13
182.822	25.94
183.042	-25.26
183.262	42.32
183.482	40.28
183.701	62.8
183.921	89.43
184.141	81.24
184.361	89.43
184.58	97.62
184.8	66.9
185.02	62.8
185.239	5.46
185.459	-49.83
185.679	64.85
185.898	-101.03
186.118	-2.73
186.338	15.7
186.557	120.15
186.777	-25.26
186.997	-2.73
187.216	23.89
187.436	124.24
187.655	36.18
187.875	40.28
188.095	23.89
188.314	36.18
188.534	89.43
188.753	54.61
188.973	54.61
189.192	56.66
189.412	114
189.631	34.13
189.851	46.42
190.07	97.62
190.29	38.23
190.509	79.19
190.729	38.23
190.948	30.04
191.168	103.76
191.387	38.23
191.607	38.23
191.826	-19.11
192.045	44.37
192.265	21.85
192.484	19.8
192.704	105.81
192.923	-19.11
193.142	185.68
193.362	46.42
193.581	66.9
193.8	66.9
194.02	32.08
194.239	23.89
194.458	42.32
194.678	36.18
194.897	114
195.116	87.38
195.335	25.94
195.555	56.66
195.774	66.9
195.993	87.38
196.212	-6.83
196.432	36.18
196.651	23.89
196.87	75.09
197.089	144.72
197.308	81.24
197.528	140.63
197.747	91.48
197.966	-2.73
198.185	101.72
198.404	46.42
198.623	109.91
198.842	109.91
199.062	81.24
199.281	30.04
199.5	5.46
199.719	21.85
199.938	34.13
200.157	122.2
200.376	62.8
200.595	66.9
200.814	71
201.033	25.94
201.252	138.58
201.471	187.73
201.69	42.32
201.909	48.47
202.128	48.47
202.347	34.13
202.566	5.46
202.785	-43.69
203.004	87.38
203.223	103.76
203.442	101.72
203.661	15.7
203.879	36.18
204.098	34.13
204.317	-2.73
204.536	79.19
204.755	58.71
204.974	103.76
205.193	136.53
205.411	128.34
205.63	124.24
205.849	81.24
206.068	-58.03
206.287	23.89
206.505	62.8
206.724	54.61
206.943	38.23
207.162	79.19
207.381	36.18
207.599	21.85
207.818	73.04
208.037	73.04
208.255	32.08
208.474	48.47
208.693	105.81
208.911	54.61
209.13	54.61
209.349	32.08
209.567	97.62
209.786	64.85
210.005	77.14
210.223	34.13
210.442	-8.87
210.661	99.67
210.879	21.85
211.098	38.23
211.316	120.15
211.535	62.8
211.753	71
211.972	46.42
212.191	75.09
212.409	85.33
212.628	56.66
212.846	21.85
213.065	25.94
213.283	124.24
213.502	66.9
213.72	-6.83
213.938	13.65
214.157	21.85
214.375	111.96
214.594	64.85
214.812	54.61
215.031	62.8
215.249	23.89
215.467	50.52
215.686	42.32
215.904	87.38
216.122	34.13
216.341	54.61
216.559	109.91
216.778	40.28
216.996	30.04
217.214	5.46
217.432	79.19
217.651	34.13
217.869	32.08
218.087	64.85
218.306	38.23
218.524	17.75
218.742	15.7
218.96	46.42
219.179	21.85
219.397	107.86
219.615	138.58
219.833	50.52
220.051	25.94
220.27	32.08
220.488	71
220.706	38.23
220.924	79.19
221.142	66.9
221.36	-12.97
221.578	15.7
221.796	30.04
222.015	17.75
222.233	73.04
222.451	79.19
222.669	9.56
222.887	114
223.105	30.04
223.323	48.47
223.541	21.85
223.759	114
223.977	23.89
224.195	30.04
224.413	103.76
224.631	138.58
224.849	54.61
225.067	42.32
225.285	5.46
225.503	66.9
225.721	-29.35
225.939	71
226.157	56.66
226.375	103.76
226.592	132.44
226.81	3.41
227.028	95.57
227.246	95.57
227.464	66.9
227.682	30.04
227.9	62.8
228.117	56.66
228.335	34.13
228.553	87.38
228.771	7.51
228.989	44.37
229.206	64.85
229.424	-0.68
229.642	52.56
229.86	48.47
230.077	21.85
230.295	-33.45
230.513	71
230.731	64.85
230.948	42.32
231.166	132.44
231.384	-2.73
231.601	71
231.819	79.19
232.037	95.57
232.254	-53.93
232.472	103.76
232.689	-33.45
232.907	107.86
233.125	75.09
233.342	30.04
233.56	-0.68
233.777	38.23
233.995	-29.35
234.213	23.89
234.43	75.09
234.648	64.85
234.865	99.67
235.083	81.24
235.3	48.47
235.518	54.61
235.735	75.09
235.953	42.32
236.17	11.61
236.388	85.33
236.605	-19.11
236.822	87.38
237.04	99.67
237.257	30.04
237.475	15.7
237.692	85.33
237.909	79.19
238.127	17.75
238.344	38.23
238.562	77.14
238.779	5.46
238.996	64.85
239.214	7.51
239.431	42.32
239.648	79.19
239.865	79.19
240.083	87.38
240.3	46.42
240.517	46.42
240.735	36.18
240.952	75.09
241.169	81.24
241.386	46.42
241.603	30.04
241.821	-10.92
242.038	79.19
242.255	60.76
242.472	-10.92
242.689	111.96
242.907	56.66
243.124	46.42
243.341	75.09
243.558	27.99
243.775	1.37
243.992	5.46
244.209	64.85
244.426	136.53
244.643	58.71
244.86	36.18
245.078	68.95
245.295	21.85
245.512	111.96
245.729	-15.02
245.946	68.95
246.163	87.38
246.38	30.04
246.597	21.85
246.814	15.7
247.031	66.9
247.248	56.66
247.464	60.76
247.681	52.56
247.898	64.85
248.115	38.23
248.332	-2.73
248.549	116.05
248.766	46.42
248.983	138.58
249.2	79.19
249.417	-2.73
249.633	50.52
249.85	34.13
250.067	46.42
250.284	27.99
250.501	38.23
250.717	62.8
250.934	58.71
251.151	30.04
251.368	-19.11
251.585	73.04
251.801	38.23
252.018	-15.02
252.235	75.09
252.451	50.52
252.668	58.71
252.885	79.19
253.102	99.67
253.318	21.85
253.535	11.61
253.752	-10.92
253.968	40.28
254.185	-25.26
254.401	13.65
254.618	54.61
254.835	68.95
255.051	97.62
255.268	60.76
255.484	21.85
255.701	7.51
255.917	105.81
256.134	38.23
256.351	48.47
256.567	-10.92
256.784	87.38
257	-4.78
257.217	34.13
257.433	85.33
257.65	62.8
257.866	23.89
258.082	17.75
258.299	64.85
258.515	34.13
258.732	-6.83
258.948	21.85
259.165	30.04
259.381	7.51
259.597	34.13
259.814	66.9
260.03	30.04
260.246	66.9
260.463	130.39
260.679	79.19
260.895	38.23
261.112	5.46
261.328	21.85
261.544	101.72
261.761	152.92
261.977	17.75
262.193	19.8
262.409	-33.45
262.626	58.71
262.842	81.24
263.058	52.56
263.274	54.61
263.49	83.28
263.707	87.38
263.923	109.91
264.139	27.99
264.355	50.52
264.571	140.63
264.787	62.8
265.004	3.41
265.22	38.23
265.436	83.28
265.652	64.85
265.868	87.38
266.084	11.61
266.3	40.28
266.516	60.76
266.732	103.76
266.948	62.8
267.164	75.09
267.38	-2.73
267.596	83.28
267.812	54.61
268.028	5.46
268.244	40.28
268.46	54.61
268.676	44.37
268.892	73.04
269.108	46.42
269.324	101.72
269.54	13.65
269.756	54.61
269.972	40.28
270.188	32.08
270.403	46.42
270.619	81.24
270.835	54.61
271.051	-4.78
271.267	-2.73
271.483	75.09
271.698	140.63
271.914	32.08
272.13	-6.83
272.346	75.09
272.562	-8.87
272.777	87.38
272.993	58.71
273.209	-37.55
273.425	124.24
273.64	17.75
273.856	73.04
274.072	15.7
274.287	42.32
274.503	132.44
274.719	38.23
274.934	40.28
275.15	15.7
275.366	62.8
275.581	-37.55
275.797	-4.78
276.012	71
276.228	38.23
276.444	38.23
276.659	60.76
276.875	19.8
277.09	54.61
277.306	50.52
277.521	44.37
277.737	56.66
277.952	91.48
278.168	46.42
278.383	87.38
278.599	38.23
278.814	23.89
279.03	56.66
279.245	95.57
279.461	9.56
279.676	64.85
279.892	79.19
280.107	-6.83
280.322	111.96
280.538	5.46
280.753	83.28
280.969	54.61
281.184	13.65
281.399	23.89
281.615	54.61
281.83	114
282.045	1.37
282.26	56.66
282.476	54.61
282.691	132.44
282.906	56.66
283.122	134.48
283.337	-17.07
283.552	87.38
283.767	27.99
283.983	42.32
284.198	34.13
284.413	75.09
284.628	48.47
284.843	40.28
285.058	15.7
285.274	-2.73
285.489	-8.87
285.704	23.89
285.919	46.42
286.134	62.8
286.349	91.48
286.564	38.23
286.779	136.53
286.995	54.61
287.21	64.85
287.425	52.56
287.64	-19.11
287.855	54.61
288.07	-39.59
288.285	-25.26
288.5	64.85
288.715	60.76
288.93	-6.83
289.145	-35.5
289.36	66.9
289.575	9.56
289.79	91.48
290.004	66.9
290.219	30.04
290.434	-6.83
290.649	-19.11
290.864	15.7
291.079	58.71
291.294	46.42
291.509	19.8
291.724	103.76
291.938	81.24
292.153	75.09
292.368	46.42
292.583	79.19
292.798	-51.88
293.012	99.67
293.227	79.19
293.442	42.32
293.657	99.67
293.871	99.67
294.086	91.48
294.301	21.85
294.516	111.96
294.73	79.19
294.945	30.04
295.16	40.28
295.374	89.43
295.589	161.11
295.804	48.47
296.018	73.04
296.233	32.08
296.447	-2.73
296.662	44.37
296.877	81.24
297.091	128.34
297.306	64.85
297.52	46.42
297.735	161.11
297.949	23.89
298.164	46.42
298.378	81.24
298.593	68.95
298.807	30.04
299.022	64.85
299.236	99.67
299.451	13.65
299.665	62.8
299.88	25.94
300.094	85.33
300.309	13.65
300.523	40.28
300.737	64.85
300.952	58.71
301.166	93.52
301.381	19.8
301.595	30.04
301.809	103.76
302.024	32.08
302.238	30.04
302.452	91.48
302.667	116.05
302.881	34.13
303.095	79.19
303.309	157.01
303.524	44.37
303.738	7.51
303.952	73.04
304.166	62.8
304.381	-68.27
304.595	103.76
304.809	66.9
305.023	71
305.237	38.23
305.452	95.57
305.666	103.76
305.88	75.09
306.094	54.61
306.308	91.48
306.522	1.37
306.736	97.62
306.95	89.43
307.164	62.8
307.379	58.71
307.593	144.72
307.807	146.77
308.021	103.76
308.235	81.24
308.449	48.47
308.663	-29.35
308.877	56.66
309.091	38.23
309.305	89.43
309.519	54.61
309.733	38.23
309.947	44.37
310.161	38.23
310.374	73.04
310.588	-10.92
310.802	101.72
311.016	15.7
311.23	56.66
311.444	13.65
311.658	-0.68
311.872	58.71
312.085	122.2
312.299	9.56
312.513	171.35
312.727	128.34
312.941	40.28
313.154	15.7
313.368	21.85
313.582	68.95
313.796	44.37
314.009	-6.83
314.223	124.24
314.437	107.86
314.651	95.57
314.864	34.13
315.078	-6.83
315.292	21.85
315.505	62.8
315.719	95.57
315.933	13.65
316.146	77.14
316.36	87.38
316.573	87.38
316.787	99.67
317.001	140.63
317.214	21.85
317.428	66.9
317.641	21.85
317.855	13.65
318.068	66.9
318.282	73.04
318.495	56.66
318.709	73.04
318.922	13.65
319.136	93.52
319.349	122.2
319.563	46.42
319.776	40.28
319.99	111.96
320.203	124.24
320.417	15.7
320.63	42.32
320.843	128.34
321.057	46.42
321.27	50.52
321.483	-17.07
321.697	71
321.91	23.89
322.124	30.04
322.337	36.18
322.55	27.99
322.763	25.94
322.977	7.51
323.19	73.04
323.403	38.23
323.617	122.2
323.83	109.91
324.043	23.89
324.256	44.37
324.469	103.76
324.683	46.42
324.896	132.44
325.109	83.28
325.322	-10.92
325.535	56.66
325.748	87.38
325.962	15.7
326.175	58.71
326.388	64.85
326.601	144.72
326.814	25.94
327.027	120.15
327.24	122.2
327.453	13.65
327.666	87.38
327.879	120.15
328.092	75.09
328.305	27.99
328.518	50.52
328.731	79.19
328.944	73.04
329.157	21.85
329.37	48.47
329.583	124.24
329.796	44.37
330.009	54.61
330.222	54.61
330.435	56.66
330.648	111.96
330.861	46.42
331.073	34.13
331.286	95.57
331.499	71
331.712	87.38
331.925	71
332.138	103.76
332.35	91.48
332.563	46.42
332.776	91.48
332.989	34.13
333.202	66.9
333.414	66.9
333.627	46.42
333.84	64.85
334.053	77.14
334.265	34.13
334.478	17.75
334.691	34.13
334.903	-10.92
335.116	58.71
335.329	54.61
335.541	103.76
335.754	58.71
335.966	48.47
336.179	87.38
336.392	87.38
336.604	40.28
336.817	-2.73
337.029	71
337.242	38.23
337.454	75.09
337.667	-19.11
337.88	56.66
338.092	21.85
338.305	87.38
338.517	9.56
338.729	17.75
338.942	54.61
339.154	23.89
339.367	17.75
339.579	105.81
339.792	23.89
340.004	144.72
340.217	46.42
340.429	62.8
340.641	79.19
340.854	30.04
341.066	66.9
341.278	62.8
341.491	91.48
341.703	62.8
341.915	-23.21
342.128	118.1
342.34	38.23
342.552	71
342.764	136.53
342.977	75.09
343.189	68.95
343.401	62.8
343.613	54.61
343.826	30.04
344.038	7.51
344.25	23.89
344.462	71
344.674	-6.83
344.886	73.04
345.099	79.19
345.311	73.04
345.523	-8.87
345.735	46.42
345.947	60.76
346.159	62.8
346.371	-2.73
346.583	30.04
346.795	126.29
347.007	32.08
347.219	50.52
347.431	87.38
347.643	75.09
347.855	50.52
348.067	52.56
348.279	66.9
348.491	85.33
348.703	62.8
348.915	58.71
349.127	34.13
349.339	46.42
349.551	56.66
349.763	36.18
349.975	114
350.187	91.48
350.399	60.76
350.61	-2.73
350.822	75.09
351.034	62.8
351.246	62.8
351.458	7.51
351.669	56.66
351.881	73.04
352.093	83.28
352.305	81.24
352.517	91.48
352.728	128.34
352.94	7.51
353.152	81.24
353.363	120.15
353.575	34.13
353.787	103.76
353.999	75.09
354.21	48.47
354.422	25.94
354.633	-35.5
354.845	114
355.057	15.7
355.268	13.65
355.48	75.09
355.692	83.28
355.903	120.15
356.115	15.7
356.326	30.04
356.538	48.47
356.749	52.56
356.961	87.38
357.172	79.19
357.384	134.48
357.595	109.91
357.807	46.42
358.018	-2.73
358.23	73.04
358.441	54.61
358.653	97.62
358.864	56.66
359.075	17.75
359.287	58.71
359.498	128.34
359.709	58.71
359.921	13.65
360.132	46.42
360.344	120.15
360.555	30.04
360.766	-33.45
360.977	95.57
361.189	138.58
361.4	48.47
361.611	105.81
361.823	89.43
362.034	111.96
362.245	9.56
362.456	40.28
362.667	140.63
362.879	5.46
363.09	40.28
363.301	56.66
363.512	130.39
363.723	34.13
363.935	79.19
364.146	7.51
364.357	50.52
364.568	95.57
364.779	-2.73
364.99	105.81
365.201	-2.73
365.412	81.24
365.623	-10.92
365.834	27.99
366.045	87.38
366.256	97.62
366.467	34.13
366.678	48.47
366.889	87.38
367.1	21.85
367.311	17.75
367.522	13.65
367.733	132.44
367.944	95.57
368.155	38.23
368.366	111.96
368.577	105.81
368.788	52.56
368.999	60.76
369.209	93.52
369.42	93.52
369.631	140.63
369.842	15.7
370.053	75.09
370.264	81.24
370.474	38.23
370.685	71
370.896	64.85
371.107	48.47
371.317	79.19
371.528	77.14
371.739	136.53
371.95	5.46
372.16	54.61
372.371	-4.78
372.582	79.19
372.792	146.77
373.003	17.75
373.214	-4.78
373.424	23.89
373.635	66.9
373.846	152.92
374.056	23.89
374.267	50.52
374.477	109.91
374.688	40.28
374.898	97.62
375.109	95.57
375.319	30.04
375.53	73.04
375.74	75.09
375.951	105.81
376.161	79.19
376.372	79.19
376.582	85.33
376.793	99.67
377.003	46.42
377.214	56.66
377.424	75.09
377.635	71
377.845	64.85
378.055	103.76
378.266	-15.02
378.476	13.65
378.686	21.85
378.897	1.37
379.107	120.15
379.317	132.44
379.528	-6.83
379.738	120.15
379.948	5.46
380.158	60.76
380.369	87.38
380.579	97.62
380.789	32.08
380.999	79.19
381.21	107.86
381.42	144.72
381.63	81.24
381.84	79.19
382.05	101.72
382.261	7.51
382.471	87.38
382.681	-6.83
382.891	163.15
383.101	132.44
383.311	23.89
383.521	132.44
383.731	-15.02
383.941	60.76
384.151	58.71
384.361	116.05
384.571	38.23
384.781	83.28
384.991	114
385.201	169.3
385.411	79.19
385.621	73.04
385.831	103.76
386.041	71
386.251	58.71
386.461	71
386.671	38.23
386.881	36.18
387.091	5.46
387.301	7.51
387.511	89.43
387.72	128.34
387.93	44.37
388.14	52.56
388.35	130.39
388.56	111.96
388.769	95.57
388.979	58.71
389.189	42.32
389.399	138.58
389.609	128.34
389.818	140.63
390.028	64.85
390.238	71
390.447	11.61
390.657	71
390.867	87.38
391.076	23.89
391.286	83.28
391.496	40.28
391.705	101.72
391.915	114
392.125	64.85
392.334	107.86
392.544	83.28
392.753	50.52
392.963	54.61
393.172	46.42
393.382	-2.73
393.591	111.96
393.801	91.48
394.01	218.45
394.22	144.72
394.429	124.24
394.639	54.61
394.848	91.48
395.058	83.28
395.267	109.91
395.477	85.33
395.686	107.86
395.895	120.15
396.105	124.24
396.314	154.96
396.524	13.65
396.733	71
396.942	103.76
397.152	97.62
397.361	130.39
397.57	79.19
397.78	161.11
397.989	144.72
398.198	124.24
398.407	189.78
398.617	107.86
398.826	128.34
399.035	83.28
399.244	99.67
399.453	64.85
399.663	148.82
399.872	161.11
400.081	101.72
400.29	83.28
400.499	81.24
400.708	13.65
400.917	89.43
401.127	105.81
401.336	73.04
401.545	144.72
401.754	193.87
401.963	97.62
402.172	138.58
402.381	120.15
402.59	152.92
402.799	105.81
403.008	116.05
403.217	173.39
403.426	132.44
403.635	136.53
403.844	148.82
404.053	114
404.262	89.43
404.471	195.92
404.68	114
404.888	87.38
405.097	179.54
405.306	191.83
405.515	181.59
405.724	159.06
405.933	177.49
406.142	206.16
406.35	161.11
406.559	224.59
406.768	210.26
406.977	210.26
407.185	169.3
407.394	197.97
407.603	200.02
407.812	245.07
408.02	212.31
408.229	116.05
408.438	204.11
408.646	189.78
408.855	275.79
409.064	234.83
409.272	218.45
409.481	267.6
409.69	245.07
409.898	283.99
410.107	292.18
410.315	367.95
410.524	308.56
410.733	294.22
410.941	294.22
411.15	304.46
411.358	382.29
411.567	392.53
411.775	349.52
411.984	333.14
412.192	378.19
412.401	353.62
412.609	361.81
412.818	439.63
413.026	427.34
413.234	433.49
413.443	429.39
413.651	503.12
413.86	408.91
414.068	456.01
414.276	505.17
414.485	435.53
414.693	603.47
414.901	621.9
415.11	480.59
415.318	611.66
415.526	564.56
415.734	660.81
415.943	736.59
416.151	763.21
416.359	734.54
416.567	648.52
416.776	728.39
416.984	841.03
417.192	875.85
417.4	951.62
417.608	755.02
417.817	898.38
418.025	927.05
418.233	978.25
418.441	918.86
418.649	984.39
418.857	1033.54
419.065	1105.22
419.273	963.91
419.481	1111.36
419.689	1162.56
419.897	1189.19
420.105	1303.87
420.313	1221.95
420.521	1279.3
420.729	1381.7
420.937	1396.03
421.145	1422.66
421.353	1537.34
421.561	1537.34
421.769	1561.92
421.977	1637.69
422.185	1588.54
422.393	1709.37
422.601	1910.07
422.809	1828.15
423.017	1801.53
423.224	1834.3
423.432	1975.61
423.64	1938.74
423.848	2268.47
424.056	2159.92
424.263	2372.91
424.471	2227.51
424.679	2399.54
424.887	2491.7
425.094	2479.41
425.302	2516.27
425.51	2667.82
425.718	2549.04
425.925	2655.53
426.133	2815.27
426.341	2987.3
426.548	3032.36
426.756	3249.44
426.964	3155.24
427.171	3228.96
427.379	3503.39
427.586	3470.62
427.794	3607.84
428.001	3638.56
428.209	3970.33
428.417	3808.54
428.624	4158.74
428.832	4109.59
429.039	4166.93
429.247	4144.41
429.454	4498.7
429.662	4846.86
429.869	4427.03
430.076	4726.03
430.284	4609.3
430.491	4793.61
430.699	5059.85
430.906	5141.77
431.114	5395.72
431.321	5416.19
431.528	5375.24
431.736	5723.39
431.943	5979.39
432.15	5946.62
432.358	5995.77
432.565	6399.22
432.772	6161.66
432.979	6491.38
433.187	6706.41
433.394	6907.12
433.601	7109.86
433.808	7394.53
434.016	7257.32
434.223	7453.92
434.43	7863.52
434.637	7845.09
434.844	8309.97
435.052	8307.93
435.259	8533.2
435.466	8557.78
435.673	8289.49
435.88	8922.32
436.087	9315.53
436.294	9325.77
436.501	9196.74
436.708	9360.58
436.915	9864.38
437.122	10032.32
437.329	10204.35
437.537	10335.42
437.743	10417.33
437.95	10511.54
438.157	10978.48
438.364	11252.91
438.571	11392.17
438.778	11513
438.985	12342.42
439.192	12049.57
439.399	12385.43
439.606	12035.23
439.813	12782.74
440.02	13472.9
440.227	13401.22
440.433	13325.45
440.64	13640.84
440.847	13554.82
441.054	13792.39
441.261	14673.01
441.467	14677.11
441.674	14834.8
441.881	15619.17
442.088	15580.26
442.294	15182.96
442.501	15484.01
442.708	15852.64
442.914	16477.27
443.121	17503.31
443.328	16690.26
443.534	17626.18
443.741	17382.48
443.948	17237.07
444.154	18676.79
444.361	18365.5
444.568	18562.11
444.774	18506.81
444.981	18576.44
445.187	19483.69
445.394	19979.3
445.6	19776.55
445.807	21879.82
446.013	20673.56
446.22	21042.2
446.426	22062.08
446.633	22207.49
446.839	23196.66
447.046	22006.79
447.252	23286.77
447.459	23000.05
447.665	23217.14
447.871	24277.99
448.078	25494.48
448.284	24009.7
448.491	24648.67
448.697	25387.99
448.903	26252.23
449.11	26422.21
449.316	25875.4
449.522	26303.43
449.728	26971.07
449.935	27186.1
450.141	27141.05
450.347	27892.65
450.553	27194.29
450.76	27470.77
450.966	28457.89
451.172	27866.03
451.378	28892.06
451.584	28115.88
451.791	28982.17
451.997	28791.71
452.203	29172.63
452.409	29469.59
452.615	29367.19
452.821	27945.9
453.027	27986.86
453.233	29600.66
453.44	28070.82
453.646	28922.78
453.852	28777.37
454.058	29490.07
454.264	28281.77
454.47	29105.05
454.676	28165.03
454.882	29438.87
455.088	26692.54
455.294	27329.46
455.5	27806.64
455.705	28244.9
455.911	26772.41
456.117	26440.64
456.323	26211.27
456.529	24673.24
456.735	25918.41
456.941	25121.75
457.147	24894.43
457.352	23976.94
457.558	24079.33
457.764	24050.66
457.97	23481.33
458.176	23096.31
458.381	23151.6
458.587	21722.12
458.793	22127.62
458.999	20853.78
459.204	22361.09
459.41	21500.94
459.616	20036.64
459.821	20263.97
460.027	20309.02
460.233	20079.65
460.438	18840.63
460.644	19440.68
460.85	18351.17
461.055	17767.49
461.261	18203.71
461.466	16745.56
461.672	16135.26
461.878	17347.66
462.083	16168.03
462.289	15963.23
462.494	15694.95
462.7	14908.53
462.905	14742.64
463.111	14963.82
463.316	15012.98
463.522	14871.67
463.727	14783.6
463.932	14822.52
464.138	14435.45
464.343	14511.22
464.549	14347.39
464.754	14795.89
464.959	14439.54
465.165	14337.15
465.37	13880.45
465.575	13591.69
465.781	13890.69
465.986	14169.21
466.191	13550.73
466.397	13356.17
466.602	12756.11
466.807	13331.59
467.012	13173.9
467.218	13083.79
467.423	12801.17
467.628	13120.65
467.833	13419.66
468.038	13075.6
