Data from USB4F104151__111__14-43-49-711.txt Node

Date: Thu Mar 13 14:43:49 EDT 2025
User: louis
Spectrometer: USB4F10415
Trigger mode: 4
Integration Time (sec): 2.000000E-2
Scans to average: 1
Electric dark correction enabled: true
Nonlinearity correction enabled: false
Boxcar width: 0
XAxis mode: Wavelengths
Number of Pixels in Spectrum: 3648
>>>>>Begin Spectral Data<<<<<
178.204	-104.11
178.424	-104.11
178.644	-104.11
178.864	-118.44
179.084	-177.83
179.304	-11.95
179.524	26.96
179.744	10.58
179.964	76.12
180.184	29.01
180.404	-34.47
180.624	-16.04
180.844	41.3
181.064	-65.19
181.283	-36.52
181.503	-22.19
181.723	2.39
181.943	4.44
182.163	82.26
182.383	90.45
182.602	-3.75
182.822	76.12
183.042	82.26
183.262	82.26
183.482	-46.76
183.701	26.96
183.921	90.45
184.141	4.44
184.361	98.64
184.58	26.96
184.8	63.83
185.02	8.53
185.239	49.49
185.459	24.92
185.679	108.88
185.898	8.53
186.118	119.12
186.338	29.01
186.557	123.22
186.777	0.34
186.997	-22.19
187.216	69.97
187.436	115.03
187.655	53.59
187.875	215.38
188.095	14.68
188.314	59.73
188.534	94.55
188.753	90.45
188.973	104.79
189.192	96.6
189.412	8.53
189.631	57.68
189.851	102.74
190.07	117.08
190.29	37.2
190.509	31.06
190.729	-7.85
190.948	92.5
191.168	104.79
191.387	47.44
191.607	14.68
191.826	49.49
192.045	26.96
192.265	35.16
192.484	65.88
192.704	90.45
192.923	41.3
193.142	69.97
193.362	33.11
193.581	92.5
193.8	12.63
194.02	18.77
194.239	80.21
194.458	49.49
194.678	29.01
194.897	-16.04
195.116	112.98
195.335	74.07
195.555	24.92
195.774	4.44
195.993	33.11
196.212	74.07
196.432	33.11
196.651	-20.14
196.87	-7.85
197.089	69.97
197.308	16.73
197.528	72.02
197.747	-16.04
197.966	12.63
198.185	100.69
198.404	90.45
198.623	12.63
198.842	37.2
199.062	-44.71
199.281	8.53
199.5	51.54
199.719	149.84
199.938	39.25
200.157	24.92
200.376	80.21
200.595	-20.14
200.814	12.63
201.033	100.69
201.252	84.31
201.471	57.68
201.69	41.3
201.909	35.16
202.128	0.34
202.347	98.64
202.566	69.97
202.785	47.44
203.004	41.3
203.223	82.26
203.442	86.36
203.661	26.96
203.879	-22.19
204.098	78.16
204.317	59.73
204.536	76.12
204.755	61.78
204.974	33.11
205.193	72.02
205.411	131.41
205.63	24.92
205.849	16.73
206.068	43.35
206.287	47.44
206.505	12.63
206.724	39.25
206.943	57.68
207.162	37.2
207.381	57.68
207.599	57.68
207.818	-9.9
208.037	92.5
208.255	65.88
208.474	69.97
208.693	4.44
208.911	-9.9
209.13	51.54
209.349	98.64
209.567	76.12
209.786	39.25
210.005	82.26
210.223	100.69
210.442	86.36
210.661	94.55
210.879	90.45
211.098	69.97
211.316	61.78
211.535	94.55
211.753	84.31
211.972	31.06
212.191	37.2
212.409	8.53
212.628	168.27
212.846	33.11
213.065	-93.87
213.283	61.78
213.502	31.06
213.72	12.63
213.938	10.58
214.157	86.36
214.375	98.64
214.594	12.63
214.812	92.5
215.031	29.01
215.249	53.59
215.467	106.84
215.686	14.68
215.904	51.54
216.122	29.01
216.341	123.22
216.559	49.49
216.778	98.64
216.996	57.68
217.214	24.92
217.432	33.11
217.651	4.44
217.869	18.77
218.087	26.96
218.306	49.49
218.524	76.12
218.742	41.3
218.96	76.12
219.179	53.59
219.397	90.45
219.615	57.68
219.833	61.78
220.051	-44.71
220.27	123.22
220.488	16.73
220.706	72.02
220.924	57.68
221.142	59.73
221.36	63.83
221.578	8.53
221.796	18.77
222.015	6.49
222.233	82.26
222.451	98.64
222.669	43.35
222.887	147.8
223.105	35.16
223.323	24.92
223.541	-30.38
223.759	76.12
223.977	61.78
224.195	98.64
224.413	115.03
224.631	69.97
224.849	63.83
225.067	100.69
225.285	-3.75
225.503	0.34
225.721	-57
225.939	88.4
226.157	37.2
226.375	147.8
226.592	-16.04
226.81	-36.52
227.028	37.2
227.246	176.47
227.464	16.73
227.682	57.68
227.9	78.16
228.117	53.59
228.335	47.44
228.553	-7.85
228.771	16.73
228.989	51.54
229.206	4.44
229.424	102.74
229.642	-16.04
229.86	-24.23
230.077	20.82
230.295	35.16
230.513	16.73
230.731	106.84
230.948	102.74
231.166	41.3
231.384	86.36
231.601	69.97
231.819	84.31
232.037	51.54
232.254	8.53
232.472	53.59
232.689	20.82
232.907	61.78
233.125	16.73
233.342	90.45
233.56	20.82
233.777	110.93
233.995	53.59
234.213	141.65
234.43	-11.95
234.648	8.53
234.865	-65.19
235.083	49.49
235.3	31.06
235.518	41.3
235.735	33.11
235.953	41.3
236.17	67.92
236.388	76.12
236.605	45.4
236.822	160.08
237.04	67.92
237.257	63.83
237.475	-40.62
237.692	76.12
237.909	74.07
238.127	139.6
238.344	57.68
238.562	102.74
238.779	14.68
238.996	26.96
239.214	6.49
239.431	59.73
239.648	39.25
239.865	29.01
240.083	31.06
240.3	16.73
240.517	43.35
240.735	51.54
240.952	74.07
241.169	53.59
241.386	67.92
241.603	41.3
241.821	37.2
242.038	98.64
242.255	82.26
242.472	8.53
242.689	10.58
242.907	160.08
243.124	4.44
243.341	-38.57
243.558	65.88
243.775	41.3
243.992	8.53
244.209	78.16
244.426	43.35
244.643	29.01
244.86	59.73
245.078	123.22
245.295	-16.04
245.512	0.34
245.729	0.34
245.946	67.92
246.163	43.35
246.38	57.68
246.597	0.34
246.814	35.16
247.031	29.01
247.248	10.58
247.464	84.31
247.681	63.83
247.898	31.06
248.115	39.25
248.332	35.16
248.549	133.46
248.766	65.88
248.983	94.55
249.2	88.4
249.417	63.83
249.633	37.2
249.85	90.45
250.067	-5.8
250.284	-7.85
250.501	49.49
250.717	65.88
250.934	65.88
251.151	-18.09
251.368	33.11
251.585	45.4
251.801	35.16
252.018	-7.85
252.235	92.5
252.451	37.2
252.668	-1.71
252.885	45.4
253.102	49.49
253.318	49.49
253.535	22.87
253.752	76.12
253.968	4.44
254.185	41.3
254.401	131.41
254.618	43.35
254.835	37.2
255.051	139.6
255.268	67.92
255.484	78.16
255.701	-32.43
255.917	119.12
256.134	8.53
256.351	-3.75
256.567	-54.95
256.784	55.64
257	24.92
257.217	57.68
257.433	90.45
257.65	33.11
257.866	102.74
258.082	4.44
258.299	55.64
258.515	65.88
258.732	33.11
258.948	49.49
259.165	51.54
259.381	74.07
259.597	-11.95
259.814	-40.62
260.03	18.77
260.246	59.73
260.463	37.2
260.679	82.26
260.895	-30.38
261.112	86.36
261.328	24.92
261.544	20.82
261.761	41.3
261.977	-7.85
262.193	45.4
262.409	26.96
262.626	76.12
262.842	92.5
263.058	-24.23
263.274	24.92
263.49	-40.62
263.707	117.08
263.923	147.8
264.139	20.82
264.355	29.01
264.571	-24.23
264.787	47.44
265.004	86.36
265.22	112.98
265.436	18.77
265.652	78.16
265.868	57.68
266.084	41.3
266.3	24.92
266.516	16.73
266.732	-3.75
266.948	-16.04
267.164	4.44
267.38	65.88
267.596	49.49
267.812	53.59
268.028	115.03
268.244	-7.85
268.46	112.98
268.676	8.53
268.892	0.34
269.108	-16.04
269.324	61.78
269.54	10.58
269.756	63.83
269.972	59.73
270.188	33.11
270.403	49.49
270.619	57.68
270.835	63.83
271.051	59.73
271.267	59.73
271.483	41.3
271.698	74.07
271.914	41.3
272.13	90.45
272.346	37.2
272.562	82.26
272.777	74.07
272.993	-30.38
273.209	49.49
273.425	-30.38
273.64	43.35
273.856	96.6
274.072	69.97
274.287	80.21
274.503	57.68
274.719	90.45
274.934	51.54
275.15	-30.38
275.366	16.73
275.581	74.07
275.797	55.64
276.012	82.26
276.228	78.16
276.444	16.73
276.659	82.26
276.875	57.68
277.09	16.73
277.306	108.88
277.521	131.41
277.737	-11.95
277.952	16.73
278.168	37.2
278.383	16.73
278.599	102.74
278.814	0.34
279.03	59.73
279.245	106.84
279.461	94.55
279.676	67.92
279.892	41.3
280.107	-16.04
280.322	16.73
280.538	102.74
280.753	-22.19
280.969	100.69
281.184	18.77
281.399	106.84
281.615	43.35
281.83	12.63
282.045	-20.14
282.26	-7.85
282.476	61.78
282.691	33.11
282.906	41.3
283.122	0.34
283.337	69.97
283.552	-44.71
283.767	-48.81
283.983	63.83
284.198	76.12
284.413	8.53
284.628	16.73
284.843	98.64
285.058	67.92
285.274	84.31
285.489	0.34
285.704	61.78
285.919	84.31
286.134	35.16
286.349	16.73
286.564	20.82
286.779	86.36
286.995	90.45
287.21	43.35
287.425	-7.85
287.64	4.44
287.855	57.68
288.07	43.35
288.285	8.53
288.5	61.78
288.715	76.12
288.93	76.12
289.145	24.92
289.36	106.84
289.575	53.59
289.79	92.5
290.004	-22.19
290.219	102.74
290.434	-7.85
290.649	33.11
290.864	43.35
291.079	33.11
291.294	10.58
291.509	6.49
291.724	82.26
291.938	84.31
292.153	47.44
292.368	39.25
292.583	80.21
292.798	-1.71
293.012	18.77
293.227	117.08
293.442	59.73
293.657	35.16
293.871	39.25
294.086	37.2
294.301	33.11
294.516	125.27
294.73	98.64
294.945	12.63
295.16	53.59
295.374	31.06
295.589	117.08
295.804	24.92
296.018	24.92
296.233	49.49
296.447	43.35
296.662	16.73
296.877	110.93
297.091	108.88
297.306	26.96
297.52	82.26
297.735	106.84
297.949	143.7
298.164	100.69
298.378	74.07
298.593	94.55
298.807	14.68
299.022	6.49
299.236	59.73
299.451	69.97
299.665	78.16
299.88	76.12
300.094	53.59
300.309	78.16
300.523	37.2
300.737	123.22
300.952	55.64
301.166	43.35
301.381	45.4
301.595	65.88
301.809	35.16
302.024	12.63
302.238	8.53
302.452	102.74
302.667	106.84
302.881	74.07
303.095	98.64
303.309	82.26
303.524	108.88
303.738	49.49
303.952	35.16
304.166	43.35
304.381	-54.95
304.595	90.45
304.809	20.82
305.023	43.35
305.237	51.54
305.452	43.35
305.666	100.69
305.88	24.92
306.094	53.59
306.308	20.82
306.522	8.53
306.736	125.27
306.95	139.6
307.164	53.59
307.379	-57
307.593	53.59
307.807	41.3
308.021	74.07
308.235	106.84
308.449	24.92
308.663	94.55
308.877	153.94
309.091	-13.99
309.305	-11.95
309.519	26.96
309.733	59.73
309.947	-22.19
310.161	33.11
310.374	22.87
310.588	67.92
310.802	18.77
311.016	82.26
311.23	74.07
311.444	67.92
311.658	20.82
311.872	74.07
312.085	74.07
312.299	37.2
312.513	145.75
312.727	115.03
312.941	16.73
313.154	82.26
313.368	82.26
313.582	8.53
313.796	135.51
314.009	18.77
314.223	123.22
314.437	20.82
314.651	41.3
314.864	115.03
315.078	76.12
315.292	51.54
315.505	78.16
315.719	53.59
315.933	61.78
316.146	43.35
316.36	45.4
316.573	98.64
316.787	74.07
317.001	123.22
317.214	78.16
317.428	35.16
317.641	65.88
317.855	49.49
318.068	61.78
318.282	57.68
318.495	84.31
318.709	65.88
318.922	53.59
319.136	49.49
319.349	49.49
319.563	-40.62
319.776	94.55
319.99	72.02
320.203	35.16
320.417	117.08
320.63	115.03
320.843	158.03
321.057	16.73
321.27	37.2
321.483	33.11
321.697	51.54
321.91	82.26
322.124	115.03
322.337	65.88
322.55	78.16
322.763	57.68
322.977	67.92
323.19	-7.85
323.403	74.07
323.617	24.92
323.83	102.74
324.043	106.84
324.256	18.77
324.469	31.06
324.683	100.69
324.896	123.22
325.109	90.45
325.322	-5.8
325.535	104.79
325.748	80.21
325.962	43.35
326.175	-7.85
326.388	80.21
326.601	57.68
326.814	65.88
327.027	127.32
327.24	29.01
327.453	-5.8
327.666	78.16
327.879	108.88
328.092	37.2
328.305	10.58
328.518	82.26
328.731	35.16
328.944	53.59
329.157	39.25
329.37	90.45
329.583	125.27
329.796	92.5
330.009	0.34
330.222	49.49
330.435	69.97
330.648	16.73
330.861	69.97
331.073	125.27
331.286	24.92
331.499	102.74
331.712	22.87
331.925	-28.33
332.138	39.25
332.35	82.26
332.563	0.34
332.776	131.41
332.989	16.73
333.202	69.97
333.414	80.21
333.627	16.73
333.84	65.88
334.053	49.49
334.265	57.68
334.478	69.97
334.691	-18.09
334.903	59.73
335.116	37.2
335.329	43.35
335.541	108.88
335.754	98.64
335.966	94.55
336.179	33.11
336.392	20.82
336.604	45.4
336.817	67.92
337.029	78.16
337.242	102.74
337.454	76.12
337.667	74.07
337.88	16.73
338.092	49.49
338.305	98.64
338.517	-5.8
338.729	123.22
338.942	135.51
339.154	61.78
339.367	-28.33
339.579	82.26
339.792	10.58
340.004	76.12
340.217	-13.99
340.429	102.74
340.641	86.36
340.854	10.58
341.066	24.92
341.278	98.64
341.491	131.41
341.703	61.78
341.915	16.73
342.128	69.97
342.34	65.88
342.552	43.35
342.764	41.3
342.977	49.49
343.189	67.92
343.401	26.96
343.613	67.92
343.826	133.46
344.038	45.4
344.25	2.39
344.462	100.69
344.674	33.11
344.886	8.53
345.099	78.16
345.311	18.77
345.523	51.54
345.735	-5.8
345.947	67.92
346.159	72.02
346.371	53.59
346.583	94.55
346.795	117.08
347.007	94.55
347.219	37.2
347.431	16.73
347.643	108.88
347.855	84.31
348.067	74.07
348.279	35.16
348.491	51.54
348.703	-11.95
348.915	41.3
349.127	12.63
349.339	20.82
349.551	41.3
349.763	51.54
349.975	57.68
350.187	86.36
350.399	125.27
350.61	16.73
350.822	76.12
351.034	110.93
351.246	61.78
351.458	43.35
351.669	90.45
351.881	94.55
352.093	51.54
352.305	33.11
352.517	78.16
352.728	106.84
352.94	65.88
353.152	65.88
353.363	33.11
353.575	55.64
353.787	82.26
353.999	-32.43
354.21	72.02
354.422	20.82
354.633	29.01
354.845	41.3
355.057	37.2
355.268	69.97
355.48	88.4
355.692	41.3
355.903	53.59
356.115	24.92
356.326	16.73
356.538	139.6
356.749	18.77
356.961	45.4
357.172	16.73
357.384	65.88
357.595	155.99
357.807	24.92
358.018	22.87
358.23	76.12
358.441	84.31
358.653	133.46
358.864	35.16
359.075	-32.43
359.287	59.73
359.498	92.5
359.709	108.88
359.921	106.84
360.132	78.16
360.344	69.97
360.555	63.83
360.766	123.22
360.977	0.34
361.189	67.92
361.4	20.82
361.611	47.44
361.823	86.36
362.034	57.68
362.245	69.97
362.456	65.88
362.667	80.21
362.879	59.73
363.09	82.26
363.301	135.51
363.512	63.83
363.723	61.78
363.935	67.92
364.146	57.68
364.357	47.44
364.568	92.5
364.779	2.39
364.99	41.3
365.201	16.73
365.412	59.73
365.623	12.63
365.834	78.16
366.045	49.49
366.256	100.69
366.467	78.16
366.678	-16.04
366.889	16.73
367.1	76.12
367.311	4.44
367.522	82.26
367.733	61.78
367.944	55.64
368.155	51.54
368.366	78.16
368.577	18.77
368.788	123.22
368.999	8.53
369.209	0.34
369.42	61.78
369.631	160.08
369.842	123.22
370.053	10.58
370.264	100.69
370.474	12.63
370.685	41.3
370.896	65.88
371.107	104.79
371.317	49.49
371.528	65.88
371.739	57.68
371.95	65.88
372.16	98.64
372.371	-32.43
372.582	59.73
372.792	35.16
373.003	26.96
373.214	-1.71
373.424	110.93
373.635	39.25
373.846	84.31
374.056	57.68
374.267	26.96
374.477	-11.95
374.688	90.45
374.898	106.84
375.109	86.36
375.319	117.08
375.53	98.64
375.74	49.49
375.951	31.06
376.161	90.45
376.372	166.23
376.582	76.12
376.793	82.26
377.003	49.49
377.214	100.69
377.424	78.16
377.635	65.88
377.845	76.12
378.055	33.11
378.266	-28.33
378.476	57.68
378.686	117.08
378.897	49.49
379.107	108.88
379.317	53.59
379.528	61.78
379.738	155.99
379.948	8.53
380.158	61.78
380.369	82.26
380.579	86.36
380.789	2.39
380.999	37.2
381.21	123.22
381.42	49.49
381.63	65.88
381.84	49.49
382.05	117.08
382.261	82.26
382.471	-11.95
382.681	0.34
382.891	88.4
383.101	127.32
383.311	-20.14
383.521	8.53
383.731	96.6
383.941	108.88
384.151	49.49
384.361	108.88
384.571	45.4
384.781	164.18
384.991	137.56
385.201	158.03
385.411	127.32
385.621	104.79
385.831	57.68
386.041	2.39
386.251	29.01
386.461	35.16
386.671	24.92
386.881	24.92
387.091	63.83
387.301	108.88
387.511	166.23
387.72	78.16
387.93	117.08
388.14	41.3
388.35	49.49
388.56	69.97
388.769	69.97
388.979	74.07
389.189	131.41
389.399	-16.04
389.609	29.01
389.818	53.59
390.028	24.92
390.238	69.97
390.447	76.12
390.657	133.46
390.867	-40.62
391.076	18.77
391.286	20.82
391.496	65.88
391.705	106.84
391.915	145.75
392.125	104.79
392.334	108.88
392.544	133.46
392.753	26.96
392.963	8.53
393.172	51.54
393.382	39.25
393.591	143.7
393.801	131.41
394.01	127.32
394.22	129.36
394.429	98.64
394.639	10.58
394.848	178.51
395.058	53.59
395.267	117.08
395.477	90.45
395.686	98.64
395.895	82.26
396.105	115.03
396.314	61.78
396.524	57.68
396.733	29.01
396.942	86.36
397.152	82.26
397.361	98.64
397.57	74.07
397.78	49.49
397.989	49.49
398.198	172.37
398.407	131.41
398.617	102.74
398.826	117.08
399.035	49.49
399.244	74.07
399.453	98.64
399.663	61.78
399.872	143.7
400.081	43.35
400.29	117.08
400.499	69.97
400.708	147.8
400.917	90.45
401.127	59.73
401.336	59.73
401.545	65.88
401.754	115.03
401.963	172.37
402.172	57.68
402.381	84.31
402.59	98.64
402.799	123.22
403.008	180.56
403.217	96.6
403.426	166.23
403.635	51.54
403.844	125.27
404.053	102.74
404.262	43.35
404.471	149.84
404.68	69.97
404.888	174.42
405.097	98.64
405.306	108.88
405.515	188.75
405.724	164.18
405.933	192.85
406.142	139.6
406.35	201.04
406.559	172.37
406.768	110.93
406.977	190.8
407.185	151.89
407.394	82.26
407.603	160.08
407.812	188.75
408.02	221.52
408.229	219.47
408.438	158.03
408.646	94.55
408.855	186.71
409.064	270.67
409.272	135.51
409.481	213.33
409.69	231.76
409.898	176.47
410.107	248.15
410.315	225.62
410.524	174.42
410.733	336.21
410.941	217.43
411.15	278.87
411.358	344.4
411.567	371.02
411.775	352.59
411.984	295.25
412.192	385.36
412.401	354.64
412.609	360.78
412.818	459.09
413.026	393.55
413.234	461.13
413.443	354.64
413.651	409.94
413.86	469.33
414.068	477.52
414.276	452.94
414.485	450.89
414.693	498
414.901	528.72
415.11	514.38
415.318	520.53
415.526	508.24
415.734	606.54
415.943	581.96
416.151	590.16
416.359	598.35
416.567	690.51
416.776	696.65
416.984	696.65
417.192	813.38
417.4	753.99
417.608	749.9
417.817	715.08
418.025	856.39
418.233	901.45
418.441	721.23
418.649	739.66
418.857	958.79
419.065	1024.33
419.273	928.07
419.481	969.03
419.689	1036.61
419.897	1020.23
420.105	983.37
420.313	1196.36
420.521	1132.87
420.729	1231.17
420.937	1268.03
421.145	1147.2
421.353	1372.48
421.561	1448.26
421.769	1433.92
421.977	1493.31
422.185	1509.69
422.393	1630.52
422.601	1726.78
422.809	1593.66
423.017	1620.28
423.224	1712.44
423.432	1794.36
423.64	1737.02
423.848	1935.67
424.056	1767.74
424.263	2009.4
424.471	2050.36
424.679	2013.49
424.887	2134.32
425.094	2203.96
425.302	2234.68
425.51	2214.2
425.718	2335.03
425.925	2451.76
426.133	2457.9
426.341	2720.04
426.548	2795.82
426.756	2744.62
426.964	2838.83
427.171	2955.56
427.379	2961.7
427.586	2892.07
427.794	3195.17
428.001	3313.95
428.209	3416.35
428.417	3533.09
428.624	3758.36
428.832	3719.45
429.039	3567.9
429.247	3703.07
429.454	3967.26
429.662	4253.97
429.869	3969.3
430.076	4278.55
430.284	4172.05
430.491	4184.34
430.699	4526.35
430.906	4440.34
431.114	4647.18
431.321	4612.37
431.528	4727.05
431.736	5120.26
431.943	5357.83
432.15	5220.61
432.358	5247.24
432.565	5599.49
432.772	5513.47
432.979	5839.1
433.187	5826.81
433.394	5814.52
433.601	6400.24
433.808	6430.96
434.016	6293.75
434.223	6533.36
434.43	6936.81
434.637	6842.6
434.844	7336.17
435.052	7381.22
435.259	7340.26
435.466	7446.76
435.673	7274.73
435.88	7778.53
436.087	8233.18
436.294	8155.35
436.501	8003.8
436.708	8270.04
436.915	8358.1
437.122	8779.98
437.329	8818.89
437.537	9134.28
437.743	9457.86
437.95	9273.54
438.157	9605.31
438.364	9814.21
438.571	9918.65
438.778	10084.54
438.985	10782.9
439.192	10592.44
439.399	10830
439.606	10399.93
439.813	11305.13
440.02	11980.96
440.227	11479.21
440.433	11460.77
440.64	11960.48
440.847	11808.93
441.054	12267.67
441.261	13009.04
441.467	12841.11
441.674	13168.78
441.881	13420.68
442.088	13314.19
442.294	13361.29
442.501	13635.72
442.708	14024.83
442.914	14395.51
443.121	15147.12
443.328	14645.37
443.534	15538.28
443.741	15194.22
443.948	14940.27
444.154	16214.11
444.361	16074.85
444.568	15865.96
444.774	16031.84
444.981	16250.97
445.187	16787.54
445.394	17526.86
445.6	17047.63
445.807	19032.11
446.013	17961.03
446.22	18358.33
446.426	19044.4
446.633	19431.47
446.839	20080.67
447.046	18907.19
447.252	20164.64
447.459	20144.16
447.665	20144.16
447.871	20908.05
448.078	22048.77
448.284	20793.37
448.491	21723.15
448.697	22462.46
448.903	22650.88
449.11	23005.17
449.316	22360.06
449.522	22949.88
449.728	23394.29
449.935	23447.54
450.141	23203.83
450.347	24018.92
450.553	23422.96
450.76	23613.42
450.966	24430.56
451.172	24149.99
451.378	24772.57
451.584	24381.41
451.791	25061.33
451.997	24813.53
452.203	25249.75
452.409	25491.41
452.615	25100.25
452.821	24420.32
453.027	23793.64
453.233	25104.34
453.44	24154.08
453.646	24551.39
453.852	24877.02
454.058	25149.4
454.264	24242.15
454.47	25184.21
454.676	24377.31
454.882	25075.67
455.088	23017.46
455.294	23244.79
455.5	23588.85
455.705	23732.2
455.911	23113.72
456.117	22364.16
456.323	22464.51
456.529	20987.93
456.735	22040.58
456.941	21485.58
457.147	21217.3
457.352	20580.38
457.558	20537.37
457.764	20359.2
457.97	20252.7
458.176	19626.03
458.381	19456.04
458.587	18563.13
458.793	18614.33
458.999	17715.27
459.204	19277.87
459.41	18382.91
459.616	17084.5
459.821	17279.05
460.027	16965.71
460.233	16783.45
460.438	16240.73
460.644	16189.53
460.85	15505.51
461.055	15081.58
461.261	15179.89
461.466	14354.55
461.672	13703.3
461.878	14395.51
462.083	13844.61
462.289	13353.1
462.494	13455.5
462.7	12705.94
462.905	12365.98
463.111	12767.38
463.316	12802.19
463.522	12462.23
463.727	12607.64
463.932	12564.63
464.138	12413.08
464.343	12552.34
464.549	12216.47
464.754	12306.59
464.959	12507.29
465.165	12042.4
465.37	11831.46
465.575	11348.14
465.781	11896.99
465.986	11671.72
466.191	11532.45
466.397	11280.55
466.602	10834.1
466.807	11157.68
467.012	11124.91
467.218	11190.44
467.423	10905.77
467.628	11141.29
