Data from USB4F104151__225__14-45-34-106.txt Node

Date: Thu Mar 13 14:45:34 EDT 2025
User: louis
Spectrometer: USB4F10415
Trigger mode: 4
Integration Time (sec): 2.000000E-2
Scans to average: 1
Electric dark correction enabled: true
Nonlinearity correction enabled: false
Boxcar width: 0
XAxis mode: Wavelengths
Number of Pixels in Spectrum: 3648
>>>>>Begin Spectral Data<<<<<
178.204	-120.49
178.424	-120.49
178.644	-120.49
178.864	-159.4
179.084	-104.11
179.304	-69.29
179.524	-1.71
179.744	-13.99
179.964	88.4
180.184	47.44
180.404	-16.04
180.624	14.68
180.844	-34.47
181.064	12.63
181.283	-1.71
181.503	2.39
181.723	-28.33
181.943	-30.38
182.163	26.96
182.383	-24.23
182.602	-7.85
182.822	57.68
183.042	26.96
183.262	14.68
183.482	-83.63
183.701	55.64
183.921	8.53
184.141	-63.15
184.361	33.11
184.58	16.73
184.8	-5.8
185.02	16.73
185.239	53.59
185.459	47.44
185.679	39.25
185.898	-67.24
186.118	76.12
186.338	-18.09
186.557	76.12
186.777	-50.86
186.997	-7.85
187.216	49.49
187.436	43.35
187.655	76.12
187.875	-7.85
188.095	106.84
188.314	-34.47
188.534	2.39
188.753	67.92
188.973	51.54
189.192	8.53
189.412	96.6
189.631	88.4
189.851	-5.8
190.07	55.64
190.29	-5.8
190.509	-5.8
190.729	-1.71
190.948	55.64
191.168	198.99
191.387	80.21
191.607	-32.43
191.826	24.92
192.045	-26.28
192.265	31.06
192.484	6.49
192.704	41.3
192.923	-32.43
193.142	72.02
193.362	-22.19
193.581	16.73
193.8	24.92
194.02	55.64
194.239	22.87
194.458	55.64
194.678	39.25
194.897	8.53
195.116	2.39
195.335	-13.99
195.555	26.96
195.774	6.49
195.993	29.01
196.212	31.06
196.432	24.92
196.651	-61.1
196.87	51.54
197.089	-9.9
197.308	57.68
197.528	0.34
197.747	31.06
197.966	0.34
198.185	112.98
198.404	0.34
198.623	39.25
198.842	33.11
199.062	69.97
199.281	76.12
199.5	33.11
199.719	6.49
199.938	-59.05
200.157	72.02
200.376	31.06
200.595	39.25
200.814	-1.71
201.033	24.92
201.252	-7.85
201.471	26.96
201.69	131.41
201.909	-26.28
202.128	-1.71
202.347	41.3
202.566	33.11
202.785	31.06
203.004	55.64
203.223	117.08
203.442	24.92
203.661	-38.57
203.879	39.25
204.098	135.51
204.317	72.02
204.536	86.36
204.755	31.06
204.974	20.82
205.193	2.39
205.411	129.36
205.63	37.2
205.849	-16.04
206.068	10.58
206.287	112.98
206.505	-5.8
206.724	-44.71
206.943	-9.9
207.162	24.92
207.381	31.06
207.599	43.35
207.818	18.77
208.037	96.6
208.255	47.44
208.474	-38.57
208.693	49.49
208.911	39.25
209.13	57.68
209.349	-48.81
209.567	0.34
209.786	-1.71
210.005	22.87
210.223	-13.99
210.442	-59.05
210.661	-5.8
210.879	22.87
211.098	35.16
211.316	55.64
211.535	88.4
211.753	63.83
211.972	41.3
212.191	57.68
212.409	29.01
212.628	31.06
212.846	-48.81
213.065	-7.85
213.283	72.02
213.502	14.68
213.72	43.35
213.938	-85.67
214.157	8.53
214.375	84.31
214.594	-32.43
214.812	47.44
215.031	31.06
215.249	-9.9
215.467	22.87
215.686	8.53
215.904	49.49
216.122	22.87
216.341	100.69
216.559	-1.71
216.778	90.45
216.996	2.39
217.214	-65.19
217.432	18.77
217.651	-1.71
217.869	72.02
218.087	72.02
218.306	0.34
218.524	55.64
218.742	69.97
218.96	-1.71
219.179	0.34
219.397	39.25
219.615	125.27
219.833	65.88
220.051	-9.9
220.27	31.06
220.488	-18.09
220.706	72.02
220.924	-11.95
221.142	26.96
221.36	33.11
221.578	61.78
221.796	-48.81
222.015	-18.09
222.233	61.78
222.451	49.49
222.669	31.06
222.887	72.02
223.105	6.49
223.323	35.16
223.541	22.87
223.759	57.68
223.977	47.44
224.195	6.49
224.413	-9.9
224.631	39.25
224.849	18.77
225.067	39.25
225.285	72.02
225.503	47.44
225.721	16.73
225.939	74.07
226.157	18.77
226.375	59.73
226.592	29.01
226.81	24.92
227.028	31.06
227.246	31.06
227.464	-7.85
227.682	-3.75
227.9	29.01
228.117	33.11
228.335	47.44
228.553	22.87
228.771	63.83
228.989	115.03
229.206	47.44
229.424	51.54
229.642	55.64
229.86	29.01
230.077	90.45
230.295	67.92
230.513	39.25
230.731	20.82
230.948	55.64
231.166	90.45
231.384	-11.95
231.601	8.53
231.819	33.11
232.037	31.06
232.254	39.25
232.472	31.06
232.689	-61.1
232.907	57.68
233.125	26.96
233.342	55.64
233.56	-5.8
233.777	-26.28
233.995	39.25
234.213	35.16
234.43	14.68
234.648	2.39
234.865	8.53
235.083	49.49
235.3	16.73
235.518	57.68
235.735	67.92
235.953	-18.09
236.17	98.64
236.388	-48.81
236.605	-13.99
236.822	74.07
237.04	8.53
237.257	55.64
237.475	6.49
237.692	37.2
237.909	92.5
238.127	-42.67
238.344	35.16
238.562	31.06
238.779	49.49
238.996	47.44
239.214	37.2
239.431	47.44
239.648	-52.91
239.865	82.26
240.083	61.78
240.3	39.25
240.517	-9.9
240.735	2.39
240.952	26.96
241.169	8.53
241.386	-1.71
241.603	31.06
241.821	88.4
242.038	47.44
242.255	-40.62
242.472	16.73
242.689	16.73
242.907	26.96
243.124	2.39
243.341	-30.38
243.558	43.35
243.775	22.87
243.992	26.96
244.209	57.68
244.426	76.12
244.643	115.03
244.86	65.88
245.078	49.49
245.295	47.44
245.512	65.88
245.729	-11.95
245.946	74.07
246.163	88.4
246.38	-13.99
246.597	-13.99
246.814	18.77
247.031	92.5
247.248	14.68
247.464	26.96
247.681	26.96
247.898	55.64
248.115	59.73
248.332	-1.71
248.549	31.06
248.766	63.83
248.983	26.96
249.2	49.49
249.417	41.3
249.633	-75.43
249.85	-13.99
250.067	29.01
250.284	35.16
250.501	-30.38
250.717	74.07
250.934	16.73
251.151	18.77
251.368	-1.71
251.585	24.92
251.801	63.83
252.018	24.92
252.235	96.6
252.451	33.11
252.668	-20.14
252.885	55.64
253.102	6.49
253.318	6.49
253.535	6.49
253.752	-9.9
253.968	0.34
254.185	-18.09
254.401	41.3
254.618	67.92
254.835	0.34
255.051	0.34
255.268	80.21
255.484	10.58
255.701	8.53
255.917	41.3
256.134	-9.9
256.351	6.49
256.567	47.44
256.784	51.54
257	4.44
257.217	47.44
257.433	47.44
257.65	-42.67
257.866	92.5
258.082	-34.47
258.299	4.44
258.515	35.16
258.732	143.7
258.948	33.11
259.165	31.06
259.381	-13.99
259.597	-9.9
259.814	16.73
260.03	-18.09
260.246	74.07
260.463	45.4
260.679	59.73
260.895	26.96
261.112	82.26
261.328	-26.28
261.544	33.11
261.761	51.54
261.977	35.16
262.193	-9.9
262.409	14.68
262.626	86.36
262.842	47.44
263.058	104.79
263.274	-38.57
263.49	37.2
263.707	16.73
263.923	26.96
264.139	0.34
264.355	80.21
264.571	112.98
264.787	-22.19
265.004	74.07
265.22	47.44
265.436	49.49
265.652	53.59
265.868	80.21
266.084	-71.34
266.3	55.64
266.516	-32.43
266.732	84.31
266.948	14.68
267.164	82.26
267.38	6.49
267.596	69.97
267.812	57.68
268.028	-5.8
268.244	-46.76
268.46	63.83
268.676	59.73
268.892	80.21
269.108	-9.9
269.324	43.35
269.54	-1.71
269.756	35.16
269.972	41.3
270.188	-22.19
270.403	0.34
270.619	49.49
270.835	12.63
271.051	31.06
271.267	-28.33
271.483	10.58
271.698	96.6
271.914	88.4
272.13	67.92
272.346	43.35
272.562	22.87
272.777	53.59
272.993	-22.19
273.209	57.68
273.425	18.77
273.64	-1.71
273.856	72.02
274.072	-20.14
274.287	8.53
274.503	88.4
274.719	24.92
274.934	-34.47
275.15	10.58
275.366	57.68
275.581	22.87
275.797	-9.9
276.012	43.35
276.228	8.53
276.444	119.12
276.659	35.16
276.875	8.53
277.09	72.02
277.306	41.3
277.521	47.44
277.737	16.73
277.952	63.83
278.168	59.73
278.383	10.58
278.599	-3.75
278.814	100.69
279.03	16.73
279.245	63.83
279.461	24.92
279.676	33.11
279.892	26.96
280.107	-1.71
280.322	0.34
280.538	84.31
280.753	-54.95
280.969	59.73
281.184	37.2
281.399	63.83
281.615	55.64
281.83	8.53
282.045	35.16
282.26	88.4
282.476	31.06
282.691	57.68
282.906	26.96
283.122	16.73
283.337	-46.76
283.552	82.26
283.767	41.3
283.983	29.01
284.198	47.44
284.413	-1.71
284.628	-63.15
284.843	76.12
285.058	2.39
285.274	88.4
285.489	-32.43
285.704	74.07
285.919	121.17
286.134	84.31
286.349	39.25
286.564	65.88
286.779	22.87
286.995	20.82
287.21	-5.8
287.425	0.34
287.64	-18.09
287.855	63.83
288.07	-9.9
288.285	49.49
288.5	24.92
288.715	82.26
288.93	6.49
289.145	20.82
289.36	22.87
289.575	18.77
289.79	55.64
290.004	67.92
290.219	67.92
290.434	84.31
290.649	104.79
290.864	14.68
291.079	29.01
291.294	82.26
291.509	-9.9
291.724	-18.09
291.938	47.44
292.153	55.64
292.368	37.2
292.583	149.84
292.798	18.77
293.012	31.06
293.227	61.78
293.442	-9.9
293.657	96.6
293.871	112.98
294.086	47.44
294.301	141.65
294.516	84.31
294.73	-42.67
294.945	-1.71
295.16	-34.47
295.374	63.83
295.589	90.45
295.804	16.73
296.018	106.84
296.233	31.06
296.447	-7.85
296.662	53.59
296.877	39.25
297.091	-5.8
297.306	110.93
297.52	8.53
297.735	6.49
297.949	6.49
298.164	67.92
298.378	80.21
298.593	24.92
298.807	-26.28
299.022	88.4
299.236	26.96
299.451	59.73
299.665	20.82
299.88	-1.71
300.094	16.73
300.309	-28.33
300.523	55.64
300.737	47.44
300.952	-42.67
301.166	47.44
301.381	80.21
301.595	8.53
301.809	0.34
302.024	108.88
302.238	45.4
302.452	72.02
302.667	6.49
302.881	-38.57
303.095	117.08
303.309	20.82
303.524	22.87
303.738	-13.99
303.952	104.79
304.166	84.31
304.381	-42.67
304.595	72.02
304.809	6.49
305.023	90.45
305.237	43.35
305.452	24.92
305.666	26.96
305.88	104.79
306.094	6.49
306.308	26.96
306.522	29.01
306.736	57.68
306.95	100.69
307.164	-50.86
307.379	-24.23
307.593	129.36
307.807	47.44
308.021	39.25
308.235	153.94
308.449	72.02
308.663	-50.86
308.877	55.64
309.091	-65.19
309.305	35.16
309.519	0.34
309.733	74.07
309.947	49.49
310.161	76.12
310.374	47.44
310.588	129.36
310.802	18.77
311.016	51.54
311.23	55.64
311.444	0.34
311.658	35.16
311.872	39.25
312.085	67.92
312.299	88.4
312.513	-16.04
312.727	14.68
312.941	-32.43
313.154	90.45
313.368	24.92
313.582	63.83
313.796	106.84
314.009	63.83
314.223	47.44
314.437	82.26
314.651	90.45
314.864	8.53
315.078	10.58
315.292	-46.76
315.505	2.39
315.719	-1.71
315.933	112.98
316.146	20.82
316.36	125.27
316.573	78.16
316.787	6.49
317.001	92.5
317.214	72.02
317.428	41.3
317.641	-34.47
317.855	-1.71
318.068	51.54
318.282	16.73
318.495	61.78
318.709	35.16
318.922	-9.9
319.136	55.64
319.349	63.83
319.563	0.34
319.776	86.36
319.99	-18.09
320.203	39.25
320.417	49.49
320.63	43.35
320.843	137.56
321.057	-13.99
321.27	76.12
321.483	53.59
321.697	80.21
321.91	33.11
322.124	26.96
322.337	96.6
322.55	61.78
322.763	2.39
322.977	41.3
323.19	8.53
323.403	0.34
323.617	53.59
323.83	49.49
324.043	-30.38
324.256	98.64
324.469	26.96
324.683	61.78
324.896	59.73
325.109	55.64
325.322	14.68
325.535	18.77
325.748	29.01
325.962	31.06
326.175	26.96
326.388	88.4
326.601	82.26
326.814	-42.67
327.027	-13.99
327.24	90.45
327.453	-1.71
327.666	80.21
327.879	57.68
328.092	78.16
328.305	39.25
328.518	0.34
328.731	88.4
328.944	14.68
329.157	-63.15
329.37	115.03
329.583	72.02
329.796	80.21
330.009	22.87
330.222	131.41
330.435	49.49
330.648	37.2
330.861	10.58
331.073	-18.09
331.286	22.87
331.499	76.12
331.712	63.83
331.925	55.64
332.138	31.06
332.35	96.6
332.563	-9.9
332.776	57.68
332.989	63.83
333.202	92.5
333.414	6.49
333.627	6.49
333.84	33.11
334.053	-7.85
334.265	31.06
334.478	35.16
334.691	86.36
334.903	14.68
335.116	14.68
335.329	24.92
335.541	8.53
335.754	41.3
335.966	10.58
336.179	18.77
336.392	-9.9
336.604	47.44
336.817	41.3
337.029	72.02
337.242	88.4
337.454	14.68
337.667	43.35
337.88	49.49
338.092	26.96
338.305	33.11
338.517	-54.95
338.729	14.68
338.942	131.41
339.154	55.64
339.367	-3.75
339.579	26.96
339.792	-46.76
340.004	74.07
340.217	74.07
340.429	33.11
340.641	18.77
340.854	-5.8
341.066	-11.95
341.278	12.63
341.491	112.98
341.703	8.53
341.915	4.44
342.128	82.26
342.34	31.06
342.552	8.53
342.764	-26.28
342.977	90.45
343.189	26.96
343.401	63.83
343.613	-34.47
343.826	-32.43
344.038	31.06
344.25	53.59
344.462	26.96
344.674	24.92
344.886	-1.71
345.099	80.21
345.311	92.5
345.523	14.68
345.735	16.73
345.947	31.06
346.159	10.58
346.371	47.44
346.583	-5.8
346.795	98.64
347.007	63.83
347.219	-24.23
347.431	22.87
347.643	26.96
347.855	18.77
348.067	8.53
348.279	18.77
348.491	100.69
348.703	88.4
348.915	-1.71
349.127	26.96
349.339	53.59
349.551	35.16
349.763	22.87
349.975	39.25
350.187	72.02
350.399	10.58
350.61	90.45
350.822	16.73
351.034	37.2
351.246	-24.23
351.458	16.73
351.669	137.56
351.881	80.21
352.093	37.2
352.305	133.46
352.517	41.3
352.728	55.64
352.94	8.53
353.152	39.25
353.363	31.06
353.575	14.68
353.787	47.44
353.999	59.73
354.21	129.36
354.422	-9.9
354.633	-26.28
354.845	-3.75
355.057	63.83
355.268	24.92
355.48	37.2
355.692	16.73
355.903	72.02
356.115	31.06
356.326	49.49
356.538	96.6
356.749	88.4
356.961	108.88
357.172	16.73
357.384	-26.28
357.595	80.21
357.807	72.02
358.018	-59.05
358.23	49.49
358.441	145.75
358.653	65.88
358.864	112.98
359.075	6.49
359.287	69.97
359.498	98.64
359.709	6.49
359.921	33.11
360.132	26.96
360.344	88.4
360.555	47.44
360.766	47.44
360.977	55.64
361.189	84.31
361.4	8.53
361.611	31.06
361.823	22.87
362.034	92.5
362.245	72.02
362.456	69.97
362.667	43.35
362.879	76.12
363.09	6.49
363.301	104.79
363.512	82.26
363.723	0.34
363.935	6.49
364.146	104.79
364.357	41.3
364.568	106.84
364.779	31.06
364.99	172.37
365.201	-18.09
365.412	65.88
365.623	51.54
365.834	80.21
366.045	14.68
366.256	78.16
366.467	14.68
366.678	41.3
366.889	14.68
367.1	6.49
367.311	37.2
367.522	31.06
367.733	121.17
367.944	86.36
368.155	55.64
368.366	72.02
368.577	22.87
368.788	98.64
368.999	-42.67
369.209	31.06
369.42	100.69
369.631	57.68
369.842	18.77
370.053	55.64
370.264	63.83
370.474	31.06
370.685	59.73
370.896	8.53
371.107	65.88
371.317	51.54
371.528	24.92
371.739	51.54
371.95	39.25
372.16	-50.86
372.371	31.06
372.582	96.6
372.792	26.96
373.003	39.25
373.214	104.79
373.424	76.12
373.635	24.92
373.846	74.07
374.056	78.16
374.267	82.26
374.477	61.78
374.688	20.82
374.898	33.11
375.109	-26.28
375.319	6.49
375.53	115.03
375.74	80.21
375.951	55.64
376.161	80.21
376.372	155.99
376.582	-52.91
376.793	112.98
377.003	14.68
377.214	37.2
377.424	-18.09
377.635	55.64
377.845	8.53
378.055	76.12
378.266	-42.67
378.476	33.11
378.686	47.44
378.897	39.25
379.107	94.55
379.317	121.17
379.528	26.96
379.738	98.64
379.948	35.16
380.158	33.11
380.369	14.68
380.579	59.73
380.789	63.83
380.999	112.98
381.21	35.16
381.42	80.21
381.63	-22.19
381.84	80.21
382.05	51.54
382.261	86.36
382.471	88.4
382.681	63.83
382.891	47.44
383.101	41.3
383.311	55.64
383.521	31.06
383.731	125.27
383.941	76.12
384.151	67.92
384.361	-1.71
384.571	63.83
384.781	41.3
384.991	131.41
385.201	63.83
385.411	131.41
385.621	82.26
385.831	78.16
386.041	76.12
386.251	43.35
386.461	63.83
386.671	104.79
386.881	74.07
387.091	74.07
387.301	65.88
387.511	26.96
387.72	80.21
387.93	112.98
388.14	41.3
388.35	76.12
388.56	88.4
388.769	72.02
388.979	92.5
389.189	35.16
389.399	88.4
389.609	47.44
389.818	90.45
390.028	57.68
390.238	104.79
390.447	22.87
390.657	63.83
390.867	63.83
391.076	31.06
391.286	106.84
391.496	31.06
391.705	49.49
391.915	158.03
392.125	76.12
392.334	41.3
392.544	53.59
392.753	100.69
392.963	31.06
393.172	57.68
393.382	24.92
393.591	92.5
393.801	57.68
394.01	57.68
394.22	123.22
394.429	59.73
394.639	41.3
394.848	123.22
395.058	90.45
395.267	72.02
395.477	74.07
395.686	6.49
395.895	139.6
396.105	186.71
396.314	80.21
396.524	135.51
396.733	96.6
396.942	133.46
397.152	88.4
397.361	63.83
397.57	112.98
397.78	12.63
397.989	188.75
398.198	106.84
398.407	88.4
398.617	108.88
398.826	129.36
399.035	63.83
399.244	94.55
399.453	72.02
399.663	131.41
399.872	69.97
400.081	153.94
400.29	80.21
400.499	151.89
400.708	92.5
400.917	145.75
401.127	123.22
401.336	51.54
401.545	127.32
401.754	123.22
401.963	88.4
402.172	166.23
402.381	22.87
402.59	139.6
402.799	96.6
403.008	104.79
403.217	180.56
403.426	166.23
403.635	123.22
403.844	123.22
404.053	141.65
404.262	137.56
404.471	223.57
404.68	158.03
404.888	129.36
405.097	145.75
405.306	194.9
405.515	201.04
405.724	211.28
405.933	149.84
406.142	242
406.35	260.43
406.559	174.42
406.768	235.86
406.977	227.67
407.185	242
407.394	235.86
407.603	155.99
407.812	219.47
408.02	239.95
408.229	229.71
408.438	280.91
408.646	205.14
408.855	235.86
409.064	262.48
409.272	264.53
409.481	254.29
409.69	317.78
409.898	344.4
410.107	287.06
410.315	342.35
410.524	403.79
410.733	317.78
410.941	344.4
411.15	401.74
411.358	422.22
411.567	420.17
411.775	495.95
411.984	452.94
412.192	522.57
412.401	414.03
412.609	514.38
412.818	555.34
413.026	526.67
413.234	500.05
413.443	514.38
413.651	551.24
413.86	579.92
414.068	645.45
414.276	727.37
414.485	663.88
414.693	731.47
414.901	815.43
415.11	762.19
415.318	768.33
415.526	801.1
415.734	805.19
415.943	817.48
416.151	868.68
416.359	921.93
416.567	874.82
416.776	874.82
416.984	983.37
417.192	1149.25
417.4	1028.42
417.608	1016.13
417.817	1116.48
418.025	1196.36
418.233	1233.22
418.441	1343.81
418.649	1292.61
418.857	1308.99
419.065	1296.71
419.273	1313.09
419.481	1521.98
419.689	1530.17
419.897	1501.5
420.105	1489.21
420.313	1681.72
420.521	1831.23
420.729	1767.74
420.937	1743.16
421.145	1976.63
421.353	2044.21
421.561	2029.88
421.769	2171.19
421.977	2265.39
422.185	2097.46
422.393	2332.98
422.601	2457.9
422.809	2392.37
423.017	2535.73
423.224	2599.21
423.432	2732.33
423.64	2611.5
423.848	3062.05
424.056	2947.37
424.263	3064.1
424.471	3225.89
424.679	3053.86
424.887	3404.07
425.094	3485.98
425.302	3498.27
425.51	3582.24
425.718	3727.64
425.925	3717.4
426.133	3840.28
426.341	4061.46
426.548	4303.12
426.756	4276.5
426.964	4251.92
427.171	4552.98
427.379	4628.75
427.586	4815.12
427.794	5054.73
428.001	5220.61
428.209	5366.02
428.417	5431.55
428.624	5699.84
428.832	5601.54
429.039	5478.66
429.247	5648.64
429.454	6275.32
429.662	6619.38
429.869	6232.31
430.076	6646
430.284	6447.35
430.491	6865.13
430.699	7209.19
430.906	7319.78
431.114	7309.54
431.321	7575.78
431.528	7657.7
431.736	8001.76
431.943	8321.24
432.15	8132.83
432.358	8403.16
432.565	9017.55
432.772	8841.42
432.979	9359.56
433.187	9455.81
433.394	9275.59
433.601	10119.35
433.808	10315.96
434.016	10152.12
434.223	10440.89
434.43	10975.41
434.637	10924.21
434.844	11657.38
435.052	11821.22
435.259	11677.86
435.466	11907.23
435.673	11729.06
435.88	12503.19
436.087	13203.6
436.294	13207.69
436.501	12884.11
436.708	13133.96
436.915	13820.03
437.122	14205.05
437.329	14190.72
437.537	14792.82
437.743	14858.35
437.95	14743.67
438.157	15745.13
438.364	15951.97
438.571	15849.57
438.778	16279.64
438.985	17639.5
439.192	16877.65
439.399	17283.15
439.606	17119.31
439.813	18110.53
440.02	19226.67
440.227	18757.69
440.433	18438.2
440.64	19290.16
440.847	18989.11
441.054	19664.94
441.261	21096.47
441.467	20660.25
441.674	21170.19
441.881	21733.39
442.088	21854.22
442.294	21583.88
442.501	22243.33
442.708	22616.06
442.914	23242.74
443.121	24319.97
443.328	23832.55
443.534	25360.34
443.741	24827.87
443.948	24467.42
444.154	26353.6
444.361	26273.73
444.568	26183.62
444.774	26257.35
444.981	26496.96
445.187	27287.48
445.394	28518.31
445.6	28125.1
445.807	30654.34
446.013	29546.39
446.22	30109.58
446.426	31469.43
446.633	31293.3
446.839	32778.08
447.046	31358.84
447.252	32702.31
447.459	32888.67
447.665	32851.81
447.871	34344.78
448.078	35596.09
448.284	33881.94
448.491	34959.17
448.697	36579.11
448.903	37062.43
449.11	37168.93
449.316	36624.17
449.522	37336.86
449.728	38686.47
449.935	38483.72
450.141	38500.11
450.347	39892.72
450.553	38104.85
450.76	38473.48
450.966	40339.18
451.172	39702.26
451.378	40765.16
451.584	39872.24
451.791	40976.1
451.997	40785.64
452.203	41893.59
452.409	41391.84
452.615	41408.22
452.821	39583.48
453.027	39401.21
453.233	41168.61
453.44	39993.08
453.646	40197.87
453.852	40711.91
454.058	41377.5
454.264	40144.62
454.47	41055.97
454.676	39806.71
454.882	41271.01
455.088	37697.3
455.294	38729.48
455.5	39300.86
455.705	39188.22
455.911	37744.41
456.117	37193.5
456.323	36646.69
456.529	34731.84
456.735	36570.92
456.941	35520.31
457.147	34807.62
457.352	33892.18
457.558	33808.21
457.764	33664.85
457.97	32730.98
458.176	32145.26
458.381	32423.78
458.587	30791.55
458.793	30873.47
458.999	29187.99
459.204	31008.64
459.41	30601.09
459.616	28483.49
459.821	28673.95
460.027	28630.94
460.233	27586.48
460.438	26873.79
460.644	27187.13
460.85	25491.41
461.055	25405.39
461.261	25366.48
461.466	23361.52
461.672	22898.68
461.878	24569.82
462.083	22990.84
462.289	22376.45
462.494	22087.68
462.7	21213.2
462.905	20740.12
463.111	21252.11
463.316	21383.18
463.522	20877.33
463.727	20973.59
463.932	20926.49
464.138	20797.46
464.343	20906.01
464.549	20267.04
464.754	21073.94
464.959	20580.38
465.165	20654.11
465.37	19707.94
465.575	19189.81
465.781	20002.85
465.986	20469.79
466.191	19345.45
466.397	19214.38
466.602	18116.67
466.807	18982.96
467.012	18835.51
467.218	19032.11
467.423	18384.96
467.628	18610.23
467.833	19503.15
