Data from USB4F104151__300__14-46-38-351.txt Node

Date: Thu Mar 13 14:46:38 EDT 2025
User: louis
Spectrometer: USB4F10415
Trigger mode: 4
Integration Time (sec): 2.000000E-2
Scans to average: 1
Electric dark correction enabled: true
Nonlinearity correction enabled: false
Boxcar width: 0
XAxis mode: Wavelengths
Number of Pixels in Spectrum: 3648
>>>>>Begin Spectral Data<<<<<
178.204	-76.97
178.424	-76.97
178.644	-76.97
178.864	-142.5
179.084	-99.5
179.304	39.76
179.524	4.95
179.744	29.52
179.964	58.2
180.184	23.38
180.404	-25.77
180.624	-62.63
180.844	25.43
181.064	-56.49
181.283	-40.11
181.503	-33.96
181.723	37.72
181.943	-23.72
182.163	115.54
182.383	-72.87
182.602	64.34
182.822	-19.63
183.042	95.06
183.262	-3.24
183.482	64.34
183.701	68.44
183.921	19.29
184.141	97.11
184.361	107.35
184.58	80.72
184.8	60.24
185.02	-11.43
185.239	78.68
185.459	21.33
185.679	95.06
185.898	7
186.118	29.52
186.338	70.48
186.557	144.21
186.777	19.29
186.997	17.24
187.216	29.52
187.436	129.88
187.655	-5.29
187.875	45.91
188.095	70.48
188.314	136.02
188.534	-9.39
188.753	107.35
188.973	56.15
189.192	54.1
189.412	56.15
189.631	25.43
189.851	-9.39
190.07	4.95
190.29	37.72
190.509	60.24
190.729	39.76
190.948	72.53
191.168	90.96
191.387	97.11
191.607	-1.19
191.826	64.34
192.045	86.87
192.265	58.2
192.484	21.33
192.704	17.24
192.923	62.29
193.142	119.64
193.362	95.06
193.581	162.64
193.8	31.57
194.02	45.91
194.239	80.72
194.458	37.72
194.678	33.62
194.897	23.38
195.116	4.95
195.335	37.72
195.555	90.96
195.774	39.76
195.993	2.9
196.212	23.38
196.432	-44.2
196.651	39.76
196.87	9.05
197.089	101.2
197.308	37.72
197.528	103.25
197.747	52.05
197.966	-1.19
198.185	37.72
198.404	54.1
198.623	33.62
198.842	60.24
199.062	11.09
199.281	103.25
199.5	86.87
199.719	78.68
199.938	37.72
200.157	86.87
200.376	45.91
200.595	103.25
200.814	50
201.033	-44.2
201.252	45.91
201.471	54.1
201.69	72.53
201.909	95.06
202.128	131.92
202.347	58.2
202.566	62.29
202.785	39.76
203.004	90.96
203.223	86.87
203.442	99.16
203.661	54.1
203.879	99.16
204.098	35.67
204.317	7
204.536	66.39
204.755	54.1
204.974	62.29
205.193	-3.24
205.411	54.1
205.63	123.73
205.849	90.96
206.068	29.52
206.287	37.72
206.505	103.25
206.724	60.24
206.943	7
207.162	-7.34
207.381	90.96
207.599	68.44
207.818	78.68
208.037	80.72
208.255	62.29
208.474	156.5
208.693	21.33
208.911	70.48
209.13	136.02
209.349	105.3
209.567	129.88
209.786	80.72
210.005	-11.43
210.223	7
210.442	39.76
210.661	37.72
210.879	54.1
211.098	62.29
211.316	-3.24
211.535	86.87
211.753	88.92
211.972	119.64
212.191	54.1
212.409	58.2
212.628	70.48
212.846	-17.58
213.065	68.44
213.283	136.02
213.502	0.85
213.72	33.62
213.938	39.76
214.157	29.52
214.375	62.29
214.594	64.34
214.812	52.05
215.031	103.25
215.249	7
215.467	47.96
215.686	56.15
215.904	115.54
216.122	29.52
216.341	84.82
216.559	47.96
216.778	56.15
216.996	43.86
217.214	70.48
217.432	56.15
217.651	105.3
217.869	88.92
218.087	37.72
218.306	-25.77
218.524	64.34
218.742	86.87
218.96	39.76
219.179	0.85
219.397	86.87
219.615	123.73
219.833	93.01
220.051	-11.43
220.27	95.06
220.488	15.19
220.706	29.52
220.924	33.62
221.142	-42.15
221.36	-5.29
221.578	23.38
221.796	33.62
222.015	119.64
222.233	41.81
222.451	29.52
222.669	15.19
222.887	88.92
223.105	107.35
223.323	37.72
223.541	-44.2
223.759	15.19
223.977	93.01
224.195	70.48
224.413	54.1
224.631	39.76
224.849	99.16
225.067	70.48
225.285	17.24
225.503	33.62
225.721	37.72
225.939	64.34
226.157	62.29
226.375	170.83
226.592	-23.72
226.81	47.96
227.028	78.68
227.246	113.49
227.464	9.05
227.682	95.06
227.9	62.29
228.117	39.76
228.335	95.06
228.553	13.14
228.771	21.33
228.989	27.48
229.206	7
229.424	54.1
229.642	17.24
229.86	45.91
230.077	29.52
230.295	64.34
230.513	95.06
230.731	37.72
230.948	95.06
231.166	80.72
231.384	-36.01
231.601	21.33
231.819	78.68
232.037	86.87
232.254	25.43
232.472	21.33
232.689	33.62
232.907	50
233.125	105.3
233.342	95.06
233.56	37.72
233.777	-7.34
233.995	23.38
234.213	54.1
234.43	107.35
234.648	0.85
234.865	54.1
235.083	113.49
235.3	25.43
235.518	142.16
235.735	47.96
235.953	29.52
236.17	47.96
236.388	99.16
236.605	95.06
236.822	129.88
237.04	95.06
237.257	43.86
237.475	66.39
237.692	74.58
237.909	62.29
238.127	82.77
238.344	150.36
238.562	76.63
238.779	21.33
238.996	-1.19
239.214	70.48
239.431	37.72
239.648	33.62
239.865	66.39
240.083	127.83
240.3	-7.34
240.517	-44.2
240.735	-9.39
240.952	15.19
241.169	78.68
241.386	54.1
241.603	19.29
241.821	52.05
242.038	74.58
242.255	-17.58
242.472	2.9
242.689	62.29
242.907	50
243.124	74.58
243.341	0.85
243.558	72.53
243.775	13.14
243.992	-5.29
244.209	7
244.426	37.72
244.643	66.39
244.86	17.24
245.078	62.29
245.295	86.87
245.512	47.96
245.729	86.87
245.946	80.72
246.163	70.48
246.38	119.64
246.597	15.19
246.814	29.52
247.031	-13.48
247.248	82.77
247.464	82.77
247.681	109.4
247.898	15.19
248.115	97.11
248.332	-27.82
248.549	74.58
248.766	27.48
248.983	80.72
249.2	7
249.417	107.35
249.633	64.34
249.85	105.3
250.067	23.38
250.284	0.85
250.501	95.06
250.717	54.1
250.934	27.48
251.151	62.29
251.368	-9.39
251.585	66.39
251.801	-3.24
252.018	37.72
252.235	31.57
252.451	-33.96
252.668	58.2
252.885	45.91
253.102	-17.58
253.318	4.95
253.535	33.62
253.752	56.15
253.968	60.24
254.185	17.24
254.401	-3.24
254.618	56.15
254.835	27.48
255.051	111.44
255.268	129.88
255.484	84.82
255.701	41.81
255.917	62.29
256.134	31.57
256.351	39.76
256.567	93.01
256.784	17.24
257	-23.72
257.217	62.29
257.433	70.48
257.65	70.48
257.866	47.96
258.082	50
258.299	-3.24
258.515	78.68
258.732	37.72
258.948	17.24
259.165	70.48
259.381	58.2
259.597	-11.43
259.814	13.14
260.03	88.92
260.246	82.77
260.463	13.14
260.679	127.83
260.895	66.39
261.112	66.39
261.328	50
261.544	45.91
261.761	88.92
261.977	82.77
262.193	-64.68
262.409	101.2
262.626	41.81
262.842	103.25
263.058	15.19
263.274	72.53
263.49	21.33
263.707	29.52
263.923	66.39
264.139	21.33
264.355	97.11
264.571	64.34
264.787	58.2
265.004	82.77
265.22	86.87
265.436	66.39
265.652	25.43
265.868	27.48
266.084	54.1
266.3	4.95
266.516	54.1
266.732	-1.19
266.948	142.16
267.164	45.91
267.38	54.1
267.596	13.14
267.812	52.05
268.028	50
268.244	29.52
268.46	56.15
268.676	7
268.892	78.68
269.108	58.2
269.324	50
269.54	-3.24
269.756	62.29
269.972	19.29
270.188	-27.82
270.403	33.62
270.619	23.38
270.835	17.24
271.051	68.44
271.267	13.14
271.483	47.96
271.698	82.77
271.914	50
272.13	-66.73
272.346	76.63
272.562	33.62
272.777	45.91
272.993	54.1
273.209	74.58
273.425	90.96
273.64	70.48
273.856	142.16
274.072	111.44
274.287	29.52
274.503	74.58
274.719	103.25
274.934	-9.39
275.15	-19.63
275.366	62.29
275.581	39.76
275.797	68.44
276.012	37.72
276.228	31.57
276.444	45.91
276.659	84.82
276.875	17.24
277.09	82.77
277.306	50
277.521	86.87
277.737	45.91
277.952	95.06
278.168	64.34
278.383	97.11
278.599	70.48
278.814	88.92
279.03	160.59
279.245	52.05
279.461	50
279.676	74.58
279.892	45.91
280.107	39.76
280.322	25.43
280.538	50
280.753	50
280.969	17.24
281.184	78.68
281.399	146.26
281.615	105.3
281.83	25.43
282.045	-1.19
282.26	29.52
282.476	41.81
282.691	2.9
282.906	54.1
283.122	115.54
283.337	17.24
283.552	72.53
283.767	45.91
283.983	78.68
284.198	41.81
284.413	50
284.628	29.52
284.843	82.77
285.058	64.34
285.274	62.29
285.489	17.24
285.704	119.64
285.919	78.68
286.134	-33.96
286.349	4.95
286.564	103.25
286.779	72.53
286.995	47.96
287.21	82.77
287.425	97.11
287.64	25.43
287.855	58.2
288.07	78.68
288.285	64.34
288.5	80.72
288.715	62.29
288.93	103.25
289.145	64.34
289.36	101.2
289.575	37.72
289.79	82.77
290.004	21.33
290.219	78.68
290.434	33.62
290.649	35.67
290.864	78.68
291.079	25.43
291.294	64.34
291.509	119.64
291.724	62.29
291.938	80.72
292.153	68.44
292.368	-25.77
292.583	103.25
292.798	50
293.012	193.36
293.227	-19.63
293.442	21.33
293.657	70.48
293.871	80.72
294.086	-15.53
294.301	119.64
294.516	133.97
294.73	72.53
294.945	33.62
295.16	33.62
295.374	70.48
295.589	103.25
295.804	66.39
296.018	64.34
296.233	-3.24
296.447	-1.19
296.662	-3.24
296.877	70.48
297.091	90.96
297.306	29.52
297.52	113.49
297.735	105.3
297.949	56.15
298.164	45.91
298.378	43.86
298.593	21.33
298.807	78.68
299.022	39.76
299.236	109.4
299.451	58.2
299.665	43.86
299.88	29.52
300.094	64.34
300.309	66.39
300.523	4.95
300.737	60.24
300.952	64.34
301.166	131.92
301.381	-44.2
301.595	37.72
301.809	80.72
302.024	45.91
302.238	21.33
302.452	156.5
302.667	-1.19
302.881	90.96
303.095	15.19
303.309	45.91
303.524	60.24
303.738	62.29
303.952	15.19
304.166	111.44
304.381	47.96
304.595	4.95
304.809	25.43
305.023	70.48
305.237	45.91
305.452	54.1
305.666	95.06
305.88	82.77
306.094	97.11
306.308	111.44
306.522	45.91
306.736	86.87
306.95	66.39
307.164	45.91
307.379	105.3
307.593	33.62
307.807	23.38
308.021	115.54
308.235	45.91
308.449	19.29
308.663	37.72
308.877	105.3
309.091	29.52
309.305	103.25
309.519	-11.43
309.733	97.11
309.947	45.91
310.161	21.33
310.374	80.72
310.588	86.87
310.802	0.85
311.016	39.76
311.23	37.72
311.444	56.15
311.658	21.33
311.872	88.92
312.085	62.29
312.299	86.87
312.513	88.92
312.727	115.54
312.941	123.73
313.154	47.96
313.368	23.38
313.582	78.68
313.796	21.33
314.009	103.25
314.223	103.25
314.437	97.11
314.651	58.2
314.864	66.39
315.078	37.72
315.292	86.87
315.505	54.1
315.719	86.87
315.933	68.44
316.146	105.3
316.36	72.53
316.573	88.92
316.787	-36.01
317.001	72.53
317.214	-15.53
317.428	70.48
317.641	41.81
317.855	113.49
318.068	37.72
318.282	95.06
318.495	150.36
318.709	86.87
318.922	82.77
319.136	142.16
319.349	66.39
319.563	41.81
319.776	41.81
319.99	70.48
320.203	35.67
320.417	86.87
320.63	29.52
320.843	129.88
321.057	47.96
321.27	136.02
321.483	125.78
321.697	62.29
321.91	115.54
322.124	64.34
322.337	-19.63
322.55	33.62
322.763	146.26
322.977	90.96
323.19	-31.91
323.403	97.11
323.617	76.63
323.83	64.34
324.043	76.63
324.256	78.68
324.469	-7.34
324.683	45.91
324.896	66.39
325.109	72.53
325.322	60.24
325.535	103.25
325.748	54.1
325.962	62.29
326.175	80.72
326.388	101.2
326.601	107.35
326.814	15.19
327.027	70.48
327.24	109.4
327.453	4.95
327.666	0.85
327.879	103.25
328.092	64.34
328.305	62.29
328.518	103.25
328.731	-11.43
328.944	62.29
329.157	70.48
329.37	56.15
329.583	107.35
329.796	86.87
330.009	56.15
330.222	86.87
330.435	25.43
330.648	45.91
330.861	45.91
331.073	43.86
331.286	60.24
331.499	97.11
331.712	50
331.925	86.87
332.138	97.11
332.35	25.43
332.563	9.05
332.776	7
332.989	39.76
333.202	93.01
333.414	70.48
333.627	90.96
333.84	90.96
334.053	56.15
334.265	97.11
334.478	70.48
334.691	4.95
334.903	56.15
335.116	56.15
335.329	50
335.541	129.88
335.754	211.79
335.966	37.72
336.179	80.72
336.392	105.3
336.604	50
336.817	86.87
337.029	41.81
337.242	97.11
337.454	70.48
337.667	82.77
337.88	58.2
338.092	86.87
338.305	107.35
338.517	0.85
338.729	88.92
338.942	174.93
339.154	50
339.367	88.92
339.579	88.92
339.792	62.29
340.004	66.39
340.217	80.72
340.429	117.59
340.641	23.38
340.854	45.91
341.066	33.62
341.278	70.48
341.491	45.91
341.703	54.1
341.915	50
342.128	86.87
342.34	86.87
342.552	-42.15
342.764	115.54
342.977	47.96
343.189	78.68
343.401	47.96
343.613	72.53
343.826	45.91
344.038	-3.24
344.25	88.92
344.462	29.52
344.674	13.14
344.886	41.81
345.099	62.29
345.311	45.91
345.523	62.29
345.735	39.76
345.947	29.52
346.159	66.39
346.371	54.1
346.583	50
346.795	90.96
347.007	86.87
347.219	58.2
347.431	62.29
347.643	29.52
347.855	74.58
348.067	47.96
348.279	-3.24
348.491	105.3
348.703	144.21
348.915	72.53
349.127	95.06
349.339	54.1
349.551	56.15
349.763	111.44
349.975	78.68
350.187	4.95
350.399	115.54
350.61	109.4
350.822	29.52
351.034	62.29
351.246	74.58
351.458	56.15
351.669	105.3
351.881	95.06
352.093	95.06
352.305	54.1
352.517	95.06
352.728	68.44
352.94	39.76
353.152	84.82
353.363	-25.77
353.575	97.11
353.787	72.53
353.999	105.3
354.21	64.34
354.422	50
354.633	86.87
354.845	80.72
355.057	33.62
355.268	107.35
355.48	74.58
355.692	31.57
355.903	56.15
356.115	93.01
356.326	11.09
356.538	111.44
356.749	99.16
356.961	162.64
357.172	76.63
357.384	21.33
357.595	103.25
357.807	39.76
358.018	56.15
358.23	86.87
358.441	127.83
358.653	4.95
358.864	58.2
359.075	29.52
359.287	35.67
359.498	70.48
359.709	74.58
359.921	64.34
360.132	74.58
360.344	58.2
360.555	70.48
360.766	70.48
360.977	109.4
361.189	70.48
361.4	-27.82
361.611	62.29
361.823	74.58
362.034	103.25
362.245	-7.34
362.456	160.59
362.667	86.87
362.879	21.33
363.09	80.72
363.301	125.78
363.512	54.1
363.723	54.1
363.935	62.29
364.146	74.58
364.357	54.1
364.568	127.83
364.779	62.29
364.99	160.59
365.201	33.62
365.412	119.64
365.623	66.39
365.834	90.96
366.045	99.16
366.256	111.44
366.467	90.96
366.678	101.2
366.889	127.83
367.1	111.44
367.311	21.33
367.522	41.81
367.733	78.68
367.944	68.44
368.155	72.53
368.366	129.88
368.577	37.72
368.788	78.68
368.999	62.29
369.209	78.68
369.42	148.31
369.631	142.16
369.842	111.44
370.053	15.19
370.264	144.21
370.474	-3.24
370.685	0.85
370.896	136.02
371.107	45.91
371.317	31.57
371.528	37.72
371.739	66.39
371.95	41.81
372.16	131.92
372.371	78.68
372.582	21.33
372.792	39.76
373.003	78.68
373.214	146.26
373.424	140.12
373.635	66.39
373.846	101.2
374.056	78.68
374.267	162.64
374.477	103.25
374.688	64.34
374.898	133.97
375.109	56.15
375.319	72.53
375.53	90.96
375.74	76.63
375.951	4.95
376.161	109.4
376.372	127.83
376.582	66.39
376.793	90.96
377.003	70.48
377.214	103.25
377.424	66.39
377.635	119.64
377.845	78.68
378.055	121.68
378.266	37.72
378.476	31.57
378.686	90.96
378.897	13.14
379.107	103.25
379.317	95.06
379.528	72.53
379.738	66.39
379.948	-36.01
380.158	45.91
380.369	97.11
380.579	78.68
380.789	90.96
380.999	66.39
381.21	25.43
381.42	185.17
381.63	78.68
381.84	136.02
382.05	105.3
382.261	62.29
382.471	127.83
382.681	0.85
382.891	127.83
383.101	58.2
383.311	74.58
383.521	66.39
383.731	72.53
383.941	131.92
384.151	107.35
384.361	115.54
384.571	105.3
384.781	90.96
384.991	119.64
385.201	70.48
385.411	64.34
385.621	74.58
385.831	90.96
386.041	131.92
386.251	47.96
386.461	138.07
386.671	103.25
386.881	103.25
387.091	31.57
387.301	121.68
387.511	72.53
387.72	86.87
387.93	103.25
388.14	29.52
388.35	78.68
388.56	136.02
388.769	78.68
388.979	162.64
389.189	146.26
389.399	37.72
389.609	164.69
389.818	37.72
390.028	156.5
390.238	133.97
390.447	105.3
390.657	107.35
390.867	-15.53
391.076	127.83
391.286	97.11
391.496	113.49
391.705	119.64
391.915	136.02
392.125	115.54
392.334	80.72
392.544	131.92
392.753	103.25
392.963	11.09
393.172	82.77
393.382	23.38
393.591	111.44
393.801	185.17
394.01	84.82
394.22	140.12
394.429	64.34
394.639	-3.24
394.848	64.34
395.058	82.77
395.267	105.3
395.477	82.77
395.686	103.25
395.895	146.26
396.105	201.55
396.314	107.35
396.524	115.54
396.733	58.2
396.942	99.16
397.152	107.35
397.361	203.6
397.57	119.64
397.78	140.12
397.989	181.07
398.198	162.64
398.407	103.25
398.617	115.54
398.826	121.68
399.035	111.44
399.244	101.2
399.453	217.94
399.663	113.49
399.872	185.17
400.081	68.44
400.29	144.21
400.499	131.92
400.708	121.68
400.917	86.87
401.127	185.17
401.336	133.97
401.545	138.07
401.754	213.84
401.963	209.75
402.172	97.11
402.381	127.83
402.59	164.69
402.799	164.69
403.008	146.26
403.217	183.12
403.426	148.31
403.635	219.99
403.844	88.92
404.053	195.41
404.262	168.79
404.471	164.69
404.68	156.5
404.888	162.64
405.097	215.89
405.306	148.31
405.515	144.21
405.724	246.61
405.933	205.65
406.142	138.07
406.35	262.99
406.559	203.6
406.768	195.41
406.977	181.07
407.185	275.28
407.394	185.17
407.603	260.95
407.812	224.08
408.02	273.23
408.229	260.95
408.438	176.98
408.646	230.23
408.855	258.9
409.064	297.81
409.272	295.76
409.481	291.66
409.69	312.14
409.898	308.05
410.107	410.45
410.315	373.58
410.524	375.63
410.733	389.97
410.941	332.62
411.15	482.13
411.358	377.68
411.567	424.78
411.775	385.87
411.984	441.17
412.192	406.35
412.401	475.98
412.609	541.52
412.818	664.4
413.026	529.23
413.234	514.89
413.443	652.11
413.651	574.28
413.86	615.24
414.068	658.25
414.276	602.96
414.485	627.53
414.693	670.54
414.901	684.87
415.11	697.16
415.318	791.37
415.526	746.31
415.734	858.95
415.943	850.76
416.151	865.1
416.359	904.01
416.567	918.34
416.776	1022.79
416.984	1012.55
417.192	967.49
417.4	1008.45
417.608	992.07
417.817	1145.67
418.025	1227.59
418.233	1221.44
418.441	1217.35
418.649	1227.59
418.857	1235.78
419.065	1338.18
419.273	1303.36
419.481	1424.19
419.689	1514.3
419.897	1622.84
420.105	1622.84
420.313	1536.83
420.521	1737.53
420.729	1819.45
420.937	1794.87
421.145	1760.06
421.353	1936.18
421.561	2054.97
421.769	2063.16
421.977	2011.96
422.185	2079.54
422.393	2310.96
422.601	2229.04
422.809	2415.41
423.017	2415.41
423.224	2474.8
423.432	2493.23
423.64	2609.97
423.848	2700.08
424.056	2685.74
424.263	2913.06
424.471	2974.5
424.679	3121.96
424.887	3138.34
425.094	3132.2
425.302	3314.47
425.51	3296.04
425.718	3466.02
425.925	3517.22
426.133	3693.34
426.341	3971.86
426.548	4059.93
426.756	4059.93
426.964	4193.05
427.171	4369.17
427.379	4569.87
427.586	4522.77
427.794	4690.7
428.001	4823.82
428.209	5141.25
428.417	5067.53
428.624	5260.04
428.832	5262.09
429.039	5268.23
429.247	5364.48
429.454	5804.8
429.662	6099.7
429.869	5612.29
430.076	6238.97
430.284	6152.95
430.491	6255.35
430.699	6488.82
430.906	6546.16
431.114	6566.64
431.321	7181.03
431.528	7203.56
431.736	7602.91
431.943	7848.67
432.15	7568.1
432.358	7746.27
432.565	8241.88
432.772	8037.08
432.979	8467.16
433.187	8647.38
433.394	8786.64
433.601	9091.79
433.808	9403.08
434.016	9282.25
434.223	9525.96
434.43	10314.42
434.637	10072.76
434.844	10621.62
435.052	10863.28
435.259	10701.49
435.466	10879.66
435.673	10932.91
435.88	11430.57
436.087	12001.95
436.294	12161.69
436.501	11729.57
436.708	11985.57
436.915	12534.42
437.122	12882.58
437.329	12956.3
437.537	12984.98
437.743	13501.06
437.95	13406.86
438.157	14019.2
438.364	14727.8
438.571	14473.85
438.778	14500.47
438.985	15917.67
439.192	15348.33
439.399	15897.19
439.606	15217.26
439.813	16628.31
440.02	17414.73
440.227	17111.63
440.433	16786.01
440.64	17187.41
440.847	17248.85
441.054	17883.72
441.261	18844.21
441.467	18317.89
441.674	18844.21
441.881	19704.36
442.088	19493.42
442.294	19528.24
442.501	19923.49
442.708	20419.1
442.914	20865.56
443.121	22073.86
443.328	21293.58
443.534	23200.24
443.741	22311.42
443.948	22012.42
444.154	23417.33
444.361	23359.98
444.568	23542.25
444.774	23638.51
444.981	23847.4
445.187	24420.83
445.394	25485.78
445.6	24918.49
445.807	27646.38
446.013	26382.79
446.22	27025.85
446.426	27863.47
446.633	27996.59
446.839	29458.84
447.046	27920.81
447.252	29499.8
447.459	29407.64
447.665	29419.92
447.871	30562.69
448.078	32008.56
448.284	30306.69
448.491	31236.47
448.697	32442.73
448.903	32999.77
449.11	32946.53
449.316	32663.91
449.522	33386.84
449.728	34064.72
449.935	34173.26
450.141	34029.9
450.347	35246.4
450.553	34027.85
450.76	34619.72
450.966	35447.1
451.172	35305.79
451.378	36276.52
451.584	35391.8
451.791	36438.31
451.997	35922.23
452.203	36708.65
452.409	37050.66
452.615	36714.79
452.821	35193.15
453.027	35408.19
453.233	36866.34
453.44	35383.61
453.646	36038.96
453.852	36059.44
454.058	36770.08
454.264	35631.41
454.47	36440.36
454.676	35359.03
454.882	36528.42
455.088	33632.6
455.294	33952.08
455.5	34660.68
455.705	34816.32
455.911	33161.56
456.117	33597.78
456.323	32559.46
456.529	31390.07
456.735	32412.01
456.941	31869.3
457.147	31205.75
457.352	30032.27
457.558	29956.49
457.764	30036.36
457.97	29170.07
458.176	29170.07
458.381	28891.55
458.587	27265.46
458.793	27531.7
458.999	25866.7
459.204	28084.65
459.41	27140.54
459.616	25399.76
459.821	24934.87
460.027	25307.6
460.233	24689.12
460.438	23704.04
460.644	23734.76
460.85	22817.27
461.055	22532.61
461.261	22196.74
461.466	20701.72
461.672	20097.57
461.878	21527.05
462.083	20009.51
462.289	19708.46
462.494	19552.81
462.7	18534.97
462.905	18022.98
463.111	18631.23
463.316	18963
463.522	18420.28
463.727	18317.89
463.932	18383.42
464.138	18154.05
464.343	18190.91
464.549	17842.76
464.754	18049.6
464.959	18356.8
465.165	17947.2
465.37	17304.14
465.575	16626.26
465.781	17572.43
465.986	17791.56
466.191	16804.44
466.397	16509.53
466.602	15884.9
466.807	16650.84
467.012	16382.56
467.218	16228.96
467.423	16003.68
467.628	16323.16
