Data from USB4F104151__64__14-43-17-079.txt Node

Date: Thu Mar 13 14:43:17 EDT 2025
User: louis
Spectrometer: USB4F10415
Trigger mode: 4
Integration Time (sec): 2.000000E-2
Scans to average: 1
Electric dark correction enabled: true
Nonlinearity correction enabled: false
Boxcar width: 0
XAxis mode: Wavelengths
Number of Pixels in Spectrum: 3648
>>>>>Begin Spectral Data<<<<<
178.204	-101.37
178.424	-101.37
178.644	-101.37
178.864	-162.81
179.084	-80.89
179.304	-33.79
179.524	1.02
179.744	5.12
179.964	111.61
180.184	-68.61
180.404	15.36
180.624	-62.46
180.844	33.79
181.064	-52.22
181.283	-9.22
181.503	-3.07
181.723	62.46
181.943	-7.17
182.163	-11.26
182.383	-39.94
182.602	95.23
182.822	48.13
183.042	31.74
183.262	-35.84
183.482	54.27
183.701	78.85
183.921	7.17
184.141	-3.07
184.361	56.32
184.58	-27.65
184.8	33.79
185.02	31.74
185.239	89.09
185.459	-19.46
185.679	29.7
185.898	-74.75
186.118	80.89
186.338	-58.37
186.557	25.6
186.777	15.36
186.997	5.12
187.216	9.22
187.436	103.42
187.655	80.89
187.875	7.17
188.095	37.89
188.314	72.7
188.534	33.79
188.753	13.31
188.973	-15.36
189.192	37.89
189.412	15.36
189.631	39.94
189.851	-23.55
190.07	87.04
190.29	46.08
190.509	-29.7
190.729	-7.17
190.948	62.46
191.168	177.15
191.387	64.51
191.607	-3.07
191.826	-44.03
192.045	-11.26
192.265	-19.46
192.484	62.46
192.704	62.46
192.923	-21.5
193.142	130.05
193.362	29.7
193.581	105.47
193.8	52.22
194.02	29.7
194.239	-25.6
194.458	31.74
194.678	-39.94
194.897	-25.6
195.116	-31.74
195.335	87.04
195.555	33.79
195.774	41.98
195.993	5.12
196.212	15.36
196.432	-23.55
196.651	13.31
196.87	56.32
197.089	37.89
197.308	-41.98
197.528	89.09
197.747	56.32
197.966	-25.6
198.185	54.27
198.404	-7.17
198.623	39.94
198.842	62.46
199.062	60.42
199.281	70.65
199.5	37.89
199.719	9.22
199.938	48.13
200.157	68.61
200.376	-31.74
200.595	3.07
200.814	103.42
201.033	-17.41
201.252	56.32
201.471	-23.55
201.69	17.41
201.909	-3.07
202.128	48.13
202.347	37.89
202.566	-15.36
202.785	-39.94
203.004	60.42
203.223	80.89
203.442	25.6
203.661	37.89
203.879	15.36
204.098	54.27
204.317	76.8
204.536	-25.6
204.755	-3.07
204.974	48.13
205.193	-3.07
205.411	74.75
205.63	31.74
205.849	56.32
206.068	68.61
206.287	13.31
206.505	70.65
206.724	78.85
206.943	52.22
207.162	1.02
207.381	5.12
207.599	54.27
207.818	-9.22
208.037	29.7
208.255	37.89
208.474	70.65
208.693	62.46
208.911	-3.07
209.13	64.51
209.349	27.65
209.567	95.23
209.786	46.08
210.005	74.75
210.223	-1.02
210.442	35.84
210.661	-39.94
210.879	78.85
211.098	5.12
211.316	70.65
211.535	78.85
211.753	-3.07
211.972	80.89
212.191	-33.79
212.409	-68.61
212.628	37.89
212.846	-3.07
213.065	31.74
213.283	-27.65
213.502	-60.42
213.72	54.27
213.938	19.46
214.157	27.65
214.375	66.56
214.594	72.7
214.812	25.6
215.031	-19.46
215.249	-1.02
215.467	-9.22
215.686	-29.7
215.904	58.37
216.122	64.51
216.341	35.84
216.559	58.37
216.778	70.65
216.996	82.94
217.214	70.65
217.432	50.18
217.651	-11.26
217.869	27.65
218.087	33.79
218.306	21.5
218.524	29.7
218.742	-27.65
218.96	52.22
219.179	-11.26
219.397	39.94
219.615	66.56
219.833	-7.17
220.051	-15.36
220.27	-23.55
220.488	1.02
220.706	-41.98
220.924	29.7
221.142	54.27
221.36	-74.75
221.578	62.46
221.796	5.12
222.015	7.17
222.233	-9.22
222.451	39.94
222.669	82.94
222.887	80.89
223.105	-76.8
223.323	39.94
223.541	46.08
223.759	54.27
223.977	-52.22
224.195	15.36
224.413	-3.07
224.631	39.94
224.849	46.08
225.067	115.71
225.285	54.27
225.503	5.12
225.721	62.46
225.939	33.79
226.157	39.94
226.375	11.26
226.592	-11.26
226.81	-3.07
227.028	-7.17
227.246	70.65
227.464	48.13
227.682	15.36
227.9	13.31
228.117	21.5
228.335	37.89
228.553	-68.61
228.771	-1.02
228.989	-9.22
229.206	-19.46
229.424	-3.07
229.642	7.17
229.86	62.46
230.077	29.7
230.295	-3.07
230.513	-3.07
230.731	13.31
230.948	27.65
231.166	123.9
231.384	-17.41
231.601	9.22
231.819	17.41
232.037	68.61
232.254	41.98
232.472	-1.02
232.689	29.7
232.907	-1.02
233.125	-33.79
233.342	82.94
233.56	-62.46
233.777	44.03
233.995	35.84
234.213	37.89
234.43	66.56
234.648	62.46
234.865	-3.07
235.083	-17.41
235.3	-27.65
235.518	1.02
235.735	35.84
235.953	66.56
236.17	31.74
236.388	13.31
236.605	13.31
236.822	21.5
237.04	-9.22
237.257	46.08
237.475	84.99
237.692	97.28
237.909	-21.5
238.127	21.5
238.344	70.65
238.562	23.55
238.779	5.12
238.996	-11.26
239.214	62.46
239.431	31.74
239.648	15.36
239.865	109.57
240.083	39.94
240.3	87.04
240.517	9.22
240.735	-3.07
240.952	1.02
241.169	7.17
241.386	-31.74
241.603	62.46
241.821	58.37
242.038	56.32
242.255	72.7
242.472	-48.13
242.689	54.27
242.907	21.5
243.124	64.51
243.341	9.22
243.558	-35.84
243.775	56.32
243.992	-82.94
244.209	21.5
244.426	54.27
244.643	-11.26
244.86	-15.36
245.078	-15.36
245.295	-27.65
245.512	37.89
245.729	46.08
245.946	62.46
246.163	31.74
246.38	-5.12
246.597	54.27
246.814	11.26
247.031	-11.26
247.248	1.02
247.464	62.46
247.681	1.02
247.898	111.61
248.115	62.46
248.332	-15.36
248.549	103.42
248.766	72.7
248.983	54.27
249.2	13.31
249.417	-46.08
249.633	15.36
249.85	44.03
250.067	-52.22
250.284	17.41
250.501	5.12
250.717	41.98
250.934	37.89
251.151	41.98
251.368	-17.41
251.585	64.51
251.801	21.5
252.018	50.18
252.235	58.37
252.451	11.26
252.668	-3.07
252.885	50.18
253.102	-39.94
253.318	27.65
253.535	23.55
253.752	15.36
253.968	29.7
254.185	-25.6
254.401	29.7
254.618	9.22
254.835	5.12
255.051	95.23
255.268	52.22
255.484	17.41
255.701	-1.02
255.917	29.7
256.134	5.12
256.351	-9.22
256.567	-33.79
256.784	23.55
257	-60.42
257.217	-1.02
257.433	-7.17
257.65	97.28
257.866	33.79
258.082	-64.51
258.299	-7.17
258.515	62.46
258.732	-11.26
258.948	1.02
259.165	29.7
259.381	15.36
259.597	68.61
259.814	-11.26
260.03	35.84
260.246	-46.08
260.463	48.13
260.679	76.8
260.895	58.37
261.112	-1.02
261.328	-23.55
261.544	9.22
261.761	113.66
261.977	-39.94
262.193	44.03
262.409	23.55
262.626	-9.22
262.842	25.6
263.058	31.74
263.274	76.8
263.49	5.12
263.707	72.7
263.923	-23.55
264.139	33.79
264.355	29.7
264.571	136.19
264.787	15.36
265.004	5.12
265.22	-9.22
265.436	48.13
265.652	60.42
265.868	7.17
266.084	-7.17
266.3	87.04
266.516	25.6
266.732	-21.5
266.948	66.56
267.164	87.04
267.38	70.65
267.596	48.13
267.812	93.18
268.028	39.94
268.244	58.37
268.46	5.12
268.676	66.56
268.892	3.07
269.108	44.03
269.324	23.55
269.54	-3.07
269.756	66.56
269.972	-64.51
270.188	-15.36
270.403	1.02
270.619	37.89
270.835	72.7
271.051	41.98
271.267	-60.42
271.483	13.31
271.698	25.6
271.914	-1.02
272.13	21.5
272.346	9.22
272.562	64.51
272.777	87.04
272.993	29.7
273.209	-5.12
273.425	-3.07
273.64	-27.65
273.856	-25.6
274.072	7.17
274.287	97.28
274.503	64.51
274.719	50.18
274.934	23.55
275.15	19.46
275.366	48.13
275.581	-11.26
275.797	-1.02
276.012	5.12
276.228	37.89
276.444	25.6
276.659	29.7
276.875	3.07
277.09	21.5
277.306	-5.12
277.521	11.26
277.737	19.46
277.952	-25.6
278.168	41.98
278.383	-52.22
278.599	-27.65
278.814	39.94
279.03	-9.22
279.245	-11.26
279.461	41.98
279.676	56.32
279.892	9.22
280.107	70.65
280.322	-1.02
280.538	46.08
280.753	1.02
280.969	25.6
281.184	-3.07
281.399	29.7
281.615	-25.6
281.83	115.71
282.045	-17.41
282.26	-64.51
282.476	-11.26
282.691	15.36
282.906	27.65
283.122	70.65
283.337	-15.36
283.552	37.89
283.767	-27.65
283.983	41.98
284.198	-35.84
284.413	78.85
284.628	-25.6
284.843	11.26
285.058	33.79
285.274	11.26
285.489	13.31
285.704	11.26
285.919	-13.31
286.134	41.98
286.349	-1.02
286.564	48.13
286.779	154.62
286.995	72.7
287.21	33.79
287.425	-33.79
287.64	13.31
287.855	-74.75
288.07	23.55
288.285	-3.07
288.5	15.36
288.715	-58.37
288.93	-9.22
289.145	15.36
289.36	15.36
289.575	29.7
289.79	-35.84
290.004	72.7
290.219	-19.46
290.434	-27.65
290.649	-21.5
290.864	-11.26
291.079	-33.79
291.294	121.85
291.509	41.98
291.724	-44.03
291.938	-41.98
292.153	37.89
292.368	15.36
292.583	31.74
292.798	37.89
293.012	1.02
293.227	56.32
293.442	56.32
293.657	3.07
293.871	84.99
294.086	46.08
294.301	54.27
294.516	62.46
294.73	23.55
294.945	17.41
295.16	46.08
295.374	5.12
295.589	37.89
295.804	41.98
296.018	-41.98
296.233	25.6
296.447	13.31
296.662	82.94
296.877	78.85
297.091	-31.74
297.306	35.84
297.52	-11.26
297.735	29.7
297.949	74.75
298.164	-1.02
298.378	7.17
298.593	17.41
298.807	-25.6
299.022	-3.07
299.236	29.7
299.451	-7.17
299.665	-46.08
299.88	58.37
300.094	-13.31
300.309	48.13
300.523	152.57
300.737	5.12
300.952	78.85
301.166	37.89
301.381	21.5
301.595	46.08
301.809	-27.65
302.024	-3.07
302.238	-31.74
302.452	21.5
302.667	25.6
302.881	41.98
303.095	5.12
303.309	-11.26
303.524	99.33
303.738	54.27
303.952	-21.5
304.166	-1.02
304.381	-19.46
304.595	39.94
304.809	25.6
305.023	1.02
305.237	9.22
305.452	15.36
305.666	128
305.88	37.89
306.094	13.31
306.308	93.18
306.522	50.18
306.736	7.17
306.95	-3.07
307.164	-89.09
307.379	7.17
307.593	62.46
307.807	54.27
308.021	-3.07
308.235	11.26
308.449	-3.07
308.663	29.7
308.877	21.5
309.091	29.7
309.305	13.31
309.519	-35.84
309.733	68.61
309.947	-3.07
310.161	39.94
310.374	35.84
310.588	39.94
310.802	19.46
311.016	-39.94
311.23	-35.84
311.444	21.5
311.658	91.13
311.872	70.65
312.085	95.23
312.299	11.26
312.513	37.89
312.727	50.18
312.941	27.65
313.154	3.07
313.368	-5.12
313.582	62.46
313.796	95.23
314.009	-7.17
314.223	25.6
314.437	87.04
314.651	13.31
314.864	25.6
315.078	-27.65
315.292	21.5
315.505	74.75
315.719	99.33
315.933	7.17
316.146	-11.26
316.36	29.7
316.573	33.79
316.787	33.79
317.001	-3.07
317.214	31.74
317.428	87.04
317.641	13.31
317.855	5.12
318.068	66.56
318.282	-35.84
318.495	33.79
318.709	97.28
318.922	54.27
319.136	-35.84
319.349	84.99
319.563	-15.36
319.776	13.31
319.99	9.22
320.203	80.89
320.417	-33.79
320.63	50.18
320.843	48.13
321.057	46.08
321.27	54.27
321.483	78.85
321.697	103.42
321.91	-9.22
322.124	62.46
322.337	5.12
322.55	-27.65
322.763	21.5
322.977	31.74
323.19	33.79
323.403	-11.26
323.617	44.03
323.83	25.6
324.043	13.31
324.256	29.7
324.469	-11.26
324.683	-15.36
324.896	-15.36
325.109	66.56
325.322	19.46
325.535	60.42
325.748	56.32
325.962	41.98
326.175	101.37
326.388	68.61
326.601	29.7
326.814	37.89
327.027	-3.07
327.24	144.38
327.453	5.12
327.666	-9.22
327.879	54.27
328.092	140.29
328.305	-35.84
328.518	21.5
328.731	64.51
328.944	15.36
329.157	107.52
329.37	7.17
329.583	76.8
329.796	113.66
330.009	21.5
330.222	5.12
330.435	74.75
330.648	78.85
330.861	21.5
331.073	76.8
331.286	89.09
331.499	68.61
331.712	46.08
331.925	31.74
332.138	-3.07
332.35	17.41
332.563	-64.51
332.776	78.85
332.989	21.5
333.202	31.74
333.414	5.12
333.627	-11.26
333.84	82.94
334.053	80.89
334.265	64.51
334.478	3.07
334.691	54.27
334.903	23.55
335.116	-19.46
335.329	17.41
335.541	-3.07
335.754	99.33
335.966	54.27
336.179	-41.98
336.392	35.84
336.604	25.6
336.817	97.28
337.029	62.46
337.242	72.7
337.454	35.84
337.667	-9.22
337.88	21.5
338.092	66.56
338.305	9.22
338.517	-19.46
338.729	-9.22
338.942	107.52
339.154	21.5
339.367	9.22
339.579	95.23
339.792	-35.84
340.004	46.08
340.217	37.89
340.429	91.13
340.641	-60.42
340.854	1.02
341.066	66.56
341.278	95.23
341.491	95.23
341.703	107.52
341.915	31.74
342.128	17.41
342.34	-9.22
342.552	9.22
342.764	23.55
342.977	48.13
343.189	46.08
343.401	68.61
343.613	-35.84
343.826	21.5
344.038	-1.02
344.25	62.46
344.462	-11.26
344.674	111.61
344.886	-35.84
345.099	74.75
345.311	103.42
345.523	-11.26
345.735	31.74
345.947	-9.22
346.159	119.81
346.371	-44.03
346.583	31.74
346.795	64.51
347.007	-23.55
347.219	56.32
347.431	-1.02
347.643	58.37
347.855	31.74
348.067	72.7
348.279	5.12
348.491	37.89
348.703	29.7
348.915	-27.65
349.127	-44.03
349.339	80.89
349.551	19.46
349.763	37.89
349.975	54.27
350.187	-1.02
350.399	54.27
350.61	37.89
350.822	9.22
351.034	72.7
351.246	58.37
351.458	33.79
351.669	21.5
351.881	37.89
352.093	50.18
352.305	31.74
352.517	9.22
352.728	-1.02
352.94	-19.46
353.152	31.74
353.363	39.94
353.575	25.6
353.787	56.32
353.999	48.13
354.21	21.5
354.422	-35.84
354.633	-27.65
354.845	23.55
355.057	103.42
355.268	52.22
355.48	87.04
355.692	-101.37
355.903	54.27
356.115	-33.79
356.326	-27.65
356.538	95.23
356.749	9.22
356.961	54.27
357.172	46.08
357.384	29.7
357.595	64.51
357.807	-15.36
358.018	-3.07
358.23	5.12
358.441	101.37
358.653	21.5
358.864	13.31
359.075	1.02
359.287	25.6
359.498	56.32
359.709	-3.07
359.921	-3.07
360.132	89.09
360.344	19.46
360.555	15.36
360.766	54.27
360.977	41.98
361.189	48.13
361.4	35.84
361.611	31.74
361.823	-11.26
362.034	58.37
362.245	103.42
362.456	-31.74
362.667	29.7
362.879	-11.26
363.09	107.52
363.301	70.65
363.512	-27.65
363.723	87.04
363.935	15.36
364.146	7.17
364.357	5.12
364.568	48.13
364.779	-7.17
364.99	-5.12
365.201	-60.42
365.412	46.08
365.623	-44.03
365.834	64.51
366.045	5.12
366.256	-41.98
366.467	60.42
366.678	72.7
366.889	82.94
367.1	70.65
367.311	25.6
367.522	-7.17
367.733	78.85
367.944	15.36
368.155	-7.17
368.366	39.94
368.577	29.7
368.788	80.89
368.999	-39.94
369.209	15.36
369.42	119.81
369.631	95.23
369.842	21.5
370.053	-17.41
370.264	64.51
370.474	103.42
370.685	19.46
370.896	70.65
371.107	68.61
371.317	62.46
371.528	21.5
371.739	29.7
371.95	97.28
372.16	66.56
372.371	-11.26
372.582	15.36
372.792	58.37
373.003	46.08
373.214	48.13
373.424	37.89
373.635	5.12
373.846	23.55
374.056	5.12
374.267	82.94
374.477	62.46
374.688	48.13
374.898	78.85
375.109	97.28
375.319	13.31
375.53	21.5
375.74	97.28
375.951	-27.65
376.161	-44.03
376.372	72.7
376.582	5.12
376.793	21.5
377.003	29.7
377.214	31.74
377.424	70.65
377.635	33.79
377.845	9.22
378.055	-27.65
378.266	7.17
378.476	21.5
378.686	50.18
378.897	46.08
379.107	-31.74
379.317	70.65
379.528	15.36
379.738	130.05
379.948	-11.26
380.158	11.26
380.369	23.55
380.579	62.46
380.789	39.94
380.999	56.32
381.21	48.13
381.42	41.98
381.63	-23.55
381.84	113.66
382.05	-19.46
382.261	103.42
382.471	56.32
382.681	62.46
382.891	109.57
383.101	23.55
383.311	-52.22
383.521	13.31
383.731	-5.12
383.941	21.5
384.151	74.75
384.361	21.5
384.571	37.89
384.781	84.99
384.991	80.89
385.201	41.98
385.411	64.51
385.621	17.41
385.831	17.41
386.041	70.65
386.251	33.79
386.461	48.13
386.671	15.36
386.881	15.36
387.091	15.36
387.301	80.89
387.511	91.13
387.72	-44.03
387.93	48.13
388.14	29.7
388.35	19.46
388.56	7.17
388.769	64.51
388.979	23.55
389.189	39.94
389.399	37.89
389.609	111.61
389.818	-13.31
390.028	54.27
390.238	58.37
390.447	54.27
390.657	74.75
390.867	-44.03
391.076	31.74
391.286	58.37
391.496	82.94
391.705	70.65
391.915	80.89
392.125	87.04
392.334	99.33
392.544	64.51
392.753	37.89
392.963	19.46
393.172	39.94
393.382	-3.07
393.591	136.19
393.801	54.27
394.01	189.44
394.22	46.08
394.429	64.51
394.639	21.5
394.848	25.6
395.058	5.12
395.267	-15.36
395.477	64.51
395.686	64.51
395.895	107.52
396.105	95.23
396.314	54.27
396.524	72.7
396.733	54.27
396.942	156.67
397.152	89.09
397.361	125.95
397.57	91.13
397.78	91.13
397.989	41.98
398.198	39.94
398.407	99.33
398.617	1.02
398.826	121.85
399.035	103.42
399.244	97.28
399.453	115.71
399.663	46.08
399.872	177.15
400.081	89.09
400.29	56.32
400.499	50.18
400.708	109.57
400.917	46.08
401.127	64.51
401.336	72.7
401.545	91.13
401.754	123.9
401.963	68.61
402.172	13.31
402.381	48.13
402.59	87.04
402.799	154.62
403.008	60.42
403.217	115.71
403.426	54.27
403.635	70.65
403.844	113.66
404.053	78.85
404.262	111.61
404.471	156.67
404.68	39.94
404.888	62.46
405.097	105.47
405.306	95.23
405.515	173.05
405.724	76.8
405.933	109.57
406.142	119.81
406.35	171.01
406.559	162.81
406.768	140.29
406.977	142.33
407.185	66.56
407.394	201.72
407.603	185.34
407.812	160.77
408.02	187.39
408.229	191.49
408.438	195.58
408.646	179.2
408.855	113.66
409.064	236.54
409.272	185.34
409.481	252.92
409.69	259.07
409.898	189.44
410.107	179.2
410.315	248.83
410.524	193.53
410.733	220.16
410.941	228.35
411.15	306.17
411.358	312.32
411.567	340.99
411.775	211.96
411.984	367.61
412.192	322.56
412.401	285.69
412.609	345.08
412.818	373.75
413.026	279.55
413.234	306.17
413.443	349.18
413.651	351.23
413.86	390.14
414.068	504.82
414.276	533.5
414.485	519.16
414.693	496.63
414.901	611.32
415.11	478.2
415.318	525.3
415.526	508.92
415.734	676.85
415.943	513.02
416.151	547.83
416.359	617.46
416.567	637.94
416.776	594.93
416.984	635.89
417.192	775.16
417.4	635.89
417.608	678.9
417.817	771.06
418.025	734.2
418.233	867.31
418.441	719.86
418.649	879.6
418.857	963.57
419.065	924.66
419.273	1018.86
419.481	943.09
419.689	1147.89
419.897	1115.12
420.105	1086.45
420.313	1219.57
420.521	1178.61
420.729	1192.94
420.937	1281
421.145	1217.52
421.353	1354.73
421.561	1405.93
421.769	1457.13
421.977	1465.32
422.185	1344.49
422.393	1604.58
422.601	1698.79
422.809	1653.73
423.017	1713.13
423.224	1686.5
423.432	1782.76
423.64	1788.9
423.848	2026.47
424.056	1842.15
424.263	2110.43
424.471	2081.76
424.679	2141.15
424.887	2208.73
425.094	2282.46
425.302	2319.32
425.51	2309.08
425.718	2317.28
425.925	2405.34
426.133	2649.05
426.341	2692.05
426.548	2857.94
426.756	2794.45
426.964	2905.04
427.171	3089.36
427.379	3036.11
427.586	3107.79
427.794	3195.86
428.001	3331.02
428.209	3427.28
428.417	3466.19
428.624	3771.33
428.832	3871.68
429.039	3734.47
429.247	3787.72
429.454	4053.95
429.662	4363.2
429.869	4178.88
430.076	4395.96
430.284	4289.47
430.491	4371.39
430.699	4676.54
430.906	4637.63
431.114	4821.94
431.321	4905.91
431.528	5028.79
431.736	5139.38
431.943	5575.59
432.15	5374.89
432.358	5440.43
432.565	5649.32
432.772	5637.03
432.979	6136.74
433.187	6146.98
433.394	6071.2
433.601	6450.08
433.808	6609.82
434.016	6411.17
434.223	6787.99
434.43	7299.98
434.637	7123.86
434.844	7451.53
435.052	7687.05
435.259	7639.95
435.466	7789.45
435.673	7732.11
435.88	8110.98
436.087	8786.81
436.294	8661.88
436.501	8184.71
436.708	8393.6
436.915	8766.33
437.122	9333.62
437.329	9065.33
437.537	9386.86
437.743	9712.49
437.95	9558.89
438.157	9935.72
438.364	10333.03
438.571	10261.35
438.778	10527.58
438.985	11424.59
439.192	10969.94
439.399	11273.04
439.606	11008.86
439.813	11735.88
440.02	12145.48
440.227	12038.98
440.433	12047.18
440.64	12180.29
440.847	12299.08
441.054	12661.57
441.261	13357.88
441.467	13232.95
441.674	13570.86
441.881	13970.22
442.088	14062.38
442.294	13880.11
442.501	14205.74
442.708	14566.18
442.914	15176.47
443.121	15758.1
443.328	15244.06
443.534	16456.45
443.741	16087.82
443.948	15645.46
444.154	16691.97
444.361	16886.53
444.568	16632.58
444.774	16773.89
444.981	16974.59
445.187	17689.33
445.394	18270.95
445.6	17871.6
445.807	19720.92
446.013	18823.9
446.22	19188.44
446.426	20157.13
446.633	20269.77
446.839	20873.92
447.046	20228.81
447.252	21336.76
447.459	21093.05
447.665	20871.87
447.871	22315.69
448.078	22936.23
448.284	22033.07
448.491	22581.93
448.697	23442.07
448.903	23739.03
449.11	24021.65
449.316	23515.8
449.522	24072.85
449.728	24607.37
449.935	24617.61
450.141	24937.09
450.347	25434.75
450.553	24519.31
450.76	24926.85
450.966	25721.46
451.172	25590.39
451.378	26315.37
451.584	25641.59
451.791	26069.62
451.997	26305.13
452.203	26743.4
452.409	26366.57
452.615	26706.54
452.821	25848.44
453.027	25311.87
453.233	26761.83
453.44	25733.75
453.646	26020.47
453.852	26131.06
454.058	26620.52
454.264	25967.22
454.47	26366.57
454.676	25639.54
454.882	26636.91
455.088	24412.81
455.294	24728.2
455.5	25232
455.705	25240.19
455.911	24449.67
456.117	23966.35
456.323	23728.79
456.529	22166.19
456.735	23718.55
456.941	22645.41
457.147	22434.47
457.352	21844.66
457.558	21707.44
457.764	21945.01
457.97	21369.53
458.176	20927.17
458.381	20964.03
458.587	19954.38
458.793	19995.34
458.999	18873.06
459.204	20538.05
459.41	19434.2
459.616	18445.03
459.821	18557.67
460.027	18365.16
460.233	18047.72
460.438	17294.07
460.644	17044.22
460.85	16390.92
461.055	16427.78
461.261	16440.07
461.466	14943
461.672	14613.28
461.878	15350.55
462.083	14455.59
462.289	14183.21
462.494	13916.97
462.7	13433.65
462.905	13235
463.111	13570.86
463.316	13714.22
463.522	13456.18
463.727	13323.06
463.932	13441.84
464.138	13056.82
464.343	13411.12
464.549	12954.43
464.754	13466.42
464.959	13056.82
465.165	12983.1
465.37	12546.88
465.575	12198.73
465.781	12524.35
465.986	12696.38
466.191	12215.11
466.397	11909.96
466.602	11467.6
466.807	12006.22
467.012	11950.92
467.218	11834.19
467.423	11776.84
467.628	11850.57
467.833	12135.24
468.038	11836.24
468.244	11391.83
