Data from USB4F104151__270__14-46-06-838.txt Node

Date: Thu Mar 13 14:46:06 EDT 2025
User: louis
Spectrometer: USB4F10415
Trigger mode: 4
Integration Time (sec): 2.000000E-2
Scans to average: 1
Electric dark correction enabled: true
Nonlinearity correction enabled: false
Boxcar width: 0
XAxis mode: Wavelengths
Number of Pixels in Spectrum: 3648
>>>>>Begin Spectral Data<<<<<
178.204	-60.24
178.424	-60.24
178.644	-60.24
178.864	-142.16
179.084	-62.29
179.304	-74.58
179.524	58.54
179.744	-15.19
179.964	7.34
180.184	-17.24
180.404	-17.24
180.624	52.39
180.844	19.63
181.064	-70.48
181.283	21.67
181.503	13.48
181.723	21.67
181.943	-17.24
182.163	-0.85
182.383	-27.48
182.602	44.2
182.822	119.98
183.042	42.15
183.262	7.34
183.482	72.87
183.701	60.59
183.921	-2.9
184.141	-0.85
184.361	54.44
184.58	19.63
184.8	76.97
185.02	3.24
185.239	52.39
185.459	-37.72
185.679	76.97
185.898	52.39
186.118	109.74
186.338	19.63
186.557	36.01
186.777	-7
186.997	-4.95
187.216	-27.48
187.436	3.24
187.655	81.07
187.875	81.07
188.095	68.78
188.314	56.49
188.534	107.69
188.753	60.59
188.973	36.01
189.192	21.67
189.412	13.48
189.631	-35.67
189.851	-25.43
190.07	122.02
190.29	62.63
190.509	27.82
190.729	52.39
190.948	76.97
191.168	136.36
191.387	52.39
191.607	52.39
191.826	-4.95
192.045	83.11
192.265	11.43
192.484	68.78
192.704	29.87
192.923	-45.91
193.142	103.59
193.362	33.96
193.581	101.55
193.8	64.68
194.02	19.63
194.239	46.25
194.458	27.82
194.678	25.77
194.897	48.3
195.116	19.63
195.335	70.83
195.555	5.29
195.774	11.43
195.993	64.68
196.212	-9.05
196.432	23.72
196.651	68.78
196.87	9.39
197.089	134.31
197.308	40.11
197.528	38.06
197.747	23.72
197.966	64.68
198.185	113.83
198.404	93.35
198.623	103.59
198.842	54.44
199.062	142.5
199.281	117.93
199.5	-9.05
199.719	76.97
199.938	56.49
200.157	74.92
200.376	76.97
200.595	23.72
200.814	3.24
201.033	44.2
201.252	64.68
201.471	46.25
201.69	85.16
201.909	52.39
202.128	68.78
202.347	-17.24
202.566	13.48
202.785	27.82
203.004	-2.9
203.223	72.87
203.442	3.24
203.661	81.07
203.879	68.78
204.098	117.93
204.317	19.63
204.536	46.25
204.755	33.96
204.974	95.4
205.193	56.49
205.411	-11.09
205.63	52.39
205.849	60.59
206.068	3.24
206.287	42.15
206.505	68.78
206.724	76.97
206.943	68.78
207.162	85.16
207.381	27.82
207.599	76.97
207.818	17.58
208.037	40.11
208.255	23.72
208.474	42.15
208.693	23.72
208.911	52.39
209.13	-9.05
209.349	99.5
209.567	95.4
209.786	44.2
210.005	48.3
210.223	48.3
210.442	31.91
210.661	38.06
210.879	-0.85
211.098	31.91
211.316	54.44
211.535	64.68
211.753	72.87
211.972	27.82
212.191	-66.39
212.409	44.2
212.628	-35.67
212.846	-4.95
213.065	56.49
213.283	29.87
213.502	-4.95
213.72	64.68
213.938	-2.9
214.157	60.59
214.375	42.15
214.594	76.97
214.812	11.43
215.031	-4.95
215.249	-13.14
215.467	52.39
215.686	58.54
215.904	44.2
216.122	89.26
216.341	58.54
216.559	11.43
216.778	70.83
216.996	150.7
217.214	36.01
217.432	31.91
217.651	52.39
217.869	85.16
218.087	31.91
218.306	27.82
218.524	-29.52
218.742	5.29
218.96	7.34
219.179	52.39
219.397	27.82
219.615	87.21
219.833	27.82
220.051	13.48
220.27	79.02
220.488	117.93
220.706	54.44
220.924	40.11
221.142	11.43
221.36	72.87
221.578	111.78
221.796	15.53
222.015	117.93
222.233	46.25
222.451	40.11
222.669	60.59
222.887	52.39
223.105	-37.72
223.323	56.49
223.541	54.44
223.759	105.64
223.977	-21.33
224.195	117.93
224.413	109.74
224.631	79.02
224.849	11.43
225.067	109.74
225.285	11.43
225.503	64.68
225.721	70.83
225.939	111.78
226.157	27.82
226.375	87.21
226.592	-2.9
226.81	97.45
227.028	27.82
227.246	76.97
227.464	97.45
227.682	70.83
227.9	152.74
228.117	72.87
228.335	13.48
228.553	48.3
228.771	13.48
228.989	72.87
229.206	29.87
229.424	76.97
229.642	15.53
229.86	27.82
230.077	111.78
230.295	23.72
230.513	91.31
230.731	56.49
230.948	48.3
231.166	91.31
231.384	21.67
231.601	11.43
231.819	101.55
232.037	117.93
232.254	48.3
232.472	13.48
232.689	27.82
232.907	-19.29
233.125	3.24
233.342	27.82
233.56	-9.05
233.777	97.45
233.995	40.11
234.213	5.29
234.43	46.25
234.648	54.44
234.865	3.24
235.083	-15.19
235.3	27.82
235.518	44.2
235.735	52.39
235.953	19.63
236.17	-13.14
236.388	48.3
236.605	31.91
236.822	15.53
237.04	-17.24
237.257	29.87
237.475	40.11
237.692	27.82
237.909	56.49
238.127	79.02
238.344	95.4
238.562	38.06
238.779	13.48
238.996	7.34
239.214	-45.91
239.431	70.83
239.648	21.67
239.865	72.87
240.083	76.97
240.3	52.39
240.517	48.3
240.735	36.01
240.952	50.35
241.169	95.4
241.386	-17.24
241.603	52.39
241.821	36.01
242.038	97.45
242.255	48.3
242.472	-13.14
242.689	109.74
242.907	101.55
243.124	-4.95
243.341	68.78
243.558	3.24
243.775	111.78
243.992	-29.52
244.209	126.12
244.426	87.21
244.643	23.72
244.86	36.01
245.078	3.24
245.295	68.78
245.512	29.87
245.729	19.63
245.946	76.97
246.163	15.53
246.38	21.67
246.597	91.31
246.814	-29.52
247.031	25.77
247.248	21.67
247.464	40.11
247.681	40.11
247.898	68.78
248.115	91.31
248.332	-9.05
248.549	72.87
248.766	70.83
248.983	85.16
249.2	-0.85
249.417	132.26
249.633	19.63
249.85	109.74
250.067	42.15
250.284	79.02
250.501	62.63
250.717	85.16
250.934	-35.67
251.151	11.43
251.368	56.49
251.585	85.16
251.801	38.06
252.018	-13.14
252.235	56.49
252.451	60.59
252.668	54.44
252.885	7.34
253.102	79.02
253.318	13.48
253.535	7.34
253.752	3.24
253.968	15.53
254.185	-13.14
254.401	79.02
254.618	44.2
254.835	36.01
255.051	74.92
255.268	79.02
255.484	13.48
255.701	31.91
255.917	111.78
256.134	52.39
256.351	62.63
256.567	-0.85
256.784	54.44
257	38.06
257.217	109.74
257.433	38.06
257.65	87.21
257.866	33.96
258.082	19.63
258.299	87.21
258.515	54.44
258.732	136.36
258.948	58.54
259.165	85.16
259.381	-11.09
259.597	7.34
259.814	31.91
260.03	68.78
260.246	44.2
260.463	54.44
260.679	70.83
260.895	62.63
261.112	138.41
261.328	-60.24
261.544	13.48
261.761	85.16
261.977	72.87
262.193	-4.95
262.409	177.32
262.626	23.72
262.842	130.22
263.058	42.15
263.274	36.01
263.49	74.92
263.707	1.19
263.923	-60.24
264.139	44.2
264.355	93.35
264.571	101.55
264.787	38.06
265.004	3.24
265.22	5.29
265.436	89.26
265.652	21.67
265.868	52.39
266.084	9.39
266.3	31.91
266.516	62.63
266.732	93.35
266.948	52.39
267.164	64.68
267.38	91.31
267.596	17.58
267.812	52.39
268.028	-17.24
268.244	19.63
268.46	42.15
268.676	48.3
268.892	38.06
269.108	23.72
269.324	-78.68
269.54	5.29
269.756	-0.85
269.972	1.19
270.188	11.43
270.403	-11.09
270.619	-13.14
270.835	89.26
271.051	48.3
271.267	79.02
271.483	42.15
271.698	101.55
271.914	31.91
272.13	105.64
272.346	-13.14
272.562	40.11
272.777	134.31
272.993	-37.72
273.209	54.44
273.425	52.39
273.64	60.59
273.856	40.11
274.072	83.11
274.287	31.91
274.503	19.63
274.719	119.98
274.934	105.64
275.15	46.25
275.366	-54.1
275.581	-72.53
275.797	62.63
276.012	29.87
276.228	46.25
276.444	85.16
276.659	52.39
276.875	-29.52
277.09	83.11
277.306	44.2
277.521	11.43
277.737	46.25
277.952	101.55
278.168	-4.95
278.383	109.74
278.599	-27.48
278.814	3.24
279.03	60.59
279.245	111.78
279.461	48.3
279.676	62.63
279.892	23.72
280.107	89.26
280.322	-9.05
280.538	58.54
280.753	76.97
280.969	-86.87
281.184	44.2
281.399	103.59
281.615	36.01
281.83	46.25
282.045	19.63
282.26	11.43
282.476	99.5
282.691	74.92
282.906	85.16
283.122	21.67
283.337	54.44
283.552	109.74
283.767	46.25
283.983	42.15
284.198	76.97
284.413	21.67
284.628	48.3
284.843	62.63
285.058	169.13
285.274	-7
285.489	1.19
285.704	68.78
285.919	50.35
286.134	48.3
286.349	-13.14
286.564	29.87
286.779	138.41
286.995	15.53
287.21	11.43
287.425	15.53
287.64	19.63
287.855	29.87
288.07	7.34
288.285	107.69
288.5	56.49
288.715	68.78
288.93	-13.14
289.145	40.11
289.36	52.39
289.575	40.11
289.79	56.49
290.004	52.39
290.219	44.2
290.434	68.78
290.649	76.97
290.864	93.35
291.079	38.06
291.294	115.88
291.509	36.01
291.724	38.06
291.938	40.11
292.153	68.78
292.368	19.63
292.583	56.49
292.798	70.83
293.012	79.02
293.227	60.59
293.442	3.24
293.657	87.21
293.871	85.16
294.086	134.31
294.301	76.97
294.516	38.06
294.73	13.48
294.945	11.43
295.16	56.49
295.374	64.68
295.589	101.55
295.804	-39.76
296.018	64.68
296.233	64.68
296.447	11.43
296.662	44.2
296.877	27.82
297.091	40.11
297.306	38.06
297.52	48.3
297.735	76.97
297.949	70.83
298.164	62.63
298.378	74.92
298.593	62.63
298.807	-17.24
299.022	-17.24
299.236	146.6
299.451	-37.72
299.665	62.63
299.88	46.25
300.094	-4.95
300.309	38.06
300.523	52.39
300.737	64.68
300.952	3.24
301.166	85.16
301.381	142.5
301.595	23.72
301.809	111.78
302.024	68.78
302.238	54.44
302.452	46.25
302.667	19.63
302.881	109.74
303.095	122.02
303.309	60.59
303.524	81.07
303.738	62.63
303.952	44.2
304.166	33.96
304.381	11.43
304.595	117.93
304.809	-37.72
305.023	68.78
305.237	19.63
305.452	87.21
305.666	27.82
305.88	81.07
306.094	128.17
306.308	109.74
306.522	76.97
306.736	46.25
306.95	44.2
307.164	19.63
307.379	25.77
307.593	134.31
307.807	36.01
308.021	60.59
308.235	117.93
308.449	50.35
308.663	68.78
308.877	85.16
309.091	52.39
309.305	81.07
309.519	5.29
309.733	150.7
309.947	44.2
310.161	60.59
310.374	-15.19
310.588	117.93
310.802	50.35
311.016	36.01
311.23	-35.67
311.444	40.11
311.658	93.35
311.872	109.74
312.085	1.19
312.299	44.2
312.513	31.91
312.727	76.97
312.941	-27.48
313.154	85.16
313.368	60.59
313.582	-13.14
313.796	74.92
314.009	11.43
314.223	85.16
314.437	52.39
314.651	87.21
314.864	68.78
315.078	-13.14
315.292	29.87
315.505	-0.85
315.719	87.21
315.933	-45.91
316.146	23.72
316.36	87.21
316.573	27.82
316.787	-4.95
317.001	105.64
317.214	52.39
317.428	93.35
317.641	19.63
317.855	79.02
318.068	44.2
318.282	60.59
318.495	109.74
318.709	3.24
318.922	38.06
319.136	101.55
319.349	87.21
319.563	46.25
319.776	101.55
319.99	25.77
320.203	93.35
320.417	27.82
320.63	93.35
320.843	56.49
321.057	36.01
321.27	68.78
321.483	60.59
321.697	134.31
321.91	31.91
322.124	60.59
322.337	70.83
322.55	52.39
322.763	64.68
322.977	62.63
323.19	11.43
323.403	101.55
323.617	19.63
323.83	93.35
324.043	62.63
324.256	-2.9
324.469	29.87
324.683	31.91
324.896	48.3
325.109	66.73
325.322	-0.85
325.535	70.83
325.748	9.39
325.962	44.2
326.175	38.06
326.388	46.25
326.601	60.59
326.814	-4.95
327.027	85.16
327.24	83.11
327.453	-23.38
327.666	33.96
327.879	13.48
328.092	140.46
328.305	-19.29
328.518	81.07
328.731	36.01
328.944	50.35
329.157	38.06
329.37	27.82
329.583	87.21
329.796	146.6
330.009	-29.52
330.222	117.93
330.435	38.06
330.648	31.91
330.861	95.4
331.073	54.44
331.286	191.66
331.499	66.73
331.712	40.11
331.925	3.24
332.138	36.01
332.35	58.54
332.563	52.39
332.776	160.94
332.989	-27.48
333.202	83.11
333.414	-0.85
333.627	52.39
333.84	-62.29
334.053	38.06
334.265	-21.33
334.478	38.06
334.691	85.16
334.903	13.48
335.116	40.11
335.329	101.55
335.541	56.49
335.754	68.78
335.966	-19.29
336.179	29.87
336.392	68.78
336.604	23.72
336.817	113.83
337.029	85.16
337.242	29.87
337.454	101.55
337.667	19.63
337.88	85.16
338.092	105.64
338.305	70.83
338.517	-52.05
338.729	40.11
338.942	60.59
339.154	70.83
339.367	-29.52
339.579	103.59
339.792	60.59
340.004	95.4
340.217	36.01
340.429	7.34
340.641	7.34
340.854	42.15
341.066	52.39
341.278	79.02
341.491	93.35
341.703	58.54
341.915	19.63
342.128	87.21
342.34	42.15
342.552	87.21
342.764	76.97
342.977	38.06
343.189	81.07
343.401	44.2
343.613	38.06
343.826	44.2
344.038	-2.9
344.25	52.39
344.462	50.35
344.674	70.83
344.886	79.02
345.099	38.06
345.311	101.55
345.523	27.82
345.735	19.63
345.947	103.59
346.159	29.87
346.371	-72.53
346.583	60.59
346.795	95.4
347.007	62.63
347.219	158.89
347.431	7.34
347.643	89.26
347.855	44.2
348.067	64.68
348.279	-21.33
348.491	68.78
348.703	60.59
348.915	72.87
349.127	27.82
349.339	107.69
349.551	74.92
349.763	74.92
349.975	76.97
350.187	107.69
350.399	79.02
350.61	54.44
350.822	11.43
351.034	101.55
351.246	42.15
351.458	-9.05
351.669	15.53
351.881	119.98
352.093	36.01
352.305	42.15
352.517	109.74
352.728	126.12
352.94	36.01
353.152	76.97
353.363	36.01
353.575	103.59
353.787	95.4
353.999	54.44
354.21	119.98
354.422	36.01
354.633	83.11
354.845	105.64
355.057	66.73
355.268	81.07
355.48	103.59
355.692	64.68
355.903	27.82
356.115	105.64
356.326	-9.05
356.538	-17.24
356.749	72.87
356.961	79.02
357.172	36.01
357.384	15.53
357.595	93.35
357.807	60.59
358.018	-9.05
358.23	42.15
358.441	68.78
358.653	15.53
358.864	36.01
359.075	19.63
359.287	105.64
359.498	60.59
359.709	31.91
359.921	44.2
360.132	74.92
360.344	97.45
360.555	31.91
360.766	70.83
360.977	23.72
361.189	56.49
361.4	76.97
361.611	122.02
361.823	111.78
362.034	122.02
362.245	58.54
362.456	27.82
362.667	76.97
362.879	11.43
363.09	60.59
363.301	38.06
363.512	13.48
363.723	-21.33
363.935	103.59
364.146	130.22
364.357	60.59
364.568	105.64
364.779	142.5
364.99	66.73
365.201	58.54
365.412	38.06
365.623	42.15
365.834	79.02
366.045	70.83
366.256	54.44
366.467	50.35
366.678	-27.48
366.889	85.16
367.1	56.49
367.311	-13.14
367.522	29.87
367.733	21.67
367.944	44.2
368.155	23.72
368.366	29.87
368.577	60.59
368.788	31.91
368.999	-25.43
369.209	79.02
369.42	146.6
369.631	36.01
369.842	62.63
370.053	101.55
370.264	99.5
370.474	-21.33
370.685	33.96
370.896	23.72
371.107	107.69
371.317	38.06
371.528	31.91
371.739	70.83
371.95	44.2
372.16	81.07
372.371	46.25
372.582	50.35
372.792	52.39
373.003	31.91
373.214	27.82
373.424	52.39
373.635	23.72
373.846	76.97
374.056	128.17
374.267	74.92
374.477	81.07
374.688	111.78
374.898	13.48
375.109	58.54
375.319	-29.52
375.53	126.12
375.74	50.35
375.951	40.11
376.161	7.34
376.372	130.22
376.582	27.82
376.793	42.15
377.003	-11.09
377.214	76.97
377.424	15.53
377.635	60.59
377.845	31.91
378.055	109.74
378.266	31.91
378.476	33.96
378.686	44.2
378.897	97.45
379.107	109.74
379.317	36.01
379.528	1.19
379.738	97.45
379.948	85.16
380.158	109.74
380.369	105.64
380.579	72.87
380.789	-0.85
380.999	97.45
381.21	56.49
381.42	103.59
381.63	76.97
381.84	72.87
382.05	128.17
382.261	68.78
382.471	93.35
382.681	52.39
382.891	58.54
383.101	83.11
383.311	107.69
383.521	13.48
383.731	109.74
383.941	38.06
384.151	21.67
384.361	179.37
384.571	91.31
384.781	52.39
384.991	38.06
385.201	150.7
385.411	68.78
385.621	109.74
385.831	44.2
386.041	50.35
386.251	72.87
386.461	87.21
386.671	148.65
386.881	72.87
387.091	36.01
387.301	60.59
387.511	46.25
387.72	76.97
387.93	119.98
388.14	-23.38
388.35	27.82
388.56	93.35
388.769	138.41
388.979	60.59
389.189	25.77
389.399	85.16
389.609	60.59
389.818	89.26
390.028	-9.05
390.238	136.36
390.447	-27.48
390.657	109.74
390.867	48.3
391.076	103.59
391.286	89.26
391.496	72.87
391.705	134.31
391.915	134.31
392.125	128.17
392.334	113.83
392.544	83.11
392.753	113.83
392.963	-4.95
393.172	48.3
393.382	109.74
393.591	91.31
393.801	62.63
394.01	101.55
394.22	142.5
394.429	93.35
394.639	76.97
394.848	162.98
395.058	95.4
395.267	44.2
395.477	87.21
395.686	48.3
395.895	142.5
396.105	132.26
396.314	117.93
396.524	142.5
396.733	95.4
396.942	158.89
397.152	76.97
397.361	74.92
397.57	103.59
397.78	76.97
397.989	97.45
398.198	70.83
398.407	103.59
398.617	101.55
398.826	175.27
399.035	52.39
399.244	79.02
399.453	89.26
399.663	79.02
399.872	113.83
400.081	132.26
400.29	87.21
400.499	79.02
400.708	21.67
400.917	117.93
401.127	48.3
401.336	79.02
401.545	199.85
401.754	42.15
401.963	101.55
402.172	101.55
402.381	58.54
402.59	95.4
402.799	134.31
403.008	60.59
403.217	126.12
403.426	60.59
403.635	76.97
403.844	74.92
404.053	101.55
404.262	105.64
404.471	185.51
404.68	119.98
404.888	134.31
405.097	111.78
405.306	128.17
405.515	144.55
405.724	177.32
405.933	165.03
406.142	126.12
406.35	167.08
406.559	101.55
406.768	119.98
406.977	269.48
407.185	208.04
407.394	191.66
407.603	162.98
407.812	177.32
408.02	150.7
408.229	109.74
408.438	230.57
408.646	158.89
408.855	197.8
409.064	287.91
409.272	228.52
409.481	208.04
409.69	220.33
409.898	179.37
410.107	265.38
410.315	218.28
410.524	234.66
410.733	273.57
410.941	300.2
411.15	339.11
411.358	298.15
411.567	339.11
411.775	292.01
411.984	310.44
412.192	349.35
412.401	267.43
412.609	400.55
412.818	464.04
413.026	404.64
413.234	371.88
413.443	353.45
413.651	406.69
413.86	455.84
414.068	470.18
414.276	554.15
414.485	502.95
414.693	531.62
414.901	586.91
415.11	572.58
415.318	529.57
415.526	568.48
415.734	519.33
415.943	576.67
416.151	693.41
416.359	625.83
416.567	677.02
416.776	666.78
416.984	779.42
417.192	818.33
417.4	765.09
417.608	734.37
417.817	775.33
418.025	863.39
418.233	892.06
418.441	797.85
418.649	910.49
418.857	945.31
419.065	957.6
419.273	896.16
419.481	1078.43
419.689	1035.42
419.897	1094.81
420.105	1113.24
420.313	1285.27
420.521	1189.02
420.729	1330.33
420.937	1324.18
421.145	1361.05
421.353	1410.2
421.561	1463.44
421.769	1555.6
421.977	1725.58
422.185	1600.66
422.393	1662.1
422.601	1696.91
422.809	1713.3
423.017	1717.39
423.224	1789.07
423.432	2059.4
423.64	1930.38
423.848	2190.47
424.056	2047.12
424.263	2249.86
424.471	2208.9
424.679	2264.2
424.887	2372.74
425.094	2368.65
425.302	2339.97
425.51	2632.83
425.718	2692.23
425.925	2571.4
426.133	2714.75
426.341	2942.08
426.548	2944.13
426.756	3101.82
426.964	3042.43
427.171	3214.46
427.379	3218.55
427.586	3255.42
427.794	3341.43
428.001	3501.17
428.209	3681.39
428.417	3708.02
428.624	3869.81
428.832	3904.62
429.039	3822.7
429.247	4009.07
429.454	4232.3
429.662	4494.44
429.869	4338.79
430.076	4359.27
430.284	4426.86
430.491	4658.28
430.699	4795.49
430.906	4754.53
431.114	4863.07
431.321	4994.14
431.528	5338.2
431.736	5606.49
431.943	5680.21
432.15	5727.32
432.358	5729.36
432.565	5989.46
432.772	5999.7
432.979	6165.58
433.187	6417.48
433.394	6206.54
433.601	6806.59
433.808	6859.84
434.016	6698.05
434.223	6908.99
434.43	7371.83
434.637	7558.2
434.844	7705.65
435.052	7883.83
435.259	7916.59
435.466	7928.88
435.673	7990.32
435.88	8404.01
436.087	8899.62
436.294	8715.3
436.501	8469.55
436.708	8948.77
436.915	9049.12
437.122	9640.98
437.329	9475.1
437.537	9677.85
437.743	9853.97
437.95	9774.1
438.157	10374.16
438.364	10570.76
438.571	10564.62
438.778	10775.56
438.985	11844.6
439.192	11461.63
439.399	11754.49
439.606	11305.98
439.813	12104.69
440.02	12934.12
440.227	12571.63
440.433	12393.45
440.64	12829.67
440.847	12678.12
441.054	13063.14
441.261	13919.19
441.467	13810.65
441.674	14033.88
441.881	14367.7
442.088	14441.42
442.294	14521.29
442.501	14656.46
442.708	15041.48
442.914	15612.86
443.121	16237.49
443.328	15877.05
443.534	16800.68
443.741	16444.34
443.948	16165.81
444.154	17359.78
444.361	17378.21
444.568	17599.39
444.774	17611.68
444.981	17726.36
445.187	18353.04
445.394	18887.56
445.6	18541.46
445.807	20534.13
446.013	19495.81
446.22	19805.05
446.426	20595.57
446.633	21138.28
446.839	21764.96
447.046	20700.01
447.252	21994.33
447.459	21838.69
447.665	21934.94
447.871	22612.82
448.078	23604.03
448.284	22758.22
448.491	23137.1
448.697	23978.81
448.903	24628.02
449.11	24589.11
449.316	24347.45
449.522	24898.35
449.728	25486.12
449.935	25666.34
450.141	25537.32
450.347	26225.43
450.553	25467.69
450.76	25697.06
450.966	26364.7
451.172	26258.2
451.378	26997.52
451.584	26626.84
451.791	27577.09
451.997	27212.56
452.203	27503.37
452.409	27804.42
452.615	27390.73
452.821	26252.06
453.027	26266.39
453.233	27273.99
453.44	26620.69
453.646	26856.21
453.852	27007.76
454.058	27783.94
454.264	26895.12
454.47	27228.94
454.676	26841.87
454.882	27456.26
455.088	25324.33
455.294	25611.04
455.5	26164
455.705	26252.06
455.911	25084.72
456.117	24959.79
456.323	24513.33
456.529	23210.82
456.735	24216.38
456.941	23585.6
457.147	23393.09
457.352	22731.6
457.558	22541.14
457.764	22559.57
457.97	22133.59
458.176	21980
458.381	21625.7
458.587	20444.02
458.793	20401.01
458.999	19544.96
459.204	21046.12
459.41	20503.41
459.616	19051.4
459.821	18893.71
460.027	19084.17
460.233	18344.85
460.438	17750.94
460.644	17750.94
460.85	16993.19
461.055	16759.72
461.261	16823.21
461.466	15723.45
461.672	15051.72
461.878	16174
462.083	14894.02
462.289	14773.19
462.494	14773.19
462.7	13997.01
462.905	13695.96
463.111	14197.71
463.316	14410.7
463.522	13915.09
463.727	13923.29
463.932	13898.71
464.138	13849.56
464.343	13716.44
464.549	13290.46
464.754	13951.96
464.959	13611.99
465.165	13671.39
465.37	13050.85
465.575	12925.93
465.781	13351.9
465.986	13212.64
466.191	12854.25
466.397	12622.83
466.602	11871.22
466.807	12581.87
467.012	12284.91
467.218	12286.96
