Data from USB4F104151__136__14-44-08-046.txt Node

Date: Thu Mar 13 14:44:08 EDT 2025
User: louis
Spectrometer: USB4F10415
Trigger mode: 4
Integration Time (sec): 2.000000E-2
Scans to average: 1
Electric dark correction enabled: true
Nonlinearity correction enabled: false
Boxcar width: 0
XAxis mode: Wavelengths
Number of Pixels in Spectrum: 3648
>>>>>Begin Spectral Data<<<<<
178.204	-110.42
178.424	-110.42
178.644	-110.42
178.864	-110.42
179.084	-34.64
179.304	34.99
179.524	-51.03
179.744	-24.4
179.964	26.79
180.184	-3.93
180.404	-3.93
180.624	67.75
180.844	-30.55
181.064	10.41
181.283	10.41
181.503	-71.51
181.723	34.99
181.943	-69.46
182.163	43.18
182.383	34.99
182.602	26.79
182.822	65.71
183.042	86.19
183.262	10.41
183.482	53.42
183.701	26.79
183.921	8.36
184.141	4.27
184.361	-28.5
184.58	-24.4
184.8	63.66
185.02	59.56
185.239	51.37
185.459	-3.93
185.679	92.33
185.898	-42.84
186.118	63.66
186.338	-1.88
186.557	18.6
186.777	4.27
186.997	-91.99
187.216	18.6
187.436	-5.97
187.655	47.27
187.875	10.41
188.095	14.51
188.314	34.99
188.534	118.95
188.753	69.8
188.973	26.79
189.192	55.47
189.412	37.03
189.631	26.79
189.851	-20.31
190.07	59.56
190.29	10.41
190.509	43.18
190.729	-53.08
190.948	24.75
191.168	100.52
191.387	102.57
191.607	-16.21
191.826	34.99
192.045	26.79
192.265	-100.18
192.484	77.99
192.704	10.41
192.923	73.9
193.142	61.61
193.362	26.79
193.581	57.51
193.8	26.79
194.02	37.03
194.239	-28.5
194.458	20.65
194.678	18.6
194.897	-3.93
195.116	2.22
195.335	28.84
195.555	86.19
195.774	18.6
195.993	20.65
196.212	-28.5
196.432	51.37
196.651	16.55
196.87	-44.88
197.089	110.76
197.308	45.23
197.528	45.23
197.747	6.31
197.966	18.6
198.185	49.32
198.404	61.61
198.623	100.52
198.842	45.23
199.062	39.08
199.281	28.84
199.5	10.41
199.719	-38.74
199.938	59.56
200.157	4.27
200.376	84.14
200.595	-5.97
200.814	6.31
201.033	43.18
201.252	37.03
201.471	37.03
201.69	22.7
201.909	63.66
202.128	51.37
202.347	45.23
202.566	41.13
202.785	43.18
203.004	12.46
203.223	86.19
203.442	61.61
203.661	71.85
203.879	-22.36
204.098	-44.88
204.317	-30.55
204.536	75.95
204.755	-12.12
204.974	20.65
205.193	20.65
205.411	98.47
205.63	4.27
205.849	100.52
206.068	63.66
206.287	57.51
206.505	18.6
206.724	51.37
206.943	47.27
207.162	18.6
207.381	98.47
207.599	61.61
207.818	61.61
208.037	47.27
208.255	-5.97
208.474	-36.69
208.693	45.23
208.911	6.31
209.13	41.13
209.349	28.84
209.567	77.99
209.786	43.18
210.005	6.31
210.223	26.79
210.442	30.89
210.661	26.79
210.879	73.9
211.098	-18.26
211.316	0.17
211.535	108.71
211.753	-3.93
211.972	104.62
212.191	96.43
212.409	34.99
212.628	28.84
212.846	-5.97
213.065	133.29
213.283	2.22
213.502	41.13
213.72	26.79
213.938	69.8
214.157	69.8
214.375	2.22
214.594	77.99
214.812	24.75
215.031	28.84
215.249	8.36
215.467	-44.88
215.686	73.9
215.904	20.65
216.122	92.33
216.341	127.14
216.559	18.6
216.778	0.17
216.996	43.18
217.214	53.42
217.432	51.37
217.651	-71.51
217.869	18.6
218.087	26.79
218.306	10.41
218.524	61.61
218.742	-22.36
218.96	53.42
219.179	75.95
219.397	-30.55
219.615	75.95
219.833	-12.12
220.051	59.56
220.27	0.17
220.488	80.04
220.706	-10.07
220.924	6.31
221.142	30.89
221.36	-1.88
221.578	-3.93
221.796	-1.88
222.015	16.55
222.233	30.89
222.451	39.08
222.669	47.27
222.887	2.22
223.105	-14.17
223.323	-1.88
223.541	2.22
223.759	100.52
223.977	61.61
224.195	75.95
224.413	30.89
224.631	10.41
224.849	10.41
225.067	59.56
225.285	51.37
225.503	20.65
225.721	-34.64
225.939	-1.88
226.157	-26.45
226.375	61.61
226.592	2.22
226.81	69.8
227.028	26.79
227.246	143.53
227.464	49.32
227.682	59.56
227.9	51.37
228.117	71.85
228.335	53.42
228.553	59.56
228.771	34.99
228.989	84.14
229.206	-34.64
229.424	10.41
229.642	12.46
229.86	8.36
230.077	71.85
230.295	14.51
230.513	20.65
230.731	30.89
230.948	59.56
231.166	71.85
231.384	-12.12
231.601	34.99
231.819	71.85
232.037	-61.27
232.254	10.41
232.472	30.89
232.689	-10.07
232.907	71.85
233.125	26.79
233.342	34.99
233.56	30.89
233.777	22.7
233.995	-5.97
234.213	26.79
234.43	-26.45
234.648	12.46
234.865	0.17
235.083	20.65
235.3	10.41
235.518	59.56
235.735	53.42
235.953	4.27
236.17	-3.93
236.388	67.75
236.605	10.41
236.822	47.27
237.04	-63.32
237.257	34.99
237.475	-28.5
237.692	14.51
237.909	41.13
238.127	-38.74
238.344	14.51
238.562	-5.97
238.779	12.46
238.996	51.37
239.214	39.08
239.431	92.33
239.648	-30.55
239.865	80.04
240.083	71.85
240.3	67.75
240.517	26.79
240.735	-3.93
240.952	118.95
241.169	18.6
241.386	14.51
241.603	28.84
241.821	6.31
242.038	57.51
242.255	20.65
242.472	28.84
242.689	104.62
242.907	8.36
243.124	45.23
243.341	26.79
243.558	-104.28
243.775	30.89
243.992	-5.97
244.209	125.1
244.426	61.61
244.643	59.56
244.86	-10.07
245.078	34.99
245.295	41.13
245.512	-14.17
245.729	-28.5
245.946	37.03
246.163	-10.07
246.38	10.41
246.597	-18.26
246.814	34.99
247.031	-22.36
247.248	-12.12
247.464	32.94
247.681	16.55
247.898	18.6
248.115	26.79
248.332	34.99
248.549	71.85
248.766	67.75
248.983	18.6
249.2	-8.02
249.417	20.65
249.633	-28.5
249.85	18.6
250.067	39.08
250.284	51.37
250.501	-32.6
250.717	137.38
250.934	20.65
251.151	-12.12
251.368	67.75
251.585	73.9
251.801	6.31
252.018	6.31
252.235	51.37
252.451	20.65
252.668	100.52
252.885	43.18
253.102	73.9
253.318	110.76
253.535	-34.64
253.752	10.41
253.968	-26.45
254.185	59.56
254.401	-18.26
254.618	53.42
254.835	47.27
255.051	67.75
255.268	34.99
255.484	-5.97
255.701	55.47
255.917	84.14
256.134	10.41
256.351	-40.79
256.567	22.7
256.784	37.03
257	-26.45
257.217	80.04
257.433	69.8
257.65	69.8
257.866	102.57
258.082	-57.17
258.299	-14.17
258.515	59.56
258.732	34.99
258.948	16.55
259.165	55.47
259.381	69.8
259.597	47.27
259.814	77.99
260.03	14.51
260.246	4.27
260.463	14.51
260.679	12.46
260.895	63.66
261.112	43.18
261.328	-38.74
261.544	10.41
261.761	108.71
261.977	-3.93
262.193	-46.93
262.409	75.95
262.626	43.18
262.842	-22.36
263.058	-36.69
263.274	69.8
263.49	24.75
263.707	14.51
263.923	12.46
264.139	-55.12
264.355	-3.93
264.571	69.8
264.787	47.27
265.004	39.08
265.22	34.99
265.436	4.27
265.652	22.7
265.868	-32.6
266.084	24.75
266.3	-22.36
266.516	34.99
266.732	51.37
266.948	47.27
267.164	69.8
267.38	2.22
267.596	67.75
267.812	47.27
268.028	45.23
268.244	125.1
268.46	32.94
268.676	-38.74
268.892	102.57
269.108	32.94
269.324	-3.93
269.54	-24.4
269.756	34.99
269.972	28.84
270.188	20.65
270.403	0.17
270.619	125.1
270.835	61.61
271.051	-5.97
271.267	28.84
271.483	2.22
271.698	26.79
271.914	92.33
272.13	-18.26
272.346	39.08
272.562	-12.12
272.777	-32.6
272.993	51.37
273.209	18.6
273.425	43.18
273.64	2.22
273.856	49.32
274.072	-22.36
274.287	43.18
274.503	51.37
274.719	24.75
274.934	69.8
275.15	112.81
275.366	-1.88
275.581	22.7
275.797	-30.55
276.012	4.27
276.228	116.9
276.444	39.08
276.659	45.23
276.875	10.41
277.09	-10.07
277.306	-12.12
277.521	18.6
277.737	69.8
277.952	43.18
278.168	34.99
278.383	43.18
278.599	-22.36
278.814	-38.74
279.03	-38.74
279.245	77.99
279.461	-14.17
279.676	67.75
279.892	-36.69
280.107	59.56
280.322	108.71
280.538	73.9
280.753	-3.93
280.969	2.22
281.184	86.19
281.399	22.7
281.615	84.14
281.83	-3.93
282.045	20.65
282.26	-44.88
282.476	39.08
282.691	39.08
282.906	6.31
283.122	-12.12
283.337	34.99
283.552	92.33
283.767	39.08
283.983	47.27
284.198	63.66
284.413	77.99
284.628	-16.21
284.843	67.75
285.058	63.66
285.274	-22.36
285.489	39.08
285.704	39.08
285.919	-12.12
286.134	75.95
286.349	28.84
286.564	84.14
286.779	20.65
286.995	6.31
287.21	-1.88
287.425	94.38
287.64	2.22
287.855	118.95
288.07	43.18
288.285	61.61
288.5	39.08
288.715	125.1
288.93	-46.93
289.145	26.79
289.36	-22.36
289.575	92.33
289.79	2.22
290.004	39.08
290.219	84.14
290.434	92.33
290.649	28.84
290.864	20.65
291.079	43.18
291.294	-18.26
291.509	116.9
291.724	73.9
291.938	51.37
292.153	51.37
292.368	-22.36
292.583	16.55
292.798	39.08
293.012	108.71
293.227	51.37
293.442	55.47
293.657	55.47
293.871	-5.97
294.086	53.42
294.301	51.37
294.516	45.23
294.73	71.85
294.945	-22.36
295.16	53.42
295.374	45.23
295.589	28.84
295.804	-63.32
296.018	34.99
296.233	55.47
296.447	22.7
296.662	57.51
296.877	20.65
297.091	2.22
297.306	92.33
297.52	-10.07
297.735	45.23
297.949	28.84
298.164	-14.17
298.378	34.99
298.593	12.46
298.807	96.43
299.022	59.56
299.236	127.14
299.451	-44.88
299.665	39.08
299.88	2.22
300.094	34.99
300.309	-14.17
300.523	43.18
300.737	20.65
300.952	-10.07
301.166	94.38
301.381	-1.88
301.595	43.18
301.809	45.23
302.024	-44.88
302.238	16.55
302.452	90.28
302.667	90.28
302.881	84.14
303.095	18.6
303.309	28.84
303.524	90.28
303.738	61.61
303.952	-20.31
304.166	-12.12
304.381	-71.51
304.595	34.99
304.809	-12.12
305.023	51.37
305.237	-38.74
305.452	47.27
305.666	53.42
305.88	59.56
306.094	84.14
306.308	59.56
306.522	121
306.736	26.79
306.95	4.27
307.164	43.18
307.379	-61.27
307.593	51.37
307.807	67.75
308.021	84.14
308.235	-26.45
308.449	61.61
308.663	88.23
308.877	71.85
309.091	55.47
309.305	65.71
309.519	-63.32
309.733	67.75
309.947	53.42
310.161	75.95
310.374	30.89
310.588	67.75
310.802	-8.02
311.016	-12.12
311.23	67.75
311.444	10.41
311.658	55.47
311.872	102.57
312.085	114.86
312.299	-1.88
312.513	104.62
312.727	86.19
312.941	30.89
313.154	-8.02
313.368	12.46
313.582	-48.98
313.796	18.6
314.009	6.31
314.223	34.99
314.437	51.37
314.651	26.79
314.864	39.08
315.078	65.71
315.292	63.66
315.505	98.47
315.719	26.79
315.933	18.6
316.146	26.79
316.36	-3.93
316.573	67.75
316.787	28.84
317.001	59.56
317.214	37.03
317.428	59.56
317.641	10.41
317.855	-5.97
318.068	8.36
318.282	-20.31
318.495	125.1
318.709	75.95
318.922	-5.97
319.136	63.66
319.349	133.29
319.563	34.99
319.776	45.23
319.99	-24.4
320.203	-28.5
320.417	94.38
320.63	108.71
320.843	102.57
321.057	24.75
321.27	-3.93
321.483	39.08
321.697	61.61
321.91	59.56
322.124	16.55
322.337	30.89
322.55	-16.21
322.763	69.8
322.977	-5.97
323.19	18.6
323.403	28.84
323.617	8.36
323.83	69.8
324.043	-8.02
324.256	18.6
324.469	39.08
324.683	53.42
324.896	2.22
325.109	41.13
325.322	-36.69
325.535	75.95
325.748	55.47
325.962	12.46
326.175	-40.79
326.388	71.85
326.601	-22.36
326.814	0.17
327.027	-20.31
327.24	37.03
327.453	-30.55
327.666	75.95
327.879	100.52
328.092	61.61
328.305	6.31
328.518	43.18
328.731	-5.97
328.944	75.95
329.157	34.99
329.37	-46.93
329.583	82.09
329.796	108.71
330.009	-38.74
330.222	-3.93
330.435	22.7
330.648	-5.97
330.861	45.23
331.073	30.89
331.286	92.33
331.499	121
331.712	-20.31
331.925	75.95
332.138	37.03
332.35	43.18
332.563	14.51
332.776	18.6
332.989	-67.41
333.202	49.32
333.414	18.6
333.627	-8.02
333.84	37.03
334.053	67.75
334.265	51.37
334.478	12.46
334.691	14.51
334.903	80.04
335.116	4.27
335.329	71.85
335.541	39.08
335.754	149.67
335.966	32.94
336.179	110.76
336.392	18.6
336.604	110.76
336.817	45.23
337.029	84.14
337.242	-32.6
337.454	45.23
337.667	80.04
337.88	92.33
338.092	12.46
338.305	12.46
338.517	18.6
338.729	75.95
338.942	34.99
339.154	59.56
339.367	-12.12
339.579	24.75
339.792	22.7
340.004	10.41
340.217	4.27
340.429	16.55
340.641	67.75
340.854	-28.5
341.066	-5.97
341.278	61.61
341.491	63.66
341.703	135.34
341.915	32.94
342.128	51.37
342.34	125.1
342.552	59.56
342.764	75.95
342.977	10.41
343.189	116.9
343.401	14.51
343.613	63.66
343.826	26.79
344.038	94.38
344.25	34.99
344.462	88.23
344.674	-3.93
344.886	61.61
345.099	53.42
345.311	34.99
345.523	47.27
345.735	-14.17
345.947	59.56
346.159	18.6
346.371	-18.26
346.583	37.03
346.795	80.04
347.007	-10.07
347.219	77.99
347.431	55.47
347.643	61.61
347.855	-38.74
348.067	73.9
348.279	-20.31
348.491	75.95
348.703	55.47
348.915	61.61
349.127	26.79
349.339	65.71
349.551	-38.74
349.763	75.95
349.975	30.89
350.187	43.18
350.399	43.18
350.61	53.42
350.822	-63.32
351.034	39.08
351.246	-24.4
351.458	51.37
351.669	2.22
351.881	137.38
352.093	67.75
352.305	90.28
352.517	26.79
352.728	125.1
352.94	55.47
353.152	45.23
353.363	-53.08
353.575	26.79
353.787	59.56
353.999	8.36
354.21	106.67
354.422	18.6
354.633	59.56
354.845	22.7
355.057	-1.88
355.268	26.79
355.48	67.75
355.692	14.51
355.903	-71.51
356.115	43.18
356.326	-42.84
356.538	164.01
356.749	77.99
356.961	-40.79
357.172	12.46
357.384	104.62
357.595	98.47
357.807	-14.17
358.018	-3.93
358.23	30.89
358.441	190.63
358.653	71.85
358.864	43.18
359.075	43.18
359.287	82.09
359.498	59.56
359.709	-18.26
359.921	96.43
360.132	67.75
360.344	59.56
360.555	55.47
360.766	100.52
360.977	28.84
361.189	57.51
361.4	18.6
361.611	110.76
361.823	55.47
362.034	20.65
362.245	12.46
362.456	84.14
362.667	51.37
362.879	4.27
363.09	59.56
363.301	2.22
363.512	43.18
363.723	61.61
363.935	67.75
364.146	125.1
364.357	39.08
364.568	28.84
364.779	-18.26
364.99	129.19
365.201	41.13
365.412	102.57
365.623	100.52
365.834	2.22
366.045	20.65
366.256	88.23
366.467	43.18
366.678	0.17
366.889	20.65
367.1	-12.12
367.311	75.95
367.522	77.99
367.733	12.46
367.944	6.31
368.155	-5.97
368.366	92.33
368.577	-22.36
368.788	71.85
368.999	53.42
369.209	-8.02
369.42	84.14
369.631	92.33
369.842	43.18
370.053	63.66
370.264	121
370.474	63.66
370.685	26.79
370.896	2.22
371.107	18.6
371.317	63.66
371.528	55.47
371.739	59.56
371.95	10.41
372.16	53.42
372.371	26.79
372.582	8.36
372.792	84.14
373.003	32.94
373.214	37.03
373.424	116.9
373.635	-8.02
373.846	47.27
374.056	45.23
374.267	75.95
374.477	92.33
374.688	10.41
374.898	26.79
375.109	14.51
375.319	51.37
375.53	39.08
375.74	39.08
375.951	30.89
376.161	28.84
376.372	108.71
376.582	20.65
376.793	92.33
377.003	-20.31
377.214	4.27
377.424	59.56
377.635	69.8
377.845	-5.97
378.055	86.19
378.266	55.47
378.476	92.33
378.686	88.23
378.897	6.31
379.107	30.89
379.317	-5.97
379.528	-22.36
379.738	67.75
379.948	41.13
380.158	51.37
380.369	100.52
380.579	10.41
380.789	-14.17
380.999	10.41
381.21	108.71
381.42	116.9
381.63	32.94
381.84	59.56
382.05	-12.12
382.261	86.19
382.471	98.47
382.681	-79.7
382.891	67.75
383.101	45.23
383.311	34.99
383.521	39.08
383.731	51.37
383.941	61.61
384.151	43.18
384.361	63.66
384.571	26.79
384.781	45.23
384.991	92.33
385.201	84.14
385.411	80.04
385.621	53.42
385.831	34.99
386.041	-12.12
386.251	6.31
386.461	37.03
386.671	63.66
386.881	43.18
387.091	30.89
387.301	125.1
387.511	75.95
387.72	51.37
387.93	63.66
388.14	-26.45
388.35	63.66
388.56	77.99
388.769	39.08
388.979	80.04
389.189	37.03
389.399	88.23
389.609	57.51
389.818	37.03
390.028	155.82
390.238	18.6
390.447	102.57
390.657	24.75
390.867	55.47
391.076	4.27
391.286	61.61
391.496	14.51
391.705	45.23
391.915	80.04
392.125	63.66
392.334	94.38
392.544	67.75
392.753	67.75
392.963	47.27
393.172	135.34
393.382	69.8
393.591	80.04
393.801	82.09
394.01	57.51
394.22	59.56
394.429	155.82
394.639	57.51
394.848	84.14
395.058	30.89
395.267	135.34
395.477	96.43
395.686	67.75
395.895	127.14
396.105	182.44
396.314	110.76
396.524	151.72
396.733	96.43
396.942	112.81
397.152	43.18
397.361	161.96
397.57	41.13
397.78	116.9
397.989	96.43
398.198	127.14
398.407	82.09
398.617	34.99
398.826	92.33
399.035	69.8
399.244	84.14
399.453	26.79
399.663	102.57
399.872	145.58
400.081	51.37
400.29	112.81
400.499	125.1
400.708	188.58
400.917	18.6
401.127	61.61
401.336	100.52
401.545	129.19
401.754	133.29
401.963	141.48
402.172	116.9
402.381	106.67
402.59	112.81
402.799	118.95
403.008	102.57
403.217	69.8
403.426	121
403.635	131.24
403.844	37.03
404.053	116.9
404.262	198.82
404.471	127.14
404.68	116.9
404.888	157.86
405.097	127.14
405.306	88.23
405.515	190.63
405.724	135.34
405.933	184.49
406.142	182.44
406.35	145.58
406.559	170.15
406.768	196.78
406.977	221.35
407.185	104.62
407.394	100.52
407.603	194.73
407.812	239.78
408.02	239.78
408.229	108.71
408.438	207.02
408.646	215.21
408.855	241.83
409.064	215.21
409.272	252.07
409.481	245.93
409.69	190.63
409.898	329.89
410.107	247.97
410.315	286.89
410.524	305.32
410.733	307.37
410.941	290.98
411.15	422.05
411.358	350.37
411.567	350.37
411.775	295.08
411.984	360.61
412.192	354.47
412.401	305.32
412.609	460.96
412.818	420
413.026	428.2
413.234	508.07
413.443	506.02
413.651	553.12
413.86	411.81
414.068	542.88
414.276	657.57
414.485	520.35
414.693	585.89
414.901	641.18
415.11	600.23
415.318	569.51
415.526	602.27
415.734	669.86
415.943	600.23
416.151	739.49
416.359	757.92
416.567	755.87
416.776	805.02
416.984	805.02
417.192	878.75
417.4	766.11
417.608	788.64
417.817	829.6
418.025	932
418.233	1030.3
418.441	979.1
418.649	1108.12
418.857	1036.44
419.065	1185.94
419.273	1134.75
419.481	1149.08
419.689	1280.15
419.897	1288.34
420.105	1249.43
420.313	1353.88
420.521	1476.76
420.729	1472.66
420.937	1380.5
421.145	1607.83
421.353	1566.87
421.561	1786
421.769	1716.37
421.977	1732.75
422.185	1751.18
422.393	1910.93
422.601	2019.47
422.809	1982.6
423.017	2064.52
423.224	1980.56
423.432	2191.5
423.64	2160.78
423.848	2410.63
424.056	2332.81
424.263	2527.36
424.471	2508.93
424.679	2537.6
424.887	2734.21
425.094	2820.22
425.302	2736.26
425.51	2885.76
425.718	2881.66
425.925	2902.14
426.133	3119.23
426.341	3180.67
426.548	3295.35
426.756	3448.95
426.964	3442.81
427.171	3614.84
427.379	3713.14
427.586	3762.29
427.794	3881.07
428.001	3930.22
428.209	4257.9
428.417	4087.92
428.624	4348.01
428.832	4468.84
429.039	4393.06
429.247	4405.35
429.454	4993.12
429.662	5247.07
429.869	4995.17
430.076	5159
430.284	5032.03
430.491	5185.63
430.699	5402.71
430.906	5421.14
431.114	5785.68
431.321	5771.35
431.528	6068.3
431.736	6373.45
431.943	6572.1
432.15	6408.26
432.358	6453.32
432.565	6828.1
432.772	6869.06
432.979	7161.92
433.187	7352.38
433.394	7284.8
433.601	8011.82
433.808	8065.07
434.016	7694.39
434.223	8097.84
434.43	8489
434.637	8396.84
434.844	9046.05
435.052	9029.66
435.259	8953.89
435.466	9218.08
435.673	9062.43
435.88	9697.3
436.087	10192.91
436.294	10110.99
436.501	9809.94
436.708	10127.38
436.915	10418.19
437.122	10891.27
437.329	10881.03
437.537	11259.9
437.743	11364.35
437.95	11429.88
438.157	11810.81
438.364	12236.78
438.571	12353.52
438.778	12214.26
438.985	13436.89
439.192	13015.01
439.399	13283.3
439.606	13285.34
439.813	13936.6
440.02	14714.83
440.227	14460.88
440.433	14372.82
440.64	14708.68
440.847	14575.56
441.054	14981.06
441.261	16027.57
441.467	15781.82
441.674	16005.05
441.881	16793.51
442.088	16504.75
442.294	16195.51
442.501	16775.08
442.708	17131.43
442.914	17762.2
443.121	18673.55
443.328	18411.41
443.534	19138.44
443.741	18866.06
443.948	18438.03
444.154	19931
444.361	19650.43
444.568	19808.12
444.774	20000.63
444.981	20125.56
445.187	20989.8
445.394	21622.62
445.6	21577.57
445.807	23455.56
446.013	22382.42
446.22	22669.14
446.426	23881.53
446.633	23945.02
446.839	24823.6
447.046	23717.7
447.252	24983.34
447.459	24831.79
447.665	24661.81
447.871	26056.48
448.078	27049.74
448.284	25626.4
448.491	26760.98
448.697	27238.16
448.903	27913.98
449.11	27924.22
449.316	27852.55
449.522	28198.65
449.728	28862.19
449.935	29146.86
450.141	29081.33
450.347	29744.87
450.553	28854
450.76	29394.67
450.966	30004.96
451.172	29961.95
451.378	30447.32
451.584	29890.27
451.791	30766.81
451.997	31094.48
452.203	31033.04
452.409	31252.17
452.615	31059.66
452.821	29961.95
453.027	29400.81
453.233	31602.38
453.44	30095.07
453.646	30678.74
453.852	30787.28
454.058	30930.64
454.264	30295.77
454.47	31147.73
454.676	30295.77
454.882	30854.87
455.088	28075.77
455.294	29036.27
455.5	29318.89
455.705	29755.11
455.911	28356.35
456.117	27959.04
456.323	27449.1
456.529	25835.3
456.735	26957.58
456.941	26674.96
457.147	26289.95
457.352	25421.61
457.558	25235.24
457.764	25237.29
457.97	24903.47
458.176	24487.73
458.381	24284.98
458.587	22722.38
458.793	23228.23
458.999	21911.39
459.204	23365.45
459.41	22587.22
459.616	21432.16
459.821	21485.41
460.027	21325.67
460.233	20952.94
460.438	19675.01
460.644	20049.78
460.85	19128.2
461.055	18888.59
461.261	18917.26
461.466	17309.6
461.672	17010.6
461.878	17958.81
462.083	16854.95
462.289	16537.52
462.494	16439.22
462.7	15863.74
462.905	15370.18
463.111	15955.9
463.316	16039.86
463.522	15546.3
463.727	15624.12
463.932	15640.51
464.138	15273.92
464.343	15210.43
464.549	14999.49
464.754	15419.33
464.959	15282.11
465.165	15196.1
465.37	14434.25
465.575	14254.03
465.781	14526.41
465.986	14774.22
466.191	14444.49
466.397	14141.39
466.602	13191.14
466.807	13557.72
467.012	13668.31
467.218	13739.99
467.423	13791.19
467.628	13684.7
