Data from USB4F104151__116__14-43-53-390.txt Node

Date: Thu Mar 13 14:43:53 EDT 2025
User: louis
Spectrometer: USB4F10415
Trigger mode: 4
Integration Time (sec): 2.000000E-2
Scans to average: 1
Electric dark correction enabled: true
Nonlinearity correction enabled: false
Boxcar width: 0
XAxis mode: Wavelengths
Number of Pixels in Spectrum: 3648
>>>>>Begin Spectral Data<<<<<
178.204	-85.5
178.424	-85.5
178.644	-85.5
178.864	-165.37
179.084	-89.6
179.304	25.09
179.524	-11.78
179.744	-17.92
179.964	4.61
180.184	-9.73
180.404	45.57
180.624	-40.45
180.844	6.66
181.064	-19.97
181.283	-9.73
181.503	-11.78
181.723	39.42
181.943	-19.97
182.163	82.43
182.383	59.9
182.602	23.04
182.822	86.53
183.042	37.38
183.262	-7.68
183.482	8.7
183.701	-42.5
183.921	78.33
184.141	23.04
184.361	37.38
184.58	4.61
184.8	-52.74
185.02	57.86
185.239	16.9
185.459	-36.35
185.679	70.14
185.898	-3.58
186.118	37.38
186.338	80.38
186.557	14.85
186.777	37.38
186.997	33.28
187.216	-15.87
187.436	143.87
187.655	25.09
187.875	96.77
188.095	20.99
188.314	23.04
188.534	43.52
188.753	-17.92
188.973	-24.06
189.192	86.53
189.412	43.52
189.631	-17.92
189.851	78.33
190.07	8.7
190.29	25.09
190.509	12.8
190.729	-9.73
190.948	61.95
191.168	96.77
191.387	72.19
191.607	-7.68
191.826	33.28
192.045	12.8
192.265	-52.74
192.484	-1.54
192.704	57.86
192.923	-52.74
193.142	111.1
193.362	57.86
193.581	0.51
193.8	39.42
194.02	82.43
194.239	-1.54
194.458	31.23
194.678	-26.11
194.897	-9.73
195.116	102.91
195.335	-3.58
195.555	14.85
195.774	-3.58
195.993	74.24
196.212	14.85
196.432	66.05
196.651	70.14
196.87	45.57
197.089	61.95
197.308	-3.58
197.528	45.57
197.747	53.76
197.966	-40.45
198.185	104.96
198.404	27.14
198.623	53.76
198.842	86.53
199.062	47.62
199.281	113.15
199.5	39.42
199.719	16.9
199.938	0.51
200.157	104.96
200.376	-3.58
200.595	64
200.814	-17.92
201.033	102.91
201.252	-1.54
201.471	29.18
201.69	117.25
201.909	37.38
202.128	104.96
202.347	64
202.566	37.38
202.785	29.18
203.004	6.66
203.223	127.49
203.442	4.61
203.661	86.53
203.879	86.53
204.098	82.43
204.317	6.66
204.536	12.8
204.755	64
204.974	20.99
205.193	35.33
205.411	107.01
205.63	53.76
205.849	113.15
206.068	37.38
206.287	8.7
206.505	49.66
206.724	104.96
206.943	23.04
207.162	14.85
207.381	-1.54
207.599	66.05
207.818	64
208.037	57.86
208.255	55.81
208.474	31.23
208.693	37.38
208.911	16.9
209.13	20.99
209.349	4.61
209.567	47.62
209.786	53.76
210.005	25.09
210.223	45.57
210.442	-28.16
210.661	64
210.879	18.94
211.098	6.66
211.316	14.85
211.535	55.81
211.753	51.71
211.972	45.57
212.191	-44.54
212.409	20.99
212.628	0.51
212.846	-69.12
213.065	31.23
213.283	55.81
213.502	-11.78
213.72	31.23
213.938	80.38
214.157	12.8
214.375	-3.58
214.594	-5.63
214.812	66.05
215.031	33.28
215.249	10.75
215.467	76.29
215.686	23.04
215.904	70.14
216.122	53.76
216.341	78.33
216.559	20.99
216.778	88.57
216.996	68.09
217.214	39.42
217.432	37.38
217.651	-7.68
217.869	12.8
218.087	33.28
218.306	-3.58
218.524	125.44
218.742	-9.73
218.96	53.76
219.179	45.57
219.397	-19.97
219.615	33.28
219.833	59.9
220.051	6.66
220.27	127.49
220.488	-7.68
220.706	64
220.924	-3.58
221.142	-73.21
221.36	29.18
221.578	111.1
221.796	61.95
222.015	18.94
222.233	-19.97
222.451	121.34
222.669	20.99
222.887	41.47
223.105	-36.35
223.323	39.42
223.541	20.99
223.759	33.28
223.977	98.81
224.195	111.1
224.413	45.57
224.631	16.9
224.849	8.7
225.067	37.38
225.285	61.95
225.503	55.81
225.721	-60.93
225.939	-44.54
226.157	104.96
226.375	98.81
226.592	-11.78
226.81	45.57
227.028	23.04
227.246	70.14
227.464	47.62
227.682	23.04
227.9	109.05
228.117	94.72
228.335	43.52
228.553	37.38
228.771	33.28
228.989	39.42
229.206	-34.3
229.424	-36.35
229.642	45.57
229.86	-3.58
230.077	78.33
230.295	80.38
230.513	45.57
230.731	102.91
230.948	70.14
231.166	45.57
231.384	10.75
231.601	0.51
231.819	107.01
232.037	-48.64
232.254	-34.3
232.472	78.33
232.689	39.42
232.907	70.14
233.125	-40.45
233.342	-11.78
233.56	-15.87
233.777	-17.92
233.995	61.95
234.213	6.66
234.43	55.81
234.648	57.86
234.865	-9.73
235.083	16.9
235.3	78.33
235.518	119.29
235.735	-11.78
235.953	25.09
236.17	45.57
236.388	6.66
236.605	14.85
236.822	47.62
237.04	18.94
237.257	-19.97
237.475	82.43
237.692	31.23
237.909	23.04
238.127	-32.26
238.344	-7.68
238.562	39.42
238.779	29.18
238.996	-24.06
239.214	20.99
239.431	39.42
239.648	-19.97
239.865	-11.78
240.083	117.25
240.3	64
240.517	-38.4
240.735	31.23
240.952	96.77
241.169	31.23
241.386	94.72
241.603	39.42
241.821	20.99
242.038	20.99
242.255	43.52
242.472	-1.54
242.689	29.18
242.907	29.18
243.124	-1.54
243.341	20.99
243.558	-17.92
243.775	-7.68
243.992	41.47
244.209	6.66
244.426	45.57
244.643	98.81
244.86	6.66
245.078	94.72
245.295	8.7
245.512	82.43
245.729	23.04
245.946	25.09
246.163	-3.58
246.38	61.95
246.597	51.71
246.814	-28.16
247.031	-44.54
247.248	16.9
247.464	29.18
247.681	2.56
247.898	78.33
248.115	61.95
248.332	-73.21
248.549	88.57
248.766	115.2
248.983	-17.92
249.2	72.19
249.417	45.57
249.633	-5.63
249.85	29.18
250.067	37.38
250.284	20.99
250.501	-42.5
250.717	80.38
250.934	8.7
251.151	27.14
251.368	59.9
251.585	47.62
251.801	12.8
252.018	39.42
252.235	78.33
252.451	-50.69
252.668	16.9
252.885	55.81
253.102	45.57
253.318	-9.73
253.535	35.33
253.752	31.23
253.968	33.28
254.185	35.33
254.401	23.04
254.618	88.57
254.835	-89.6
255.051	88.57
255.268	10.75
255.484	33.28
255.701	-3.58
255.917	61.95
256.134	-3.58
256.351	-1.54
256.567	-44.54
256.784	57.86
257	45.57
257.217	64
257.433	76.29
257.65	51.71
257.866	-34.3
258.082	-15.87
258.299	-5.63
258.515	53.76
258.732	29.18
258.948	6.66
259.165	16.9
259.381	23.04
259.597	-60.93
259.814	-1.54
260.03	-1.54
260.246	47.62
260.463	29.18
260.679	70.14
260.895	10.75
261.112	61.95
261.328	-7.68
261.544	-50.69
261.761	86.53
261.977	82.43
262.193	-19.97
262.409	27.14
262.626	90.62
262.842	-19.97
263.058	-34.3
263.274	-9.73
263.49	39.42
263.707	14.85
263.923	-7.68
264.139	6.66
264.355	61.95
264.571	86.53
264.787	29.18
265.004	80.38
265.22	29.18
265.436	-69.12
265.652	25.09
265.868	53.76
266.084	20.99
266.3	113.15
266.516	25.09
266.732	92.67
266.948	4.61
267.164	10.75
267.38	-7.68
267.596	-11.78
267.812	61.95
268.028	61.95
268.244	10.75
268.46	123.39
268.676	-19.97
268.892	45.57
269.108	6.66
269.324	86.53
269.54	33.28
269.756	96.77
269.972	12.8
270.188	-28.16
270.403	-24.06
270.619	-52.74
270.835	-11.78
271.051	6.66
271.267	16.9
271.483	66.05
271.698	37.38
271.914	29.18
272.13	-19.97
272.346	-28.16
272.562	66.05
272.777	20.99
272.993	10.75
273.209	-26.11
273.425	16.9
273.64	-11.78
273.856	4.61
274.072	20.99
274.287	29.18
274.503	31.23
274.719	10.75
274.934	23.04
275.15	-15.87
275.366	35.33
275.581	0.51
275.797	64
276.012	4.61
276.228	-13.82
276.444	57.86
276.659	27.14
276.875	35.33
277.09	49.66
277.306	-15.87
277.521	37.38
277.737	-1.54
277.952	12.8
278.168	-32.26
278.383	37.38
278.599	-60.93
278.814	14.85
279.03	8.7
279.245	74.24
279.461	20.99
279.676	102.91
279.892	-5.63
280.107	-44.54
280.322	-15.87
280.538	55.81
280.753	-7.68
280.969	35.33
281.184	121.34
281.399	96.77
281.615	43.52
281.83	4.61
282.045	86.53
282.26	27.14
282.476	4.61
282.691	82.43
282.906	25.09
283.122	14.85
283.337	14.85
283.552	25.09
283.767	20.99
283.983	43.52
284.198	20.99
284.413	53.76
284.628	-24.06
284.843	41.47
285.058	33.28
285.274	53.76
285.489	43.52
285.704	61.95
285.919	29.18
286.134	16.9
286.349	-1.54
286.564	29.18
286.779	37.38
286.995	64
287.21	-9.73
287.425	0.51
287.64	0.51
287.855	39.42
288.07	-44.54
288.285	2.56
288.5	61.95
288.715	-19.97
288.93	-13.82
289.145	49.66
289.36	53.76
289.575	29.18
289.79	37.38
290.004	45.57
290.219	12.8
290.434	84.48
290.649	25.09
290.864	45.57
291.079	37.38
291.294	66.05
291.509	12.8
291.724	35.33
291.938	14.85
292.153	55.81
292.368	16.9
292.583	-44.54
292.798	16.9
293.012	12.8
293.227	47.62
293.442	37.38
293.657	49.66
293.871	61.95
294.086	53.76
294.301	-9.73
294.516	51.71
294.73	74.24
294.945	-38.4
295.16	23.04
295.374	94.72
295.589	14.85
295.804	45.57
296.018	0.51
296.233	-3.58
296.447	74.24
296.662	-1.54
296.877	84.48
297.091	86.53
297.306	80.38
297.52	64
297.735	-1.54
297.949	37.38
298.164	-19.97
298.378	20.99
298.593	29.18
298.807	-11.78
299.022	-9.73
299.236	4.61
299.451	-17.92
299.665	68.09
299.88	80.38
300.094	20.99
300.309	-50.69
300.523	14.85
300.737	53.76
300.952	33.28
301.166	-9.73
301.381	-75.26
301.595	27.14
301.809	-5.63
302.024	66.05
302.238	-11.78
302.452	61.95
302.667	-11.78
302.881	121.34
303.095	-9.73
303.309	98.81
303.524	-1.54
303.738	70.14
303.952	20.99
304.166	41.47
304.381	20.99
304.595	37.38
304.809	8.7
305.023	55.81
305.237	-52.74
305.452	-44.54
305.666	45.57
305.88	0.51
306.094	47.62
306.308	20.99
306.522	-52.74
306.736	102.91
306.95	53.76
307.164	90.62
307.379	49.66
307.593	74.24
307.807	25.09
308.021	31.23
308.235	12.8
308.449	55.81
308.663	2.56
308.877	49.66
309.091	104.96
309.305	-11.78
309.519	39.42
309.733	4.61
309.947	-60.93
310.161	31.23
310.374	55.81
310.588	0.51
310.802	33.28
311.016	-1.54
311.23	-36.35
311.444	12.8
311.658	8.7
311.872	41.47
312.085	14.85
312.299	51.71
312.513	104.96
312.727	-3.58
312.941	-42.5
313.154	41.47
313.368	66.05
313.582	-5.63
313.796	10.75
314.009	29.18
314.223	-5.63
314.437	107.01
314.651	6.66
314.864	31.23
315.078	57.86
315.292	20.99
315.505	23.04
315.719	86.53
315.933	25.09
316.146	-9.73
316.36	4.61
316.573	72.19
316.787	-60.93
317.001	25.09
317.214	12.8
317.428	31.23
317.641	-44.54
317.855	20.99
318.068	12.8
318.282	53.76
318.495	98.81
318.709	102.91
318.922	20.99
319.136	102.91
319.349	74.24
319.563	55.81
319.776	45.57
319.99	16.9
320.203	86.53
320.417	-38.4
320.63	53.76
320.843	86.53
321.057	45.57
321.27	53.76
321.483	-40.45
321.697	61.95
321.91	90.62
322.124	23.04
322.337	66.05
322.55	72.19
322.763	-36.35
322.977	80.38
323.19	-44.54
323.403	41.47
323.617	66.05
323.83	59.9
324.043	25.09
324.256	18.94
324.469	-22.02
324.683	29.18
324.896	-9.73
325.109	31.23
325.322	14.85
325.535	39.42
325.748	-19.97
325.962	-52.74
326.175	2.56
326.388	-9.73
326.601	23.04
326.814	-15.87
327.027	-5.63
327.24	29.18
327.453	0.51
327.666	111.1
327.879	53.76
328.092	-36.35
328.305	-44.54
328.518	76.29
328.731	-7.68
328.944	45.57
329.157	47.62
329.37	45.57
329.583	53.76
329.796	86.53
330.009	31.23
330.222	49.66
330.435	20.99
330.648	12.8
330.861	2.56
331.073	-3.58
331.286	53.76
331.499	-3.58
331.712	49.66
331.925	29.18
332.138	-1.54
332.35	70.14
332.563	14.85
332.776	18.94
332.989	12.8
333.202	64
333.414	-22.02
333.627	-24.06
333.84	20.99
334.053	72.19
334.265	-5.63
334.478	39.42
334.691	90.62
334.903	59.9
335.116	-69.12
335.329	18.94
335.541	80.38
335.754	41.47
335.966	23.04
336.179	51.71
336.392	4.61
336.604	4.61
336.817	53.76
337.029	35.33
337.242	82.43
337.454	55.81
337.667	-19.97
337.88	160.25
338.092	12.8
338.305	45.57
338.517	-15.87
338.729	111.1
338.942	135.68
339.154	-9.73
339.367	76.29
339.579	-3.58
339.792	25.09
340.004	88.57
340.217	25.09
340.429	29.18
340.641	37.38
340.854	4.61
341.066	20.99
341.278	115.2
341.491	45.57
341.703	55.81
341.915	37.38
342.128	57.86
342.34	49.66
342.552	-71.17
342.764	61.95
342.977	111.1
343.189	43.52
343.401	20.99
343.613	14.85
343.826	76.29
344.038	2.56
344.25	70.14
344.462	88.57
344.674	37.38
344.886	47.62
345.099	61.95
345.311	61.95
345.523	-44.54
345.735	20.99
345.947	23.04
346.159	-11.78
346.371	39.42
346.583	29.18
346.795	86.53
347.007	96.77
347.219	-36.35
347.431	61.95
347.643	45.57
347.855	-1.54
348.067	123.39
348.279	29.18
348.491	8.7
348.703	39.42
348.915	33.28
349.127	6.66
349.339	-1.54
349.551	25.09
349.763	-44.54
349.975	-24.06
350.187	78.33
350.399	57.86
350.61	66.05
350.822	-9.73
351.034	57.86
351.246	6.66
351.458	-11.78
351.669	72.19
351.881	147.97
352.093	37.38
352.305	45.57
352.517	29.18
352.728	39.42
352.94	18.94
353.152	88.57
353.363	49.66
353.575	41.47
353.787	23.04
353.999	35.33
354.21	45.57
354.422	33.28
354.633	-40.45
354.845	33.28
355.057	53.76
355.268	16.9
355.48	68.09
355.692	49.66
355.903	-7.68
356.115	41.47
356.326	66.05
356.538	107.01
356.749	61.95
356.961	104.96
357.172	23.04
357.384	49.66
357.595	115.2
357.807	37.38
358.018	-52.74
358.23	70.14
358.441	41.47
358.653	90.62
358.864	10.75
359.075	-52.74
359.287	14.85
359.498	-11.78
359.709	20.99
359.921	84.48
360.132	59.9
360.344	53.76
360.555	-13.82
360.766	29.18
360.977	45.57
361.189	55.81
361.4	16.9
361.611	33.28
361.823	92.67
362.034	64
362.245	-1.54
362.456	31.23
362.667	72.19
362.879	49.66
363.09	98.81
363.301	92.67
363.512	70.14
363.723	94.72
363.935	16.9
364.146	53.76
364.357	8.7
364.568	23.04
364.779	-24.06
364.99	37.38
365.201	45.57
365.412	90.62
365.623	-42.5
365.834	90.62
366.045	109.05
366.256	4.61
366.467	16.9
366.678	78.33
366.889	121.34
367.1	-19.97
367.311	74.24
367.522	37.38
367.733	18.94
367.944	37.38
368.155	61.95
368.366	29.18
368.577	80.38
368.788	135.68
368.999	20.99
369.209	-56.83
369.42	70.14
369.631	55.81
369.842	27.14
370.053	12.8
370.264	37.38
370.474	41.47
370.685	41.47
370.896	100.86
371.107	-15.87
371.317	29.18
371.528	66.05
371.739	70.14
371.95	94.72
372.16	70.14
372.371	68.09
372.582	72.19
372.792	20.99
373.003	43.52
373.214	49.66
373.424	53.76
373.635	64
373.846	68.09
374.056	16.9
374.267	61.95
374.477	29.18
374.688	20.99
374.898	109.05
375.109	111.1
375.319	92.67
375.53	104.96
375.74	-1.54
375.951	29.18
376.161	31.23
376.372	29.18
376.582	49.66
376.793	86.53
377.003	-24.06
377.214	6.66
377.424	45.57
377.635	14.85
377.845	-17.92
378.055	98.81
378.266	25.09
378.476	47.62
378.686	70.14
378.897	6.66
379.107	43.52
379.317	82.43
379.528	4.61
379.738	16.9
379.948	84.48
380.158	53.76
380.369	23.04
380.579	8.7
380.789	-19.97
380.999	29.18
381.21	43.52
381.42	41.47
381.63	61.95
381.84	107.01
382.05	41.47
382.261	39.42
382.471	64
382.681	45.57
382.891	98.81
383.101	78.33
383.311	45.57
383.521	64
383.731	14.85
383.941	43.52
384.151	55.81
384.361	31.23
384.571	49.66
384.781	39.42
384.991	53.76
385.201	29.18
385.411	33.28
385.621	57.86
385.831	70.14
386.041	55.81
386.251	29.18
386.461	49.66
386.671	37.38
386.881	113.15
387.091	53.76
387.301	70.14
387.511	43.52
387.72	98.81
387.93	-13.82
388.14	33.28
388.35	57.86
388.56	70.14
388.769	37.38
388.979	23.04
389.189	-30.21
389.399	113.15
389.609	76.29
389.818	31.23
390.028	66.05
390.238	61.95
390.447	45.57
390.657	115.2
390.867	66.05
391.076	47.62
391.286	37.38
391.496	45.57
391.705	-32.26
391.915	102.91
392.125	25.09
392.334	-46.59
392.544	80.38
392.753	45.57
392.963	86.53
393.172	31.23
393.382	-85.5
393.591	94.72
393.801	55.81
394.01	90.62
394.22	64
394.429	59.9
394.639	86.53
394.848	49.66
395.058	64
395.267	76.29
395.477	72.19
395.686	6.66
395.895	156.16
396.105	66.05
396.314	14.85
396.524	94.72
396.733	45.57
396.942	94.72
397.152	86.53
397.361	37.38
397.57	18.94
397.78	92.67
397.989	49.66
398.198	86.53
398.407	86.53
398.617	47.62
398.826	33.28
399.035	115.2
399.244	43.52
399.453	125.44
399.663	33.28
399.872	45.57
400.081	31.23
400.29	86.53
400.499	45.57
400.708	102.91
400.917	78.33
401.127	61.95
401.336	18.94
401.545	164.35
401.754	119.29
401.963	88.57
402.172	53.76
402.381	115.2
402.59	66.05
402.799	29.18
403.008	98.81
403.217	84.48
403.426	51.71
403.635	29.18
403.844	41.47
404.053	102.91
404.262	53.76
404.471	88.57
404.68	145.92
404.888	137.73
405.097	154.11
405.306	96.77
405.515	131.58
405.724	121.34
405.933	137.73
406.142	137.73
406.35	201.21
406.559	203.26
406.768	107.01
406.977	162.3
407.185	86.53
407.394	197.12
407.603	145.92
407.812	154.11
408.02	147.97
408.229	133.63
408.438	170.49
408.646	113.15
408.855	152.06
409.064	197.12
409.272	233.98
409.481	258.56
409.69	170.49
409.898	203.26
410.107	209.4
410.315	274.94
410.524	178.69
410.733	219.64
410.941	250.36
411.15	326.14
411.358	223.74
411.567	344.57
411.775	279.04
411.984	291.32
412.192	307.71
412.401	215.55
412.609	301.56
412.818	406.01
413.026	324.09
413.234	414.2
413.443	332.28
413.651	360.95
413.86	389.63
414.068	438.78
414.276	438.78
414.485	397.82
414.693	432.63
414.901	520.7
415.11	371.19
415.318	410.11
415.526	569.85
415.734	532.98
415.943	623.09
416.151	582.14
416.359	553.46
416.567	643.57
416.776	637.43
416.984	578.04
417.192	700.92
417.4	692.73
417.608	662.01
417.817	692.73
418.025	727.54
418.233	807.41
418.441	741.88
418.649	778.74
418.857	815.6
419.065	1014.26
419.273	807.41
419.481	852.47
419.689	1004.02
419.897	979.44
420.105	999.92
420.313	1012.21
420.521	1085.94
420.729	1114.61
420.937	1122.8
421.145	1169.9
421.353	1139.18
421.561	1253.87
421.769	1290.73
421.977	1382.89
422.185	1335.79
422.393	1380.84
422.601	1481.19
422.809	1599.98
423.017	1454.57
423.224	1677.8
423.432	1696.23
423.64	1599.98
423.848	1802.72
424.056	1720.81
424.263	1872.36
424.471	1751.53
424.679	1886.69
424.887	2021.86
425.094	1995.23
425.302	2120.16
425.51	2036.19
425.718	2240.99
425.925	2335.2
426.133	2304.48
426.341	2515.42
426.548	2666.97
426.756	2441.69
426.964	2576.86
427.171	2748.89
427.379	2830.8
427.586	2787.8
427.794	2980.31
428.001	3004.88
428.209	3314.13
428.417	3088.85
428.624	3326.41
428.832	3398.09
429.039	3373.52
429.247	3310.03
429.454	3580.36
429.662	3949
429.869	3606.98
430.076	3877.32
430.284	3748.29
430.491	3989.96
430.699	4145.6
430.906	4190.66
431.114	4381.12
431.321	4403.64
431.528	4538.81
431.736	4774.33
431.943	5044.66
432.15	4841.91
432.358	4960.69
432.565	5181.87
432.772	5110.19
432.979	5267.89
433.187	5478.83
433.394	5497.26
433.601	5722.54
433.808	5853.61
434.016	5775.78
434.223	6140.32
434.43	6605.21
434.637	6255.01
434.844	6781.34
435.052	6726.04
435.259	6943.13
435.466	6812.06
435.673	6861.21
435.88	7313.81
436.087	7735.69
436.294	7643.53
436.501	7440.78
436.708	7563.66
436.915	7987.59
437.122	8302.98
437.329	8034.69
437.537	8583.55
437.743	8556.93
437.95	8522.11
438.157	8995.19
438.364	9269.62
438.571	9341.3
438.778	9329.01
438.985	10199.4
439.192	9781.61
439.399	10058.09
439.606	9744.75
439.813	10498.4
440.02	11204.95
440.227	10672.48
440.433	10799.45
440.64	11170.13
440.847	11022.68
441.054	11266.39
441.261	11997.51
441.467	11909.45
441.674	11977.03
441.881	12521.79
442.088	12292.42
442.294	12253.51
442.501	12785.98
442.708	12767.55
442.914	13394.23
443.121	13926.7
443.328	13613.36
443.534	14584.1
443.741	14039.34
443.948	13730.09
444.154	14952.73
444.361	14766.37
444.568	14983.45
444.774	15227.16
444.981	15145.24
445.187	15427.86
445.394	16247.05
445.6	16005.39
445.807	17422.58
446.013	16623.87
446.22	16996.6
446.426	17586.42
446.633	17928.43
446.839	18567.4
447.046	17852.66
447.252	18829.54
447.459	18518.25
447.665	18643.17
447.871	19683.54
448.078	20570.31
448.284	19419.35
448.491	19953.87
448.697	20740.29
448.903	21053.63
449.11	21129.41
449.316	20938.94
449.522	20990.14
449.728	21635.25
449.935	22218.92
450.141	22108.33
450.347	22532.26
450.553	21903.54
450.76	22126.77
450.966	22491.3
451.172	22526.12
451.378	23433.37
451.584	22810.79
451.791	23197.85
451.997	22943.91
452.203	23521.43
452.409	23658.65
452.615	23406.75
452.821	22997.15
453.027	22356.14
453.233	23593.11
453.44	23015.58
453.646	22884.51
453.852	23052.45
454.058	23423.13
454.264	22876.32
454.47	23087.26
454.676	22837.41
454.882	23660.69
455.088	21549.24
455.294	21500.09
455.5	22169.77
455.705	22470.83
455.911	21592.25
456.117	21072.06
456.323	20932.8
456.529	19675.35
456.735	20631.75
456.941	20160.72
457.147	19910.86
457.352	19257.56
457.558	19099.87
457.764	19261.66
457.97	18833.63
458.176	18387.18
458.381	18151.66
458.587	17295.61
458.793	17393.91
458.999	16646.4
459.204	17662.19
459.41	17189.11
459.616	15917.33
459.821	16226.57
460.027	15972.62
460.233	15565.07
460.438	14803.23
460.644	15104.28
460.85	14293.29
461.055	14020.91
461.261	14221.61
461.466	13058.36
461.672	12865.85
461.878	13517.11
462.083	12849.47
462.289	12284.23
462.494	12390.72
462.7	11837.77
462.905	11653.45
463.111	11950.41
463.316	11876.68
463.522	11753.8
463.727	11800.91
463.932	11733.32
464.138	11579.73
464.343	11571.54
464.549	11311.44
464.754	11637.07
464.959	11573.58
465.165	11434.32
465.37	11055.45
465.575	10606.94
465.781	11112.79
465.986	11231.57
466.191	10654.05
466.397	10606.94
466.602	10004.84
466.807	10643.81
467.012	10520.93
467.218	10447.2
467.423	10205.54
467.628	10465.63
467.833	10615.13
468.038	10432.86
468.244	9869.67
468.449	10508.64
