Data from USB4F104151__261__14-46-02-080.txt Node

Date: Thu Mar 13 14:46:02 EDT 2025
User: louis
Spectrometer: USB4F10415
Trigger mode: 4
Integration Time (sec): 2.000000E-2
Scans to average: 1
Electric dark correction enabled: true
Nonlinearity correction enabled: false
Boxcar width: 0
XAxis mode: Wavelengths
Number of Pixels in Spectrum: 3648
>>>>>Begin Spectral Data<<<<<
178.204	-151.04
178.424	-151.04
178.644	-151.04
178.864	-85.5
179.084	-210.43
179.304	-32.26
179.524	-5.63
179.744	53.76
179.964	18.94
180.184	45.57
180.404	31.23
180.624	-5.63
180.844	6.66
181.064	-22.02
181.283	-22.02
181.503	-26.11
181.723	-42.5
181.943	-5.63
182.163	61.95
182.383	43.52
182.602	43.52
182.822	84.48
183.042	12.8
183.262	31.23
183.482	-58.88
183.701	10.75
183.921	88.57
184.141	-38.4
184.361	64
184.58	59.9
184.8	14.85
185.02	-13.82
185.239	115.2
185.459	-15.87
185.679	41.47
185.898	76.29
186.118	43.52
186.338	-13.82
186.557	-9.73
186.777	-50.69
186.997	53.76
187.216	59.9
187.436	100.86
187.655	43.52
187.875	39.42
188.095	-30.21
188.314	68.09
188.534	94.72
188.753	70.14
188.973	53.76
189.192	135.68
189.412	43.52
189.631	37.38
189.851	31.23
190.07	64
190.29	53.76
190.509	43.52
190.729	6.66
190.948	2.56
191.168	141.82
191.387	27.14
191.607	31.23
191.826	35.33
192.045	-1.54
192.265	43.52
192.484	-11.78
192.704	68.09
192.923	55.81
193.142	113.15
193.362	53.76
193.581	18.94
193.8	84.48
194.02	43.52
194.239	-65.02
194.458	25.09
194.678	-28.16
194.897	29.18
195.116	-44.54
195.335	31.23
195.555	68.09
195.774	27.14
195.993	45.57
196.212	-28.16
196.432	-13.82
196.651	6.66
196.87	12.8
197.089	82.43
197.308	-22.02
197.528	-40.45
197.747	-1.54
197.966	47.62
198.185	51.71
198.404	4.61
198.623	35.33
198.842	66.05
199.062	4.61
199.281	78.33
199.5	-5.63
199.719	45.57
199.938	49.66
200.157	115.2
200.376	104.96
200.595	59.9
200.814	-38.4
201.033	-19.97
201.252	29.18
201.471	47.62
201.69	135.68
201.909	80.38
202.128	90.62
202.347	20.99
202.566	-22.02
202.785	18.94
203.004	39.42
203.223	76.29
203.442	31.23
203.661	70.14
203.879	43.52
204.098	76.29
204.317	86.53
204.536	84.48
204.755	55.81
204.974	39.42
205.193	100.86
205.411	59.9
205.63	113.15
205.849	-19.97
206.068	10.75
206.287	64
206.505	64
206.724	20.99
206.943	39.42
207.162	18.94
207.381	35.33
207.599	25.09
207.818	100.86
208.037	35.33
208.255	-50.69
208.474	6.66
208.693	133.63
208.911	-17.92
209.13	18.94
209.349	35.33
209.567	86.53
209.786	35.33
210.005	33.28
210.223	23.04
210.442	10.75
210.661	68.09
210.879	29.18
211.098	33.28
211.316	-5.63
211.535	6.66
211.753	49.66
211.972	35.33
212.191	-34.3
212.409	35.33
212.628	31.23
212.846	51.71
213.065	31.23
213.283	45.57
213.502	-19.97
213.72	-13.82
213.938	68.09
214.157	2.56
214.375	-38.4
214.594	68.09
214.812	61.95
215.031	14.85
215.249	4.61
215.467	55.81
215.686	29.18
215.904	16.9
216.122	2.56
216.341	-13.82
216.559	31.23
216.778	53.76
216.996	55.81
217.214	51.71
217.432	45.57
217.651	31.23
217.869	29.18
218.087	-9.73
218.306	16.9
218.524	86.53
218.742	4.61
218.96	72.19
219.179	18.94
219.397	68.09
219.615	64
219.833	51.71
220.051	-5.63
220.27	86.53
220.488	53.76
220.706	-19.97
220.924	37.38
221.142	29.18
221.36	10.75
221.578	45.57
221.796	49.66
222.015	-1.54
222.233	-13.82
222.451	111.1
222.669	-54.78
222.887	129.53
223.105	-28.16
223.323	51.71
223.541	-36.35
223.759	84.48
223.977	27.14
224.195	39.42
224.413	35.33
224.631	86.53
224.849	-3.58
225.067	37.38
225.285	35.33
225.503	39.42
225.721	-30.21
225.939	78.33
226.157	68.09
226.375	109.05
226.592	-54.78
226.81	-52.74
227.028	-15.87
227.246	86.53
227.464	20.99
227.682	72.19
227.9	-9.73
228.117	43.52
228.335	41.47
228.553	49.66
228.771	88.57
228.989	43.52
229.206	18.94
229.424	45.57
229.642	-1.54
229.86	37.38
230.077	35.33
230.295	14.85
230.513	-5.63
230.731	27.14
230.948	31.23
231.166	-13.82
231.384	55.81
231.601	20.99
231.819	35.33
232.037	47.62
232.254	-26.11
232.472	59.9
232.689	14.85
232.907	88.57
233.125	27.14
233.342	39.42
233.56	27.14
233.777	-22.02
233.995	31.23
234.213	-5.63
234.43	2.56
234.648	-38.4
234.865	74.24
235.083	37.38
235.3	-13.82
235.518	29.18
235.735	86.53
235.953	27.14
236.17	18.94
236.388	53.76
236.605	-22.02
236.822	29.18
237.04	35.33
237.257	64
237.475	10.75
237.692	74.24
237.909	70.14
238.127	35.33
238.344	64
238.562	51.71
238.779	-7.68
238.996	59.9
239.214	27.14
239.431	84.48
239.648	6.66
239.865	2.56
240.083	0.51
240.3	43.52
240.517	27.14
240.735	-13.82
240.952	68.09
241.169	-19.97
241.386	-17.92
241.603	23.04
241.821	-85.5
242.038	82.43
242.255	74.24
242.472	20.99
242.689	10.75
242.907	37.38
243.124	-5.63
243.341	8.7
243.558	51.71
243.775	-22.02
243.992	-26.11
244.209	109.05
244.426	100.86
244.643	147.97
244.86	2.56
245.078	55.81
245.295	27.14
245.512	84.48
245.729	31.23
245.946	18.94
246.163	27.14
246.38	27.14
246.597	80.38
246.814	59.9
247.031	37.38
247.248	-22.02
247.464	53.76
247.681	37.38
247.898	14.85
248.115	84.48
248.332	10.75
248.549	84.48
248.766	68.09
248.983	2.56
249.2	23.04
249.417	43.52
249.633	12.8
249.85	51.71
250.067	14.85
250.284	4.61
250.501	57.86
250.717	47.62
250.934	39.42
251.151	-17.92
251.368	29.18
251.585	72.19
251.801	47.62
252.018	14.85
252.235	37.38
252.451	57.86
252.668	14.85
252.885	37.38
253.102	59.9
253.318	35.33
253.535	-9.73
253.752	-69.12
253.968	59.9
254.185	88.57
254.401	31.23
254.618	45.57
254.835	-11.78
255.051	61.95
255.268	41.47
255.484	16.9
255.701	-79.36
255.917	35.33
256.134	10.75
256.351	27.14
256.567	59.9
256.784	109.05
257	23.04
257.217	68.09
257.433	2.56
257.65	35.33
257.866	64
258.082	-13.82
258.299	20.99
258.515	33.28
258.732	20.99
258.948	35.33
259.165	78.33
259.381	10.75
259.597	107.01
259.814	14.85
260.03	10.75
260.246	27.14
260.463	12.8
260.679	125.44
260.895	-13.82
261.112	53.76
261.328	20.99
261.544	43.52
261.761	86.53
261.977	4.61
262.193	-19.97
262.409	94.72
262.626	47.62
262.842	35.33
263.058	43.52
263.274	76.29
263.49	84.48
263.707	59.9
263.923	37.38
264.139	-5.63
264.355	55.81
264.571	72.19
264.787	43.52
265.004	107.01
265.22	109.05
265.436	-22.02
265.652	-11.78
265.868	37.38
266.084	-5.63
266.3	84.48
266.516	14.85
266.732	76.29
266.948	18.94
267.164	27.14
267.38	14.85
267.596	78.33
267.812	131.58
268.028	18.94
268.244	10.75
268.46	92.67
268.676	12.8
268.892	31.23
269.108	43.52
269.324	6.66
269.54	35.33
269.756	14.85
269.972	-22.02
270.188	12.8
270.403	35.33
270.619	109.05
270.835	43.52
271.051	61.95
271.267	-9.73
271.483	76.29
271.698	53.76
271.914	6.66
272.13	-71.17
272.346	41.47
272.562	-28.16
272.777	68.09
272.993	20.99
273.209	-15.87
273.425	10.75
273.64	-13.82
273.856	33.28
274.072	-34.3
274.287	61.95
274.503	78.33
274.719	51.71
274.934	55.81
275.15	-26.11
275.366	18.94
275.581	33.28
275.797	80.38
276.012	20.99
276.228	51.71
276.444	-22.02
276.659	135.68
276.875	2.56
277.09	59.9
277.306	18.94
277.521	68.09
277.737	96.77
277.952	92.67
278.168	57.86
278.383	27.14
278.599	64
278.814	45.57
279.03	39.42
279.245	53.76
279.461	53.76
279.676	102.91
279.892	-30.21
280.107	29.18
280.322	20.99
280.538	43.52
280.753	51.71
280.969	37.38
281.184	10.75
281.399	43.52
281.615	53.76
281.83	-5.63
282.045	35.33
282.26	98.81
282.476	53.76
282.691	80.38
282.906	-3.58
283.122	-5.63
283.337	31.23
283.552	35.33
283.767	61.95
283.983	45.57
284.198	84.48
284.413	64
284.628	14.85
284.843	43.52
285.058	55.81
285.274	31.23
285.489	-26.11
285.704	39.42
285.919	10.75
286.134	45.57
286.349	43.52
286.564	86.53
286.779	47.62
286.995	6.66
287.21	-3.58
287.425	43.52
287.64	31.23
287.855	113.15
288.07	12.8
288.285	27.14
288.5	43.52
288.715	76.29
288.93	-24.06
289.145	43.52
289.36	47.62
289.575	37.38
289.79	45.57
290.004	37.38
290.219	117.25
290.434	-19.97
290.649	-7.68
290.864	35.33
291.079	20.99
291.294	61.95
291.509	-11.78
291.724	88.57
291.938	12.8
292.153	29.18
292.368	70.14
292.583	64
292.798	117.25
293.012	90.62
293.227	2.56
293.442	57.86
293.657	141.82
293.871	6.66
294.086	88.57
294.301	88.57
294.516	12.8
294.73	49.66
294.945	-40.45
295.16	35.33
295.374	-13.82
295.589	-13.82
295.804	10.75
296.018	29.18
296.233	88.57
296.447	59.9
296.662	43.52
296.877	51.71
297.091	8.7
297.306	-5.63
297.52	37.38
297.735	39.42
297.949	43.52
298.164	6.66
298.378	-22.02
298.593	31.23
298.807	66.05
299.022	121.34
299.236	84.48
299.451	10.75
299.665	20.99
299.88	102.91
300.094	45.57
300.309	51.71
300.523	45.57
300.737	47.62
300.952	-36.35
301.166	64
301.381	20.99
301.595	55.81
301.809	86.53
302.024	35.33
302.238	45.57
302.452	41.47
302.667	88.57
302.881	27.14
303.095	51.71
303.309	18.94
303.524	-13.82
303.738	59.9
303.952	6.66
304.166	84.48
304.381	53.76
304.595	61.95
304.809	53.76
305.023	45.57
305.237	20.99
305.452	14.85
305.666	100.86
305.88	59.9
306.094	117.25
306.308	59.9
306.522	41.47
306.736	-1.54
306.95	84.48
307.164	27.14
307.379	59.9
307.593	111.1
307.807	14.85
308.021	86.53
308.235	80.38
308.449	-13.82
308.663	107.01
308.877	31.23
309.091	-54.78
309.305	88.57
309.519	23.04
309.733	76.29
309.947	6.66
310.161	131.58
310.374	152.06
310.588	51.71
310.802	47.62
311.016	2.56
311.23	-5.63
311.444	43.52
311.658	55.81
311.872	39.42
312.085	57.86
312.299	76.29
312.513	92.67
312.727	127.49
312.941	-83.45
313.154	94.72
313.368	72.19
313.582	68.09
313.796	-19.97
314.009	41.47
314.223	72.19
314.437	31.23
314.651	131.58
314.864	47.62
315.078	18.94
315.292	31.23
315.505	47.62
315.719	82.43
315.933	115.2
316.146	72.19
316.36	16.9
316.573	94.72
316.787	35.33
317.001	88.57
317.214	41.47
317.428	0.51
317.641	27.14
317.855	59.9
318.068	53.76
318.282	-5.63
318.495	84.48
318.709	23.04
318.922	31.23
319.136	121.34
319.349	100.86
319.563	86.53
319.776	-3.58
319.99	27.14
320.203	35.33
320.417	31.23
320.63	29.18
320.843	96.77
321.057	55.81
321.27	109.05
321.483	27.14
321.697	76.29
321.91	-3.58
322.124	72.19
322.337	-17.92
322.55	23.04
322.763	-30.21
322.977	76.29
323.19	39.42
323.403	76.29
323.617	121.34
323.83	147.97
324.043	76.29
324.256	131.58
324.469	2.56
324.683	117.25
324.896	10.75
325.109	55.81
325.322	-3.58
325.535	27.14
325.748	70.14
325.962	8.7
326.175	31.23
326.388	100.86
326.601	6.66
326.814	45.57
327.027	14.85
327.24	143.87
327.453	-46.59
327.666	-5.63
327.879	10.75
328.092	-1.54
328.305	27.14
328.518	35.33
328.731	43.52
328.944	18.94
329.157	12.8
329.37	88.57
329.583	27.14
329.796	35.33
330.009	45.57
330.222	-34.3
330.435	82.43
330.648	18.94
330.861	39.42
331.073	86.53
331.286	76.29
331.499	100.86
331.712	72.19
331.925	-9.73
332.138	53.76
332.35	10.75
332.563	-9.73
332.776	41.47
332.989	2.56
333.202	55.81
333.414	74.24
333.627	-11.78
333.84	20.99
334.053	-26.11
334.265	51.71
334.478	84.48
334.691	20.99
334.903	10.75
335.116	29.18
335.329	4.61
335.541	2.56
335.754	78.33
335.966	51.71
336.179	39.42
336.392	-26.11
336.604	43.52
336.817	119.29
337.029	78.33
337.242	31.23
337.454	90.62
337.667	86.53
337.88	100.86
338.092	27.14
338.305	33.28
338.517	20.99
338.729	86.53
338.942	84.48
339.154	70.14
339.367	0.51
339.579	84.48
339.792	18.94
340.004	-5.63
340.217	84.48
340.429	12.8
340.641	-5.63
340.854	-22.02
341.066	0.51
341.278	27.14
341.491	53.76
341.703	27.14
341.915	-26.11
342.128	150.01
342.34	16.9
342.552	14.85
342.764	2.56
342.977	109.05
343.189	35.33
343.401	59.9
343.613	12.8
343.826	37.38
344.038	141.82
344.25	129.53
344.462	53.76
344.674	-5.63
344.886	100.86
345.099	84.48
345.311	-24.06
345.523	43.52
345.735	-28.16
345.947	125.44
346.159	72.19
346.371	100.86
346.583	55.81
346.795	18.94
347.007	92.67
347.219	76.29
347.431	-7.68
347.643	59.9
347.855	55.81
348.067	64
348.279	10.75
348.491	61.95
348.703	-7.68
348.915	39.42
349.127	51.71
349.339	27.14
349.551	61.95
349.763	135.68
349.975	55.81
350.187	102.91
350.399	8.7
350.61	47.62
350.822	47.62
351.034	68.09
351.246	-28.16
351.458	6.66
351.669	102.91
351.881	96.77
352.093	76.29
352.305	59.9
352.517	68.09
352.728	125.44
352.94	84.48
353.152	137.73
353.363	2.56
353.575	10.75
353.787	68.09
353.999	92.67
354.21	88.57
354.422	29.18
354.633	-5.63
354.845	59.9
355.057	59.9
355.268	84.48
355.48	61.95
355.692	18.94
355.903	64
356.115	27.14
356.326	10.75
356.538	135.68
356.749	92.67
356.961	37.38
357.172	12.8
357.384	-1.54
357.595	150.01
357.807	102.91
358.018	80.38
358.23	100.86
358.441	119.29
358.653	59.9
358.864	-13.82
359.075	47.62
359.287	41.47
359.498	92.67
359.709	111.1
359.921	37.38
360.132	18.94
360.344	70.14
360.555	113.15
360.766	53.76
360.977	64
361.189	45.57
361.4	51.71
361.611	109.05
361.823	41.47
362.034	35.33
362.245	43.52
362.456	49.66
362.667	113.15
362.879	59.9
363.09	68.09
363.301	45.57
363.512	-1.54
363.723	6.66
363.935	25.09
364.146	72.19
364.357	66.05
364.568	27.14
364.779	29.18
364.99	162.3
365.201	-19.97
365.412	137.73
365.623	59.9
365.834	-5.63
366.045	37.38
366.256	115.2
366.467	-9.73
366.678	84.48
366.889	37.38
367.1	10.75
367.311	35.33
367.522	37.38
367.733	104.96
367.944	47.62
368.155	12.8
368.366	59.9
368.577	119.29
368.788	14.85
368.999	-71.17
369.209	-46.59
369.42	119.29
369.631	111.1
369.842	64
370.053	35.33
370.264	35.33
370.474	96.77
370.685	31.23
370.896	35.33
371.107	-22.02
371.317	61.95
371.528	129.53
371.739	102.91
371.95	68.09
372.16	27.14
372.371	76.29
372.582	20.99
372.792	53.76
373.003	45.57
373.214	39.42
373.424	12.8
373.635	18.94
373.846	25.09
374.056	82.43
374.267	37.38
374.477	-54.78
374.688	68.09
374.898	37.38
375.109	76.29
375.319	68.09
375.53	119.29
375.74	29.18
375.951	39.42
376.161	51.71
376.372	-26.11
376.582	35.33
376.793	86.53
377.003	18.94
377.214	-1.54
377.424	47.62
377.635	59.9
377.845	20.99
378.055	68.09
378.266	45.57
378.476	12.8
378.686	135.68
378.897	23.04
379.107	2.56
379.317	68.09
379.528	49.66
379.738	98.81
379.948	12.8
380.158	43.52
380.369	76.29
380.579	39.42
380.789	76.29
380.999	92.67
381.21	43.52
381.42	141.82
381.63	0.51
381.84	59.9
382.05	-5.63
382.261	113.15
382.471	61.95
382.681	76.29
382.891	117.25
383.101	76.29
383.311	39.42
383.521	18.94
383.731	82.43
383.941	80.38
384.151	12.8
384.361	14.85
384.571	29.18
384.781	51.71
384.991	121.34
385.201	156.16
385.411	78.33
385.621	72.19
385.831	139.77
386.041	51.71
386.251	104.96
386.461	94.72
386.671	8.7
386.881	55.81
387.091	18.94
387.301	109.05
387.511	51.71
387.72	104.96
387.93	76.29
388.14	6.66
388.35	72.19
388.56	104.96
388.769	-5.63
388.979	117.25
389.189	27.14
389.399	123.39
389.609	51.71
389.818	115.2
390.028	84.48
390.238	37.38
390.447	23.04
390.657	20.99
390.867	84.48
391.076	90.62
391.286	111.1
391.496	109.05
391.705	12.8
391.915	121.34
392.125	29.18
392.334	55.81
392.544	127.49
392.753	78.33
392.963	16.9
393.172	104.96
393.382	84.48
393.591	107.01
393.801	18.94
394.01	94.72
394.22	96.77
394.429	162.3
394.639	45.57
394.848	76.29
395.058	61.95
395.267	117.25
395.477	68.09
395.686	92.67
395.895	100.86
396.105	174.59
396.314	100.86
396.524	-5.63
396.733	156.16
396.942	160.25
397.152	131.58
397.361	92.67
397.57	121.34
397.78	166.4
397.989	129.53
398.198	119.29
398.407	92.67
398.617	61.95
398.826	104.96
399.035	117.25
399.244	129.53
399.453	102.91
399.663	135.68
399.872	64
400.081	92.67
400.29	158.21
400.499	102.91
400.708	125.44
400.917	102.91
401.127	76.29
401.336	102.91
401.545	72.19
401.754	131.58
401.963	111.1
402.172	94.72
402.381	86.53
402.59	143.87
402.799	117.25
403.008	190.97
403.217	143.87
403.426	109.05
403.635	209.4
403.844	166.4
404.053	158.21
404.262	137.73
404.471	162.3
404.68	168.45
404.888	182.78
405.097	168.45
405.306	137.73
405.515	143.87
405.724	154.11
405.933	154.11
406.142	113.15
406.35	186.88
406.559	219.64
406.768	250.36
406.977	248.32
407.185	174.59
407.394	203.26
407.603	207.36
407.812	207.36
408.02	281.08
408.229	297.47
408.438	281.08
408.646	258.56
408.855	258.56
409.064	256.51
409.272	264.7
409.481	285.18
409.69	250.36
409.898	350.71
410.107	371.19
410.315	375.29
410.524	270.84
410.733	342.52
410.941	367.1
411.15	365.05
411.358	397.82
411.567	395.77
411.775	455.16
411.984	455.16
412.192	350.71
412.401	514.55
412.609	446.97
412.818	461.3
413.026	485.88
413.234	578.04
413.443	522.74
413.651	537.08
413.86	575.99
414.068	625.14
414.276	639.48
414.485	614.9
414.693	715.25
414.901	670.2
415.11	692.73
415.318	653.81
415.526	797.17
415.734	807.41
415.943	741.88
416.151	750.07
416.359	840.18
416.567	819.7
416.776	870.9
416.984	932.34
417.192	922.1
417.4	963.06
417.608	993.78
417.817	975.35
418.025	1079.79
418.233	1061.36
418.441	1063.41
418.649	1087.98
418.857	1219.05
419.065	1356.27
419.273	1186.29
419.481	1292.78
419.689	1446.38
419.897	1415.66
420.105	1434.09
420.313	1460.71
420.521	1591.78
420.729	1647.08
420.937	1608.17
421.145	1743.33
421.353	1894.88
421.561	1831.4
421.769	1948.13
421.977	2025.95
422.185	1925.6
422.393	2128.35
422.601	2222.56
422.809	2197.98
423.017	2298.33
423.224	2337.24
423.432	2451.93
423.64	2363.87
423.848	2798.04
424.056	2585.05
424.263	2742.74
424.471	2980.31
424.679	2882
424.887	2968.02
425.094	3123.66
425.302	3107.28
425.51	3328.46
425.718	3355.08
425.925	3369.42
426.133	3594.7
426.341	3811.78
426.548	3740.1
426.756	3873.22
426.964	3908.04
427.171	4090.31
427.379	4188.61
427.586	4336.06
427.794	4430.27
428.001	4635.07
428.209	4772.28
428.417	4921.78
428.624	5102
428.832	5077.43
429.039	5181.87
429.247	5163.44
429.454	5519.79
429.662	5933.48
429.869	5564.84
430.076	6117.79
430.284	6009.25
430.491	6246.82
430.699	6386.08
430.906	6558.11
431.114	6517.15
431.321	6826.39
431.528	6853.02
431.736	7203.22
431.943	7532.94
432.15	7346.58
432.358	7557.52
432.565	7770.51
432.772	7868.81
432.979	8280.45
433.187	8472.96
433.394	8366.46
433.601	9030.01
433.808	9195.89
434.016	8960.38
434.223	9376.11
434.43	9830.76
434.637	9752.94
434.844	10334.56
435.052	10715.48
435.259	10432.86
435.466	10725.72
435.673	10176.87
435.88	11176.28
436.087	11809.1
436.294	11684.17
436.501	11383.12
436.708	11635.02
436.915	12042.57
437.122	12542.27
437.329	12429.63
437.537	13048.12
437.743	13132.09
437.95	13054.26
438.157	14068.01
438.364	14092.58
438.571	14262.57
438.778	14348.58
438.985	15587.6
439.192	15218.97
439.399	15601.94
439.606	15126.81
439.813	16128.27
440.02	17033.47
440.227	16746.75
440.433	16265.48
440.64	17041.66
440.847	16740.61
441.054	17654
441.261	18460.9
441.467	18444.52
441.674	18407.66
441.881	19333.34
442.088	19396.82
442.294	19173.6
442.501	19626.2
442.708	19859.66
442.914	20674.76
443.121	21930.16
443.328	21256.38
443.534	22696.1
443.741	21764.28
443.948	21616.82
444.154	23095.46
444.361	23163.04
444.568	23419.03
444.774	23691.41
444.981	23847.06
445.187	24256.65
445.394	25219.2
445.6	25038.98
445.807	27394.14
446.013	26263.66
446.22	27013.22
446.426	28133.46
446.633	28287.06
446.839	29331.52
447.046	28045.4
447.252	29749.31
447.459	29526.08
447.665	29204.55
447.871	30756.91
448.078	32145.43
448.284	30588.97
448.491	31475.74
448.697	32364.56
448.903	33480.71
449.11	33378.31
449.316	32997.38
449.522	33478.66
449.728	34463.73
449.935	34635.76
450.141	34910.19
450.347	35500
450.553	34349.04
450.76	34834.41
450.966	36470.74
451.172	35811.29
451.378	36902.86
451.584	36192.22
451.791	36986.83
451.997	36741.07
452.203	37509.06
452.409	37496.77
452.615	37451.72
452.821	35940.32
453.027	35786.72
453.233	37853.12
453.44	35991.51
453.646	36698.06
453.852	36757.46
454.058	37269.45
454.264	36165.59
454.47	37140.43
454.676	35819.49
454.882	37312.45
455.088	34467.83
455.294	35071.98
455.5	35504.1
455.705	35588.06
455.911	34580.46
456.117	33701.89
456.323	33503.23
456.529	31889.43
456.735	33304.58
456.941	32266.26
457.147	31807.51
457.352	30818.35
457.558	30728.24
457.764	30332.98
457.97	30175.28
458.176	29599.8
458.381	29333.57
458.587	28090.45
458.793	28057.68
458.999	26959.97
459.204	28366.93
459.41	27820.12
459.616	26116.21
459.821	25892.98
460.027	26138.74
460.233	25421.95
460.438	24438.92
460.644	24782.98
460.85	23533.72
461.055	23185.57
461.261	23052.45
461.466	21330.11
461.672	20648.13
461.878	22087.85
462.083	20646.08
462.289	20347.08
462.494	20480.2
462.7	19167.45
462.905	18694.37
463.111	19595.48
463.316	19712.21
463.522	18985.18
463.727	19204.31
463.932	19054.81
464.138	18997.47
464.343	19116.25
464.549	18540.77
464.754	18983.13
464.959	19065.05
465.165	18710.75
465.37	17998.06
465.575	17543.41
465.781	18499.81
465.986	18344.17
466.191	17649.91
466.397	17400.05
466.602	16341.25
466.807	17303.8
467.012	17096.96
467.218	17320.18
467.423	16918.78
