Data from USB4F104151__3__14-42-29-230.txt Node

Date: Thu Mar 13 14:42:29 EDT 2025
User: louis
Spectrometer: USB4F10415
Trigger mode: 4
Integration Time (sec): 2.000000E-2
Scans to average: 1
Electric dark correction enabled: true
Nonlinearity correction enabled: false
Boxcar width: 0
XAxis mode: Wavelengths
Number of Pixels in Spectrum: 3648
>>>>>Begin Spectral Data<<<<<
178.204	-97.62
178.424	-97.62
178.644	-97.62
178.864	-140.63
179.084	-128.34
179.304	-85.33
179.524	-48.47
179.744	21.16
179.964	68.27
180.184	-15.7
180.404	43.69
180.624	15.02
180.844	31.4
181.064	-5.46
181.283	-83.28
181.503	-1.37
181.723	60.07
181.943	-5.46
182.163	0.68
182.383	-19.8
182.602	10.92
182.822	-1.37
183.042	15.02
183.262	55.98
183.482	-32.08
183.701	35.5
183.921	-25.94
184.141	17.07
184.361	49.83
184.58	-66.9
184.8	60.07
185.02	-42.32
185.239	66.22
185.459	-17.75
185.679	113.32
185.898	-1.37
186.118	109.23
186.338	49.83
186.557	33.45
186.777	15.02
186.997	2.73
187.216	-23.89
187.436	-15.7
187.655	17.07
187.875	15.02
188.095	-56.66
188.314	31.4
188.534	66.22
188.753	8.87
188.973	-23.89
189.192	115.37
189.412	-13.65
189.631	-1.37
189.851	80.55
190.07	129.7
190.29	-89.43
190.509	33.45
190.729	41.64
190.948	103.08
191.168	129.7
191.387	39.59
191.607	-34.13
191.826	6.83
192.045	23.21
192.265	76.46
192.484	19.11
192.704	-15.7
192.923	19.11
193.142	15.02
193.362	55.98
193.581	68.27
193.8	76.46
194.02	25.26
194.239	12.97
194.458	-36.18
194.678	17.07
194.897	-1.37
195.116	-1.37
195.335	21.16
195.555	-9.56
195.774	-1.37
195.993	10.92
196.212	35.5
196.432	-9.56
196.651	-11.61
196.87	21.16
197.089	109.23
197.308	15.02
197.528	68.27
197.747	-17.75
197.966	-1.37
198.185	164.52
198.404	-75.09
198.623	-56.66
198.842	68.27
199.062	51.88
199.281	39.59
199.5	-42.32
199.719	-1.37
199.938	45.74
200.157	-15.7
200.376	21.16
200.595	70.31
200.814	41.64
201.033	37.55
201.252	35.5
201.471	17.07
201.69	-48.47
201.909	129.7
202.128	-52.56
202.347	35.5
202.566	80.55
202.785	17.07
203.004	10.92
203.223	98.99
203.442	17.07
203.661	25.26
203.879	-1.37
204.098	-9.56
204.317	-11.61
204.536	23.21
204.755	8.87
204.974	37.55
205.193	-1.37
205.411	6.83
205.63	-48.47
205.849	74.41
206.068	23.21
206.287	-79.19
206.505	60.07
206.724	31.4
206.943	-1.37
207.162	-15.7
207.381	0.68
207.599	68.27
207.818	60.07
208.037	39.59
208.255	-46.42
208.474	-7.51
208.693	-1.37
208.911	-1.37
209.13	-1.37
209.349	64.17
209.567	15.02
209.786	123.56
210.005	31.4
210.223	64.17
210.442	-21.85
210.661	8.87
210.879	58.03
211.098	58.03
211.316	-71
211.535	-1.37
211.753	25.26
211.972	80.55
212.191	-11.61
212.409	-75.09
212.628	21.16
212.846	41.64
213.065	72.36
213.283	-1.37
213.502	-34.13
213.72	-1.37
213.938	-32.08
214.157	6.83
214.375	86.7
214.594	6.83
214.812	49.83
215.031	10.92
215.249	31.4
215.467	-9.56
215.686	19.11
215.904	-5.46
216.122	-38.23
216.341	94.89
216.559	-5.46
216.778	10.92
216.996	31.4
217.214	6.83
217.432	25.26
217.651	47.79
217.869	-7.51
218.087	-9.56
218.306	6.83
218.524	70.31
218.742	17.07
218.96	39.59
219.179	-27.99
219.397	15.02
219.615	111.27
219.833	33.45
220.051	-32.08
220.27	39.59
220.488	47.79
220.706	33.45
220.924	15.02
221.142	68.27
221.36	12.97
221.578	64.17
221.796	-58.71
222.015	-9.56
222.233	53.93
222.451	74.41
222.669	-11.61
222.887	10.92
223.105	6.83
223.323	70.31
223.541	-13.65
223.759	0.68
223.977	51.88
224.195	21.16
224.413	-36.18
224.631	15.02
224.849	-1.37
225.067	55.98
225.285	-1.37
225.503	-34.13
225.721	-54.61
225.939	41.64
226.157	-1.37
226.375	90.79
226.592	15.02
226.81	2.73
227.028	-17.75
227.246	90.79
227.464	-13.65
227.682	47.79
227.9	25.26
228.117	43.69
228.335	2.73
228.553	41.64
228.771	-17.75
228.989	-7.51
229.206	-38.23
229.424	6.83
229.642	41.64
229.86	39.59
230.077	31.4
230.295	-23.89
230.513	-9.56
230.731	47.79
230.948	29.35
231.166	8.87
231.384	23.21
231.601	31.4
231.819	58.03
232.037	-17.75
232.254	6.83
232.472	-1.37
232.689	-17.75
232.907	31.4
233.125	-19.8
233.342	6.83
233.56	-83.28
233.777	-19.8
233.995	17.07
234.213	80.55
234.43	-30.04
234.648	19.11
234.865	-25.94
235.083	43.69
235.3	82.6
235.518	53.93
235.735	49.83
235.953	-1.37
236.17	10.92
236.388	-34.13
236.605	33.45
236.822	86.7
237.04	15.02
237.257	-5.46
237.475	41.64
237.692	23.21
237.909	15.02
238.127	17.07
238.344	-15.7
238.562	19.11
238.779	8.87
238.996	15.02
239.214	74.41
239.431	86.7
239.648	-1.37
239.865	10.92
240.083	17.07
240.3	31.4
240.517	-77.14
240.735	72.36
240.952	58.03
241.169	90.79
241.386	-17.75
241.603	-32.08
241.821	37.55
242.038	2.73
242.255	10.92
242.472	8.87
242.689	107.18
242.907	15.02
243.124	88.75
243.341	47.79
243.558	-66.9
243.775	64.17
243.992	-13.65
244.209	-25.94
244.426	66.22
244.643	31.4
244.86	-9.56
245.078	8.87
245.295	23.21
245.512	-34.13
245.729	33.45
245.946	55.98
246.163	23.21
246.38	35.5
246.597	58.03
246.814	-23.89
247.031	86.7
247.248	-32.08
247.464	68.27
247.681	-17.75
247.898	47.79
248.115	62.12
248.332	-15.7
248.549	21.16
248.766	-17.75
248.983	8.87
249.2	-30.04
249.417	-5.46
249.633	-87.38
249.85	105.13
250.067	39.59
250.284	-1.37
250.501	53.93
250.717	17.07
250.934	2.73
251.151	12.97
251.368	53.93
251.585	15.02
251.801	-68.95
252.018	45.74
252.235	27.31
252.451	-13.65
252.668	-30.04
252.885	-1.37
253.102	58.03
253.318	31.4
253.535	-32.08
253.752	-21.85
253.968	-1.37
254.185	-56.66
254.401	31.4
254.618	64.17
254.835	25.26
255.051	84.65
255.268	-17.75
255.484	2.73
255.701	-19.8
255.917	23.21
256.134	2.73
256.351	66.22
256.567	-66.9
256.784	72.36
257	-66.9
257.217	47.79
257.433	41.64
257.65	72.36
257.866	41.64
258.082	29.35
258.299	-42.32
258.515	-1.37
258.732	43.69
258.948	-17.75
259.165	6.83
259.381	-7.51
259.597	27.31
259.814	72.36
260.03	39.59
260.246	-40.28
260.463	98.99
260.679	-42.32
260.895	-58.71
261.112	98.99
261.328	-9.56
261.544	66.22
261.761	94.89
261.977	23.21
262.193	-5.46
262.409	78.51
262.626	43.69
262.842	35.5
263.058	6.83
263.274	41.64
263.49	55.98
263.707	23.21
263.923	-27.99
264.139	-17.75
264.355	-13.65
264.571	33.45
264.787	-66.9
265.004	33.45
265.22	15.02
265.436	-81.24
265.652	-36.18
265.868	27.31
266.084	-58.71
266.3	58.03
266.516	33.45
266.732	31.4
266.948	43.69
267.164	35.5
267.38	68.27
267.596	33.45
267.812	55.98
268.028	31.4
268.244	66.22
268.46	23.21
268.676	17.07
268.892	-5.46
269.108	17.07
269.324	19.11
269.54	-7.51
269.756	33.45
269.972	-30.04
270.188	33.45
270.403	35.5
270.619	-7.51
270.835	39.59
271.051	76.46
271.267	-5.46
271.483	-48.47
271.698	51.88
271.914	31.4
272.13	8.87
272.346	33.45
272.562	-23.89
272.777	62.12
272.993	-23.89
273.209	27.31
273.425	39.59
273.64	-116.05
273.856	31.4
274.072	31.4
274.287	-40.28
274.503	-11.61
274.719	84.65
274.934	10.92
275.15	17.07
275.366	96.94
275.581	-38.23
275.797	-56.66
276.012	-11.61
276.228	-9.56
276.444	-79.19
276.659	78.51
276.875	-46.42
277.09	80.55
277.306	-13.65
277.521	47.79
277.737	60.07
277.952	0.68
278.168	60.07
278.383	39.59
278.599	-9.56
278.814	-34.13
279.03	15.02
279.245	17.07
279.461	19.11
279.676	47.79
279.892	-9.56
280.107	-46.42
280.322	6.83
280.538	17.07
280.753	39.59
280.969	23.21
281.184	64.17
281.399	33.45
281.615	31.4
281.83	8.87
282.045	43.69
282.26	-52.56
282.476	-15.7
282.691	-32.08
282.906	39.59
283.122	-1.37
283.337	88.75
283.552	19.11
283.767	-32.08
283.983	2.73
284.198	-1.37
284.413	8.87
284.628	-89.43
284.843	45.74
285.058	58.03
285.274	39.59
285.489	-52.56
285.704	66.22
285.919	51.88
286.134	23.21
286.349	17.07
286.564	25.26
286.779	70.31
286.995	2.73
287.21	-83.28
287.425	8.87
287.64	-42.32
287.855	41.64
288.07	-38.23
288.285	23.21
288.5	-1.37
288.715	12.97
288.93	15.02
289.145	2.73
289.36	49.83
289.575	6.83
289.79	19.11
290.004	33.45
290.219	-1.37
290.434	-13.65
290.649	-42.32
290.864	88.75
291.079	29.35
291.294	23.21
291.509	68.27
291.724	0.68
291.938	-40.28
292.153	55.98
292.368	74.41
292.583	31.4
292.798	41.64
293.012	31.4
293.227	23.21
293.442	-19.8
293.657	84.65
293.871	41.64
294.086	31.4
294.301	129.7
294.516	19.11
294.73	49.83
294.945	-25.94
295.16	25.26
295.374	64.17
295.589	10.92
295.804	31.4
296.018	49.83
296.233	39.59
296.447	-7.51
296.662	2.73
296.877	64.17
297.091	21.16
297.306	68.27
297.52	33.45
297.735	39.59
297.949	19.11
298.164	-38.23
298.378	-50.52
298.593	-15.7
298.807	0.68
299.022	23.21
299.236	74.41
299.451	98.99
299.665	55.98
299.88	103.08
300.094	-44.37
300.309	47.79
300.523	15.02
300.737	58.03
300.952	82.6
301.166	-50.52
301.381	66.22
301.595	-21.85
301.809	-64.85
302.024	0.68
302.238	-15.7
302.452	39.59
302.667	-3.41
302.881	-21.85
303.095	23.21
303.309	68.27
303.524	-5.46
303.738	66.22
303.952	0.68
304.166	15.02
304.381	-27.99
304.595	47.79
304.809	31.4
305.023	-9.56
305.237	-42.32
305.452	47.79
305.666	39.59
305.88	-77.14
306.094	12.97
306.308	64.17
306.522	-23.89
306.736	-17.75
306.95	58.03
307.164	74.41
307.379	17.07
307.593	115.37
307.807	-21.85
308.021	-13.65
308.235	105.13
308.449	-1.37
308.663	-5.46
308.877	68.27
309.091	53.93
309.305	19.11
309.519	33.45
309.733	64.17
309.947	-19.8
310.161	47.79
310.374	-11.61
310.588	35.5
310.802	31.4
311.016	-1.37
311.23	-27.99
311.444	-17.75
311.658	37.55
311.872	-21.85
312.085	21.16
312.299	39.59
312.513	-34.13
312.727	-13.65
312.941	31.4
313.154	92.84
313.368	25.26
313.582	82.6
313.796	25.26
314.009	23.21
314.223	25.26
314.437	-7.51
314.651	-13.65
314.864	23.21
315.078	-36.18
315.292	0.68
315.505	23.21
315.719	70.31
315.933	98.99
316.146	47.79
316.36	39.59
316.573	-1.37
316.787	35.5
317.001	129.7
317.214	68.27
317.428	17.07
317.641	-15.7
317.855	39.59
318.068	-15.7
318.282	76.46
318.495	60.07
318.709	-9.56
318.922	29.35
319.136	131.75
319.349	76.46
319.563	29.35
319.776	-34.13
319.99	-34.13
320.203	25.26
320.417	6.83
320.63	76.46
320.843	66.22
321.057	-58.71
321.27	-25.94
321.483	19.11
321.697	88.75
321.91	62.12
322.124	23.21
322.337	72.36
322.55	-7.51
322.763	82.6
322.977	47.79
323.19	15.02
323.403	-13.65
323.617	53.93
323.83	43.69
324.043	-17.75
324.256	15.02
324.469	-1.37
324.683	-17.75
324.896	-5.46
325.109	19.11
325.322	-32.08
325.535	84.65
325.748	88.75
325.962	39.59
326.175	25.26
326.388	10.92
326.601	23.21
326.814	70.31
327.027	66.22
327.24	84.65
327.453	-42.32
327.666	8.87
327.879	70.31
328.092	55.98
328.305	6.83
328.518	6.83
328.731	-1.37
328.944	4.78
329.157	6.83
329.37	19.11
329.583	12.97
329.796	64.17
330.009	-71
330.222	33.45
330.435	-17.75
330.648	25.26
330.861	-5.46
331.073	17.07
331.286	109.23
331.499	27.31
331.712	2.73
331.925	55.98
332.138	6.83
332.35	-27.99
332.563	-15.7
332.776	51.88
332.989	-64.85
333.202	-1.37
333.414	47.79
333.627	15.02
333.84	-9.56
334.053	101.03
334.265	-30.04
334.478	27.31
334.691	47.79
334.903	31.4
335.116	-42.32
335.329	-42.32
335.541	76.46
335.754	92.84
335.966	-13.65
336.179	-9.56
336.392	-11.61
336.604	-71
336.817	47.79
337.029	6.83
337.242	27.31
337.454	19.11
337.667	-34.13
337.88	80.55
338.092	31.4
338.305	-15.7
338.517	-27.99
338.729	15.02
338.942	51.88
339.154	-30.04
339.367	72.36
339.579	-36.18
339.792	-48.47
340.004	51.88
340.217	-5.46
340.429	25.26
340.641	-1.37
340.854	-17.75
341.066	-30.04
341.278	84.65
341.491	0.68
341.703	0.68
341.915	31.4
342.128	49.83
342.34	78.51
342.552	19.11
342.764	0.68
342.977	47.79
343.189	76.46
343.401	27.31
343.613	10.92
343.826	-9.56
344.038	-38.23
344.25	15.02
344.462	-58.71
344.674	31.4
344.886	60.07
345.099	51.88
345.311	8.87
345.523	-13.65
345.735	39.59
345.947	8.87
346.159	23.21
346.371	31.4
346.583	-7.51
346.795	47.79
347.007	92.84
347.219	47.79
347.431	-1.37
347.643	8.87
347.855	41.64
348.067	64.17
348.279	-1.37
348.491	17.07
348.703	-3.41
348.915	31.4
349.127	-17.75
349.339	45.74
349.551	-32.08
349.763	43.69
349.975	-48.47
350.187	25.26
350.399	105.13
350.61	-15.7
350.822	4.78
351.034	-11.61
351.246	6.83
351.458	51.88
351.669	68.27
351.881	49.83
352.093	47.79
352.305	88.75
352.517	0.68
352.728	23.21
352.94	-21.85
353.152	2.73
353.363	35.5
353.575	-25.94
353.787	113.32
353.999	74.41
354.21	41.64
354.422	12.97
354.633	-99.67
354.845	25.26
355.057	25.26
355.268	58.03
355.48	37.55
355.692	-32.08
355.903	19.11
356.115	-7.51
356.326	-56.66
356.538	51.88
356.749	80.55
356.961	72.36
357.172	-15.7
357.384	-50.52
357.595	94.89
357.807	88.75
358.018	-23.89
358.23	-21.85
358.441	129.7
358.653	15.02
358.864	-9.56
359.075	6.83
359.287	-34.13
359.498	39.59
359.709	15.02
359.921	37.55
360.132	6.83
360.344	-17.75
360.555	64.17
360.766	33.45
360.977	74.41
361.189	35.5
361.4	51.88
361.611	-1.37
361.823	68.27
362.034	6.83
362.245	-36.18
362.456	-50.52
362.667	-1.37
362.879	47.79
363.09	68.27
363.301	-17.75
363.512	-25.94
363.723	2.73
363.935	33.45
364.146	72.36
364.357	2.73
364.568	53.93
364.779	33.45
364.99	72.36
365.201	0.68
365.412	37.55
365.623	-34.13
365.834	-1.37
366.045	23.21
366.256	82.6
366.467	58.03
366.678	68.27
366.889	33.45
367.1	0.68
367.311	49.83
367.522	-15.7
367.733	41.64
367.944	27.31
368.155	-27.99
368.366	21.16
368.577	88.75
368.788	43.69
368.999	4.78
369.209	47.79
369.42	64.17
369.631	68.27
369.842	47.79
370.053	39.59
370.264	109.23
370.474	-9.56
370.685	10.92
370.896	12.97
371.107	25.26
371.317	31.4
371.528	39.59
371.739	53.93
371.95	-7.51
372.16	2.73
372.371	-5.46
372.582	-13.65
372.792	49.83
373.003	43.69
373.214	80.55
373.424	64.17
373.635	15.02
373.846	111.27
374.056	33.45
374.267	4.78
374.477	29.35
374.688	60.07
374.898	23.21
375.109	45.74
375.319	2.73
375.53	72.36
375.74	70.31
375.951	-30.04
376.161	-30.04
376.372	78.51
376.582	19.11
376.793	-9.56
377.003	33.45
377.214	19.11
377.424	70.31
377.635	21.16
377.845	-44.37
378.055	72.36
378.266	-1.37
378.476	23.21
378.686	-9.56
378.897	84.65
379.107	-1.37
379.317	33.45
379.528	8.87
379.738	-15.7
379.948	-54.61
380.158	23.21
380.369	2.73
380.579	66.22
380.789	39.59
380.999	105.13
381.21	58.03
381.42	39.59
381.63	2.73
381.84	47.79
382.05	-3.41
382.261	121.51
382.471	27.31
382.681	55.98
382.891	123.56
383.101	49.83
383.311	21.16
383.521	0.68
383.731	23.21
383.941	82.6
384.151	55.98
384.361	39.59
384.571	15.02
384.781	25.26
384.991	66.22
385.201	37.55
385.411	6.83
385.621	80.55
385.831	23.21
386.041	19.11
386.251	-25.94
386.461	41.64
386.671	17.07
386.881	27.31
387.091	33.45
387.301	15.02
387.511	-46.42
387.72	47.79
387.93	82.6
388.14	-13.65
388.35	25.26
388.56	43.69
388.769	-40.28
388.979	74.41
389.189	8.87
389.399	6.83
389.609	-1.37
389.818	64.17
390.028	-15.7
390.238	10.92
390.447	-1.37
390.657	64.17
390.867	-25.94
391.076	-48.47
391.286	105.13
391.496	68.27
391.705	41.64
391.915	47.79
392.125	78.51
392.334	37.55
392.544	49.83
392.753	80.55
392.963	6.83
393.172	49.83
393.382	80.55
393.591	96.94
393.801	49.83
394.01	82.6
394.22	109.23
394.429	74.41
394.639	88.75
394.848	10.92
395.058	21.16
395.267	17.07
395.477	96.94
395.686	121.51
395.895	80.55
396.105	51.88
396.314	15.02
396.524	19.11
396.733	76.46
396.942	55.98
397.152	101.03
397.361	105.13
397.57	4.78
397.78	68.27
397.989	33.45
398.198	164.52
398.407	12.97
398.617	101.03
398.826	84.65
399.035	86.7
399.244	90.79
399.453	88.75
399.663	135.85
399.872	121.51
400.081	35.5
400.29	131.75
400.499	-7.51
400.708	47.79
400.917	19.11
401.127	60.07
401.336	43.69
401.545	203.43
401.754	47.79
401.963	101.03
402.172	23.21
402.381	47.79
402.59	64.17
402.799	47.79
403.008	33.45
403.217	37.55
403.426	12.97
403.635	53.93
403.844	103.08
404.053	6.83
404.262	123.56
404.471	80.55
404.68	84.65
404.888	137.9
405.097	84.65
405.306	178.86
405.515	90.79
405.724	96.94
405.933	160.42
406.142	98.99
406.35	189.1
406.559	178.86
406.768	84.65
406.977	205.48
407.185	152.23
407.394	78.51
407.603	101.03
407.812	150.18
408.02	189.1
408.229	166.57
408.438	174.76
408.646	96.94
408.855	117.42
409.064	182.95
409.272	197.29
409.481	211.62
409.69	168.62
409.898	207.53
410.107	156.33
410.315	273.06
410.524	98.99
410.733	189.1
410.941	180.9
411.15	250.53
411.358	203.43
411.567	289.45
411.775	211.62
411.984	217.77
412.192	219.82
412.401	191.14
412.609	309.93
412.818	336.55
413.026	285.35
413.234	248.49
413.443	387.75
413.651	279.21
413.86	436.9
414.068	369.32
414.276	391.84
414.485	414.37
414.693	375.46
414.901	436.9
415.11	393.89
415.318	416.42
415.526	449.19
415.734	490.15
415.943	449.19
416.151	496.29
416.359	486.05
416.567	645.79
416.776	572.07
416.984	590.5
417.192	623.27
417.4	551.59
417.608	504.48
417.817	588.45
418.025	613.03
418.233	803.49
418.441	711.33
418.649	711.33
418.857	797.34
419.065	826.01
419.273	836.25
419.481	848.54
419.689	883.36
419.897	871.07
420.105	946.84
420.313	1030.81
420.521	1030.81
420.729	1100.44
420.937	1057.43
421.145	1161.88
421.353	1178.26
421.561	1360.53
421.769	1284.76
421.977	1297.05
422.185	1260.18
422.393	1329.81
422.601	1327.77
422.809	1352.34
423.017	1370.77
423.224	1467.03
423.432	1622.67
423.64	1612.43
423.848	1796.75
424.056	1604.24
424.263	1827.47
424.471	1608.34
424.679	1804.94
424.887	1835.66
425.094	1948.3
425.302	1985.16
425.51	2071.18
425.718	2138.76
425.925	2218.63
426.133	2206.35
426.341	2366.09
426.548	2423.43
426.756	2448.01
426.964	2353.8
427.171	2687.62
427.379	2714.24
427.586	2693.76
427.794	2873.98
428.001	2904.7
428.209	3117.69
428.417	3039.87
428.624	3373.69
428.832	3115.64
429.039	3185.27
429.247	3209.85
429.454	3570.29
429.662	3713.65
429.869	3523.19
430.076	3750.51
430.284	3697.27
430.491	3785.33
430.699	4162.16
430.906	3904.11
431.114	3953.26
431.321	4397.67
431.528	4268.65
431.736	4553.32
431.943	4833.89
432.15	4627.04
432.358	4684.39
432.565	4907.62
432.772	4833.89
432.979	5225.05
433.187	5241.43
433.394	5401.18
433.601	5708.37
433.808	5610.07
434.016	5515.86
434.223	5821.01
434.43	6134.35
434.637	6138.44
434.844	6480.46
435.052	6652.49
435.259	6613.57
435.466	6691.4
435.673	6627.91
435.88	6988.35
436.087	7363.13
436.294	7408.19
436.501	7270.97
436.708	7469.62
436.915	7584.31
437.122	8118.83
437.329	7885.36
437.537	8165.93
437.743	8342.06
437.95	8471.08
438.157	8776.23
438.364	9153.06
438.571	9011.75
438.778	8976.93
438.985	9996.82
439.192	9515.55
439.399	9777.69
439.606	9527.83
439.813	10086.93
440.02	10920.45
440.227	10656.26
440.433	10316.3
440.64	10668.55
440.847	10629.64
441.054	10910.21
441.261	11864.57
441.467	11323.9
441.674	11530.75
441.881	12147.19
442.088	12151.28
442.294	12126.71
442.501	12108.27
442.708	12501.48
442.914	12829.16
443.121	13652.44
443.328	13195.75
443.534	14182.87
443.741	13627.87
443.948	13556.19
444.154	14473.68
444.361	14627.28
444.568	14510.54
444.774	14586.32
444.981	14578.12
445.187	15409.6
445.394	15710.65
445.6	15587.77
445.807	17263.01
446.013	16449.97
446.22	16882.09
446.426	17254.82
446.633	17488.29
446.839	18006.42
447.046	17396.13
447.252	18368.91
447.459	18411.92
447.665	18489.74
447.871	19327.36
448.078	19915.13
448.284	19145.09
448.491	19556.74
448.697	20531.57
448.903	20765.04
449.11	20767.09
449.316	20425.07
449.522	20996.46
449.728	21514.59
449.935	21535.07
450.141	21444.96
450.347	22079.83
450.553	21301.61
450.76	21885.28
450.966	22174.04
451.172	22317.4
451.378	22708.56
451.584	22276.44
451.791	23378.25
451.997	22686.03
452.203	23089.48
452.409	23214.41
452.615	23034.19
452.821	22192.47
453.027	21756.25
453.233	23220.55
453.44	22341.97
453.646	22573.39
453.852	22706.51
454.058	23075.15
454.264	22296.92
454.47	22960.46
454.676	22112.6
454.882	23069
455.088	20861.29
455.294	21201.26
455.5	21961.05
455.705	21502.31
455.911	21064.04
456.117	20539.76
456.323	20412.79
456.529	19161.48
456.735	20060.54
456.941	19779.96
457.147	19667.33
457.352	18698.64
457.558	18932.11
457.764	18520.46
457.97	18190.74
458.176	18186.65
458.381	18176.41
458.587	17013.16
458.793	17090.98
458.999	16161.2
459.204	17346.98
459.41	16968.1
459.616	15593.92
459.821	15841.72
460.027	15612.35
460.233	15395.26
460.438	14801.35
460.644	14756.3
460.85	13857.24
461.055	13773.27
461.261	13883.86
461.466	12933.61
461.672	12515.82
461.878	13451.74
462.083	12601.83
462.289	12313.07
462.494	12069.36
462.7	11696.63
462.905	11532.79
463.111	11753.98
463.316	11747.83
463.522	11403.77
463.727	11414.01
463.932	11504.12
464.138	11213.31
464.343	11434.49
464.549	11067.91
464.754	11497.98
464.959	11379.2
465.165	11426.3
465.37	10840.58
465.575	10467.85
465.781	10922.5
465.986	11022.85
466.191	10715.66
466.397	10418.7
466.602	9892.37
466.807	10256.91
467.012	10334.73
467.218	10160.66
467.423	10131.98
467.628	10146.32
467.833	10443.28
