Data from USB4F104151__162__14-44-45-998.txt Node

Date: Thu Mar 13 14:44:45 EDT 2025
User: louis
Spectrometer: USB4F10415
Trigger mode: 4
Integration Time (sec): 2.000000E-2
Scans to average: 1
Electric dark correction enabled: true
Nonlinearity correction enabled: false
Boxcar width: 0
XAxis mode: Wavelengths
Number of Pixels in Spectrum: 3648
>>>>>Begin Spectral Data<<<<<
178.204	-141.31
178.424	-141.31
178.644	-141.31
178.864	-79.87
179.084	-149.5
179.304	-18.43
179.524	-38.91
179.744	-30.72
179.964	-34.82
180.184	53.25
180.404	24.58
180.624	20.48
180.844	10.24
181.064	-2.05
181.283	-18.43
181.503	14.34
181.723	20.48
181.943	-34.82
182.163	65.53
182.383	10.24
182.602	63.49
182.822	63.49
183.042	6.14
183.262	79.87
183.482	55.3
183.701	59.39
183.921	77.82
184.141	-16.38
184.361	-75.77
184.58	-18.43
184.8	24.58
185.02	6.14
185.239	98.3
185.459	14.34
185.679	10.24
185.898	-2.05
186.118	36.86
186.338	53.25
186.557	-32.77
186.777	-73.73
186.997	26.62
187.216	-32.77
187.436	79.87
187.655	83.97
187.875	40.96
188.095	57.34
188.314	106.49
188.534	43.01
188.753	47.1
188.973	-4.1
189.192	24.58
189.412	24.58
189.631	-8.19
189.851	28.67
190.07	16.38
190.29	-49.15
190.509	8.19
190.729	-10.24
190.948	122.88
191.168	151.55
191.387	120.83
191.607	22.53
191.826	2.05
192.045	-49.15
192.265	-2.05
192.484	90.11
192.704	30.72
192.923	8.19
193.142	49.15
193.362	-32.77
193.581	83.97
193.8	34.82
194.02	14.34
194.239	6.14
194.458	38.91
194.678	28.67
194.897	-6.14
195.116	26.62
195.335	6.14
195.555	36.86
195.774	47.1
195.993	71.68
196.212	55.3
196.432	24.58
196.651	22.53
196.87	-32.77
197.089	83.97
197.308	57.34
197.528	116.73
197.747	47.1
197.966	26.62
198.185	26.62
198.404	-51.2
198.623	24.58
198.842	88.06
199.062	49.15
199.281	47.1
199.5	-16.38
199.719	22.53
199.938	34.82
200.157	55.3
200.376	-20.48
200.595	22.53
200.814	83.97
201.033	20.48
201.252	90.11
201.471	40.96
201.69	49.15
201.909	-18.43
202.128	24.58
202.347	10.24
202.566	32.77
202.785	-51.2
203.004	34.82
203.223	155.65
203.442	10.24
203.661	4.1
203.879	2.05
204.098	71.68
204.317	-30.72
204.536	49.15
204.755	-8.19
204.974	55.3
205.193	47.1
205.411	36.86
205.63	-2.05
205.849	73.73
206.068	6.14
206.287	40.96
206.505	26.62
206.724	-24.58
206.943	-40.96
207.162	-45.06
207.381	-24.58
207.599	16.38
207.818	40.96
208.037	24.58
208.255	53.25
208.474	71.68
208.693	47.1
208.911	47.1
209.13	71.68
209.349	63.49
209.567	47.1
209.786	114.69
210.005	30.72
210.223	20.48
210.442	-43.01
210.661	14.34
210.879	-14.34
211.098	71.68
211.316	-75.77
211.535	71.68
211.753	-8.19
211.972	30.72
212.191	65.53
212.409	30.72
212.628	38.91
212.846	14.34
213.065	106.49
213.283	47.1
213.502	22.53
213.72	55.3
213.938	40.96
214.157	79.87
214.375	59.39
214.594	38.91
214.812	-6.14
215.031	24.58
215.249	-34.82
215.467	81.92
215.686	-22.53
215.904	81.92
216.122	34.82
216.341	63.49
216.559	-2.05
216.778	-8.19
216.996	114.69
217.214	77.82
217.432	-24.58
217.651	71.68
217.869	4.1
218.087	63.49
218.306	-18.43
218.524	98.3
218.742	47.1
218.96	51.2
219.179	18.43
219.397	83.97
219.615	61.44
219.833	59.39
220.051	-40.96
220.27	57.34
220.488	79.87
220.706	26.62
220.924	-30.72
221.142	-36.86
221.36	-43.01
221.578	34.82
221.796	88.06
222.015	75.77
222.233	67.58
222.451	47.1
222.669	-26.62
222.887	112.64
223.105	18.43
223.323	36.86
223.541	2.05
223.759	40.96
223.977	51.2
224.195	71.68
224.413	43.01
224.631	-26.62
224.849	59.39
225.067	126.97
225.285	2.05
225.503	-28.67
225.721	-57.34
225.939	34.82
226.157	20.48
226.375	104.45
226.592	18.43
226.81	40.96
227.028	43.01
227.246	8.19
227.464	38.91
227.682	-10.24
227.9	-10.24
228.117	30.72
228.335	24.58
228.553	40.96
228.771	34.82
228.989	88.06
229.206	75.77
229.424	-73.73
229.642	6.14
229.86	22.53
230.077	32.77
230.295	65.53
230.513	88.06
230.731	43.01
230.948	88.06
231.166	10.24
231.384	30.72
231.601	55.3
231.819	38.91
232.037	-57.34
232.254	18.43
232.472	71.68
232.689	6.14
232.907	22.53
233.125	-36.86
233.342	0
233.56	55.3
233.777	2.05
233.995	-63.49
234.213	34.82
234.43	38.91
234.648	63.49
234.865	8.19
235.083	12.29
235.3	-18.43
235.518	22.53
235.735	40.96
235.953	8.19
236.17	22.53
236.388	8.19
236.605	36.86
236.822	98.3
237.04	67.58
237.257	16.38
237.475	51.2
237.692	71.68
237.909	28.67
238.127	24.58
238.344	38.91
238.562	88.06
238.779	-57.34
238.996	8.19
239.214	30.72
239.431	43.01
239.648	24.58
239.865	79.87
240.083	30.72
240.3	-16.38
240.517	-10.24
240.735	57.34
240.952	26.62
241.169	45.06
241.386	-47.1
241.603	-14.34
241.821	20.48
242.038	14.34
242.255	47.1
242.472	6.14
242.689	-2.05
242.907	63.49
243.124	-14.34
243.341	51.2
243.558	-2.05
243.775	-18.43
243.992	-16.38
244.209	45.06
244.426	43.01
244.643	55.3
244.86	45.06
245.078	34.82
245.295	51.2
245.512	88.06
245.729	-18.43
245.946	63.49
246.163	51.2
246.38	4.1
246.597	47.1
246.814	71.68
247.031	18.43
247.248	32.77
247.464	30.72
247.681	-34.82
247.898	-14.34
248.115	49.15
248.332	59.39
248.549	10.24
248.766	38.91
248.983	55.3
249.2	14.34
249.417	61.44
249.633	26.62
249.85	55.3
250.067	57.34
250.284	26.62
250.501	36.86
250.717	104.45
250.934	38.91
251.151	47.1
251.368	2.05
251.585	90.11
251.801	43.01
252.018	57.34
252.235	49.15
252.451	53.25
252.668	0
252.885	112.64
253.102	63.49
253.318	-34.82
253.535	18.43
253.752	-24.58
253.968	18.43
254.185	69.63
254.401	75.77
254.618	71.68
254.835	8.19
255.051	22.53
255.268	-22.53
255.484	18.43
255.701	-22.53
255.917	20.48
256.134	-22.53
256.351	-6.14
256.567	-2.05
256.784	22.53
257	-34.82
257.217	10.24
257.433	83.97
257.65	16.38
257.866	51.2
258.082	-51.2
258.299	30.72
258.515	86.01
258.732	40.96
258.948	-2.05
259.165	32.77
259.381	71.68
259.597	2.05
259.814	6.14
260.03	57.34
260.246	32.77
260.463	61.44
260.679	30.72
260.895	2.05
261.112	18.43
261.328	63.49
261.544	57.34
261.761	94.21
261.977	38.91
262.193	-24.58
262.409	-26.62
262.626	112.64
262.842	-34.82
263.058	-51.2
263.274	38.91
263.49	-18.43
263.707	73.73
263.923	-16.38
264.139	-65.54
264.355	77.82
264.571	30.72
264.787	-4.1
265.004	96.25
265.22	59.39
265.436	79.87
265.652	36.86
265.868	63.49
266.084	8.19
266.3	-4.1
266.516	26.62
266.732	-6.14
266.948	55.3
267.164	30.72
267.38	-10.24
267.596	88.06
267.812	133.12
268.028	51.2
268.244	47.1
268.46	-43.01
268.676	47.1
268.892	34.82
269.108	30.72
269.324	34.82
269.54	-12.29
269.756	61.44
269.972	-10.24
270.188	73.73
270.403	-2.05
270.619	32.77
270.835	40.96
271.051	102.4
271.267	-2.05
271.483	61.44
271.698	34.82
271.914	43.01
272.13	-16.38
272.346	6.14
272.562	-24.58
272.777	49.15
272.993	-40.96
273.209	30.72
273.425	16.38
273.64	88.06
273.856	65.53
274.072	-26.62
274.287	71.68
274.503	57.34
274.719	10.24
274.934	88.06
275.15	14.34
275.366	-16.38
275.581	36.86
275.797	18.43
276.012	55.3
276.228	6.14
276.444	-26.62
276.659	49.15
276.875	20.48
277.09	28.67
277.306	10.24
277.521	65.53
277.737	92.16
277.952	40.96
278.168	32.77
278.383	30.72
278.599	57.34
278.814	18.43
279.03	120.83
279.245	22.53
279.461	-18.43
279.676	30.72
279.892	-79.87
280.107	6.14
280.322	-18.43
280.538	14.34
280.753	-38.91
280.969	47.1
281.184	90.11
281.399	96.25
281.615	-32.77
281.83	0
282.045	38.91
282.26	-2.05
282.476	16.38
282.691	65.53
282.906	20.48
283.122	8.19
283.337	55.3
283.552	6.14
283.767	-4.1
283.983	40.96
284.198	-30.72
284.413	36.86
284.628	26.62
284.843	57.34
285.058	51.2
285.274	55.3
285.489	34.82
285.704	16.38
285.919	8.19
286.134	-47.1
286.349	10.24
286.564	59.39
286.779	92.16
286.995	38.91
287.21	-49.15
287.425	6.14
287.64	34.82
287.855	-2.05
288.07	-8.19
288.285	-18.43
288.5	59.39
288.715	55.3
288.93	49.15
289.145	24.58
289.36	77.82
289.575	8.19
289.79	-36.86
290.004	73.73
290.219	137.21
290.434	-2.05
290.649	14.34
290.864	-22.53
291.079	0
291.294	30.72
291.509	-28.67
291.724	-2.05
291.938	45.06
292.153	61.44
292.368	-49.15
292.583	73.73
292.798	75.77
293.012	63.49
293.227	12.29
293.442	-12.29
293.657	-38.91
293.871	34.82
294.086	40.96
294.301	34.82
294.516	96.25
294.73	-30.72
294.945	-34.82
295.16	51.2
295.374	34.82
295.589	88.06
295.804	22.53
296.018	-32.77
296.233	63.49
296.447	47.1
296.662	67.58
296.877	137.21
297.091	55.3
297.306	12.29
297.52	36.86
297.735	67.58
297.949	18.43
298.164	61.44
298.378	8.19
298.593	14.34
298.807	26.62
299.022	0
299.236	2.05
299.451	22.53
299.665	-4.1
299.88	30.72
300.094	8.19
300.309	73.73
300.523	96.25
300.737	30.72
300.952	14.34
301.166	14.34
301.381	20.48
301.595	-24.58
301.809	104.45
302.024	63.49
302.238	-40.96
302.452	-18.43
302.667	106.49
302.881	96.25
303.095	57.34
303.309	-10.24
303.524	24.58
303.738	34.82
303.952	38.91
304.166	30.72
304.381	-4.1
304.595	51.2
304.809	-24.58
305.023	-18.43
305.237	59.39
305.452	59.39
305.666	38.91
305.88	67.58
306.094	108.54
306.308	63.49
306.522	30.72
306.736	71.68
306.95	18.43
307.164	16.38
307.379	-61.44
307.593	67.58
307.807	73.73
308.021	38.91
308.235	6.14
308.449	-16.38
308.663	24.58
308.877	122.88
309.091	34.82
309.305	51.2
309.519	-40.96
309.733	57.34
309.947	-36.86
310.161	14.34
310.374	73.73
310.588	100.35
310.802	14.34
311.016	30.72
311.23	51.2
311.444	10.24
311.658	24.58
311.872	96.25
312.085	18.43
312.299	32.77
312.513	16.38
312.727	92.16
312.941	2.05
313.154	94.21
313.368	22.53
313.582	57.34
313.796	38.91
314.009	32.77
314.223	108.54
314.437	57.34
314.651	-12.29
314.864	47.1
315.078	88.06
315.292	47.1
315.505	63.49
315.719	32.77
315.933	34.82
316.146	38.91
316.36	-8.19
316.573	22.53
316.787	47.1
317.001	22.53
317.214	51.2
317.428	28.67
317.641	30.72
317.855	28.67
318.068	92.16
318.282	-2.05
318.495	71.68
318.709	-14.34
318.922	2.05
319.136	6.14
319.349	22.53
319.563	-4.1
319.776	26.62
319.99	-4.1
320.203	67.58
320.417	40.96
320.63	79.87
320.843	57.34
321.057	83.97
321.27	73.73
321.483	92.16
321.697	83.97
321.91	22.53
322.124	43.01
322.337	-16.38
322.55	61.44
322.763	20.48
322.977	-16.38
323.19	73.73
323.403	55.3
323.617	43.01
323.83	14.34
324.043	51.2
324.256	22.53
324.469	0
324.683	49.15
324.896	14.34
325.109	34.82
325.322	14.34
325.535	-6.14
325.748	22.53
325.962	104.45
326.175	38.91
326.388	38.91
326.601	106.49
326.814	59.39
327.027	-59.39
327.24	47.1
327.453	-34.82
327.666	88.06
327.879	16.38
328.092	-16.38
328.305	36.86
328.518	131.07
328.731	2.05
328.944	38.91
329.157	112.64
329.37	-43.01
329.583	104.45
329.796	22.53
330.009	-10.24
330.222	38.91
330.435	40.96
330.648	-2.05
330.861	36.86
331.073	38.91
331.286	12.29
331.499	63.49
331.712	-34.82
331.925	55.3
332.138	65.53
332.35	47.1
332.563	57.34
332.776	38.91
332.989	36.86
333.202	30.72
333.414	28.67
333.627	47.1
333.84	12.29
334.053	8.19
334.265	63.49
334.478	20.48
334.691	20.48
334.903	-65.54
335.116	38.91
335.329	55.3
335.541	45.06
335.754	63.49
335.966	0
336.179	55.3
336.392	51.2
336.604	22.53
336.817	32.77
337.029	92.16
337.242	63.49
337.454	-20.48
337.667	57.34
337.88	38.91
338.092	16.38
338.305	57.34
338.517	55.3
338.729	55.3
338.942	118.78
339.154	14.34
339.367	16.38
339.579	16.38
339.792	67.58
340.004	38.91
340.217	26.62
340.429	122.88
340.641	38.91
340.854	30.72
341.066	63.49
341.278	-6.14
341.491	67.58
341.703	63.49
341.915	43.01
342.128	120.83
342.34	88.06
342.552	47.1
342.764	0
342.977	71.68
343.189	-2.05
343.401	131.07
343.613	65.53
343.826	47.1
344.038	40.96
344.25	8.19
344.462	75.77
344.674	65.53
344.886	38.91
345.099	55.3
345.311	73.73
345.523	8.19
345.735	26.62
345.947	49.15
346.159	65.53
346.371	71.68
346.583	-2.05
346.795	55.3
347.007	57.34
347.219	88.06
347.431	28.67
347.643	79.87
347.855	40.96
348.067	20.48
348.279	-73.73
348.491	2.05
348.703	108.54
348.915	22.53
349.127	73.73
349.339	63.49
349.551	-67.58
349.763	36.86
349.975	-4.1
350.187	28.67
350.399	71.68
350.61	34.82
350.822	51.2
351.034	96.25
351.246	86.01
351.458	98.3
351.669	51.2
351.881	-8.19
352.093	83.97
352.305	51.2
352.517	40.96
352.728	90.11
352.94	12.29
353.152	43.01
353.363	-18.43
353.575	88.06
353.787	40.96
353.999	-8.19
354.21	43.01
354.422	32.77
354.633	16.38
354.845	83.97
355.057	32.77
355.268	47.1
355.48	100.35
355.692	-59.39
355.903	32.77
356.115	-6.14
356.326	-8.19
356.538	96.25
356.749	2.05
356.961	67.58
357.172	24.58
357.384	4.1
357.595	67.58
357.807	104.45
358.018	24.58
358.23	-2.05
358.441	88.06
358.653	104.45
358.864	18.43
359.075	38.91
359.287	98.3
359.498	61.44
359.709	38.91
359.921	-32.77
360.132	24.58
360.344	40.96
360.555	47.1
360.766	24.58
360.977	8.19
361.189	112.64
361.4	24.58
361.611	22.53
361.823	55.3
362.034	-30.72
362.245	65.53
362.456	65.53
362.667	112.64
362.879	28.67
363.09	24.58
363.301	67.58
363.512	55.3
363.723	6.14
363.935	14.34
364.146	83.97
364.357	-49.15
364.568	53.25
364.779	30.72
364.99	81.92
365.201	2.05
365.412	47.1
365.623	36.86
365.834	65.53
366.045	-2.05
366.256	90.11
366.467	81.92
366.678	-43.01
366.889	43.01
367.1	71.68
367.311	47.1
367.522	-24.58
367.733	90.11
367.944	88.06
368.155	14.34
368.366	53.25
368.577	-30.72
368.788	102.4
368.999	-32.77
369.209	-24.58
369.42	104.45
369.631	145.41
369.842	75.77
370.053	-14.34
370.264	75.77
370.474	106.49
370.685	18.43
370.896	38.91
371.107	-30.72
371.317	81.92
371.528	-55.3
371.739	77.82
371.95	36.86
372.16	83.97
372.371	12.29
372.582	79.87
372.792	47.1
373.003	104.45
373.214	38.91
373.424	47.1
373.635	38.91
373.846	47.1
374.056	47.1
374.267	112.64
374.477	6.14
374.688	55.3
374.898	34.82
375.109	67.58
375.319	0
375.53	57.34
375.74	75.77
375.951	6.14
376.161	47.1
376.372	75.77
376.582	43.01
376.793	-4.1
377.003	57.34
377.214	104.45
377.424	83.97
377.635	73.73
377.845	49.15
378.055	49.15
378.266	10.24
378.476	-18.43
378.686	6.14
378.897	-30.72
379.107	55.3
379.317	88.06
379.528	18.43
379.738	102.4
379.948	22.53
380.158	47.1
380.369	-20.48
380.579	63.49
380.789	47.1
380.999	38.91
381.21	38.91
381.42	96.25
381.63	106.49
381.84	40.96
382.05	79.87
382.261	75.77
382.471	73.73
382.681	8.19
382.891	71.68
383.101	63.49
383.311	36.86
383.521	30.72
383.731	63.49
383.941	120.83
384.151	-10.24
384.361	98.3
384.571	43.01
384.781	8.19
384.991	92.16
385.201	131.07
385.411	108.54
385.621	30.72
385.831	90.11
386.041	71.68
386.251	63.49
386.461	137.21
386.671	94.21
386.881	-16.38
387.091	57.34
387.301	43.01
387.511	22.53
387.72	12.29
387.93	49.15
388.14	-16.38
388.35	22.53
388.56	71.68
388.769	88.06
388.979	141.31
389.189	86.01
389.399	38.91
389.609	96.25
389.818	71.68
390.028	14.34
390.238	24.58
390.447	40.96
390.657	47.1
390.867	-20.48
391.076	14.34
391.286	55.3
391.496	65.53
391.705	38.91
391.915	92.16
392.125	81.92
392.334	90.11
392.544	112.64
392.753	88.06
392.963	75.77
393.172	88.06
393.382	71.68
393.591	81.92
393.801	100.35
394.01	114.69
394.22	116.73
394.429	98.3
394.639	135.17
394.848	79.87
395.058	69.63
395.267	65.53
395.477	55.3
395.686	77.82
395.895	92.16
396.105	178.17
396.314	90.11
396.524	63.49
396.733	49.15
396.942	83.97
397.152	108.54
397.361	67.58
397.57	16.38
397.78	71.68
397.989	88.06
398.198	112.64
398.407	28.67
398.617	47.1
398.826	106.49
399.035	88.06
399.244	112.64
399.453	81.92
399.663	104.45
399.872	126.97
400.081	102.4
400.29	110.59
400.499	106.49
400.708	139.26
400.917	38.91
401.127	88.06
401.336	86.01
401.545	104.45
401.754	8.19
401.963	145.41
402.172	133.12
402.381	71.68
402.59	65.53
402.799	81.92
403.008	129.02
403.217	75.77
403.426	126.97
403.635	147.45
403.844	133.12
404.053	155.65
404.262	63.49
404.471	120.83
404.68	90.11
404.888	204.8
405.097	137.21
405.306	120.83
405.515	192.51
405.724	106.49
405.933	100.35
406.142	178.17
406.35	141.31
406.559	180.22
406.768	110.59
406.977	145.41
407.185	180.22
407.394	112.64
407.603	143.36
407.812	243.71
408.02	223.23
408.229	153.6
408.438	215.04
408.646	202.75
408.855	143.36
409.064	194.56
409.272	227.32
409.481	227.32
409.69	172.03
409.898	292.86
410.107	235.52
410.315	325.63
410.524	270.33
410.733	235.52
410.941	210.94
411.15	282.62
411.358	344.06
411.567	329.72
411.775	346.11
411.984	339.96
412.192	370.68
412.401	352.25
412.609	350.2
412.818	473.08
413.026	409.59
413.234	444.41
413.443	362.49
413.651	321.53
413.86	350.2
414.068	456.7
414.276	614.39
414.485	507.9
414.693	571.38
414.901	622.58
415.11	464.89
415.318	614.39
415.526	591.86
415.734	673.78
415.943	657.4
416.151	702.45
416.359	731.12
416.567	755.7
416.776	681.97
416.984	786.42
417.192	841.72
417.4	743.41
417.608	825.33
417.817	835.57
418.025	786.42
418.233	931.83
418.441	876.53
418.649	970.74
418.857	1130.48
419.065	1136.62
419.273	1046.51
419.481	1136.62
419.689	1222.64
419.897	1161.2
420.105	1288.17
420.313	1275.88
420.521	1333.23
420.729	1302.51
420.937	1302.51
421.145	1398.76
421.353	1548.26
421.561	1601.51
421.769	1566.7
421.977	1705.96
422.185	1677.29
422.393	1746.92
422.601	1888.23
422.809	1861.6
423.017	1810.4
423.224	1877.99
423.432	2023.39
423.64	1972.19
423.848	2332.64
424.056	2086.88
424.263	2324.44
424.471	2408.41
424.679	2252.77
424.887	2586.58
425.094	2746.33
425.302	2547.67
425.51	2734.04
425.718	2615.26
425.925	2791.38
426.133	2850.77
426.341	2967.51
426.548	3186.64
426.756	3241.93
426.964	3321.81
427.171	3385.29
427.379	3434.44
427.586	3579.85
427.794	3760.07
428.001	3739.59
428.209	3934.15
428.417	3962.82
428.624	4310.97
428.832	4284.35
429.039	4153.28
429.247	4063.17
429.454	4534.2
429.662	4874.17
429.869	4526.01
430.076	4782.01
430.284	4716.47
430.491	4900.79
430.699	5171.12
430.906	5310.38
431.114	5357.49
431.321	5459.88
431.528	5650.35
431.736	5896.1
431.943	6211.49
432.15	5994.4
432.358	6043.56
432.565	6305.7
432.772	6494.11
432.979	6674.33
433.187	6758.3
433.394	6881.18
433.601	7329.68
433.808	7411.6
434.016	7374.74
434.223	7612.3
434.43	8095.62
434.637	8124.29
434.844	8380.29
435.052	8564.61
435.259	8529.79
435.466	8435.58
435.673	8580.99
435.88	9058.17
436.087	9467.76
436.294	9486.19
436.501	9340.79
436.708	9391.98
436.915	9817.96
437.122	10332
437.329	10069.86
437.537	10389.35
437.743	10698.59
437.95	10645.34
438.157	11239.25
438.364	11528.02
438.571	11581.26
438.778	11720.53
438.985	12580.67
439.192	11777.87
439.399	12541.76
439.606	12310.34
439.813	13129.53
440.02	13705.01
440.227	13506.35
440.433	13367.09
440.64	13764.4
440.847	13754.16
441.054	14147.37
441.261	15107.87
441.467	14612.26
441.674	15165.21
441.881	15636.24
442.088	15464.21
442.294	15503.12
442.501	15959.82
442.708	15931.15
442.914	16852.73
443.121	17374.97
443.328	16920.32
443.534	18233.07
443.741	17653.49
443.948	17250.04
444.154	18790.11
444.361	18638.56
444.568	18716.39
444.774	18777.83
444.981	18906.85
445.187	19693.27
445.394	20330.19
445.6	19949.26
445.807	21845.68
446.013	21059.26
446.22	21249.72
446.426	22408.87
446.633	22662.82
446.839	23123.62
447.046	22283.95
447.252	23426.71
447.459	23854.74
447.665	23568.02
447.871	24516.23
448.078	25542.27
448.284	24288.91
448.491	25009.79
448.697	26121.84
448.903	26553.96
449.11	26584.68
449.316	26082.93
449.522	26642.03
449.728	27573.85
449.935	27414.11
450.141	27424.35
450.347	27760.22
450.553	27367.01
450.76	27756.12
450.966	28870.22
451.172	28517.96
451.378	29103.68
451.584	28249.68
451.791	29138.5
451.997	29187.65
452.203	29587
452.409	29830.71
452.615	29414.98
452.821	28780.1
453.027	28286.54
453.233	29890.1
453.44	28595.79
453.646	29054.53
453.852	29150.79
454.058	29685.31
454.264	28368.46
454.47	29167.17
454.676	28141.14
454.882	29744.7
455.088	26957.41
455.294	27598.43
455.5	28051.03
455.705	28173.91
455.911	26791.53
456.117	26578.54
456.323	25935.48
456.529	25015.94
456.735	25994.87
456.941	25163.39
457.147	25437.82
457.352	24262.29
457.558	23871.12
457.764	24129.17
457.97	23750.29
458.176	22924.96
458.381	23105.18
458.587	22038.19
458.793	21823.15
458.999	20829.89
459.204	22394.54
459.41	21501.62
459.616	20385.48
459.821	20242.12
460.027	20307.66
460.233	20037.33
460.438	19121.88
460.644	19259.1
460.85	18271.98
461.055	18077.42
461.261	17929.97
461.466	16473.86
461.672	16144.14
461.878	17331.96
462.083	16305.93
462.289	15603.47
462.494	15388.44
462.7	14780.19
462.905	14649.12
463.111	15140.63
463.316	14968.6
463.522	14710.56
463.727	14712.61
463.932	14827.29
464.138	14513.95
464.343	14595.87
464.549	14356.26
464.754	14663.46
464.959	14440.23
465.165	14382.88
465.37	13752.11
465.575	13379.38
465.781	14022.44
465.986	14006.06
466.191	13842.22
466.397	13195.06
466.602	12547.9
466.807	13197.11
467.012	13107
467.218	12990.27
467.423	12918.59
467.628	13078.33
467.833	13514.55
468.038	13135.67
468.244	12681.02
