Data from USB4F104151__125__14-44-00-569.txt Node

Date: Thu Mar 13 14:44:00 EDT 2025
User: louis
Spectrometer: USB4F10415
Trigger mode: 4
Integration Time (sec): 2.000000E-2
Scans to average: 1
Electric dark correction enabled: true
Nonlinearity correction enabled: false
Boxcar width: 0
XAxis mode: Wavelengths
Number of Pixels in Spectrum: 3648
>>>>>Begin Spectral Data<<<<<
178.204	-96.43
178.424	-96.43
178.644	-96.43
178.864	-84.14
179.084	-92.33
179.304	-34.99
179.524	48.98
179.744	38.74
179.964	1.88
180.184	-43.18
180.404	5.97
180.624	-2.22
180.844	-41.13
181.064	-0.17
181.283	18.26
181.503	-14.51
181.723	22.36
181.943	-67.75
182.163	137.04
182.383	-39.08
182.602	30.55
182.822	51.03
183.042	16.21
183.262	-32.94
183.482	46.93
183.701	1.88
183.921	36.69
184.141	10.07
184.361	38.74
184.58	63.32
184.8	32.6
185.02	-16.55
185.239	30.55
185.459	-10.41
185.679	8.02
185.898	40.79
186.118	149.33
186.338	77.65
186.557	110.42
186.777	32.6
186.997	5.97
187.216	75.6
187.436	87.89
187.655	69.46
187.875	-12.46
188.095	32.6
188.314	-6.31
188.534	51.03
188.753	-4.27
188.973	65.36
189.192	104.28
189.412	55.12
189.631	30.55
189.851	79.7
190.07	55.12
190.29	14.17
190.509	96.08
190.729	-59.56
190.948	26.45
191.168	69.46
191.387	14.17
191.607	53.08
191.826	63.32
192.045	14.17
192.265	100.18
192.484	53.08
192.704	98.13
192.923	-24.75
193.142	116.56
193.362	46.93
193.581	71.51
193.8	42.84
194.02	135
194.239	59.22
194.458	12.12
194.678	10.07
194.897	51.03
195.116	63.32
195.335	12.12
195.555	38.74
195.774	22.36
195.993	24.4
196.212	57.17
196.432	-73.9
196.651	67.41
196.87	55.12
197.089	161.62
197.308	55.12
197.528	40.79
197.747	26.45
197.966	-0.17
198.185	151.38
198.404	46.93
198.623	20.31
198.842	87.89
199.062	32.6
199.281	18.26
199.5	42.84
199.719	32.6
199.938	81.75
200.157	5.97
200.376	34.64
200.595	65.36
200.814	38.74
201.033	-43.18
201.252	79.7
201.471	-14.51
201.69	96.08
201.909	57.17
202.128	63.32
202.347	87.89
202.566	32.6
202.785	22.36
203.004	22.36
203.223	108.37
203.442	79.7
203.661	100.18
203.879	16.21
204.098	71.51
204.317	-2.22
204.536	83.8
204.755	10.07
204.974	71.51
205.193	1.88
205.411	38.74
205.63	30.55
205.849	-51.37
206.068	83.8
206.287	77.65
206.505	36.69
206.724	32.6
206.943	14.17
207.162	48.98
207.381	48.98
207.599	-84.14
207.818	63.32
208.037	1.88
208.255	-34.99
208.474	40.79
208.693	63.32
208.911	10.07
209.13	28.5
209.349	3.93
209.567	46.93
209.786	57.17
210.005	30.55
210.223	-49.32
210.442	8.02
210.661	91.99
210.879	61.27
211.098	-10.41
211.316	30.55
211.535	65.36
211.753	14.17
211.972	40.79
212.191	22.36
212.409	83.8
212.628	40.79
212.846	79.7
213.065	157.52
213.283	87.89
213.502	32.6
213.72	14.17
213.938	36.69
214.157	-37.03
214.375	100.18
214.594	-24.75
214.812	106.32
215.031	36.69
215.249	141.14
215.467	63.32
215.686	-22.7
215.904	63.32
216.122	32.6
216.341	30.55
216.559	22.36
216.778	114.52
216.996	1.88
217.214	22.36
217.432	65.36
217.651	46.93
217.869	67.41
218.087	-2.22
218.306	32.6
218.524	-10.41
218.742	18.26
218.96	22.36
219.179	28.5
219.397	63.32
219.615	155.47
219.833	40.79
220.051	59.22
220.27	63.32
220.488	63.32
220.706	46.93
220.924	28.5
221.142	26.45
221.36	77.65
221.578	75.6
221.796	59.22
222.015	46.93
222.233	5.97
222.451	69.46
222.669	100.18
222.887	63.32
223.105	89.94
223.323	73.56
223.541	-6.31
223.759	5.97
223.977	34.64
224.195	71.51
224.413	30.55
224.631	120.66
224.849	51.03
225.067	96.08
225.285	-43.18
225.503	87.89
225.721	-34.99
225.939	28.5
226.157	128.85
226.375	57.17
226.592	-47.27
226.81	-10.41
227.028	106.32
227.246	59.22
227.464	-12.46
227.682	114.52
227.9	30.55
228.117	89.94
228.335	59.22
228.553	104.28
228.771	8.02
228.989	5.97
229.206	55.12
229.424	16.21
229.642	98.13
229.86	46.93
230.077	91.99
230.295	73.56
230.513	30.55
230.731	-49.32
230.948	65.36
231.166	91.99
231.384	38.74
231.601	63.32
231.819	16.21
232.037	8.02
232.254	-51.37
232.472	30.55
232.689	-26.79
232.907	30.55
233.125	-26.79
233.342	-22.7
233.56	30.55
233.777	-8.36
233.995	46.93
234.213	87.89
234.43	63.32
234.648	51.03
234.865	46.93
235.083	63.32
235.3	32.6
235.518	96.08
235.735	16.21
235.953	124.76
236.17	-16.55
236.388	46.93
236.605	51.03
236.822	51.03
237.04	40.79
237.257	59.22
237.475	71.51
237.692	63.32
237.909	51.03
238.127	120.66
238.344	-26.79
238.562	55.12
238.779	1.88
238.996	-18.6
239.214	55.12
239.431	112.47
239.648	-10.41
239.865	24.4
240.083	46.93
240.3	22.36
240.517	22.36
240.735	38.74
240.952	-51.37
241.169	42.84
241.386	65.36
241.603	83.8
241.821	10.07
242.038	75.6
242.255	-2.22
242.472	87.89
242.689	30.55
242.907	46.93
243.124	55.12
243.341	104.28
243.558	63.32
243.775	38.74
243.992	53.08
244.209	-47.27
244.426	114.52
244.643	73.56
244.86	104.28
245.078	71.51
245.295	69.46
245.512	71.51
245.729	18.26
245.946	87.89
246.163	12.12
246.38	42.84
246.597	48.98
246.814	61.27
247.031	32.6
247.248	32.6
247.464	141.14
247.681	48.98
247.898	143.19
248.115	59.22
248.332	-55.47
248.549	59.22
248.766	55.12
248.983	40.79
249.2	89.94
249.417	22.36
249.633	79.7
249.85	46.93
250.067	-10.41
250.284	14.17
250.501	5.97
250.717	65.36
250.934	67.41
251.151	28.5
251.368	-2.22
251.585	48.98
251.801	63.32
252.018	65.36
252.235	40.79
252.451	16.21
252.668	71.51
252.885	145.24
253.102	38.74
253.318	120.66
253.535	46.93
253.752	1.88
253.968	-16.55
254.185	14.17
254.401	55.12
254.618	48.98
254.835	51.03
255.051	87.89
255.268	71.51
255.484	55.12
255.701	120.66
255.917	65.36
256.134	8.02
256.351	-10.41
256.567	-39.08
256.784	38.74
257	10.07
257.217	65.36
257.433	104.28
257.65	100.18
257.866	48.98
258.082	61.27
258.299	-18.6
258.515	8.02
258.732	14.17
258.948	83.8
259.165	63.32
259.381	18.26
259.597	75.6
259.814	100.18
260.03	16.21
260.246	30.55
260.463	32.6
260.679	63.32
260.895	8.02
261.112	71.51
261.328	44.88
261.544	-4.27
261.761	73.56
261.977	24.4
262.193	59.22
262.409	89.94
262.626	63.32
262.842	5.97
263.058	-6.31
263.274	67.41
263.49	-2.22
263.707	63.32
263.923	38.74
264.139	46.93
264.355	-4.27
264.571	71.51
264.787	71.51
265.004	57.17
265.22	42.84
265.436	22.36
265.652	57.17
265.868	48.98
266.084	46.93
266.3	22.36
266.516	24.4
266.732	16.21
266.948	5.97
267.164	63.32
267.38	73.56
267.596	38.74
267.812	67.41
268.028	59.22
268.244	-4.27
268.46	132.95
268.676	22.36
268.892	79.7
269.108	40.79
269.324	65.36
269.54	79.7
269.756	38.74
269.972	-34.99
270.188	51.03
270.403	18.26
270.619	55.12
270.835	22.36
271.051	-26.79
271.267	59.22
271.483	10.07
271.698	85.84
271.914	28.5
272.13	30.55
272.346	51.03
272.562	-57.51
272.777	114.52
272.993	73.56
273.209	38.74
273.425	71.51
273.64	124.76
273.856	30.55
274.072	14.17
274.287	14.17
274.503	-14.51
274.719	55.12
274.934	12.12
275.15	38.74
275.366	89.94
275.581	30.55
275.797	-2.22
276.012	10.07
276.228	34.64
276.444	63.32
276.659	124.76
276.875	16.21
277.09	71.51
277.306	16.21
277.521	79.7
277.737	-28.84
277.952	83.8
278.168	59.22
278.383	48.98
278.599	22.36
278.814	24.4
279.03	51.03
279.245	26.45
279.461	40.79
279.676	63.32
279.892	26.45
280.107	42.84
280.322	57.17
280.538	42.84
280.753	-100.52
280.969	22.36
281.184	1.88
281.399	104.28
281.615	-10.41
281.83	-24.75
282.045	-8.36
282.26	46.93
282.476	-43.18
282.691	106.32
282.906	38.74
283.122	22.36
283.337	-43.18
283.552	51.03
283.767	48.98
283.983	137.04
284.198	-16.55
284.413	122.71
284.628	10.07
284.843	96.08
285.058	67.41
285.274	79.7
285.489	-14.51
285.704	-0.17
285.919	51.03
286.134	63.32
286.349	-10.41
286.564	16.21
286.779	61.27
286.995	57.17
287.21	69.46
287.425	73.56
287.64	22.36
287.855	-2.22
288.07	46.93
288.285	32.6
288.5	106.32
288.715	32.6
288.93	8.02
289.145	-0.17
289.36	69.46
289.575	22.36
289.79	106.32
290.004	-26.79
290.219	155.47
290.434	112.47
290.649	30.55
290.864	79.7
291.079	-0.17
291.294	57.17
291.509	-2.22
291.724	1.88
291.938	38.74
292.153	8.02
292.368	28.5
292.583	55.12
292.798	96.08
293.012	14.17
293.227	106.32
293.442	65.36
293.657	67.41
293.871	-16.55
294.086	130.9
294.301	51.03
294.516	91.99
294.73	89.94
294.945	55.12
295.16	114.52
295.374	42.84
295.589	87.89
295.804	40.79
296.018	137.04
296.233	71.51
296.447	-16.55
296.662	3.93
296.877	104.28
297.091	104.28
297.306	75.6
297.52	28.5
297.735	16.21
297.949	73.56
298.164	63.32
298.378	51.03
298.593	42.84
298.807	38.74
299.022	42.84
299.236	38.74
299.451	34.64
299.665	30.55
299.88	34.64
300.094	79.7
300.309	8.02
300.523	51.03
300.737	-10.41
300.952	55.12
301.166	65.36
301.381	28.5
301.595	75.6
301.809	83.8
302.024	51.03
302.238	42.84
302.452	14.17
302.667	38.74
302.881	46.93
303.095	59.22
303.309	55.12
303.524	16.21
303.738	83.8
303.952	34.64
304.166	-2.22
304.381	-10.41
304.595	73.56
304.809	-39.08
305.023	96.08
305.237	122.71
305.452	44.88
305.666	94.04
305.88	85.84
306.094	55.12
306.308	91.99
306.522	102.23
306.736	16.21
306.95	30.55
307.164	-24.75
307.379	63.32
307.593	106.32
307.807	89.94
308.021	89.94
308.235	46.93
308.449	22.36
308.663	-12.46
308.877	91.99
309.091	67.41
309.305	55.12
309.519	71.51
309.733	36.69
309.947	5.97
310.161	91.99
310.374	40.79
310.588	73.56
310.802	-26.79
311.016	79.7
311.23	104.28
311.444	38.74
311.658	63.32
311.872	55.12
312.085	40.79
312.299	46.93
312.513	91.99
312.727	67.41
312.941	14.17
313.154	1.88
313.368	48.98
313.582	32.6
313.796	91.99
314.009	79.7
314.223	38.74
314.437	38.74
314.651	16.21
314.864	42.84
315.078	-6.31
315.292	-6.31
315.505	14.17
315.719	30.55
315.933	-6.31
316.146	114.52
316.36	83.8
316.573	10.07
316.787	96.08
317.001	5.97
317.214	-47.27
317.428	51.03
317.641	57.17
317.855	-22.7
318.068	14.17
318.282	42.84
318.495	51.03
318.709	79.7
318.922	32.6
319.136	108.37
319.349	-10.41
319.563	63.32
319.776	98.13
319.99	-0.17
320.203	104.28
320.417	81.75
320.63	75.6
320.843	40.79
321.057	120.66
321.27	48.98
321.483	59.22
321.697	63.32
321.91	87.89
322.124	-0.17
322.337	79.7
322.55	79.7
322.763	71.51
322.977	-30.89
323.19	22.36
323.403	98.13
323.617	114.52
323.83	98.13
324.043	24.4
324.256	30.55
324.469	91.99
324.683	141.14
324.896	59.22
325.109	63.32
325.322	46.93
325.535	79.7
325.748	5.97
325.962	20.31
326.175	53.08
326.388	71.51
326.601	67.41
326.814	-32.94
327.027	-8.36
327.24	28.5
327.453	-32.94
327.666	71.51
327.879	85.84
328.092	46.93
328.305	26.45
328.518	87.89
328.731	44.88
328.944	-26.79
329.157	128.85
329.37	81.75
329.583	38.74
329.796	61.27
330.009	55.12
330.222	42.84
330.435	85.84
330.648	128.85
330.861	14.17
331.073	42.84
331.286	63.32
331.499	108.37
331.712	46.93
331.925	87.89
332.138	-28.84
332.35	51.03
332.563	30.55
332.776	48.98
332.989	67.41
333.202	16.21
333.414	102.23
333.627	63.32
333.84	81.75
334.053	26.45
334.265	63.32
334.478	63.32
334.691	112.47
334.903	24.4
335.116	71.51
335.329	108.37
335.541	57.17
335.754	42.84
335.966	85.84
336.179	18.26
336.392	28.5
336.604	24.4
336.817	18.26
337.029	85.84
337.242	63.32
337.454	61.27
337.667	55.12
337.88	87.89
338.092	40.79
338.305	22.36
338.517	63.32
338.729	89.94
338.942	18.26
339.154	12.12
339.367	18.26
339.579	128.85
339.792	-14.51
340.004	139.09
340.217	10.07
340.429	46.93
340.641	77.65
340.854	-2.22
341.066	40.79
341.278	178
341.491	112.47
341.703	102.23
341.915	-26.79
342.128	26.45
342.34	55.12
342.552	32.6
342.764	18.26
342.977	10.07
343.189	104.28
343.401	57.17
343.613	28.5
343.826	120.66
344.038	-47.27
344.25	77.65
344.462	8.02
344.674	26.45
344.886	91.99
345.099	32.6
345.311	98.13
345.523	22.36
345.735	61.27
345.947	-28.84
346.159	16.21
346.371	63.32
346.583	-61.61
346.795	221.01
347.007	22.36
347.219	63.32
347.431	-6.31
347.643	65.36
347.855	57.17
348.067	112.47
348.279	67.41
348.491	32.6
348.703	36.69
348.915	36.69
349.127	42.84
349.339	83.8
349.551	71.51
349.763	61.27
349.975	48.98
350.187	16.21
350.399	75.6
350.61	130.9
350.822	75.6
351.034	5.97
351.246	14.17
351.458	16.21
351.669	22.36
351.881	38.74
352.093	67.41
352.305	55.12
352.517	-22.7
352.728	104.28
352.94	36.69
353.152	79.7
353.363	79.7
353.575	5.97
353.787	48.98
353.999	14.17
354.21	79.7
354.422	-63.66
354.633	55.12
354.845	96.08
355.057	67.41
355.268	48.98
355.48	53.08
355.692	32.6
355.903	79.7
356.115	5.97
356.326	16.21
356.538	69.46
356.749	40.79
356.961	147.28
357.172	51.03
357.384	73.56
357.595	104.28
357.807	34.64
358.018	12.12
358.23	73.56
358.441	96.08
358.653	16.21
358.864	32.6
359.075	22.36
359.287	79.7
359.498	30.55
359.709	106.32
359.921	69.46
360.132	38.74
360.344	30.55
360.555	85.84
360.766	44.88
360.977	-24.75
361.189	79.7
361.4	151.38
361.611	65.36
361.823	104.28
362.034	40.79
362.245	-2.22
362.456	75.6
362.667	114.52
362.879	55.12
363.09	26.45
363.301	-0.17
363.512	94.04
363.723	87.89
363.935	126.8
364.146	104.28
364.357	75.6
364.568	-2.22
364.779	14.17
364.99	100.18
365.201	16.21
365.412	128.85
365.623	114.52
365.834	57.17
366.045	-20.65
366.256	89.94
366.467	-0.17
366.678	48.98
366.889	22.36
367.1	122.71
367.311	57.17
367.522	79.7
367.733	161.62
367.944	30.55
368.155	30.55
368.366	83.8
368.577	139.09
368.788	53.08
368.999	48.98
369.209	71.51
369.42	67.41
369.631	147.28
369.842	79.7
370.053	38.74
370.264	81.75
370.474	14.17
370.685	28.5
370.896	69.46
371.107	36.69
371.317	79.7
371.528	22.36
371.739	22.36
371.95	89.94
372.16	141.14
372.371	48.98
372.582	65.36
372.792	79.7
373.003	-6.31
373.214	108.37
373.424	71.51
373.635	14.17
373.846	118.61
374.056	34.64
374.267	69.46
374.477	81.75
374.688	26.45
374.898	71.51
375.109	46.93
375.319	94.04
375.53	108.37
375.74	-2.22
375.951	1.88
376.161	79.7
376.372	40.79
376.582	137.04
376.793	30.55
377.003	63.32
377.214	114.52
377.424	34.64
377.635	139.09
377.845	5.97
378.055	89.94
378.266	-8.36
378.476	63.32
378.686	106.32
378.897	81.75
379.107	83.8
379.317	149.33
379.528	38.74
379.738	141.14
379.948	-2.22
380.158	89.94
380.369	81.75
380.579	96.08
380.789	106.32
380.999	24.4
381.21	85.84
381.42	63.32
381.63	-10.41
381.84	34.64
382.05	96.08
382.261	71.51
382.471	32.6
382.681	16.21
382.891	120.66
383.101	46.93
383.311	51.03
383.521	28.5
383.731	147.28
383.941	40.79
384.151	96.08
384.361	42.84
384.571	46.93
384.781	71.51
384.991	122.71
385.201	141.14
385.411	157.52
385.621	94.04
385.831	89.94
386.041	63.32
386.251	79.7
386.461	81.75
386.671	67.41
386.881	46.93
387.091	38.74
387.301	71.51
387.511	71.51
387.72	104.28
387.93	81.75
388.14	65.36
388.35	30.55
388.56	132.95
388.769	96.08
388.979	106.32
389.189	89.94
389.399	106.32
389.609	65.36
389.818	96.08
390.028	104.28
390.238	169.81
390.447	75.6
390.657	81.75
390.867	100.18
391.076	42.84
391.286	130.9
391.496	128.85
391.705	28.5
391.915	118.61
392.125	83.8
392.334	102.23
392.544	67.41
392.753	8.02
392.963	89.94
393.172	65.36
393.382	57.17
393.591	65.36
393.801	104.28
394.01	198.48
394.22	79.7
394.429	59.22
394.639	79.7
394.848	87.89
395.058	48.98
395.267	147.28
395.477	87.89
395.686	98.13
395.895	153.43
396.105	180.05
396.314	83.8
396.524	114.52
396.733	112.47
396.942	184.15
397.152	108.37
397.361	98.13
397.57	67.41
397.78	151.38
397.989	22.36
398.198	235.35
398.407	22.36
398.617	132.95
398.826	118.61
399.035	128.85
399.244	73.56
399.453	143.19
399.663	143.19
399.872	149.33
400.081	120.66
400.29	65.36
400.499	100.18
400.708	149.33
400.917	130.9
401.127	202.58
401.336	149.33
401.545	161.62
401.754	132.95
401.963	186.19
402.172	128.85
402.381	69.46
402.59	180.05
402.799	110.42
403.008	167.76
403.217	114.52
403.426	149.33
403.635	65.36
403.844	128.85
404.053	212.82
404.262	178
404.471	194.39
404.68	130.9
404.888	210.77
405.097	180.05
405.306	182.1
405.515	163.67
405.724	173.91
405.933	161.62
406.142	188.24
406.35	210.77
406.559	130.9
406.768	202.58
406.977	200.53
407.185	194.39
407.394	247.63
407.603	165.71
407.812	196.43
408.02	251.73
408.229	296.78
408.438	214.87
408.646	264.02
408.855	241.49
409.064	231.25
409.272	247.63
409.481	304.98
409.69	294.74
409.898	313.17
410.107	372.56
410.315	311.12
410.524	403.28
410.733	354.13
410.941	376.66
411.15	384.85
411.358	393.04
411.567	517.97
411.775	413.52
411.984	419.66
412.192	429.9
412.401	511.82
412.609	532.3
412.818	550.73
413.026	513.87
413.234	497.49
413.443	489.29
413.651	542.54
413.86	606.03
414.068	659.28
414.276	655.18
414.485	636.75
414.693	716.62
414.901	704.33
415.11	704.33
415.318	739.15
415.526	845.64
415.734	753.48
415.943	796.49
416.151	784.2
416.359	816.97
416.567	884.55
416.776	902.98
416.984	1011.53
417.192	993.09
417.4	960.33
417.608	986.95
417.817	1095.49
418.025	1083.2
418.233	1236.8
418.441	1167.17
418.649	1242.95
418.857	1277.76
419.065	1294.15
419.273	1314.63
419.481	1335.1
419.689	1435.46
419.897	1529.66
420.105	1572.67
420.313	1595.2
420.521	1681.21
420.729	1644.35
420.937	1679.16
421.145	1783.61
421.353	1845.05
421.561	1988.41
421.769	1898.3
421.977	2119.48
422.185	1902.39
422.393	2168.63
422.601	2432.82
422.809	2256.69
423.017	2496.3
423.224	2375.47
423.432	2506.54
423.64	2535.21
423.848	2692.91
424.056	2641.71
424.263	2842.41
424.471	2957.1
424.679	2955.05
424.887	3053.35
425.094	3225.38
425.302	3143.46
425.51	3417.89
425.718	3438.37
425.925	3479.33
426.133	3497.76
426.341	3774.24
426.548	3995.42
426.756	3847.96
426.964	4036.38
427.171	4142.87
427.379	4380.43
427.586	4308.76
427.794	4302.61
428.001	4712.21
428.209	4917
428.417	4785.93
428.624	5207.81
428.832	5177.09
429.039	5119.75
429.247	5037.83
429.454	5594.88
429.662	5996.28
429.869	5515.01
430.076	5992.19
430.284	5822.2
430.491	6100.73
430.699	6420.21
430.906	6317.81
431.114	6493.94
431.321	6731.5
431.528	6895.34
431.736	7349.99
431.943	7790.3
432.15	7313.13
432.358	7495.39
432.565	8025.82
432.772	7890.65
432.979	8427.22
433.187	8187.61
433.394	8431.32
433.601	9041.61
433.808	9184.97
434.016	8795.86
434.223	9492.16
434.43	10131.13
434.637	9850.56
434.844	10254.01
435.052	10546.87
435.259	10315.45
435.466	10616.5
435.673	10507.96
435.88	11187.88
436.087	11714.21
436.294	11513.51
436.501	11513.51
436.708	11630.24
436.915	12072.61
437.122	12525.21
437.329	12631.7
437.537	12891.79
437.743	13184.65
437.95	13112.97
438.157	13694.6
438.364	14251.64
438.571	14235.26
438.778	14210.68
438.985	15441.51
439.192	14818.93
439.399	15494.76
439.606	15148.65
439.813	15875.68
440.02	16930.39
440.227	16610.9
440.433	16381.53
440.64	17106.51
440.847	16942.67
441.054	17477.19
441.261	18611.77
441.467	17997.38
441.674	18400.83
441.881	19162.67
442.088	19197.49
442.294	18791.99
442.501	19502.64
442.708	19858.98
442.914	20573.72
443.121	21429.77
443.328	21011.99
443.534	22359.55
443.741	21601.8
443.948	21470.73
444.154	22988.28
444.361	22697.47
444.568	22988.28
444.774	23057.91
444.981	23129.59
445.187	23799.27
445.394	24776.16
445.6	24737.24
445.807	26686.91
446.013	25798.09
446.22	26088.9
446.426	27014.59
446.633	27594.16
446.839	28620.19
447.046	27174.33
447.252	28630.43
447.459	28771.74
447.665	28669.34
447.871	30102.92
448.078	31466.87
448.284	29891.98
448.491	30737.79
448.697	31868.27
448.903	32464.23
449.11	32400.74
449.316	31812.98
449.522	32435.56
449.728	33408.34
449.935	33391.96
450.141	33619.28
450.347	34381.13
450.553	33217.88
450.76	33686.87
450.966	34850.11
451.172	34598.21
451.378	35339.58
451.584	34551.11
451.791	35495.22
451.997	35372.35
452.203	35890.48
452.409	36082.99
452.615	36095.28
452.821	34399.56
453.027	34295.11
453.233	36085.04
453.44	35214.65
453.646	34815.3
453.852	35030.33
454.058	35706.16
454.264	34645.32
454.47	35583.29
454.676	34448.71
454.882	35882.29
455.088	32863.58
455.294	33168.73
455.5	33740.11
455.705	34225.48
455.911	32752.99
456.117	32163.18
456.323	31649.14
456.529	30119.31
456.735	31485.3
456.941	30762.37
457.147	30432.64
457.352	29549.97
457.558	29105.56
457.764	29253.01
457.97	28839.33
458.176	27981.23
458.381	27841.96
458.587	26756.54
458.793	26555.84
458.999	25046.49
459.204	27362.74
459.41	26383.81
459.616	24684
459.821	24466.91
460.027	24243.68
460.233	23903.72
460.438	23088.63
460.644	23279.09
460.85	22081.03
461.055	21790.22
461.261	21665.29
461.466	20119.07
461.672	19299.89
461.878	20968.98
462.083	19850.79
462.289	19297.84
462.494	18970.16
462.7	18153.02
462.905	17577.55
463.111	18435.64
463.316	18126.4
463.522	17976.9
463.727	17917.51
463.932	17944.13
464.138	17798.73
464.343	17868.36
464.549	17176.14
464.754	17858.12
464.959	17800.77
465.165	17440.33
465.37	16557.66
465.575	16307.8
465.781	17020.5
465.986	17067.6
466.191	16377.44
466.397	16047.71
466.602	15554.15
466.807	15644.26
467.012	15758.95
467.218	15885.92
