Data from USB4F104151__296__14-46-31-833.txt Node

Date: Thu Mar 13 14:46:31 EDT 2025
User: louis
Spectrometer: USB4F10415
Trigger mode: 4
Integration Time (sec): 2.000000E-2
Scans to average: 1
Electric dark correction enabled: true
Nonlinearity correction enabled: false
Boxcar width: 0
XAxis mode: Wavelengths
Number of Pixels in Spectrum: 3648
>>>>>Begin Spectral Data<<<<<
178.204	-71.68
178.424	-71.68
178.644	-71.68
178.864	-106.49
179.084	-100.35
179.304	4.1
179.524	34.82
179.744	-63.49
179.964	30.72
180.184	-20.48
180.404	40.96
180.624	10.24
180.844	14.34
181.064	0
181.283	-55.3
181.503	-18.43
181.723	22.53
181.943	-16.38
182.163	71.68
182.383	2.05
182.602	47.1
182.822	55.3
183.042	22.53
183.262	2.05
183.482	-2.05
183.701	-63.49
183.921	-22.53
184.141	75.77
184.361	55.3
184.58	40.96
184.8	-59.39
185.02	10.24
185.239	6.14
185.459	22.53
185.679	75.77
185.898	40.96
186.118	61.44
186.338	38.91
186.557	55.3
186.777	-14.34
186.997	-32.77
187.216	-38.91
187.436	106.49
187.655	45.06
187.875	90.11
188.095	-67.58
188.314	63.49
188.534	22.53
188.753	26.62
188.973	53.25
189.192	73.73
189.412	53.25
189.631	75.77
189.851	-16.38
190.07	51.2
190.29	6.14
190.509	6.14
190.729	6.14
190.948	-2.05
191.168	147.45
191.387	65.53
191.607	73.73
191.826	22.53
192.045	77.82
192.265	71.68
192.484	79.87
192.704	26.62
192.923	-47.1
193.142	75.77
193.362	79.87
193.581	24.58
193.8	49.15
194.02	-2.05
194.239	98.3
194.458	-55.3
194.678	-2.05
194.897	16.38
195.116	73.73
195.335	30.72
195.555	16.38
195.774	-12.29
195.993	-28.67
196.212	32.77
196.432	14.34
196.651	30.72
196.87	-26.62
197.089	143.36
197.308	14.34
197.528	55.3
197.747	26.62
197.966	-2.05
198.185	110.59
198.404	30.72
198.623	16.38
198.842	51.2
199.062	12.29
199.281	75.77
199.5	14.34
199.719	63.49
199.938	8.19
200.157	114.69
200.376	124.93
200.595	40.96
200.814	51.2
201.033	2.05
201.252	88.06
201.471	6.14
201.69	6.14
201.909	34.82
202.128	14.34
202.347	10.24
202.566	49.15
202.785	2.05
203.004	-10.24
203.223	63.49
203.442	0
203.661	-34.82
203.879	30.72
204.098	96.25
204.317	59.39
204.536	38.91
204.755	51.2
204.974	63.49
205.193	26.62
205.411	67.58
205.63	-12.29
205.849	16.38
206.068	34.82
206.287	26.62
206.505	57.34
206.724	2.05
206.943	-26.62
207.162	43.01
207.381	14.34
207.599	-57.34
207.818	10.24
208.037	86.01
208.255	-26.62
208.474	-16.38
208.693	32.77
208.911	34.82
209.13	-10.24
209.349	43.01
209.567	81.92
209.786	83.97
210.005	0
210.223	-10.24
210.442	-6.14
210.661	-59.39
210.879	10.24
211.098	-22.53
211.316	14.34
211.535	71.68
211.753	16.38
211.972	40.96
212.191	24.58
212.409	22.53
212.628	26.62
212.846	28.67
213.065	-8.19
213.283	-6.14
213.502	-14.34
213.72	22.53
213.938	22.53
214.157	38.91
214.375	-18.43
214.594	14.34
214.812	92.16
215.031	34.82
215.249	-38.91
215.467	6.14
215.686	96.25
215.904	24.58
216.122	45.06
216.341	14.34
216.559	49.15
216.778	55.3
216.996	81.92
217.214	36.86
217.432	-8.19
217.651	22.53
217.869	55.3
218.087	18.43
218.306	6.14
218.524	-32.77
218.742	6.14
218.96	71.68
219.179	30.72
219.397	-43.01
219.615	88.06
219.833	69.63
220.051	55.3
220.27	43.01
220.488	30.72
220.706	79.87
220.924	-6.14
221.142	-10.24
221.36	8.19
221.578	63.49
221.796	81.92
222.015	63.49
222.233	20.48
222.451	147.45
222.669	-4.1
222.887	40.96
223.105	10.24
223.323	8.19
223.541	67.58
223.759	51.2
223.977	6.14
224.195	10.24
224.413	43.01
224.631	22.53
224.849	34.82
225.067	86.01
225.285	55.3
225.503	14.34
225.721	-49.15
225.939	14.34
226.157	51.2
226.375	49.15
226.592	2.05
226.81	-10.24
227.028	-30.72
227.246	110.59
227.464	-26.62
227.682	2.05
227.9	-8.19
228.117	2.05
228.335	55.3
228.553	-20.48
228.771	-40.96
228.989	32.77
229.206	6.14
229.424	40.96
229.642	90.11
229.86	-2.05
230.077	71.68
230.295	28.67
230.513	51.2
230.731	71.68
230.948	59.39
231.166	22.53
231.384	90.11
231.601	-28.67
231.819	90.11
232.037	73.73
232.254	-49.15
232.472	22.53
232.689	43.01
232.907	-49.15
233.125	14.34
233.342	30.72
233.56	-16.38
233.777	10.24
233.995	-24.58
234.213	88.06
234.43	-18.43
234.648	24.58
234.865	-51.2
235.083	30.72
235.3	38.91
235.518	40.96
235.735	92.16
235.953	106.49
236.17	57.34
236.388	-24.58
236.605	43.01
236.822	-10.24
237.04	10.24
237.257	79.87
237.475	14.34
237.692	55.3
237.909	16.38
238.127	16.38
238.344	16.38
238.562	26.62
238.779	-67.58
238.996	-6.14
239.214	63.49
239.431	167.93
239.648	-67.58
239.865	34.82
240.083	55.3
240.3	38.91
240.517	43.01
240.735	-26.62
240.952	88.06
241.169	63.49
241.386	28.67
241.603	-18.43
241.821	55.3
242.038	40.96
242.255	2.05
242.472	57.34
242.689	49.15
242.907	83.97
243.124	-24.58
243.341	14.34
243.558	-10.24
243.775	-49.15
243.992	-34.82
244.209	57.34
244.426	63.49
244.643	20.48
244.86	-47.1
245.078	57.34
245.295	49.15
245.512	22.53
245.729	-6.14
245.946	32.77
246.163	18.43
246.38	8.19
246.597	51.2
246.814	-43.01
247.031	38.91
247.248	71.68
247.464	6.14
247.681	2.05
247.898	43.01
248.115	30.72
248.332	-24.58
248.549	55.3
248.766	65.53
248.983	96.25
249.2	0
249.417	12.29
249.633	8.19
249.85	65.53
250.067	-2.05
250.284	30.72
250.501	38.91
250.717	57.34
250.934	-38.91
251.151	26.62
251.368	-4.1
251.585	59.39
251.801	8.19
252.018	-61.44
252.235	24.58
252.451	8.19
252.668	-16.38
252.885	45.06
253.102	22.53
253.318	59.39
253.535	30.72
253.752	49.15
253.968	-63.49
254.185	47.1
254.401	28.67
254.618	69.63
254.835	-32.77
255.051	28.67
255.268	-26.62
255.484	100.35
255.701	14.34
255.917	47.1
256.134	36.86
256.351	100.35
256.567	43.01
256.784	-2.05
257	79.87
257.217	75.77
257.433	26.62
257.65	32.77
257.866	47.1
258.082	-59.39
258.299	24.58
258.515	-10.24
258.732	51.2
258.948	-67.58
259.165	96.25
259.381	-43.01
259.597	38.91
259.814	34.82
260.03	20.48
260.246	26.62
260.463	34.82
260.679	32.77
260.895	47.1
261.112	106.49
261.328	14.34
261.544	71.68
261.761	116.73
261.977	49.15
262.193	-20.48
262.409	40.96
262.626	-14.34
262.842	22.53
263.058	49.15
263.274	32.77
263.49	-43.01
263.707	59.39
263.923	30.72
264.139	-32.77
264.355	79.87
264.571	67.58
264.787	-43.01
265.004	18.43
265.22	-12.29
265.436	38.91
265.652	22.53
265.868	26.62
266.084	34.82
266.3	32.77
266.516	81.92
266.732	38.91
266.948	32.77
267.164	104.45
267.38	4.1
267.596	51.2
267.812	71.68
268.028	-26.62
268.244	-32.77
268.46	90.11
268.676	-12.29
268.892	153.6
269.108	34.82
269.324	2.05
269.54	-10.24
269.756	96.25
269.972	-55.3
270.188	36.86
270.403	-18.43
270.619	71.68
270.835	-49.15
271.051	53.25
271.267	30.72
271.483	6.14
271.698	45.06
271.914	14.34
272.13	75.77
272.346	6.14
272.562	38.91
272.777	120.83
272.993	10.24
273.209	6.14
273.425	28.67
273.64	51.2
273.856	88.06
274.072	32.77
274.287	-18.43
274.503	63.49
274.719	43.01
274.934	-36.86
275.15	-32.77
275.366	69.63
275.581	-10.24
275.797	120.83
276.012	55.3
276.228	2.05
276.444	-20.48
276.659	26.62
276.875	-8.19
277.09	6.14
277.306	-10.24
277.521	-2.05
277.737	30.72
277.952	16.38
278.168	63.49
278.383	36.86
278.599	-2.05
278.814	14.34
279.03	-43.01
279.245	88.06
279.461	22.53
279.676	22.53
279.892	32.77
280.107	24.58
280.322	79.87
280.538	34.82
280.753	28.67
280.969	67.58
281.184	-71.68
281.399	122.88
281.615	88.06
281.83	49.15
282.045	40.96
282.26	40.96
282.476	-49.15
282.691	22.53
282.906	32.77
283.122	65.53
283.337	61.44
283.552	65.53
283.767	43.01
283.983	120.83
284.198	-22.53
284.413	100.35
284.628	-10.24
284.843	43.01
285.058	32.77
285.274	49.15
285.489	49.15
285.704	63.49
285.919	-43.01
286.134	16.38
286.349	47.1
286.564	10.24
286.779	81.92
286.995	67.58
287.21	-6.14
287.425	75.77
287.64	2.05
287.855	88.06
288.07	-65.54
288.285	38.91
288.5	-30.72
288.715	-6.14
288.93	30.72
289.145	-14.34
289.36	120.83
289.575	65.53
289.79	-14.34
290.004	47.1
290.219	38.91
290.434	47.1
290.649	-59.39
290.864	-14.34
291.079	-14.34
291.294	36.86
291.509	-8.19
291.724	34.82
291.938	-4.1
292.153	30.72
292.368	-4.1
292.583	73.73
292.798	55.3
293.012	-2.05
293.227	-22.53
293.442	108.54
293.657	-32.77
293.871	88.06
294.086	24.58
294.301	63.49
294.516	22.53
294.73	55.3
294.945	-59.39
295.16	61.44
295.374	90.11
295.589	92.16
295.804	47.1
296.018	71.68
296.233	81.92
296.447	51.2
296.662	34.82
296.877	90.11
297.091	10.24
297.306	-6.14
297.52	-22.53
297.735	79.87
297.949	-2.05
298.164	67.58
298.378	47.1
298.593	-2.05
298.807	14.34
299.022	6.14
299.236	71.68
299.451	-4.1
299.665	-51.2
299.88	-16.38
300.094	38.91
300.309	22.53
300.523	-10.24
300.737	96.25
300.952	14.34
301.166	49.15
301.381	14.34
301.595	-2.05
301.809	0
302.024	55.3
302.238	30.72
302.452	63.49
302.667	16.38
302.881	10.24
303.095	71.68
303.309	155.65
303.524	-24.58
303.738	-2.05
303.952	-26.62
304.166	8.19
304.381	-22.53
304.595	-40.96
304.809	16.38
305.023	30.72
305.237	57.34
305.452	-4.1
305.666	-22.53
305.88	16.38
306.094	-26.62
306.308	14.34
306.522	10.24
306.736	22.53
306.95	51.2
307.164	22.53
307.379	83.97
307.593	63.49
307.807	73.73
308.021	51.2
308.235	55.3
308.449	6.14
308.663	-40.96
308.877	55.3
309.091	16.38
309.305	49.15
309.519	12.29
309.733	55.3
309.947	12.29
310.161	63.49
310.374	38.91
310.588	92.16
310.802	20.48
311.016	30.72
311.23	6.14
311.444	-18.43
311.658	2.05
311.872	-6.14
312.085	55.3
312.299	-8.19
312.513	12.29
312.727	-51.2
312.941	51.2
313.154	88.06
313.368	131.07
313.582	90.11
313.796	20.48
314.009	0
314.223	49.15
314.437	40.96
314.651	14.34
314.864	47.1
315.078	-43.01
315.292	18.43
315.505	-26.62
315.719	59.39
315.933	75.77
316.146	-24.58
316.36	57.34
316.573	47.1
316.787	55.3
317.001	6.14
317.214	34.82
317.428	100.35
317.641	-22.53
317.855	43.01
318.068	90.11
318.282	-30.72
318.495	137.21
318.709	47.1
318.922	59.39
319.136	30.72
319.349	104.45
319.563	47.1
319.776	10.24
319.99	-38.91
320.203	28.67
320.417	88.06
320.63	94.21
320.843	96.25
321.057	18.43
321.27	57.34
321.483	83.97
321.697	98.3
321.91	-10.24
322.124	116.73
322.337	6.14
322.55	55.3
322.763	-30.72
322.977	22.53
323.19	-10.24
323.403	75.77
323.617	-34.82
323.83	22.53
324.043	18.43
324.256	6.14
324.469	16.38
324.683	55.3
324.896	22.53
325.109	16.38
325.322	-2.05
325.535	38.91
325.748	22.53
325.962	-12.29
326.175	59.39
326.388	18.43
326.601	4.1
326.814	-14.34
327.027	47.1
327.24	67.58
327.453	-2.05
327.666	-90.11
327.879	38.91
328.092	55.3
328.305	32.77
328.518	0
328.731	-26.62
328.944	90.11
329.157	57.34
329.37	6.14
329.583	51.2
329.796	114.69
330.009	8.19
330.222	-24.58
330.435	28.67
330.648	49.15
330.861	-49.15
331.073	-24.58
331.286	51.2
331.499	-18.43
331.712	-47.1
331.925	63.49
332.138	2.05
332.35	0
332.563	18.43
332.776	88.06
332.989	32.77
333.202	55.3
333.414	55.3
333.627	92.16
333.84	-16.38
334.053	88.06
334.265	32.77
334.478	28.67
334.691	51.2
334.903	88.06
335.116	59.39
335.329	-16.38
335.541	71.68
335.754	112.64
335.966	6.14
336.179	38.91
336.392	63.49
336.604	59.39
336.817	-55.3
337.029	14.34
337.242	40.96
337.454	161.79
337.667	59.39
337.88	26.62
338.092	-57.34
338.305	-2.05
338.517	-22.53
338.729	47.1
338.942	73.73
339.154	-32.77
339.367	16.38
339.579	18.43
339.792	45.06
340.004	118.78
340.217	10.24
340.429	2.05
340.641	75.77
340.854	-4.1
341.066	71.68
341.278	65.53
341.491	61.44
341.703	6.14
341.915	12.29
342.128	98.3
342.34	-16.38
342.552	26.62
342.764	24.58
342.977	102.4
343.189	-59.39
343.401	-32.77
343.613	-6.14
343.826	-8.19
344.038	63.49
344.25	-20.48
344.462	36.86
344.674	-63.49
344.886	65.53
345.099	81.92
345.311	55.3
345.523	10.24
345.735	-32.77
345.947	98.3
346.159	6.14
346.371	16.38
346.583	79.87
346.795	161.79
347.007	-14.34
347.219	-34.82
347.431	-10.24
347.643	55.3
347.855	108.54
348.067	81.92
348.279	-28.67
348.491	22.53
348.703	61.44
348.915	12.29
349.127	2.05
349.339	32.77
349.551	4.1
349.763	40.96
349.975	16.38
350.187	126.97
350.399	88.06
350.61	20.48
350.822	-51.2
351.034	-26.62
351.246	-14.34
351.458	63.49
351.669	18.43
351.881	40.96
352.093	47.1
352.305	32.77
352.517	4.1
352.728	126.97
352.94	45.06
353.152	67.58
353.363	26.62
353.575	24.58
353.787	40.96
353.999	98.3
354.21	112.64
354.422	30.72
354.633	90.11
354.845	22.53
355.057	55.3
355.268	-16.38
355.48	71.68
355.692	-43.01
355.903	92.16
356.115	0
356.326	-18.43
356.538	81.92
356.749	30.72
356.961	-4.1
357.172	-63.49
357.384	28.67
357.595	43.01
357.807	22.53
358.018	51.2
358.23	69.63
358.441	67.58
358.653	12.29
358.864	-24.58
359.075	18.43
359.287	24.58
359.498	57.34
359.709	49.15
359.921	55.3
360.132	32.77
360.344	14.34
360.555	-4.1
360.766	45.06
360.977	8.19
361.189	-14.34
361.4	-2.05
361.611	55.3
361.823	90.11
362.034	-22.53
362.245	-43.01
362.456	47.1
362.667	8.19
362.879	-45.06
363.09	63.49
363.301	24.58
363.512	102.4
363.723	-14.34
363.935	45.06
364.146	55.3
364.357	-6.14
364.568	4.1
364.779	2.05
364.99	-10.24
365.201	88.06
365.412	14.34
365.623	57.34
365.834	-43.01
366.045	47.1
366.256	73.73
366.467	-28.67
366.678	-47.1
366.889	-57.34
367.1	38.91
367.311	71.68
367.522	-73.73
367.733	98.3
367.944	112.64
368.155	2.05
368.366	57.34
368.577	96.25
368.788	57.34
368.999	-4.1
369.209	22.53
369.42	24.58
369.631	88.06
369.842	-53.25
370.053	-2.05
370.264	79.87
370.474	-2.05
370.685	-6.14
370.896	65.53
371.107	79.87
371.317	-49.15
371.528	18.43
371.739	65.53
371.95	12.29
372.16	55.3
372.371	18.43
372.582	-10.24
372.792	90.11
373.003	14.34
373.214	20.48
373.424	114.69
373.635	49.15
373.846	38.91
374.056	59.39
374.267	71.68
374.477	-10.24
374.688	129.02
374.898	67.58
375.109	24.58
375.319	38.91
375.53	63.49
375.74	-10.24
375.951	18.43
376.161	10.24
376.372	65.53
376.582	-32.77
376.793	-18.43
377.003	79.87
377.214	26.62
377.424	47.1
377.635	20.48
377.845	16.38
378.055	14.34
378.266	24.58
378.476	75.77
378.686	-22.53
378.897	77.82
379.107	47.1
379.317	71.68
379.528	49.15
379.738	51.2
379.948	-65.54
380.158	63.49
380.369	49.15
380.579	22.53
380.789	26.62
380.999	96.25
381.21	24.58
381.42	129.02
381.63	-24.58
381.84	34.82
382.05	36.86
382.261	65.53
382.471	69.63
382.681	79.87
382.891	73.73
383.101	-16.38
383.311	40.96
383.521	-14.34
383.731	26.62
383.941	75.77
384.151	55.3
384.361	63.49
384.571	10.24
384.781	36.86
384.991	86.01
385.201	0
385.411	10.24
385.621	90.11
385.831	-6.14
386.041	-18.43
386.251	12.29
386.461	47.1
386.671	20.48
386.881	67.58
387.091	-10.24
387.301	114.69
387.511	49.15
387.72	-10.24
387.93	40.96
388.14	88.06
388.35	83.97
388.56	45.06
388.769	12.29
388.979	26.62
389.189	-34.82
389.399	114.69
389.609	-8.19
389.818	96.25
390.028	63.49
390.238	22.53
390.447	67.58
390.657	16.38
390.867	47.1
391.076	63.49
391.286	67.58
391.496	40.96
391.705	47.1
391.915	57.34
392.125	55.3
392.334	71.68
392.544	55.3
392.753	38.91
392.963	30.72
393.172	-30.72
393.382	55.3
393.591	71.68
393.801	24.58
394.01	96.25
394.22	141.31
394.429	73.73
394.639	-61.44
394.848	14.34
395.058	86.01
395.267	30.72
395.477	8.19
395.686	79.87
395.895	110.59
396.105	153.6
396.314	73.73
396.524	129.02
396.733	92.16
396.942	38.91
397.152	81.92
397.361	57.34
397.57	65.53
397.78	63.49
397.989	-22.53
398.198	96.25
398.407	-43.01
398.617	49.15
398.826	32.77
399.035	55.3
399.244	92.16
399.453	14.34
399.663	55.3
399.872	104.45
400.081	55.3
400.29	88.06
400.499	38.91
400.708	69.63
400.917	4.1
401.127	24.58
401.336	38.91
401.545	51.2
401.754	67.58
401.963	-2.05
402.172	22.53
402.381	-10.24
402.59	55.3
402.799	38.91
403.008	96.25
403.217	63.49
403.426	96.25
403.635	92.16
403.844	71.68
404.053	86.01
404.262	-8.19
404.471	155.65
404.68	129.02
404.888	12.29
405.097	14.34
405.306	114.69
405.515	81.92
405.724	129.02
405.933	32.77
406.142	145.41
406.35	141.31
406.559	163.84
406.768	53.25
406.977	137.21
407.185	120.83
407.394	90.11
407.603	116.73
407.812	104.45
408.02	163.84
408.229	139.26
408.438	57.34
408.646	116.73
408.855	96.25
409.064	129.02
409.272	106.49
409.481	135.17
409.69	137.21
409.898	71.68
410.107	192.51
410.315	178.17
410.524	182.27
410.733	196.61
410.941	161.79
411.15	225.28
411.358	147.45
411.567	231.42
411.775	280.57
411.984	260.09
412.192	210.94
412.401	176.13
412.609	264.19
412.818	325.63
413.026	225.28
413.234	266.24
413.443	360.44
413.651	241.66
413.86	268.28
414.068	317.44
414.276	294.91
414.485	262.14
414.693	370.68
414.901	391.16
415.11	407.55
415.318	301.05
415.526	440.31
415.734	438.27
415.943	450.55
416.151	333.82
416.359	454.65
416.567	514.04
416.776	473.08
416.984	563.19
417.192	475.13
417.4	497.66
417.608	468.98
417.817	522.23
418.025	507.9
418.233	638.97
418.441	636.92
418.649	673.78
418.857	675.83
419.065	661.49
419.273	595.96
419.481	694.26
419.689	716.79
419.897	811
420.105	733.17
420.313	751.6
420.521	901.11
420.729	811
420.937	874.48
421.145	874.48
421.353	950.26
421.561	1030.13
421.769	1007.6
421.977	1015.79
422.185	997.36
422.393	1169.39
422.601	1161.2
422.809	1193.97
423.017	1193.97
423.224	1210.35
423.432	1263.6
423.64	1224.69
423.848	1423.34
424.056	1390.57
424.263	1454.06
424.471	1382.38
424.679	1529.83
424.887	1523.69
425.094	1578.98
425.302	1722.34
425.51	1677.29
425.718	1820.64
425.925	1806.31
426.133	1808.36
426.341	1812.45
426.548	2004.96
426.756	1845.22
426.964	1882.08
427.171	2086.88
427.379	2002.91
427.586	2119.65
427.794	2211.81
428.001	2260.96
428.209	2432.99
428.417	2557.91
428.624	2672.6
428.832	2594.78
429.039	2574.3
429.247	2496.47
429.454	2891.73
429.662	3127.25
429.869	2768.85
430.076	2959.31
430.284	2996.18
430.491	3078.1
430.699	3258.32
430.906	3282.89
431.114	3282.89
431.321	3491.79
431.528	3520.46
431.736	3624.9
431.943	3674.06
432.15	3815.37
432.358	3776.45
432.565	4024.26
432.772	3913.67
432.979	4155.33
433.187	4118.47
433.394	4270.01
433.601	4466.62
433.808	4548.54
434.016	4390.85
434.223	4675.51
434.43	4999.09
434.637	4732.86
434.844	5210.03
435.052	5283.76
435.259	5388.21
435.466	5367.73
435.673	5392.3
435.88	5529.52
436.087	5896.1
436.294	5961.64
436.501	5732.26
436.708	5918.63
436.915	6084.52
437.122	6346.66
437.329	6356.89
437.537	6637.47
437.743	6641.56
437.95	6565.79
438.157	6872.98
438.364	7214.99
438.571	7010.2
438.778	7151.51
438.985	7935.88
439.192	7466.89
439.399	7671.69
439.606	7673.74
439.813	8036.23
440.02	8677.24
440.227	8419.2
440.433	8238.98
440.64	8486.78
440.847	8513.41
441.054	8517.5
441.261	9226.1
441.467	9140.08
441.674	9318.26
441.881	9664.36
442.088	9566.06
442.294	9475.95
442.501	9777
442.708	9938.79
442.914	10256.23
443.121	10862.43
443.328	10487.65
443.534	11310.93
443.741	10895.19
443.948	10852.19
444.154	11409.23
444.361	11450.19
444.568	11550.54
444.774	11599.69
444.981	11751.24
445.187	12287.81
445.394	12658.49
445.6	12265.28
445.807	13532.98
446.013	13037.37
446.22	13160.25
446.426	13752.11
446.633	13711.15
446.839	14591.78
447.046	13655.86
447.252	14645.02
447.459	14546.72
447.665	14520.1
447.871	14937.88
448.078	15730.45
448.284	14995.23
448.491	15626
448.697	16152.33
448.903	16264.97
449.11	16342.79
449.316	15988.49
449.522	16410.37
449.728	16795.39
449.935	16899.84
450.141	16858.88
450.347	17469.17
450.553	16834.3
450.76	17145.59
450.966	17643.25
451.172	17305.34
451.378	18007.79
451.584	17819.38
451.791	18042.6
451.997	18052.84
452.203	18454.25
452.409	18185.96
452.615	18349.8
452.821	17567.48
453.027	17456.89
453.233	18323.18
453.44	18013.93
453.646	17993.45
453.852	18142.96
454.058	18403.05
454.264	17723.12
454.47	18120.43
454.676	17604.34
454.882	18480.87
455.088	16764.67
455.294	17022.72
455.5	17149.69
455.705	17247.99
455.911	16574.21
456.117	16471.81
456.323	16475.91
456.529	15578.9
456.735	16176.91
456.941	15767.31
457.147	15755.02
457.352	15058.71
457.558	14888.73
457.764	15071
457.97	14743.33
458.176	14403.36
458.381	14104.36
458.587	13438.77
458.793	13379.38
458.999	13014.84
459.204	14026.54
459.41	13600.56
459.616	12511.04
459.821	12539.71
460.027	12664.64
460.233	12552
460.438	11845.45
460.644	12056.39
460.85	11454.29
461.055	11163.48
461.261	11177.81
461.466	10360.67
461.672	9992.04
461.878	10731.36
462.083	10143.59
462.289	10049.38
462.494	9746.28
462.7	9428.85
462.905	9084.79
463.111	9326.45
463.316	9512.81
463.522	9322.35
463.727	9215.86
463.932	9293.68
464.138	9090.93
464.343	9090.93
464.549	8970.1
464.754	9021.3
464.959	9015.16
465.165	8927.1
465.37	8853.37
465.575	8406.91
465.781	8583.04
465.986	8722.3
466.191	8591.23
466.397	8304.51
466.602	7913.35
466.807	8163.2
467.012	7870.34
467.218	8226.69
467.423	8138.63
467.628	8021.89
467.833	8415.1
468.038	7882.63
468.244	7866.25
468.449	8238.98
468.654	7798.66
468.859	7964.55
469.064	7853.96
469.269	7430.03
