Data from USB4F104151__117__14-43-53-730.txt Node

Date: Thu Mar 13 14:43:53 EDT 2025
User: louis
Spectrometer: USB4F10415
Trigger mode: 4
Integration Time (sec): 2.000000E-2
Scans to average: 1
Electric dark correction enabled: true
Nonlinearity correction enabled: false
Boxcar width: 0
XAxis mode: Wavelengths
Number of Pixels in Spectrum: 3648
>>>>>Begin Spectral Data<<<<<
178.204	-112.98
178.424	-112.98
178.644	-112.98
178.864	-110.93
179.084	-67.92
179.304	-47.44
179.524	3.75
179.744	3.75
179.964	-12.63
180.184	40.62
180.404	20.14
180.624	9.9
180.844	-26.96
181.064	30.38
181.283	-18.77
181.503	42.67
181.723	-45.4
181.943	20.14
182.163	61.1
182.383	-33.11
182.602	-31.06
182.822	5.8
183.042	9.9
183.262	9.9
183.482	13.99
183.701	-12.63
183.921	42.67
184.141	59.05
184.361	75.43
184.58	22.19
184.8	67.24
185.02	-45.4
185.239	52.91
185.459	79.53
185.679	93.87
185.898	-55.64
186.118	1.71
186.338	20.14
186.557	30.38
186.777	32.43
186.997	28.33
187.216	50.86
187.436	118.44
187.655	46.76
187.875	42.67
188.095	-31.06
188.314	63.15
188.534	102.06
188.753	-22.87
188.973	52.91
189.192	65.19
189.412	71.34
189.631	1.71
189.851	7.85
190.07	67.24
190.29	-0.34
190.509	18.09
190.729	26.28
190.948	42.67
191.168	153.26
191.387	44.71
191.607	28.33
191.826	1.71
192.045	-8.53
192.265	-12.63
192.484	9.9
192.704	38.57
192.923	9.9
193.142	1.71
193.362	71.34
193.581	-8.53
193.8	-26.96
194.02	91.82
194.239	5.8
194.458	34.47
194.678	26.28
194.897	11.95
195.116	26.28
195.335	50.86
195.555	9.9
195.774	65.19
195.993	-12.63
196.212	52.91
196.432	-2.39
196.651	54.95
196.87	34.47
197.089	126.63
197.308	110.25
197.528	75.43
197.747	42.67
197.966	-10.58
198.185	42.67
198.404	75.43
198.623	52.91
198.842	-12.63
199.062	36.52
199.281	126.63
199.5	24.23
199.719	38.57
199.938	67.24
200.157	57
200.376	-22.87
200.595	46.76
200.814	50.86
201.033	-6.49
201.252	26.28
201.471	20.14
201.69	-16.73
201.909	13.99
202.128	52.91
202.347	52.91
202.566	20.14
202.785	-51.54
203.004	52.91
203.223	71.34
203.442	13.99
203.661	36.52
203.879	46.76
204.098	100.01
204.317	28.33
204.536	48.81
204.755	95.91
204.974	71.34
205.193	26.28
205.411	100.01
205.63	13.99
205.849	-12.63
206.068	50.86
206.287	42.67
206.505	61.1
206.724	11.95
206.943	1.71
207.162	11.95
207.381	34.47
207.599	36.52
207.818	5.8
208.037	36.52
208.255	-63.83
208.474	73.39
208.693	7.85
208.911	1.71
209.13	-4.44
209.349	52.91
209.567	63.15
209.786	40.62
210.005	-6.49
210.223	108.2
210.442	1.71
210.661	42.67
210.879	5.8
211.098	36.52
211.316	5.8
211.535	69.29
211.753	-6.49
211.972	11.95
212.191	-14.68
212.409	1.71
212.628	40.62
212.846	1.71
213.065	32.43
213.283	75.43
213.502	-39.25
213.72	63.15
213.938	85.67
214.157	3.75
214.375	46.76
214.594	9.9
214.812	-6.49
215.031	5.8
215.249	-2.39
215.467	46.76
215.686	95.91
215.904	59.05
216.122	50.86
216.341	110.25
216.559	118.44
216.778	54.95
216.996	28.33
217.214	34.47
217.432	44.71
217.651	11.95
217.869	20.14
218.087	79.53
218.306	-2.39
218.524	85.67
218.742	13.99
218.96	7.85
219.179	-0.34
219.397	-6.49
219.615	136.87
219.833	16.04
220.051	-8.53
220.27	67.24
220.488	18.09
220.706	108.2
220.924	-45.4
221.142	-22.87
221.36	-33.11
221.578	44.71
221.796	-47.44
222.015	-43.35
222.233	13.99
222.451	59.05
222.669	-14.68
222.887	91.82
223.105	13.99
223.323	26.28
223.541	-35.16
223.759	52.91
223.977	-47.44
224.195	89.77
224.413	61.1
224.631	97.96
224.849	77.48
225.067	128.68
225.285	-20.82
225.503	26.28
225.721	-26.96
225.939	93.87
226.157	44.71
226.375	73.39
226.592	1.71
226.81	32.43
227.028	26.28
227.246	100.01
227.464	63.15
227.682	-39.25
227.9	-6.49
228.117	91.82
228.335	18.09
228.553	20.14
228.771	-18.77
228.989	-55.64
229.206	48.81
229.424	11.95
229.642	-45.4
229.86	-18.77
230.077	69.29
230.295	20.14
230.513	13.99
230.731	36.52
230.948	71.34
231.166	75.43
231.384	50.86
231.601	-39.25
231.819	59.05
232.037	-22.87
232.254	54.95
232.472	26.28
232.689	-31.06
232.907	42.67
233.125	30.38
233.342	3.75
233.56	20.14
233.777	28.33
233.995	-2.39
234.213	-4.44
234.43	18.09
234.648	-29.01
234.865	-45.4
235.083	5.8
235.3	36.52
235.518	77.48
235.735	-6.49
235.953	46.76
236.17	32.43
236.388	69.29
236.605	18.09
236.822	57
237.04	46.76
237.257	26.28
237.475	87.72
237.692	75.43
237.909	34.47
238.127	-129.36
238.344	-4.44
238.562	9.9
238.779	-39.25
238.996	-6.49
239.214	20.14
239.431	75.43
239.648	44.71
239.865	26.28
240.083	13.99
240.3	61.1
240.517	48.81
240.735	18.09
240.952	32.43
241.169	50.86
241.386	28.33
241.603	20.14
241.821	-2.39
242.038	18.09
242.255	-14.68
242.472	-6.49
242.689	77.48
242.907	67.24
243.124	54.95
243.341	26.28
243.558	-8.53
243.775	-2.39
243.992	22.19
244.209	18.09
244.426	42.67
244.643	59.05
244.86	50.86
245.078	67.24
245.295	63.15
245.512	1.71
245.729	-84.31
245.946	16.04
246.163	18.09
246.38	26.28
246.597	-14.68
246.814	52.91
247.031	-39.25
247.248	34.47
247.464	-2.39
247.681	67.24
247.898	1.71
248.115	18.09
248.332	-59.73
248.549	91.82
248.766	106.15
248.983	38.57
249.2	-31.06
249.417	9.9
249.633	11.95
249.85	-20.82
250.067	73.39
250.284	65.19
250.501	42.67
250.717	36.52
250.934	-26.96
251.151	69.29
251.368	50.86
251.585	67.24
251.801	59.05
252.018	24.23
252.235	95.91
252.451	-45.4
252.668	1.71
252.885	106.15
253.102	9.9
253.318	28.33
253.535	77.48
253.752	-18.77
253.968	-41.3
254.185	-4.44
254.401	67.24
254.618	-31.06
254.835	52.91
255.051	75.43
255.268	50.86
255.484	-14.68
255.701	-24.92
255.917	114.34
256.134	3.75
256.351	85.67
256.567	-14.68
256.784	65.19
257	-14.68
257.217	30.38
257.433	-26.96
257.65	-39.25
257.866	16.04
258.082	57
258.299	34.47
258.515	83.63
258.732	-6.49
258.948	40.62
259.165	22.19
259.381	-10.58
259.597	1.71
259.814	36.52
260.03	-26.96
260.246	-14.68
260.463	30.38
260.679	130.73
260.895	61.1
261.112	3.75
261.328	-76.12
261.544	63.15
261.761	102.06
261.977	-10.58
262.193	13.99
262.409	-10.58
262.626	18.09
262.842	1.71
263.058	-12.63
263.274	44.71
263.49	46.76
263.707	93.87
263.923	50.86
264.139	3.75
264.355	50.86
264.571	1.71
264.787	28.33
265.004	18.09
265.22	28.33
265.436	-14.68
265.652	3.75
265.868	26.28
266.084	-6.49
266.3	52.91
266.516	-6.49
266.732	52.91
266.948	91.82
267.164	46.76
267.38	-12.63
267.596	46.76
267.812	30.38
268.028	-43.35
268.244	9.9
268.46	13.99
268.676	9.9
268.892	11.95
269.108	-6.49
269.324	-61.78
269.54	-20.82
269.756	-29.01
269.972	-49.49
270.188	75.43
270.403	46.76
270.619	77.48
270.835	-14.68
271.051	71.34
271.267	11.95
271.483	-22.87
271.698	44.71
271.914	91.82
272.13	9.9
272.346	48.81
272.562	63.15
272.777	63.15
272.993	67.24
273.209	-22.87
273.425	69.29
273.64	34.47
273.856	44.71
274.072	18.09
274.287	-53.59
274.503	34.47
274.719	20.14
274.934	13.99
275.15	-6.49
275.366	-6.49
275.581	16.04
275.797	44.71
276.012	-4.44
276.228	5.8
276.444	11.95
276.659	85.67
276.875	22.19
277.09	1.71
277.306	-6.49
277.521	59.05
277.737	36.52
277.952	5.8
278.168	32.43
278.383	40.62
278.599	-10.58
278.814	38.57
279.03	42.67
279.245	52.91
279.461	57
279.676	30.38
279.892	-2.39
280.107	67.24
280.322	-20.82
280.538	61.1
280.753	67.24
280.969	-31.06
281.184	1.71
281.399	63.15
281.615	-22.87
281.83	-14.68
282.045	13.99
282.26	-39.25
282.476	-14.68
282.691	20.14
282.906	-4.44
283.122	28.33
283.337	3.75
283.552	59.05
283.767	-51.54
283.983	44.71
284.198	-22.87
284.413	18.09
284.628	16.04
284.843	18.09
285.058	1.71
285.274	-20.82
285.489	9.9
285.704	-45.4
285.919	104.11
286.134	11.95
286.349	20.14
286.564	93.87
286.779	40.62
286.995	52.91
287.21	9.9
287.425	18.09
287.64	11.95
287.855	-12.63
288.07	-24.92
288.285	110.25
288.5	65.19
288.715	9.9
288.93	13.99
289.145	46.76
289.36	83.63
289.575	38.57
289.79	42.67
290.004	16.04
290.219	85.67
290.434	-10.58
290.649	-2.39
290.864	11.95
291.079	11.95
291.294	69.29
291.509	9.9
291.724	42.67
291.938	34.47
292.153	-12.63
292.368	42.67
292.583	44.71
292.798	54.95
293.012	-14.68
293.227	108.2
293.442	11.95
293.657	110.25
293.871	81.58
294.086	26.28
294.301	9.9
294.516	-8.53
294.73	-22.87
294.945	-6.49
295.16	36.52
295.374	42.67
295.589	44.71
295.804	-43.35
296.018	-22.87
296.233	42.67
296.447	91.82
296.662	26.28
296.877	50.86
297.091	57
297.306	79.53
297.52	50.86
297.735	-14.68
297.949	42.67
298.164	20.14
298.378	-10.58
298.593	-2.39
298.807	18.09
299.022	36.52
299.236	85.67
299.451	9.9
299.665	-14.68
299.88	61.1
300.094	30.38
300.309	-22.87
300.523	75.43
300.737	-18.77
300.952	11.95
301.166	20.14
301.381	-2.39
301.595	26.28
301.809	9.9
302.024	24.23
302.238	30.38
302.452	77.48
302.667	50.86
302.881	48.81
303.095	18.09
303.309	26.28
303.524	9.9
303.738	-29.01
303.952	48.81
304.166	100.01
304.381	-14.68
304.595	75.43
304.809	67.24
305.023	34.47
305.237	-22.87
305.452	-74.07
305.666	46.76
305.88	38.57
306.094	-14.68
306.308	16.04
306.522	22.19
306.736	18.09
306.95	28.33
307.164	9.9
307.379	67.24
307.593	61.1
307.807	7.85
308.021	26.28
308.235	16.04
308.449	-37.2
308.663	-6.49
308.877	87.72
309.091	42.67
309.305	13.99
309.519	-31.06
309.733	59.05
309.947	30.38
310.161	5.8
310.374	100.01
310.588	-78.16
310.802	-31.06
311.016	44.71
311.23	95.91
311.444	85.67
311.658	61.1
311.872	59.05
312.085	46.76
312.299	52.91
312.513	75.43
312.727	91.82
312.941	1.71
313.154	9.9
313.368	11.95
313.582	34.47
313.796	-4.44
314.009	3.75
314.223	-0.34
314.437	52.91
314.651	50.86
314.864	-6.49
315.078	26.28
315.292	3.75
315.505	36.52
315.719	-31.06
315.933	1.71
316.146	85.67
316.36	3.75
316.573	87.72
316.787	93.87
317.001	-6.49
317.214	3.75
317.428	59.05
317.641	13.99
317.855	34.47
318.068	9.9
318.282	83.63
318.495	20.14
318.709	-4.44
318.922	9.9
319.136	46.76
319.349	36.52
319.563	42.67
319.776	22.19
319.99	18.09
320.203	122.54
320.417	20.14
320.63	42.67
320.843	44.71
321.057	26.28
321.27	-8.53
321.483	16.04
321.697	87.72
321.91	9.9
322.124	102.06
322.337	-43.35
322.55	11.95
322.763	36.52
322.977	3.75
323.19	3.75
323.403	26.28
323.617	1.71
323.83	110.25
324.043	13.99
324.256	13.99
324.469	7.85
324.683	91.82
324.896	34.47
325.109	-0.34
325.322	-29.01
325.535	83.63
325.748	1.71
325.962	57
326.175	118.44
326.388	128.68
326.601	48.81
326.814	77.48
327.027	9.9
327.24	42.67
327.453	-8.53
327.666	18.09
327.879	69.29
328.092	52.91
328.305	65.19
328.518	9.9
328.731	-31.06
328.944	50.86
329.157	-65.88
329.37	-10.58
329.583	63.15
329.796	69.29
330.009	-31.06
330.222	36.52
330.435	20.14
330.648	18.09
330.861	61.1
331.073	18.09
331.286	69.29
331.499	-14.68
331.712	-20.82
331.925	75.43
332.138	44.71
332.35	52.91
332.563	26.28
332.776	-39.25
332.989	40.62
333.202	20.14
333.414	42.67
333.627	-67.92
333.84	-14.68
334.053	26.28
334.265	-20.82
334.478	7.85
334.691	11.95
334.903	91.82
335.116	16.04
335.329	13.99
335.541	-22.87
335.754	87.72
335.966	-37.2
336.179	30.38
336.392	30.38
336.604	102.06
336.817	63.15
337.029	77.48
337.242	24.23
337.454	73.39
337.667	26.28
337.88	100.01
338.092	-29.01
338.305	75.43
338.517	-14.68
338.729	104.11
338.942	46.76
339.154	52.91
339.367	-78.16
339.579	36.52
339.792	-16.73
340.004	26.28
340.217	18.09
340.429	59.05
340.641	36.52
340.854	-39.25
341.066	-4.44
341.278	71.34
341.491	73.39
341.703	11.95
341.915	61.1
342.128	95.91
342.34	26.28
342.552	-59.73
342.764	1.71
342.977	9.9
343.189	48.81
343.401	18.09
343.613	1.71
343.826	50.86
344.038	9.9
344.25	65.19
344.462	24.23
344.674	26.28
344.886	-2.39
345.099	93.87
345.311	9.9
345.523	61.1
345.735	28.33
345.947	20.14
346.159	-2.39
346.371	75.43
346.583	-29.01
346.795	9.9
347.007	-35.16
347.219	67.24
347.431	-35.16
347.643	-20.82
347.855	26.28
348.067	81.58
348.279	18.09
348.491	13.99
348.703	13.99
348.915	42.67
349.127	3.75
349.339	5.8
349.551	28.33
349.763	69.29
349.975	134.82
350.187	100.01
350.399	-4.44
350.61	50.86
350.822	13.99
351.034	40.62
351.246	26.28
351.458	-6.49
351.669	67.24
351.881	97.96
352.093	28.33
352.305	79.53
352.517	75.43
352.728	97.96
352.94	-4.44
353.152	83.63
353.363	104.11
353.575	93.87
353.787	48.81
353.999	75.43
354.21	128.68
354.422	42.67
354.633	71.34
354.845	52.91
355.057	9.9
355.268	1.71
355.48	42.67
355.692	7.85
355.903	5.8
356.115	75.43
356.326	-39.25
356.538	28.33
356.749	69.29
356.961	54.95
357.172	44.71
357.384	-12.63
357.595	85.67
357.807	100.01
358.018	-22.87
358.23	59.05
358.441	100.01
358.653	36.52
358.864	9.9
359.075	26.28
359.287	81.58
359.498	38.57
359.709	36.52
359.921	-45.4
360.132	54.95
360.344	20.14
360.555	36.52
360.766	59.05
360.977	11.95
361.189	67.24
361.4	44.71
361.611	81.58
361.823	26.28
362.034	34.47
362.245	-35.16
362.456	7.85
362.667	87.72
362.879	42.67
363.09	-0.34
363.301	28.33
363.512	52.91
363.723	1.71
363.935	-22.87
364.146	59.05
364.357	85.67
364.568	91.82
364.779	34.47
364.99	22.19
365.201	42.67
365.412	38.57
365.623	3.75
365.834	26.28
366.045	54.95
366.256	42.67
366.467	67.24
366.678	28.33
366.889	-72.02
367.1	-6.49
367.311	57
367.522	9.9
367.733	26.28
367.944	18.09
368.155	46.76
368.366	91.82
368.577	61.1
368.788	110.25
368.999	50.86
369.209	42.67
369.42	69.29
369.631	77.48
369.842	61.1
370.053	18.09
370.264	153.26
370.474	11.95
370.685	20.14
370.896	38.57
371.107	36.52
371.317	50.86
371.528	-10.58
371.739	26.28
371.95	54.95
372.16	36.52
372.371	-39.25
372.582	46.76
372.792	-10.58
373.003	73.39
373.214	20.14
373.424	50.86
373.635	-31.06
373.846	69.29
374.056	-45.4
374.267	38.57
374.477	67.24
374.688	16.04
374.898	42.67
375.109	44.71
375.319	11.95
375.53	114.34
375.74	-12.63
375.951	-22.87
376.161	18.09
376.372	75.43
376.582	-37.2
376.793	34.47
377.003	61.1
377.214	85.67
377.424	57
377.635	71.34
377.845	26.28
378.055	173.74
378.266	61.1
378.476	85.67
378.686	46.76
378.897	85.67
379.107	91.82
379.317	28.33
379.528	5.8
379.738	18.09
379.948	-6.49
380.158	61.1
380.369	108.2
380.579	57
380.789	-18.77
380.999	91.82
381.21	85.67
381.42	1.71
381.63	28.33
381.84	91.82
382.05	46.76
382.261	34.47
382.471	118.44
382.681	54.95
382.891	63.15
383.101	91.82
383.311	42.67
383.521	-0.34
383.731	9.9
383.941	87.72
384.151	36.52
384.361	16.04
384.571	118.44
384.781	-14.68
384.991	71.34
385.201	-12.63
385.411	77.48
385.621	83.63
385.831	57
386.041	79.53
386.251	59.05
386.461	77.48
386.671	50.86
386.881	136.87
387.091	9.9
387.301	102.06
387.511	42.67
387.72	77.48
387.93	138.92
388.14	-6.49
388.35	-47.44
388.56	75.43
388.769	26.28
388.979	95.91
389.189	-55.64
389.399	102.06
389.609	108.2
389.818	69.29
390.028	9.9
390.238	44.71
390.447	9.9
390.657	83.63
390.867	50.86
391.076	36.52
391.286	42.67
391.496	59.05
391.705	67.24
391.915	100.01
392.125	44.71
392.334	100.01
392.544	59.05
392.753	59.05
392.963	-12.63
393.172	9.9
393.382	13.99
393.591	77.48
393.801	67.24
394.01	42.67
394.22	44.71
394.429	102.06
394.639	48.81
394.848	87.72
395.058	100.01
395.267	30.38
395.477	5.8
395.686	75.43
395.895	93.87
396.105	153.26
396.314	38.57
396.524	75.43
396.733	48.81
396.942	-2.39
397.152	132.78
397.361	108.2
397.57	61.1
397.78	-33.11
397.989	136.87
398.198	85.67
398.407	116.39
398.617	50.86
398.826	108.2
399.035	28.33
399.244	30.38
399.453	1.71
399.663	26.28
399.872	63.15
400.081	106.15
400.29	157.35
400.499	91.82
400.708	93.87
400.917	34.47
401.127	108.2
401.336	59.05
401.545	161.45
401.754	124.58
401.963	79.53
402.172	77.48
402.381	38.57
402.59	65.19
402.799	79.53
403.008	59.05
403.217	149.16
403.426	50.86
403.635	65.19
403.844	34.47
404.053	83.63
404.262	69.29
404.471	149.16
404.68	114.34
404.888	93.87
405.097	71.34
405.306	83.63
405.515	134.82
405.724	85.67
405.933	91.82
406.142	124.58
406.35	173.74
406.559	102.06
406.768	216.74
406.977	155.3
407.185	59.05
407.394	177.83
407.603	102.06
407.812	112.3
408.02	198.31
408.229	136.87
408.438	171.69
408.646	194.22
408.855	181.93
409.064	175.78
409.272	190.12
409.481	216.74
409.69	183.98
409.898	159.4
410.107	235.18
410.315	292.52
410.524	257.7
410.733	229.03
410.941	196.26
411.15	231.08
411.358	263.85
411.567	396.96
411.775	231.08
411.984	255.65
412.192	300.71
412.401	239.27
412.609	327.33
412.818	349.86
413.026	386.72
413.234	247.46
413.443	290.47
413.651	386.72
413.86	323.24
414.068	396.96
414.276	427.68
414.485	431.78
414.693	403.11
414.901	501.41
415.11	495.27
415.318	452.26
415.526	511.65
415.734	544.42
415.943	530.08
416.151	632.48
416.359	552.61
416.567	448.16
416.776	601.76
416.984	673.44
417.192	714.4
417.4	673.44
417.608	659.1
417.817	761.5
418.025	687.78
418.233	816.8
418.441	779.93
418.649	761.5
418.857	843.42
419.065	839.33
419.273	919.2
419.481	980.64
419.689	1001.12
419.897	1025.69
420.105	870.05
420.313	1001.12
420.521	1042.07
420.729	1058.46
420.937	1109.66
421.145	1152.67
421.353	1148.57
421.561	1283.74
421.769	1248.92
421.977	1296.02
422.185	1277.59
422.393	1492.63
422.601	1492.63
422.809	1474.2
423.017	1414.81
423.224	1519.25
423.432	1664.66
423.64	1640.08
423.848	1769.1
424.056	1742.48
424.263	1902.22
424.471	1959.56
424.679	1822.35
424.887	2041.48
425.094	2029.2
425.302	2180.75
425.51	2133.64
425.718	2258.57
425.925	2176.65
426.133	2272.9
426.341	2479.75
426.548	2647.68
426.756	2500.23
426.964	2533
427.171	2639.49
427.379	2776.7
427.586	2918.01
427.794	2967.17
428.001	3174.01
428.209	3137.15
428.417	3083.9
428.624	3372.66
428.832	3380.86
429.039	3425.91
429.247	3307.13
429.454	3683.95
429.662	3903.09
429.869	3610.23
430.076	3835.5
430.284	3804.78
430.491	3942
430.699	4109.93
430.906	4083.31
431.114	4200.04
431.321	4439.65
431.528	4466.28
431.736	4699.75
431.943	5076.57
432.15	4937.31
432.358	4826.72
432.565	5146.2
432.772	5158.49
432.979	5324.38
433.187	5498.45
433.394	5588.57
433.601	5936.72
433.808	5805.65
434.016	5813.84
434.223	5871.19
434.43	6456.9
434.637	6358.6
434.844	6833.73
435.052	6796.87
435.259	6897.22
435.466	6901.31
435.673	6762.05
435.88	7269.95
436.087	7775.8
436.294	7573.05
436.501	7532.09
436.708	7607.86
436.915	7841.33
437.122	8293.93
437.329	8242.73
437.537	8300.08
437.743	8590.89
437.95	8435.24
438.157	8949.28
438.364	9141.79
438.571	9104.93
438.778	9123.36
438.985	10153.49
439.192	9565.72
439.399	9864.72
439.606	9725.46
439.813	10356.24
440.02	10954.24
440.227	10688.01
440.433	10585.61
440.64	10987.01
440.847	10937.86
441.054	11197.95
441.261	11873.78
441.467	11838.97
441.674	12011
441.881	12269.04
442.088	12381.68
442.294	12146.16
442.501	12813.8
442.708	12666.35
442.914	13424.09
443.121	13872.6
443.328	13487.58
443.534	14534.09
443.741	14065.11
443.948	13845.98
444.154	14929.35
444.361	14747.08
444.568	15095.24
444.774	14939.59
444.981	15019.46
445.187	15668.67
445.394	16256.43
445.6	15934.9
445.807	17448.35
446.013	16713.13
446.22	16948.65
446.426	17479.07
446.633	17816.99
446.839	18439.57
447.046	17442.21
447.252	18611.6
447.459	18896.27
447.665	18769.29
447.871	19275.14
448.078	20219.25
448.284	19092.87
448.491	19797.37
448.697	20505.97
448.903	20860.27
449.11	21118.31
449.316	20585.84
449.522	21210.47
449.728	21693.79
449.935	21804.38
450.141	21828.96
450.347	22435.16
450.553	21519.71
450.76	21955.93
450.966	23010.64
451.172	22474.07
451.378	23422.28
451.584	22637.91
451.791	23258.44
451.997	22938.96
452.203	23418.18
452.409	23725.38
452.615	23442.76
452.821	22822.22
453.027	22299.99
453.233	23565.64
453.44	22639.95
453.646	22791.5
453.852	23049.55
454.058	23278.92
454.264	22261.08
454.47	23403.85
454.676	22320.47
454.882	23280.97
455.088	21327.21
455.294	21667.17
455.5	21919.07
455.705	22293.85
455.911	21335.4
456.117	20829.55
456.323	20643.18
456.529	19647.87
456.735	20538.74
456.941	19957.11
457.147	20045.18
457.352	19047.82
457.558	18902.41
457.764	18830.73
457.97	18580.88
458.176	18187.67
458.381	18331.03
458.587	17278.37
458.793	17331.62
458.999	16510.38
459.204	17753.5
459.41	17098.15
459.616	15916.47
459.821	16004.53
460.027	15830.46
460.233	15574.46
460.438	14994.89
460.644	14992.84
460.85	14480.85
461.055	14083.54
461.261	14271.95
461.466	13190.63
461.672	12641.77
461.878	13444.57
462.083	12776.94
462.289	12371.44
462.494	12373.49
462.7	11675.13
462.905	11384.32
463.111	12092.91
463.316	11959.8
463.522	11515.39
463.727	11732.47
463.932	11679.22
464.138	11677.18
464.343	11550.2
464.549	11314.69
464.754	11451.9
464.959	11486.72
465.165	11392.51
465.37	10694.15
465.575	10366.48
465.781	11044.35
465.986	10997.25
466.191	10743.3
466.397	10585.61
466.602	10032.66
466.807	10456.59
467.012	10282.51
467.218	10421.77
467.423	10219.02
467.628	10249.74
467.833	10610.18
468.038	10380.81
468.244	9795.09
468.449	10253.84
468.654	10151.44
