Data from USB4F104151__137__14-44-08-386.txt Node

Date: Thu Mar 13 14:44:08 EDT 2025
User: louis
Spectrometer: USB4F10415
Trigger mode: 4
Integration Time (sec): 2.000000E-2
Scans to average: 1
Electric dark correction enabled: true
Nonlinearity correction enabled: false
Boxcar width: 0
XAxis mode: Wavelengths
Number of Pixels in Spectrum: 3648
>>>>>Begin Spectral Data<<<<<
178.204	-149.84
178.424	-149.84
178.644	-149.84
178.864	-164.18
179.084	-12.63
179.304	1.71
179.524	9.9
179.744	-2.39
179.964	38.57
180.184	18.09
180.404	-31.06
180.624	-18.77
180.844	40.62
181.064	13.99
181.283	-37.2
181.503	-57.68
181.723	24.23
181.943	-14.68
182.163	34.47
182.383	38.57
182.602	48.81
182.822	22.19
183.042	26.28
183.262	7.85
183.482	89.77
183.701	48.81
183.921	-4.44
184.141	-2.39
184.361	34.47
184.58	34.47
184.8	87.72
185.02	30.38
185.239	-6.49
185.459	-10.58
185.679	93.87
185.898	7.85
186.118	79.53
186.338	3.75
186.557	108.2
186.777	-18.77
186.997	-8.53
187.216	18.09
187.436	42.67
187.655	71.34
187.875	54.95
188.095	28.33
188.314	-16.73
188.534	52.91
188.753	9.9
188.973	28.33
189.192	71.34
189.412	20.14
189.631	95.91
189.851	18.09
190.07	63.15
190.29	24.23
190.509	20.14
190.729	-10.58
190.948	13.99
191.168	108.2
191.387	18.09
191.607	1.71
191.826	11.95
192.045	-33.11
192.265	-14.68
192.484	5.8
192.704	-4.44
192.923	-18.77
193.142	20.14
193.362	22.19
193.581	46.76
193.8	50.86
194.02	9.9
194.239	26.28
194.458	79.53
194.678	34.47
194.897	91.82
195.116	112.3
195.335	79.53
195.555	24.23
195.774	34.47
195.993	59.05
196.212	38.57
196.432	1.71
196.651	-6.49
196.87	-41.3
197.089	95.91
197.308	46.76
197.528	61.1
197.747	-39.25
197.966	13.99
198.185	26.28
198.404	-10.58
198.623	57
198.842	104.11
199.062	95.91
199.281	13.99
199.5	-49.49
199.719	24.23
199.938	30.38
200.157	22.19
200.376	52.91
200.595	54.95
200.814	13.99
201.033	89.77
201.252	40.62
201.471	-10.58
201.69	9.9
201.909	48.81
202.128	-65.88
202.347	38.57
202.566	-0.34
202.785	-26.96
203.004	-6.49
203.223	63.15
203.442	65.19
203.661	30.38
203.879	57
204.098	30.38
204.317	9.9
204.536	65.19
204.755	-39.25
204.974	-14.68
205.193	75.43
205.411	118.44
205.63	26.28
205.849	1.71
206.068	-14.68
206.287	-16.73
206.505	50.86
206.724	-6.49
206.943	7.85
207.162	26.28
207.381	-10.58
207.599	-18.77
207.818	34.47
208.037	-10.58
208.255	30.38
208.474	-35.16
208.693	89.77
208.911	30.38
209.13	24.23
209.349	9.9
209.567	9.9
209.786	77.48
210.005	48.81
210.223	1.71
210.442	-72.02
210.661	63.15
210.879	30.38
211.098	-8.53
211.316	16.04
211.535	46.76
211.753	26.28
211.972	5.8
212.191	-33.11
212.409	-43.35
212.628	20.14
212.846	34.47
213.065	38.57
213.283	71.34
213.502	-131.41
213.72	38.57
213.938	40.62
214.157	-22.87
214.375	-31.06
214.594	-18.77
214.812	61.1
215.031	38.57
215.249	7.85
215.467	38.57
215.686	-18.77
215.904	9.9
216.122	40.62
216.341	-18.77
216.559	-33.11
216.778	52.91
216.996	-0.34
217.214	9.9
217.432	13.99
217.651	-10.58
217.869	-18.77
218.087	13.99
218.306	34.47
218.524	57
218.742	13.99
218.96	24.23
219.179	-33.11
219.397	40.62
219.615	65.19
219.833	-6.49
220.051	-51.54
220.27	26.28
220.488	138.92
220.706	24.23
220.924	-18.77
221.142	50.86
221.36	22.19
221.578	95.91
221.796	22.19
222.015	28.33
222.233	-18.77
222.451	81.58
222.669	-90.45
222.887	40.62
223.105	-18.77
223.323	46.76
223.541	32.43
223.759	91.82
223.977	26.28
224.195	57
224.413	57
224.631	75.43
224.849	46.76
225.067	7.85
225.285	16.04
225.503	50.86
225.721	-47.44
225.939	20.14
226.157	46.76
226.375	30.38
226.592	-10.58
226.81	7.85
227.028	34.47
227.246	97.96
227.464	-2.39
227.682	-2.39
227.9	42.67
228.117	9.9
228.335	32.43
228.553	-35.16
228.771	7.85
228.989	34.47
229.206	26.28
229.424	24.23
229.642	26.28
229.86	-14.68
230.077	63.15
230.295	-2.39
230.513	65.19
230.731	22.19
230.948	63.15
231.166	95.91
231.384	13.99
231.601	-12.63
231.819	71.34
232.037	11.95
232.254	22.19
232.472	13.99
232.689	104.11
232.907	-2.39
233.125	59.05
233.342	46.76
233.56	-22.87
233.777	9.9
233.995	30.38
234.213	18.09
234.43	1.71
234.648	20.14
234.865	-2.39
235.083	42.67
235.3	13.99
235.518	30.38
235.735	65.19
235.953	38.57
236.17	40.62
236.388	57
236.605	-14.68
236.822	-2.39
237.04	120.49
237.257	22.19
237.475	9.9
237.692	-10.58
237.909	-2.39
238.127	91.82
238.344	83.63
238.562	48.81
238.779	59.05
238.996	-57.68
239.214	18.09
239.431	120.49
239.648	13.99
239.865	-26.96
240.083	7.85
240.3	7.85
240.517	-35.16
240.735	-39.25
240.952	-76.12
241.169	54.95
241.386	22.19
241.603	24.23
241.821	-43.35
242.038	48.81
242.255	59.05
242.472	-18.77
242.689	57
242.907	54.95
243.124	40.62
243.341	48.81
243.558	-6.49
243.775	-22.87
243.992	-35.16
244.209	38.57
244.426	42.67
244.643	46.76
244.86	5.8
245.078	32.43
245.295	42.67
245.512	9.9
245.729	-4.44
245.946	63.15
246.163	22.19
246.38	34.47
246.597	-26.96
246.814	42.67
247.031	77.48
247.248	50.86
247.464	83.63
247.681	16.04
247.898	16.04
248.115	52.91
248.332	-35.16
248.549	26.28
248.766	87.72
248.983	16.04
249.2	20.14
249.417	54.95
249.633	40.62
249.85	30.38
250.067	-45.4
250.284	71.34
250.501	46.76
250.717	34.47
250.934	-63.83
251.151	22.19
251.368	46.76
251.585	61.1
251.801	9.9
252.018	-10.58
252.235	-16.73
252.451	24.23
252.668	3.75
252.885	63.15
253.102	71.34
253.318	-18.77
253.535	-18.77
253.752	9.9
253.968	48.81
254.185	11.95
254.401	63.15
254.618	26.28
254.835	-31.06
255.051	196.26
255.268	32.43
255.484	-26.96
255.701	11.95
255.917	61.1
256.134	-29.01
256.351	-2.39
256.567	-43.35
256.784	-20.82
257	7.85
257.217	85.67
257.433	59.05
257.65	59.05
257.866	63.15
258.082	16.04
258.299	54.95
258.515	9.9
258.732	-18.77
258.948	34.47
259.165	22.19
259.381	-51.54
259.597	-16.73
259.814	-18.77
260.03	-12.63
260.246	13.99
260.463	-18.77
260.679	30.38
260.895	5.8
261.112	63.15
261.328	13.99
261.544	9.9
261.761	5.8
261.977	22.19
262.193	-43.35
262.409	28.33
262.626	57
262.842	50.86
263.058	-6.49
263.274	95.91
263.49	36.52
263.707	-0.34
263.923	48.81
264.139	5.8
264.355	18.09
264.571	67.24
264.787	79.53
265.004	22.19
265.22	13.99
265.436	5.8
265.652	16.04
265.868	67.24
266.084	5.8
266.3	-2.39
266.516	63.15
266.732	-35.16
266.948	-10.58
267.164	104.11
267.38	-18.77
267.596	-20.82
267.812	87.72
268.028	48.81
268.244	-8.53
268.46	95.91
268.676	-26.96
268.892	40.62
269.108	-2.39
269.324	-8.53
269.54	5.8
269.756	-26.96
269.972	9.9
270.188	-37.2
270.403	48.81
270.619	-84.31
270.835	18.09
271.051	-18.77
271.267	65.19
271.483	-14.68
271.698	71.34
271.914	9.9
272.13	-43.35
272.346	-16.73
272.562	32.43
272.777	91.82
272.993	59.05
273.209	-22.87
273.425	38.57
273.64	26.28
273.856	71.34
274.072	-16.73
274.287	11.95
274.503	24.23
274.719	46.76
274.934	26.28
275.15	-16.73
275.366	13.99
275.581	11.95
275.797	44.71
276.012	87.72
276.228	63.15
276.444	-0.34
276.659	54.95
276.875	106.15
277.09	-43.35
277.306	-2.39
277.521	57
277.737	3.75
277.952	5.8
278.168	-2.39
278.383	34.47
278.599	28.33
278.814	104.11
279.03	16.04
279.245	54.95
279.461	22.19
279.676	11.95
279.892	18.09
280.107	-0.34
280.322	22.19
280.538	13.99
280.753	57
280.969	50.86
281.184	54.95
281.399	63.15
281.615	18.09
281.83	67.24
282.045	16.04
282.26	73.39
282.476	30.38
282.691	42.67
282.906	87.72
283.122	71.34
283.337	3.75
283.552	13.99
283.767	-43.35
283.983	36.52
284.198	-10.58
284.413	67.24
284.628	-10.58
284.843	-4.44
285.058	24.23
285.274	1.71
285.489	-69.97
285.704	16.04
285.919	-18.77
286.134	30.38
286.349	-20.82
286.564	5.8
286.779	-2.39
286.995	83.63
287.21	38.57
287.425	97.96
287.64	5.8
287.855	16.04
288.07	-35.16
288.285	71.34
288.5	-16.73
288.715	38.57
288.93	-35.16
289.145	59.05
289.36	-18.77
289.575	71.34
289.79	38.57
290.004	38.57
290.219	46.76
290.434	-10.58
290.649	83.63
290.864	5.8
291.079	52.91
291.294	46.76
291.509	24.23
291.724	5.8
291.938	22.19
292.153	95.91
292.368	-35.16
292.583	5.8
292.798	30.38
293.012	13.99
293.227	87.72
293.442	-2.39
293.657	1.71
293.871	73.39
294.086	65.19
294.301	81.58
294.516	5.8
294.73	106.15
294.945	42.67
295.16	44.71
295.374	22.19
295.589	3.75
295.804	7.85
296.018	5.8
296.233	-43.35
296.447	36.52
296.662	-18.77
296.877	120.49
297.091	48.81
297.306	-0.34
297.52	20.14
297.735	-84.31
297.949	46.76
298.164	46.76
298.378	-26.96
298.593	-43.35
298.807	34.47
299.022	83.63
299.236	132.78
299.451	30.38
299.665	-18.77
299.88	48.81
300.094	9.9
300.309	18.09
300.523	77.48
300.737	-24.92
300.952	-12.63
301.166	13.99
301.381	-2.39
301.595	13.99
301.809	-0.34
302.024	22.19
302.238	-6.49
302.452	48.81
302.667	-2.39
302.881	120.49
303.095	38.57
303.309	-57.68
303.524	38.57
303.738	9.9
303.952	7.85
304.166	65.19
304.381	1.71
304.595	145.06
304.809	54.95
305.023	-24.92
305.237	34.47
305.452	-41.3
305.666	114.34
305.88	11.95
306.094	26.28
306.308	24.23
306.522	67.24
306.736	-35.16
306.95	79.53
307.164	40.62
307.379	28.33
307.593	75.43
307.807	40.62
308.021	42.67
308.235	7.85
308.449	13.99
308.663	-18.77
308.877	132.78
309.091	-0.34
309.305	89.77
309.519	-37.2
309.733	112.3
309.947	16.04
310.161	46.76
310.374	34.47
310.588	26.28
310.802	79.53
311.016	30.38
311.23	-14.68
311.444	38.57
311.658	-35.16
311.872	38.57
312.085	71.34
312.299	95.91
312.513	20.14
312.727	46.76
312.941	-33.11
313.154	-2.39
313.368	36.52
313.582	26.28
313.796	40.62
314.009	38.57
314.223	22.19
314.437	67.24
314.651	54.95
314.864	44.71
315.078	-24.92
315.292	-74.07
315.505	16.04
315.719	-14.68
315.933	24.23
316.146	95.91
316.36	22.19
316.573	50.86
316.787	83.63
317.001	83.63
317.214	1.71
317.428	-18.77
317.641	59.05
317.855	30.38
318.068	1.71
318.282	24.23
318.495	57
318.709	30.38
318.922	44.71
319.136	97.96
319.349	38.57
319.563	-4.44
319.776	67.24
319.99	83.63
320.203	46.76
320.417	38.57
320.63	69.29
320.843	100.01
321.057	77.48
321.27	65.19
321.483	77.48
321.697	93.87
321.91	28.33
322.124	-39.25
322.337	54.95
322.55	36.52
322.763	22.19
322.977	63.15
323.19	42.67
323.403	67.24
323.617	63.15
323.83	5.8
324.043	-39.25
324.256	-24.92
324.469	26.28
324.683	-31.06
324.896	-6.49
325.109	93.87
325.322	-31.06
325.535	-14.68
325.748	28.33
325.962	65.19
326.175	-41.3
326.388	38.57
326.601	20.14
326.814	106.15
327.027	38.57
327.24	106.15
327.453	7.85
327.666	-35.16
327.879	48.81
328.092	50.86
328.305	-72.02
328.518	26.28
328.731	30.38
328.944	91.82
329.157	-4.44
329.37	-22.87
329.583	59.05
329.796	93.87
330.009	-2.39
330.222	95.91
330.435	32.43
330.648	71.34
330.861	93.87
331.073	46.76
331.286	5.8
331.499	26.28
331.712	-20.82
331.925	-22.87
332.138	69.29
332.35	65.19
332.563	36.52
332.776	112.3
332.989	24.23
333.202	-35.16
333.414	-0.34
333.627	16.04
333.84	1.71
334.053	1.71
334.265	79.53
334.478	7.85
334.691	9.9
334.903	26.28
335.116	-18.77
335.329	46.76
335.541	63.15
335.754	36.52
335.966	26.28
336.179	50.86
336.392	52.91
336.604	63.15
336.817	38.57
337.029	83.63
337.242	7.85
337.454	16.04
337.667	-0.34
337.88	91.82
338.092	63.15
338.305	79.53
338.517	59.05
338.729	9.9
338.942	108.2
339.154	44.71
339.367	-35.16
339.579	34.47
339.792	-4.44
340.004	65.19
340.217	40.62
340.429	63.15
340.641	46.76
340.854	7.85
341.066	-8.53
341.278	1.71
341.491	54.95
341.703	13.99
341.915	42.67
342.128	83.63
342.34	-2.39
342.552	5.8
342.764	22.19
342.977	77.48
343.189	30.38
343.401	122.54
343.613	46.76
343.826	95.91
344.038	28.33
344.25	120.49
344.462	-18.77
344.674	79.53
344.886	1.71
345.099	69.29
345.311	87.72
345.523	42.67
345.735	34.47
345.947	-8.53
346.159	3.75
346.371	57
346.583	93.87
346.795	52.91
347.007	-14.68
347.219	61.1
347.431	13.99
347.643	81.58
347.855	5.8
348.067	77.48
348.279	20.14
348.491	57
348.703	-6.49
348.915	32.43
349.127	-26.96
349.339	54.95
349.551	-8.53
349.763	112.3
349.975	22.19
350.187	48.81
350.399	65.19
350.61	32.43
350.822	83.63
351.034	34.47
351.246	81.58
351.458	112.3
351.669	38.57
351.881	61.1
352.093	24.23
352.305	114.34
352.517	71.34
352.728	153.26
352.94	52.91
353.152	81.58
353.363	-76.12
353.575	-6.49
353.787	3.75
353.999	69.29
354.21	106.15
354.422	63.15
354.633	65.19
354.845	71.34
355.057	40.62
355.268	63.15
355.48	54.95
355.692	-10.58
355.903	128.68
356.115	34.47
356.326	-18.77
356.538	34.47
356.749	34.47
356.961	81.58
357.172	32.43
357.384	22.19
357.595	157.35
357.807	11.95
358.018	5.8
358.23	26.28
358.441	38.57
358.653	54.95
358.864	63.15
359.075	-33.11
359.287	-29.01
359.498	-20.82
359.709	-22.87
359.921	83.63
360.132	38.57
360.344	26.28
360.555	-49.49
360.766	69.29
360.977	5.8
361.189	87.72
361.4	-35.16
361.611	46.76
361.823	67.24
362.034	91.82
362.245	-76.12
362.456	79.53
362.667	16.04
362.879	18.09
363.09	-26.96
363.301	13.99
363.512	114.34
363.723	3.75
363.935	63.15
364.146	54.95
364.357	71.34
364.568	-6.49
364.779	-2.39
364.99	7.85
365.201	28.33
365.412	63.15
365.623	-2.39
365.834	11.95
366.045	44.71
366.256	124.58
366.467	79.53
366.678	-16.73
366.889	7.85
367.1	13.99
367.311	124.58
367.522	34.47
367.733	42.67
367.944	30.38
368.155	77.48
368.366	1.71
368.577	79.53
368.788	104.11
368.999	-72.02
369.209	77.48
369.42	147.11
369.631	163.5
369.842	38.57
370.053	-0.34
370.264	54.95
370.474	54.95
370.685	32.43
370.896	-35.16
371.107	13.99
371.317	34.47
371.528	7.85
371.739	59.05
371.95	75.43
372.16	87.72
372.371	-8.53
372.582	-31.06
372.792	75.43
373.003	44.71
373.214	79.53
373.424	54.95
373.635	18.09
373.846	104.11
374.056	50.86
374.267	-8.53
374.477	54.95
374.688	30.38
374.898	1.71
375.109	34.47
375.319	79.53
375.53	73.39
375.74	34.47
375.951	-20.82
376.161	22.19
376.372	34.47
376.582	24.23
376.793	-0.34
377.003	63.15
377.214	30.38
377.424	120.49
377.635	-12.63
377.845	-22.87
378.055	24.23
378.266	5.8
378.476	61.1
378.686	34.47
378.897	104.11
379.107	38.57
379.317	22.19
379.528	38.57
379.738	65.19
379.948	42.67
380.158	30.38
380.369	42.67
380.579	24.23
380.789	95.91
380.999	40.62
381.21	26.28
381.42	126.63
381.63	46.76
381.84	-16.73
382.05	59.05
382.261	48.81
382.471	46.76
382.681	5.8
382.891	52.91
383.101	65.19
383.311	46.76
383.521	112.3
383.731	40.62
383.941	71.34
384.151	-31.06
384.361	-6.49
384.571	48.81
384.781	-31.06
384.991	22.19
385.201	128.68
385.411	81.58
385.621	30.38
385.831	34.47
386.041	87.72
386.251	1.71
386.461	65.19
386.671	48.81
386.881	24.23
387.091	1.71
387.301	79.53
387.511	97.96
387.72	89.77
387.93	-39.25
388.14	97.96
388.35	54.95
388.56	69.29
388.769	69.29
388.979	-24.92
389.189	-33.11
389.399	30.38
389.609	67.24
389.818	38.57
390.028	104.11
390.238	81.58
390.447	26.28
390.657	50.86
390.867	59.05
391.076	24.23
391.286	79.53
391.496	104.11
391.705	50.86
391.915	71.34
392.125	50.86
392.334	54.95
392.544	20.14
392.753	57
392.963	24.23
393.172	89.77
393.382	65.19
393.591	120.49
393.801	93.87
394.01	155.3
394.22	87.72
394.429	71.34
394.639	-6.49
394.848	63.15
395.058	81.58
395.267	63.15
395.477	163.5
395.686	163.5
395.895	75.43
396.105	153.26
396.314	34.47
396.524	22.19
396.733	87.72
396.942	122.54
397.152	28.33
397.361	106.15
397.57	42.67
397.78	100.01
397.989	120.49
398.198	186.02
398.407	36.52
398.617	81.58
398.826	73.39
399.035	102.06
399.244	136.87
399.453	100.01
399.663	63.15
399.872	153.26
400.081	-16.73
400.29	128.68
400.499	54.95
400.708	79.53
400.917	26.28
401.127	147.11
401.336	71.34
401.545	138.92
401.754	128.68
401.963	153.26
402.172	54.95
402.381	102.06
402.59	81.58
402.799	112.3
403.008	145.06
403.217	73.39
403.426	81.58
403.635	89.77
403.844	54.95
404.053	79.53
404.262	69.29
404.471	204.46
404.68	177.83
404.888	126.63
405.097	165.54
405.306	79.53
405.515	81.58
405.724	169.64
405.933	65.19
406.142	108.2
406.35	147.11
406.559	104.11
406.768	116.39
406.977	226.98
407.185	153.26
407.394	157.35
407.603	229.03
407.812	196.26
408.02	226.98
408.229	186.02
408.438	222.89
408.646	251.56
408.855	243.37
409.064	216.74
409.272	165.54
409.481	267.94
409.69	171.69
409.898	278.18
410.107	214.7
410.315	259.75
410.524	280.23
410.733	247.46
410.941	290.47
411.15	333.48
411.358	292.52
411.567	366.25
411.775	343.72
411.984	317.09
412.192	374.44
412.401	435.88
412.609	448.16
412.818	427.68
413.026	513.7
413.234	376.48
413.443	450.21
413.651	489.12
413.86	458.4
414.068	612
414.276	546.47
414.485	554.66
414.693	552.61
414.901	605.86
415.11	663.2
415.318	661.15
415.526	579.23
415.734	638.62
415.943	728.74
416.151	749.22
416.359	685.73
416.567	726.69
416.776	771.74
416.984	923.29
417.192	870.05
417.4	800.41
417.608	851.61
417.817	890.53
418.025	1013.4
418.233	1009.31
418.441	1003.16
418.649	988.83
418.857	1107.61
419.065	1185.43
419.273	1218.2
419.481	1222.3
419.689	1169.05
419.897	1359.51
420.105	1326.74
420.313	1308.31
420.521	1402.52
420.729	1472.15
420.937	1480.34
421.145	1515.16
421.353	1644.18
421.561	1588.88
421.769	1668.75
421.977	1719.95
422.185	1795.73
422.393	1791.63
422.601	1961.61
422.809	1939.09
423.017	1939.09
423.224	2168.46
423.432	2145.93
423.64	2250.38
423.848	2330.25
424.056	2170.51
424.263	2506.37
424.471	2442.89
424.679	2469.51
424.887	2569.86
425.094	2772.61
425.302	2694.79
425.51	2864.77
425.718	2924.16
425.925	2961.02
426.133	3102.33
426.341	3159.67
426.548	3260.02
426.756	3364.47
426.964	3423.86
427.171	3618.42
427.379	3780.21
427.586	3794.54
427.794	3845.74
428.001	3960.43
428.209	4308.58
428.417	4193.9
428.624	4464.23
428.832	4572.77
429.039	4437.61
429.247	4472.42
429.454	4814.43
429.662	5056.09
429.869	4847.2
430.076	5305.95
430.284	5160.54
430.491	5269.08
430.699	5551.7
430.906	5604.95
431.114	5590.61
431.321	5832.27
431.528	6057.55
431.736	6162
431.943	6407.75
432.15	6538.82
432.358	6641.22
432.565	6794.82
432.772	6725.19
432.979	7315
433.187	7460.41
433.394	7149.12
433.601	7632.44
433.808	7657.01
434.016	7689.78
434.223	8228.4
434.43	8660.52
434.637	8515.11
434.844	8943.14
435.052	8988.19
435.259	9209.37
435.466	9258.53
435.673	9037.34
435.88	9809.43
436.087	10106.38
436.294	10202.64
436.501	9764.37
436.708	10010.13
436.915	10397.2
437.122	10665.48
437.329	10827.27
437.537	11251.2
437.743	11439.61
437.95	11314.69
438.157	12000.76
438.364	12367.34
438.571	12203.5
438.778	12295.66
438.985	13655.51
439.192	12916.2
439.399	13401.57
439.606	12879.33
439.813	13882.84
440.02	14702.03
440.227	14263.76
440.433	14159.31
440.64	14775.75
440.847	14511.57
441.054	14783.95
441.261	15801.79
441.467	15926.71
441.674	16041.4
441.881	16752.04
442.088	16471.47
442.294	16291.25
442.501	16870.83
442.708	17089.96
442.914	17964.44
443.121	18648.46
443.328	18046.36
443.534	19379.59
443.741	18810.25
443.948	18644.37
444.154	19910.01
444.361	19774.84
444.568	19860.86
444.774	19731.84
444.981	20223.35
445.187	20788.59
445.394	21611.87
445.6	21249.38
445.807	23379.27
446.013	22271.32
446.22	22811.98
446.426	23475.52
446.633	23756.1
446.839	24655.15
447.046	23883.07
447.252	24919.34
447.459	24874.29
447.665	24888.62
447.871	25924.9
448.078	26854.67
448.284	25978.14
448.491	26658.07
448.697	27542.79
448.903	28151.04
449.11	28216.57
449.316	27772.16
449.522	27892.99
449.728	29046
449.935	29304.04
450.141	29146.35
450.347	29822.18
450.553	28853.49
450.76	29191.41
450.966	30291.16
451.172	29629.67
451.378	30354.65
451.584	30211.29
451.791	30620.89
451.997	30561.5
452.203	31608.01
452.409	31270.09
452.615	30819.54
452.821	29768.93
453.027	29549.8
453.233	31214.8
453.44	29932.77
453.646	30448.86
453.852	30305.5
454.058	31290.57
454.264	29648.1
454.47	30715.09
454.676	29938.91
454.882	30641.37
455.088	28222.72
455.294	28767.48
455.5	29132.01
455.705	29656.29
455.911	27979.01
456.117	28253.44
456.323	27690.24
456.529	26000.67
456.735	27337.99
456.941	26592.53
457.147	26377.5
457.352	25660.71
457.558	25337.13
457.764	24976.69
457.97	24884.53
458.176	24360.25
458.381	24106.3
458.587	23133.51
458.793	23055.69
458.999	21802.33
459.204	23641.41
459.41	22953.29
459.616	21202.28
459.821	21175.66
460.027	21392.74
460.233	20739.44
460.438	19813.76
460.644	20018.55
460.85	19232.13
461.055	18611.6
461.261	18703.76
461.466	17317.28
461.672	16821.67
461.878	17888.67
462.083	16971.18
462.289	16391.6
462.494	16315.83
462.7	15797.69
462.905	15254.98
463.111	16004.53
463.316	15852.98
463.522	15447.49
463.727	15410.62
463.932	15590.84
464.138	15510.97
464.343	15386.05
464.549	15072.71
464.754	15566.27
464.959	15099.33
465.165	15023.56
465.37	14546.38
465.575	14280.14
465.781	14689.74
465.986	14796.23
466.191	14065.11
466.397	13977.05
466.602	13553.12
466.807	13661.66
467.012	13759.96
467.218	13532.64
467.423	13475.29
467.628	13524.44
467.833	14163.41
468.038	13757.91
