Data from USB4F104151__126__14-44-00-888.txt Node

Date: Thu Mar 13 14:44:00 EDT 2025
User: louis
Spectrometer: USB4F10415
Trigger mode: 4
Integration Time (sec): 2.000000E-2
Scans to average: 1
Electric dark correction enabled: true
Nonlinearity correction enabled: false
Boxcar width: 0
XAxis mode: Wavelengths
Number of Pixels in Spectrum: 3648
>>>>>Begin Spectral Data<<<<<
178.204	-91.99
178.424	-91.99
178.644	-91.99
178.864	-104.28
179.084	-169.81
179.304	-20.31
179.524	43.18
179.744	-53.08
179.964	43.18
180.184	34.99
180.404	-22.36
180.624	-53.08
180.844	-10.07
181.064	61.61
181.283	39.08
181.503	-42.84
181.723	-20.31
181.943	-30.55
182.163	28.84
182.383	-30.55
182.602	0.17
182.822	53.42
183.042	0.17
183.262	-77.65
183.482	10.41
183.701	14.51
183.921	22.7
184.141	28.84
184.361	37.03
184.58	-36.69
184.8	67.75
185.02	10.41
185.239	84.14
185.459	-8.02
185.679	10.41
185.898	-65.36
186.118	28.84
186.338	45.23
186.557	45.23
186.777	51.37
186.997	41.13
187.216	67.75
187.436	108.71
187.655	4.27
187.875	-14.17
188.095	6.31
188.314	53.42
188.534	45.23
188.753	80.04
188.973	53.42
189.192	82.09
189.412	4.27
189.631	51.37
189.851	-10.07
190.07	20.65
190.29	-14.17
190.509	-5.97
190.729	-57.17
190.948	34.99
191.168	164.01
191.387	18.6
191.607	4.27
191.826	51.37
192.045	39.08
192.265	39.08
192.484	18.6
192.704	-18.26
192.923	-3.93
193.142	69.8
193.362	-30.55
193.581	37.03
193.8	102.57
194.02	61.61
194.239	34.99
194.458	55.47
194.678	-5.97
194.897	39.08
195.116	43.18
195.335	-14.17
195.555	26.79
195.774	2.22
195.993	63.66
196.212	-1.88
196.432	30.89
196.651	-22.36
196.87	-30.55
197.089	63.66
197.308	47.27
197.528	84.14
197.747	-10.07
197.966	30.89
198.185	28.84
198.404	96.43
198.623	10.41
198.842	26.79
199.062	51.37
199.281	100.52
199.5	10.41
199.719	-5.97
199.938	37.03
200.157	51.37
200.376	43.18
200.595	67.75
200.814	26.79
201.033	69.8
201.252	92.33
201.471	-28.5
201.69	-53.08
201.909	61.61
202.128	24.75
202.347	-5.97
202.566	37.03
202.785	30.89
203.004	-46.93
203.223	57.51
203.442	-20.31
203.661	43.18
203.879	0.17
204.098	-5.97
204.317	-46.93
204.536	-14.17
204.755	34.99
204.974	-22.36
205.193	61.61
205.411	43.18
205.63	53.42
205.849	34.99
206.068	59.56
206.287	6.31
206.505	43.18
206.724	37.03
206.943	77.99
207.162	-3.93
207.381	-48.98
207.599	59.56
207.818	37.03
208.037	-12.12
208.255	51.37
208.474	84.14
208.693	-59.22
208.911	32.94
209.13	18.6
209.349	-18.26
209.567	-1.88
209.786	22.7
210.005	18.6
210.223	26.79
210.442	-5.97
210.661	30.89
210.879	-20.31
211.098	28.84
211.316	71.85
211.535	43.18
211.753	-1.88
211.972	-14.17
212.191	-34.64
212.409	12.46
212.628	65.71
212.846	-3.93
213.065	26.79
213.283	43.18
213.502	59.56
213.72	125.1
213.938	-12.12
214.157	-10.07
214.375	63.66
214.594	-5.97
214.812	-12.12
215.031	-10.07
215.249	2.22
215.467	-30.55
215.686	-5.97
215.904	92.33
216.122	37.03
216.341	12.46
216.559	-10.07
216.778	108.71
216.996	20.65
217.214	69.8
217.432	-8.02
217.651	39.08
217.869	47.27
218.087	8.36
218.306	55.47
218.524	67.75
218.742	34.99
218.96	10.41
219.179	67.75
219.397	26.79
219.615	82.09
219.833	-3.93
220.051	59.56
220.27	26.79
220.488	86.19
220.706	43.18
220.924	2.22
221.142	59.56
221.36	14.51
221.578	-1.88
221.796	69.8
222.015	10.41
222.233	-3.93
222.451	-3.93
222.669	-12.12
222.887	12.46
223.105	39.08
223.323	-71.51
223.541	59.56
223.759	-59.22
223.977	-44.88
224.195	59.56
224.413	75.95
224.631	26.79
224.849	-36.69
225.067	84.14
225.285	30.89
225.503	-3.93
225.721	-12.12
225.939	-40.79
226.157	-22.36
226.375	100.52
226.592	4.27
226.81	-36.69
227.028	59.56
227.246	92.33
227.464	51.37
227.682	75.95
227.9	0.17
228.117	77.99
228.335	16.55
228.553	80.04
228.771	-5.97
228.989	-59.22
229.206	47.27
229.424	34.99
229.642	32.94
229.86	2.22
230.077	-20.31
230.295	4.27
230.513	28.84
230.731	84.14
230.948	-10.07
231.166	26.79
231.384	-20.31
231.601	39.08
231.819	116.9
232.037	-18.26
232.254	26.79
232.472	41.13
232.689	4.27
232.907	30.89
233.125	55.47
233.342	14.51
233.56	-36.69
233.777	47.27
233.995	-24.4
234.213	45.23
234.43	6.31
234.648	34.99
234.865	-24.4
235.083	-8.02
235.3	45.23
235.518	-46.93
235.735	84.14
235.953	28.84
236.17	-5.97
236.388	-30.55
236.605	34.99
236.822	51.37
237.04	-3.93
237.257	84.14
237.475	-14.17
237.692	-40.79
237.909	80.04
238.127	20.65
238.344	104.62
238.562	20.65
238.779	28.84
238.996	0.17
239.214	34.99
239.431	22.7
239.648	-67.41
239.865	55.47
240.083	-63.32
240.3	55.47
240.517	26.79
240.735	32.94
240.952	71.85
241.169	26.79
241.386	26.79
241.603	-100.18
241.821	-46.93
242.038	28.84
242.255	55.47
242.472	-5.97
242.689	26.79
242.907	-1.88
243.124	20.65
243.341	45.23
243.558	37.03
243.775	-51.03
243.992	-51.03
244.209	-14.17
244.426	77.99
244.643	69.8
244.86	-24.4
245.078	43.18
245.295	-18.26
245.512	-3.93
245.729	-5.97
245.946	71.85
246.163	10.41
246.38	-63.32
246.597	20.65
246.814	86.19
247.031	-5.97
247.248	61.61
247.464	-5.97
247.681	20.65
247.898	10.41
248.115	37.03
248.332	-26.45
248.549	92.33
248.766	102.57
248.983	0.17
249.2	28.84
249.417	51.37
249.633	-26.45
249.85	61.61
250.067	-14.17
250.284	14.51
250.501	24.75
250.717	53.42
250.934	34.99
251.151	12.46
251.368	18.6
251.585	16.55
251.801	92.33
252.018	-38.74
252.235	32.94
252.451	34.99
252.668	34.99
252.885	121
253.102	45.23
253.318	84.14
253.535	18.6
253.752	47.27
253.968	14.51
254.185	-10.07
254.401	75.95
254.618	51.37
254.835	-14.17
255.051	131.24
255.268	20.65
255.484	-46.93
255.701	-38.74
255.917	77.99
256.134	-63.32
256.351	71.85
256.567	-69.46
256.784	-3.93
257	-61.27
257.217	16.55
257.433	55.47
257.65	71.85
257.866	-26.45
258.082	-28.5
258.299	10.41
258.515	75.95
258.732	-120.66
258.948	39.08
259.165	14.51
259.381	14.51
259.597	63.66
259.814	71.85
260.03	26.79
260.246	67.75
260.463	67.75
260.679	51.37
260.895	14.51
261.112	45.23
261.328	2.22
261.544	34.99
261.761	69.8
261.977	67.75
262.193	43.18
262.409	61.61
262.626	45.23
262.842	-18.26
263.058	10.41
263.274	59.56
263.49	14.51
263.707	26.79
263.923	63.66
264.139	102.57
264.355	4.27
264.571	18.6
264.787	26.79
265.004	51.37
265.22	47.27
265.436	59.56
265.652	-28.5
265.868	-12.12
266.084	-46.93
266.3	-44.88
266.516	43.18
266.732	53.42
266.948	-53.08
267.164	137.38
267.38	22.7
267.596	30.89
267.812	18.6
268.028	-3.93
268.244	32.94
268.46	37.03
268.676	20.65
268.892	34.99
269.108	-8.02
269.324	43.18
269.54	10.41
269.756	94.38
269.972	30.89
270.188	53.42
270.403	8.36
270.619	-12.12
270.835	24.75
271.051	43.18
271.267	14.51
271.483	32.94
271.698	-14.17
271.914	94.38
272.13	12.46
272.346	2.22
272.562	18.6
272.777	34.99
272.993	77.99
273.209	4.27
273.425	43.18
273.64	-59.22
273.856	57.51
274.072	-18.26
274.287	59.56
274.503	22.7
274.719	61.61
274.934	-20.31
275.15	-38.74
275.366	39.08
275.581	14.51
275.797	-12.12
276.012	10.41
276.228	30.89
276.444	22.7
276.659	77.99
276.875	-3.93
277.09	80.04
277.306	-3.93
277.521	63.66
277.737	41.13
277.952	55.47
278.168	-36.69
278.383	22.7
278.599	18.6
278.814	53.42
279.03	-22.36
279.245	2.22
279.461	55.47
279.676	4.27
279.892	10.41
280.107	69.8
280.322	104.62
280.538	92.33
280.753	18.6
280.969	14.51
281.184	30.89
281.399	28.84
281.615	16.55
281.83	37.03
282.045	-3.93
282.26	-22.36
282.476	-14.17
282.691	34.99
282.906	-16.21
283.122	4.27
283.337	28.84
283.552	34.99
283.767	-3.93
283.983	53.42
284.198	-1.88
284.413	69.8
284.628	-34.64
284.843	26.79
285.058	71.85
285.274	-18.26
285.489	86.19
285.704	20.65
285.919	59.56
286.134	88.23
286.349	-20.31
286.564	53.42
286.779	112.81
286.995	12.46
287.21	4.27
287.425	0.17
287.64	-5.97
287.855	53.42
288.07	-38.74
288.285	80.04
288.5	10.41
288.715	61.61
288.93	26.79
289.145	-28.5
289.36	59.56
289.575	34.99
289.79	-8.02
290.004	-12.12
290.219	-30.55
290.434	59.56
290.649	22.7
290.864	-28.5
291.079	12.46
291.294	30.89
291.509	12.46
291.724	88.23
291.938	59.56
292.153	-8.02
292.368	-3.93
292.583	45.23
292.798	26.79
293.012	26.79
293.227	4.27
293.442	10.41
293.657	92.33
293.871	80.04
294.086	12.46
294.301	67.75
294.516	55.47
294.73	26.79
294.945	75.95
295.16	-3.93
295.374	34.99
295.589	6.31
295.804	-12.12
296.018	80.04
296.233	28.84
296.447	75.95
296.662	-36.69
296.877	92.33
297.091	22.7
297.306	61.61
297.52	45.23
297.735	47.27
297.949	-5.97
298.164	55.47
298.378	-28.5
298.593	-30.55
298.807	34.99
299.022	10.41
299.236	88.23
299.451	-36.69
299.665	14.51
299.88	59.56
300.094	-10.07
300.309	43.18
300.523	59.56
300.737	2.22
300.952	14.51
301.166	-10.07
301.381	82.09
301.595	45.23
301.809	63.66
302.024	-5.97
302.238	73.9
302.452	125.1
302.667	14.51
302.881	77.99
303.095	6.31
303.309	-46.93
303.524	28.84
303.738	-28.5
303.952	-1.88
304.166	10.41
304.381	-77.65
304.595	90.28
304.809	-18.26
305.023	61.61
305.237	39.08
305.452	20.65
305.666	75.95
305.88	39.08
306.094	43.18
306.308	2.22
306.522	61.61
306.736	12.46
306.95	65.71
307.164	10.41
307.379	-26.45
307.593	59.56
307.807	53.42
308.021	28.84
308.235	51.37
308.449	-22.36
308.663	18.6
308.877	127.14
309.091	-10.07
309.305	75.95
309.519	-46.93
309.733	75.95
309.947	10.41
310.161	18.6
310.374	63.66
310.588	84.14
310.802	-1.88
311.016	-10.07
311.23	86.19
311.444	53.42
311.658	6.31
311.872	39.08
312.085	75.95
312.299	49.32
312.513	108.71
312.727	39.08
312.941	55.47
313.154	32.94
313.368	-30.55
313.582	43.18
313.796	22.7
314.009	-3.93
314.223	57.51
314.437	57.51
314.651	-3.93
314.864	61.61
315.078	53.42
315.292	-28.5
315.505	18.6
315.719	71.85
315.933	34.99
316.146	-38.74
316.36	55.47
316.573	61.61
316.787	100.52
317.001	-3.93
317.214	12.46
317.428	37.03
317.641	8.36
317.855	-14.17
318.068	71.85
318.282	4.27
318.495	90.28
318.709	10.41
318.922	43.18
319.136	71.85
319.349	39.08
319.563	30.89
319.776	-20.31
319.99	-104.28
320.203	39.08
320.417	67.75
320.63	26.79
320.843	110.76
321.057	67.75
321.27	14.51
321.483	63.66
321.697	75.95
321.91	37.03
322.124	59.56
322.337	112.81
322.55	53.42
322.763	30.89
322.977	22.7
323.19	28.84
323.403	77.99
323.617	75.95
323.83	2.22
324.043	43.18
324.256	-20.31
324.469	2.22
324.683	67.75
324.896	63.66
325.109	2.22
325.322	10.41
325.535	18.6
325.748	61.61
325.962	51.37
326.175	18.6
326.388	-22.36
326.601	67.75
326.814	32.94
327.027	61.61
327.24	125.1
327.453	-12.12
327.666	30.89
327.879	-10.07
328.092	67.75
328.305	-5.97
328.518	18.6
328.731	6.31
328.944	51.37
329.157	116.9
329.37	57.51
329.583	67.75
329.796	67.75
330.009	26.79
330.222	92.33
330.435	37.03
330.648	75.95
330.861	92.33
331.073	75.95
331.286	2.22
331.499	51.37
331.712	-18.26
331.925	34.99
332.138	-12.12
332.35	6.31
332.563	39.08
332.776	2.22
332.989	-22.36
333.202	-22.36
333.414	-10.07
333.627	-10.07
333.84	-10.07
334.053	-12.12
334.265	-55.12
334.478	4.27
334.691	34.99
334.903	26.79
335.116	-38.74
335.329	20.65
335.541	104.62
335.754	59.56
335.966	-10.07
336.179	71.85
336.392	34.99
336.604	84.14
336.817	110.76
337.029	69.8
337.242	22.7
337.454	-12.12
337.667	-10.07
337.88	125.1
338.092	-14.17
338.305	127.14
338.517	-5.97
338.729	51.37
338.942	47.27
339.154	20.65
339.367	14.51
339.579	2.22
339.792	30.89
340.004	10.41
340.217	10.41
340.429	-3.93
340.641	-24.4
340.854	-10.07
341.066	22.7
341.278	34.99
341.491	28.84
341.703	102.57
341.915	-14.17
342.128	59.56
342.34	94.38
342.552	-51.03
342.764	12.46
342.977	-20.31
343.189	-26.45
343.401	-12.12
343.613	-24.4
343.826	43.18
344.038	-38.74
344.25	102.57
344.462	-34.64
344.674	-14.17
344.886	12.46
345.099	-3.93
345.311	75.95
345.523	-1.88
345.735	39.08
345.947	39.08
346.159	-12.12
346.371	22.7
346.583	63.66
346.795	114.86
347.007	-46.93
347.219	28.84
347.431	-38.74
347.643	57.51
347.855	-28.5
348.067	67.75
348.279	-30.55
348.491	43.18
348.703	69.8
348.915	34.99
349.127	26.79
349.339	41.13
349.551	30.89
349.763	39.08
349.975	-22.36
350.187	86.19
350.399	92.33
350.61	18.6
350.822	8.36
351.034	100.52
351.246	30.89
351.458	-5.97
351.669	4.27
351.881	65.71
352.093	51.37
352.305	71.85
352.517	55.47
352.728	94.38
352.94	75.95
353.152	67.75
353.363	43.18
353.575	80.04
353.787	57.51
353.999	45.23
354.21	94.38
354.422	39.08
354.633	34.99
354.845	84.14
355.057	59.56
355.268	121
355.48	45.23
355.692	-20.31
355.903	0.17
356.115	47.27
356.326	37.03
356.538	125.1
356.749	59.56
356.961	80.04
357.172	84.14
357.384	67.75
357.595	127.14
357.807	34.99
358.018	-14.17
358.23	100.52
358.441	106.67
358.653	92.33
358.864	37.03
359.075	18.6
359.287	59.56
359.498	96.43
359.709	26.79
359.921	108.71
360.132	69.8
360.344	59.56
360.555	102.57
360.766	43.18
360.977	4.27
361.189	-44.88
361.4	43.18
361.611	53.42
361.823	84.14
362.034	100.52
362.245	-20.31
362.456	2.22
362.667	43.18
362.879	-20.31
363.09	20.65
363.301	57.51
363.512	-1.88
363.723	26.79
363.935	63.66
364.146	16.55
364.357	45.23
364.568	53.42
364.779	22.7
364.99	80.04
365.201	32.94
365.412	71.85
365.623	-12.12
365.834	51.37
366.045	73.9
366.256	53.42
366.467	34.99
366.678	51.37
366.889	2.22
367.1	57.51
367.311	55.47
367.522	51.37
367.733	55.47
367.944	108.71
368.155	12.46
368.366	43.18
368.577	22.7
368.788	67.75
368.999	-3.93
369.209	28.84
369.42	80.04
369.631	94.38
369.842	8.36
370.053	-46.93
370.264	53.42
370.474	-14.17
370.685	22.7
370.896	69.8
371.107	84.14
371.317	104.62
371.528	-5.97
371.739	26.79
371.95	14.51
372.16	10.41
372.371	-5.97
372.582	86.19
372.792	39.08
373.003	69.8
373.214	10.41
373.424	6.31
373.635	77.99
373.846	77.99
374.056	34.99
374.267	-1.88
374.477	41.13
374.688	39.08
374.898	67.75
375.109	53.42
375.319	30.89
375.53	100.52
375.74	82.09
375.951	28.84
376.161	28.84
376.372	84.14
376.582	45.23
376.793	100.52
377.003	-10.07
377.214	4.27
377.424	133.29
377.635	82.09
377.845	28.84
378.055	73.9
378.266	-14.17
378.476	18.6
378.686	18.6
378.897	80.04
379.107	84.14
379.317	51.37
379.528	-3.93
379.738	67.75
379.948	-1.88
380.158	43.18
380.369	8.36
380.579	-32.6
380.789	20.65
380.999	51.37
381.21	90.28
381.42	143.53
381.63	71.85
381.84	116.9
382.05	86.19
382.261	34.99
382.471	-30.55
382.681	108.71
382.891	67.75
383.101	77.99
383.311	-22.36
383.521	-24.4
383.731	92.33
383.941	34.99
384.151	-18.26
384.361	37.03
384.571	71.85
384.781	75.95
384.991	141.48
385.201	145.58
385.411	28.84
385.621	-59.22
385.831	-22.36
386.041	26.79
386.251	37.03
386.461	100.52
386.671	2.22
386.881	45.23
387.091	118.95
387.301	59.56
387.511	18.6
387.72	157.86
387.93	30.89
388.14	14.51
388.35	61.61
388.56	37.03
388.769	61.61
388.979	28.84
389.189	2.22
389.399	69.8
389.609	-5.97
389.818	59.56
390.028	-61.27
390.238	-22.36
390.447	-26.45
390.657	133.29
390.867	10.41
391.076	116.9
391.286	67.75
391.496	92.33
391.705	116.9
391.915	116.9
392.125	41.13
392.334	75.95
392.544	61.61
392.753	88.23
392.963	108.71
393.172	69.8
393.382	-3.93
393.591	75.95
393.801	75.95
394.01	133.29
394.22	100.52
394.429	39.08
394.639	84.14
394.848	51.37
395.058	34.99
395.267	-40.79
395.477	18.6
395.686	127.14
395.895	100.52
396.105	155.82
396.314	43.18
396.524	86.19
396.733	67.75
396.942	67.75
397.152	-3.93
397.361	157.86
397.57	47.27
397.78	16.55
397.989	-5.97
398.198	166.06
398.407	67.75
398.617	92.33
398.826	100.52
399.035	77.99
399.244	135.34
399.453	104.62
399.663	121
399.872	84.14
400.081	4.27
400.29	155.82
400.499	57.51
400.708	141.48
400.917	125.1
401.127	53.42
401.336	8.36
401.545	145.58
401.754	96.43
401.963	174.25
402.172	153.77
402.381	96.43
402.59	112.81
402.799	141.48
403.008	135.34
403.217	141.48
403.426	45.23
403.635	104.62
403.844	114.86
404.053	110.76
404.262	67.75
404.471	192.68
404.68	110.76
404.888	215.21
405.097	110.76
405.306	172.2
405.515	235.69
405.724	133.29
405.933	229.54
406.142	200.87
406.35	141.48
406.559	190.63
406.768	127.14
406.977	209.06
407.185	135.34
407.394	282.79
407.603	207.02
407.812	198.82
408.02	215.21
408.229	184.49
408.438	161.96
408.646	198.82
408.855	250.02
409.064	284.84
409.272	252.07
409.481	290.98
409.69	280.74
409.898	231.59
410.107	321.7
410.315	272.55
410.524	342.18
410.733	387.24
410.941	411.81
411.15	362.66
411.358	399.52
411.567	379.04
411.775	452.77
411.984	411.81
412.192	463.01
412.401	508.07
412.609	471.2
412.818	538.79
413.026	493.73
413.234	510.11
413.443	495.78
413.651	546.98
413.86	542.88
414.068	622.75
414.276	682.14
414.485	616.61
414.693	618.66
414.901	710.82
415.11	735.39
415.318	764.06
415.526	764.06
415.734	653.47
415.943	741.54
416.151	805.02
416.359	800.93
416.567	878.75
416.776	895.13
416.984	911.52
417.192	1030.3
417.4	899.23
417.608	1001.63
417.817	1095.83
418.025	1097.88
418.233	1046.68
418.441	1130.65
418.649	1218.71
418.857	1247.38
419.065	1306.77
419.273	1271.96
419.481	1345.69
419.689	1448.08
419.897	1542.29
420.105	1484.95
420.313	1562.77
420.521	1587.35
420.729	1693.84
420.937	1755.28
421.145	1763.47
421.353	1890.45
421.561	1962.12
421.769	1947.79
421.977	2087.05
422.185	2085
422.393	2123.91
422.601	2230.41
422.809	2181.26
423.017	2345.09
423.224	2414.73
423.432	2533.51
423.64	2578.56
423.848	2689.15
424.056	2599.04
424.263	2832.51
424.471	2836.61
424.679	2904.19
424.887	3012.73
425.094	3088.51
425.302	2992.25
425.51	3229.82
425.718	3381.37
425.925	3461.24
426.133	3582.07
426.341	3729.52
426.548	3821.68
426.756	3913.84
426.964	3960.94
427.171	4163.69
427.379	4231.27
427.586	4302.95
427.794	4501.61
428.001	4573.28
428.209	4855.9
428.417	4929.63
428.624	5183.58
428.832	5240.92
429.039	5091.42
429.247	5044.32
429.454	5683.28
429.662	5888.08
429.869	5675.09
430.076	5933.14
430.284	5736.53
430.491	6324.3
430.699	6363.21
430.906	6385.74
431.114	6563.91
431.321	6862.91
431.528	6813.76
431.736	7276.6
431.943	7684.15
432.15	7270.46
432.358	7379
432.565	7917.62
432.772	7960.63
432.979	8155.18
433.187	8343.6
433.394	8568.87
433.601	9011.23
433.808	8906.79
434.016	9048.1
434.223	9459.74
434.43	9865.24
434.637	9754.65
434.844	10252.3
435.052	10571.79
435.259	10491.91
435.466	10532.87
435.673	10389.52
435.88	11055.11
436.087	11782.13
436.294	11730.94
436.501	11339.77
436.708	11636.73
436.915	11978.74
437.122	12701.67
437.329	12548.08
437.537	13058.02
437.743	13162.47
437.95	13060.07
438.157	13608.92
438.364	14231.51
438.571	14043.09
438.778	14542.8
438.985	15605.69
439.192	14972.87
439.399	15480.77
439.606	15081.41
439.813	16039.86
440.02	16904.1
440.227	16672.68
440.433	16426.93
440.64	17145.77
440.847	16826.28
441.054	17280.93
441.261	18261.91
441.467	18182.04
441.674	18532.24
441.881	19285.89
442.088	19120.01
442.294	18993.03
442.501	19310.47
442.708	19566.46
442.914	20461.43
443.121	21751.65
443.328	20844.4
443.534	22413.14
443.741	21677.92
443.948	21321.57
444.154	23043.92
444.361	22617.94
444.568	22959.95
444.774	22667.09
444.981	22982.48
445.187	23768.9
445.394	24807.22
445.6	24571.7
445.807	26810.13
446.013	25800.48
446.22	25923.36
446.426	27234.06
446.633	27735.81
446.839	28511.99
447.046	27023.12
447.252	28667.64
447.459	28962.54
447.665	28854
447.871	29710.05
448.078	31243.98
448.284	29501.16
448.491	30643.93
448.697	32020.16
448.903	32042.69
449.11	32421.56
449.316	31643.34
449.522	32222.91
449.728	33621.67
449.935	33590.95
450.141	33627.82
450.347	34231.97
450.553	33683.11
450.76	33859.24
450.966	34436.77
451.172	34248.35
451.378	35544.72
451.584	34424.48
451.791	35507.85
451.997	35552.91
452.203	36036.23
452.409	35729.03
452.615	36157.06
452.821	34553.5
453.027	34113.19
453.233	36169.35
453.44	34586.27
453.646	34756.25
453.852	35264.14
454.058	35567.24
454.264	34582.17
454.47	35622.54
454.676	34741.91
454.882	35749.51
455.088	32593.59
455.294	33199.79
455.5	33715.88
455.705	34399.9
455.911	32538.3
456.117	32128.7
456.323	31962.82
456.529	30174.94
456.735	31614.66
456.941	30547.67
457.147	29957.86
457.352	29404.91
457.558	29048.56
457.764	29138.67
457.97	28733.17
458.176	27899.65
458.381	28032.77
458.587	26355.48
458.793	26853.14
458.999	25284.39
459.204	27029.26
459.41	26208.03
459.616	24530.74
459.821	25087.79
460.027	24602.42
460.233	24037.18
460.438	22898.51
460.644	23156.55
460.85	22028.12
461.055	21712.74
461.261	21843.81
461.466	19998.59
461.672	19525.5
461.878	20864.88
462.083	19494.79
462.289	19120.01
462.494	18837.39
462.7	18067.35
462.905	17592.22
463.111	18411.41
463.316	18206.61
463.522	17762.2
463.727	17887.13
463.932	17719.2
464.138	17684.38
464.343	17606.56
464.549	17291.17
464.754	17479.58
464.959	17524.64
465.165	17588.13
465.37	16844.71
465.575	16168.88
465.781	17184.68
465.986	16850.86
466.191	16271.28
466.397	16035.77
466.602	15296.45
