Data from USB4F104151__256__14-45-58-201.txt Node

Date: Thu Mar 13 14:45:58 EDT 2025
User: louis
Spectrometer: USB4F10415
Trigger mode: 4
Integration Time (sec): 2.000000E-2
Scans to average: 1
Electric dark correction enabled: true
Nonlinearity correction enabled: false
Boxcar width: 0
XAxis mode: Wavelengths
Number of Pixels in Spectrum: 3648
>>>>>Begin Spectral Data<<<<<
178.204	-119.64
178.424	-119.64
178.644	-119.64
178.864	-80.72
179.084	-154.45
179.304	-80.72
179.524	-15.19
179.744	9.39
179.964	17.58
180.184	17.58
180.404	-15.19
180.624	-9.05
180.844	42.15
181.064	62.63
181.283	-45.91
181.503	-47.96
181.723	64.68
181.943	-39.76
182.163	111.78
182.383	17.58
182.602	56.49
182.822	76.97
183.042	15.53
183.262	-7
183.482	-4.95
183.701	-7
183.921	-7
184.141	72.87
184.361	93.35
184.58	-29.52
184.8	-25.43
185.02	-19.29
185.239	58.54
185.459	66.73
185.679	91.31
185.898	-31.57
186.118	-0.85
186.338	5.29
186.557	93.35
186.777	1.19
186.997	36.01
187.216	5.29
187.436	76.97
187.655	21.67
187.875	83.11
188.095	-31.57
188.314	50.35
188.534	11.43
188.753	60.59
188.973	42.15
189.192	23.72
189.412	54.44
189.631	50.35
189.851	3.24
190.07	83.11
190.29	-45.91
190.509	58.54
190.729	17.58
190.948	74.92
191.168	119.98
191.387	9.39
191.607	42.15
191.826	5.29
192.045	21.67
192.265	9.39
192.484	1.19
192.704	85.16
192.923	1.19
193.142	89.26
193.362	3.24
193.581	36.01
193.8	83.11
194.02	29.87
194.239	-45.91
194.458	42.15
194.678	-11.09
194.897	58.54
195.116	42.15
195.335	46.25
195.555	85.16
195.774	60.59
195.993	62.63
196.212	93.35
196.432	27.82
196.651	-21.33
196.87	29.87
197.089	40.11
197.308	1.19
197.528	-23.38
197.747	17.58
197.966	48.3
198.185	74.92
198.404	-29.52
198.623	1.19
198.842	-54.1
199.062	9.39
199.281	46.25
199.5	42.15
199.719	68.78
199.938	46.25
200.157	19.63
200.376	74.92
200.595	76.97
200.814	29.87
201.033	29.87
201.252	-4.95
201.471	-31.57
201.69	60.59
201.909	25.77
202.128	46.25
202.347	66.73
202.566	17.58
202.785	7.34
203.004	3.24
203.223	66.73
203.442	1.19
203.661	33.96
203.879	25.77
204.098	79.02
204.317	17.58
204.536	95.4
204.755	74.92
204.974	79.02
205.193	3.24
205.411	27.82
205.63	7.34
205.849	60.59
206.068	27.82
206.287	11.43
206.505	46.25
206.724	-11.09
206.943	-43.86
207.162	-4.95
207.381	-11.09
207.599	29.87
207.818	-27.48
208.037	9.39
208.255	-13.14
208.474	83.11
208.693	9.39
208.911	46.25
209.13	-0.85
209.349	58.54
209.567	19.63
209.786	126.12
210.005	5.29
210.223	46.25
210.442	-2.9
210.661	76.97
210.879	-15.19
211.098	44.2
211.316	38.06
211.535	62.63
211.753	13.48
211.972	79.02
212.191	93.35
212.409	33.96
212.628	83.11
212.846	89.26
213.065	-23.38
213.283	33.96
213.502	19.63
213.72	3.24
213.938	19.63
214.157	42.15
214.375	7.34
214.594	46.25
214.812	42.15
215.031	-31.57
215.249	-11.09
215.467	15.53
215.686	29.87
215.904	87.21
216.122	-78.68
216.341	-11.09
216.559	-19.29
216.778	54.44
216.996	79.02
217.214	1.19
217.432	5.29
217.651	21.67
217.869	-7
218.087	-29.52
218.306	1.19
218.524	91.31
218.742	11.43
218.96	31.91
219.179	-47.96
219.397	23.72
219.615	89.26
219.833	17.58
220.051	74.92
220.27	76.97
220.488	-9.05
220.706	-17.24
220.924	-17.24
221.142	17.58
221.36	17.58
221.578	17.58
221.796	-41.81
222.015	17.58
222.233	101.55
222.451	126.12
222.669	-47.96
222.887	115.88
223.105	-23.38
223.323	1.19
223.541	-72.53
223.759	42.15
223.977	17.58
224.195	54.44
224.413	66.73
224.631	36.01
224.849	29.87
225.067	76.97
225.285	25.77
225.503	-13.14
225.721	-7
225.939	42.15
226.157	85.16
226.375	132.26
226.592	-37.72
226.81	58.54
227.028	9.39
227.246	111.78
227.464	-47.96
227.682	68.78
227.9	5.29
228.117	79.02
228.335	66.73
228.553	-7
228.771	17.58
228.989	33.96
229.206	46.25
229.424	76.97
229.642	11.43
229.86	33.96
230.077	76.97
230.295	66.73
230.513	52.39
230.731	68.78
230.948	-13.14
231.166	25.77
231.384	-33.62
231.601	-41.81
231.819	38.06
232.037	-47.96
232.254	17.58
232.472	17.58
232.689	-21.33
232.907	25.77
233.125	38.06
233.342	107.69
233.56	5.29
233.777	-80.72
233.995	-15.19
234.213	107.69
234.43	87.21
234.648	44.2
234.865	17.58
235.083	42.15
235.3	-11.09
235.518	17.58
235.735	66.73
235.953	-7
236.17	1.19
236.388	-31.57
236.605	11.43
236.822	56.49
237.04	99.5
237.257	62.63
237.475	19.63
237.692	7.34
237.909	83.11
238.127	-25.43
238.344	21.67
238.562	3.24
238.779	-39.76
238.996	-13.14
239.214	79.02
239.431	60.59
239.648	56.49
239.865	76.97
240.083	60.59
240.3	-11.09
240.517	-11.09
240.735	85.16
240.952	19.63
241.169	44.2
241.386	70.83
241.603	25.77
241.821	-31.57
242.038	68.78
242.255	44.2
242.472	25.77
242.689	62.63
242.907	107.69
243.124	17.58
243.341	-25.43
243.558	48.3
243.775	-0.85
243.992	-7
244.209	9.39
244.426	91.31
244.643	85.16
244.86	-13.14
245.078	42.15
245.295	27.82
245.512	95.4
245.729	13.48
245.946	31.91
246.163	33.96
246.38	46.25
246.597	5.29
246.814	48.3
247.031	101.55
247.248	60.59
247.464	3.24
247.681	1.19
247.898	-35.67
248.115	36.01
248.332	-11.09
248.549	15.53
248.766	9.39
248.983	27.82
249.2	33.96
249.417	-7
249.633	-2.9
249.85	21.67
250.067	-17.24
250.284	23.72
250.501	54.44
250.717	-11.09
250.934	44.2
251.151	-4.95
251.368	79.02
251.585	38.06
251.801	134.31
252.018	38.06
252.235	31.91
252.451	-47.96
252.668	11.43
252.885	31.91
253.102	9.39
253.318	42.15
253.535	-15.19
253.752	83.11
253.968	-15.19
254.185	-31.57
254.401	68.78
254.618	107.69
254.835	-56.15
255.051	3.24
255.268	95.4
255.484	29.87
255.701	23.72
255.917	79.02
256.134	101.55
256.351	-39.76
256.567	-27.48
256.784	-2.9
257	46.25
257.217	50.35
257.433	-2.9
257.65	-13.14
257.866	115.88
258.082	33.96
258.299	25.77
258.515	36.01
258.732	1.19
258.948	-11.09
259.165	3.24
259.381	25.77
259.597	-23.38
259.814	33.96
260.03	83.11
260.246	27.82
260.463	9.39
260.679	5.29
260.895	27.82
261.112	42.15
261.328	7.34
261.544	27.82
261.761	89.26
261.977	-4.95
262.193	68.78
262.409	11.43
262.626	36.01
262.842	-37.72
263.058	52.39
263.274	19.63
263.49	46.25
263.707	103.59
263.923	19.63
264.139	89.26
264.355	40.11
264.571	74.92
264.787	-0.85
265.004	33.96
265.22	-33.62
265.436	91.31
265.652	-7
265.868	-93.01
266.084	-13.14
266.3	60.59
266.516	-15.19
266.732	38.06
266.948	52.39
267.164	25.77
267.38	29.87
267.596	-9.05
267.812	134.31
268.028	3.24
268.244	85.16
268.46	5.29
268.676	81.07
268.892	93.35
269.108	21.67
269.324	-4.95
269.54	-37.72
269.756	54.44
269.972	-39.76
270.188	19.63
270.403	-7
270.619	17.58
270.835	17.58
271.051	58.54
271.267	-17.24
271.483	-15.19
271.698	42.15
271.914	115.88
272.13	62.63
272.346	19.63
272.562	36.01
272.777	54.44
272.993	3.24
273.209	-17.24
273.425	117.93
273.64	33.96
273.856	-21.33
274.072	17.58
274.287	66.73
274.503	74.92
274.719	85.16
274.934	33.96
275.15	-47.96
275.366	54.44
275.581	-60.24
275.797	38.06
276.012	5.29
276.228	48.3
276.444	29.87
276.659	27.82
276.875	95.4
277.09	50.35
277.306	46.25
277.521	17.58
277.737	13.48
277.952	42.15
278.168	72.87
278.383	36.01
278.599	44.2
278.814	58.54
279.03	64.68
279.245	132.26
279.461	17.58
279.676	17.58
279.892	68.78
280.107	29.87
280.322	-4.95
280.538	42.15
280.753	17.58
280.969	17.58
281.184	13.48
281.399	70.83
281.615	50.35
281.83	83.11
282.045	-21.33
282.26	-47.96
282.476	19.63
282.691	11.43
282.906	36.01
283.122	58.54
283.337	25.77
283.552	44.2
283.767	9.39
283.983	60.59
284.198	81.07
284.413	58.54
284.628	-103.25
284.843	52.39
285.058	25.77
285.274	3.24
285.489	54.44
285.704	46.25
285.919	21.67
286.134	-15.19
286.349	76.97
286.564	56.49
286.779	91.31
286.995	17.58
287.21	-27.48
287.425	68.78
287.64	-13.14
287.855	42.15
288.07	-37.72
288.285	33.96
288.5	93.35
288.715	70.83
288.93	46.25
289.145	52.39
289.36	1.19
289.575	50.35
289.79	54.44
290.004	62.63
290.219	107.69
290.434	29.87
290.649	-4.95
290.864	-7
291.079	42.15
291.294	76.97
291.509	-39.76
291.724	56.49
291.938	-4.95
292.153	99.5
292.368	38.06
292.583	1.19
292.798	44.2
293.012	91.31
293.227	91.31
293.442	25.77
293.657	60.59
293.871	91.31
294.086	-23.38
294.301	99.5
294.516	58.54
294.73	54.44
294.945	70.83
295.16	-15.19
295.374	-27.48
295.589	5.29
295.804	-13.14
296.018	9.39
296.233	99.5
296.447	52.39
296.662	11.43
296.877	83.11
297.091	-2.9
297.306	79.02
297.52	38.06
297.735	83.11
297.949	-7
298.164	-15.19
298.378	21.67
298.593	-0.85
298.807	115.88
299.022	-23.38
299.236	79.02
299.451	17.58
299.665	62.63
299.88	-4.95
300.094	48.3
300.309	33.96
300.523	66.73
300.737	9.39
300.952	58.54
301.166	58.54
301.381	9.39
301.595	42.15
301.809	13.48
302.024	-25.43
302.238	9.39
302.452	64.68
302.667	-47.96
302.881	31.91
303.095	9.39
303.309	1.19
303.524	38.06
303.738	-31.57
303.952	29.87
304.166	7.34
304.381	-9.05
304.595	83.11
304.809	-7
305.023	52.39
305.237	44.2
305.452	40.11
305.666	58.54
305.88	50.35
306.094	72.87
306.308	-39.76
306.522	130.22
306.736	50.35
306.95	50.35
307.164	70.83
307.379	-35.67
307.593	42.15
307.807	99.5
308.021	1.19
308.235	46.25
308.449	-25.43
308.663	42.15
308.877	91.31
309.091	66.73
309.305	25.77
309.519	-52.05
309.733	27.82
309.947	-15.19
310.161	11.43
310.374	25.77
310.588	13.48
310.802	3.24
311.016	11.43
311.23	58.54
311.444	66.73
311.658	-64.34
311.872	111.78
312.085	-4.95
312.299	128.17
312.513	60.59
312.727	50.35
312.941	-45.91
313.154	44.2
313.368	50.35
313.582	17.58
313.796	5.29
314.009	50.35
314.223	58.54
314.437	50.35
314.651	36.01
314.864	-43.86
315.078	-21.33
315.292	17.58
315.505	9.39
315.719	58.54
315.933	19.63
316.146	21.67
316.36	-21.33
316.573	76.97
316.787	1.19
317.001	25.77
317.214	-15.19
317.428	5.29
317.641	-93.01
317.855	13.48
318.068	-39.76
318.282	23.72
318.495	76.97
318.709	87.21
318.922	1.19
319.136	76.97
319.349	1.19
319.563	27.82
319.776	-4.95
319.99	17.58
320.203	9.39
320.417	25.77
320.63	54.44
320.843	21.67
321.057	117.93
321.27	38.06
321.483	89.26
321.697	25.77
321.91	52.39
322.124	3.24
322.337	93.35
322.55	-7
322.763	-56.15
322.977	103.59
323.19	-0.85
323.403	48.3
323.617	48.3
323.83	62.63
324.043	13.48
324.256	9.39
324.469	27.82
324.683	76.97
324.896	-2.9
325.109	130.22
325.322	1.19
325.535	74.92
325.748	17.58
325.962	44.2
326.175	-15.19
326.388	48.3
326.601	44.2
326.814	1.19
327.027	-2.9
327.24	52.39
327.453	-43.86
327.666	101.55
327.879	81.07
328.092	54.44
328.305	-33.62
328.518	46.25
328.731	42.15
328.944	66.73
329.157	50.35
329.37	-39.76
329.583	46.25
329.796	70.83
330.009	-56.15
330.222	101.55
330.435	87.21
330.648	9.39
330.861	52.39
331.073	36.01
331.286	42.15
331.499	27.82
331.712	25.77
331.925	21.67
332.138	54.44
332.35	66.73
332.563	9.39
332.776	19.63
332.989	-19.29
333.202	33.96
333.414	-17.24
333.627	72.87
333.84	9.39
334.053	11.43
334.265	-7
334.478	29.87
334.691	42.15
334.903	52.39
335.116	-23.38
335.329	-2.9
335.541	64.68
335.754	76.97
335.966	-35.67
336.179	68.78
336.392	36.01
336.604	-15.19
336.817	-41.81
337.029	13.48
337.242	-37.72
337.454	162.98
337.667	1.19
337.88	66.73
338.092	7.34
338.305	115.88
338.517	25.77
338.729	58.54
338.942	83.11
339.154	76.97
339.367	-43.86
339.579	107.69
339.792	13.48
340.004	85.16
340.217	-13.14
340.429	74.92
340.641	52.39
340.854	13.48
341.066	3.24
341.278	58.54
341.491	54.44
341.703	33.96
341.915	-52.05
342.128	15.53
342.34	1.19
342.552	33.96
342.764	23.72
342.977	54.44
343.189	42.15
343.401	17.58
343.613	17.58
343.826	93.35
344.038	76.97
344.25	13.48
344.462	13.48
344.674	-64.34
344.886	42.15
345.099	115.88
345.311	62.63
345.523	66.73
345.735	-43.86
345.947	11.43
346.159	36.01
346.371	54.44
346.583	115.88
346.795	101.55
347.007	3.24
347.219	87.21
347.431	140.46
347.643	115.88
347.855	33.96
348.067	107.69
348.279	23.72
348.491	9.39
348.703	5.29
348.915	-52.05
349.127	-19.29
349.339	-13.14
349.551	13.48
349.763	-29.52
349.975	33.96
350.187	97.45
350.399	93.35
350.61	50.35
350.822	31.91
351.034	36.01
351.246	91.31
351.458	87.21
351.669	64.68
351.881	87.21
352.093	7.34
352.305	70.83
352.517	27.82
352.728	95.4
352.94	124.07
353.152	9.39
353.363	3.24
353.575	33.96
353.787	29.87
353.999	-0.85
354.21	81.07
354.422	36.01
354.633	42.15
354.845	33.96
355.057	42.15
355.268	36.01
355.48	54.44
355.692	44.2
355.903	36.01
356.115	-4.95
356.326	-64.34
356.538	83.11
356.749	52.39
356.961	109.74
357.172	50.35
357.384	11.43
357.595	72.87
357.807	52.39
358.018	33.96
358.23	60.59
358.441	76.97
358.653	107.69
358.864	-7
359.075	11.43
359.287	11.43
359.498	115.88
359.709	38.06
359.921	17.58
360.132	91.31
360.344	44.2
360.555	-15.19
360.766	68.78
360.977	31.91
361.189	19.63
361.4	38.06
361.611	38.06
361.823	142.5
362.034	54.44
362.245	-7
362.456	9.39
362.667	-7
362.879	15.53
363.09	58.54
363.301	62.63
363.512	15.53
363.723	21.67
363.935	3.24
364.146	56.49
364.357	44.2
364.568	83.11
364.779	-2.9
364.99	132.26
365.201	5.29
365.412	21.67
365.623	-13.14
365.834	87.21
366.045	-21.33
366.256	38.06
366.467	-31.57
366.678	74.92
366.889	42.15
367.1	-19.29
367.311	111.78
367.522	-43.86
367.733	21.67
367.944	150.7
368.155	72.87
368.366	-33.62
368.577	31.91
368.788	54.44
368.999	-17.24
369.209	11.43
369.42	54.44
369.631	46.25
369.842	50.35
370.053	38.06
370.264	97.45
370.474	-2.9
370.685	19.63
370.896	38.06
371.107	54.44
371.317	48.3
371.528	128.17
371.739	156.84
371.95	76.97
372.16	148.65
372.371	27.82
372.582	-19.29
372.792	50.35
373.003	31.91
373.214	17.58
373.424	54.44
373.635	76.97
373.846	93.35
374.056	-7
374.267	50.35
374.477	13.48
374.688	93.35
374.898	52.39
375.109	25.77
375.319	11.43
375.53	93.35
375.74	36.01
375.951	52.39
376.161	101.55
376.372	7.34
376.582	50.35
376.793	66.73
377.003	60.59
377.214	60.59
377.424	29.87
377.635	36.01
377.845	17.58
378.055	50.35
378.266	19.63
378.476	58.54
378.686	17.58
378.897	95.4
379.107	91.31
379.317	66.73
379.528	5.29
379.738	85.16
379.948	36.01
380.158	40.11
380.369	11.43
380.579	62.63
380.789	11.43
380.999	52.39
381.21	44.2
381.42	103.59
381.63	83.11
381.84	66.73
382.05	70.83
382.261	101.55
382.471	42.15
382.681	-23.38
382.891	17.58
383.101	11.43
383.311	36.01
383.521	42.15
383.731	74.92
383.941	68.78
384.151	91.31
384.361	79.02
384.571	25.77
384.781	60.59
384.991	42.15
385.201	74.92
385.411	52.39
385.621	85.16
385.831	95.4
386.041	62.63
386.251	70.83
386.461	50.35
386.671	68.78
386.881	33.96
387.091	-15.19
387.301	109.74
387.511	60.59
387.72	21.67
387.93	95.4
388.14	-56.15
388.35	36.01
388.56	13.48
388.769	87.21
388.979	40.11
389.189	27.82
389.399	29.87
389.609	38.06
389.818	103.59
390.028	48.3
390.238	60.59
390.447	-60.24
390.657	50.35
390.867	54.44
391.076	3.24
391.286	74.92
391.496	148.65
391.705	74.92
391.915	107.69
392.125	74.92
392.334	89.26
392.544	113.83
392.753	93.35
392.963	62.63
393.172	87.21
393.382	91.31
393.591	111.78
393.801	44.2
394.01	74.92
394.22	103.59
394.429	115.88
394.639	54.44
394.848	74.92
395.058	19.63
395.267	74.92
395.477	91.31
395.686	56.49
395.895	97.45
396.105	181.42
396.314	42.15
396.524	103.59
396.733	89.26
396.942	146.6
397.152	81.07
397.361	66.73
397.57	58.54
397.78	21.67
397.989	83.11
398.198	142.5
398.407	58.54
398.617	89.26
398.826	46.25
399.035	85.16
399.244	38.06
399.453	83.11
399.663	113.83
399.872	83.11
400.081	109.74
400.29	134.31
400.499	64.68
400.708	38.06
400.917	76.97
401.127	54.44
401.336	111.78
401.545	197.8
401.754	128.17
401.963	156.84
402.172	79.02
402.381	83.11
402.59	33.96
402.799	70.83
403.008	31.91
403.217	58.54
403.426	68.78
403.635	177.32
403.844	103.59
404.053	144.55
404.262	117.93
404.471	142.5
404.68	48.3
404.888	115.88
405.097	93.35
405.306	134.31
405.515	113.83
405.724	95.4
405.933	42.15
406.142	173.22
406.35	160.94
406.559	136.36
406.768	117.93
406.977	173.22
407.185	148.65
407.394	222.38
407.603	124.07
407.812	132.26
408.02	205.99
408.229	136.36
408.438	162.98
408.646	152.74
408.855	201.9
409.064	222.38
409.272	185.51
409.481	205.99
409.69	277.67
409.898	232.62
410.107	263.33
410.315	330.92
410.524	218.28
410.733	214.18
410.941	246.95
411.15	330.92
411.358	324.77
411.567	320.68
411.775	283.81
411.984	382.12
412.192	378.02
412.401	306.34
412.609	353.45
412.818	398.5
413.026	312.49
413.234	425.12
413.443	357.54
413.651	339.11
413.86	466.08
414.068	443.56
414.276	511.14
414.485	410.79
414.693	586.91
414.901	582.82
415.11	613.54
415.318	562.34
415.526	525.47
415.734	658.59
415.943	576.67
416.151	668.83
416.359	599.2
416.567	642.21
416.776	717.98
416.984	763.04
417.192	861.34
417.4	785.57
417.608	697.5
417.817	754.85
418.025	824.48
418.233	1000.6
418.441	859.29
418.649	902.3
418.857	969.88
419.065	1016.99
419.273	996.51
419.481	1070.23
419.689	1094.81
419.897	1201.3
420.105	1133.72
420.313	1049.75
420.521	1232.02
420.729	1207.45
420.937	1213.59
421.145	1408.15
421.353	1359
421.561	1483.92
421.769	1520.79
421.977	1598.61
422.185	1574.03
422.393	1641.62
422.601	1655.95
422.809	1797.26
423.017	1748.11
423.224	1813.65
423.432	1889.42
423.64	1909.9
423.848	1983.63
424.056	2026.64
424.263	2169.99
424.471	2163.85
424.679	2237.58
424.887	2237.58
425.094	2358.41
425.302	2313.35
425.51	2479.24
425.718	2567.3
425.925	2696.32
426.133	2636.93
426.341	2868.35
426.548	2929.79
426.756	2976.89
426.964	3054.72
427.171	3165.31
427.379	3142.78
427.586	3261.56
427.794	3335.29
428.001	3556.47
428.209	3626.1
428.417	3615.86
428.624	3869.81
428.832	3916.91
429.039	3908.72
429.247	3896.43
429.454	4238.44
429.662	4551.78
429.869	4353.13
430.076	4402.28
430.284	4430.95
430.491	4559.97
430.699	4955.23
430.906	4838.5
431.114	4828.26
431.321	5061.73
431.528	5338.2
431.736	5434.46
431.943	5702.74
432.15	5751.89
432.358	5768.27
432.565	5934.16
432.772	5823.57
432.979	6276.17
433.187	6270.03
433.394	6554.69
433.601	6925.38
433.808	6972.48
434.016	6753.35
434.223	7052.35
434.43	7545.91
434.637	7545.91
434.844	7947.31
435.052	7935.03
435.259	7898.16
435.466	7990.32
435.673	7773.24
435.88	8424.49
436.087	8660.01
436.294	8901.67
436.501	8717.35
436.708	8811.56
436.915	9184.29
437.122	9460.76
437.329	9477.15
437.537	9763.86
437.743	10136.59
437.95	10009.62
438.157	10460.17
438.364	10863.62
438.571	10714.12
438.778	10873.86
438.985	11760.63
439.192	11254.78
439.399	11762.68
439.606	11330.56
439.813	12110.83
440.02	12690.41
440.227	12612.59
440.433	12596.2
440.64	12733.42
440.847	12647.4
441.054	13147.11
441.261	14074.84
441.467	13626.33
441.674	14199.76
441.881	14648.27
442.088	14566.35
442.294	14355.41
442.501	14750.67
442.708	15102.92
442.914	15455.17
443.121	16270.26
443.328	15877.05
443.534	17042.34
443.741	16438.19
443.948	16255.92
444.154	17580.96
444.361	17376.16
444.568	17529.76
444.774	17515.42
444.981	17707.93
445.187	18336.66
445.394	19067.78
445.6	18791.31
445.807	20685.68
446.013	19753.85
446.22	20059
446.426	20714.35
446.633	21025.64
446.839	21873.5
447.046	20874.09
447.252	22143.83
447.459	22029.15
447.665	21965.66
447.871	23044.94
448.078	24027.96
448.284	23010.12
448.491	23675.71
448.697	24318.78
448.903	24714.03
449.11	25008.94
449.316	24742.71
449.522	24982.32
449.728	25852.7
449.935	25875.23
450.141	26063.64
450.347	26538.77
450.553	25682.72
450.76	26127.13
450.966	27450.12
451.172	26708.76
451.378	27548.42
451.584	26692.37
451.791	27480.84
451.997	27456.26
452.203	27757.32
452.409	27974.4
452.615	27898.62
452.821	26665.75
453.027	26237.72
453.233	28136.19
453.44	26991.37
453.646	27024.14
453.852	27423.5
454.058	27781.89
454.264	27110.16
454.47	27654.92
454.676	26825.49
454.882	27978.5
455.088	25426.73
455.294	25936.67
455.5	26190.62
455.705	26702.61
455.911	25533.22
456.117	25285.42
456.323	24855.34
456.529	23507.78
456.735	24597.3
456.941	23792.45
457.147	23694.15
457.352	23163.72
457.558	22776.66
457.764	22596.43
457.97	22385.49
458.176	21820.25
458.381	21629.79
458.587	20870
458.793	20892.52
458.999	19848.06
459.204	21263.21
459.41	20783.98
459.616	19344.26
459.821	19438.47
460.027	18998.15
460.233	19096.46
460.438	18152.34
460.644	18353.04
460.85	17202.08
461.055	16901.03
461.261	17157.03
461.466	15825.85
461.672	15557.57
461.878	16425.9
462.083	15229.89
462.289	14930.89
462.494	14726.09
462.7	14427.09
462.905	14029.78
463.111	14459.85
463.316	14414.8
463.522	14033.88
463.727	14058.45
463.932	14359.5
464.138	14058.45
464.343	14017.49
464.549	13384.67
464.754	14029.78
464.959	14066.64
465.165	13753.3
465.37	13018.08
465.575	12981.22
465.781	13386.72
465.986	13532.12
466.191	12739.56
466.397	12948.45
466.602	12035.06
466.807	12602.35
467.012	12520.43
467.218	12461.04
467.423	12424.17
467.628	12616.68
467.833	12960.74
468.038	12446.7
468.244	12252.14
