Data from USB4F104151__107__14-43-44-652.txt Node

Date: Thu Mar 13 14:43:44 EDT 2025
User: louis
Spectrometer: USB4F10415
Trigger mode: 4
Integration Time (sec): 2.000000E-2
Scans to average: 1
Electric dark correction enabled: true
Nonlinearity correction enabled: false
Boxcar width: 0
XAxis mode: Wavelengths
Number of Pixels in Spectrum: 3648
>>>>>Begin Spectral Data<<<<<
178.204	-131.07
178.424	-131.07
178.644	-131.07
178.864	-100.35
179.084	-88.06
179.304	30.72
179.524	-40.96
179.744	40.96
179.964	10.24
180.184	2.05
180.404	2.05
180.624	24.58
180.844	8.19
181.064	-92.16
181.283	-2.05
181.503	-32.77
181.723	49.15
181.943	-12.29
182.163	94.21
182.383	10.24
182.602	75.77
182.822	67.58
183.042	83.97
183.262	16.38
183.482	10.24
183.701	8.19
183.921	16.38
184.141	-16.38
184.361	118.78
184.58	49.15
184.8	18.43
185.02	30.72
185.239	65.54
185.459	-8.19
185.679	32.77
185.898	32.77
186.118	96.25
186.338	83.97
186.557	163.84
186.777	-53.25
186.997	57.34
187.216	2.05
187.436	114.69
187.655	51.2
187.875	32.77
188.095	-12.29
188.314	45.06
188.534	-4.1
188.753	-57.34
188.973	43.01
189.192	131.07
189.412	32.77
189.631	8.19
189.851	8.19
190.07	114.69
190.29	-8.19
190.509	16.38
190.729	90.11
190.948	51.2
191.168	165.89
191.387	49.15
191.607	-6.14
191.826	75.77
192.045	-20.48
192.265	88.06
192.484	65.54
192.704	-24.58
192.923	-73.73
193.142	-2.05
193.362	28.67
193.581	61.44
193.8	36.86
194.02	-4.1
194.239	71.68
194.458	24.58
194.678	51.2
194.897	61.44
195.116	12.29
195.335	90.11
195.555	28.67
195.774	24.58
195.993	126.97
196.212	-4.1
196.432	71.68
196.651	4.1
196.87	30.72
197.089	57.34
197.308	24.58
197.528	38.91
197.747	53.25
197.966	14.34
198.185	73.73
198.404	20.48
198.623	8.19
198.842	106.49
199.062	59.39
199.281	100.35
199.5	22.53
199.719	8.19
199.938	94.21
200.157	77.82
200.376	10.24
200.595	81.92
200.814	4.1
201.033	92.16
201.252	131.07
201.471	22.53
201.69	10.24
201.909	45.06
202.128	38.91
202.347	4.1
202.566	14.34
202.785	-8.19
203.004	16.38
203.223	32.77
203.442	45.06
203.661	40.96
203.879	-6.14
204.098	16.38
204.317	-57.34
204.536	36.86
204.755	49.15
204.974	75.77
205.193	67.58
205.411	108.54
205.63	18.43
205.849	-26.62
206.068	71.68
206.287	24.58
206.505	49.15
206.724	-6.14
206.943	43.01
207.162	73.73
207.381	-12.29
207.599	-2.05
207.818	73.73
208.037	10.24
208.255	-34.82
208.474	53.25
208.693	-57.34
208.911	-69.63
209.13	-8.19
209.349	51.2
209.567	8.19
209.786	90.11
210.005	45.06
210.223	106.49
210.442	0
210.661	-16.38
210.879	73.73
211.098	69.63
211.316	81.92
211.535	83.97
211.753	18.43
211.972	67.58
212.191	92.16
212.409	-8.19
212.628	43.01
212.846	4.1
213.065	0
213.283	90.11
213.502	26.62
213.72	-32.77
213.938	65.54
214.157	12.29
214.375	2.05
214.594	40.96
214.812	14.34
215.031	-8.19
215.249	24.58
215.467	0
215.686	73.73
215.904	59.39
216.122	2.05
216.341	-45.06
216.559	0
216.778	40.96
216.996	-24.58
217.214	45.06
217.432	30.72
217.651	-8.19
217.869	71.68
218.087	-6.14
218.306	49.15
218.524	75.77
218.742	16.38
218.96	36.86
219.179	-30.72
219.397	106.49
219.615	124.93
219.833	57.34
220.051	12.29
220.27	2.05
220.488	24.58
220.706	63.49
220.924	43.01
221.142	43.01
221.36	79.87
221.578	69.63
221.796	49.15
222.015	-4.1
222.233	-20.48
222.451	26.62
222.669	4.1
222.887	98.3
223.105	36.86
223.323	-2.05
223.541	40.96
223.759	55.3
223.977	24.58
224.195	20.48
224.413	83.97
224.631	18.43
224.849	-24.58
225.067	81.92
225.285	26.62
225.503	-8.19
225.721	40.96
225.939	43.01
226.157	43.01
226.375	81.92
226.592	8.19
226.81	16.38
227.028	0
227.246	32.77
227.464	61.44
227.682	59.39
227.9	45.06
228.117	65.54
228.335	16.38
228.553	16.38
228.771	40.96
228.989	-6.14
229.206	49.15
229.424	73.73
229.642	73.73
229.86	-20.48
230.077	69.63
230.295	73.73
230.513	-40.96
230.731	2.05
230.948	106.49
231.166	38.91
231.384	124.93
231.601	59.39
231.819	49.15
232.037	8.19
232.254	-28.67
232.472	4.1
232.689	24.58
232.907	28.67
233.125	18.43
233.342	20.48
233.56	-16.38
233.777	57.34
233.995	63.49
234.213	106.49
234.43	2.05
234.648	61.44
234.865	-4.1
235.083	32.77
235.3	26.62
235.518	100.35
235.735	40.96
235.953	102.4
236.17	24.58
236.388	122.88
236.605	40.96
236.822	57.34
237.04	75.77
237.257	81.92
237.475	75.77
237.692	67.58
237.909	49.15
238.127	40.96
238.344	47.1
238.562	36.86
238.779	40.96
238.996	22.53
239.214	-14.34
239.431	77.82
239.648	26.62
239.865	-45.06
240.083	40.96
240.3	73.73
240.517	18.43
240.735	-28.67
240.952	36.86
241.169	69.63
241.386	18.43
241.603	0
241.821	-26.62
242.038	73.73
242.255	4.1
242.472	-24.58
242.689	18.43
242.907	69.63
243.124	40.96
243.341	34.82
243.558	-20.48
243.775	22.53
243.992	110.59
244.209	36.86
244.426	106.49
244.643	81.92
244.86	-16.38
245.078	53.25
245.295	51.2
245.512	-16.38
245.729	-18.43
245.946	63.49
246.163	2.05
246.38	57.34
246.597	67.58
246.814	92.16
247.031	102.4
247.248	67.58
247.464	53.25
247.681	63.49
247.898	28.67
248.115	65.54
248.332	-65.53
248.549	34.82
248.766	59.39
248.983	145.41
249.2	61.44
249.417	77.82
249.633	20.48
249.85	10.24
250.067	73.73
250.284	49.15
250.501	67.58
250.717	22.53
250.934	26.62
251.151	26.62
251.368	-16.38
251.585	-8.19
251.801	12.29
252.018	32.77
252.235	71.68
252.451	49.15
252.668	12.29
252.885	57.34
253.102	98.3
253.318	-20.48
253.535	-24.58
253.752	34.82
253.968	40.96
254.185	30.72
254.401	2.05
254.618	10.24
254.835	18.43
255.051	-30.72
255.268	-32.77
255.484	10.24
255.701	2.05
255.917	94.21
256.134	28.67
256.351	2.05
256.567	24.58
256.784	24.58
257	-40.96
257.217	57.34
257.433	114.69
257.65	75.77
257.866	69.63
258.082	49.15
258.299	-4.1
258.515	55.3
258.732	26.62
258.948	102.4
259.165	12.29
259.381	-49.15
259.597	57.34
259.814	0
260.03	0
260.246	49.15
260.463	96.25
260.679	77.82
260.895	83.97
261.112	92.16
261.328	75.77
261.544	30.72
261.761	65.54
261.977	12.29
262.193	32.77
262.409	-6.14
262.626	55.3
262.842	51.2
263.058	53.25
263.274	4.1
263.49	77.82
263.707	83.97
263.923	94.21
264.139	0
264.355	36.86
264.571	45.06
264.787	-24.58
265.004	24.58
265.22	49.15
265.436	24.58
265.652	-65.53
265.868	0
266.084	2.05
266.3	51.2
266.516	18.43
266.732	71.68
266.948	28.67
267.164	57.34
267.38	36.86
267.596	67.58
267.812	20.48
268.028	110.59
268.244	45.06
268.46	16.38
268.676	28.67
268.892	63.49
269.108	0
269.324	65.54
269.54	24.58
269.756	38.91
269.972	12.29
270.188	10.24
270.403	28.67
270.619	36.86
270.835	40.96
271.051	20.48
271.267	26.62
271.483	30.72
271.698	65.54
271.914	45.06
272.13	40.96
272.346	92.16
272.562	8.19
272.777	135.17
272.993	24.58
273.209	98.3
273.425	-73.73
273.64	-14.34
273.856	24.58
274.072	36.86
274.287	-16.38
274.503	65.54
274.719	-28.67
274.934	36.86
275.15	-18.43
275.366	69.63
275.581	16.38
275.797	65.54
276.012	63.49
276.228	12.29
276.444	-8.19
276.659	67.58
276.875	24.58
277.09	49.15
277.306	32.77
277.521	2.05
277.737	40.96
277.952	59.39
278.168	49.15
278.383	43.01
278.599	-20.48
278.814	51.2
279.03	57.34
279.245	94.21
279.461	0
279.676	28.67
279.892	-79.87
280.107	43.01
280.322	20.48
280.538	43.01
280.753	110.59
280.969	43.01
281.184	67.58
281.399	47.1
281.615	-32.77
281.83	43.01
282.045	-6.14
282.26	-6.14
282.476	53.25
282.691	49.15
282.906	34.82
283.122	51.2
283.337	30.72
283.552	145.41
283.767	32.77
283.983	57.34
284.198	10.24
284.413	-6.14
284.628	16.38
284.843	86.01
285.058	34.82
285.274	47.1
285.489	-53.25
285.704	118.78
285.919	-12.29
286.134	-4.1
286.349	24.58
286.564	40.96
286.779	67.58
286.995	75.77
287.21	59.39
287.425	16.38
287.64	28.67
287.855	67.58
288.07	75.77
288.285	40.96
288.5	55.3
288.715	53.25
288.93	81.92
289.145	-2.05
289.36	36.86
289.575	-16.38
289.79	92.16
290.004	49.15
290.219	73.73
290.434	57.34
290.649	2.05
290.864	18.43
291.079	57.34
291.294	49.15
291.509	51.2
291.724	43.01
291.938	-12.29
292.153	57.34
292.368	-8.19
292.583	18.43
292.798	69.63
293.012	57.34
293.227	49.15
293.442	-22.53
293.657	16.38
293.871	38.91
294.086	81.92
294.301	24.58
294.516	51.2
294.73	-36.86
294.945	14.34
295.16	86.01
295.374	96.25
295.589	16.38
295.804	88.06
296.018	53.25
296.233	4.1
296.447	30.72
296.662	98.3
296.877	67.58
297.091	32.77
297.306	16.38
297.52	28.67
297.735	32.77
297.949	26.62
298.164	75.77
298.378	-45.06
298.593	-40.96
298.807	12.29
299.022	24.58
299.236	43.01
299.451	8.19
299.665	40.96
299.88	32.77
300.094	81.92
300.309	90.11
300.523	20.48
300.737	63.49
300.952	40.96
301.166	24.58
301.381	2.05
301.595	43.01
301.809	-14.34
302.024	2.05
302.238	4.1
302.452	12.29
302.667	18.43
302.881	126.97
303.095	8.19
303.309	61.44
303.524	65.54
303.738	65.54
303.952	-32.77
304.166	-28.67
304.381	-57.34
304.595	106.49
304.809	30.72
305.023	49.15
305.237	45.06
305.452	-32.77
305.666	45.06
305.88	77.82
306.094	12.29
306.308	49.15
306.522	30.72
306.736	24.58
306.95	73.73
307.164	81.92
307.379	45.06
307.593	51.2
307.807	116.73
308.021	40.96
308.235	20.48
308.449	16.38
308.663	-6.14
308.877	124.93
309.091	18.43
309.305	69.63
309.519	-4.1
309.733	34.82
309.947	-32.77
310.161	94.21
310.374	69.63
310.588	36.86
310.802	55.3
311.016	51.2
311.23	38.91
311.444	0
311.658	57.34
311.872	57.34
312.085	47.1
312.299	43.01
312.513	-6.14
312.727	98.3
312.941	-63.49
313.154	75.77
313.368	90.11
313.582	2.05
313.796	-22.53
314.009	-38.91
314.223	69.63
314.437	-30.72
314.651	36.86
314.864	-32.77
315.078	59.39
315.292	38.91
315.505	10.24
315.719	49.15
315.933	40.96
316.146	110.59
316.36	-28.67
316.573	32.77
316.787	-30.72
317.001	77.82
317.214	55.3
317.428	32.77
317.641	-12.29
317.855	18.43
318.068	-12.29
318.282	126.97
318.495	94.21
318.709	20.48
318.922	-16.38
319.136	79.87
319.349	24.58
319.563	49.15
319.776	102.4
319.99	4.1
320.203	79.87
320.417	75.77
320.63	61.44
320.843	36.86
321.057	28.67
321.27	49.15
321.483	-14.34
321.697	98.3
321.91	24.58
322.124	0
322.337	67.58
322.55	36.86
322.763	65.54
322.977	26.62
323.19	18.43
323.403	26.62
323.617	24.58
323.83	88.06
324.043	49.15
324.256	90.11
324.469	40.96
324.683	57.34
324.896	-30.72
325.109	67.58
325.322	-16.38
325.535	110.59
325.748	49.15
325.962	36.86
326.175	104.45
326.388	49.15
326.601	36.86
326.814	-34.82
327.027	45.06
327.24	24.58
327.453	65.54
327.666	81.92
327.879	94.21
328.092	4.1
328.305	18.43
328.518	-4.1
328.731	16.38
328.944	81.92
329.157	16.38
329.37	81.92
329.583	40.96
329.796	92.16
330.009	-6.14
330.222	92.16
330.435	-47.1
330.648	81.92
330.861	26.62
331.073	61.44
331.286	71.68
331.499	57.34
331.712	16.38
331.925	0
332.138	69.63
332.35	155.65
332.563	20.48
332.776	81.92
332.989	-98.3
333.202	18.43
333.414	40.96
333.627	32.77
333.84	-32.77
334.053	188.41
334.265	0
334.478	100.35
334.691	69.63
334.903	-24.58
335.116	45.06
335.329	110.59
335.541	81.92
335.754	90.11
335.966	26.62
336.179	81.92
336.392	49.15
336.604	49.15
336.817	94.21
337.029	40.96
337.242	57.34
337.454	71.68
337.667	75.77
337.88	124.93
338.092	24.58
338.305	-14.34
338.517	-2.05
338.729	135.17
338.942	49.15
339.154	-6.14
339.367	32.77
339.579	32.77
339.792	43.01
340.004	32.77
340.217	18.43
340.429	45.06
340.641	6.14
340.854	65.54
341.066	49.15
341.278	172.03
341.491	47.1
341.703	40.96
341.915	-34.82
342.128	102.4
342.34	51.2
342.552	49.15
342.764	4.1
342.977	110.59
343.189	43.01
343.401	0
343.613	22.53
343.826	57.34
344.038	32.77
344.25	20.48
344.462	69.63
344.674	28.67
344.886	40.96
345.099	53.25
345.311	16.38
345.523	-32.77
345.735	53.25
345.947	69.63
346.159	16.38
346.371	71.68
346.583	43.01
346.795	73.73
347.007	6.14
347.219	90.11
347.431	92.16
347.643	69.63
347.855	59.39
348.067	34.82
348.279	-16.38
348.491	36.86
348.703	114.69
348.915	69.63
349.127	-2.05
349.339	8.19
349.551	45.06
349.763	26.62
349.975	38.91
350.187	59.39
350.399	81.92
350.61	57.34
350.822	40.96
351.034	114.69
351.246	-14.34
351.458	8.19
351.669	16.38
351.881	110.59
352.093	118.78
352.305	59.39
352.517	92.16
352.728	98.3
352.94	88.06
353.152	4.1
353.363	0
353.575	10.24
353.787	73.73
353.999	53.25
354.21	110.59
354.422	-16.38
354.633	28.67
354.845	32.77
355.057	51.2
355.268	8.19
355.48	86.01
355.692	-12.29
355.903	100.35
356.115	57.34
356.326	-12.29
356.538	129.02
356.749	36.86
356.961	69.63
357.172	43.01
357.384	114.69
357.595	110.59
357.807	51.2
358.018	73.73
358.23	26.62
358.441	100.35
358.653	20.48
358.864	40.96
359.075	81.92
359.287	24.58
359.498	-4.1
359.709	40.96
359.921	59.39
360.132	30.72
360.344	57.34
360.555	16.38
360.766	90.11
360.977	4.1
361.189	57.34
361.4	86.01
361.611	67.58
361.823	110.59
362.034	32.77
362.245	10.24
362.456	8.19
362.667	20.48
362.879	16.38
363.09	100.35
363.301	32.77
363.512	65.54
363.723	28.67
363.935	98.3
364.146	49.15
364.357	18.43
364.568	61.44
364.779	8.19
364.99	100.35
365.201	-12.29
365.412	53.25
365.623	-16.38
365.834	116.73
366.045	34.82
366.256	116.73
366.467	40.96
366.678	49.15
366.889	26.62
367.1	28.67
367.311	106.49
367.522	-4.1
367.733	26.62
367.944	98.3
368.155	12.29
368.366	-59.39
368.577	126.97
368.788	81.92
368.999	8.19
369.209	0
369.42	51.2
369.631	49.15
369.842	32.77
370.053	-24.58
370.264	102.4
370.474	-47.1
370.685	118.78
370.896	51.2
371.107	96.25
371.317	28.67
371.528	57.34
371.739	20.48
371.95	12.29
372.16	157.69
372.371	-4.1
372.582	122.88
372.792	59.39
373.003	75.77
373.214	-14.34
373.424	86.01
373.635	53.25
373.846	131.07
374.056	77.82
374.267	73.73
374.477	88.06
374.688	59.39
374.898	-12.29
375.109	55.3
375.319	98.3
375.53	118.78
375.74	57.34
375.951	49.15
376.161	98.3
376.372	94.21
376.582	-4.1
376.793	51.2
377.003	81.92
377.214	124.93
377.424	75.77
377.635	73.73
377.845	65.54
378.055	182.27
378.266	-30.72
378.476	61.44
378.686	86.01
378.897	81.92
379.107	38.91
379.317	81.92
379.528	51.2
379.738	49.15
379.948	53.25
380.158	75.77
380.369	49.15
380.579	32.77
380.789	-12.29
380.999	90.11
381.21	94.21
381.42	106.49
381.63	-32.77
381.84	40.96
382.05	57.34
382.261	73.73
382.471	98.3
382.681	2.05
382.891	90.11
383.101	-8.19
383.311	8.19
383.521	75.77
383.731	45.06
383.941	96.25
384.151	10.24
384.361	73.73
384.571	71.68
384.781	36.86
384.991	126.97
385.201	92.16
385.411	28.67
385.621	67.58
385.831	90.11
386.041	32.77
386.251	71.68
386.461	16.38
386.671	53.25
386.881	45.06
387.091	-34.82
387.301	40.96
387.511	67.58
387.72	122.88
387.93	49.15
388.14	16.38
388.35	73.73
388.56	73.73
388.769	96.25
388.979	22.53
389.189	24.58
389.399	59.39
389.609	40.96
389.818	67.58
390.028	88.06
390.238	32.77
390.447	65.54
390.657	69.63
390.867	67.58
391.076	34.82
391.286	49.15
391.496	45.06
391.705	102.4
391.915	116.73
392.125	57.34
392.334	16.38
392.544	32.77
392.753	57.34
392.963	53.25
393.172	30.72
393.382	122.88
393.591	110.59
393.801	75.77
394.01	69.63
394.22	67.58
394.429	143.36
394.639	-2.05
394.848	118.78
395.058	51.2
395.267	94.21
395.477	92.16
395.686	108.54
395.895	79.87
396.105	110.59
396.314	131.07
396.524	114.69
396.733	43.01
396.942	73.73
397.152	139.26
397.361	81.92
397.57	36.86
397.78	94.21
397.989	49.15
398.198	69.63
398.407	-14.34
398.617	131.07
398.826	81.92
399.035	43.01
399.244	122.88
399.453	155.65
399.663	67.58
399.872	75.77
400.081	4.1
400.29	122.88
400.499	49.15
400.708	100.35
400.917	155.65
401.127	106.49
401.336	8.19
401.545	141.31
401.754	65.54
401.963	65.54
402.172	73.73
402.381	49.15
402.59	83.97
402.799	131.07
403.008	129.02
403.217	137.21
403.426	83.97
403.635	96.25
403.844	47.1
404.053	83.97
404.262	108.54
404.471	120.83
404.68	151.55
404.888	108.54
405.097	75.77
405.306	204.8
405.515	182.27
405.724	124.93
405.933	174.08
406.142	116.73
406.35	159.74
406.559	184.32
406.768	126.97
406.977	118.78
407.185	67.58
407.394	200.7
407.603	98.3
407.812	311.29
408.02	198.65
408.229	221.18
408.438	180.22
408.646	149.5
408.855	141.31
409.064	190.46
409.272	198.65
409.481	247.8
409.69	249.85
409.898	180.22
410.107	204.8
410.315	327.67
410.524	245.76
410.733	190.46
410.941	200.7
411.15	319.48
411.358	286.72
411.567	409.59
411.775	274.43
411.984	288.76
412.192	313.34
412.401	251.9
412.609	335.87
412.818	483.32
413.026	360.44
413.234	348.15
413.443	436.22
413.651	417.79
413.86	417.79
414.068	458.75
414.276	573.43
414.485	466.94
414.693	550.9
414.901	559.1
415.11	518.14
415.318	499.7
415.526	501.75
415.734	602.1
415.943	630.77
416.151	606.2
416.359	573.43
416.567	581.62
416.776	657.4
416.984	735.22
417.192	786.42
417.4	638.97
417.608	704.5
417.817	737.27
418.025	847.86
418.233	868.34
418.441	794.61
418.649	845.81
418.857	940.02
419.065	946.16
419.273	960.5
419.481	933.87
419.689	1032.18
419.897	1110
420.105	1202.16
420.313	1173.49
420.521	1228.78
420.729	1241.07
420.937	1232.88
421.145	1241.07
421.353	1335.28
421.561	1351.66
421.769	1525.74
421.977	1501.16
422.185	1460.2
422.393	1572.84
422.601	1683.43
422.809	1607.66
423.017	1638.37
423.224	1642.47
423.432	1771.49
423.64	1665
423.848	2113.5
424.056	1925.09
424.263	2047.97
424.471	2105.31
424.679	2166.75
424.887	2220
425.094	2297.82
425.302	2287.58
425.51	2349.02
425.718	2408.41
425.925	2410.46
426.133	2752.47
426.341	2746.33
426.548	2795.48
426.756	2869.2
426.964	3006.42
427.171	3049.43
427.379	3055.57
427.586	3190.74
427.794	3229.65
428.001	3532.75
428.209	3407.82
428.417	3403.72
428.624	3823.56
428.832	3794.89
429.039	3631.05
429.247	3696.58
429.454	4073.41
429.662	4325.31
429.869	4087.75
430.076	4290.49
430.284	4351.93
430.491	4448.19
430.699	4720.57
430.906	4616.12
431.114	4810.68
431.321	4890.55
431.528	4890.55
431.736	5250.99
431.943	5636.01
432.15	5431.21
432.358	5402.54
432.565	5623.72
432.772	5609.39
432.979	6170.53
433.187	5941.16
433.394	6070.18
433.601	6569.88
433.808	6596.51
434.016	6379.42
434.223	6807.45
434.43	7145.36
434.637	7049.11
434.844	7606.16
435.052	7755.66
435.259	7554.96
435.466	7583.63
435.673	7526.29
435.88	8011.65
436.087	8286.08
436.294	8505.21
436.501	8234.88
436.708	8468.35
436.915	8736.63
437.122	9250.67
437.329	9035.64
437.537	9441.14
437.743	9449.33
437.95	9289.59
438.157	9842.54
438.364	10198.88
438.571	10276.71
438.778	10172.26
438.985	11239.25
439.192	11061.08
439.399	11102.04
439.606	10858.33
439.813	11411.28
440.02	12287.81
440.227	12150.6
440.433	11892.55
440.64	12271.43
440.847	12312.39
441.054	12369.73
441.261	13281.08
441.467	13008.7
441.674	13532.98
441.881	13983.53
442.088	13727.53
442.294	13567.79
442.501	13834.03
442.708	14239.53
442.914	15177.5
443.121	15437.59
443.328	14978.84
443.534	16488.2
443.741	15619.86
443.948	15494.93
444.154	16770.82
444.361	16422.66
444.568	16527.11
444.774	16631.55
444.981	16832.26
445.187	17354.49
445.394	18210.54
445.6	17991.41
445.807	19637.97
446.013	18800.35
446.22	19427.03
446.426	20045.52
446.633	20430.54
446.839	20858.56
447.046	20049.61
447.252	21112.51
447.459	21141.18
447.665	21034.69
447.871	21982.9
448.078	22943.39
448.284	21626.55
448.491	22687.4
448.697	23729.81
448.903	23889.56
449.11	23971.47
449.316	23516.83
449.522	23893.65
449.728	24602.25
449.935	24725.13
450.141	24954.5
450.347	25384.57
450.553	24657.54
450.76	25095.81
450.966	25990.77
451.172	25435.77
451.378	26386.03
451.584	25826.93
451.791	26318.45
451.997	26185.33
452.203	26658.41
452.409	26805.86
452.615	26906.21
452.821	26027.63
453.027	25431.68
453.233	26941.03
453.44	25974.39
453.646	26355.31
453.852	26369.65
454.058	26596.97
454.264	26056.31
454.47	26766.95
454.676	25757.3
454.882	27020.9
455.088	24499.85
455.294	24848
455.5	25273.98
455.705	25826.93
455.911	24520.33
456.117	24250
456.323	23776.92
456.529	22521.51
456.735	23813.78
456.941	22937.25
457.147	22744.74
457.352	22060.72
457.558	21655.22
457.764	22023.86
457.97	21612.21
458.176	20897.47
458.381	21003.97
458.587	19807.95
458.793	19836.63
458.999	18923.23
459.204	20371.15
459.41	19943.12
459.616	18517.73
459.821	18497.25
460.027	18398.95
460.233	18222.83
460.438	17241.85
460.644	17497.85
460.85	16342.79
461.055	16389.89
461.261	16490.24
461.466	14958.36
461.672	14718.75
461.878	15871.76
462.083	14618.4
462.289	14485.28
462.494	14425.89
462.7	13684.53
462.905	13319.99
463.111	13858.6
463.316	13764.4
463.522	13604.66
463.727	13610.8
463.932	13520.69
464.138	13131.58
464.343	13487.92
464.549	13178.68
464.754	13274.93
464.959	13492.02
465.165	13201.21
465.37	12672.83
465.575	12193.61
465.781	12787.52
465.986	12959.55
466.191	12402.5
466.397	12050.25
466.602	11650.89
466.807	12048.2
467.012	12191.56
467.218	11878.22
467.423	11755.34
467.628	11972.43
467.833	12472.13
468.038	11890.51
468.244	11515.73
468.449	12226.37
468.654	11657.04
468.859	11640.65
