Data from USB4F104151__215__14-45-28-388.txt Node

Date: Thu Mar 13 14:45:28 EDT 2025
User: louis
Spectrometer: USB4F10415
Trigger mode: 4
Integration Time (sec): 2.000000E-2
Scans to average: 1
Electric dark correction enabled: true
Nonlinearity correction enabled: false
Boxcar width: 0
XAxis mode: Wavelengths
Number of Pixels in Spectrum: 3648
>>>>>Begin Spectral Data<<<<<
178.204	-102.4
178.424	-102.4
178.644	-102.4
178.864	-120.83
179.084	-108.54
179.304	20.48
179.524	-45.06
179.744	16.38
179.964	63.49
180.184	-36.86
180.404	-55.3
180.624	-8.19
180.844	4.1
181.064	0
181.283	18.43
181.503	-4.1
181.723	26.62
181.943	-22.53
182.163	34.82
182.383	55.3
182.602	55.3
182.822	14.34
183.042	69.63
183.262	38.91
183.482	-4.1
183.701	20.48
183.921	61.44
184.141	-51.2
184.361	75.77
184.58	26.62
184.8	-8.19
185.02	2.05
185.239	96.25
185.459	26.62
185.679	67.58
185.898	-38.91
186.118	81.92
186.338	22.53
186.557	40.96
186.777	79.87
186.997	22.53
187.216	-22.53
187.436	40.96
187.655	26.62
187.875	159.74
188.095	-14.34
188.314	12.29
188.534	75.77
188.753	2.05
188.973	14.34
189.192	110.59
189.412	6.14
189.631	0
189.851	112.64
190.07	126.97
190.29	-26.62
190.509	16.38
190.729	-30.72
190.948	43.01
191.168	184.32
191.387	-6.14
191.607	2.05
191.826	67.58
192.045	-18.43
192.265	-30.72
192.484	96.25
192.704	61.44
192.923	-53.25
193.142	75.77
193.362	22.53
193.581	69.63
193.8	43.01
194.02	10.24
194.239	26.62
194.458	55.3
194.678	-67.58
194.897	75.77
195.116	59.39
195.335	2.05
195.555	26.62
195.774	100.35
195.993	-4.1
196.212	94.21
196.432	106.49
196.651	71.68
196.87	18.43
197.089	137.21
197.308	67.58
197.528	34.82
197.747	30.72
197.966	65.54
198.185	79.87
198.404	63.49
198.623	75.77
198.842	75.77
199.062	-49.15
199.281	67.58
199.5	116.73
199.719	28.67
199.938	38.91
200.157	51.2
200.376	75.77
200.595	157.69
200.814	32.77
201.033	69.63
201.252	75.77
201.471	63.49
201.69	59.39
201.909	59.39
202.128	4.1
202.347	30.72
202.566	18.43
202.785	75.77
203.004	-16.38
203.223	26.62
203.442	69.63
203.661	-47.1
203.879	75.77
204.098	92.16
204.317	43.01
204.536	47.1
204.755	51.2
204.974	6.14
205.193	4.1
205.411	100.35
205.63	71.68
205.849	22.53
206.068	36.86
206.287	86.01
206.505	47.1
206.724	12.29
206.943	47.1
207.162	59.39
207.381	47.1
207.599	-6.14
207.818	63.49
208.037	-22.53
208.255	18.43
208.474	-4.1
208.693	67.58
208.911	92.16
209.13	-8.19
209.349	92.16
209.567	86.01
209.786	102.4
210.005	53.25
210.223	59.39
210.442	-10.24
210.661	75.77
210.879	38.91
211.098	-4.1
211.316	-22.53
211.535	4.1
211.753	26.62
211.972	83.97
212.191	-12.29
212.409	51.2
212.628	81.92
212.846	26.62
213.065	55.3
213.283	45.06
213.502	26.62
213.72	83.97
213.938	104.45
214.157	0
214.375	38.91
214.594	32.77
214.812	4.1
215.031	28.67
215.249	75.77
215.467	47.1
215.686	20.48
215.904	100.35
216.122	55.3
216.341	59.39
216.559	14.34
216.778	108.54
216.996	67.58
217.214	-61.44
217.432	-18.43
217.651	34.82
217.869	-12.29
218.087	67.58
218.306	20.48
218.524	34.82
218.742	26.62
218.96	10.24
219.179	77.82
219.397	-14.34
219.615	104.45
219.833	67.58
220.051	43.01
220.27	86.01
220.488	59.39
220.706	4.1
220.924	16.38
221.142	67.58
221.36	73.73
221.578	51.2
221.796	26.62
222.015	20.48
222.233	96.25
222.451	94.21
222.669	-26.62
222.887	69.63
223.105	18.43
223.323	-24.58
223.541	14.34
223.759	-4.1
223.977	36.86
224.195	45.06
224.413	71.68
224.631	38.91
224.849	116.73
225.067	49.15
225.285	-10.24
225.503	30.72
225.721	-47.1
225.939	16.38
226.157	75.77
226.375	104.45
226.592	-26.62
226.81	71.68
227.028	75.77
227.246	43.01
227.464	36.86
227.682	53.25
227.9	28.67
228.117	10.24
228.335	59.39
228.553	63.49
228.771	26.62
228.989	-6.14
229.206	104.45
229.424	-6.14
229.642	14.34
229.86	26.62
230.077	10.24
230.295	34.82
230.513	69.63
230.731	30.72
230.948	53.25
231.166	59.39
231.384	-4.1
231.601	71.68
231.819	69.63
232.037	43.01
232.254	67.58
232.472	77.82
232.689	20.48
232.907	92.16
233.125	77.82
233.342	63.49
233.56	20.48
233.777	20.48
233.995	53.25
234.213	81.92
234.43	-8.19
234.648	108.54
234.865	2.05
235.083	30.72
235.3	-36.86
235.518	63.49
235.735	139.26
235.953	51.2
236.17	79.87
236.388	-22.53
236.605	77.82
236.822	102.4
237.04	32.77
237.257	4.1
237.475	75.77
237.692	86.01
237.909	71.68
238.127	-22.53
238.344	14.34
238.562	100.35
238.779	-4.1
238.996	36.86
239.214	24.58
239.431	36.86
239.648	-59.39
239.865	36.86
240.083	51.2
240.3	18.43
240.517	-22.53
240.735	45.06
240.952	30.72
241.169	108.54
241.386	51.2
241.603	96.25
241.821	-18.43
242.038	20.48
242.255	67.58
242.472	-10.24
242.689	-14.34
242.907	71.68
243.124	-2.05
243.341	47.1
243.558	10.24
243.775	28.67
243.992	40.96
244.209	120.83
244.426	88.06
244.643	53.25
244.86	4.1
245.078	79.87
245.295	38.91
245.512	59.39
245.729	-14.34
245.946	47.1
246.163	51.2
246.38	30.72
246.597	53.25
246.814	57.34
247.031	69.63
247.248	-30.72
247.464	20.48
247.681	83.97
247.898	63.49
248.115	102.4
248.332	10.24
248.549	36.86
248.766	59.39
248.983	45.06
249.2	43.01
249.417	75.77
249.633	67.58
249.85	32.77
250.067	120.83
250.284	26.62
250.501	65.54
250.717	65.54
250.934	-6.14
251.151	-26.62
251.368	45.06
251.585	43.01
251.801	-43.01
252.018	-30.72
252.235	79.87
252.451	-38.91
252.668	2.05
252.885	79.87
253.102	-10.24
253.318	92.16
253.535	14.34
253.752	0
253.968	4.1
254.185	63.49
254.401	45.06
254.618	22.53
254.835	16.38
255.051	108.54
255.268	36.86
255.484	-12.29
255.701	-28.67
255.917	69.63
256.134	51.2
256.351	59.39
256.567	-12.29
256.784	77.82
257	26.62
257.217	47.1
257.433	73.73
257.65	22.53
257.866	118.78
258.082	-6.14
258.299	4.1
258.515	36.86
258.732	-47.1
258.948	59.39
259.165	53.25
259.381	57.34
259.597	53.25
259.814	-47.1
260.03	43.01
260.246	34.82
260.463	110.59
260.679	63.49
260.895	77.82
261.112	61.44
261.328	0
261.544	-2.05
261.761	69.63
261.977	67.58
262.193	4.1
262.409	26.62
262.626	67.58
262.842	77.82
263.058	-2.05
263.274	32.77
263.49	4.1
263.707	67.58
263.923	18.43
264.139	10.24
264.355	61.44
264.571	38.91
264.787	63.49
265.004	104.45
265.22	-47.1
265.436	-10.24
265.652	26.62
265.868	6.14
266.084	45.06
266.3	24.58
266.516	34.82
266.732	45.06
266.948	32.77
267.164	28.67
267.38	18.43
267.596	83.97
267.812	120.83
268.028	75.77
268.244	77.82
268.46	100.35
268.676	83.97
268.892	114.69
269.108	47.1
269.324	-6.14
269.54	-12.29
269.756	83.97
269.972	20.48
270.188	40.96
270.403	-10.24
270.619	4.1
270.835	61.44
271.051	-38.91
271.267	36.86
271.483	28.67
271.698	51.2
271.914	135.17
272.13	16.38
272.346	-47.1
272.562	14.34
272.777	104.45
272.993	4.1
273.209	51.2
273.425	26.62
273.64	4.1
273.856	28.67
274.072	26.62
274.287	22.53
274.503	43.01
274.719	-10.24
274.934	55.3
275.15	77.82
275.366	36.86
275.581	-30.72
275.797	-6.14
276.012	-59.39
276.228	34.82
276.444	0
276.659	-12.29
276.875	6.14
277.09	59.39
277.306	53.25
277.521	55.3
277.737	18.43
277.952	30.72
278.168	86.01
278.383	53.25
278.599	16.38
278.814	30.72
279.03	47.1
279.245	157.69
279.461	71.68
279.676	63.49
279.892	-4.1
280.107	-14.34
280.322	-18.43
280.538	-36.86
280.753	34.82
280.969	20.48
281.184	34.82
281.399	47.1
281.615	47.1
281.83	55.3
282.045	43.01
282.26	-18.43
282.476	53.25
282.691	18.43
282.906	14.34
283.122	-20.48
283.337	104.45
283.552	108.54
283.767	51.2
283.983	83.97
284.198	59.39
284.413	51.2
284.628	12.29
284.843	75.77
285.058	71.68
285.274	73.73
285.489	12.29
285.704	18.43
285.919	12.29
286.134	22.53
286.349	10.24
286.564	26.62
286.779	83.97
286.995	14.34
287.21	-63.49
287.425	-20.48
287.64	47.1
287.855	112.64
288.07	18.43
288.285	59.39
288.5	63.49
288.715	161.79
288.93	36.86
289.145	43.01
289.36	53.25
289.575	73.73
289.79	94.21
290.004	61.44
290.219	108.54
290.434	8.19
290.649	-30.72
290.864	47.1
291.079	-24.58
291.294	67.58
291.509	-4.1
291.724	59.39
291.938	34.82
292.153	129.02
292.368	12.29
292.583	38.91
292.798	75.77
293.012	59.39
293.227	49.15
293.442	26.62
293.657	114.69
293.871	112.64
294.086	-30.72
294.301	77.82
294.516	88.06
294.73	65.54
294.945	4.1
295.16	47.1
295.374	47.1
295.589	98.3
295.804	18.43
296.018	36.86
296.233	24.58
296.447	75.77
296.662	79.87
296.877	90.11
297.091	75.77
297.306	4.1
297.52	38.91
297.735	18.43
297.949	10.24
298.164	30.72
298.378	14.34
298.593	79.87
298.807	-55.3
299.022	16.38
299.236	63.49
299.451	-18.43
299.665	2.05
299.88	47.1
300.094	34.82
300.309	88.06
300.523	47.1
300.737	43.01
300.952	47.1
301.166	77.82
301.381	-14.34
301.595	26.62
301.809	12.29
302.024	28.67
302.238	-10.24
302.452	141.31
302.667	18.43
302.881	77.82
303.095	55.3
303.309	75.77
303.524	-8.19
303.738	32.77
303.952	-38.91
304.166	26.62
304.381	73.73
304.595	102.4
304.809	2.05
305.023	116.73
305.237	18.43
305.452	10.24
305.666	43.01
305.88	34.82
306.094	26.62
306.308	67.58
306.522	112.64
306.736	36.86
306.95	57.34
307.164	28.67
307.379	53.25
307.593	100.35
307.807	51.2
308.021	98.3
308.235	-20.48
308.449	10.24
308.663	-14.34
308.877	83.97
309.091	43.01
309.305	40.96
309.519	-63.49
309.733	36.86
309.947	51.2
310.161	38.91
310.374	-2.05
310.588	96.25
310.802	51.2
311.016	63.49
311.23	6.14
311.444	47.1
311.658	92.16
311.872	92.16
312.085	36.86
312.299	38.91
312.513	81.92
312.727	159.74
312.941	4.1
313.154	51.2
313.368	0
313.582	43.01
313.796	26.62
314.009	124.93
314.223	83.97
314.437	-6.14
314.651	-22.53
314.864	75.77
315.078	145.41
315.292	47.1
315.505	-22.53
315.719	51.2
315.933	47.1
316.146	55.3
316.36	12.29
316.573	100.35
316.787	51.2
317.001	12.29
317.214	51.2
317.428	92.16
317.641	12.29
317.855	43.01
318.068	59.39
318.282	12.29
318.495	141.31
318.709	92.16
318.922	32.77
319.136	92.16
319.349	59.39
319.563	104.45
319.776	20.48
319.99	34.82
320.203	86.01
320.417	38.91
320.63	26.62
320.843	67.58
321.057	59.39
321.27	69.63
321.483	36.86
321.697	18.43
321.91	51.2
322.124	20.48
322.337	75.77
322.55	6.14
322.763	94.21
322.977	18.43
323.19	20.48
323.403	55.3
323.617	-22.53
323.83	106.49
324.043	22.53
324.256	12.29
324.469	10.24
324.683	22.53
324.896	110.59
325.109	18.43
325.322	22.53
325.535	36.86
325.748	-16.38
325.962	63.49
326.175	-16.38
326.388	51.2
326.601	88.06
326.814	43.01
327.027	92.16
327.24	124.93
327.453	-10.24
327.666	55.3
327.879	116.73
328.092	92.16
328.305	26.62
328.518	14.34
328.731	114.69
328.944	63.49
329.157	92.16
329.37	34.82
329.583	32.77
329.796	38.91
330.009	120.83
330.222	83.97
330.435	71.68
330.648	102.4
330.861	96.25
331.073	65.54
331.286	59.39
331.499	6.14
331.712	6.14
331.925	2.05
332.138	-34.82
332.35	157.69
332.563	-47.1
332.776	34.82
332.989	28.67
333.202	-38.91
333.414	10.24
333.627	49.15
333.84	-22.53
334.053	51.2
334.265	14.34
334.478	6.14
334.691	47.1
334.903	45.06
335.116	18.43
335.329	65.54
335.541	-4.1
335.754	55.3
335.966	-2.05
336.179	63.49
336.392	112.64
336.604	14.34
336.817	67.58
337.029	104.45
337.242	57.34
337.454	120.83
337.667	4.1
337.88	90.11
338.092	47.1
338.305	10.24
338.517	55.3
338.729	53.25
338.942	116.73
339.154	12.29
339.367	-16.38
339.579	86.01
339.792	81.92
340.004	47.1
340.217	-63.49
340.429	45.06
340.641	14.34
340.854	36.86
341.066	-75.77
341.278	116.73
341.491	83.97
341.703	45.06
341.915	71.68
342.128	36.86
342.34	47.1
342.552	47.1
342.764	2.05
342.977	110.59
343.189	63.49
343.401	102.4
343.613	-38.91
343.826	14.34
344.038	4.1
344.25	18.43
344.462	59.39
344.674	88.06
344.886	18.43
345.099	34.82
345.311	-6.14
345.523	-4.1
345.735	-18.43
345.947	100.35
346.159	12.29
346.371	110.59
346.583	-26.62
346.795	102.4
347.007	10.24
347.219	59.39
347.431	-4.1
347.643	43.01
347.855	30.72
348.067	57.34
348.279	26.62
348.491	26.62
348.703	49.15
348.915	26.62
349.127	36.86
349.339	59.39
349.551	34.82
349.763	0
349.975	100.35
350.187	53.25
350.399	-12.29
350.61	14.34
350.822	22.53
351.034	47.1
351.246	143.36
351.458	83.97
351.669	47.1
351.881	94.21
352.093	-10.24
352.305	69.63
352.517	14.34
352.728	14.34
352.94	65.54
353.152	122.88
353.363	81.92
353.575	45.06
353.787	126.97
353.999	34.82
354.21	67.58
354.422	47.1
354.633	-22.53
354.845	51.2
355.057	18.43
355.268	86.01
355.48	92.16
355.692	55.3
355.903	-38.91
356.115	51.2
356.326	-10.24
356.538	-12.29
356.749	69.63
356.961	34.82
357.172	-14.34
357.384	-77.82
357.595	100.35
357.807	43.01
358.018	30.72
358.23	38.91
358.441	94.21
358.653	124.93
358.864	126.97
359.075	45.06
359.287	18.43
359.498	49.15
359.709	75.77
359.921	32.77
360.132	4.1
360.344	47.1
360.555	38.91
360.766	20.48
360.977	-30.72
361.189	34.82
361.4	51.2
361.611	86.01
361.823	26.62
362.034	34.82
362.245	61.44
362.456	36.86
362.667	61.44
362.879	-36.86
363.09	69.63
363.301	53.25
363.512	114.69
363.723	43.01
363.935	22.53
364.146	133.12
364.357	-73.73
364.568	141.31
364.779	34.82
364.99	59.39
365.201	-16.38
365.412	147.45
365.623	53.25
365.834	67.58
366.045	0
366.256	83.97
366.467	139.26
366.678	-6.14
366.889	92.16
367.1	88.06
367.311	28.67
367.522	-10.24
367.733	18.43
367.944	67.58
368.155	-16.38
368.366	49.15
368.577	96.25
368.788	110.59
368.999	20.48
369.209	-4.1
369.42	49.15
369.631	104.45
369.842	75.77
370.053	69.63
370.264	34.82
370.474	-28.67
370.685	83.97
370.896	26.62
371.107	100.35
371.317	26.62
371.528	69.63
371.739	47.1
371.95	36.86
372.16	51.2
372.371	53.25
372.582	86.01
372.792	43.01
373.003	118.78
373.214	6.14
373.424	75.77
373.635	34.82
373.846	88.06
374.056	-36.86
374.267	75.77
374.477	100.35
374.688	10.24
374.898	18.43
375.109	96.25
375.319	6.14
375.53	28.67
375.74	63.49
375.951	75.77
376.161	34.82
376.372	77.82
376.582	69.63
376.793	61.44
377.003	-2.05
377.214	34.82
377.424	75.77
377.635	-6.14
377.845	-2.05
378.055	118.78
378.266	-65.53
378.476	26.62
378.686	16.38
378.897	51.2
379.107	73.73
379.317	53.25
379.528	69.63
379.738	40.96
379.948	26.62
380.158	67.58
380.369	22.53
380.579	118.78
380.789	36.86
380.999	49.15
381.21	92.16
381.42	126.97
381.63	43.01
381.84	63.49
382.05	79.87
382.261	59.39
382.471	75.77
382.681	73.73
382.891	69.63
383.101	34.82
383.311	-2.05
383.521	43.01
383.731	49.15
383.941	65.54
384.151	34.82
384.361	63.49
384.571	96.25
384.781	108.54
384.991	81.92
385.201	133.12
385.411	34.82
385.621	79.87
385.831	-55.3
386.041	51.2
386.251	38.91
386.461	43.01
386.671	86.01
386.881	55.3
387.091	43.01
387.301	36.86
387.511	67.58
387.72	47.1
387.93	75.77
388.14	16.38
388.35	24.58
388.56	137.21
388.769	77.82
388.979	108.54
389.189	106.49
389.399	94.21
389.609	65.54
389.818	47.1
390.028	92.16
390.238	75.77
390.447	12.29
390.657	94.21
390.867	2.05
391.076	6.14
391.286	8.19
391.496	53.25
391.705	36.86
391.915	118.78
392.125	124.93
392.334	10.24
392.544	69.63
392.753	34.82
392.963	2.05
393.172	108.54
393.382	71.68
393.591	141.31
393.801	30.72
394.01	100.35
394.22	77.82
394.429	38.91
394.639	57.34
394.848	108.54
395.058	139.26
395.267	59.39
395.477	104.45
395.686	90.11
395.895	126.97
396.105	143.36
396.314	63.49
396.524	75.77
396.733	65.54
396.942	102.4
397.152	106.49
397.361	131.07
397.57	47.1
397.78	18.43
397.989	86.01
398.198	124.93
398.407	34.82
398.617	104.45
398.826	45.06
399.035	38.91
399.244	124.93
399.453	2.05
399.663	59.39
399.872	2.05
400.081	57.34
400.29	133.12
400.499	88.06
400.708	122.88
400.917	34.82
401.127	165.89
401.336	75.77
401.545	75.77
401.754	43.01
401.963	153.6
402.172	83.97
402.381	-26.62
402.59	67.58
402.799	112.64
403.008	124.93
403.217	116.73
403.426	20.48
403.635	59.39
403.844	73.73
404.053	141.31
404.262	79.87
404.471	149.5
404.68	75.77
404.888	10.24
405.097	100.35
405.306	92.16
405.515	124.93
405.724	110.59
405.933	143.36
406.142	190.46
406.35	131.07
406.559	112.64
406.768	83.97
406.977	98.3
407.185	122.88
407.394	174.08
407.603	137.21
407.812	77.82
408.02	151.55
408.229	202.75
408.438	190.46
408.646	174.08
408.855	196.61
409.064	153.6
409.272	124.93
409.481	131.07
409.69	172.03
409.898	135.17
410.107	227.32
410.315	178.17
410.524	206.84
410.733	290.81
410.941	217.08
411.15	294.91
411.358	235.52
411.567	262.14
411.775	268.28
411.984	260.09
412.192	231.42
412.401	280.57
412.609	272.38
412.818	305.15
413.026	321.53
413.234	325.63
413.443	370.68
413.651	307.2
413.86	350.2
414.068	333.82
414.276	380.92
414.485	389.11
414.693	370.68
414.901	479.22
415.11	428.03
415.318	421.88
415.526	444.41
415.734	436.22
415.943	468.98
416.151	493.56
416.359	571.38
416.567	540.66
416.776	473.08
416.984	526.33
417.192	632.82
417.4	509.94
417.608	518.14
417.817	684.02
418.025	608.25
418.233	690.17
418.441	638.97
418.649	745.46
418.857	757.75
419.065	751.6
419.273	782.32
419.481	782.32
419.689	888.82
419.897	892.91
420.105	878.58
420.313	937.97
420.521	1110
420.729	1071.09
420.937	970.74
421.145	1005.55
421.353	1165.29
421.561	1239.02
421.769	1132.53
421.977	1320.94
422.185	1325.04
422.393	1290.22
422.601	1519.59
422.809	1398.76
423.017	1333.23
423.224	1482.73
423.432	1568.74
423.64	1499.11
423.848	1675.24
424.056	1710.05
424.263	1777.64
424.471	1734.63
424.679	1781.73
424.887	1849.32
425.094	1943.52
425.302	1988.58
425.51	2088.93
425.718	2111.46
425.925	2074.59
426.133	2320.35
426.341	2418.65
426.548	2527.19
426.756	2533.34
426.964	2385.88
427.171	2576.34
427.379	2648.02
427.586	2574.3
427.794	2934.74
428.001	3035.09
428.209	3106.77
428.417	3067.86
428.624	3311.57
428.832	3035.09
429.039	3125.2
429.247	3213.26
429.454	3538.89
429.662	3712.97
429.869	3561.42
430.076	3803.08
430.284	3547.08
430.491	3827.65
430.699	4018.11
430.906	4048.83
431.114	4009.92
431.321	4245.44
431.528	4196.29
431.736	4556.73
431.943	4855.73
432.15	4657.08
432.358	4790.2
432.565	4982.71
432.772	4931.51
432.979	5199.79
433.187	5318.57
433.394	5296.05
433.601	5838.76
433.808	5754.79
434.016	5797.8
434.223	5783.46
434.43	6307.74
434.637	6051.75
434.844	6662.04
435.052	6623.13
435.259	6498.2
435.466	6600.6
435.673	6623.13
435.88	6811.54
436.087	7501.71
436.294	7387.02
436.501	7221.14
436.708	7505.81
436.915	7743.37
437.122	7956.36
437.329	8122.24
437.537	8124.29
437.743	8349.57
437.95	8220.55
438.157	8626.04
438.364	9023.35
438.571	8908.66
438.778	9123.7
438.985	9848.68
439.192	9615.21
439.399	9838.44
439.606	9545.58
439.813	10026.85
440.02	10766.17
440.227	10637.15
440.433	10372.96
440.64	10827.61
440.847	10743.64
441.054	11063.13
441.261	11650.89
441.467	11611.98
441.674	11734.86
441.881	12068.68
442.088	12093.26
442.294	12199.75
442.501	12400.45
442.708	12801.85
442.914	12967.74
443.121	13590.32
443.328	13549.36
443.534	14149.42
443.741	13786.93
443.948	13578.03
444.154	14645.02
444.361	14432.04
444.568	14606.11
444.774	14685.98
444.981	14987.04
445.187	15456.02
445.394	15906.57
445.6	15906.57
445.807	17518.32
446.013	16367.37
446.22	16604.93
446.426	17362.68
446.633	17598.2
446.839	18310.89
447.046	17561.33
447.252	18464.49
447.459	18554.6
447.665	18310.89
447.871	19281.63
448.078	19932.88
448.284	19021.53
448.491	19734.23
448.697	20516.55
448.903	20803.27
449.11	20682.44
449.316	20598.47
449.522	21006.02
449.728	21378.75
449.935	21982.9
450.141	21724.85
450.347	22066.86
450.553	21296.83
450.76	22021.81
450.966	22427.31
451.172	22156.97
451.378	22888.1
451.584	22298.28
451.791	22990.5
451.997	23174.81
452.203	23680.66
452.409	23271.07
452.615	23064.22
452.821	22101.68
453.027	21884.59
453.233	23086.75
453.44	22378.15
453.646	22617.77
453.852	22869.67
454.058	23217.82
454.264	22660.77
454.47	23017.12
454.676	22449.83
454.882	23334.56
455.088	21264.06
455.294	21702.32
455.5	22159.02
455.705	22070.96
455.911	21188.28
456.117	20639.43
456.323	20592.33
456.529	19609.3
456.735	20448.97
456.941	19715.8
457.147	19359.45
457.352	18896.61
457.558	18663.14
457.764	18679.52
457.97	18269.93
458.176	17891.06
458.381	18204.39
458.587	17239.8
458.793	17399.54
458.999	16158.47
459.204	17508.08
459.41	17293.05
459.616	15857.42
459.821	15957.77
460.027	15812.37
460.233	15750.93
460.438	14821.15
460.644	15243.03
460.85	14241.57
461.055	14163.75
461.261	14159.66
461.466	12912.44
461.672	12668.73
461.878	13522.74
462.083	12777.28
462.289	12277.57
462.494	12453.7
462.7	11888.46
462.905	11454.29
463.111	11810.64
463.316	11874.12
463.522	11816.78
463.727	11816.78
463.932	11614.03
464.138	11800.4
464.343	11630.41
464.549	11364.18
464.754	11544.4
464.959	11525.97
465.165	11554.64
465.37	10983.26
465.575	10860.38
465.781	11206.48
465.986	11102.04
466.191	10884.95
466.397	10596.19
466.602	10125.16
466.807	10532.7
467.012	10481.5
467.218	10598.24
467.423	10504.03
467.628	10358.63
467.833	10766.17
468.038	10631.01
468.244	10194.79
468.449	10542.94
