Data from USB4F104151__157__14-44-41-059.txt Node

Date: Thu Mar 13 14:44:41 EDT 2025
User: louis
Spectrometer: USB4F10415
Trigger mode: 4
Integration Time (sec): 2.000000E-2
Scans to average: 1
Electric dark correction enabled: true
Nonlinearity correction enabled: false
Boxcar width: 0
XAxis mode: Wavelengths
Number of Pixels in Spectrum: 3648
>>>>>Begin Spectral Data<<<<<
178.204	-107.52
178.424	-107.52
178.644	-107.52
178.864	-130.05
179.084	-117.76
179.304	33.79
179.524	-13.31
179.744	-13.31
179.964	35.84
180.184	27.65
180.404	-48.13
180.624	11.26
180.844	11.26
181.064	-91.13
181.283	44.03
181.503	-3.07
181.723	5.12
181.943	23.55
182.163	84.99
182.383	54.27
182.602	39.94
182.822	39.94
183.042	48.13
183.262	-1.02
183.482	1.02
183.701	-23.55
183.921	72.7
184.141	-7.17
184.361	46.08
184.58	115.71
184.8	82.94
185.02	35.84
185.239	46.08
185.459	7.17
185.679	48.13
185.898	11.26
186.118	89.09
186.338	54.27
186.557	80.89
186.777	-7.17
186.997	60.42
187.216	23.55
187.436	80.89
187.655	103.42
187.875	-31.74
188.095	52.22
188.314	80.89
188.534	140.29
188.753	5.12
188.973	84.99
189.192	23.55
189.412	72.7
189.631	27.65
189.851	-31.74
190.07	66.56
190.29	-9.22
190.509	44.03
190.729	35.84
190.948	41.98
191.168	140.29
191.387	17.41
191.607	35.84
191.826	39.94
192.045	60.42
192.265	74.75
192.484	130.05
192.704	37.89
192.923	21.5
193.142	76.8
193.362	-9.22
193.581	138.24
193.8	107.52
194.02	220.16
194.239	27.65
194.458	68.61
194.678	-3.07
194.897	23.55
195.116	-23.55
195.335	46.08
195.555	56.32
195.774	62.46
195.993	7.17
196.212	39.94
196.432	-33.79
196.651	41.98
196.87	7.17
197.089	125.95
197.308	60.42
197.528	27.65
197.747	33.79
197.966	132.09
198.185	171.01
198.404	95.23
198.623	33.79
198.842	41.98
199.062	138.24
199.281	33.79
199.5	25.6
199.719	80.89
199.938	-1.02
200.157	52.22
200.376	91.13
200.595	44.03
200.814	105.47
201.033	5.12
201.252	89.09
201.471	17.41
201.69	74.75
201.909	123.9
202.128	33.79
202.347	113.66
202.566	39.94
202.785	64.51
203.004	52.22
203.223	130.05
203.442	103.42
203.661	48.13
203.879	109.57
204.098	48.13
204.317	3.07
204.536	41.98
204.755	44.03
204.974	64.51
205.193	58.37
205.411	125.95
205.63	70.65
205.849	123.9
206.068	50.18
206.287	66.56
206.505	119.81
206.724	89.09
206.943	-15.36
207.162	60.42
207.381	23.55
207.599	50.18
207.818	60.42
208.037	17.41
208.255	7.17
208.474	25.6
208.693	97.28
208.911	41.98
209.13	15.36
209.349	31.74
209.567	27.65
209.786	39.94
210.005	109.57
210.223	76.8
210.442	-33.79
210.661	72.7
210.879	-1.02
211.098	60.42
211.316	58.37
211.535	56.32
211.753	-33.79
211.972	50.18
212.191	23.55
212.409	37.89
212.628	7.17
212.846	80.89
213.065	31.74
213.283	68.61
213.502	52.22
213.72	64.51
213.938	52.22
214.157	33.79
214.375	50.18
214.594	31.74
214.812	31.74
215.031	101.37
215.249	-5.12
215.467	31.74
215.686	66.56
215.904	91.13
216.122	76.8
216.341	64.51
216.559	68.61
216.778	66.56
216.996	33.79
217.214	64.51
217.432	54.27
217.651	5.12
217.869	19.46
218.087	39.94
218.306	56.32
218.524	74.75
218.742	-70.65
218.96	58.37
219.179	9.22
219.397	66.56
219.615	113.66
219.833	48.13
220.051	97.28
220.27	91.13
220.488	33.79
220.706	82.94
220.924	58.37
221.142	-7.17
221.36	74.75
221.578	35.84
221.796	76.8
222.015	39.94
222.233	132.09
222.451	91.13
222.669	5.12
222.887	89.09
223.105	-1.02
223.323	97.28
223.541	-31.74
223.759	39.94
223.977	66.56
224.195	54.27
224.413	19.46
224.631	-66.56
224.849	-13.31
225.067	33.79
225.285	82.94
225.503	64.51
225.721	25.6
225.939	41.98
226.157	44.03
226.375	56.32
226.592	64.51
226.81	80.89
227.028	66.56
227.246	154.62
227.464	50.18
227.682	64.51
227.9	52.22
228.117	60.42
228.335	-17.41
228.553	95.23
228.771	52.22
228.989	66.56
229.206	19.46
229.424	-48.13
229.642	-17.41
229.86	-64.51
230.077	117.76
230.295	54.27
230.513	27.65
230.731	39.94
230.948	130.05
231.166	39.94
231.384	11.26
231.601	-9.22
231.819	52.22
232.037	44.03
232.254	78.85
232.472	82.94
232.689	-25.6
232.907	50.18
233.125	13.31
233.342	74.75
233.56	3.07
233.777	76.8
233.995	-17.41
234.213	123.9
234.43	105.47
234.648	82.94
234.865	7.17
235.083	109.57
235.3	72.7
235.518	95.23
235.735	87.04
235.953	142.33
236.17	64.51
236.388	-17.41
236.605	105.47
236.822	95.23
237.04	109.57
237.257	60.42
237.475	44.03
237.692	89.09
237.909	99.33
238.127	109.57
238.344	113.66
238.562	60.42
238.779	-17.41
238.996	7.17
239.214	15.36
239.431	5.12
239.648	35.84
239.865	64.51
240.083	105.47
240.3	33.79
240.517	39.94
240.735	35.84
240.952	146.43
241.169	64.51
241.386	76.8
241.603	132.09
241.821	-21.5
242.038	72.7
242.255	66.56
242.472	17.41
242.689	70.65
242.907	31.74
243.124	33.79
243.341	64.51
243.558	23.55
243.775	101.37
243.992	27.65
244.209	109.57
244.426	146.43
244.643	115.71
244.86	50.18
245.078	56.32
245.295	82.94
245.512	48.13
245.729	-25.6
245.946	21.5
246.163	84.99
246.38	64.51
246.597	9.22
246.814	64.51
247.031	50.18
247.248	17.41
247.464	-15.36
247.681	58.37
247.898	50.18
248.115	115.71
248.332	-15.36
248.549	113.66
248.766	119.81
248.983	107.52
249.2	123.9
249.417	68.61
249.633	58.37
249.85	105.47
250.067	-44.03
250.284	58.37
250.501	25.6
250.717	107.52
250.934	-72.7
251.151	56.32
251.368	-1.02
251.585	33.79
251.801	33.79
252.018	-13.31
252.235	58.37
252.451	80.89
252.668	72.7
252.885	138.24
253.102	68.61
253.318	91.13
253.535	64.51
253.752	-1.02
253.968	44.03
254.185	9.22
254.401	44.03
254.618	72.7
254.835	23.55
255.051	3.07
255.268	44.03
255.484	35.84
255.701	56.32
255.917	68.61
256.134	-3.07
256.351	173.05
256.567	-13.31
256.784	72.7
257	64.51
257.217	105.47
257.433	15.36
257.65	74.75
257.866	82.94
258.082	33.79
258.299	-31.74
258.515	156.67
258.732	105.47
258.948	15.36
259.165	62.46
259.381	91.13
259.597	68.61
259.814	35.84
260.03	48.13
260.246	-17.41
260.463	84.99
260.679	23.55
260.895	97.28
261.112	70.65
261.328	-9.22
261.544	50.18
261.761	156.67
261.977	76.8
262.193	64.51
262.409	39.94
262.626	80.89
262.842	66.56
263.058	25.6
263.274	31.74
263.49	72.7
263.707	125.95
263.923	113.66
264.139	-19.46
264.355	25.6
264.571	72.7
264.787	72.7
265.004	80.89
265.22	60.42
265.436	35.84
265.652	-11.26
265.868	70.65
266.084	33.79
266.3	23.55
266.516	31.74
266.732	25.6
266.948	113.66
267.164	11.26
267.38	60.42
267.596	46.08
267.812	105.47
268.028	68.61
268.244	80.89
268.46	99.33
268.676	19.46
268.892	121.85
269.108	7.17
269.324	17.41
269.54	-19.46
269.756	82.94
269.972	50.18
270.188	50.18
270.403	56.32
270.619	80.89
270.835	-1.02
271.051	62.46
271.267	72.7
271.483	23.55
271.698	-15.36
271.914	123.9
272.13	44.03
272.346	35.84
272.562	60.42
272.777	76.8
272.993	11.26
273.209	7.17
273.425	48.13
273.64	7.17
273.856	84.99
274.072	105.47
274.287	60.42
274.503	35.84
274.719	105.47
274.934	115.71
275.15	15.36
275.366	64.51
275.581	33.79
275.797	99.33
276.012	80.89
276.228	78.85
276.444	23.55
276.659	113.66
276.875	-13.31
277.09	150.53
277.306	46.08
277.521	89.09
277.737	64.51
277.952	50.18
278.168	105.47
278.383	107.52
278.599	64.51
278.814	44.03
279.03	52.22
279.245	138.24
279.461	113.66
279.676	84.99
279.892	7.17
280.107	25.6
280.322	70.65
280.538	89.09
280.753	64.51
280.969	121.85
281.184	15.36
281.399	138.24
281.615	50.18
281.83	1.02
282.045	33.79
282.26	11.26
282.476	125.95
282.691	44.03
282.906	-1.02
283.122	39.94
283.337	11.26
283.552	48.13
283.767	-39.94
283.983	58.37
284.198	27.65
284.413	-64.51
284.628	-23.55
284.843	33.79
285.058	56.32
285.274	60.42
285.489	-25.6
285.704	82.94
285.919	35.84
286.134	48.13
286.349	-31.74
286.564	44.03
286.779	19.46
286.995	84.99
287.21	-5.12
287.425	76.8
287.64	64.51
287.855	80.89
288.07	13.31
288.285	41.98
288.5	52.22
288.715	76.8
288.93	62.46
289.145	89.09
289.36	72.7
289.575	78.85
289.79	33.79
290.004	64.51
290.219	121.85
290.434	115.71
290.649	39.94
290.864	-13.31
291.079	9.22
291.294	72.7
291.509	50.18
291.724	54.27
291.938	15.36
292.153	115.71
292.368	76.8
292.583	37.89
292.798	82.94
293.012	72.7
293.227	-17.41
293.442	50.18
293.657	80.89
293.871	44.03
294.086	58.37
294.301	74.75
294.516	31.74
294.73	117.76
294.945	-7.17
295.16	105.47
295.374	76.8
295.589	-11.26
295.804	50.18
296.018	41.98
296.233	72.7
296.447	95.23
296.662	-1.02
296.877	76.8
297.091	76.8
297.306	7.17
297.52	58.37
297.735	121.85
297.949	48.13
298.164	121.85
298.378	-7.17
298.593	3.07
298.807	27.65
299.022	82.94
299.236	93.18
299.451	25.6
299.665	48.13
299.88	64.51
300.094	50.18
300.309	89.09
300.523	-13.31
300.737	54.27
300.952	33.79
301.166	44.03
301.381	-1.02
301.595	91.13
301.809	41.98
302.024	48.13
302.238	64.51
302.452	134.14
302.667	27.65
302.881	29.7
303.095	68.61
303.309	91.13
303.524	25.6
303.738	109.57
303.952	11.26
304.166	150.53
304.381	37.89
304.595	142.33
304.809	39.94
305.023	113.66
305.237	37.89
305.452	-1.02
305.666	31.74
305.88	138.24
306.094	95.23
306.308	89.09
306.522	41.98
306.736	56.32
306.95	-5.12
307.164	41.98
307.379	60.42
307.593	80.89
307.807	58.37
308.021	44.03
308.235	113.66
308.449	48.13
308.663	-7.17
308.877	130.05
309.091	41.98
309.305	105.47
309.519	11.26
309.733	-5.12
309.947	41.98
310.161	25.6
310.374	7.17
310.588	52.22
310.802	44.03
311.016	17.41
311.23	95.23
311.444	23.55
311.658	76.8
311.872	125.95
312.085	33.79
312.299	62.46
312.513	115.71
312.727	23.55
312.941	35.84
313.154	93.18
313.368	23.55
313.582	93.18
313.796	46.08
314.009	101.37
314.223	72.7
314.437	58.37
314.651	72.7
314.864	58.37
315.078	56.32
315.292	41.98
315.505	3.07
315.719	74.75
315.933	89.09
316.146	80.89
316.36	27.65
316.573	58.37
316.787	62.46
317.001	138.24
317.214	58.37
317.428	74.75
317.641	15.36
317.855	84.99
318.068	23.55
318.282	41.98
318.495	74.75
318.709	-1.02
318.922	46.08
319.136	41.98
319.349	46.08
319.563	48.13
319.776	31.74
319.99	48.13
320.203	134.14
320.417	11.26
320.63	89.09
320.843	97.28
321.057	33.79
321.27	17.41
321.483	56.32
321.697	123.9
321.91	3.07
322.124	17.41
322.337	56.32
322.55	44.03
322.763	121.85
322.977	171.01
323.19	31.74
323.403	97.28
323.617	82.94
323.83	113.66
324.043	19.46
324.256	72.7
324.469	21.5
324.683	25.6
324.896	-1.02
325.109	68.61
325.322	27.65
325.535	89.09
325.748	7.17
325.962	23.55
326.175	-15.36
326.388	128
326.601	107.52
326.814	-15.36
327.027	64.51
327.24	82.94
327.453	15.36
327.666	97.28
327.879	68.61
328.092	113.66
328.305	64.51
328.518	56.32
328.731	115.71
328.944	41.98
329.157	105.47
329.37	17.41
329.583	154.62
329.796	82.94
330.009	33.79
330.222	74.75
330.435	33.79
330.648	52.22
330.861	103.42
331.073	11.26
331.286	68.61
331.499	56.32
331.712	111.61
331.925	3.07
332.138	82.94
332.35	140.29
332.563	-27.65
332.776	23.55
332.989	-7.17
333.202	68.61
333.414	72.7
333.627	105.47
333.84	52.22
334.053	125.95
334.265	35.84
334.478	-48.13
334.691	21.5
334.903	50.18
335.116	-5.12
335.329	74.75
335.541	15.36
335.754	177.15
335.966	78.85
336.179	113.66
336.392	66.56
336.604	23.55
336.817	48.13
337.029	78.85
337.242	39.94
337.454	99.33
337.667	123.9
337.88	97.28
338.092	111.61
338.305	72.7
338.517	17.41
338.729	130.05
338.942	105.47
339.154	35.84
339.367	-15.36
339.579	35.84
339.792	52.22
340.004	50.18
340.217	60.42
340.429	105.47
340.641	52.22
340.854	84.99
341.066	44.03
341.278	119.81
341.491	134.14
341.703	56.32
341.915	80.89
342.128	31.74
342.34	111.61
342.552	58.37
342.764	64.51
342.977	-9.22
343.189	66.56
343.401	17.41
343.613	15.36
343.826	105.47
344.038	64.51
344.25	-25.6
344.462	72.7
344.674	39.94
344.886	35.84
345.099	60.42
345.311	66.56
345.523	84.99
345.735	15.36
345.947	39.94
346.159	91.13
346.371	97.28
346.583	66.56
346.795	125.95
347.007	74.75
347.219	72.7
347.431	115.71
347.643	60.42
347.855	56.32
348.067	121.85
348.279	52.22
348.491	72.7
348.703	82.94
348.915	80.89
349.127	19.46
349.339	56.32
349.551	-1.02
349.763	95.23
349.975	39.94
350.187	111.61
350.399	146.43
350.61	89.09
350.822	31.74
351.034	78.85
351.246	37.89
351.458	74.75
351.669	64.51
351.881	39.94
352.093	80.89
352.305	154.62
352.517	23.55
352.728	44.03
352.94	115.71
353.152	29.7
353.363	62.46
353.575	48.13
353.787	80.89
353.999	82.94
354.21	84.99
354.422	123.9
354.633	46.08
354.845	89.09
355.057	97.28
355.268	-1.02
355.48	74.75
355.692	35.84
355.903	56.32
356.115	27.65
356.326	52.22
356.538	48.13
356.749	148.48
356.961	113.66
357.172	-15.36
357.384	80.89
357.595	119.81
357.807	-1.02
358.018	17.41
358.23	23.55
358.441	99.33
358.653	115.71
358.864	31.74
359.075	64.51
359.287	97.28
359.498	82.94
359.709	93.18
359.921	19.46
360.132	99.33
360.344	64.51
360.555	121.85
360.766	64.51
360.977	87.04
361.189	11.26
361.4	46.08
361.611	64.51
361.823	191.49
362.034	70.65
362.245	66.56
362.456	56.32
362.667	48.13
362.879	48.13
363.09	82.94
363.301	52.22
363.512	89.09
363.723	50.18
363.935	66.56
364.146	97.28
364.357	19.46
364.568	56.32
364.779	74.75
364.99	101.37
365.201	107.52
365.412	144.38
365.623	15.36
365.834	72.7
366.045	27.65
366.256	68.61
366.467	113.66
366.678	31.74
366.889	82.94
367.1	56.32
367.311	46.08
367.522	17.41
367.733	121.85
367.944	80.89
368.155	31.74
368.366	23.55
368.577	35.84
368.788	121.85
368.999	46.08
369.209	89.09
369.42	84.99
369.631	97.28
369.842	119.81
370.053	60.42
370.264	66.56
370.474	-27.65
370.685	115.71
370.896	76.8
371.107	115.71
371.317	121.85
371.528	1.02
371.739	58.37
371.95	95.23
372.16	115.71
372.371	58.37
372.582	39.94
372.792	11.26
373.003	105.47
373.214	93.18
373.424	97.28
373.635	-23.55
373.846	89.09
374.056	115.71
374.267	39.94
374.477	72.7
374.688	74.75
374.898	66.56
375.109	89.09
375.319	82.94
375.53	109.57
375.74	80.89
375.951	89.09
376.161	64.51
376.372	125.95
376.582	15.36
376.793	97.28
377.003	41.98
377.214	7.17
377.424	17.41
377.635	7.17
377.845	70.65
378.055	107.52
378.266	41.98
378.476	105.47
378.686	31.74
378.897	72.7
379.107	72.7
379.317	113.66
379.528	132.09
379.738	121.85
379.948	119.81
380.158	99.33
380.369	39.94
380.579	25.6
380.789	-1.02
380.999	89.09
381.21	82.94
381.42	97.28
381.63	23.55
381.84	97.28
382.05	48.13
382.261	68.61
382.471	97.28
382.681	107.52
382.891	115.71
383.101	80.89
383.311	48.13
383.521	66.56
383.731	64.51
383.941	138.24
384.151	99.33
384.361	35.84
384.571	128
384.781	117.76
384.991	56.32
385.201	109.57
385.411	82.94
385.621	33.79
385.831	27.65
386.041	113.66
386.251	138.24
386.461	72.7
386.671	95.23
386.881	97.28
387.091	52.22
387.301	80.89
387.511	113.66
387.72	89.09
387.93	121.85
388.14	27.65
388.35	72.7
388.56	66.56
388.769	76.8
388.979	17.41
389.189	33.79
389.399	35.84
389.609	58.37
389.818	52.22
390.028	60.42
390.238	89.09
390.447	105.47
390.657	80.89
390.867	76.8
391.076	64.51
391.286	89.09
391.496	89.09
391.705	72.7
391.915	56.32
392.125	84.99
392.334	50.18
392.544	97.28
392.753	76.8
392.963	19.46
393.172	80.89
393.382	74.75
393.591	148.48
393.801	17.41
394.01	80.89
394.22	93.18
394.429	72.7
394.639	64.51
394.848	80.89
395.058	17.41
395.267	56.32
395.477	27.65
395.686	121.85
395.895	99.33
396.105	189.44
396.314	46.08
396.524	87.04
396.733	44.03
396.942	140.29
397.152	115.71
397.361	138.24
397.57	121.85
397.78	89.09
397.989	146.43
398.198	205.82
398.407	66.56
398.617	156.67
398.826	146.43
399.035	64.51
399.244	113.66
399.453	99.33
399.663	121.85
399.872	158.72
400.081	93.18
400.29	132.09
400.499	-15.36
400.708	142.33
400.917	140.29
401.127	121.85
401.336	50.18
401.545	162.81
401.754	181.25
401.963	121.85
402.172	138.24
402.381	158.72
402.59	103.42
402.799	97.28
403.008	177.15
403.217	80.89
403.426	70.65
403.635	82.94
403.844	185.34
404.053	187.39
404.262	185.34
404.471	142.33
404.68	209.92
404.888	164.86
405.097	203.77
405.306	109.57
405.515	150.53
405.724	211.96
405.933	140.29
406.142	244.73
406.35	181.25
406.559	181.25
406.768	158.72
406.977	162.81
407.185	121.85
407.394	211.96
407.603	150.53
407.812	261.12
408.02	254.97
408.229	177.15
408.438	173.05
408.646	214.01
408.855	191.49
409.064	207.87
409.272	236.54
409.481	254.97
409.69	310.27
409.898	265.21
410.107	314.36
410.315	318.46
410.524	343.03
410.733	318.46
410.941	216.06
411.15	269.31
411.358	340.99
411.567	359.42
411.775	326.65
411.984	293.88
412.192	390.14
412.401	312.32
412.609	379.9
412.818	357.37
413.026	373.75
413.234	402.43
413.443	392.19
413.651	416.76
413.86	418.81
414.068	504.82
414.276	416.76
414.485	482.3
414.693	510.97
414.901	558.07
415.11	605.17
415.318	482.3
415.526	646.13
415.734	662.52
415.943	674.81
416.151	625.65
416.359	654.33
416.567	695.29
416.776	672.76
416.984	832.5
417.192	764.92
417.4	908.27
417.608	740.34
417.817	801.78
418.025	812.02
418.233	1000.43
418.441	891.89
418.649	916.47
418.857	979.95
419.065	992.24
419.273	938.99
419.481	1119.21
419.689	1145.84
419.897	1162.22
420.105	1278.96
420.313	1194.99
420.521	1289.2
420.729	1276.91
420.937	1377.26
421.145	1377.26
421.353	1371.12
421.561	1463.27
421.769	1444.84
421.977	1571.82
422.185	1604.58
422.393	1661.93
422.601	1844.2
422.809	1684.45
423.017	1768.42
423.224	1973.22
423.432	2022.37
423.64	1940.45
423.848	2130.91
424.056	2081.76
424.263	2210.78
424.471	2268.13
424.679	2266.08
424.887	2345.95
425.094	2442.2
425.302	2362.33
425.51	2565.08
425.718	2616.28
425.925	2593.75
426.133	2628.57
426.341	2868.18
426.548	3103.7
426.756	3027.92
426.964	3103.7
427.171	3189.71
427.379	3304.4
427.586	3414.99
427.794	3392.46
428.001	3460.04
428.209	3650.5
428.417	3685.32
428.624	3871.68
428.832	4031.43
429.039	4019.14
429.247	3957.7
429.454	4316.09
429.662	4555.71
429.869	4228.03
430.076	4623.29
430.284	4334.53
430.491	4764.6
430.699	4877.24
430.906	4819.89
431.114	4907.96
431.321	5147.57
431.528	5225.39
431.736	5632.94
431.943	5596.07
432.15	5655.47
432.358	5784.49
432.565	5948.33
432.772	6054.82
432.979	6214.56
433.187	6476.7
433.394	6372.25
433.601	6765.46
433.808	6986.65
434.016	6691.74
434.223	7105.43
434.43	7547.79
434.637	7383.95
434.844	7793.55
435.052	8108.93
435.259	8020.87
435.466	7889.8
435.673	7912.33
435.88	8635.26
436.087	8891.26
436.294	8928.12
436.501	8751.99
436.708	8852.34
436.915	9167.73
437.122	9485.17
437.329	9608.05
437.537	10042.21
437.743	10148.71
437.95	9778.03
438.157	10546.02
438.364	10849.11
438.571	10621.79
438.778	11000.66
438.985	11793.23
439.192	11447.12
439.399	11475.79
439.606	11471.7
439.813	12280.64
440.02	12733.25
440.227	12475.2
440.433	12417.86
440.64	12811.07
440.847	12647.23
441.054	13128.5
441.261	13853.48
441.467	13738.8
441.674	14183.21
441.881	14840.61
442.088	14625.57
442.294	14408.48
442.501	14768.93
442.708	15153.94
442.914	15575.83
443.121	16192.26
443.328	15608.59
443.534	17142.52
443.741	16182.03
443.948	16237.32
444.154	17758.96
444.361	17500.92
444.568	17521.4
444.774	17394.42
444.981	17283.83
445.187	18416.36
445.394	19157.72
445.6	18719.46
445.807	20415.18
446.013	19823.31
446.22	19905.23
446.426	20863.68
446.633	21177.02
446.839	21750.45
447.046	20736.71
447.252	21942.96
447.459	22278.83
447.665	21902
447.871	22799.01
448.078	23653.02
448.284	22669.99
448.491	23079.58
448.697	24294.03
448.903	24713.86
449.11	25006.72
449.316	24459.91
449.522	24500.87
449.728	25502.33
449.935	25647.74
450.141	25553.53
450.347	26286.7
450.553	25205.38
450.76	25713.27
450.966	26444.4
451.172	26255.98
451.378	27144.8
451.584	26292.85
451.791	27187.81
451.997	26808.93
452.203	27449.95
452.409	27310.69
452.615	27462.24
452.821	26317.42
453.027	25963.12
453.233	27419.23
453.44	26436.2
453.646	26331.76
453.852	26477.16
454.058	27566.68
454.264	26010.23
454.47	27306.59
454.676	26116.72
454.882	27548.25
455.088	24881.8
455.294	25338.49
455.5	25664.12
455.705	25918.07
455.911	24875.65
456.117	24361.61
456.323	24394.38
456.529	23026.34
456.735	24013.46
456.941	23349.92
457.147	23050.91
457.352	22352.55
457.558	21838.51
457.764	22358.7
457.97	21772.98
458.176	21473.98
458.381	21150.4
458.587	20255.43
458.793	20431.56
458.999	19094.24
459.204	20775.62
459.41	19985.1
459.616	18631.4
459.821	18825.95
460.027	18801.38
460.233	18328.3
460.438	17537.78
460.644	17564.4
460.85	16775.94
461.055	16259.85
461.261	16540.42
461.466	15336.21
461.672	14678.82
461.878	15833.87
462.083	15082.27
462.289	14408.48
462.494	14431.01
462.7	13855.53
462.905	13343.54
463.111	13751.09
463.316	13927.21
463.522	13419.32
463.727	13652.78
463.932	13488.95
464.138	13417.27
464.343	13572.91
464.549	12884.8
464.754	13456.18
464.959	13517.62
465.165	13204.28
465.37	12874.56
465.575	12352.32
465.781	12933.95
465.986	12751.68
466.191	12483.39
466.397	12094.28
466.602	11731.79
466.807	12364.61
