Data from USB4F104151__216__14-45-29-547.txt Node

Date: Thu Mar 13 14:45:29 EDT 2025
User: louis
Spectrometer: USB4F10415
Trigger mode: 4
Integration Time (sec): 2.000000E-2
Scans to average: 1
Electric dark correction enabled: true
Nonlinearity correction enabled: false
Boxcar width: 0
XAxis mode: Wavelengths
Number of Pixels in Spectrum: 3648
>>>>>Begin Spectral Data<<<<<
178.204	-134.48
178.424	-134.48
178.644	-134.48
178.864	-68.95
179.084	-138.58
179.304	0.68
179.524	70.31
179.744	-19.8
179.964	-3.41
180.184	-27.99
180.404	21.16
180.624	-36.18
180.844	17.07
181.064	-11.61
181.283	-19.8
181.503	17.07
181.723	-7.51
181.943	2.73
182.163	80.55
182.383	27.31
182.602	60.07
182.822	86.7
183.042	25.26
183.262	-56.66
183.482	-19.8
183.701	33.45
183.921	33.45
184.141	17.07
184.361	29.35
184.58	70.31
184.8	58.03
185.02	51.88
185.239	45.74
185.459	-3.41
185.679	53.93
185.898	-17.75
186.118	47.79
186.338	41.64
186.557	39.59
186.777	39.59
186.997	33.45
187.216	37.55
187.436	103.08
187.655	-9.56
187.875	78.51
188.095	-15.7
188.314	12.97
188.534	82.6
188.753	39.59
188.973	94.89
189.192	113.32
189.412	29.35
189.631	15.02
189.851	-11.61
190.07	80.55
190.29	8.87
190.509	72.36
190.729	-46.42
190.948	66.22
191.168	166.57
191.387	74.41
191.607	78.51
191.826	70.31
192.045	80.55
192.265	-17.75
192.484	-25.94
192.704	76.46
192.923	72.36
193.142	94.89
193.362	10.92
193.581	103.08
193.8	12.97
194.02	39.59
194.239	4.78
194.458	-3.41
194.678	45.74
194.897	12.97
195.116	45.74
195.335	8.87
195.555	47.79
195.774	29.35
195.993	37.55
196.212	-27.99
196.432	41.64
196.651	-25.94
196.87	4.78
197.089	45.74
197.308	82.6
197.528	144.04
197.747	-36.18
197.966	53.93
198.185	64.17
198.404	12.97
198.623	58.03
198.842	47.79
199.062	70.31
199.281	45.74
199.5	74.41
199.719	47.79
199.938	64.17
200.157	39.59
200.376	-42.32
200.595	64.17
200.814	53.93
201.033	45.74
201.252	-19.8
201.471	90.79
201.69	29.35
201.909	53.93
202.128	41.64
202.347	35.5
202.566	-5.46
202.785	17.07
203.004	53.93
203.223	139.94
203.442	53.93
203.661	-27.99
203.879	31.4
204.098	107.18
204.317	-15.7
204.536	37.55
204.755	45.74
204.974	-25.94
205.193	-25.94
205.411	133.8
205.63	41.64
205.849	80.55
206.068	82.6
206.287	55.98
206.505	17.07
206.724	6.83
206.943	31.4
207.162	-5.46
207.381	-19.8
207.599	-15.7
207.818	29.35
208.037	-25.94
208.255	47.79
208.474	72.36
208.693	23.21
208.911	31.4
209.13	35.5
209.349	62.12
209.567	53.93
209.786	66.22
210.005	0.68
210.223	33.45
210.442	-60.76
210.661	53.93
210.879	64.17
211.098	-1.37
211.316	45.74
211.535	62.12
211.753	-17.75
211.972	37.55
212.191	62.12
212.409	60.07
212.628	39.59
212.846	-27.99
213.065	72.36
213.283	94.89
213.502	53.93
213.72	-1.37
213.938	72.36
214.157	49.83
214.375	21.16
214.594	45.74
214.812	2.73
215.031	72.36
215.249	-3.41
215.467	-17.75
215.686	45.74
215.904	119.46
216.122	-42.32
216.341	74.41
216.559	78.51
216.778	41.64
216.996	41.64
217.214	17.07
217.432	-40.28
217.651	4.78
217.869	-38.23
218.087	-1.37
218.306	4.78
218.524	101.03
218.742	45.74
218.96	98.99
219.179	31.4
219.397	94.89
219.615	86.7
219.833	49.83
220.051	-3.41
220.27	78.51
220.488	2.73
220.706	-36.18
220.924	80.55
221.142	51.88
221.36	88.75
221.578	4.78
221.796	4.78
222.015	55.98
222.233	-7.51
222.451	133.8
222.669	98.99
222.887	37.55
223.105	25.26
223.323	33.45
223.541	-34.13
223.759	119.46
223.977	53.93
224.195	76.46
224.413	45.74
224.631	-52.56
224.849	23.21
225.067	115.37
225.285	-7.51
225.503	53.93
225.721	-44.37
225.939	17.07
226.157	62.12
226.375	78.51
226.592	51.88
226.81	-15.7
227.028	98.99
227.246	88.75
227.464	17.07
227.682	45.74
227.9	31.4
228.117	72.36
228.335	55.98
228.553	152.23
228.771	23.21
228.989	127.66
229.206	29.35
229.424	49.83
229.642	21.16
229.86	27.31
230.077	103.08
230.295	45.74
230.513	107.18
230.731	88.75
230.948	90.79
231.166	96.94
231.384	-15.7
231.601	-5.46
231.819	88.75
232.037	23.21
232.254	21.16
232.472	-11.61
232.689	33.45
232.907	103.08
233.125	78.51
233.342	23.21
233.56	-3.41
233.777	53.93
233.995	39.59
234.213	82.6
234.43	0.68
234.648	37.55
234.865	17.07
235.083	80.55
235.3	109.22
235.518	107.18
235.735	66.22
235.953	86.7
236.17	105.13
236.388	4.78
236.605	-23.89
236.822	119.46
237.04	101.03
237.257	66.22
237.475	70.31
237.692	62.12
237.909	31.4
238.127	33.45
238.344	98.99
238.562	98.99
238.779	29.35
238.996	23.21
239.214	31.4
239.431	96.94
239.648	2.73
239.865	10.92
240.083	62.12
240.3	-19.8
240.517	78.51
240.735	35.5
240.952	90.79
241.169	64.17
241.386	-25.94
241.603	58.03
241.821	72.36
242.038	113.32
242.255	37.55
242.472	-54.61
242.689	70.31
242.907	84.65
243.124	66.22
243.341	88.75
243.558	12.97
243.775	123.56
243.992	17.07
244.209	45.74
244.426	19.11
244.643	53.93
244.86	21.16
245.078	17.07
245.295	84.65
245.512	41.64
245.729	53.93
245.946	47.79
246.163	49.83
246.38	25.26
246.597	-3.41
246.814	21.16
247.031	37.55
247.248	21.16
247.464	45.74
247.681	41.64
247.898	37.55
248.115	10.92
248.332	6.83
248.549	37.55
248.766	80.55
248.983	74.41
249.2	80.55
249.417	15.02
249.633	109.22
249.85	21.16
250.067	15.02
250.284	4.78
250.501	31.4
250.717	74.41
250.934	-3.41
251.151	62.12
251.368	45.74
251.585	-23.89
251.801	-5.46
252.018	39.59
252.235	82.6
252.451	-36.18
252.668	-7.51
252.885	35.5
253.102	21.16
253.318	58.03
253.535	45.74
253.752	-97.62
253.968	31.4
254.185	4.78
254.401	70.31
254.618	17.07
254.835	62.12
255.051	98.99
255.268	88.75
255.484	53.93
255.701	25.26
255.917	45.74
256.134	4.78
256.351	70.31
256.567	-17.75
256.784	4.78
257	12.97
257.217	103.08
257.433	37.55
257.65	45.74
257.866	23.21
258.082	25.26
258.299	17.07
258.515	29.35
258.732	66.22
258.948	12.97
259.165	37.55
259.381	-9.56
259.597	62.12
259.814	-1.37
260.03	119.46
260.246	21.16
260.463	12.97
260.679	62.12
260.895	-21.85
261.112	39.59
261.328	62.12
261.544	43.69
261.761	74.41
261.977	53.93
262.193	17.07
262.409	41.64
262.626	33.45
262.842	53.93
263.058	29.35
263.274	45.74
263.49	45.74
263.707	107.18
263.923	53.93
264.139	12.97
264.355	80.55
264.571	39.59
264.787	64.17
265.004	-36.18
265.22	103.08
265.436	35.5
265.652	-15.7
265.868	17.07
266.084	47.79
266.3	39.59
266.516	70.31
266.732	64.17
266.948	60.07
267.164	66.22
267.38	55.98
267.596	64.17
267.812	70.31
268.028	49.83
268.244	19.11
268.46	4.78
268.676	37.55
268.892	-3.41
269.108	21.16
269.324	47.79
269.54	-3.41
269.756	96.94
269.972	-17.75
270.188	58.03
270.403	31.4
270.619	-48.47
270.835	117.42
271.051	131.75
271.267	47.79
271.483	-27.99
271.698	53.93
271.914	94.89
272.13	70.31
272.346	21.16
272.562	60.07
272.777	33.45
272.993	119.46
273.209	21.16
273.425	35.5
273.64	4.78
273.856	53.93
274.072	27.31
274.287	58.03
274.503	15.02
274.719	58.03
274.934	-11.61
275.15	-58.71
275.366	12.97
275.581	96.94
275.797	53.93
276.012	8.87
276.228	49.83
276.444	-19.8
276.659	33.45
276.875	19.11
277.09	37.55
277.306	4.78
277.521	8.87
277.737	45.74
277.952	-9.56
278.168	-27.99
278.383	-23.89
278.599	86.7
278.814	45.74
279.03	45.74
279.245	144.04
279.461	37.55
279.676	72.36
279.892	29.35
280.107	45.74
280.322	-25.94
280.538	12.97
280.753	94.89
280.969	80.55
281.184	154.28
281.399	23.21
281.615	70.31
281.83	21.16
282.045	-66.9
282.26	-3.41
282.476	51.88
282.691	74.41
282.906	35.5
283.122	78.51
283.337	21.16
283.552	117.42
283.767	21.16
283.983	64.17
284.198	72.36
284.413	64.17
284.628	-19.8
284.843	80.55
285.058	35.5
285.274	103.08
285.489	70.31
285.704	70.31
285.919	21.16
286.134	43.69
286.349	-19.8
286.564	25.26
286.779	51.88
286.995	37.55
287.21	49.83
287.425	94.89
287.64	62.12
287.855	-15.7
288.07	8.87
288.285	41.64
288.5	49.83
288.715	94.89
288.93	17.07
289.145	86.7
289.36	-68.95
289.575	-73.04
289.79	53.93
290.004	-13.65
290.219	90.79
290.434	0.68
290.649	12.97
290.864	0.68
291.079	66.22
291.294	78.51
291.509	12.97
291.724	37.55
291.938	23.21
292.153	88.75
292.368	41.64
292.583	41.64
292.798	2.73
293.012	98.99
293.227	78.51
293.442	49.83
293.657	58.03
293.871	98.99
294.086	25.26
294.301	45.74
294.516	19.11
294.73	37.55
294.945	-3.41
295.16	45.74
295.374	66.22
295.589	53.93
295.804	-15.7
296.018	25.26
296.233	37.55
296.447	-17.75
296.662	-19.8
296.877	80.55
297.091	111.27
297.306	-42.32
297.52	51.88
297.735	29.35
297.949	-19.8
298.164	35.5
298.378	17.07
298.593	8.87
298.807	21.16
299.022	86.7
299.236	58.03
299.451	35.5
299.665	-3.41
299.88	66.22
300.094	74.41
300.309	23.21
300.523	35.5
300.737	51.88
300.952	8.87
301.166	43.69
301.381	4.78
301.595	53.93
301.809	78.51
302.024	8.87
302.238	17.07
302.452	94.89
302.667	12.97
302.881	55.98
303.095	4.78
303.309	103.08
303.524	4.78
303.738	60.07
303.952	53.93
304.166	70.31
304.381	-64.85
304.595	98.99
304.809	-1.37
305.023	15.02
305.237	-3.41
305.452	51.88
305.666	15.02
305.88	70.31
306.094	82.6
306.308	78.51
306.522	53.93
306.736	78.51
306.95	31.4
307.164	17.07
307.379	94.89
307.593	152.23
307.807	53.93
308.021	35.5
308.235	49.83
308.449	-13.65
308.663	6.83
308.877	53.93
309.091	21.16
309.305	41.64
309.519	-64.85
309.733	111.27
309.947	-34.13
310.161	123.56
310.374	86.7
310.588	53.93
310.802	-15.7
311.016	-3.41
311.23	103.08
311.444	-32.08
311.658	105.13
311.872	111.27
312.085	131.75
312.299	45.74
312.513	58.03
312.727	103.08
312.941	29.35
313.154	29.35
313.368	156.33
313.582	33.45
313.796	53.93
314.009	41.64
314.223	25.26
314.437	111.27
314.651	45.74
314.864	4.78
315.078	72.36
315.292	49.83
315.505	12.97
315.719	94.89
315.933	92.84
316.146	47.79
316.36	64.17
316.573	86.7
316.787	62.12
317.001	58.03
317.214	-38.23
317.428	66.22
317.641	-7.51
317.855	19.11
318.068	2.73
318.282	6.83
318.495	88.75
318.709	27.31
318.922	51.88
319.136	76.46
319.349	39.59
319.563	4.78
319.776	80.55
319.99	45.74
320.203	25.26
320.417	-1.37
320.63	78.51
320.843	152.23
321.057	-7.51
321.27	17.07
321.483	47.79
321.697	96.94
321.91	-42.32
322.124	96.94
322.337	80.55
322.55	-11.61
322.763	111.27
322.977	86.7
323.19	43.69
323.403	90.79
323.617	27.31
323.83	47.79
324.043	-36.18
324.256	29.35
324.469	8.87
324.683	23.21
324.896	-27.99
325.109	-3.41
325.322	29.35
325.535	-7.51
325.748	86.7
325.962	45.74
326.175	-27.99
326.388	51.88
326.601	94.89
326.814	19.11
327.027	98.99
327.24	121.51
327.453	-56.66
327.666	78.51
327.879	47.79
328.092	90.79
328.305	-85.33
328.518	84.65
328.731	-9.56
328.944	6.83
329.157	62.12
329.37	70.31
329.583	92.84
329.796	-17.75
330.009	78.51
330.222	64.17
330.435	84.65
330.648	-1.37
330.861	60.07
331.073	41.64
331.286	78.51
331.499	12.97
331.712	41.64
331.925	74.41
332.138	-9.56
332.35	86.7
332.563	4.78
332.776	119.46
332.989	-40.28
333.202	70.31
333.414	0.68
333.627	94.89
333.84	70.31
334.053	78.51
334.265	90.79
334.478	29.35
334.691	86.7
334.903	-17.75
335.116	21.16
335.329	39.59
335.541	82.6
335.754	98.99
335.966	53.93
336.179	29.35
336.392	101.03
336.604	29.35
336.817	-23.89
337.029	86.7
337.242	51.88
337.454	76.46
337.667	82.6
337.88	39.59
338.092	2.73
338.305	45.74
338.517	162.47
338.729	84.65
338.942	139.94
339.154	55.98
339.367	33.45
339.579	58.03
339.792	123.56
340.004	107.18
340.217	17.07
340.429	53.93
340.641	39.59
340.854	33.45
341.066	55.98
341.278	78.51
341.491	39.59
341.703	55.98
341.915	66.22
342.128	82.6
342.34	-7.51
342.552	15.02
342.764	43.69
342.977	39.59
343.189	64.17
343.401	64.17
343.613	6.83
343.826	45.74
344.038	45.74
344.25	68.27
344.462	33.45
344.674	70.31
344.886	55.98
345.099	70.31
345.311	49.83
345.523	64.17
345.735	-3.41
345.947	29.35
346.159	49.83
346.371	31.4
346.583	53.93
346.795	117.42
347.007	10.92
347.219	29.35
347.431	-19.8
347.643	72.36
347.855	15.02
348.067	45.74
348.279	-3.41
348.491	94.89
348.703	94.89
348.915	115.37
349.127	25.26
349.339	-27.99
349.551	55.98
349.763	62.12
349.975	101.03
350.187	70.31
350.399	43.69
350.61	62.12
350.822	-17.75
351.034	-5.46
351.246	-11.61
351.458	72.36
351.669	135.85
351.881	64.17
352.093	66.22
352.305	23.21
352.517	74.41
352.728	12.97
352.94	-3.41
353.152	80.55
353.363	41.64
353.575	98.99
353.787	58.03
353.999	121.51
354.21	101.03
354.422	-36.18
354.633	-9.56
354.845	39.59
355.057	103.08
355.268	23.21
355.48	115.37
355.692	-25.94
355.903	37.55
356.115	62.12
356.326	-17.75
356.538	129.7
356.749	70.31
356.961	156.33
357.172	62.12
357.384	105.13
357.595	131.75
357.807	168.62
358.018	82.6
358.23	29.35
358.441	60.07
358.653	119.46
358.864	51.88
359.075	78.51
359.287	39.59
359.498	94.89
359.709	133.8
359.921	80.55
360.132	-11.61
360.344	39.59
360.555	-3.41
360.766	86.7
360.977	123.56
361.189	72.36
361.4	25.26
361.611	64.17
361.823	78.51
362.034	80.55
362.245	12.97
362.456	21.16
362.667	72.36
362.879	49.83
363.09	66.22
363.301	94.89
363.512	103.08
363.723	21.16
363.935	0.68
364.146	64.17
364.357	-21.85
364.568	78.51
364.779	8.87
364.99	78.51
365.201	8.87
365.412	78.51
365.623	49.83
365.834	-9.56
366.045	33.45
366.256	72.36
366.467	119.46
366.678	37.55
366.889	23.21
367.1	70.31
367.311	86.7
367.522	94.89
367.733	39.59
367.944	37.55
368.155	70.31
368.366	127.66
368.577	141.99
368.788	41.64
368.999	33.45
369.209	62.12
369.42	113.32
369.631	29.35
369.842	45.74
370.053	39.59
370.264	168.62
370.474	-3.41
370.685	17.07
370.896	39.59
371.107	74.41
371.317	131.75
371.528	21.16
371.739	80.55
371.95	115.37
372.16	-3.41
372.371	78.51
372.582	90.79
372.792	152.23
373.003	23.21
373.214	62.12
373.424	0.68
373.635	29.35
373.846	62.12
374.056	15.02
374.267	88.75
374.477	123.56
374.688	0.68
374.898	39.59
375.109	17.07
375.319	21.16
375.53	49.83
375.74	66.22
375.951	62.12
376.161	49.83
376.372	129.7
376.582	66.22
376.793	39.59
377.003	33.45
377.214	41.64
377.424	62.12
377.635	94.89
377.845	-1.37
378.055	88.75
378.266	39.59
378.476	74.41
378.686	70.31
378.897	41.64
379.107	119.46
379.317	68.27
379.528	-25.94
379.738	117.42
379.948	43.69
380.158	45.74
380.369	-15.7
380.579	123.56
380.789	33.45
380.999	119.46
381.21	123.56
381.42	137.9
381.63	15.02
381.84	53.93
382.05	39.59
382.261	105.13
382.471	8.87
382.681	58.03
382.891	129.7
383.101	62.12
383.311	33.45
383.521	6.83
383.731	53.93
383.941	123.56
384.151	105.13
384.361	-9.56
384.571	86.7
384.781	144.04
384.991	88.75
385.201	94.89
385.411	62.12
385.621	53.93
385.831	64.17
386.041	123.56
386.251	55.98
386.461	98.99
386.671	17.07
386.881	29.35
387.091	107.18
387.301	51.88
387.511	111.27
387.72	31.4
387.93	37.55
388.14	43.69
388.35	37.55
388.56	154.28
388.769	21.16
388.979	21.16
389.189	-11.61
389.399	96.94
389.609	45.74
389.818	146.09
390.028	49.83
390.238	45.74
390.447	-46.42
390.657	49.83
390.867	0.68
391.076	4.78
391.286	35.5
391.496	119.46
391.705	72.36
391.915	29.35
392.125	12.97
392.334	33.45
392.544	45.74
392.753	53.93
392.963	88.75
393.172	119.46
393.382	111.27
393.591	58.03
393.801	103.08
394.01	23.21
394.22	78.51
394.429	111.27
394.639	129.7
394.848	86.7
395.058	82.6
395.267	86.7
395.477	131.75
395.686	162.47
395.895	127.66
396.105	103.08
396.314	117.42
396.524	53.93
396.733	156.33
396.942	121.51
397.152	119.46
397.361	127.66
397.57	125.61
397.78	137.9
397.989	158.38
398.198	160.42
398.407	49.83
398.617	53.93
398.826	127.66
399.035	111.27
399.244	125.61
399.453	98.99
399.663	37.55
399.872	160.42
400.081	88.75
400.29	98.99
400.499	111.27
400.708	141.99
400.917	53.93
401.127	111.27
401.336	17.07
401.545	129.7
401.754	70.31
401.963	78.51
402.172	82.6
402.381	66.22
402.59	137.9
402.799	127.66
403.008	187.05
403.217	49.83
403.426	133.8
403.635	146.09
403.844	113.32
404.053	90.79
404.262	82.6
404.471	185
404.68	152.23
404.888	156.33
405.097	168.62
405.306	144.04
405.515	90.79
405.724	121.51
405.933	152.23
406.142	152.23
406.35	162.47
406.559	228.01
406.768	230.06
406.977	244.39
407.185	246.44
407.394	178.86
407.603	144.04
407.812	238.25
408.02	262.82
408.229	144.04
408.438	223.91
408.646	135.85
408.855	187.05
409.064	225.96
409.272	166.57
409.481	182.95
409.69	215.72
409.898	240.29
410.107	291.49
410.315	248.49
410.524	285.35
410.733	291.49
410.941	326.31
411.15	307.88
411.358	332.45
411.567	373.41
411.775	334.5
411.984	344.74
412.192	383.65
412.401	406.18
412.609	389.8
412.818	461.48
413.026	436.9
413.234	416.42
413.443	484
413.651	414.37
413.86	459.43
414.068	479.91
414.276	570.02
414.485	537.25
414.693	574.11
414.901	645.79
415.11	680.61
415.318	600.74
415.526	660.13
415.734	645.79
415.943	639.65
416.151	696.99
416.359	705.18
416.567	696.99
416.776	774.81
416.984	846.49
417.192	807.58
417.4	768.67
417.608	860.83
417.817	875.17
418.025	938.65
418.233	1045.15
418.441	940.7
418.649	860.83
418.857	1012.38
419.065	991.9
419.273	1096.35
419.481	1155.74
419.689	1202.84
419.897	1282.71
420.105	1340.05
420.313	1303.19
420.521	1421.97
420.729	1497.75
420.937	1432.21
421.145	1512.08
421.353	1528.47
421.561	1641.11
421.769	1661.59
421.977	1735.31
422.185	1659.54
422.393	1852.05
422.601	1913.49
422.809	1989.26
423.017	1989.26
423.224	2077.32
423.432	2097.8
423.64	2118.28
423.848	2339.46
424.056	2177.67
424.263	2495.11
424.471	2323.08
424.679	2480.77
424.887	2611.84
425.094	2624.13
425.302	2667.14
425.51	2790.02
425.718	2765.44
425.925	2822.78
426.133	3019.39
426.341	3060.35
426.548	3224.19
426.756	3283.58
426.964	3234.43
427.171	3367.54
427.379	3568.24
427.586	3654.26
427.794	3863.15
428.001	3867.25
428.209	4129.39
428.417	4035.18
428.624	4381.29
428.832	4448.87
429.039	4274.79
429.247	4301.42
429.454	4754.02
429.662	5018.21
429.869	4723.3
430.076	5114.46
430.284	4784.74
430.491	5120.6
430.699	5378.65
430.906	5421.66
431.114	5382.74
431.321	5628.5
431.528	5689.94
431.736	6126.16
431.943	6390.35
432.15	6312.52
432.358	6189.64
432.565	6609.48
432.772	6660.68
432.979	6797.89
433.187	6881.86
433.394	7008.83
433.601	7569.98
433.808	7529.02
434.016	7533.11
434.223	7850.55
434.43	8329.77
434.637	8098.35
434.844	8632.87
435.052	8843.81
435.259	8583.72
435.466	8903.2
435.673	8876.58
435.88	9290.27
436.087	9802.26
436.294	9855.51
436.501	9658.9
436.708	9749.01
436.915	10166.8
437.122	10609.16
437.329	10617.35
437.537	10672.65
437.743	10926.6
437.95	10844.68
438.157	11373.05
438.364	11899.38
438.571	11893.24
438.778	12069.36
438.985	12919.27
439.192	12524.01
439.399	12708.33
439.606	12679.66
439.813	13476.32
440.02	13992.41
440.227	13619.67
440.433	13720.03
440.64	14137.81
440.847	14465.49
441.054	14526.92
441.261	15251.91
441.467	15143.36
441.674	15434.18
441.881	16120.24
442.088	15792.57
442.294	16077.24
442.501	16316.85
442.708	16519.6
442.914	17297.83
443.121	17840.54
443.328	17312.16
443.534	18577.81
443.741	18223.51
443.948	17856.92
444.154	19171.72
444.361	19227.01
444.568	19196.29
444.774	19239.3
444.981	19591.55
445.187	19806.59
445.394	20703.6
445.6	20539.76
445.807	22434.13
446.013	21492.07
446.22	21832.03
446.426	22610.26
446.633	22913.36
446.839	23454.02
447.046	22735.18
447.252	24000.83
447.459	23867.71
447.665	23976.25
447.871	24922.41
448.078	26204.44
448.284	24656.18
448.491	25471.27
448.697	26638.61
448.903	26751.25
449.11	27080.97
449.316	26532.12
449.522	27115.79
449.728	28051.71
449.935	28055.81
450.141	27932.93
450.347	28760.31
450.553	27635.97
450.76	28379.39
450.966	29245.68
451.172	28885.23
451.378	29808.87
451.584	29217
451.791	29911.27
451.997	29982.95
452.203	30177.5
452.409	30247.13
452.615	30132.45
452.821	28854.51
453.027	28313.85
453.233	30048.48
453.44	28881.14
453.646	29251.82
453.852	29532.39
454.058	29880.55
454.264	29266.16
454.47	29905.12
454.676	29112.56
454.882	29956.32
455.088	27558.15
455.294	28141.82
455.5	28524.79
455.705	28152.06
455.911	27515.14
456.117	26927.38
456.323	26822.93
456.529	25194.79
456.735	26241.31
456.941	25727.27
457.147	25352.49
457.352	24781.1
457.558	24207.67
457.764	24426.81
457.97	23791.94
458.176	23310.66
458.381	23421.25
458.587	22225.24
458.793	22292.82
458.999	21240.17
459.204	22755.66
459.41	22159.7
459.616	20550
459.821	20523.38
460.027	20490.61
460.233	20232.57
460.438	19259.78
460.644	19411.33
460.85	18651.53
461.055	18223.51
461.261	18344.34
461.466	16587.18
461.672	16253.36
461.878	17322.4
462.083	16425.39
462.289	15874.49
462.494	15770.04
462.7	15307.2
462.905	14825.93
463.111	15172.04
463.316	15219.14
463.522	15026.63
463.727	14860.74
463.932	15036.87
464.138	14807.5
464.343	14713.29
464.549	14508.49
464.754	14805.45
464.959	14971.33
465.165	14422.48
465.37	13851.1
465.575	13857.24
465.781	14283.22
465.986	14414.29
466.191	13562.33
466.397	13359.58
466.602	12880.36
466.807	13265.38
467.012	13300.19
467.218	13302.24
