Data from USB4F104151__66__14-43-17-859.txt Node

Date: Thu Mar 13 14:43:17 EDT 2025
User: louis
Spectrometer: USB4F10415
Trigger mode: 4
Integration Time (sec): 2.000000E-2
Scans to average: 1
Electric dark correction enabled: true
Nonlinearity correction enabled: false
Boxcar width: 0
XAxis mode: Wavelengths
Number of Pixels in Spectrum: 3648
>>>>>Begin Spectral Data<<<<<
178.204	-180.39
178.424	-180.39
178.644	-180.39
178.864	-75.95
179.084	-67.75
179.304	-77.99
179.524	14.17
179.744	3.93
179.964	20.31
180.184	10.07
180.404	-10.41
180.624	12.12
180.844	38.74
181.064	-51.37
181.283	53.08
181.503	-77.99
181.723	65.36
181.943	-20.65
182.163	44.88
182.383	73.56
182.602	38.74
182.822	32.6
183.042	22.36
183.262	28.5
183.482	36.69
183.701	-24.75
183.921	77.65
184.141	79.7
184.361	73.56
184.58	-12.46
184.8	85.84
185.02	-18.6
185.239	83.8
185.459	-28.84
185.679	46.93
185.898	-24.75
186.118	46.93
186.338	53.08
186.557	12.12
186.777	24.4
186.997	-12.46
187.216	77.65
187.436	65.36
187.655	-14.51
187.875	44.88
188.095	81.75
188.314	61.27
188.534	14.17
188.753	28.5
188.973	12.12
189.192	61.27
189.412	-0.17
189.631	73.56
189.851	5.97
190.07	71.51
190.29	-53.42
190.509	59.22
190.729	1.88
190.948	-45.23
191.168	118.61
191.387	69.46
191.607	-12.46
191.826	10.07
192.045	46.93
192.265	-0.17
192.484	-2.22
192.704	-8.36
192.923	26.45
193.142	61.27
193.362	69.46
193.581	32.6
193.8	77.65
194.02	36.69
194.239	40.79
194.458	85.84
194.678	38.74
194.897	77.65
195.116	28.5
195.335	61.27
195.555	46.93
195.774	24.4
195.993	14.17
196.212	53.08
196.432	44.88
196.651	12.12
196.87	-4.27
197.089	81.75
197.308	38.74
197.528	71.51
197.747	-8.36
197.966	53.08
198.185	28.5
198.404	30.55
198.623	-4.27
198.842	94.04
199.062	55.12
199.281	53.08
199.5	46.93
199.719	61.27
199.938	51.03
200.157	38.74
200.376	38.74
200.595	-8.36
200.814	-2.22
201.033	8.02
201.252	89.94
201.471	77.65
201.69	38.74
201.909	85.84
202.128	-2.22
202.347	67.41
202.566	-24.75
202.785	61.27
203.004	-32.94
203.223	102.23
203.442	94.04
203.661	16.21
203.879	106.32
204.098	38.74
204.317	63.32
204.536	67.41
204.755	32.6
204.974	16.21
205.193	85.84
205.411	104.28
205.63	36.69
205.849	34.64
206.068	71.51
206.287	-28.84
206.505	114.52
206.724	44.88
206.943	28.5
207.162	75.6
207.381	5.97
207.599	16.21
207.818	69.46
208.037	22.36
208.255	1.88
208.474	38.74
208.693	61.27
208.911	85.84
209.13	-12.46
209.349	63.32
209.567	36.69
209.786	79.7
210.005	73.56
210.223	53.08
210.442	-41.13
210.661	28.5
210.879	-22.7
211.098	-6.31
211.316	-0.17
211.535	14.17
211.753	53.08
211.972	28.5
212.191	36.69
212.409	30.55
212.628	110.42
212.846	20.31
213.065	5.97
213.283	61.27
213.502	53.08
213.72	-10.41
213.938	36.69
214.157	-16.55
214.375	-12.46
214.594	61.27
214.812	14.17
215.031	87.89
215.249	-16.55
215.467	36.69
215.686	53.08
215.904	26.45
216.122	24.4
216.341	120.66
216.559	-37.03
216.778	79.7
216.996	-4.27
217.214	-4.27
217.432	65.36
217.651	32.6
217.869	12.12
218.087	-8.36
218.306	-4.27
218.524	173.91
218.742	94.04
218.96	65.36
219.179	3.93
219.397	12.12
219.615	130.9
219.833	63.32
220.051	75.6
220.27	28.5
220.488	44.88
220.706	36.69
220.924	14.17
221.142	73.56
221.36	3.93
221.578	-37.03
221.796	38.74
222.015	63.32
222.233	-4.27
222.451	61.27
222.669	-37.03
222.887	44.88
223.105	-28.84
223.323	-28.84
223.541	61.27
223.759	85.84
223.977	55.12
224.195	71.51
224.413	32.6
224.631	12.12
224.849	20.31
225.067	28.5
225.285	22.36
225.503	-8.36
225.721	28.5
225.939	-12.46
226.157	3.93
226.375	63.32
226.592	63.32
226.81	28.5
227.028	12.12
227.246	94.04
227.464	-26.79
227.682	51.03
227.9	61.27
228.117	-10.41
228.335	-4.27
228.553	102.23
228.771	77.65
228.989	40.79
229.206	69.46
229.424	63.32
229.642	100.18
229.86	5.97
230.077	83.8
230.295	89.94
230.513	61.27
230.731	3.93
230.948	53.08
231.166	110.42
231.384	28.5
231.601	-49.32
231.819	55.12
232.037	-2.22
232.254	48.98
232.472	48.98
232.689	71.51
232.907	149.33
233.125	-12.46
233.342	46.93
233.56	-88.23
233.777	32.6
233.995	44.88
234.213	8.02
234.43	38.74
234.648	-108.71
234.865	14.17
235.083	69.46
235.3	14.17
235.518	-8.36
235.735	65.36
235.953	48.98
236.17	61.27
236.388	44.88
236.605	12.12
236.822	30.55
237.04	40.79
237.257	87.89
237.475	-24.75
237.692	12.12
237.909	5.97
238.127	65.36
238.344	-10.41
238.562	-24.75
238.779	-28.84
238.996	12.12
239.214	81.75
239.431	91.99
239.648	51.03
239.865	63.32
240.083	85.84
240.3	46.93
240.517	57.17
240.735	71.51
240.952	20.31
241.169	42.84
241.386	-4.27
241.603	-2.22
241.821	61.27
242.038	120.66
242.255	14.17
242.472	53.08
242.689	38.74
242.907	-0.17
243.124	-0.17
243.341	-4.27
243.558	30.55
243.775	53.08
243.992	-43.18
244.209	-2.22
244.426	85.84
244.643	55.12
244.86	10.07
245.078	40.79
245.295	-20.65
245.512	36.69
245.729	-32.94
245.946	14.17
246.163	57.17
246.38	-20.65
246.597	46.93
246.814	-0.17
247.031	22.36
247.248	69.46
247.464	26.45
247.681	-14.51
247.898	32.6
248.115	61.27
248.332	-4.27
248.549	48.98
248.766	118.61
248.983	73.56
249.2	8.02
249.417	44.88
249.633	44.88
249.85	32.6
250.067	36.69
250.284	3.93
250.501	57.17
250.717	3.93
250.934	57.17
251.151	44.88
251.368	32.6
251.585	-0.17
251.801	34.64
252.018	-26.79
252.235	12.12
252.451	3.93
252.668	12.12
252.885	32.6
253.102	-51.37
253.318	24.4
253.535	-12.46
253.752	18.26
253.968	-8.36
254.185	-16.55
254.401	61.27
254.618	53.08
254.835	20.31
255.051	55.12
255.268	8.02
255.484	42.84
255.701	34.64
255.917	-4.27
256.134	-2.22
256.351	61.27
256.567	-32.94
256.784	8.02
257	44.88
257.217	30.55
257.433	53.08
257.65	-20.65
257.866	44.88
258.082	75.6
258.299	65.36
258.515	-0.17
258.732	-0.17
258.948	-0.17
259.165	22.36
259.381	5.97
259.597	3.93
259.814	57.17
260.03	85.84
260.246	-10.41
260.463	32.6
260.679	44.88
260.895	3.93
261.112	73.56
261.328	-20.65
261.544	77.65
261.761	67.41
261.977	69.46
262.193	-20.65
262.409	12.12
262.626	55.12
262.842	20.31
263.058	-37.03
263.274	5.97
263.49	12.12
263.707	75.6
263.923	40.79
264.139	-43.18
264.355	91.99
264.571	104.28
264.787	-32.94
265.004	87.89
265.22	51.03
265.436	79.7
265.652	-57.51
265.868	20.31
266.084	-0.17
266.3	53.08
266.516	-4.27
266.732	28.5
266.948	30.55
267.164	108.37
267.38	-16.55
267.596	36.69
267.812	83.8
268.028	5.97
268.244	69.46
268.46	48.98
268.676	-63.66
268.892	61.27
269.108	-16.55
269.324	-4.27
269.54	48.98
269.756	28.5
269.972	12.12
270.188	14.17
270.403	-90.28
270.619	69.46
270.835	40.79
271.051	12.12
271.267	51.03
271.483	69.46
271.698	79.7
271.914	79.7
272.13	-12.46
272.346	5.97
272.562	10.07
272.777	48.98
272.993	55.12
273.209	-16.55
273.425	61.27
273.64	38.74
273.856	14.17
274.072	14.17
274.287	79.7
274.503	53.08
274.719	94.04
274.934	18.26
275.15	-28.84
275.366	40.79
275.581	-51.37
275.797	-16.55
276.012	3.93
276.228	-2.22
276.444	-0.17
276.659	22.36
276.875	3.93
277.09	22.36
277.306	-20.65
277.521	-18.6
277.737	63.32
277.952	51.03
278.168	8.02
278.383	48.98
278.599	-34.99
278.814	-18.6
279.03	22.36
279.245	36.69
279.461	61.27
279.676	104.28
279.892	-37.03
280.107	30.55
280.322	14.17
280.538	53.08
280.753	63.32
280.969	8.02
281.184	-30.89
281.399	36.69
281.615	106.32
281.83	-18.6
282.045	-16.55
282.26	83.8
282.476	12.12
282.691	32.6
282.906	-26.79
283.122	22.36
283.337	-37.03
283.552	87.89
283.767	3.93
283.983	28.5
284.198	16.21
284.413	12.12
284.628	20.31
284.843	83.8
285.058	-4.27
285.274	79.7
285.489	67.41
285.704	122.71
285.919	12.12
286.134	44.88
286.349	42.84
286.564	-28.84
286.779	53.08
286.995	71.51
287.21	69.46
287.425	-0.17
287.64	34.64
287.855	-8.36
288.07	20.31
288.285	44.88
288.5	53.08
288.715	20.31
288.93	-8.36
289.145	44.88
289.36	-34.99
289.575	-20.65
289.79	1.88
290.004	53.08
290.219	-41.13
290.434	-26.79
290.649	28.5
290.864	59.22
291.079	32.6
291.294	61.27
291.509	-12.46
291.724	18.26
291.938	32.6
292.153	55.12
292.368	28.5
292.583	89.94
292.798	65.36
293.012	12.12
293.227	28.5
293.442	44.88
293.657	28.5
293.871	71.51
294.086	65.36
294.301	81.75
294.516	94.04
294.73	-4.27
294.945	57.17
295.16	28.5
295.374	77.65
295.589	44.88
295.804	40.79
296.018	53.08
296.233	38.74
296.447	48.98
296.662	14.17
296.877	-4.27
297.091	14.17
297.306	44.88
297.52	44.88
297.735	53.08
297.949	-2.22
298.164	98.13
298.378	-80.04
298.593	44.88
298.807	98.13
299.022	22.36
299.236	5.97
299.451	46.93
299.665	-20.65
299.88	44.88
300.094	-2.22
300.309	77.65
300.523	79.7
300.737	40.79
300.952	20.31
301.166	83.8
301.381	-12.46
301.595	14.17
301.809	87.89
302.024	-16.55
302.238	20.31
302.452	28.5
302.667	61.27
302.881	87.89
303.095	55.12
303.309	20.31
303.524	65.36
303.738	-39.08
303.952	40.79
304.166	100.18
304.381	12.12
304.595	40.79
304.809	36.69
305.023	24.4
305.237	-26.79
305.452	44.88
305.666	53.08
305.88	53.08
306.094	24.4
306.308	44.88
306.522	36.69
306.736	12.12
306.95	67.41
307.164	14.17
307.379	71.51
307.593	24.4
307.807	46.93
308.021	73.56
308.235	-0.17
308.449	-43.18
308.663	40.79
308.877	32.6
309.091	12.12
309.305	55.12
309.519	20.31
309.733	-10.41
309.947	38.74
310.161	143.19
310.374	28.5
310.588	55.12
310.802	-16.55
311.016	48.98
311.23	55.12
311.444	-12.46
311.658	20.31
311.872	69.46
312.085	48.98
312.299	94.04
312.513	44.88
312.727	22.36
312.941	-12.46
313.154	87.89
313.368	-10.41
313.582	-12.46
313.796	-20.65
314.009	32.6
314.223	89.94
314.437	40.79
314.651	12.12
314.864	-8.36
315.078	3.93
315.292	-8.36
315.505	22.36
315.719	67.41
315.933	118.61
316.146	83.8
316.36	59.22
316.573	46.93
316.787	22.36
317.001	73.56
317.214	36.69
317.428	77.65
317.641	14.17
317.855	-8.36
318.068	55.12
318.282	55.12
318.495	53.08
318.709	77.65
318.922	8.02
319.136	81.75
319.349	-6.31
319.563	55.12
319.776	12.12
319.99	18.26
320.203	69.46
320.417	30.55
320.63	46.93
320.843	126.8
321.057	61.27
321.27	69.46
321.483	5.97
321.697	12.12
321.91	53.08
322.124	69.46
322.337	3.93
322.55	-4.27
322.763	5.97
322.977	48.98
323.19	-12.46
323.403	5.97
323.617	26.45
323.83	48.98
324.043	-47.27
324.256	5.97
324.469	28.5
324.683	28.5
324.896	-24.75
325.109	96.08
325.322	81.75
325.535	104.28
325.748	44.88
325.962	-2.22
326.175	75.6
326.388	112.47
326.601	126.8
326.814	22.36
327.027	22.36
327.24	12.12
327.453	-69.8
327.666	20.31
327.879	75.6
328.092	51.03
328.305	16.21
328.518	16.21
328.731	38.74
328.944	24.4
329.157	8.02
329.37	30.55
329.583	128.85
329.796	96.08
330.009	-0.17
330.222	59.22
330.435	77.65
330.648	69.46
330.861	53.08
331.073	20.31
331.286	79.7
331.499	46.93
331.712	12.12
331.925	59.22
332.138	38.74
332.35	5.97
332.563	-47.27
332.776	104.28
332.989	-67.75
333.202	85.84
333.414	24.4
333.627	22.36
333.84	-51.37
334.053	102.23
334.265	40.79
334.478	61.27
334.691	46.93
334.903	77.65
335.116	8.02
335.329	24.4
335.541	55.12
335.754	61.27
335.966	36.69
336.179	-4.27
336.392	10.07
336.604	61.27
336.817	3.93
337.029	77.65
337.242	26.45
337.454	38.74
337.667	-0.17
337.88	118.61
338.092	36.69
338.305	122.71
338.517	14.17
338.729	-4.27
338.942	28.5
339.154	-49.32
339.367	-14.51
339.579	53.08
339.792	28.5
340.004	114.52
340.217	-20.65
340.429	28.5
340.641	44.88
340.854	55.12
341.066	46.93
341.278	20.31
341.491	61.27
341.703	87.89
341.915	55.12
342.128	36.69
342.34	46.93
342.552	53.08
342.764	79.7
342.977	36.69
343.189	69.46
343.401	44.88
343.613	28.5
343.826	1.88
344.038	12.12
344.25	24.4
344.462	-55.47
344.674	69.46
344.886	30.55
345.099	34.64
345.311	126.8
345.523	89.94
345.735	5.97
345.947	36.69
346.159	22.36
346.371	12.12
346.583	8.02
346.795	73.56
347.007	77.65
347.219	112.47
347.431	67.41
347.643	159.57
347.855	28.5
348.067	69.46
348.279	12.12
348.491	71.51
348.703	14.17
348.915	-0.17
349.127	-0.17
349.339	20.31
349.551	61.27
349.763	69.46
349.975	38.74
350.187	53.08
350.399	81.75
350.61	3.93
350.822	32.6
351.034	91.99
351.246	16.21
351.458	53.08
351.669	73.56
351.881	8.02
352.093	118.61
352.305	53.08
352.517	-8.36
352.728	106.32
352.94	-2.22
353.152	122.71
353.363	8.02
353.575	87.89
353.787	65.36
353.999	77.65
354.21	61.27
354.422	57.17
354.633	89.94
354.845	77.65
355.057	-22.7
355.268	120.66
355.48	10.07
355.692	-0.17
355.903	12.12
356.115	46.93
356.326	-10.41
356.538	73.56
356.749	-39.08
356.961	61.27
357.172	10.07
357.384	14.17
357.595	104.28
357.807	32.6
358.018	53.08
358.23	16.21
358.441	81.75
358.653	65.36
358.864	-10.41
359.075	-41.13
359.287	22.36
359.498	53.08
359.709	139.09
359.921	108.37
360.132	65.36
360.344	104.28
360.555	-22.7
360.766	46.93
360.977	-10.41
361.189	89.94
361.4	24.4
361.611	57.17
361.823	36.69
362.034	73.56
362.245	20.31
362.456	16.21
362.667	104.28
362.879	-4.27
363.09	44.88
363.301	81.75
363.512	44.88
363.723	8.02
363.935	-14.51
364.146	44.88
364.357	-22.7
364.568	69.46
364.779	5.97
364.99	46.93
365.201	32.6
365.412	94.04
365.623	-20.65
365.834	-28.84
366.045	85.84
366.256	55.12
366.467	94.04
366.678	40.79
366.889	85.84
367.1	57.17
367.311	69.46
367.522	20.31
367.733	53.08
367.944	20.31
368.155	40.79
368.366	126.8
368.577	102.23
368.788	57.17
368.999	-12.46
369.209	36.69
369.42	94.04
369.631	91.99
369.842	48.98
370.053	38.74
370.264	53.08
370.474	20.31
370.685	5.97
370.896	44.88
371.107	81.75
371.317	110.42
371.528	-12.46
371.739	83.8
371.95	12.12
372.16	28.5
372.371	-2.22
372.582	81.75
372.792	53.08
373.003	28.5
373.214	83.8
373.424	16.21
373.635	40.79
373.846	44.88
374.056	8.02
374.267	65.36
374.477	110.42
374.688	20.31
374.898	-10.41
375.109	69.46
375.319	20.31
375.53	77.65
375.74	-0.17
375.951	87.89
376.161	30.55
376.372	102.23
376.582	32.6
376.793	77.65
377.003	24.4
377.214	12.12
377.424	57.17
377.635	85.84
377.845	-8.36
378.055	55.12
378.266	18.26
378.476	53.08
378.686	69.46
378.897	42.84
379.107	44.88
379.317	22.36
379.528	63.32
379.738	89.94
379.948	12.12
380.158	126.8
380.369	143.19
380.579	55.12
380.789	30.55
380.999	32.6
381.21	51.03
381.42	110.42
381.63	36.69
381.84	100.18
382.05	110.42
382.261	34.64
382.471	102.23
382.681	20.31
382.891	98.13
383.101	69.46
383.311	-14.51
383.521	106.32
383.731	91.99
383.941	14.17
384.151	67.41
384.361	5.97
384.571	87.89
384.781	22.36
384.991	69.46
385.201	192.34
385.411	53.08
385.621	110.42
385.831	46.93
386.041	98.13
386.251	53.08
386.461	69.46
386.671	69.46
386.881	67.41
387.091	44.88
387.301	118.61
387.511	8.02
387.72	22.36
387.93	44.88
388.14	87.89
388.35	20.31
388.56	36.69
388.769	91.99
388.979	20.31
389.189	53.08
389.399	30.55
389.609	69.46
389.818	108.37
390.028	30.55
390.238	46.93
390.447	87.89
390.657	77.65
390.867	110.42
391.076	30.55
391.286	65.36
391.496	-12.46
391.705	42.84
391.915	79.7
392.125	69.46
392.334	53.08
392.544	83.8
392.753	36.69
392.963	53.08
393.172	14.17
393.382	26.45
393.591	124.76
393.801	85.84
394.01	120.66
394.22	137.04
394.429	55.12
394.639	118.61
394.848	-0.17
395.058	36.69
395.267	3.93
395.477	36.69
395.686	44.88
395.895	96.08
396.105	151.38
396.314	53.08
396.524	71.51
396.733	67.41
396.942	48.98
397.152	91.99
397.361	155.47
397.57	46.93
397.78	65.36
397.989	69.46
398.198	139.09
398.407	120.66
398.617	135
398.826	98.13
399.035	81.75
399.244	91.99
399.453	34.64
399.663	151.38
399.872	98.13
400.081	65.36
400.29	153.43
400.499	34.64
400.708	104.28
400.917	135
401.127	98.13
401.336	102.23
401.545	137.04
401.754	120.66
401.963	96.08
402.172	79.7
402.381	112.47
402.59	122.71
402.799	89.94
403.008	48.98
403.217	120.66
403.426	151.38
403.635	126.8
403.844	106.32
404.053	110.42
404.262	57.17
404.471	137.04
404.68	61.27
404.888	85.84
405.097	85.84
405.306	198.48
405.515	155.47
405.724	126.8
405.933	169.81
406.142	175.95
406.35	157.52
406.559	171.86
406.768	241.49
406.977	192.34
407.185	153.43
407.394	186.19
407.603	89.94
407.812	206.67
408.02	227.15
408.229	167.76
408.438	126.8
408.646	182.1
408.855	180.05
409.064	241.49
409.272	169.81
409.481	237.39
409.69	200.53
409.898	202.58
410.107	307.02
410.315	245.59
410.524	200.53
410.733	327.5
410.941	274.26
411.15	292.69
411.358	253.78
411.567	315.22
411.775	327.5
411.984	282.45
412.192	364.37
412.401	380.75
412.609	337.74
412.818	380.75
413.026	462.67
413.234	393.04
413.443	468.81
413.651	489.29
413.86	368.46
414.068	470.86
414.276	501.58
414.485	417.61
414.693	542.54
414.901	620.36
415.11	464.72
415.318	507.73
415.526	630.6
415.734	579.4
415.943	608.08
416.151	589.64
416.359	630.6
416.567	675.66
416.776	720.71
416.984	714.57
417.192	759.63
417.4	673.61
417.608	671.56
417.817	733
418.025	905.03
418.233	915.27
418.441	905.03
418.649	847.69
418.857	964.42
419.065	954.18
419.273	986.95
419.481	989
419.689	1009.48
419.897	1068.87
420.105	1021.77
420.313	1056.58
420.521	1341.25
420.729	1234.75
420.937	1240.9
421.145	1339.2
421.353	1410.88
421.561	1423.17
421.769	1449.79
421.977	1560.38
422.185	1464.13
422.393	1673.02
422.601	1724.22
422.809	1609.53
423.017	1765.18
423.224	1822.52
423.432	1916.73
423.64	1881.91
423.848	2045.75
424.056	1853.24
424.263	2142
424.471	2207.54
424.679	2228.02
424.887	2307.89
425.094	2338.61
425.302	2328.37
425.51	2379.57
425.718	2629.42
425.925	2539.31
426.133	2666.28
426.341	2840.36
426.548	2901.8
426.756	2817.83
426.964	2869.03
427.171	3073.83
427.379	3172.13
427.586	3143.46
427.794	3317.54
428.001	3571.49
428.209	3477.28
428.417	3663.65
428.624	3919.64
428.832	3862.3
429.039	3800.86
429.247	3931.93
429.454	4235.03
429.662	4511.5
429.869	4142.87
430.076	4460.31
430.284	4454.16
430.491	4552.46
430.699	4730.64
430.906	4822.8
431.114	4716.3
431.321	5050.12
431.528	5093.13
431.736	5396.23
431.943	5637.89
432.15	5369.6
432.358	5590.78
432.565	5861.12
432.772	5844.73
432.979	6135.54
433.187	6262.52
433.394	6252.28
433.601	6643.44
433.808	6672.11
434.016	6696.69
434.223	6952.68
434.43	7438.05
434.637	7356.13
434.844	7706.34
435.052	7993.05
435.259	7753.44
435.466	7864.03
435.673	7661.28
435.88	8261.34
436.087	9098.95
436.294	8689.36
436.501	8484.56
436.708	8617.68
436.915	8926.93
437.122	9406.15
437.329	9322.18
437.537	9557.7
437.743	9670.34
437.95	9682.63
438.157	10096.32
438.364	10448.57
438.571	10405.56
438.778	10665.65
438.985	11650.72
439.192	11116.2
439.399	11597.48
439.606	11273.9
439.813	11941.54
440.02	12869.26
440.227	12162.72
440.433	12289.69
440.64	12867.22
440.847	12631.7
441.054	12881.55
441.261	13983.36
441.467	13446.79
441.674	13819.52
441.881	14308.99
442.088	14483.06
442.294	14161.53
442.501	14612.09
442.708	14673.53
442.914	15480.43
443.121	15892.07
443.328	15588.97
443.534	16524.89
443.741	16207.45
443.948	16080.48
444.154	17456.71
444.361	17063.5
444.568	17380.94
444.774	17206.86
444.981	17350.22
445.187	17722.95
445.394	18742.84
445.6	18404.92
445.807	20192.8
446.013	19211.82
446.22	19742.25
446.426	20385.31
446.633	20614.68
446.839	21564.94
447.046	20592.16
447.252	21501.45
447.459	21638.67
447.665	21517.84
447.871	22441.47
448.078	23750.12
448.284	22629.88
448.491	22951.42
448.697	23981.54
448.903	24436.19
449.11	24636.89
449.316	23918.06
449.522	24608.22
449.728	25288.15
449.935	25337.3
450.141	25365.97
450.347	25959.88
450.553	25112.02
450.76	25650.64
450.966	26527.17
451.172	26056.14
451.378	26795.45
451.584	26215.88
451.791	27004.35
451.997	27143.61
452.203	27217.33
452.409	27461.04
452.615	27522.48
452.821	26115.53
453.027	26236.36
453.233	27203
453.44	26453.44
453.646	26709.44
453.852	26500.54
454.058	26791.36
454.264	26371.52
454.47	27362.74
454.676	26521.02
454.882	27442.61
455.088	25030.1
455.294	25298.39
455.5	25732.56
455.705	26342.85
455.911	25058.77
456.117	24671.71
456.323	24411.62
456.529	23025.14
456.735	23926.25
456.941	23600.62
457.147	23137.78
457.352	22361.6
457.558	22138.37
457.764	22074.88
457.97	21761.55
458.176	21548.56
458.381	21566.99
458.587	20354.59
458.793	20454.94
458.999	19365.42
459.204	20815.38
459.41	20008.48
459.616	18839.09
459.821	18804.28
460.027	18669.11
460.233	18652.73
460.438	17509.96
460.644	17831.49
460.85	16911.96
461.055	16756.31
461.261	16645.72
461.466	15119.98
461.672	14861.94
461.878	15988.32
462.083	14980.72
462.289	14558.84
462.494	14438.01
462.7	13852.29
462.905	13450.89
463.111	13942.4
463.316	14009.98
463.522	13561.48
463.727	13739.65
463.932	13602.44
464.138	13401.74
464.343	13559.43
464.549	13217.42
464.754	13641.35
464.959	13323.91
465.165	13438.6
465.37	13002.38
465.575	12717.72
465.781	13018.77
465.986	12801.68
466.191	12648.08
466.397	12205.72
466.602	11630.24
466.807	12193.44
467.012	11914.91
467.218	12039.84
467.423	11818.66
467.628	12234.39
467.833	12766.87
468.038	12105.37
