Data from USB4F104151__85__14-43-30-515.txt Node

Date: Thu Mar 13 14:43:30 EDT 2025
User: louis
Spectrometer: USB4F10415
Trigger mode: 4
Integration Time (sec): 2.000000E-2
Scans to average: 1
Electric dark correction enabled: true
Nonlinearity correction enabled: false
Boxcar width: 0
XAxis mode: Wavelengths
Number of Pixels in Spectrum: 3648
>>>>>Begin Spectral Data<<<<<
178.204	-127.66
178.424	-127.66
178.644	-127.66
178.864	-101.03
179.084	-121.51
179.304	34.13
179.524	-55.98
179.744	-27.31
179.964	-23.21
180.184	-27.31
180.404	15.7
180.624	-10.92
180.844	23.89
181.064	-60.07
181.283	-15.02
181.503	118.1
181.723	27.99
181.943	-29.35
182.163	-12.97
182.383	77.14
182.602	132.44
182.822	46.42
183.042	-29.35
183.262	-19.11
183.482	36.18
183.701	23.89
183.921	-21.16
184.141	52.56
184.361	-39.59
184.58	5.46
184.8	25.94
185.02	44.37
185.239	75.09
185.459	62.8
185.679	126.29
185.898	-6.83
186.118	13.65
186.338	48.47
186.557	60.76
186.777	3.41
186.997	-6.83
187.216	52.56
187.436	120.15
187.655	38.23
187.875	71
188.095	11.61
188.314	34.13
188.534	11.61
188.753	13.65
188.973	-6.83
189.192	116.05
189.412	9.56
189.631	-55.98
189.851	91.48
190.07	54.61
190.29	-15.02
190.509	44.37
190.729	-15.02
190.948	5.46
191.168	83.28
191.387	83.28
191.607	-60.07
191.826	75.09
192.045	25.94
192.265	-31.4
192.484	77.14
192.704	99.67
192.923	-29.35
193.142	42.32
193.362	-6.83
193.581	44.37
193.8	17.75
194.02	120.15
194.239	-29.35
194.458	75.09
194.678	9.56
194.897	32.08
195.116	17.75
195.335	42.32
195.555	34.13
195.774	25.94
195.993	-10.92
196.212	66.9
196.432	9.56
196.651	19.8
196.87	-23.21
197.089	68.95
197.308	-6.83
197.528	73.04
197.747	42.32
197.966	-37.55
198.185	54.61
198.404	5.46
198.623	11.61
198.842	27.99
199.062	87.38
199.281	60.76
199.5	-21.16
199.719	-47.79
199.938	-8.87
200.157	-25.26
200.376	25.94
200.595	62.8
200.814	-0.68
201.033	1.37
201.252	58.71
201.471	99.67
201.69	19.8
201.909	25.94
202.128	25.94
202.347	-6.83
202.566	11.61
202.785	1.37
203.004	-53.93
203.223	1.37
203.442	13.65
203.661	-4.78
203.879	9.56
204.098	-12.97
204.317	15.7
204.536	-49.83
204.755	95.57
204.974	83.28
205.193	9.56
205.411	85.33
205.63	99.67
205.849	13.65
206.068	54.61
206.287	46.42
206.505	36.18
206.724	25.94
206.943	25.94
207.162	36.18
207.381	38.23
207.599	68.95
207.818	75.09
208.037	25.94
208.255	36.18
208.474	58.71
208.693	81.24
208.911	66.9
209.13	-6.83
209.349	-2.73
209.567	-33.45
209.786	75.09
210.005	11.61
210.223	38.23
210.442	40.28
210.661	-49.83
210.879	85.33
211.098	68.95
211.316	34.13
211.535	17.75
211.753	95.57
211.972	-6.83
212.191	13.65
212.409	-6.83
212.628	79.19
212.846	19.8
213.065	68.95
213.283	1.37
213.502	17.75
213.72	25.94
213.938	34.13
214.157	60.76
214.375	30.04
214.594	30.04
214.812	21.84
215.031	-2.73
215.249	25.94
215.467	36.18
215.686	-2.73
215.904	46.42
216.122	19.8
216.341	101.72
216.559	38.23
216.778	91.48
216.996	-23.21
217.214	60.76
217.432	21.84
217.651	-47.79
217.869	-17.07
218.087	19.8
218.306	81.24
218.524	60.76
218.742	32.08
218.96	81.24
219.179	-0.68
219.397	9.56
219.615	38.23
219.833	75.09
220.051	5.46
220.27	85.33
220.488	-23.21
220.706	107.86
220.924	66.9
221.142	40.28
221.36	83.28
221.578	-80.55
221.796	11.61
222.015	75.09
222.233	30.04
222.451	148.82
222.669	-17.07
222.887	15.7
223.105	-10.92
223.323	71
223.541	40.28
223.759	77.14
223.977	9.56
224.195	25.94
224.413	54.61
224.631	93.52
224.849	-12.97
225.067	83.28
225.285	17.75
225.503	-23.21
225.721	9.56
225.939	54.61
226.157	-10.92
226.375	101.72
226.592	-17.07
226.81	1.37
227.028	-45.74
227.246	71
227.464	50.52
227.682	60.76
227.9	-15.02
228.117	62.8
228.335	95.57
228.553	64.85
228.771	38.23
228.989	36.18
229.206	103.76
229.424	111.96
229.642	-6.83
229.86	60.76
230.077	3.41
230.295	81.24
230.513	77.14
230.731	27.99
230.948	42.32
231.166	34.13
231.384	-15.02
231.601	21.84
231.819	58.71
232.037	46.42
232.254	58.71
232.472	25.94
232.689	40.28
232.907	34.13
233.125	-0.68
233.342	50.52
233.56	23.89
233.777	-45.74
233.995	27.99
234.213	-10.92
234.43	62.8
234.648	-23.21
234.865	30.04
235.083	-4.78
235.3	25.94
235.518	66.9
235.735	120.15
235.953	99.67
236.17	1.37
236.388	-2.73
236.605	-25.26
236.822	87.38
237.04	105.81
237.257	46.42
237.475	-33.45
237.692	38.23
237.909	-62.12
238.127	17.75
238.344	-2.73
238.562	93.52
238.779	42.32
238.996	44.37
239.214	30.04
239.431	95.57
239.648	36.18
239.865	42.32
240.083	54.61
240.3	27.99
240.517	34.13
240.735	44.37
240.952	13.65
241.169	87.38
241.386	-15.02
241.603	-21.16
241.821	25.94
242.038	99.67
242.255	5.46
242.472	66.9
242.689	50.52
242.907	40.28
243.124	42.32
243.341	34.13
243.558	3.41
243.775	-72.36
243.992	-29.35
244.209	17.75
244.426	66.9
244.643	11.61
244.86	-12.97
245.078	58.71
245.295	-12.97
245.512	34.13
245.729	25.94
245.946	91.48
246.163	-23.21
246.38	52.56
246.597	25.94
246.814	-70.31
247.031	23.89
247.248	3.41
247.464	109.91
247.681	48.47
247.898	30.04
248.115	42.32
248.332	7.51
248.549	58.71
248.766	54.61
248.983	36.18
249.2	50.52
249.417	17.75
249.633	-4.78
249.85	11.61
250.067	44.37
250.284	27.99
250.501	13.65
250.717	-23.21
250.934	5.46
251.151	3.41
251.368	1.37
251.585	38.23
251.801	77.14
252.018	-37.55
252.235	21.84
252.451	-53.93
252.668	17.75
252.885	42.32
253.102	52.56
253.318	25.94
253.535	56.66
253.752	75.09
253.968	54.61
254.185	17.75
254.401	58.71
254.618	62.8
254.835	-10.92
255.051	107.86
255.268	60.76
255.484	71
255.701	17.75
255.917	71
256.134	-31.4
256.351	19.8
256.567	7.51
256.784	-23.21
257	-23.21
257.217	120.15
257.433	11.61
257.65	44.37
257.866	73.04
258.082	25.94
258.299	15.7
258.515	-0.68
258.732	58.71
258.948	-39.59
259.165	58.71
259.381	19.8
259.597	91.48
259.814	71
260.03	30.04
260.246	-23.21
260.463	36.18
260.679	-17.07
260.895	42.32
261.112	46.42
261.328	38.23
261.544	3.41
261.761	116.05
261.977	-8.87
262.193	-35.5
262.409	-2.73
262.626	99.67
262.842	85.33
263.058	-6.83
263.274	34.13
263.49	-2.73
263.707	85.33
263.923	66.9
264.139	58.71
264.355	38.23
264.571	107.86
264.787	71
265.004	27.99
265.22	3.41
265.436	34.13
265.652	-47.79
265.868	83.28
266.084	7.51
266.3	-2.73
266.516	13.65
266.732	34.13
266.948	83.28
267.164	-23.21
267.38	66.9
267.596	13.65
267.812	66.9
268.028	75.09
268.244	9.56
268.46	60.76
268.676	1.37
268.892	83.28
269.108	-17.07
269.324	42.32
269.54	-15.02
269.756	62.8
269.972	44.37
270.188	13.65
270.403	5.46
270.619	-19.11
270.835	1.37
271.051	50.52
271.267	42.32
271.483	19.8
271.698	111.96
271.914	85.33
272.13	-31.4
272.346	50.52
272.562	-39.59
272.777	58.71
272.993	-47.79
273.209	44.37
273.425	32.08
273.64	-15.02
273.856	85.33
274.072	-2.73
274.287	-35.5
274.503	71
274.719	99.67
274.934	34.13
275.15	27.99
275.366	-19.11
275.581	-4.78
275.797	34.13
276.012	42.32
276.228	-6.83
276.444	17.75
276.659	114
276.875	-17.07
277.09	38.23
277.306	-27.31
277.521	30.04
277.737	30.04
277.952	77.14
278.168	58.71
278.383	25.94
278.599	-6.83
278.814	40.28
279.03	23.89
279.245	-6.83
279.461	-6.83
279.676	93.52
279.892	11.61
280.107	-15.02
280.322	-27.31
280.538	-6.83
280.753	-31.4
280.969	32.08
281.184	23.89
281.399	66.9
281.615	23.89
281.83	75.09
282.045	-62.12
282.26	-21.16
282.476	25.94
282.691	93.52
282.906	136.53
283.122	27.99
283.337	36.18
283.552	77.14
283.767	38.23
283.983	34.13
284.198	5.46
284.413	3.41
284.628	42.32
284.843	9.56
285.058	50.52
285.274	17.75
285.489	9.56
285.704	52.56
285.919	-62.12
286.134	60.76
286.349	60.76
286.564	21.84
286.779	-35.5
286.995	11.61
287.21	-39.59
287.425	44.37
287.64	-47.79
287.855	-19.11
288.07	9.56
288.285	-29.35
288.5	54.61
288.715	46.42
288.93	-51.88
289.145	19.8
289.36	79.19
289.575	34.13
289.79	103.76
290.004	46.42
290.219	42.32
290.434	3.41
290.649	9.56
290.864	48.47
291.079	58.71
291.294	-80.55
291.509	17.75
291.724	38.23
291.938	17.75
292.153	25.94
292.368	11.61
292.583	66.9
292.798	91.48
293.012	58.71
293.227	11.61
293.442	50.52
293.657	66.9
293.871	79.19
294.086	1.37
294.301	93.52
294.516	-4.78
294.73	50.52
294.945	-45.74
295.16	15.7
295.374	95.57
295.589	54.61
295.804	1.37
296.018	66.9
296.233	30.04
296.447	46.42
296.662	83.28
296.877	64.85
297.091	-29.35
297.306	52.56
297.52	-6.83
297.735	75.09
297.949	105.81
298.164	-15.02
298.378	-47.79
298.593	9.56
298.807	13.65
299.022	-31.4
299.236	101.72
299.451	60.76
299.665	19.8
299.88	-15.02
300.094	83.28
300.309	87.38
300.523	17.75
300.737	42.32
300.952	66.9
301.166	91.48
301.381	11.61
301.595	1.37
301.809	52.56
302.024	13.65
302.238	19.8
302.452	46.42
302.667	3.41
302.881	116.05
303.095	42.32
303.309	46.42
303.524	-6.83
303.738	3.41
303.952	13.65
304.166	-15.02
304.381	-6.83
304.595	-19.11
304.809	-6.83
305.023	66.9
305.237	-33.45
305.452	-10.92
305.666	11.61
305.88	34.13
306.094	-2.73
306.308	42.32
306.522	66.9
306.736	58.71
306.95	38.23
307.164	120.15
307.379	15.7
307.593	66.9
307.807	83.28
308.021	25.94
308.235	58.71
308.449	-31.4
308.663	11.61
308.877	93.52
309.091	-10.92
309.305	60.76
309.519	9.56
309.733	83.28
309.947	-47.79
310.161	52.56
310.374	17.75
310.588	93.52
310.802	-64.17
311.016	17.75
311.23	13.65
311.444	3.41
311.658	21.84
311.872	50.52
312.085	42.32
312.299	91.48
312.513	25.94
312.727	79.19
312.941	3.41
313.154	42.32
313.368	21.84
313.582	73.04
313.796	11.61
314.009	46.42
314.223	9.56
314.437	58.71
314.651	83.28
314.864	25.94
315.078	11.61
315.292	9.56
315.505	17.75
315.719	23.89
315.933	25.94
316.146	42.32
316.36	-4.78
316.573	-6.83
316.787	66.9
317.001	66.9
317.214	15.7
317.428	13.65
317.641	27.99
317.855	42.32
318.068	58.71
318.282	58.71
318.495	109.91
318.709	48.47
318.922	19.8
319.136	118.1
319.349	27.99
319.563	19.8
319.776	19.8
319.99	1.37
320.203	62.8
320.417	-2.73
320.63	58.71
320.843	52.56
321.057	-64.17
321.27	11.61
321.483	23.89
321.697	42.32
321.91	118.1
322.124	-23.21
322.337	46.42
322.55	-6.83
322.763	-8.87
322.977	5.46
323.19	42.32
323.403	58.71
323.617	-15.02
323.83	9.56
324.043	44.37
324.256	52.56
324.469	15.7
324.683	79.19
324.896	58.71
325.109	-2.73
325.322	32.08
325.535	68.95
325.748	136.53
325.962	25.94
326.175	-51.88
326.388	11.61
326.601	68.95
326.814	89.43
327.027	38.23
327.24	93.52
327.453	27.99
327.666	60.76
327.879	58.71
328.092	107.86
328.305	25.94
328.518	13.65
328.731	1.37
328.944	68.95
329.157	85.33
329.37	-15.02
329.583	-27.31
329.796	101.72
330.009	-15.02
330.222	79.19
330.435	25.94
330.648	34.13
330.861	38.23
331.073	124.24
331.286	32.08
331.499	93.52
331.712	54.61
331.925	50.52
332.138	11.61
332.35	27.99
332.563	17.75
332.776	114
332.989	-15.02
333.202	116.05
333.414	36.18
333.627	75.09
333.84	99.67
334.053	85.33
334.265	-17.07
334.478	58.71
334.691	-29.35
334.903	50.52
335.116	-6.83
335.329	3.41
335.541	95.57
335.754	66.9
335.966	52.56
336.179	75.09
336.392	91.48
336.604	13.65
336.817	50.52
337.029	17.75
337.242	77.14
337.454	5.46
337.667	-23.21
337.88	17.75
338.092	50.52
338.305	13.65
338.517	-31.4
338.729	38.23
338.942	66.9
339.154	25.94
339.367	25.94
339.579	75.09
339.792	5.46
340.004	58.71
340.217	-17.07
340.429	42.32
340.641	15.7
340.854	11.61
341.066	19.8
341.278	19.8
341.491	105.81
341.703	-6.83
341.915	-10.92
342.128	91.48
342.34	38.23
342.552	58.71
342.764	83.28
342.977	66.9
343.189	75.09
343.401	17.75
343.613	17.75
343.826	25.94
344.038	-10.92
344.25	25.94
344.462	107.86
344.674	34.13
344.886	30.04
345.099	32.08
345.311	17.75
345.523	-53.93
345.735	30.04
345.947	89.43
346.159	46.42
346.371	44.37
346.583	42.32
346.795	50.52
347.007	11.61
347.219	50.52
347.431	50.52
347.643	50.52
347.855	5.46
348.067	73.04
348.279	34.13
348.491	85.33
348.703	58.71
348.915	50.52
349.127	30.04
349.339	81.24
349.551	-6.83
349.763	134.48
349.975	-51.88
350.187	11.61
350.399	64.85
350.61	-8.87
350.822	60.76
351.034	68.95
351.246	9.56
351.458	124.24
351.669	-8.87
351.881	34.13
352.093	62.8
352.305	118.1
352.517	-23.21
352.728	99.67
352.94	52.56
353.152	120.15
353.363	34.13
353.575	118.1
353.787	36.18
353.999	50.52
354.21	132.44
354.422	17.75
354.633	62.8
354.845	32.08
355.057	85.33
355.268	58.71
355.48	5.46
355.692	-31.4
355.903	71
356.115	95.57
356.326	-6.83
356.538	17.75
356.749	5.46
356.961	27.99
357.172	66.9
357.384	-15.02
357.595	140.63
357.807	25.94
358.018	60.76
358.23	-23.21
358.441	75.09
358.653	66.9
358.864	83.28
359.075	5.46
359.287	34.13
359.498	124.24
359.709	34.13
359.921	21.84
360.132	46.42
360.344	62.8
360.555	56.66
360.766	38.23
360.977	91.48
361.189	-23.21
361.4	105.81
361.611	48.47
361.823	109.91
362.034	91.48
362.245	19.8
362.456	11.61
362.667	101.72
362.879	50.52
363.09	89.43
363.301	54.61
363.512	66.9
363.723	9.56
363.935	66.9
364.146	83.28
364.357	3.41
364.568	73.04
364.779	-23.21
364.99	118.1
365.201	54.61
365.412	107.86
365.623	3.41
365.834	44.37
366.045	81.24
366.256	68.95
366.467	13.65
366.678	17.75
366.889	54.61
367.1	13.65
367.311	107.86
367.522	58.71
367.733	25.94
367.944	38.23
368.155	118.1
368.366	42.32
368.577	34.13
368.788	79.19
368.999	34.13
369.209	36.18
369.42	118.1
369.631	68.95
369.842	93.52
370.053	66.9
370.264	107.86
370.474	25.94
370.685	23.89
370.896	42.32
371.107	25.94
371.317	132.44
371.528	19.8
371.739	66.9
371.95	91.48
372.16	116.05
372.371	17.75
372.582	58.71
372.792	116.05
373.003	38.23
373.214	122.2
373.424	91.48
373.635	58.71
373.846	52.56
374.056	-31.4
374.267	107.86
374.477	107.86
374.688	97.62
374.898	34.13
375.109	48.47
375.319	50.52
375.53	77.14
375.74	36.18
375.951	46.42
376.161	42.32
376.372	68.95
376.582	-6.83
376.793	66.9
377.003	105.81
377.214	66.9
377.424	21.84
377.635	46.42
377.845	81.24
378.055	58.71
378.266	-19.11
378.476	99.67
378.686	89.43
378.897	130.39
379.107	75.09
379.317	19.8
379.528	62.8
379.738	118.1
379.948	91.48
380.158	124.24
380.369	62.8
380.579	36.18
380.789	46.42
380.999	11.61
381.21	103.76
381.42	68.95
381.63	81.24
381.84	30.04
382.05	140.63
382.261	148.82
382.471	71
382.681	5.46
382.891	75.09
383.101	52.56
383.311	-15.02
383.521	-27.31
383.731	-8.87
383.941	60.76
384.151	66.9
384.361	23.89
384.571	23.89
384.781	66.9
384.991	116.05
385.201	167.25
385.411	85.33
385.621	58.71
385.831	50.52
386.041	79.19
386.251	-15.02
386.461	46.42
386.671	95.57
386.881	58.71
387.091	54.61
387.301	148.82
387.511	-4.78
387.72	93.52
387.93	46.42
388.14	62.8
388.35	163.15
388.56	101.72
388.769	91.48
388.979	165.2
389.189	101.72
389.399	126.29
389.609	5.46
389.818	58.71
390.028	1.37
390.238	83.28
390.447	5.46
390.657	85.33
390.867	46.42
391.076	-39.59
391.286	56.66
391.496	118.1
391.705	101.72
391.915	185.68
392.125	159.06
392.334	99.67
392.544	81.24
392.753	75.09
392.963	21.84
393.172	114
393.382	122.2
393.591	159.06
393.801	120.15
394.01	79.19
394.22	134.48
394.429	116.05
394.639	77.14
394.848	75.09
395.058	87.38
395.267	36.18
395.477	161.11
395.686	50.52
395.895	83.28
396.105	165.2
396.314	71
396.524	50.52
396.733	66.9
396.942	107.86
397.152	111.96
397.361	165.2
397.57	48.47
397.78	157.01
397.989	128.34
398.198	148.82
398.407	75.09
398.617	91.48
398.826	44.37
399.035	79.19
399.244	91.48
399.453	13.65
399.663	152.91
399.872	181.59
400.081	122.2
400.29	177.49
400.499	75.09
400.708	116.05
400.917	103.76
401.127	91.48
401.336	161.11
401.545	165.2
401.754	58.71
401.963	134.48
402.172	118.1
402.381	150.87
402.59	91.48
402.799	101.72
403.008	140.63
403.217	167.25
403.426	124.24
403.635	128.34
403.844	126.29
404.053	103.76
404.262	150.87
404.471	148.82
404.68	183.63
404.888	202.07
405.097	126.29
405.306	95.57
405.515	210.26
405.724	140.63
405.933	183.63
406.142	183.63
406.35	159.06
406.559	230.74
406.768	185.68
406.977	243.03
407.185	247.12
407.394	167.25
407.603	150.87
407.812	197.97
408.02	238.93
408.229	312.66
408.438	247.12
408.646	273.75
408.855	232.79
409.064	296.27
409.272	247.12
409.481	304.46
409.69	271.7
409.898	304.46
410.107	273.75
410.315	304.46
410.524	314.7
410.733	312.66
410.941	320.85
411.15	402.77
411.358	357.71
411.567	451.92
411.775	370
411.984	353.62
412.192	396.62
412.401	413.01
412.609	476.49
412.818	466.25
413.026	544.08
413.234	494.93
413.443	521.55
413.651	517.45
413.86	548.17
414.068	679.24
414.276	664.91
414.485	578.89
414.693	699.72
414.901	595.28
415.11	650.57
415.318	642.38
415.526	738.63
415.734	685.39
415.943	810.31
416.151	773.45
416.359	816.46
416.567	816.46
416.776	912.71
416.984	961.86
417.192	982.34
417.4	1080.64
417.608	961.86
417.817	1021.25
418.025	1037.64
418.233	1181
418.441	1060.17
418.649	1107.27
418.857	1398.08
419.065	1291.59
419.273	1312.07
419.481	1336.64
419.689	1420.61
419.897	1523.01
420.105	1520.96
420.313	1574.21
420.521	1518.91
420.729	1664.32
420.937	1705.28
421.145	1729.85
421.353	1795.39
421.561	1920.31
421.769	1887.54
421.977	2073.91
422.185	2059.57
422.393	2090.29
422.601	2147.64
422.809	2204.98
423.017	2340.15
423.224	2401.58
423.432	2450.74
423.64	2471.22
423.848	2680.11
424.056	2567.47
424.263	2835.75
424.471	2839.85
424.679	2735.4
424.887	2979.11
425.094	3097.89
425.302	3188
425.51	3263.78
425.718	3409.19
425.925	3409.19
426.133	3519.78
426.341	3777.82
426.548	3884.31
426.756	3716.38
426.964	3976.47
427.171	4046.1
427.379	4211.99
427.586	4289.81
427.794	4496.66
428.001	4642.06
428.209	4867.34
428.417	4508.94
428.624	5135.62
428.832	5055.75
429.039	4930.83
429.247	4957.45
429.454	5696.77
429.662	6022.39
429.869	5395.71
430.076	5846.27
430.284	5694.72
430.491	5879.04
430.699	6276.34
430.906	6315.25
431.114	6372.6
431.321	6620.4
431.528	6845.68
431.736	7281.89
431.943	7554.27
432.15	7283.94
432.358	7417.06
432.565	7742.69
432.772	7666.91
432.979	8103.13
433.187	8238.3
433.394	8248.54
433.601	8944.84
433.808	8778.96
434.016	8955.08
434.223	9303.24
434.43	9706.69
434.637	9546.95
434.844	10005.69
435.052	10233.02
435.259	10222.78
435.466	10413.24
435.673	10224.83
435.88	10972.33
436.087	11414.7
436.294	11439.27
436.501	11326.63
436.708	11404.46
436.915	11871.39
437.122	12375.19
437.329	12328.09
437.537	12573.85
437.743	12715.16
437.95	12858.51
438.157	13700.23
438.364	14101.63
438.571	13864.07
438.778	13794.43
438.985	15168.62
439.192	14728.31
439.399	15271.02
439.606	14695.54
439.813	15451.24
440.02	16528.47
440.227	16217.18
440.433	16106.59
440.64	16899.16
440.847	16532.57
441.054	16839.76
441.261	18170.94
441.467	17892.42
441.674	18388.03
441.881	18934.84
442.088	18926.64
442.294	18619.45
442.501	19104.82
442.708	19469.36
442.914	20231.2
443.121	21013.52
443.328	20640.79
443.534	21892.1
443.741	21314.58
443.948	21079.06
444.154	22543.36
444.361	22397.95
444.568	22623.23
444.774	22735.87
444.981	22899.7
445.187	23528.43
445.394	24454.11
445.6	24431.58
445.807	26069.96
446.013	25238.48
446.22	25717.71
446.426	26713.02
446.633	26803.13
446.839	27941.8
447.046	26946.49
447.252	28292.01
447.459	28726.17
447.665	28359.59
447.871	29543.31
448.078	30579.59
448.284	29356.95
448.491	30229.38
448.697	31157.11
448.903	31781.74
449.11	31845.23
449.316	31351.67
449.522	31953.77
449.728	32988
449.935	32938.85
450.141	32873.31
450.347	33569.62
450.553	32996.19
450.76	33192.79
450.966	34241.35
451.172	33868.62
451.378	34954.05
451.584	34079.57
451.791	35091.26
451.997	34861.89
452.203	35345.21
452.409	35537.72
452.615	35214.14
452.821	33674.07
453.027	33835.86
453.233	35279.68
453.44	34087.76
453.646	34526.02
453.852	34847.55
454.058	35277.63
454.264	34061.13
454.47	35345.21
454.676	34136.91
454.882	35251
455.088	32430.95
455.294	32828.26
455.5	33338.2
455.705	33684.31
455.911	32385.9
456.117	31800.18
456.323	31437.69
456.529	29834.13
456.735	31179.64
456.941	30253.96
457.147	30022.54
457.352	28973.98
457.558	28652.45
457.764	28756.89
457.97	28500.9
458.176	27706.29
458.381	27763.63
458.587	26553.28
458.793	26188.74
458.999	25045.98
459.204	26606.53
459.41	26000.33
459.616	24091.62
459.821	24591.33
460.027	24335.33
460.233	23536.62
460.438	22703.1
460.644	22719.48
460.85	21675.02
461.055	21468.17
461.261	21548.04
461.466	19655.72
461.672	18988.08
461.878	20608.03
462.083	19524.65
462.289	18895.92
462.494	18674.74
462.7	17859.65
462.905	17374.28
463.111	17919.04
463.316	18074.69
463.522	17501.26
463.727	17712.2
463.932	17878.08
464.138	17417.29
464.343	17646.66
464.549	17044.56
464.754	17368.14
464.959	17638.47
465.165	17259.6
465.37	16507.99
465.575	15914.08
465.781	17138.77
465.986	16723.03
466.191	16114.78
466.397	15932.51
466.602	15225.97
466.807	15647.85
467.012	15492.2
467.218	15686.76
467.423	15447.15
467.628	15697
467.833	16149.6
