Data from USB4F104151__284__14-46-22-955.txt Node

Date: Thu Mar 13 14:46:22 EDT 2025
User: louis
Spectrometer: USB4F10415
Trigger mode: 4
Integration Time (sec): 2.000000E-2
Scans to average: 1
Electric dark correction enabled: true
Nonlinearity correction enabled: false
Boxcar width: 0
XAxis mode: Wavelengths
Number of Pixels in Spectrum: 3648
>>>>>Begin Spectral Data<<<<<
178.204	-109.4
178.424	-109.4
178.644	-109.4
178.864	-144.21
179.084	-142.16
179.304	-15.19
179.524	5.29
179.744	-21.33
179.964	17.58
180.184	-23.38
180.404	5.29
180.624	-31.57
180.844	-39.76
181.064	38.06
181.283	13.48
181.503	-39.76
181.723	91.31
181.943	-35.67
182.163	134.31
182.383	-7
182.602	19.63
182.822	25.77
183.042	25.77
183.262	29.87
183.482	25.77
183.701	1.19
183.921	60.59
184.141	36.01
184.361	33.96
184.58	60.59
184.8	87.21
185.02	-47.96
185.239	62.63
185.459	54.44
185.679	40.11
185.898	-52.05
186.118	48.3
186.338	9.39
186.557	64.68
186.777	1.19
186.997	113.83
187.216	-25.43
187.436	107.69
187.655	23.72
187.875	64.68
188.095	21.67
188.314	91.31
188.534	44.2
188.753	-29.52
188.973	66.73
189.192	140.46
189.412	-39.76
189.631	76.97
189.851	9.39
190.07	107.69
190.29	19.63
190.509	-15.19
190.729	-35.67
190.948	132.26
191.168	130.22
191.387	101.55
191.607	-11.09
191.826	25.77
192.045	42.15
192.265	68.78
192.484	42.15
192.704	38.06
192.923	-7
193.142	60.59
193.362	68.78
193.581	99.5
193.8	-7
194.02	95.4
194.239	-11.09
194.458	83.11
194.678	33.96
194.897	36.01
195.116	83.11
195.335	40.11
195.555	50.35
195.774	19.63
195.993	119.98
196.212	83.11
196.432	50.35
196.651	36.01
196.87	17.58
197.089	79.02
197.308	109.74
197.528	76.97
197.747	-23.38
197.966	50.35
198.185	93.35
198.404	-60.24
198.623	109.74
198.842	85.16
199.062	70.83
199.281	9.39
199.5	-11.09
199.719	74.92
199.938	-37.72
200.157	25.77
200.376	72.87
200.595	56.49
200.814	38.06
201.033	-2.9
201.252	-17.24
201.471	-23.38
201.69	68.78
201.909	124.07
202.128	79.02
202.347	36.01
202.566	50.35
202.785	21.67
203.004	17.58
203.223	91.31
203.442	27.82
203.661	23.72
203.879	17.58
204.098	70.83
204.317	56.49
204.536	107.69
204.755	60.59
204.974	107.69
205.193	68.78
205.411	124.07
205.63	58.54
205.849	107.69
206.068	17.58
206.287	115.88
206.505	48.3
206.724	3.24
206.943	33.96
207.162	13.48
207.381	5.29
207.599	50.35
207.818	50.35
208.037	-4.95
208.255	76.97
208.474	25.77
208.693	58.54
208.911	29.87
209.13	66.73
209.349	27.82
209.567	-25.43
209.786	9.39
210.005	54.44
210.223	-54.1
210.442	21.67
210.661	-7
210.879	-4.95
211.098	-29.52
211.316	-13.14
211.535	9.39
211.753	17.58
211.972	66.73
212.191	52.39
212.409	66.73
212.628	38.06
212.846	-13.14
213.065	19.63
213.283	-4.95
213.502	17.58
213.72	9.39
213.938	93.35
214.157	11.43
214.375	40.11
214.594	9.39
214.812	50.35
215.031	11.43
215.249	58.54
215.467	140.46
215.686	25.77
215.904	21.67
216.122	66.73
216.341	5.29
216.559	-52.05
216.778	101.55
216.996	62.63
217.214	-2.9
217.432	-15.19
217.651	-4.95
217.869	1.19
218.087	74.92
218.306	-33.62
218.524	58.54
218.742	85.16
218.96	81.07
219.179	-15.19
219.397	66.73
219.615	140.46
219.833	-70.48
220.051	50.35
220.27	76.97
220.488	33.96
220.706	21.67
220.924	13.48
221.142	58.54
221.36	-23.38
221.578	25.77
221.796	60.59
222.015	54.44
222.233	52.39
222.451	160.94
222.669	-60.24
222.887	25.77
223.105	52.39
223.323	58.54
223.541	33.96
223.759	29.87
223.977	29.87
224.195	-9.05
224.413	27.82
224.631	25.77
224.849	54.44
225.067	101.55
225.285	25.77
225.503	76.97
225.721	-43.86
225.939	115.88
226.157	74.92
226.375	93.35
226.592	27.82
226.81	5.29
227.028	101.55
227.246	83.11
227.464	13.48
227.682	9.39
227.9	91.31
228.117	29.87
228.335	-31.57
228.553	109.74
228.771	-35.67
228.989	42.15
229.206	17.58
229.424	79.02
229.642	-23.38
229.86	5.29
230.077	64.68
230.295	-21.33
230.513	40.11
230.731	9.39
230.948	60.59
231.166	91.31
231.384	19.63
231.601	17.58
231.819	89.26
232.037	11.43
232.254	21.67
232.472	60.59
232.689	19.63
232.907	25.77
233.125	-72.53
233.342	68.78
233.56	25.77
233.777	-31.57
233.995	54.44
234.213	44.2
234.43	115.88
234.648	76.97
234.865	33.96
235.083	46.25
235.3	50.35
235.518	50.35
235.735	21.67
235.953	38.06
236.17	17.58
236.388	42.15
236.605	-29.52
236.822	81.07
237.04	27.82
237.257	42.15
237.475	66.73
237.692	27.82
237.909	9.39
238.127	60.59
238.344	11.43
238.562	52.39
238.779	-2.9
238.996	74.92
239.214	56.49
239.431	-11.09
239.648	17.58
239.865	52.39
240.083	27.82
240.3	64.68
240.517	11.43
240.735	-4.95
240.952	42.15
241.169	58.54
241.386	87.21
241.603	93.35
241.821	11.43
242.038	103.59
242.255	91.31
242.472	-35.67
242.689	36.01
242.907	66.73
243.124	40.11
243.341	11.43
243.558	-72.53
243.775	13.48
243.992	-47.96
244.209	7.34
244.426	95.4
244.643	44.2
244.86	60.59
245.078	-7
245.295	31.91
245.512	99.5
245.729	-84.82
245.946	60.59
246.163	38.06
246.38	68.78
246.597	-39.76
246.814	56.49
247.031	27.82
247.248	62.63
247.464	58.54
247.681	64.68
247.898	48.3
248.115	128.17
248.332	9.39
248.549	79.02
248.766	27.82
248.983	85.16
249.2	11.43
249.417	66.73
249.633	15.53
249.85	97.45
250.067	70.83
250.284	58.54
250.501	36.01
250.717	79.02
250.934	38.06
251.151	9.39
251.368	19.63
251.585	-2.9
251.801	17.58
252.018	9.39
252.235	-9.05
252.451	36.01
252.668	50.35
252.885	13.48
253.102	58.54
253.318	25.77
253.535	42.15
253.752	-56.15
253.968	1.19
254.185	44.2
254.401	79.02
254.618	50.35
254.835	21.67
255.051	46.25
255.268	42.15
255.484	31.91
255.701	1.19
255.917	44.2
256.134	11.43
256.351	29.87
256.567	-52.05
256.784	93.35
257	70.83
257.217	3.24
257.433	31.91
257.65	54.44
257.866	79.02
258.082	33.96
258.299	-23.38
258.515	19.63
258.732	-21.33
258.948	60.59
259.165	66.73
259.381	-47.96
259.597	13.48
259.814	9.39
260.03	-4.95
260.246	25.77
260.463	21.67
260.679	79.02
260.895	17.58
261.112	58.54
261.328	42.15
261.544	1.19
261.761	103.59
261.977	25.77
262.193	19.63
262.409	1.19
262.626	68.78
262.842	31.91
263.058	9.39
263.274	25.77
263.49	74.92
263.707	74.92
263.923	23.72
264.139	15.53
264.355	42.15
264.571	99.5
264.787	89.26
265.004	66.73
265.22	50.35
265.436	52.39
265.652	83.11
265.868	68.78
266.084	-27.48
266.3	36.01
266.516	9.39
266.732	66.73
266.948	17.58
267.164	74.92
267.38	66.73
267.596	56.49
267.812	58.54
268.028	107.69
268.244	7.34
268.46	17.58
268.676	93.35
268.892	33.96
269.108	7.34
269.324	5.29
269.54	3.24
269.756	42.15
269.972	76.97
270.188	70.83
270.403	42.15
270.619	31.91
270.835	101.55
271.051	-7
271.267	9.39
271.483	17.58
271.698	109.74
271.914	19.63
272.13	-7
272.346	-35.67
272.562	-23.38
272.777	58.54
272.993	3.24
273.209	1.19
273.425	-4.95
273.64	-9.05
273.856	70.83
274.072	33.96
274.287	9.39
274.503	3.24
274.719	50.35
274.934	54.44
275.15	-15.19
275.366	99.5
275.581	5.29
275.797	-13.14
276.012	54.44
276.228	167.08
276.444	119.98
276.659	107.69
276.875	25.77
277.09	38.06
277.306	-43.86
277.521	58.54
277.737	21.67
277.952	-31.57
278.168	52.39
278.383	-4.95
278.599	36.01
278.814	58.54
279.03	42.15
279.245	101.55
279.461	58.54
279.676	17.58
279.892	19.63
280.107	46.25
280.322	-97.11
280.538	29.87
280.753	40.11
280.969	44.2
281.184	-2.9
281.399	44.2
281.615	54.44
281.83	46.25
282.045	1.19
282.26	25.77
282.476	52.39
282.691	99.5
282.906	36.01
283.122	13.48
283.337	-13.14
283.552	25.77
283.767	33.96
283.983	-35.67
284.198	25.77
284.413	66.73
284.628	33.96
284.843	58.54
285.058	74.92
285.274	50.35
285.489	70.83
285.704	93.35
285.919	33.96
286.134	52.39
286.349	36.01
286.564	50.35
286.779	83.11
286.995	25.77
287.21	17.58
287.425	46.25
287.64	79.02
287.855	-31.57
288.07	74.92
288.285	70.83
288.5	-15.19
288.715	46.25
288.93	27.82
289.145	19.63
289.36	79.02
289.575	-37.72
289.79	36.01
290.004	-7
290.219	68.78
290.434	9.39
290.649	17.58
290.864	44.2
291.079	99.5
291.294	52.39
291.509	70.83
291.724	5.29
291.938	68.78
292.153	9.39
292.368	-35.67
292.583	-23.38
292.798	46.25
293.012	87.21
293.227	66.73
293.442	91.31
293.657	17.58
293.871	136.36
294.086	11.43
294.301	111.78
294.516	11.43
294.73	85.16
294.945	-7
295.16	-54.1
295.374	23.72
295.589	21.67
295.804	11.43
296.018	42.15
296.233	134.31
296.447	38.06
296.662	38.06
296.877	27.82
297.091	44.2
297.306	36.01
297.52	58.54
297.735	42.15
297.949	44.2
298.164	66.73
298.378	9.39
298.593	52.39
298.807	64.68
299.022	7.34
299.236	54.44
299.451	87.21
299.665	52.39
299.88	-17.24
300.094	66.73
300.309	-2.9
300.523	74.92
300.737	85.16
300.952	27.82
301.166	62.63
301.381	105.64
301.595	36.01
301.809	-66.39
302.024	42.15
302.238	-21.33
302.452	15.53
302.667	-15.19
302.881	87.21
303.095	97.45
303.309	36.01
303.524	27.82
303.738	99.5
303.952	23.72
304.166	52.39
304.381	56.49
304.595	109.74
304.809	-47.96
305.023	48.3
305.237	3.24
305.452	46.25
305.666	36.01
305.88	9.39
306.094	-4.95
306.308	25.77
306.522	50.35
306.736	89.26
306.95	44.2
307.164	7.34
307.379	52.39
307.593	140.46
307.807	95.4
308.021	25.77
308.235	-4.95
308.449	5.29
308.663	93.35
308.877	101.55
309.091	38.06
309.305	17.58
309.519	-23.38
309.733	25.77
309.947	-56.15
310.161	66.73
310.374	5.29
310.588	56.49
310.802	36.01
311.016	60.59
311.23	42.15
311.444	27.82
311.658	101.55
311.872	70.83
312.085	23.72
312.299	68.78
312.513	119.98
312.727	42.15
312.941	83.11
313.154	5.29
313.368	50.35
313.582	66.73
313.796	156.84
314.009	58.54
314.223	76.97
314.437	60.59
314.651	87.21
314.864	50.35
315.078	11.43
315.292	60.59
315.505	31.91
315.719	95.4
315.933	42.15
316.146	-25.43
316.36	40.11
316.573	58.54
316.787	81.07
317.001	27.82
317.214	-7
317.428	95.4
317.641	66.73
317.855	72.87
318.068	66.73
318.282	25.77
318.495	50.35
318.709	62.63
318.922	1.19
319.136	58.54
319.349	42.15
319.563	56.49
319.776	25.77
319.99	81.07
320.203	5.29
320.417	52.39
320.63	27.82
320.843	109.74
321.057	46.25
321.27	74.92
321.483	9.39
321.697	68.78
321.91	36.01
322.124	40.11
322.337	27.82
322.55	36.01
322.763	74.92
322.977	66.73
323.19	1.19
323.403	5.29
323.617	-56.15
323.83	50.35
324.043	-15.19
324.256	79.02
324.469	-13.14
324.683	58.54
324.896	25.77
325.109	29.87
325.322	-23.38
325.535	38.06
325.748	99.5
325.962	115.88
326.175	-21.33
326.388	42.15
326.601	87.21
326.814	93.35
327.027	107.69
327.24	3.24
327.453	25.77
327.666	62.63
327.879	48.3
328.092	66.73
328.305	27.82
328.518	50.35
328.731	9.39
328.944	-19.29
329.157	107.69
329.37	-7
329.583	124.07
329.796	62.63
330.009	-15.19
330.222	42.15
330.435	52.39
330.648	66.73
330.861	11.43
331.073	36.01
331.286	19.63
331.499	42.15
331.712	-2.9
331.925	42.15
332.138	1.19
332.35	158.89
332.563	70.83
332.776	44.2
332.989	-7
333.202	29.87
333.414	83.11
333.627	19.63
333.84	13.48
334.053	46.25
334.265	38.06
334.478	-0.85
334.691	52.39
334.903	101.55
335.116	-23.38
335.329	9.39
335.541	64.68
335.754	128.17
335.966	13.48
336.179	72.87
336.392	36.01
336.604	66.73
336.817	38.06
337.029	25.77
337.242	124.07
337.454	42.15
337.667	-4.95
337.88	58.54
338.092	9.39
338.305	91.31
338.517	62.63
338.729	87.21
338.942	76.97
339.154	3.24
339.367	29.87
339.579	93.35
339.792	17.58
340.004	58.54
340.217	66.73
340.429	36.01
340.641	-80.72
340.854	1.19
341.066	60.59
341.278	1.19
341.491	79.02
341.703	85.16
341.915	70.83
342.128	76.97
342.34	124.07
342.552	5.29
342.764	52.39
342.977	81.07
343.189	85.16
343.401	93.35
343.613	-7
343.826	91.31
344.038	52.39
344.25	66.73
344.462	68.78
344.674	87.21
344.886	33.96
345.099	113.83
345.311	85.16
345.523	48.3
345.735	5.29
345.947	66.73
346.159	27.82
346.371	87.21
346.583	25.77
346.795	128.17
347.007	33.96
347.219	-2.9
347.431	1.19
347.643	117.93
347.855	19.63
348.067	101.55
348.279	1.19
348.491	58.54
348.703	79.02
348.915	31.91
349.127	-7
349.339	54.44
349.551	33.96
349.763	46.25
349.975	83.11
350.187	72.87
350.399	66.73
350.61	99.5
350.822	40.11
351.034	17.58
351.246	29.87
351.458	29.87
351.669	58.54
351.881	130.22
352.093	95.4
352.305	60.59
352.517	29.87
352.728	79.02
352.94	-45.91
353.152	33.96
353.363	79.02
353.575	44.2
353.787	50.35
353.999	36.01
354.21	124.07
354.422	62.63
354.633	38.06
354.845	42.15
355.057	-9.05
355.268	9.39
355.48	66.73
355.692	58.54
355.903	70.83
356.115	56.49
356.326	-31.57
356.538	99.5
356.749	58.54
356.961	50.35
357.172	68.78
357.384	33.96
357.595	46.25
357.807	1.19
358.018	-23.38
358.23	15.53
358.441	101.55
358.653	50.35
358.864	44.2
359.075	101.55
359.287	-4.95
359.498	103.59
359.709	124.07
359.921	38.06
360.132	9.39
360.344	54.44
360.555	58.54
360.766	19.63
360.977	95.4
361.189	91.31
361.4	54.44
361.611	70.83
361.823	46.25
362.034	15.53
362.245	9.39
362.456	52.39
362.667	74.92
362.879	115.88
363.09	83.11
363.301	99.5
363.512	85.16
363.723	52.39
363.935	60.59
364.146	60.59
364.357	-7
364.568	44.2
364.779	19.63
364.99	107.69
365.201	46.25
365.412	99.5
365.623	-31.57
365.834	148.65
366.045	-2.9
366.256	66.73
366.467	126.12
366.678	29.87
366.889	27.82
367.1	38.06
367.311	97.45
367.522	5.29
367.733	107.69
367.944	144.55
368.155	17.58
368.366	111.78
368.577	58.54
368.788	134.31
368.999	9.39
369.209	27.82
369.42	115.88
369.631	58.54
369.842	46.25
370.053	36.01
370.264	83.11
370.474	1.19
370.685	93.35
370.896	74.92
371.107	83.11
371.317	115.88
371.528	62.63
371.739	58.54
371.95	42.15
372.16	117.93
372.371	-29.52
372.582	99.5
372.792	36.01
373.003	48.3
373.214	62.63
373.424	93.35
373.635	-13.14
373.846	74.92
374.056	42.15
374.267	66.73
374.477	62.63
374.688	17.58
374.898	83.11
375.109	109.74
375.319	50.35
375.53	134.31
375.74	117.93
375.951	19.63
376.161	124.07
376.372	134.31
376.582	-4.95
376.793	50.35
377.003	19.63
377.214	91.31
377.424	21.67
377.635	99.5
377.845	1.19
378.055	21.67
378.266	-27.48
378.476	76.97
378.686	91.31
378.897	66.73
379.107	33.96
379.317	165.03
379.528	66.73
379.738	44.2
379.948	-2.9
380.158	74.92
380.369	136.36
380.579	42.15
380.789	74.92
380.999	81.07
381.21	167.08
381.42	115.88
381.63	109.74
381.84	66.73
382.05	85.16
382.261	79.02
382.471	-62.29
382.681	79.02
382.891	117.93
383.101	66.73
383.311	44.2
383.521	79.02
383.731	58.54
383.941	124.07
384.151	29.87
384.361	95.4
384.571	19.63
384.781	107.69
384.991	109.74
385.201	93.35
385.411	117.93
385.621	83.11
385.831	68.78
386.041	140.46
386.251	85.16
386.461	74.92
386.671	-11.09
386.881	91.31
387.091	68.78
387.301	115.88
387.511	117.93
387.72	52.39
387.93	60.59
388.14	44.2
388.35	21.67
388.56	138.41
388.769	79.02
388.979	81.07
389.189	54.44
389.399	124.07
389.609	148.65
389.818	60.59
390.028	17.58
390.238	36.01
390.447	27.82
390.657	44.2
390.867	56.49
391.076	-13.14
391.286	33.96
391.496	99.5
391.705	-4.95
391.915	97.45
392.125	95.4
392.334	50.35
392.544	93.35
392.753	17.58
392.963	-7
393.172	76.97
393.382	44.2
393.591	101.55
393.801	119.98
394.01	124.07
394.22	70.83
394.429	66.73
394.639	68.78
394.848	70.83
395.058	76.97
395.267	54.44
395.477	76.97
395.686	87.21
395.895	115.88
396.105	117.93
396.314	72.87
396.524	33.96
396.733	9.39
396.942	148.65
397.152	124.07
397.361	99.5
397.57	150.7
397.78	44.2
397.989	136.36
398.198	115.88
398.407	50.35
398.617	91.31
398.826	46.25
399.035	107.69
399.244	56.49
399.453	52.39
399.663	175.27
399.872	93.35
400.081	83.11
400.29	60.59
400.499	128.17
400.708	144.55
400.917	66.73
401.127	101.55
401.336	95.4
401.545	136.36
401.754	144.55
401.963	181.42
402.172	148.65
402.381	68.78
402.59	109.74
402.799	99.5
403.008	124.07
403.217	101.55
403.426	126.12
403.635	109.74
403.844	150.7
404.053	74.92
404.262	109.74
404.471	158.89
404.68	191.66
404.888	140.46
405.097	146.6
405.306	101.55
405.515	214.18
405.724	103.59
405.933	255.14
406.142	124.07
406.35	93.35
406.559	148.65
406.768	222.38
406.977	226.47
407.185	201.9
407.394	156.84
407.603	167.08
407.812	165.03
408.02	271.53
408.229	240.81
408.438	238.76
408.646	234.66
408.855	244.9
409.064	195.75
409.272	253.09
409.481	263.33
409.69	261.29
409.898	269.48
410.107	273.57
410.315	320.68
410.524	324.77
410.733	277.67
410.941	300.2
411.15	308.39
411.358	279.72
411.567	279.72
411.775	312.49
411.984	384.16
412.192	310.44
412.401	257.19
412.609	445.6
412.818	488.61
413.026	445.6
413.234	429.22
413.443	468.13
413.651	439.46
413.86	513.19
414.068	476.32
414.276	607.39
414.485	541.86
414.693	603.3
414.901	550.05
415.11	500.9
415.318	621.73
415.526	650.4
415.734	683.17
415.943	664.74
416.151	767.13
416.359	697.5
416.567	763.04
416.776	865.44
416.984	939.16
417.192	869.53
417.4	812.19
417.608	816.29
417.817	877.73
418.025	935.07
418.233	998.56
418.441	1002.65
418.649	984.22
418.857	1107.1
419.065	1154.2
419.273	1021.08
419.481	1148.06
419.689	1197.21
419.897	1313.94
420.105	1309.85
420.313	1305.75
420.521	1369.24
420.729	1365.14
420.937	1440.92
421.145	1492.12
421.353	1533.08
421.561	1744.02
421.769	1651.86
421.977	1721.49
422.185	1707.15
422.393	1721.49
422.601	1944.72
422.809	1975.44
423.017	1987.72
423.224	2075.79
423.432	2110.6
423.64	2155.66
423.848	2258.06
424.056	2200.71
424.263	2413.7
424.471	2458.76
424.679	2440.33
424.887	2575.49
425.094	2706.56
425.302	2702.47
425.51	2745.47
425.718	2870.4
425.925	2880.64
426.133	3064.96
426.341	3191.93
426.548	3210.36
426.756	3239.03
426.964	3357.82
427.171	3501.17
427.379	3624.05
427.586	3703.92
427.794	3878
428.001	4047.98
428.209	4144.24
428.417	4129.9
428.624	4535.4
428.832	4346.98
429.039	4303.98
429.247	4308.07
429.454	4660.32
429.662	5223.51
429.869	4809.83
430.076	5155.93
430.284	4910.18
430.491	5237.85
430.699	5506.13
430.906	5411.93
431.114	5522.52
431.321	5596.25
431.528	5954.64
431.736	6116.43
431.943	6392.91
432.15	6456.39
432.358	6319.18
432.565	6640.71
432.772	6710.34
432.979	6964.29
433.187	7042.11
433.394	7232.57
433.601	7654.45
433.808	7662.65
434.016	7566.39
434.223	8080.43
434.43	8635.43
434.637	8098.86
434.844	8803.36
435.052	8881.19
435.259	8909.86
435.466	8997.92
435.673	8971.3
435.88	9417.75
436.087	10046.48
436.294	10015.76
436.501	9665.56
436.708	10159.12
436.915	10361.87
437.122	10773.51
437.329	10675.21
437.537	11037.7
437.743	11215.87
437.95	11174.91
438.157	11580.41
438.364	12051.44
438.571	12106.74
438.778	12239.86
438.985	13241.31
439.192	12829.67
439.399	13253.6
439.606	12905.45
439.813	13542.36
440.02	14451.66
440.227	14123.99
440.433	14058.45
440.64	14355.41
440.847	14789.58
441.054	14916.55
441.261	16004.02
441.467	15582.14
441.674	16020.41
441.881	16542.64
442.088	16384.94
442.294	16243.63
442.501	16946.09
442.708	17152.93
442.914	17638.3
443.121	18676.62
443.328	18019.22
443.534	19278.72
443.741	18727.82
443.948	18398.1
444.154	19606.4
444.361	19803
444.568	19604.35
444.774	19841.92
444.981	20065.14
445.187	20755.31
445.394	21695.33
445.6	21357.41
445.807	23511.88
446.013	22375.25
446.22	22684.5
446.426	23690.05
446.633	23804.74
446.839	24775.47
447.046	23489.35
447.252	25117.48
447.459	25004.85
447.665	24959.79
447.871	25908
448.078	27298.57
448.284	26047.26
448.491	26725.14
448.697	28007.17
448.903	28173.05
449.11	28351.23
449.316	27912.96
449.522	28390.14
449.728	29344.49
449.935	29623.01
450.141	29317.87
450.347	29772.52
450.553	29362.92
450.76	29557.48
450.966	30653.14
451.172	30524.12
451.378	30925.52
451.584	30388.95
451.791	31167.18
451.997	31388.36
452.203	31531.72
452.409	31752.9
452.615	31875.78
452.821	30399.19
453.027	30147.29
453.233	32150.21
453.44	30726.87
453.646	31238.86
453.852	30905.04
454.058	31748.81
454.264	30714.58
454.47	31615.69
454.676	30900.95
454.882	31857.35
455.088	29313.77
455.294	29465.32
455.5	30092
455.705	30755.54
455.911	28877.55
456.117	28836.59
456.323	28271.36
456.529	26569.49
456.735	28089.09
456.941	27656.96
457.147	26768.15
457.352	26110.75
457.558	26014.49
457.764	26073.88
457.97	25596.71
458.176	24996.65
458.381	25191.21
458.587	23620.42
458.793	23909.18
458.999	22444.88
459.204	24445.75
459.41	23548.74
459.616	21965.66
459.821	22139.74
460.027	22068.06
460.233	21594.98
460.438	20581.23
460.644	20550.51
460.85	19809.15
461.055	19366.79
461.261	19669.89
461.466	18066.33
461.672	17550.24
461.878	18803.6
462.083	17462.18
462.289	16960.42
462.494	17140.65
462.7	16278.45
462.905	15782.84
463.111	16434.1
463.316	16679.85
463.522	16270.26
463.727	16241.59
463.932	16110.52
464.138	15926.2
464.343	16167.86
464.549	15614.91
464.754	15981.49
464.959	15811.51
465.165	15748.03
465.37	15297.47
465.575	14789.58
465.781	15317.95
465.986	15422.4
466.191	14934.98
466.397	14664.65
466.602	13882.33
466.807	14363.6
467.012	14781.39
467.218	14427.09
467.423	14035.92
467.628	14293.97
467.833	14721.99
468.038	14545.87
