Data from USB4F104151__294__14-46-29-493.txt Node

Date: Thu Mar 13 14:46:29 EDT 2025
User: louis
Spectrometer: USB4F10415
Trigger mode: 4
Integration Time (sec): 2.000000E-2
Scans to average: 1
Electric dark correction enabled: true
Nonlinearity correction enabled: false
Boxcar width: 0
XAxis mode: Wavelengths
Number of Pixels in Spectrum: 3648
>>>>>Begin Spectral Data<<<<<
178.204	-105.64
178.424	-105.64
178.644	-105.64
178.864	-115.88
179.084	-83.11
179.304	-7.34
179.524	-46.25
179.744	52.05
179.964	-27.82
180.184	60.24
180.404	4.95
180.624	37.72
180.844	-31.91
181.064	-60.59
181.283	-23.72
181.503	0.85
181.723	41.81
181.943	-68.78
182.163	99.16
182.383	64.34
182.602	140.12
182.822	99.16
183.042	33.62
183.262	45.91
183.482	-9.39
183.701	33.62
183.921	0.85
184.141	-1.19
184.361	29.52
184.58	-52.39
184.8	2.9
185.02	-21.67
185.239	54.1
185.459	43.86
185.679	27.48
185.898	0.85
186.118	-7.34
186.338	-15.53
186.557	17.24
186.777	-7.34
186.997	29.52
187.216	-44.2
187.436	90.96
187.655	13.14
187.875	33.62
188.095	-31.91
188.314	101.2
188.534	27.48
188.753	2.9
188.973	0.85
189.192	-5.29
189.412	-42.15
189.631	111.44
189.851	52.05
190.07	11.09
190.29	-23.72
190.509	-13.48
190.729	9.05
190.948	39.76
191.168	90.96
191.387	25.43
191.607	-7.34
191.826	0.85
192.045	43.86
192.265	2.9
192.484	-19.63
192.704	-23.72
192.923	33.62
193.142	84.82
193.362	70.48
193.581	82.77
193.8	11.09
194.02	41.81
194.239	17.24
194.458	78.68
194.678	47.96
194.897	-5.29
195.116	74.58
195.335	-5.29
195.555	-13.48
195.774	11.09
195.993	27.48
196.212	-70.83
196.432	-15.53
196.651	-74.92
196.87	-21.67
197.089	45.91
197.308	50
197.528	17.24
197.747	-64.68
197.966	-7.34
198.185	29.52
198.404	-25.77
198.623	93.01
198.842	-15.53
199.062	41.81
199.281	13.14
199.5	-29.87
199.719	88.92
199.938	50
200.157	11.09
200.376	25.43
200.595	74.58
200.814	119.64
201.033	0.85
201.252	70.48
201.471	17.24
201.69	-27.82
201.909	17.24
202.128	64.34
202.347	0.85
202.566	-40.11
202.785	11.09
203.004	-40.11
203.223	27.48
203.442	-9.39
203.661	7
203.879	43.86
204.098	41.81
204.317	-19.63
204.536	13.14
204.755	43.86
204.974	-11.43
205.193	-23.72
205.411	64.34
205.63	60.24
205.849	33.62
206.068	11.09
206.287	-15.53
206.505	9.05
206.724	-7.34
206.943	17.24
207.162	-25.77
207.381	29.52
207.599	9.05
207.818	-15.53
208.037	27.48
208.255	0.85
208.474	82.77
208.693	76.63
208.911	-7.34
209.13	-29.87
209.349	2.9
209.567	0.85
209.786	58.2
210.005	33.62
210.223	58.2
210.442	29.52
210.661	56.15
210.879	54.1
211.098	19.29
211.316	27.48
211.535	2.9
211.753	11.09
211.972	0.85
212.191	54.1
212.409	-7.34
212.628	-3.24
212.846	-40.11
213.065	-11.43
213.283	17.24
213.502	25.43
213.72	35.67
213.938	-21.67
214.157	-19.63
214.375	86.87
214.594	-72.87
214.812	0.85
215.031	76.63
215.249	27.48
215.467	58.2
215.686	0.85
215.904	60.24
216.122	105.3
216.341	78.68
216.559	70.48
216.778	68.44
216.996	-13.48
217.214	33.62
217.432	58.2
217.651	-40.11
217.869	-19.63
218.087	11.09
218.306	11.09
218.524	50
218.742	-7.34
218.96	9.05
219.179	-9.39
219.397	9.05
219.615	-5.29
219.833	-7.34
220.051	-15.53
220.27	31.57
220.488	66.39
220.706	29.52
220.924	45.91
221.142	84.82
221.36	60.24
221.578	33.62
221.796	101.2
222.015	11.09
222.233	-11.43
222.451	35.67
222.669	-15.53
222.887	52.05
223.105	-48.3
223.323	-15.53
223.541	21.33
223.759	70.48
223.977	0.85
224.195	41.81
224.413	68.44
224.631	35.67
224.849	37.72
225.067	66.39
225.285	-31.91
225.503	60.24
225.721	-101.55
225.939	-33.96
226.157	-5.29
226.375	99.16
226.592	-48.3
226.81	68.44
227.028	80.72
227.246	56.15
227.464	2.9
227.682	0.85
227.9	45.91
228.117	70.48
228.335	-7.34
228.553	9.05
228.771	19.29
228.989	41.81
229.206	4.95
229.424	0.85
229.642	-13.48
229.86	41.81
230.077	86.87
230.295	33.62
230.513	-7.34
230.731	-11.43
230.948	88.92
231.166	62.29
231.384	17.24
231.601	33.62
231.819	78.68
232.037	-48.3
232.254	11.09
232.472	64.34
232.689	-11.43
232.907	7
233.125	17.24
233.342	45.91
233.56	-3.24
233.777	43.86
233.995	17.24
234.213	84.82
234.43	17.24
234.648	101.2
234.865	35.67
235.083	70.48
235.3	29.52
235.518	27.48
235.735	70.48
235.953	29.52
236.17	-15.53
236.388	29.52
236.605	41.81
236.822	21.33
237.04	37.72
237.257	-17.58
237.475	9.05
237.692	33.62
237.909	35.67
238.127	0.85
238.344	29.52
238.562	-31.91
238.779	37.72
238.996	-79.02
239.214	27.48
239.431	58.2
239.648	2.9
239.865	-15.53
240.083	50
240.3	74.58
240.517	-29.87
240.735	41.81
240.952	11.09
241.169	31.57
241.386	68.44
241.603	78.68
241.821	11.09
242.038	107.35
242.255	-13.48
242.472	-1.19
242.689	84.82
242.907	27.48
243.124	45.91
243.341	74.58
243.558	-15.53
243.775	11.09
243.992	17.24
244.209	11.09
244.426	11.09
244.643	9.05
244.86	-1.19
245.078	-54.44
245.295	50
245.512	19.29
245.729	-48.3
245.946	19.29
246.163	-13.48
246.38	56.15
246.597	70.48
246.814	76.63
247.031	54.1
247.248	35.67
247.464	33.62
247.681	21.33
247.898	33.62
248.115	74.58
248.332	-31.91
248.549	-40.11
248.766	109.4
248.983	11.09
249.2	2.9
249.417	33.62
249.633	-40.11
249.85	-38.06
250.067	19.29
250.284	2.9
250.501	25.43
250.717	60.24
250.934	31.57
251.151	-11.43
251.368	-23.72
251.585	11.09
251.801	-46.25
252.018	-19.63
252.235	19.29
252.451	33.62
252.668	2.9
252.885	25.43
253.102	142.16
253.318	29.52
253.535	54.1
253.752	9.05
253.968	-21.67
254.185	-31.91
254.401	4.95
254.618	66.39
254.835	-3.24
255.051	70.48
255.268	45.91
255.484	50
255.701	60.24
255.917	58.2
256.134	21.33
256.351	11.09
256.567	21.33
256.784	41.81
257	-11.43
257.217	52.05
257.433	68.44
257.65	0.85
257.866	50
258.082	27.48
258.299	9.05
258.515	11.09
258.732	-23.72
258.948	-9.39
259.165	62.29
259.381	50
259.597	-40.11
259.814	35.67
260.03	-40.11
260.246	-15.53
260.463	21.33
260.679	47.96
260.895	29.52
261.112	-19.63
261.328	-36.01
261.544	17.24
261.761	156.5
261.977	52.05
262.193	-27.82
262.409	-27.82
262.626	35.67
262.842	35.67
263.058	-44.2
263.274	68.44
263.49	-46.25
263.707	50
263.923	-31.91
264.139	35.67
264.355	11.09
264.571	93.01
264.787	66.39
265.004	21.33
265.22	82.77
265.436	0.85
265.652	11.09
265.868	35.67
266.084	13.14
266.3	41.81
266.516	-56.49
266.732	60.24
266.948	43.86
267.164	27.48
267.38	113.49
267.596	17.24
267.812	-5.29
268.028	17.24
268.244	-19.63
268.46	17.24
268.676	-9.39
268.892	2.9
269.108	-42.15
269.324	-3.24
269.54	-27.82
269.756	-5.29
269.972	11.09
270.188	-31.91
270.403	45.91
270.619	9.05
270.835	66.39
271.051	-7.34
271.267	2.9
271.483	50
271.698	31.57
271.914	-74.92
272.13	99.16
272.346	4.95
272.562	-5.29
272.777	-9.39
272.993	7
273.209	11.09
273.425	-7.34
273.64	72.53
273.856	7
274.072	-13.48
274.287	-21.67
274.503	35.67
274.719	17.24
274.934	25.43
275.15	-13.48
275.366	60.24
275.581	-93.35
275.797	27.48
276.012	21.33
276.228	-13.48
276.444	115.54
276.659	-7.34
276.875	-62.63
277.09	-31.91
277.306	-21.67
277.521	50
277.737	66.39
277.952	-23.72
278.168	76.63
278.383	11.09
278.599	35.67
278.814	64.34
279.03	-21.67
279.245	2.9
279.461	-9.39
279.676	95.06
279.892	-56.49
280.107	76.63
280.322	19.29
280.538	66.39
280.753	-5.29
280.969	29.52
281.184	-11.43
281.399	50
281.615	68.44
281.83	33.62
282.045	13.14
282.26	-3.24
282.476	13.14
282.691	82.77
282.906	-5.29
283.122	-48.3
283.337	11.09
283.552	9.05
283.767	60.24
283.983	39.76
284.198	33.62
284.413	35.67
284.628	-7.34
284.843	-13.48
285.058	66.39
285.274	25.43
285.489	56.15
285.704	41.81
285.919	43.86
286.134	-11.43
286.349	-11.43
286.564	41.81
286.779	72.53
286.995	35.67
287.21	-48.3
287.425	60.24
287.64	-36.01
287.855	4.95
288.07	-29.87
288.285	43.86
288.5	25.43
288.715	13.14
288.93	107.35
289.145	-56.49
289.36	56.15
289.575	-40.11
289.79	43.86
290.004	-64.68
290.219	82.77
290.434	-5.29
290.649	45.91
290.864	-54.44
291.079	86.87
291.294	19.29
291.509	13.14
291.724	9.05
291.938	47.96
292.153	-31.91
292.368	-27.82
292.583	41.81
292.798	21.33
293.012	-9.39
293.227	-11.43
293.442	25.43
293.657	76.63
293.871	68.44
294.086	29.52
294.301	74.58
294.516	-17.58
294.73	54.1
294.945	23.38
295.16	-21.67
295.374	41.81
295.589	-23.72
295.804	-27.82
296.018	62.29
296.233	82.77
296.447	41.81
296.662	-50.35
296.877	-5.29
297.091	27.48
297.306	17.24
297.52	23.38
297.735	-17.58
297.949	19.29
298.164	43.86
298.378	-23.72
298.593	-5.29
298.807	-15.53
299.022	82.77
299.236	25.43
299.451	62.29
299.665	101.2
299.88	-15.53
300.094	78.68
300.309	43.86
300.523	43.86
300.737	54.1
300.952	0.85
301.166	-1.19
301.381	50
301.595	-23.72
301.809	-15.53
302.024	-31.91
302.238	-5.29
302.452	107.35
302.667	4.95
302.881	68.44
303.095	60.24
303.309	19.29
303.524	19.29
303.738	-29.87
303.952	-15.53
304.166	33.62
304.381	-46.25
304.595	-7.34
304.809	-60.59
305.023	-23.72
305.237	-19.63
305.452	74.58
305.666	17.24
305.88	50
306.094	84.82
306.308	-13.48
306.522	2.9
306.736	-13.48
306.95	27.48
307.164	33.62
307.379	-21.67
307.593	17.24
307.807	39.76
308.021	-40.11
308.235	13.14
308.449	72.53
308.663	21.33
308.877	99.16
309.091	58.2
309.305	43.86
309.519	11.09
309.733	99.16
309.947	2.9
310.161	62.29
310.374	-21.67
310.588	25.43
310.802	-36.01
311.016	-9.39
311.23	9.05
311.444	-31.91
311.658	56.15
311.872	103.25
312.085	37.72
312.299	37.72
312.513	84.82
312.727	99.16
312.941	-29.87
313.154	35.67
313.368	-27.82
313.582	50
313.796	-5.29
314.009	50
314.223	37.72
314.437	93.01
314.651	-40.11
314.864	-23.72
315.078	-56.49
315.292	-64.68
315.505	37.72
315.719	43.86
315.933	4.95
316.146	60.24
316.36	27.48
316.573	47.96
316.787	35.67
317.001	74.58
317.214	31.57
317.428	25.43
317.641	39.76
317.855	17.24
318.068	66.39
318.282	-23.72
318.495	105.3
318.709	101.2
318.922	-7.34
319.136	-5.29
319.349	4.95
319.563	-5.29
319.776	21.33
319.99	17.24
320.203	27.48
320.417	0.85
320.63	35.67
320.843	82.77
321.057	9.05
321.27	27.48
321.483	43.86
321.697	2.9
321.91	50
322.124	33.62
322.337	90.96
322.55	9.05
322.763	11.09
322.977	-36.01
323.19	39.76
323.403	11.09
323.617	31.57
323.83	17.24
324.043	19.29
324.256	-9.39
324.469	17.24
324.683	60.24
324.896	-31.91
325.109	4.95
325.322	0.85
325.535	-11.43
325.748	-27.82
325.962	4.95
326.175	35.67
326.388	17.24
326.601	-9.39
326.814	0.85
327.027	-21.67
327.24	74.58
327.453	19.29
327.666	-64.68
327.879	58.2
328.092	119.64
328.305	52.05
328.518	45.91
328.731	58.2
328.944	33.62
329.157	66.39
329.37	70.48
329.583	86.87
329.796	19.29
330.009	9.05
330.222	97.11
330.435	31.57
330.648	37.72
330.861	99.16
331.073	0.85
331.286	60.24
331.499	13.14
331.712	-48.3
331.925	17.24
332.138	-15.53
332.35	45.91
332.563	4.95
332.776	33.62
332.989	13.14
333.202	62.29
333.414	-70.83
333.627	66.39
333.84	17.24
334.053	60.24
334.265	39.76
334.478	27.48
334.691	-81.07
334.903	-11.43
335.116	-15.53
335.329	-11.43
335.541	11.09
335.754	25.43
335.966	19.29
336.179	-7.34
336.392	80.72
336.604	-13.48
336.817	4.95
337.029	-11.43
337.242	21.33
337.454	-13.48
337.667	123.73
337.88	88.92
338.092	64.34
338.305	68.44
338.517	33.62
338.729	101.2
338.942	50
339.154	37.72
339.367	0.85
339.579	140.12
339.792	33.62
340.004	78.68
340.217	82.77
340.429	23.38
340.641	-40.11
340.854	-48.3
341.066	23.38
341.278	90.96
341.491	41.81
341.703	29.52
341.915	-21.67
342.128	43.86
342.34	-13.48
342.552	13.14
342.764	9.05
342.977	19.29
343.189	29.52
343.401	99.16
343.613	27.48
343.826	47.96
344.038	-11.43
344.25	68.44
344.462	-36.01
344.674	58.2
344.886	35.67
345.099	68.44
345.311	37.72
345.523	27.48
345.735	17.24
345.947	72.53
346.159	0.85
346.371	9.05
346.583	-31.91
346.795	31.57
347.007	-15.53
347.219	86.87
347.431	9.05
347.643	54.1
347.855	35.67
348.067	78.68
348.279	19.29
348.491	-23.72
348.703	25.43
348.915	-21.67
349.127	21.33
349.339	-62.63
349.551	25.43
349.763	19.29
349.975	-40.11
350.187	111.44
350.399	27.48
350.61	68.44
350.822	-23.72
351.034	11.09
351.246	62.29
351.458	4.95
351.669	19.29
351.881	33.62
352.093	99.16
352.305	82.77
352.517	78.68
352.728	21.33
352.94	25.43
353.152	35.67
353.363	-36.01
353.575	58.2
353.787	0.85
353.999	74.58
354.21	58.2
354.422	9.05
354.633	43.86
354.845	-46.25
355.057	43.86
355.268	19.29
355.48	25.43
355.692	23.38
355.903	-15.53
356.115	-44.2
356.326	-33.96
356.538	-42.15
356.749	33.62
356.961	123.73
357.172	4.95
357.384	41.81
357.595	27.48
357.807	31.57
358.018	-11.43
358.23	66.39
358.441	-15.53
358.653	17.24
358.864	111.44
359.075	25.43
359.287	33.62
359.498	66.39
359.709	82.77
359.921	9.05
360.132	-15.53
360.344	-5.29
360.555	19.29
360.766	-38.06
360.977	9.05
361.189	50
361.4	-38.06
361.611	-23.72
361.823	47.96
362.034	50
362.245	9.05
362.456	27.48
362.667	37.72
362.879	21.33
363.09	9.05
363.301	68.44
363.512	7
363.723	-13.48
363.935	-1.19
364.146	140.12
364.357	58.2
364.568	-40.11
364.779	72.53
364.99	58.2
365.201	-54.44
365.412	39.76
365.623	-19.63
365.834	4.95
366.045	9.05
366.256	-3.24
366.467	-5.29
366.678	45.91
366.889	25.43
367.1	43.86
367.311	25.43
367.522	37.72
367.733	62.29
367.944	0.85
368.155	-13.48
368.366	29.52
368.577	19.29
368.788	25.43
368.999	25.43
369.209	-54.44
369.42	123.73
369.631	62.29
369.842	9.05
370.053	33.62
370.264	115.54
370.474	11.09
370.685	9.05
370.896	43.86
371.107	58.2
371.317	33.62
371.528	50
371.739	93.01
371.95	117.59
372.16	33.62
372.371	-105.64
372.582	-48.3
372.792	66.39
373.003	66.39
373.214	41.81
373.424	-5.29
373.635	-7.34
373.846	66.39
374.056	41.81
374.267	74.58
374.477	11.09
374.688	11.09
374.898	41.81
375.109	17.24
375.319	37.72
375.53	72.53
375.74	50
375.951	25.43
376.161	70.48
376.372	68.44
376.582	-1.19
376.793	-7.34
377.003	25.43
377.214	-5.29
377.424	70.48
377.635	45.91
377.845	13.14
378.055	17.24
378.266	-13.48
378.476	41.81
378.686	54.1
378.897	82.77
379.107	-46.25
379.317	2.9
379.528	19.29
379.738	17.24
379.948	33.62
380.158	95.06
380.369	66.39
380.579	76.63
380.789	23.38
380.999	41.81
381.21	66.39
381.42	2.9
381.63	-9.39
381.84	9.05
382.05	95.06
382.261	95.06
382.471	35.67
382.681	2.9
382.891	35.67
383.101	-25.77
383.311	4.95
383.521	33.62
383.731	23.38
383.941	76.63
384.151	4.95
384.361	43.86
384.571	-7.34
384.781	82.77
384.991	74.58
385.201	140.12
385.411	101.2
385.621	111.44
385.831	-19.63
386.041	-46.25
386.251	-15.53
386.461	70.48
386.671	17.24
386.881	35.67
387.091	15.19
387.301	41.81
387.511	4.95
387.72	76.63
387.93	-56.49
388.14	21.33
388.35	17.24
388.56	45.91
388.769	17.24
388.979	78.68
389.189	-48.3
389.399	0.85
389.609	43.86
389.818	7
390.028	-15.53
390.238	41.81
390.447	-13.48
390.657	66.39
390.867	0.85
391.076	25.43
391.286	21.33
391.496	41.81
391.705	29.52
391.915	37.72
392.125	41.81
392.334	-64.68
392.544	35.67
392.753	47.96
392.963	-60.59
393.172	35.67
393.382	-7.34
393.591	60.24
393.801	90.96
394.01	93.01
394.22	84.82
394.429	52.05
394.639	76.63
394.848	37.72
395.058	74.58
395.267	60.24
395.477	54.1
395.686	41.81
395.895	15.19
396.105	144.21
396.314	107.35
396.524	54.1
396.733	21.33
396.942	74.58
397.152	70.48
397.361	136.02
397.57	0.85
397.78	80.72
397.989	86.87
398.198	136.02
398.407	-23.72
398.617	62.29
398.826	72.53
399.035	107.35
399.244	52.05
399.453	60.24
399.663	78.68
399.872	74.58
400.081	13.14
400.29	39.76
400.499	52.05
400.708	101.2
400.917	43.86
401.127	78.68
401.336	72.53
401.545	103.25
401.754	72.53
401.963	90.96
402.172	54.1
402.381	17.24
402.59	117.59
402.799	45.91
403.008	123.73
403.217	86.87
403.426	103.25
403.635	41.81
403.844	47.96
404.053	76.63
404.262	27.48
404.471	148.31
404.68	70.48
404.888	50
405.097	45.91
405.306	66.39
405.515	33.62
405.724	56.15
405.933	66.39
406.142	25.43
406.35	107.35
406.559	107.35
406.768	41.81
406.977	203.6
407.185	115.54
407.394	86.87
407.603	37.72
407.812	27.48
408.02	107.35
408.229	88.92
408.438	133.97
408.646	62.29
408.855	168.79
409.064	172.88
409.272	197.46
409.481	203.6
409.69	43.86
409.898	82.77
410.107	246.61
410.315	191.31
410.524	125.78
410.733	191.31
410.941	219.99
411.15	287.57
411.358	183.12
411.567	189.27
411.775	224.08
411.984	224.08
412.192	191.31
412.401	232.27
412.609	213.84
412.818	232.27
413.026	238.42
413.234	240.47
413.443	267.09
413.651	156.5
413.86	295.76
414.068	371.54
414.276	363.34
414.485	320.34
414.693	344.91
414.901	346.96
415.11	367.44
415.318	293.71
415.526	328.53
415.734	389.97
415.943	254.8
416.151	455.5
416.359	404.3
416.567	410.45
416.776	432.97
416.984	459.6
417.192	478.03
417.4	559.95
417.608	406.35
417.817	441.17
418.025	535.37
418.233	578.38
418.441	449.36
418.649	566.09
418.857	590.67
419.065	578.38
419.273	615.24
419.481	670.54
419.689	648.01
419.897	805.71
420.105	734.03
420.313	713.55
420.521	803.66
420.729	811.85
420.937	824.14
421.145	836.42
421.353	901.96
421.561	940.87
421.769	854.86
421.977	1033.03
422.185	967.49
422.393	967.49
422.601	1117
422.809	1082.18
423.017	1139.52
423.224	1170.24
423.432	1149.76
423.64	1157.96
423.848	1313.6
424.056	1217.35
424.263	1336.13
424.471	1323.84
424.679	1215.3
424.887	1370.94
425.094	1452.86
425.302	1514.3
425.51	1442.62
425.718	1534.78
425.925	1524.54
426.133	1690.43
426.341	1803.07
426.548	1925.94
426.756	1968.95
426.964	1831.74
427.171	1934.14
427.379	2007.86
427.586	2071.35
427.794	1975.1
428.001	2200.37
428.209	2337.59
428.417	2294.58
428.624	2431.79
428.832	2442.03
429.039	2294.58
429.247	2356.02
429.454	2665.26
429.662	2786.09
429.869	2605.87
430.076	2796.33
430.284	2661.16
430.491	2781.99
430.699	2982.7
430.906	2943.78
431.114	3031.85
431.321	3124.01
431.528	3195.68
431.736	3482.4
431.943	3556.13
432.15	3420.96
432.358	3466.02
432.565	3779.36
432.772	3791.64
432.979	3935
433.187	3855.13
433.394	3908.38
433.601	4147.99
433.808	4272.92
434.016	4014.87
434.223	4406.03
434.43	4576.02
434.637	4522.77
434.844	4760.33
435.052	4809.48
435.259	4909.83
435.466	4799.24
435.673	4815.63
435.88	5251.85
436.087	5415.68
436.294	5442.31
436.501	5350.15
436.708	5251.85
436.915	5679.87
437.122	5944.06
437.329	5657.34
437.537	5954.3
437.743	6099.7
437.95	5894.91
438.157	6202.1
438.364	6482.67
438.571	6546.16
438.778	6513.39
438.985	7154.41
439.192	6976.23
439.399	7152.36
439.606	6873.84
439.813	7152.36
440.02	7953.12
440.227	7539.43
440.433	7590.63
440.64	7807.71
440.847	7940.83
441.054	8018.65
441.261	8438.48
441.467	8331.99
441.674	8467.16
441.881	8856.27
442.088	8708.82
442.294	8692.43
442.501	8979.15
442.708	9054.92
442.914	9607.87
443.121	9839.3
443.328	9480.9
443.534	10373.82
443.741	9831.1
443.948	9687.75
444.154	10480.31
444.361	10437.3
444.568	10601.14
444.774	10351.29
444.981	10666.67
445.187	11004.59
445.394	11332.26
445.6	11188.91
445.807	12415.64
446.013	11731.62
446.22	11981.47
446.426	12903.06
446.633	12593.81
446.839	13142.67
447.046	12475.03
447.252	13103.76
447.459	13163.15
447.665	13331.08
447.871	13712
448.078	14385.79
448.284	13847.17
448.491	14131.84
448.697	14557.82
448.903	14928.5
449.11	14686.84
449.316	14695.03
449.522	15026.8
449.728	15387.24
449.935	15626.85
450.141	15463.02
450.347	15708.77
450.553	15313.52
450.76	15684.2
450.966	16106.08
451.172	15833.7
451.378	16157.28
451.584	16028.26
451.791	16599.64
451.997	16544.34
452.203	16847.44
452.409	16808.53
452.615	16693.85
452.821	15962.72
453.027	15850.08
453.233	16806.48
453.44	15989.35
453.646	16224.86
453.852	16460.38
454.058	16628.31
454.264	16099.94
454.47	16290.4
454.676	15843.94
454.882	16497.24
455.088	15082.1
455.294	15303.28
455.5	15731.3
455.705	15735.4
455.911	15053.42
456.117	14674.55
456.323	14774.9
456.529	13959.81
456.735	14377.59
456.941	14160.51
457.147	14267
457.352	13562.5
457.558	13290.12
457.764	13509.26
457.97	13165.2
458.176	12814.99
458.381	12817.04
458.587	12348.06
458.793	12165.79
458.999	11711.14
459.204	12556.95
459.41	12044.96
459.616	11336.36
459.821	11416.23
460.027	11408.04
460.233	11219.63
460.438	10572.47
460.644	10689.2
460.85	10193.59
461.055	10218.17
461.261	10056.38
461.466	9327.3
461.672	8993.48
461.878	9456.33
462.083	9069.26
462.289	8798.93
462.494	8741.58
462.7	8426.2
462.905	8145.63
463.111	8567.51
463.316	8381.14
463.522	8372.95
463.727	8358.61
463.932	8188.63
464.138	8176.34
464.343	8250.07
464.549	8000.22
464.754	8131.29
464.959	8209.11
465.165	8035.03
465.37	7660.26
465.575	7631.58
465.781	8057.56
465.986	8004.32
466.191	7609.06
466.397	7434.98
466.602	7193.32
466.807	7391.97
467.012	7449.32
467.218	7359.21
467.423	7295.72
467.628	7402.21
467.833	7604.96
468.038	7365.35
468.244	7154.41
468.449	7494.37
468.654	7203.56
468.859	7115.5
469.064	6998.76
469.269	6771.44
469.474	6951.66
469.679	6982.38
469.885	6808.3
