Data from USB4F104151__86__14-43-30-875.txt Node

Date: Thu Mar 13 14:43:30 EDT 2025
User: louis
Spectrometer: USB4F10415
Trigger mode: 4
Integration Time (sec): 2.000000E-2
Scans to average: 1
Electric dark correction enabled: true
Nonlinearity correction enabled: false
Boxcar width: 0
XAxis mode: Wavelengths
Number of Pixels in Spectrum: 3648
>>>>>Begin Spectral Data<<<<<
178.204	-83.45
178.424	-83.45
178.644	-83.45
178.864	-97.79
179.084	-103.93
179.304	61.95
179.524	-56.83
179.744	-87.55
179.964	31.23
180.184	12.8
180.404	29.18
180.624	39.42
180.844	-5.63
181.064	-15.87
181.283	12.8
181.503	-13.82
181.723	-7.68
181.943	-11.78
182.163	23.04
182.383	12.8
182.602	25.09
182.822	35.33
183.042	61.95
183.262	84.48
183.482	25.09
183.701	-36.35
183.921	-44.54
184.141	-34.3
184.361	94.72
184.58	53.76
184.8	25.09
185.02	123.39
185.239	-3.58
185.459	33.28
185.679	78.33
185.898	-48.64
186.118	16.9
186.338	70.14
186.557	16.9
186.777	-1.54
186.997	33.28
187.216	23.04
187.436	37.38
187.655	45.57
187.875	14.85
188.095	41.47
188.314	82.43
188.534	61.95
188.753	76.29
188.973	72.19
189.192	53.76
189.412	80.38
189.631	6.66
189.851	-11.78
190.07	49.66
190.29	-34.3
190.509	41.47
190.729	-11.78
190.948	86.53
191.168	143.87
191.387	66.05
191.607	53.76
191.826	43.52
192.045	-3.58
192.265	-73.21
192.484	8.7
192.704	37.38
192.923	20.99
193.142	102.91
193.362	41.47
193.581	107.01
193.8	104.96
194.02	57.86
194.239	20.99
194.458	12.8
194.678	-19.97
194.897	47.62
195.116	25.09
195.335	14.85
195.555	31.23
195.774	86.53
195.993	4.61
196.212	-13.82
196.432	-71.17
196.651	-3.58
196.87	45.57
197.089	70.14
197.308	14.85
197.528	55.81
197.747	-60.93
197.966	59.9
198.185	53.76
198.404	-40.45
198.623	66.05
198.842	49.66
199.062	113.15
199.281	55.81
199.5	53.76
199.719	4.61
199.938	14.85
200.157	74.24
200.376	-48.64
200.595	70.14
200.814	72.19
201.033	64
201.252	41.47
201.471	57.86
201.69	49.66
201.909	104.96
202.128	23.04
202.347	4.61
202.566	90.62
202.785	84.48
203.004	-30.21
203.223	88.57
203.442	-7.68
203.661	-34.3
203.879	82.43
204.098	43.52
204.317	16.9
204.536	84.48
204.755	-9.73
204.974	31.23
205.193	53.76
205.411	72.19
205.63	37.38
205.849	8.7
206.068	12.8
206.287	29.18
206.505	88.57
206.724	-36.35
206.943	0.51
207.162	61.95
207.381	78.33
207.599	20.99
207.818	43.52
208.037	6.66
208.255	20.99
208.474	84.48
208.693	41.47
208.911	49.66
209.13	45.57
209.349	-26.11
209.567	66.05
209.786	64
210.005	84.48
210.223	47.62
210.442	-36.35
210.661	47.62
210.879	37.38
211.098	-11.78
211.316	20.99
211.535	70.14
211.753	4.61
211.972	107.01
212.191	70.14
212.409	137.73
212.628	88.57
212.846	-3.58
213.065	57.86
213.283	121.34
213.502	20.99
213.72	-1.54
213.938	113.15
214.157	33.28
214.375	12.8
214.594	70.14
214.812	74.24
215.031	47.62
215.249	14.85
215.467	14.85
215.686	35.33
215.904	47.62
216.122	102.91
216.341	53.76
216.559	53.76
216.778	39.42
216.996	47.62
217.214	29.18
217.432	0.51
217.651	-36.35
217.869	10.75
218.087	16.9
218.306	41.47
218.524	16.9
218.742	45.57
218.96	4.61
219.179	72.19
219.397	23.04
219.615	61.95
219.833	111.1
220.051	74.24
220.27	25.09
220.488	12.8
220.706	-7.68
220.924	45.57
221.142	14.85
221.36	-19.97
221.578	4.61
221.796	66.05
222.015	37.38
222.233	-24.06
222.451	82.43
222.669	37.38
222.887	45.57
223.105	-15.87
223.323	-24.06
223.541	6.66
223.759	29.18
223.977	18.94
224.195	127.49
224.413	29.18
224.631	-40.45
224.849	70.14
225.067	70.14
225.285	74.24
225.503	-11.78
225.721	29.18
225.939	-11.78
226.157	94.72
226.375	115.2
226.592	29.18
226.81	-19.97
227.028	14.85
227.246	66.05
227.464	20.99
227.682	23.04
227.9	66.05
228.117	94.72
228.335	61.95
228.553	49.66
228.771	47.62
228.989	49.66
229.206	33.28
229.424	47.62
229.642	12.8
229.86	55.81
230.077	90.62
230.295	12.8
230.513	41.47
230.731	82.43
230.948	20.99
231.166	109.05
231.384	53.76
231.601	16.9
231.819	57.86
232.037	4.61
232.254	-50.69
232.472	37.38
232.689	39.42
232.907	4.61
233.125	88.57
233.342	45.57
233.56	23.04
233.777	53.76
233.995	53.76
234.213	127.49
234.43	64
234.648	31.23
234.865	-1.54
235.083	111.1
235.3	37.38
235.518	72.19
235.735	45.57
235.953	84.48
236.17	49.66
236.388	57.86
236.605	-24.06
236.822	47.62
237.04	55.81
237.257	29.18
237.475	45.57
237.692	70.14
237.909	104.96
238.127	-32.26
238.344	35.33
238.562	53.76
238.779	33.28
238.996	-9.73
239.214	-17.92
239.431	53.76
239.648	-42.5
239.865	29.18
240.083	78.33
240.3	25.09
240.517	4.61
240.735	90.62
240.952	66.05
241.169	45.57
241.386	8.7
241.603	27.14
241.821	-30.21
242.038	70.14
242.255	25.09
242.472	74.24
242.689	27.14
242.907	72.19
243.124	-56.83
243.341	-26.11
243.558	-65.02
243.775	8.7
243.992	-52.74
244.209	-17.92
244.426	68.09
244.643	37.38
244.86	-19.97
245.078	55.81
245.295	96.77
245.512	57.86
245.729	-3.58
245.946	47.62
246.163	29.18
246.38	35.33
246.597	-11.78
246.814	-40.45
247.031	33.28
247.248	-3.58
247.464	-15.87
247.681	53.76
247.898	-1.54
248.115	78.33
248.332	70.14
248.549	113.15
248.766	61.95
248.983	23.04
249.2	70.14
249.417	66.05
249.633	25.09
249.85	14.85
250.067	131.58
250.284	6.66
250.501	113.15
250.717	64
250.934	-19.97
251.151	31.23
251.368	53.76
251.585	70.14
251.801	80.38
252.018	39.42
252.235	86.53
252.451	-79.36
252.668	33.28
252.885	31.23
253.102	-9.73
253.318	16.9
253.535	-40.45
253.752	12.8
253.968	-5.63
254.185	70.14
254.401	76.29
254.618	104.96
254.835	51.71
255.051	55.81
255.268	94.72
255.484	78.33
255.701	74.24
255.917	14.85
256.134	66.05
256.351	-15.87
256.567	-9.73
256.784	111.1
257	-58.88
257.217	23.04
257.433	68.09
257.65	12.8
257.866	94.72
258.082	14.85
258.299	45.57
258.515	102.91
258.732	20.99
258.948	45.57
259.165	55.81
259.381	53.76
259.597	45.57
259.814	61.95
260.03	-9.73
260.246	39.42
260.463	113.15
260.679	-26.11
260.895	-9.73
261.112	37.38
261.328	53.76
261.544	-44.54
261.761	94.72
261.977	45.57
262.193	-22.02
262.409	66.05
262.626	53.76
262.842	16.9
263.058	-13.82
263.274	16.9
263.49	98.81
263.707	80.38
263.923	4.61
264.139	23.04
264.355	78.33
264.571	16.9
264.787	53.76
265.004	61.95
265.22	4.61
265.436	-7.68
265.652	-11.78
265.868	55.81
266.084	27.14
266.3	6.66
266.516	45.57
266.732	35.33
266.948	-5.63
267.164	-24.06
267.38	53.76
267.596	104.96
267.812	57.86
268.028	86.53
268.244	94.72
268.46	57.86
268.676	-42.5
268.892	20.99
269.108	39.42
269.324	14.85
269.54	-13.82
269.756	23.04
269.972	-15.87
270.188	23.04
270.403	39.42
270.619	61.95
270.835	53.76
271.051	49.66
271.267	31.23
271.483	23.04
271.698	59.9
271.914	72.19
272.13	23.04
272.346	-13.82
272.562	55.81
272.777	8.7
272.993	29.18
273.209	-3.58
273.425	90.62
273.64	-9.73
273.856	-3.58
274.072	53.76
274.287	-7.68
274.503	57.86
274.719	0.51
274.934	35.33
275.15	-17.92
275.366	104.96
275.581	-11.78
275.797	82.43
276.012	-24.06
276.228	4.61
276.444	45.57
276.659	61.95
276.875	-15.87
277.09	57.86
277.306	41.47
277.521	39.42
277.737	45.57
277.952	61.95
278.168	33.28
278.383	18.94
278.599	14.85
278.814	45.57
279.03	55.81
279.245	121.34
279.461	55.81
279.676	102.91
279.892	20.99
280.107	-42.5
280.322	-24.06
280.538	47.62
280.753	61.95
280.969	119.29
281.184	37.38
281.399	20.99
281.615	-9.73
281.83	45.57
282.045	12.8
282.26	12.8
282.476	-22.02
282.691	20.99
282.906	55.81
283.122	14.85
283.337	37.38
283.552	53.76
283.767	53.76
283.983	88.57
284.198	-9.73
284.413	78.33
284.628	-42.5
284.843	16.9
285.058	145.92
285.274	23.04
285.489	-32.26
285.704	104.96
285.919	-19.97
286.134	20.99
286.349	68.09
286.564	104.96
286.779	86.53
286.995	-1.54
287.21	12.8
287.425	49.66
287.64	-11.78
287.855	37.38
288.07	0.51
288.285	27.14
288.5	37.38
288.715	-9.73
288.93	64
289.145	33.28
289.36	20.99
289.575	70.14
289.79	57.86
290.004	33.28
290.219	37.38
290.434	12.8
290.649	84.48
290.864	12.8
291.079	59.9
291.294	-17.92
291.509	45.57
291.724	-11.78
291.938	94.72
292.153	64
292.368	-11.78
292.583	31.23
292.798	78.33
293.012	92.67
293.227	53.76
293.442	29.18
293.657	78.33
293.871	129.53
294.086	12.8
294.301	131.58
294.516	82.43
294.73	45.57
294.945	-19.97
295.16	4.61
295.374	12.8
295.589	102.91
295.804	47.62
296.018	43.52
296.233	145.92
296.447	64
296.662	53.76
296.877	47.62
297.091	64
297.306	-1.54
297.52	39.42
297.735	51.71
297.949	31.23
298.164	6.66
298.378	-3.58
298.593	59.9
298.807	12.8
299.022	66.05
299.236	49.66
299.451	20.99
299.665	47.62
299.88	80.38
300.094	53.76
300.309	45.57
300.523	94.72
300.737	-26.11
300.952	72.19
301.166	-19.97
301.381	47.62
301.595	37.38
301.809	100.86
302.024	29.18
302.238	20.99
302.452	143.87
302.667	37.38
302.881	14.85
303.095	111.1
303.309	12.8
303.524	57.86
303.738	70.14
303.952	-36.35
304.166	64
304.381	-11.78
304.595	94.72
304.809	78.33
305.023	94.72
305.237	6.66
305.452	74.24
305.666	127.49
305.88	45.57
306.094	0.51
306.308	57.86
306.522	12.8
306.736	27.14
306.95	53.76
307.164	-5.63
307.379	80.38
307.593	49.66
307.807	45.57
308.021	55.81
308.235	-19.97
308.449	-24.06
308.663	-11.78
308.877	113.15
309.091	4.61
309.305	86.53
309.519	-13.82
309.733	45.57
309.947	-28.16
310.161	86.53
310.374	70.14
310.588	94.72
310.802	43.52
311.016	31.23
311.23	23.04
311.444	55.81
311.658	55.81
311.872	47.62
312.085	20.99
312.299	111.1
312.513	70.14
312.727	-7.68
312.941	31.23
313.154	33.28
313.368	16.9
313.582	70.14
313.796	86.53
314.009	80.38
314.223	16.9
314.437	70.14
314.651	55.81
314.864	2.56
315.078	47.62
315.292	47.62
315.505	57.86
315.719	102.91
315.933	98.81
316.146	-11.78
316.36	-32.26
316.573	107.01
316.787	82.43
317.001	70.14
317.214	20.99
317.428	23.04
317.641	-34.3
317.855	25.09
318.068	6.66
318.282	37.38
318.495	37.38
318.709	27.14
318.922	41.47
319.136	86.53
319.349	96.77
319.563	37.38
319.776	51.71
319.99	70.14
320.203	78.33
320.417	96.77
320.63	37.38
320.843	180.73
321.057	55.81
321.27	12.8
321.483	37.38
321.697	23.04
321.91	23.04
322.124	96.77
322.337	127.49
322.55	-15.87
322.763	100.86
322.977	35.33
323.19	-44.54
323.403	18.94
323.617	33.28
323.83	88.57
324.043	4.61
324.256	-34.3
324.469	-54.78
324.683	49.66
324.896	37.38
325.109	90.62
325.322	-5.63
325.535	82.43
325.748	51.71
325.962	49.66
326.175	43.52
326.388	70.14
326.601	86.53
326.814	94.72
327.027	-1.54
327.24	88.57
327.453	12.8
327.666	102.91
327.879	23.04
328.092	45.57
328.305	49.66
328.518	39.42
328.731	70.14
328.944	90.62
329.157	70.14
329.37	68.09
329.583	127.49
329.796	78.33
330.009	68.09
330.222	96.77
330.435	61.95
330.648	98.81
330.861	86.53
331.073	-3.58
331.286	49.66
331.499	37.38
331.712	59.9
331.925	51.71
332.138	104.96
332.35	23.04
332.563	6.66
332.776	127.49
332.989	72.19
333.202	55.81
333.414	74.24
333.627	23.04
333.84	33.28
334.053	45.57
334.265	8.7
334.478	25.09
334.691	33.28
334.903	29.18
335.116	18.94
335.329	57.86
335.541	133.63
335.754	45.57
335.966	23.04
336.179	0.51
336.392	49.66
336.604	18.94
336.817	49.66
337.029	86.53
337.242	55.81
337.454	94.72
337.667	23.04
337.88	4.61
338.092	-36.35
338.305	86.53
338.517	-15.87
338.729	20.99
338.942	-17.92
339.154	47.62
339.367	47.62
339.579	25.09
339.792	61.95
340.004	12.8
340.217	18.94
340.429	37.38
340.641	70.14
340.854	61.95
341.066	76.29
341.278	127.49
341.491	66.05
341.703	20.99
341.915	41.47
342.128	70.14
342.34	-44.54
342.552	102.91
342.764	78.33
342.977	74.24
343.189	90.62
343.401	4.61
343.613	-9.73
343.826	66.05
344.038	-34.3
344.25	-3.58
344.462	70.14
344.674	2.56
344.886	-15.87
345.099	68.09
345.311	35.33
345.523	4.61
345.735	8.7
345.947	66.05
346.159	45.57
346.371	82.43
346.583	-1.54
346.795	119.29
347.007	94.72
347.219	68.09
347.431	72.19
347.643	45.57
347.855	-81.41
348.067	55.81
348.279	16.9
348.491	47.62
348.703	94.72
348.915	53.76
349.127	8.7
349.339	70.14
349.551	29.18
349.763	90.62
349.975	-15.87
350.187	25.09
350.399	41.47
350.61	55.81
350.822	-44.54
351.034	45.57
351.246	12.8
351.458	33.28
351.669	137.73
351.881	96.77
352.093	70.14
352.305	121.34
352.517	27.14
352.728	14.85
352.94	-60.93
353.152	25.09
353.363	-3.58
353.575	2.56
353.787	78.33
353.999	61.95
354.21	14.85
354.422	25.09
354.633	45.57
354.845	23.04
355.057	-17.92
355.268	115.2
355.48	66.05
355.692	45.57
355.903	94.72
356.115	39.42
356.326	-11.78
356.538	123.39
356.749	35.33
356.961	98.81
357.172	33.28
357.384	20.99
357.595	80.38
357.807	-28.16
358.018	23.04
358.23	45.57
358.441	82.43
358.653	64
358.864	80.38
359.075	78.33
359.287	59.9
359.498	33.28
359.709	8.7
359.921	51.71
360.132	12.8
360.344	39.42
360.555	37.38
360.766	39.42
360.977	39.42
361.189	74.24
361.4	8.7
361.611	29.18
361.823	74.24
362.034	72.19
362.245	49.66
362.456	51.71
362.667	12.8
362.879	61.95
363.09	135.68
363.301	102.91
363.512	102.91
363.723	115.2
363.935	14.85
364.146	86.53
364.357	70.14
364.568	61.95
364.779	16.9
364.99	64
365.201	47.62
365.412	61.95
365.623	-11.78
365.834	78.33
366.045	72.19
366.256	61.95
366.467	41.47
366.678	76.29
366.889	72.19
367.1	-34.3
367.311	94.72
367.522	39.42
367.733	31.23
367.944	57.86
368.155	-9.73
368.366	47.62
368.577	29.18
368.788	78.33
368.999	49.66
369.209	29.18
369.42	33.28
369.631	94.72
369.842	23.04
370.053	61.95
370.264	88.57
370.474	-36.35
370.685	82.43
370.896	72.19
371.107	39.42
371.317	125.44
371.528	29.18
371.739	29.18
371.95	49.66
372.16	6.66
372.371	29.18
372.582	66.05
372.792	88.57
373.003	59.9
373.214	90.62
373.424	119.29
373.635	35.33
373.846	57.86
374.056	-3.58
374.267	94.72
374.477	33.28
374.688	23.04
374.898	29.18
375.109	37.38
375.319	104.96
375.53	102.91
375.74	37.38
375.951	-11.78
376.161	37.38
376.372	86.53
376.582	47.62
376.793	86.53
377.003	23.04
377.214	8.7
377.424	12.8
377.635	78.33
377.845	35.33
378.055	72.19
378.266	4.61
378.476	96.77
378.686	61.95
378.897	29.18
379.107	133.63
379.317	115.2
379.528	-32.26
379.738	111.1
379.948	49.66
380.158	117.25
380.369	55.81
380.579	55.81
380.789	41.47
380.999	53.76
381.21	86.53
381.42	37.38
381.63	10.75
381.84	143.87
382.05	37.38
382.261	102.91
382.471	94.72
382.681	47.62
382.891	94.72
383.101	41.47
383.311	23.04
383.521	55.81
383.731	76.29
383.941	37.38
384.151	47.62
384.361	6.66
384.571	27.14
384.781	29.18
384.991	107.01
385.201	98.81
385.411	107.01
385.621	64
385.831	84.48
386.041	135.68
386.251	90.62
386.461	74.24
386.671	88.57
386.881	31.23
387.091	53.76
387.301	29.18
387.511	88.57
387.72	86.53
387.93	94.72
388.14	-50.69
388.35	72.19
388.56	100.86
388.769	127.49
388.979	45.57
389.189	-36.35
389.399	88.57
389.609	-1.54
389.818	111.1
390.028	-11.78
390.238	55.81
390.447	14.85
390.657	39.42
390.867	18.94
391.076	66.05
391.286	20.99
391.496	39.42
391.705	41.47
391.915	102.91
392.125	94.72
392.334	160.25
392.544	156.16
392.753	94.72
392.963	20.99
393.172	94.72
393.382	84.48
393.591	141.82
393.801	123.39
394.01	55.81
394.22	64
394.429	61.95
394.639	0.51
394.848	111.1
395.058	92.67
395.267	47.62
395.477	84.48
395.686	109.05
395.895	129.53
396.105	217.6
396.314	111.1
396.524	59.9
396.733	88.57
396.942	72.19
397.152	129.53
397.361	53.76
397.57	129.53
397.78	107.01
397.989	143.87
398.198	123.39
398.407	160.25
398.617	74.24
398.826	119.29
399.035	102.91
399.244	53.76
399.453	121.34
399.663	88.57
399.872	145.92
400.081	117.25
400.29	162.3
400.499	113.15
400.708	76.29
400.917	80.38
401.127	78.33
401.336	154.11
401.545	180.73
401.754	145.92
401.963	219.64
402.172	90.62
402.381	72.19
402.59	111.1
402.799	100.86
403.008	119.29
403.217	133.63
403.426	178.69
403.635	43.52
403.844	217.6
404.053	115.2
404.262	127.49
404.471	143.87
404.68	168.45
404.888	113.15
405.097	111.1
405.306	176.64
405.515	139.77
405.724	86.53
405.933	158.21
406.142	119.29
406.35	197.12
406.559	193.02
406.768	102.91
406.977	252.41
407.185	152.06
407.394	203.26
407.603	174.59
407.812	252.41
408.02	207.36
408.229	219.64
408.438	158.21
408.646	205.31
408.855	307.71
409.064	250.36
409.272	276.99
409.481	334.33
409.69	283.13
409.898	262.65
410.107	330.23
410.315	293.37
410.524	332.28
410.733	307.71
410.941	348.67
411.15	471.54
411.358	348.67
411.567	414.2
411.775	406.01
411.984	438.78
412.192	432.63
412.401	465.4
412.609	459.26
412.818	504.31
413.026	479.74
413.234	545.27
413.443	434.68
413.651	590.33
413.86	584.18
414.068	520.7
414.276	602.61
414.485	635.38
414.693	668.15
414.901	659.96
415.11	647.67
415.318	735.73
415.526	795.12
415.734	721.4
415.943	793.08
416.151	766.45
416.359	807.41
416.567	874.99
416.776	836.08
416.984	956.91
417.192	987.63
417.4	909.81
417.608	938.48
417.817	1006.06
418.025	1049.07
418.233	1176.05
418.441	1159.66
418.649	1190.38
418.857	1331.69
419.065	1225.2
419.273	1192.43
419.481	1315.31
419.689	1481.19
419.897	1384.94
420.105	1444.33
420.313	1487.34
420.521	1610.22
420.729	1577.45
420.937	1647.08
421.145	1788.39
421.353	1839.59
421.561	1905.12
421.769	1860.07
421.977	2015.71
422.185	2068.96
422.393	2130.4
422.601	2367.96
422.809	2212.32
423.017	2240.99
423.224	2417.12
423.432	2370.01
423.64	2513.37
423.848	2695.64
424.056	2609.62
424.263	2847.19
424.471	2867.67
424.679	2892.24
424.887	3088.85
425.094	3176.91
425.302	3209.68
425.51	3201.49
425.718	3439.05
425.925	3338.7
426.133	3520.97
426.341	3781.06
426.548	3764.68
426.756	3940.8
426.964	3854.79
427.171	4102.59
427.379	4286.91
427.586	4241.86
427.794	4477.37
428.001	4534.71
428.209	4903.35
428.417	4602.3
428.624	5026.23
428.832	4889.01
429.039	5005.75
429.247	5124.53
429.454	5470.64
429.662	5937.57
429.869	5550.51
430.076	5894.57
430.284	5603.75
430.491	5849.51
430.699	6353.31
430.906	6400.41
431.114	6422.94
431.321	6730.14
431.528	6762.9
431.736	7197.07
431.943	7356.82
432.15	7303.57
432.358	7393.68
432.565	7733.64
432.772	7778.7
432.979	8135.04
433.187	8188.29
433.394	8200.58
433.601	8972.66
433.808	8817.02
434.016	8796.54
434.223	9105.78
434.43	9720.17
434.637	9394.54
434.844	10047.85
435.052	10293.6
435.259	10150.25
435.466	10393.95
435.673	10352.99
435.88	10877.27
436.087	11456.85
436.294	11573.58
436.501	11307.35
436.708	11694.41
436.915	11956.55
437.122	12464.45
437.329	12480.83
437.537	12736.83
437.743	12878.14
437.95	12919.1
438.157	13519.15
438.364	13848.88
438.571	13850.92
438.778	13947.18
438.985	15626.51
439.192	14866.72
439.399	14897.44
439.606	14788.89
439.813	15657.23
440.02	16535.81
440.227	16224.52
440.433	16038.16
440.64	16773.38
440.847	16337.16
441.054	16875.77
441.261	17914.09
441.467	17905.9
441.674	18133.23
441.881	18796.77
442.088	18700.51
442.294	18460.9
442.501	19103.96
442.708	19456.22
442.914	20447.43
443.121	21049.53
443.328	20361.42
443.534	21745.84
443.741	21190.84
443.948	21039.29
444.154	22413.48
444.361	22599.85
444.568	22640.81
444.774	22411.43
444.981	22847.65
445.187	23666.84
445.394	24641.67
445.6	24348.81
445.807	26335.34
446.013	25348.22
446.22	25956.47
446.426	27109.47
446.633	27058.28
446.839	28002.39
447.046	27091.04
447.252	28387.41
447.459	28553.29
447.665	28117.07
447.871	29470.78
448.078	30703.66
448.284	29235.27
448.491	30064.69
448.697	31160.36
448.903	32030.74
449.11	32088.09
449.316	31475.74
449.522	31985.69
449.728	32823.31
449.935	33148.93
450.141	33112.07
450.347	34033.66
450.553	32958.47
450.76	33280
450.966	34326.52
451.172	33908.73
451.378	34652.14
451.584	34185.21
451.791	35141.61
451.997	34856.94
452.203	35643.36
452.409	35598.3
452.615	35379.17
452.821	33726.46
453.027	33523.71
453.233	36038.62
453.44	34488.31
453.646	34584.56
453.852	34691.05
454.058	35383.27
454.264	34084.86
454.47	35239.91
454.676	34334.71
454.882	35465.19
455.088	32649.23
455.294	33234.95
455.5	33237
455.705	33380.35
455.911	32434.19
456.117	31600.67
456.323	31246.37
456.529	29829.18
456.735	31307.81
456.941	30685.23
457.147	30048.31
457.352	28966.98
457.558	28545.1
457.764	28489.81
457.97	28160.08
458.176	27670.62
458.381	27940.95
458.587	26359.92
458.793	26208.37
458.999	25108.61
459.204	26898.53
459.41	25745.53
459.616	24203.41
459.821	24066.19
460.027	24158.35
460.233	23689.37
460.438	22866.08
460.644	23054.5
460.85	21631.16
461.055	21512.38
461.261	21289.15
461.466	19898.58
461.672	19202.27
461.878	20760.77
462.083	19476.69
462.289	19134.68
462.494	18579.68
462.7	17682.67
462.905	17643.76
463.111	18184.43
463.316	17793.26
463.522	17641.71
463.727	17817.84
463.932	17676.53
464.138	17537.27
464.343	17715.44
464.549	17207.55
464.754	17637.62
464.959	17332.47
465.165	17445.11
465.37	16558.34
465.575	16228.62
465.781	16660.74
465.986	16754.94
466.191	16079.11
466.397	16064.78
466.602	14979.36
466.807	15614.23
467.012	15814.93
467.218	15606.03
467.423	15202.58
