Data from USB4F104151__59__14-43-13-399.txt Node

Date: Thu Mar 13 14:43:13 EDT 2025
User: louis
Spectrometer: USB4F10415
Trigger mode: 4
Integration Time (sec): 2.000000E-2
Scans to average: 1
Electric dark correction enabled: true
Nonlinearity correction enabled: false
Boxcar width: 0
XAxis mode: Wavelengths
Number of Pixels in Spectrum: 3648
>>>>>Begin Spectral Data<<<<<
178.204	-99.33
178.424	-99.33
178.644	-99.33
178.864	-95.23
179.084	-125.95
179.304	-13.31
179.524	-9.22
179.744	3.07
179.964	78.85
180.184	41.98
180.404	62.46
180.624	-50.18
180.844	-78.85
181.064	-9.22
181.283	23.55
181.503	-76.8
181.723	27.65
181.943	70.65
182.163	-7.17
182.383	1.02
182.602	37.89
182.822	72.7
183.042	21.5
183.262	7.17
183.482	7.17
183.701	35.84
183.921	25.6
184.141	-3.07
184.361	52.22
184.58	76.8
184.8	15.36
185.02	3.07
185.239	21.5
185.459	117.76
185.679	117.76
185.898	35.84
186.118	78.85
186.338	19.46
186.557	70.65
186.777	13.31
186.997	37.89
187.216	-11.26
187.436	162.81
187.655	117.76
187.875	97.28
188.095	-13.31
188.314	-13.31
188.534	58.37
188.753	101.37
188.973	76.8
189.192	-11.26
189.412	72.7
189.631	97.28
189.851	37.89
190.07	29.7
190.29	76.8
190.509	35.84
190.729	35.84
190.948	91.13
191.168	113.66
191.387	60.42
191.607	11.26
191.826	46.08
192.045	37.89
192.265	15.36
192.484	29.7
192.704	-29.7
192.923	1.02
193.142	113.66
193.362	84.99
193.581	125.95
193.8	52.22
194.02	37.89
194.239	37.89
194.458	97.28
194.678	54.27
194.897	-9.22
195.116	29.7
195.335	21.5
195.555	29.7
195.774	-5.12
195.993	23.55
196.212	52.22
196.432	15.36
196.651	54.27
196.87	33.79
197.089	62.46
197.308	52.22
197.528	91.13
197.747	68.61
197.966	78.85
198.185	148.48
198.404	74.75
198.623	101.37
198.842	134.14
199.062	117.76
199.281	48.13
199.5	119.81
199.719	-31.74
199.938	82.94
200.157	97.28
200.376	-29.7
200.595	46.08
200.814	35.84
201.033	54.27
201.252	25.6
201.471	76.8
201.69	52.22
201.909	37.89
202.128	84.99
202.347	19.46
202.566	121.85
202.785	48.13
203.004	13.31
203.223	84.99
203.442	54.27
203.661	109.57
203.879	68.61
204.098	60.42
204.317	19.46
204.536	97.28
204.755	19.46
204.974	60.42
205.193	19.46
205.411	76.8
205.63	80.89
205.849	97.28
206.068	23.55
206.287	37.89
206.505	68.61
206.724	48.13
206.943	-17.41
207.162	-54.27
207.381	11.26
207.599	93.18
207.818	39.94
208.037	74.75
208.255	54.27
208.474	89.09
208.693	70.65
208.911	76.8
209.13	70.65
209.349	109.57
209.567	50.18
209.786	62.46
210.005	37.89
210.223	37.89
210.442	7.17
210.661	27.65
210.879	19.46
211.098	3.07
211.316	31.74
211.535	68.61
211.753	13.31
211.972	95.23
212.191	60.42
212.409	111.61
212.628	-13.31
212.846	29.7
213.065	54.27
213.283	89.09
213.502	-41.98
213.72	-35.84
213.938	72.7
214.157	35.84
214.375	68.61
214.594	-41.98
214.812	62.46
215.031	44.03
215.249	119.81
215.467	52.22
215.686	54.27
215.904	-19.46
216.122	-7.17
216.341	76.8
216.559	109.57
216.778	5.12
216.996	76.8
217.214	103.42
217.432	64.51
217.651	5.12
217.869	60.42
218.087	58.37
218.306	31.74
218.524	76.8
218.742	-35.84
218.96	87.04
219.179	17.41
219.397	56.32
219.615	115.71
219.833	76.8
220.051	70.65
220.27	82.94
220.488	-25.6
220.706	80.89
220.924	76.8
221.142	27.65
221.36	21.5
221.578	105.47
221.796	60.42
222.015	52.22
222.233	21.5
222.451	95.23
222.669	54.27
222.887	19.46
223.105	52.22
223.323	130.05
223.541	56.32
223.759	105.47
223.977	7.17
224.195	136.19
224.413	39.94
224.631	93.18
224.849	29.7
225.067	95.23
225.285	56.32
225.503	52.22
225.721	62.46
225.939	168.96
226.157	15.36
226.375	134.14
226.592	-52.22
226.81	76.8
227.028	91.13
227.246	70.65
227.464	23.55
227.682	99.33
227.9	31.74
228.117	54.27
228.335	-41.98
228.553	-44.03
228.771	60.42
228.989	68.61
229.206	56.32
229.424	46.08
229.642	37.89
229.86	33.79
230.077	-29.7
230.295	31.74
230.513	82.94
230.731	-44.03
230.948	105.47
231.166	152.57
231.384	19.46
231.601	58.37
231.819	84.99
232.037	5.12
232.254	35.84
232.472	68.61
232.689	11.26
232.907	154.62
233.125	60.42
233.342	82.94
233.56	11.26
233.777	-7.17
233.995	62.46
234.213	29.7
234.43	33.79
234.648	-25.6
234.865	-21.5
235.083	144.38
235.3	35.84
235.518	64.51
235.735	60.42
235.953	3.07
236.17	84.99
236.388	19.46
236.605	7.17
236.822	82.94
237.04	23.55
237.257	33.79
237.475	44.03
237.692	158.72
237.909	33.79
238.127	35.84
238.344	35.84
238.562	46.08
238.779	35.84
238.996	27.65
239.214	62.46
239.431	84.99
239.648	19.46
239.865	150.53
240.083	76.8
240.3	84.99
240.517	31.74
240.735	78.85
240.952	125.95
241.169	52.22
241.386	11.26
241.603	166.91
241.821	97.28
242.038	48.13
242.255	78.85
242.472	37.89
242.689	134.14
242.907	39.94
243.124	89.09
243.341	101.37
243.558	3.07
243.775	46.08
243.992	-91.13
244.209	39.94
244.426	121.85
244.643	160.77
244.86	-37.89
245.078	60.42
245.295	76.8
245.512	19.46
245.729	60.42
245.946	44.03
246.163	-31.74
246.38	136.19
246.597	-1.02
246.814	37.89
247.031	-48.13
247.248	56.32
247.464	31.74
247.681	80.89
247.898	-1.02
248.115	76.8
248.332	-33.79
248.549	101.37
248.766	54.27
248.983	29.7
249.2	84.99
249.417	68.61
249.633	84.99
249.85	29.7
250.067	-11.26
250.284	3.07
250.501	7.17
250.717	76.8
250.934	-17.41
251.151	13.31
251.368	62.46
251.585	56.32
251.801	84.99
252.018	19.46
252.235	113.66
252.451	-5.12
252.668	-29.7
252.885	68.61
253.102	37.89
253.318	68.61
253.535	-46.08
253.752	44.03
253.968	41.98
254.185	-11.26
254.401	33.79
254.618	84.99
254.835	76.8
255.051	101.37
255.268	76.8
255.484	154.62
255.701	15.36
255.917	125.95
256.134	80.89
256.351	31.74
256.567	58.37
256.784	46.08
257	-50.18
257.217	68.61
257.433	31.74
257.65	58.37
257.866	76.8
258.082	52.22
258.299	21.5
258.515	54.27
258.732	56.32
258.948	35.84
259.165	72.7
259.381	56.32
259.597	54.27
259.814	11.26
260.03	72.7
260.246	15.36
260.463	48.13
260.679	84.99
260.895	72.7
261.112	52.22
261.328	-21.5
261.544	48.13
261.761	111.61
261.977	27.65
262.193	33.79
262.409	3.07
262.626	-11.26
262.842	66.56
263.058	82.94
263.274	33.79
263.49	74.75
263.707	93.18
263.923	21.5
264.139	-37.89
264.355	-7.17
264.571	105.47
264.787	46.08
265.004	44.03
265.22	64.51
265.436	29.7
265.652	-27.65
265.868	84.99
266.084	15.36
266.3	101.37
266.516	21.5
266.732	-7.17
266.948	82.94
267.164	25.6
267.38	103.42
267.596	78.85
267.812	76.8
268.028	11.26
268.244	-50.18
268.46	121.85
268.676	39.94
268.892	21.5
269.108	7.17
269.324	29.7
269.54	-37.89
269.756	111.61
269.972	70.65
270.188	33.79
270.403	97.28
270.619	35.84
270.835	74.75
271.051	23.55
271.267	72.7
271.483	-11.26
271.698	113.66
271.914	95.23
272.13	80.89
272.346	93.18
272.562	56.32
272.777	70.65
272.993	111.61
273.209	5.12
273.425	44.03
273.64	-5.12
273.856	78.85
274.072	29.7
274.287	21.5
274.503	68.61
274.719	41.98
274.934	93.18
275.15	15.36
275.366	27.65
275.581	74.75
275.797	66.56
276.012	68.61
276.228	17.41
276.444	87.04
276.659	101.37
276.875	11.26
277.09	-19.46
277.306	19.46
277.521	74.75
277.737	35.84
277.952	95.23
278.168	123.9
278.383	52.22
278.599	70.65
278.814	72.7
279.03	9.22
279.245	87.04
279.461	3.07
279.676	93.18
279.892	52.22
280.107	52.22
280.322	29.7
280.538	52.22
280.753	35.84
280.969	74.75
281.184	-62.46
281.399	27.65
281.615	68.61
281.83	52.22
282.045	82.94
282.26	15.36
282.476	56.32
282.691	97.28
282.906	15.36
283.122	72.7
283.337	44.03
283.552	5.12
283.767	84.99
283.983	66.56
284.198	58.37
284.413	84.99
284.628	-1.02
284.843	93.18
285.058	5.12
285.274	46.08
285.489	19.46
285.704	50.18
285.919	37.89
286.134	60.42
286.349	97.28
286.564	50.18
286.779	109.57
286.995	5.12
287.21	66.56
287.425	60.42
287.64	21.5
287.855	-13.31
288.07	46.08
288.285	54.27
288.5	142.33
288.715	80.89
288.93	84.99
289.145	-5.12
289.36	84.99
289.575	82.94
289.79	7.17
290.004	46.08
290.219	50.18
290.434	5.12
290.649	87.04
290.864	17.41
291.079	37.89
291.294	93.18
291.509	89.09
291.724	52.22
291.938	48.13
292.153	109.57
292.368	64.51
292.583	13.31
292.798	66.56
293.012	52.22
293.227	68.61
293.442	50.18
293.657	84.99
293.871	21.5
294.086	130.05
294.301	97.28
294.516	103.42
294.73	60.42
294.945	15.36
295.16	27.65
295.374	76.8
295.589	84.99
295.804	97.28
296.018	37.89
296.233	52.22
296.447	44.03
296.662	44.03
296.877	29.7
297.091	76.8
297.306	27.65
297.52	50.18
297.735	60.42
297.949	87.04
298.164	56.32
298.378	44.03
298.593	-60.42
298.807	-39.94
299.022	17.41
299.236	115.71
299.451	58.37
299.665	56.32
299.88	70.65
300.094	37.89
300.309	87.04
300.523	7.17
300.737	39.94
300.952	60.42
301.166	78.85
301.381	97.28
301.595	87.04
301.809	56.32
302.024	60.42
302.238	44.03
302.452	89.09
302.667	60.42
302.881	5.12
303.095	84.99
303.309	23.55
303.524	76.8
303.738	64.51
303.952	39.94
304.166	87.04
304.381	23.55
304.595	101.37
304.809	35.84
305.023	130.05
305.237	-1.02
305.452	-9.22
305.666	44.03
305.88	76.8
306.094	99.33
306.308	78.85
306.522	41.98
306.736	87.04
306.95	56.32
307.164	52.22
307.379	33.79
307.593	76.8
307.807	158.72
308.021	52.22
308.235	68.61
308.449	17.41
308.663	80.89
308.877	93.18
309.091	74.75
309.305	109.57
309.519	-33.79
309.733	97.28
309.947	41.98
310.161	37.89
310.374	80.89
310.588	121.85
310.802	64.51
311.016	72.7
311.23	21.5
311.444	-3.07
311.658	54.27
311.872	72.7
312.085	-13.31
312.299	80.89
312.513	95.23
312.727	44.03
312.941	5.12
313.154	84.99
313.368	48.13
313.582	29.7
313.796	35.84
314.009	35.84
314.223	44.03
314.437	95.23
314.651	68.61
314.864	64.51
315.078	21.5
315.292	76.8
315.505	52.22
315.719	44.03
315.933	154.62
316.146	-5.12
316.36	-50.18
316.573	78.85
316.787	78.85
317.001	74.75
317.214	15.36
317.428	97.28
317.641	64.51
317.855	68.61
318.068	7.17
318.282	11.26
318.495	52.22
318.709	56.32
318.922	150.53
319.136	68.61
319.349	66.56
319.563	-46.08
319.776	25.6
319.99	48.13
320.203	46.08
320.417	97.28
320.63	44.03
320.843	74.75
321.057	39.94
321.27	52.22
321.483	17.41
321.697	136.19
321.91	62.46
322.124	115.71
322.337	60.42
322.55	78.85
322.763	11.26
322.977	33.79
323.19	7.17
323.403	68.61
323.617	19.46
323.83	3.07
324.043	23.55
324.256	134.14
324.469	19.46
324.683	121.85
324.896	93.18
325.109	35.84
325.322	21.5
325.535	89.09
325.748	29.7
325.962	27.65
326.175	3.07
326.388	60.42
326.601	82.94
326.814	44.03
327.027	35.84
327.24	89.09
327.453	5.12
327.666	70.65
327.879	109.57
328.092	87.04
328.305	31.74
328.518	31.74
328.731	76.8
328.944	-17.41
329.157	78.85
329.37	37.89
329.583	109.57
329.796	109.57
330.009	5.12
330.222	-29.7
330.435	107.52
330.648	56.32
330.861	29.7
331.073	62.46
331.286	111.61
331.499	39.94
331.712	78.85
331.925	-13.31
332.138	44.03
332.35	66.56
332.563	27.65
332.776	23.55
332.989	48.13
333.202	103.42
333.414	78.85
333.627	31.74
333.84	60.42
334.053	60.42
334.265	3.07
334.478	62.46
334.691	134.14
334.903	52.22
335.116	76.8
335.329	82.94
335.541	99.33
335.754	130.05
335.966	91.13
336.179	72.7
336.392	93.18
336.604	31.74
336.817	3.07
337.029	54.27
337.242	87.04
337.454	136.19
337.667	35.84
337.88	101.37
338.092	52.22
338.305	105.47
338.517	50.18
338.729	13.31
338.942	82.94
339.154	-5.12
339.367	97.28
339.579	60.42
339.792	19.46
340.004	60.42
340.217	56.32
340.429	15.36
340.641	103.42
340.854	33.79
341.066	19.46
341.278	113.66
341.491	109.57
341.703	-21.5
341.915	29.7
342.128	54.27
342.34	25.6
342.552	68.61
342.764	46.08
342.977	35.84
343.189	21.5
343.401	-5.12
343.613	52.22
343.826	21.5
344.038	29.7
344.25	52.22
344.462	19.46
344.674	82.94
344.886	-13.31
345.099	93.18
345.311	52.22
345.523	48.13
345.735	-17.41
345.947	35.84
346.159	-68.61
346.371	68.61
346.583	109.57
346.795	99.33
347.007	119.81
347.219	134.14
347.431	-7.17
347.643	119.81
347.855	-56.32
348.067	134.14
348.279	-7.17
348.491	60.42
348.703	19.46
348.915	35.84
349.127	48.13
349.339	44.03
349.551	64.51
349.763	46.08
349.975	-9.22
350.187	64.51
350.399	84.99
350.61	99.33
350.822	76.8
351.034	84.99
351.246	103.42
351.458	37.89
351.669	62.46
351.881	117.76
352.093	119.81
352.305	60.42
352.517	44.03
352.728	95.23
352.94	95.23
353.152	52.22
353.363	25.6
353.575	162.81
353.787	101.37
353.999	101.37
354.21	123.9
354.422	46.08
354.633	72.7
354.845	62.46
355.057	23.55
355.268	52.22
355.48	84.99
355.692	27.65
355.903	52.22
356.115	121.85
356.326	52.22
356.538	48.13
356.749	125.95
356.961	109.57
357.172	62.46
357.384	25.6
357.595	115.71
357.807	9.22
358.018	107.52
358.23	44.03
358.441	95.23
358.653	46.08
358.864	27.65
359.075	44.03
359.287	128
359.498	179.2
359.709	31.74
359.921	44.03
360.132	46.08
360.344	-13.31
360.555	25.6
360.766	21.5
360.977	76.8
361.189	134.14
361.4	27.65
361.611	89.09
361.823	84.99
362.034	39.94
362.245	-9.22
362.456	66.56
362.667	80.89
362.879	33.79
363.09	109.57
363.301	41.98
363.512	35.84
363.723	15.36
363.935	25.6
364.146	60.42
364.357	46.08
364.568	72.7
364.779	-3.07
364.99	54.27
365.201	101.37
365.412	31.74
365.623	72.7
365.834	89.09
366.045	74.75
366.256	123.9
366.467	37.89
366.678	80.89
366.889	19.46
367.1	62.46
367.311	132.09
367.522	89.09
367.733	46.08
367.944	103.42
368.155	52.22
368.366	103.42
368.577	76.8
368.788	93.18
368.999	56.32
369.209	60.42
369.42	142.33
369.631	87.04
369.842	76.8
370.053	-60.42
370.264	134.14
370.474	54.27
370.685	48.13
370.896	54.27
371.107	76.8
371.317	101.37
371.528	11.26
371.739	87.04
371.95	68.61
372.16	89.09
372.371	95.23
372.582	50.18
372.792	179.2
373.003	150.53
373.214	93.18
373.424	72.7
373.635	60.42
373.846	-5.12
374.056	-9.22
374.267	93.18
374.477	101.37
374.688	17.41
374.898	27.65
375.109	68.61
375.319	44.03
375.53	60.42
375.74	138.24
375.951	58.37
376.161	35.84
376.372	138.24
376.582	-1.02
376.793	76.8
377.003	27.65
377.214	125.95
377.424	64.51
377.635	76.8
377.845	68.61
378.055	56.32
378.266	48.13
378.476	113.66
378.686	91.13
378.897	74.75
379.107	82.94
379.317	119.81
379.528	111.61
379.738	19.46
379.948	19.46
380.158	68.61
380.369	54.27
380.579	80.89
380.789	1.02
380.999	84.99
381.21	97.28
381.42	158.72
381.63	52.22
381.84	76.8
382.05	84.99
382.261	48.13
382.471	56.32
382.681	33.79
382.891	64.51
383.101	-19.46
383.311	93.18
383.521	158.72
383.731	109.57
383.941	80.89
384.151	70.65
384.361	109.57
384.571	5.12
384.781	72.7
384.991	76.8
385.201	95.23
385.411	93.18
385.621	89.09
385.831	70.65
386.041	101.37
386.251	5.12
386.461	93.18
386.671	60.42
386.881	25.6
387.091	11.26
387.301	123.9
387.511	48.13
387.72	60.42
387.93	89.09
388.14	15.36
388.35	68.61
388.56	76.8
388.769	84.99
388.979	89.09
389.189	46.08
389.399	46.08
389.609	123.9
389.818	142.33
390.028	62.46
390.238	113.66
390.447	31.74
390.657	89.09
390.867	56.32
391.076	48.13
391.286	54.27
391.496	70.65
391.705	35.84
391.915	87.04
392.125	107.52
392.334	97.28
392.544	134.14
392.753	44.03
392.963	93.18
393.172	111.61
393.382	54.27
393.591	158.72
393.801	13.31
394.01	128
394.22	70.65
394.429	46.08
394.639	64.51
394.848	27.65
395.058	52.22
395.267	111.61
395.477	66.56
395.686	95.23
395.895	144.38
396.105	148.48
396.314	31.74
396.524	68.61
396.733	68.61
396.942	89.09
397.152	160.77
397.361	101.37
397.57	76.8
397.78	125.95
397.989	87.04
398.198	142.33
398.407	103.42
398.617	97.28
398.826	105.47
399.035	76.8
399.244	117.76
399.453	175.1
399.663	181.25
399.872	134.14
400.081	93.18
400.29	171.01
400.499	64.51
400.708	93.18
400.917	121.85
401.127	160.77
401.336	80.89
401.545	140.29
401.754	93.18
401.963	117.76
402.172	109.57
402.381	103.42
402.59	105.47
402.799	152.57
403.008	105.47
403.217	152.57
403.426	158.72
403.635	128
403.844	152.57
404.053	119.81
404.262	70.65
404.471	232.44
404.68	150.53
404.888	160.77
405.097	125.95
405.306	99.33
405.515	158.72
405.724	207.87
405.933	148.48
406.142	132.09
406.35	93.18
406.559	142.33
406.768	183.29
406.977	181.25
407.185	207.87
407.394	289.79
407.603	154.62
407.812	224.25
408.02	275.45
408.229	193.53
408.438	230.4
408.646	173.05
408.855	324.6
409.064	252.92
409.272	216.06
409.481	248.83
409.69	291.84
409.898	179.2
410.107	228.35
410.315	275.45
410.524	291.84
410.733	293.88
410.941	324.6
411.15	254.97
411.358	322.56
411.567	361.47
411.775	343.03
411.984	398.33
412.192	361.47
412.401	414.71
412.609	455.67
412.818	394.23
413.026	357.37
413.234	371.71
413.443	388.09
413.651	457.72
413.86	523.26
414.068	625.65
414.276	543.74
414.485	424.95
414.693	519.16
414.901	617.46
415.11	574.46
415.318	676.85
415.526	609.27
415.734	664.57
415.943	617.46
416.151	676.85
416.359	670.71
416.567	771.06
416.776	738.29
416.984	816.12
417.192	744.44
417.4	861.17
417.608	830.45
417.817	846.84
418.025	838.64
418.233	992.24
418.441	879.6
418.649	961.52
418.857	1162.22
419.065	1010.67
419.273	986.1
419.481	1076.21
419.689	1174.51
419.897	1256.43
420.105	1250.28
420.313	1387.5
420.521	1356.78
420.729	1399.79
420.937	1399.79
421.145	1373.16
421.353	1498.09
421.561	1604.58
421.769	1661.93
421.977	1639.4
422.185	1706.98
422.393	1741.8
422.601	1807.33
422.809	1823.72
423.017	1987.55
423.224	1989.6
423.432	2122.72
423.64	2110.43
423.848	2255.84
424.056	2124.77
424.263	2282.46
424.471	2364.38
424.679	2411.48
424.887	2444.25
425.094	2546.65
425.302	2618.33
425.51	2663.38
425.718	2763.73
425.925	2708.44
426.133	2909.14
426.341	3054.55
426.548	3068.88
426.756	3165.14
426.964	3107.79
427.171	3488.71
427.379	3517.39
427.586	3576.78
427.794	3648.46
428.001	3820.49
428.209	4017.09
428.417	3924.93
428.624	4180.93
428.832	4228.03
429.039	4213.7
429.247	4144.06
429.454	4481.98
429.662	4871.09
429.869	4582.33
430.076	4924.34
430.284	4795.32
430.491	4991.92
430.699	5262.26
430.906	5249.97
431.114	5159.86
431.321	5467.05
431.528	5573.55
431.736	5970.85
431.943	6175.65
432.15	6052.77
432.358	6050.72
432.565	6394.78
432.772	6409.12
432.979	6761.37
433.187	6712.22
433.394	6951.83
433.601	7332.75
433.808	7265.17
434.016	7334.8
434.223	7764.87
434.43	8080.26
434.637	7877.51
434.844	8358.78
435.052	8545.15
435.259	8559.49
435.466	8551.29
435.673	8520.57
435.88	9173.88
436.087	9681.77
436.294	9503.6
436.501	9370.48
436.708	9562.99
436.915	9710.44
437.122	10271.59
437.329	10310.5
437.537	10681.18
437.743	10537.82
437.95	10584.93
438.157	11168.6
438.364	11453.27
438.571	11440.98
438.778	11361.11
438.985	12602.18
439.192	12079.94
439.399	12587.84
439.606	12106.57
439.813	13202.23
440.02	13691.7
440.227	13540.15
440.433	13042.49
440.64	13826.86
440.847	13570.86
441.054	14148.39
441.261	14863.13
441.467	14916.38
441.674	15041.31
441.881	15592.21
442.088	15473.43
442.294	15469.33
442.501	15809.29
442.708	16165.64
442.914	16728.83
443.121	17535.73
443.328	16849.66
443.534	18049.77
443.741	17541.88
443.948	17345.27
444.154	18639.59
444.361	18574.05
444.568	18866.91
444.774	18531.05
444.981	18920.16
445.187	19448.54
445.394	20101.84
445.6	20351.69
445.807	21951.15
446.013	21070.53
446.22	21400.25
446.426	22241.96
446.633	22538.92
446.839	23093.92
447.046	22186.67
447.252	23650.97
447.459	23657.11
447.665	23325.34
447.871	24607.37
448.078	25619.07
448.284	24081.04
448.491	25354.88
448.697	26161.78
448.903	26253.94
449.11	26731.11
449.316	26233.46
449.522	26524.27
449.728	27216.48
449.935	27812.44
450.141	27329.12
450.347	28121.68
450.553	27265.63
450.76	27615.83
450.966	28736.07
451.172	28351.06
451.378	28916.29
451.584	28492.37
451.791	28998.21
451.997	29121.09
452.203	29518.4
452.409	29569.6
452.615	29547.07
452.821	28365.39
453.027	28205.65
453.233	29440.57
453.44	28676.68
453.646	28584.52
453.852	29002.31
454.058	29393.47
454.264	28295.76
454.47	29547.07
454.676	28291.66
454.882	29317.7
455.088	26872.42
455.294	27415.13
455.5	27933.27
455.705	28103.25
455.911	26800.74
456.117	26247.79
456.323	26126.96
456.529	24556.17
456.735	25985.65
456.941	25301.63
457.147	24879.75
457.352	24074.9
457.558	23808.66
457.764	24324.75
457.97	23591.58
458.176	23263.9
458.381	23024.29
458.587	21846.71
458.793	21641.91
458.999	20648.64
459.204	22141.61
459.41	21629.62
459.616	20095.69
459.821	20333.26
460.027	20226.76
460.233	19755.73
460.438	18707.17
460.644	19163.87
460.85	18481.89
461.055	17619.7
461.261	17926.89
461.466	16487.17
461.672	15858.45
461.878	17150.71
462.083	16083.72
462.289	15829.77
462.494	15530.77
462.7	14644
462.905	14398.24
463.111	14920.48
463.316	14947.1
463.522	14723.87
463.727	14871.33
463.932	14848.8
464.138	14412.58
464.343	14402.34
464.549	14166.82
464.754	14555.94
464.959	14392.1
465.165	14379.81
465.37	13753.13
465.575	13396.79
465.781	13577.01
465.986	13962.03
466.191	13454.13
466.397	13314.87
466.602	12385.09
466.807	13083.45
467.012	13097.78
467.218	12995.39
467.423	12966.71
467.628	13073.21
