Data from USB4F104151__314__14-46-45-889.txt Node

Date: Thu Mar 13 14:46:45 EDT 2025
User: louis
Spectrometer: USB4F10415
Trigger mode: 4
Integration Time (sec): 2.000000E-2
Scans to average: 1
Electric dark correction enabled: true
Nonlinearity correction enabled: false
Boxcar width: 0
XAxis mode: Wavelengths
Number of Pixels in Spectrum: 3648
>>>>>Begin Spectral Data<<<<<
178.204	-153.43
178.424	-153.43
178.644	-153.43
178.864	-196.43
179.084	-143.19
179.304	24.75
179.524	-8.02
179.744	22.7
179.964	104.62
180.184	14.51
180.404	37.03
180.624	18.6
180.844	-57.17
181.064	-61.27
181.283	24.75
181.503	-63.32
181.723	-57.17
181.943	6.31
182.163	57.51
182.383	20.65
182.602	-8.02
182.822	166.06
183.042	20.65
183.262	-3.93
183.482	4.27
183.701	-22.36
183.921	41.13
184.141	63.66
184.361	57.51
184.58	-16.21
184.8	-26.45
185.02	-65.36
185.239	55.47
185.459	8.36
185.679	55.47
185.898	26.79
186.118	34.99
186.338	49.32
186.557	32.94
186.777	0.17
186.997	49.32
187.216	16.55
187.436	84.14
187.655	16.55
187.875	51.37
188.095	-24.4
188.314	114.86
188.534	57.51
188.753	-5.97
188.973	-1.88
189.192	69.8
189.412	-28.5
189.631	51.37
189.851	10.41
190.07	73.9
190.29	-16.21
190.509	-32.6
190.729	8.36
190.948	51.37
191.168	104.62
191.387	41.13
191.607	-28.5
191.826	32.94
192.045	65.71
192.265	8.36
192.484	80.04
192.704	59.56
192.923	34.99
193.142	73.9
193.362	10.41
193.581	-26.45
193.8	-3.93
194.02	63.66
194.239	12.46
194.458	-10.07
194.678	82.09
194.897	41.13
195.116	69.8
195.335	-8.02
195.555	47.27
195.774	63.66
195.993	8.36
196.212	-94.04
196.432	-40.79
196.651	24.75
196.87	10.41
197.089	116.9
197.308	-3.93
197.528	41.13
197.747	-16.21
197.966	49.32
198.185	34.99
198.404	28.84
198.623	-1.88
198.842	-89.94
199.062	4.27
199.281	51.37
199.5	63.66
199.719	24.75
199.938	24.75
200.157	49.32
200.376	53.42
200.595	26.79
200.814	-18.26
201.033	34.99
201.252	-36.69
201.471	73.9
201.69	57.51
201.909	96.43
202.128	55.47
202.347	-12.12
202.566	32.94
202.785	-34.64
203.004	10.41
203.223	59.56
203.442	4.27
203.661	-18.26
203.879	45.23
204.098	131.24
204.317	61.61
204.536	37.03
204.755	16.55
204.974	51.37
205.193	82.09
205.411	98.47
205.63	55.47
205.849	39.08
206.068	-16.21
206.287	65.71
206.505	65.71
206.724	18.6
206.943	41.13
207.162	-40.79
207.381	-18.26
207.599	24.75
207.818	0.17
208.037	-32.6
208.255	37.03
208.474	8.36
208.693	41.13
208.911	45.23
209.13	75.95
209.349	2.22
209.567	86.19
209.786	155.82
210.005	-16.21
210.223	22.7
210.442	14.51
210.661	16.55
210.879	94.38
211.098	-40.79
211.316	8.36
211.535	77.99
211.753	-20.31
211.972	57.51
212.191	4.27
212.409	32.94
212.628	16.55
212.846	0.17
213.065	39.08
213.283	18.6
213.502	59.56
213.72	100.52
213.938	-5.97
214.157	-24.4
214.375	24.75
214.594	8.36
214.812	8.36
215.031	26.79
215.249	18.6
215.467	41.13
215.686	-32.6
215.904	73.9
216.122	22.7
216.341	67.75
216.559	-61.27
216.778	-12.12
216.996	26.79
217.214	16.55
217.432	41.13
217.651	-20.31
217.869	-57.17
218.087	41.13
218.306	-16.21
218.524	43.18
218.742	6.31
218.96	49.32
219.179	45.23
219.397	41.13
219.615	90.28
219.833	4.27
220.051	-24.4
220.27	69.8
220.488	-16.21
220.706	55.47
220.924	28.84
221.142	-32.6
221.36	-42.84
221.578	-38.74
221.796	65.71
222.015	-14.17
222.233	51.37
222.451	82.09
222.669	-79.7
222.887	90.28
223.105	-14.17
223.323	18.6
223.541	26.79
223.759	59.56
223.977	51.37
224.195	-10.07
224.413	26.79
224.631	-24.4
224.849	14.51
225.067	94.38
225.285	20.65
225.503	-51.03
225.721	-71.51
225.939	86.19
226.157	10.41
226.375	39.08
226.592	-3.93
226.81	-12.12
227.028	6.31
227.246	75.95
227.464	-53.08
227.682	114.86
227.9	-8.02
228.117	24.75
228.335	2.22
228.553	32.94
228.771	10.41
228.989	51.37
229.206	45.23
229.424	65.71
229.642	4.27
229.86	-12.12
230.077	57.51
230.295	41.13
230.513	24.75
230.731	69.8
230.948	16.55
231.166	53.42
231.384	-28.5
231.601	-5.97
231.819	16.55
232.037	-71.51
232.254	-32.6
232.472	-32.6
232.689	-12.12
232.907	100.52
233.125	-8.02
233.342	16.55
233.56	4.27
233.777	-28.5
233.995	-1.88
234.213	71.85
234.43	-16.21
234.648	49.32
234.865	-81.75
235.083	69.8
235.3	-36.69
235.518	55.47
235.735	51.37
235.953	37.03
236.17	20.65
236.388	0.17
236.605	41.13
236.822	59.56
237.04	20.65
237.257	8.36
237.475	-1.88
237.692	-1.88
237.909	67.75
238.127	49.32
238.344	2.22
238.562	8.36
238.779	-3.93
238.996	-5.97
239.214	-22.36
239.431	71.85
239.648	30.89
239.865	67.75
240.083	28.84
240.3	-14.17
240.517	10.41
240.735	37.03
240.952	32.94
241.169	-18.26
241.386	32.94
241.603	4.27
241.821	-55.12
242.038	32.94
242.255	59.56
242.472	-1.88
242.689	24.75
242.907	10.41
243.124	90.28
243.341	94.38
243.558	73.9
243.775	-22.36
243.992	-61.27
244.209	61.61
244.426	98.47
244.643	123.05
244.86	45.23
245.078	32.94
245.295	-16.21
245.512	0.17
245.729	-8.02
245.946	77.99
246.163	18.6
246.38	0.17
246.597	47.27
246.814	57.51
247.031	57.51
247.248	34.99
247.464	45.23
247.681	0.17
247.898	49.32
248.115	30.89
248.332	34.99
248.549	32.94
248.766	53.42
248.983	59.56
249.2	41.13
249.417	8.36
249.633	41.13
249.85	-28.5
250.067	45.23
250.284	10.41
250.501	34.99
250.717	82.09
250.934	-40.79
251.151	26.79
251.368	-40.79
251.585	90.28
251.801	-55.12
252.018	8.36
252.235	8.36
252.451	20.65
252.668	32.94
252.885	-8.02
253.102	82.09
253.318	-48.98
253.535	6.31
253.752	-57.17
253.968	18.6
254.185	-59.22
254.401	-22.36
254.618	73.9
254.835	43.18
255.051	41.13
255.268	26.79
255.484	4.27
255.701	8.36
255.917	16.55
256.134	-28.5
256.351	24.75
256.567	2.22
256.784	45.23
257	-22.36
257.217	84.14
257.433	0.17
257.65	16.55
257.866	67.75
258.082	18.6
258.299	28.84
258.515	123.05
258.732	8.36
258.948	0.17
259.165	-26.45
259.381	-22.36
259.597	24.75
259.814	26.79
260.03	65.71
260.246	16.55
260.463	-44.88
260.679	82.09
260.895	20.65
261.112	16.55
261.328	10.41
261.544	16.55
261.761	108.71
261.977	47.27
262.193	-46.93
262.409	0.17
262.626	32.94
262.842	86.19
263.058	-24.4
263.274	57.51
263.49	-16.21
263.707	4.27
263.923	57.51
264.139	-26.45
264.355	0.17
264.571	8.36
264.787	12.46
265.004	123.05
265.22	10.41
265.436	-3.93
265.652	0.17
265.868	123.05
266.084	4.27
266.3	65.71
266.516	82.09
266.732	-26.45
266.948	-24.4
267.164	-16.21
267.38	96.43
267.596	24.75
267.812	90.28
268.028	-57.17
268.244	49.32
268.46	2.22
268.676	-16.21
268.892	-67.41
269.108	32.94
269.324	-32.6
269.54	-73.56
269.756	73.9
269.972	22.7
270.188	28.84
270.403	-38.74
270.619	-22.36
270.835	20.65
271.051	80.04
271.267	8.36
271.483	4.27
271.698	32.94
271.914	77.99
272.13	-28.5
272.346	16.55
272.562	-32.6
272.777	28.84
272.993	20.65
273.209	20.65
273.425	73.9
273.64	0.17
273.856	-16.21
274.072	114.86
274.287	-1.88
274.503	51.37
274.719	-32.6
274.934	22.7
275.15	4.27
275.366	-5.97
275.581	18.6
275.797	26.79
276.012	18.6
276.228	-48.98
276.444	-55.12
276.659	-16.21
276.875	-5.97
277.09	84.14
277.306	-8.02
277.521	-28.5
277.737	8.36
277.952	65.71
278.168	32.94
278.383	8.36
278.599	26.79
278.814	16.55
279.03	57.51
279.245	75.95
279.461	-20.31
279.676	67.75
279.892	-3.93
280.107	28.84
280.322	37.03
280.538	-65.36
280.753	-34.64
280.969	-20.31
281.184	-3.93
281.399	57.51
281.615	-42.84
281.83	20.65
282.045	-16.21
282.26	-40.79
282.476	32.94
282.691	53.42
282.906	-28.5
283.122	18.6
283.337	-36.69
283.552	41.13
283.767	-18.26
283.983	26.79
284.198	-20.31
284.413	88.23
284.628	-3.93
284.843	39.08
285.058	24.75
285.274	73.9
285.489	37.03
285.704	10.41
285.919	43.18
286.134	-32.6
286.349	2.22
286.564	-12.12
286.779	26.79
286.995	-14.17
287.21	-55.12
287.425	53.42
287.64	34.99
287.855	96.43
288.07	-30.55
288.285	18.6
288.5	-3.93
288.715	6.31
288.93	2.22
289.145	51.37
289.36	92.33
289.575	2.22
289.79	71.85
290.004	-24.4
290.219	84.14
290.434	30.89
290.649	-24.4
290.864	-38.74
291.079	32.94
291.294	49.32
291.509	73.9
291.724	-3.93
291.938	-3.93
292.153	73.9
292.368	20.65
292.583	43.18
292.798	43.18
293.012	12.46
293.227	8.36
293.442	18.6
293.657	-14.17
293.871	51.37
294.086	84.14
294.301	45.23
294.516	67.75
294.73	8.36
294.945	24.75
295.16	34.99
295.374	2.22
295.589	-16.21
295.804	34.99
296.018	4.27
296.233	49.32
296.447	34.99
296.662	18.6
296.877	-10.07
297.091	-22.36
297.306	49.32
297.52	49.32
297.735	49.32
297.949	18.6
298.164	57.51
298.378	-55.12
298.593	-59.22
298.807	-1.88
299.022	37.03
299.236	4.27
299.451	18.6
299.665	43.18
299.88	24.75
300.094	26.79
300.309	53.42
300.523	43.18
300.737	104.62
300.952	37.03
301.166	131.24
301.381	0.17
301.595	28.84
301.809	45.23
302.024	67.75
302.238	49.32
302.452	32.94
302.667	-8.02
302.881	61.61
303.095	28.84
303.309	55.47
303.524	-12.12
303.738	-44.88
303.952	-14.17
304.166	32.94
304.381	41.13
304.595	106.67
304.809	-16.21
305.023	102.57
305.237	41.13
305.452	-10.07
305.666	6.31
305.88	77.99
306.094	-10.07
306.308	41.13
306.522	-28.5
306.736	92.33
306.95	41.13
307.164	65.71
307.379	-69.46
307.593	26.79
307.807	2.22
308.021	65.71
308.235	34.99
308.449	-44.88
308.663	49.32
308.877	86.19
309.091	55.47
309.305	80.04
309.519	-22.36
309.733	77.99
309.947	75.95
310.161	0.17
310.374	82.09
310.588	106.67
310.802	12.46
311.016	-12.12
311.23	37.03
311.444	49.32
311.658	-5.97
311.872	-36.69
312.085	59.56
312.299	34.99
312.513	86.19
312.727	84.14
312.941	34.99
313.154	32.94
313.368	61.61
313.582	16.55
313.796	-26.45
314.009	43.18
314.223	20.65
314.437	24.75
314.651	39.08
314.864	-36.69
315.078	22.7
315.292	10.41
315.505	8.36
315.719	-34.64
315.933	-67.41
316.146	45.23
316.36	-5.97
316.573	75.95
316.787	-24.4
317.001	55.47
317.214	-57.17
317.428	20.65
317.641	-38.74
317.855	14.51
318.068	-22.36
318.282	82.09
318.495	-5.97
318.709	71.85
318.922	26.79
319.136	49.32
319.349	24.75
319.563	45.23
319.776	-51.03
319.99	-57.17
320.203	16.55
320.417	-10.07
320.63	75.95
320.843	32.94
321.057	51.37
321.27	24.75
321.483	45.23
321.697	49.32
321.91	37.03
322.124	41.13
322.337	-8.02
322.55	-40.79
322.763	-40.79
322.977	4.27
323.19	10.41
323.403	73.9
323.617	90.28
323.83	20.65
324.043	-28.5
324.256	43.18
324.469	65.71
324.683	32.94
324.896	-38.74
325.109	-32.6
325.322	49.32
325.535	73.9
325.748	26.79
325.962	57.51
326.175	-1.88
326.388	47.27
326.601	65.71
326.814	45.23
327.027	59.56
327.24	108.71
327.453	6.31
327.666	32.94
327.879	75.95
328.092	8.36
328.305	37.03
328.518	10.41
328.731	0.17
328.944	84.14
329.157	-32.6
329.37	53.42
329.583	55.47
329.796	92.33
330.009	-40.79
330.222	75.95
330.435	24.75
330.648	45.23
330.861	41.13
331.073	-77.65
331.286	94.38
331.499	-38.74
331.712	8.36
331.925	84.14
332.138	-22.36
332.35	137.38
332.563	16.55
332.776	106.67
332.989	6.31
333.202	8.36
333.414	-32.6
333.627	10.41
333.84	49.32
334.053	32.94
334.265	-3.93
334.478	2.22
334.691	47.27
334.903	-3.93
335.116	12.46
335.329	16.55
335.541	102.57
335.754	88.23
335.966	0.17
336.179	41.13
336.392	65.71
336.604	51.37
336.817	26.79
337.029	24.75
337.242	49.32
337.454	98.47
337.667	20.65
337.88	82.09
338.092	100.52
338.305	0.17
338.517	49.32
338.729	-8.02
338.942	94.38
339.154	18.6
339.367	28.84
339.579	41.13
339.792	49.32
340.004	125.1
340.217	26.79
340.429	30.89
340.641	18.6
340.854	-3.93
341.066	41.13
341.278	125.1
341.491	77.99
341.703	24.75
341.915	16.55
342.128	49.32
342.34	26.79
342.552	49.32
342.764	26.79
342.977	43.18
343.189	-40.79
343.401	47.27
343.613	-48.98
343.826	34.99
344.038	-34.64
344.25	14.51
344.462	49.32
344.674	34.99
344.886	41.13
345.099	-8.02
345.311	26.79
345.523	82.09
345.735	-16.21
345.947	8.36
346.159	0.17
346.371	16.55
346.583	41.13
346.795	63.66
347.007	73.9
347.219	-20.31
347.431	45.23
347.643	37.03
347.855	-8.02
348.067	32.94
348.279	-28.5
348.491	14.51
348.703	53.42
348.915	14.51
349.127	-18.26
349.339	73.9
349.551	6.31
349.763	49.32
349.975	16.55
350.187	16.55
350.399	43.18
350.61	24.75
350.822	43.18
351.034	41.13
351.246	14.51
351.458	39.08
351.669	47.27
351.881	71.85
352.093	34.99
352.305	43.18
352.517	32.94
352.728	51.37
352.94	-1.88
353.152	47.27
353.363	4.27
353.575	24.75
353.787	104.62
353.999	57.51
354.21	34.99
354.422	8.36
354.633	104.62
354.845	26.79
355.057	-48.98
355.268	-16.21
355.48	22.7
355.692	-14.17
355.903	0.17
356.115	-79.7
356.326	-67.41
356.538	106.67
356.749	26.79
356.961	82.09
357.172	86.19
357.384	-8.02
357.595	108.71
357.807	-1.88
358.018	-8.02
358.23	-57.17
358.441	32.94
358.653	51.37
358.864	75.95
359.075	-8.02
359.287	71.85
359.498	71.85
359.709	2.22
359.921	73.9
360.132	-28.5
360.344	82.09
360.555	16.55
360.766	127.14
360.977	4.27
361.189	65.71
361.4	57.51
361.611	-1.88
361.823	90.28
362.034	-14.17
362.245	49.32
362.456	-24.4
362.667	90.28
362.879	30.89
363.09	88.23
363.301	41.13
363.512	37.03
363.723	0.17
363.935	22.7
364.146	92.33
364.357	-16.21
364.568	28.84
364.779	26.79
364.99	127.14
365.201	6.31
365.412	20.65
365.623	12.46
365.834	88.23
366.045	77.99
366.256	0.17
366.467	121
366.678	73.9
366.889	-32.6
367.1	98.47
367.311	73.9
367.522	22.7
367.733	-1.88
367.944	77.99
368.155	-20.31
368.366	-24.4
368.577	26.79
368.788	24.75
368.999	51.37
369.209	10.41
369.42	90.28
369.631	73.9
369.842	69.8
370.053	-8.02
370.264	24.75
370.474	-16.21
370.685	-44.88
370.896	34.99
371.107	59.56
371.317	57.51
371.528	4.27
371.739	84.14
371.95	37.03
372.16	34.99
372.371	164.01
372.582	-61.27
372.792	57.51
373.003	94.38
373.214	24.75
373.424	32.94
373.635	-1.88
373.846	26.79
374.056	75.95
374.267	77.99
374.477	32.94
374.688	45.23
374.898	2.22
375.109	18.6
375.319	73.9
375.53	61.61
375.74	28.84
375.951	-73.56
376.161	-5.97
376.372	114.86
376.582	73.9
376.793	84.14
377.003	10.41
377.214	73.9
377.424	61.61
377.635	24.75
377.845	-12.12
378.055	86.19
378.266	4.27
378.476	65.71
378.686	73.9
378.897	57.51
379.107	84.14
379.317	16.55
379.528	43.18
379.738	65.71
379.948	57.51
380.158	51.37
380.369	20.65
380.579	53.42
380.789	2.22
380.999	37.03
381.21	-32.6
381.42	43.18
381.63	-3.93
381.84	90.28
382.05	41.13
382.261	32.94
382.471	24.75
382.681	32.94
382.891	18.6
383.101	41.13
383.311	-28.5
383.521	94.38
383.731	32.94
383.941	24.75
384.151	114.86
384.361	41.13
384.571	77.99
384.781	114.86
384.991	90.28
385.201	127.14
385.411	30.89
385.621	82.09
385.831	49.32
386.041	18.6
386.251	57.51
386.461	22.7
386.671	51.37
386.881	32.94
387.091	4.27
387.301	8.36
387.511	98.47
387.72	43.18
387.93	73.9
388.14	-1.88
388.35	16.55
388.56	75.95
388.769	90.28
388.979	51.37
389.189	102.57
389.399	65.71
389.609	37.03
389.818	100.52
390.028	22.7
390.238	55.47
390.447	0.17
390.657	12.46
390.867	26.79
391.076	90.28
391.286	75.95
391.496	53.42
391.705	73.9
391.915	92.33
392.125	77.99
392.334	18.6
392.544	57.51
392.753	110.76
392.963	-40.79
393.172	57.51
393.382	45.23
393.591	112.81
393.801	16.55
394.01	75.95
394.22	112.81
394.429	51.37
394.639	67.75
394.848	94.38
395.058	-16.21
395.267	65.71
395.477	94.38
395.686	100.52
395.895	65.71
396.105	57.51
396.314	149.67
396.524	77.99
396.733	41.13
396.942	71.85
397.152	10.41
397.361	143.53
397.57	22.7
397.78	73.9
397.989	84.14
398.198	137.38
398.407	71.85
398.617	59.56
398.826	67.75
399.035	102.57
399.244	92.33
399.453	100.52
399.663	135.34
399.872	188.58
400.081	110.76
400.29	108.71
400.499	75.95
400.708	88.23
400.917	41.13
401.127	133.29
401.336	92.33
401.545	180.39
401.754	49.32
401.963	92.33
402.172	86.19
402.381	65.71
402.59	88.23
402.799	55.47
403.008	157.86
403.217	108.71
403.426	116.9
403.635	106.67
403.844	73.9
404.053	84.14
404.262	155.82
404.471	123.05
404.68	137.38
404.888	127.14
405.097	90.28
405.306	116.9
405.515	145.58
405.724	133.29
405.933	176.3
406.142	143.53
406.35	77.99
406.559	77.99
406.768	198.82
406.977	164.01
407.185	125.1
407.394	204.97
407.603	102.57
407.812	213.16
408.02	192.68
408.229	229.54
408.438	180.39
408.646	155.82
408.855	270.5
409.064	180.39
409.272	225.45
409.481	331.94
409.69	237.74
409.898	264.36
410.107	235.69
410.315	299.17
410.524	299.17
410.733	336.04
410.941	272.55
411.15	352.42
411.358	327.85
411.567	299.17
411.775	258.21
411.984	309.41
412.192	397.48
412.401	323.75
412.609	397.48
412.818	450.72
413.026	368.81
413.234	442.53
413.443	331.94
413.651	477.35
413.86	469.16
414.068	463.01
414.276	446.63
414.485	479.4
414.693	573.6
414.901	657.57
415.11	589.99
415.318	682.14
415.526	665.76
415.734	622.75
415.943	700.58
416.151	739.49
416.359	684.19
416.567	729.25
416.776	807.07
416.984	802.97
417.192	876.7
417.4	774.3
417.608	823.45
417.817	884.89
418.025	921.76
418.233	946.33
418.441	964.76
418.649	1034.39
418.857	1093.79
419.065	1138.84
419.273	1075.35
419.481	1140.89
419.689	1216.66
419.897	1261.72
420.105	1208.47
420.313	1300.63
420.521	1394.84
420.729	1431.7
420.937	1433.75
421.145	1452.18
421.353	1482.9
421.561	1601.68
421.769	1622.16
421.977	1669.27
422.185	1699.98
422.393	1857.68
422.601	1933.45
422.809	1886.35
423.017	1992.84
423.224	2031.76
423.432	2007.18
423.64	2156.68
423.848	2271.37
424.056	2156.68
424.263	2334.86
424.471	2424.97
424.679	2427.01
424.887	2648.19
425.094	2617.47
425.302	2650.24
425.51	2707.59
425.718	2736.26
425.925	2900.09
426.133	3039.36
426.341	3180.67
426.548	3270.78
426.756	3266.68
426.964	3311.74
427.171	3453.05
427.379	3643.51
427.586	3653.75
427.794	3715.19
428.001	3917.93
428.209	4057.2
428.417	3944.56
428.624	4268.14
428.832	4237.42
429.039	4391.02
429.247	4169.84
429.454	4735.07
429.662	4907.1
429.869	4604
430.076	4952.16
430.284	5001.31
430.491	5079.13
430.699	5204.06
430.906	5210.2
431.114	5359.7
431.321	5615.7
431.528	5664.85
431.736	6105.17
431.943	6332.49
432.15	6148.17
432.358	6115.41
432.565	6721.6
432.772	6463.56
432.979	6787.14
433.187	7057.47
433.394	7049.28
433.601	7417.91
433.808	7733.3
434.016	7329.85
434.223	7749.68
434.43	8210.48
434.637	8237.1
434.844	8548.39
435.052	8816.68
435.259	8837.16
435.466	8769.57
435.673	8517.67
435.88	9363.48
436.087	9682.97
436.294	9699.35
436.501	9533.47
436.708	9699.35
436.915	10024.98
437.122	10401.8
437.329	10627.08
437.537	10600.46
437.743	10715.14
437.95	10645.51
438.157	11304.96
438.364	11759.61
438.571	11833.33
438.778	11878.39
438.985	13010.92
439.192	12441.58
439.399	13031.4
439.606	12500.97
439.813	13213.67
440.02	14026.71
440.227	13873.11
440.433	13606.88
440.64	14006.23
440.847	14082
441.054	14385.1
441.261	15419.33
441.467	15206.34
441.674	15327.17
441.881	16080.82
442.088	15886.26
442.294	15775.67
442.501	16097.21
442.708	16654.25
442.914	17194.92
443.121	17840.03
443.328	17524.64
443.534	18812.81
443.741	17874.84
443.948	17708.96
444.154	19144.58
444.361	19097.48
444.568	18837.39
444.774	19054.47
444.981	19337.09
445.187	19922.81
445.394	20879.21
445.6	20567.92
445.807	22249.3
446.013	21385.06
446.22	21761.89
446.426	22583.12
446.633	22812.49
446.839	23568.2
447.046	22814.54
447.252	23789.38
447.459	24022.84
447.665	23772.99
447.871	24960.81
448.078	25833.25
448.284	24463.16
448.491	25751.33
448.697	26244.89
448.903	26500.89
449.11	26793.75
449.316	26435.35
449.522	26873.62
449.728	27850.5
449.935	27840.26
450.141	27936.51
450.347	28526.33
450.553	27610.89
450.76	28315.39
450.966	29228.78
451.172	28874.48
451.378	29646.57
451.584	29202.16
451.791	29558.5
451.997	29658.85
452.203	29789.92
452.409	29775.59
452.615	30045.92
452.821	28645.11
453.027	28526.33
453.233	30273.24
453.44	28856.05
453.646	29546.22
453.852	29427.43
454.058	29800.16
454.264	28976.88
454.47	29867.75
454.676	29124.33
454.882	30058.21
455.088	27592.45
455.294	27543.3
455.5	28059.39
455.705	28294.91
455.911	27279.11
456.117	26863.38
456.323	26789.65
456.529	25265.96
456.735	26148.64
456.941	25659.17
457.147	25519.91
457.352	24919.85
457.558	24311.61
457.764	24461.11
457.97	24153.91
458.176	23353.16
458.381	23519.04
458.587	22124.38
458.793	22398.8
458.999	21165.93
459.204	22673.23
459.41	22015.83
459.616	20424.56
459.821	20780.91
460.027	20694.89
460.233	20313.97
460.438	19201.93
460.644	19644.29
460.85	18474.9
461.055	18227.09
461.261	18247.57
461.466	16887.72
461.672	16439.22
461.878	17481.63
462.083	16492.46
462.289	16086.97
462.494	15712.19
462.7	15448
462.905	14747.59
463.111	15308.74
463.316	15296.45
463.522	14913.48
463.727	15083.46
463.932	15138.76
464.138	14954.44
464.343	15040.45
464.549	14426.06
464.754	14974.92
464.959	14821.32
465.165	14727.11
465.37	14010.32
465.575	13682.65
465.781	14225.36
465.986	14098.39
466.191	13570.01
466.397	13217.76
466.602	13053.92
466.807	13422.56
467.012	13369.31
467.218	13369.31
467.423	13090.79
467.628	13215.71
467.833	13713.37
