Data from USB4F104151__79__14-43-27-076.txt Node

Date: Thu Mar 13 14:43:27 EDT 2025
User: louis
Spectrometer: USB4F10415
Trigger mode: 4
Integration Time (sec): 2.000000E-2
Scans to average: 1
Electric dark correction enabled: true
Nonlinearity correction enabled: false
Boxcar width: 0
XAxis mode: Wavelengths
Number of Pixels in Spectrum: 3648
>>>>>Begin Spectral Data<<<<<
178.204	-162.13
178.424	-162.13
178.644	-162.13
178.864	-98.64
179.084	-104.79
179.304	1.71
179.524	46.76
179.744	1.71
179.964	-6.49
180.184	20.14
180.404	1.71
180.624	-39.25
180.844	13.99
181.064	-45.4
181.283	-55.64
181.503	-39.25
181.723	100.01
181.943	-14.68
182.163	77.48
182.383	20.14
182.602	59.05
182.822	63.15
183.042	-12.63
183.262	50.86
183.482	28.33
183.701	42.67
183.921	46.76
184.141	97.96
184.361	91.82
184.58	93.87
184.8	7.85
185.02	-29.01
185.239	38.57
185.459	34.47
185.679	50.86
185.898	1.71
186.118	1.71
186.338	20.14
186.557	-43.35
186.777	-12.63
186.997	75.43
187.216	-26.96
187.436	87.72
187.655	36.52
187.875	93.87
188.095	-31.06
188.314	5.8
188.534	50.86
188.753	5.8
188.973	22.19
189.192	134.82
189.412	44.71
189.631	-26.96
189.851	-8.53
190.07	108.2
190.29	20.14
190.509	63.15
190.729	-72.02
190.948	44.71
191.168	54.95
191.387	67.24
191.607	1.71
191.826	5.8
192.045	34.47
192.265	18.09
192.484	77.48
192.704	44.71
192.923	104.11
193.142	13.99
193.362	18.09
193.581	20.14
193.8	59.05
194.02	81.58
194.239	18.09
194.458	44.71
194.678	-20.82
194.897	71.34
195.116	-26.96
195.335	46.76
195.555	13.99
195.774	13.99
195.993	-26.96
196.212	-6.49
196.432	-10.58
196.651	61.1
196.87	-43.35
197.089	157.35
197.308	-0.34
197.528	106.15
197.747	-29.01
197.966	-2.39
198.185	52.91
198.404	-12.63
198.623	-31.06
198.842	116.39
199.062	40.62
199.281	91.82
199.5	34.47
199.719	24.23
199.938	114.34
200.157	24.23
200.376	57
200.595	128.68
200.814	116.39
201.033	-22.87
201.252	11.95
201.471	116.39
201.69	95.91
201.909	20.14
202.128	93.87
202.347	91.82
202.566	28.33
202.785	-14.68
203.004	18.09
203.223	79.53
203.442	-16.73
203.661	-18.77
203.879	81.58
204.098	24.23
204.317	30.38
204.536	3.75
204.755	20.14
204.974	50.86
205.193	28.33
205.411	91.82
205.63	52.91
205.849	54.95
206.068	54.95
206.287	-4.44
206.505	34.47
206.724	50.86
206.943	3.75
207.162	-26.96
207.381	44.71
207.599	-12.63
207.818	120.49
208.037	18.09
208.255	1.71
208.474	42.67
208.693	20.14
208.911	20.14
209.13	3.75
209.349	26.28
209.567	-61.78
209.786	116.39
210.005	71.34
210.223	-57.68
210.442	-12.63
210.661	54.95
210.879	-47.44
211.098	7.85
211.316	50.86
211.535	-14.68
211.753	50.86
211.972	50.86
212.191	-4.44
212.409	42.67
212.628	59.05
212.846	-51.54
213.065	63.15
213.283	100.01
213.502	28.33
213.72	-4.44
213.938	36.52
214.157	-20.82
214.375	52.91
214.594	5.8
214.812	18.09
215.031	-10.58
215.249	-47.44
215.467	46.76
215.686	26.28
215.904	26.28
216.122	9.9
216.341	75.43
216.559	9.9
216.778	50.86
216.996	36.52
217.214	1.71
217.432	-80.21
217.651	-2.39
217.869	1.71
218.087	83.63
218.306	50.86
218.524	85.67
218.742	18.09
218.96	42.67
219.179	44.71
219.397	50.86
219.615	69.29
219.833	26.28
220.051	-8.53
220.27	3.75
220.488	11.95
220.706	24.23
220.924	67.24
221.142	-18.77
221.36	22.19
221.578	1.71
221.796	63.15
222.015	-22.87
222.233	59.05
222.451	108.2
222.669	-33.11
222.887	140.97
223.105	-20.82
223.323	26.28
223.541	46.76
223.759	22.19
223.977	-14.68
224.195	24.23
224.413	30.38
224.631	67.24
224.849	28.33
225.067	65.19
225.285	-12.63
225.503	63.15
225.721	-51.54
225.939	52.91
226.157	-6.49
226.375	61.1
226.592	93.87
226.81	-18.77
227.028	52.91
227.246	67.24
227.464	-22.87
227.682	67.24
227.9	108.2
228.117	128.68
228.335	42.67
228.553	-4.44
228.771	-47.44
228.989	-14.68
229.206	34.47
229.424	-22.87
229.642	28.33
229.86	-8.53
230.077	-61.78
230.295	3.75
230.513	34.47
230.731	54.95
230.948	24.23
231.166	54.95
231.384	-76.12
231.601	-29.01
231.819	108.2
232.037	9.9
232.254	-4.44
232.472	59.05
232.689	36.52
232.907	63.15
233.125	-18.77
233.342	11.95
233.56	5.8
233.777	-2.39
233.995	67.24
234.213	87.72
234.43	69.29
234.648	9.9
234.865	38.57
235.083	-14.68
235.3	32.43
235.518	-10.58
235.735	79.53
235.953	79.53
236.17	11.95
236.388	36.52
236.605	48.81
236.822	95.91
237.04	108.2
237.257	-35.16
237.475	75.43
237.692	-14.68
237.909	-45.4
238.127	-4.44
238.344	87.72
238.562	79.53
238.779	65.19
238.996	95.91
239.214	83.63
239.431	59.05
239.648	30.38
239.865	75.43
240.083	16.04
240.3	20.14
240.517	-8.53
240.735	79.53
240.952	61.1
241.169	50.86
241.386	73.39
241.603	34.47
241.821	26.28
242.038	59.05
242.255	28.33
242.472	65.19
242.689	-22.87
242.907	67.24
243.124	9.9
243.341	22.19
243.558	71.34
243.775	42.67
243.992	-59.73
244.209	42.67
244.426	116.39
244.643	34.47
244.86	-16.73
245.078	100.01
245.295	9.9
245.512	44.71
245.729	-26.96
245.946	42.67
246.163	-0.34
246.38	28.33
246.597	34.47
246.814	20.14
247.031	106.15
247.248	9.9
247.464	13.99
247.681	61.1
247.898	42.67
248.115	22.19
248.332	13.99
248.549	59.05
248.766	44.71
248.983	46.76
249.2	18.09
249.417	75.43
249.633	40.62
249.85	50.86
250.067	11.95
250.284	46.76
250.501	11.95
250.717	-2.39
250.934	59.05
251.151	34.47
251.368	-33.11
251.585	9.9
251.801	9.9
252.018	-10.58
252.235	38.57
252.451	3.75
252.668	3.75
252.885	50.86
253.102	44.71
253.318	5.8
253.535	7.85
253.752	30.38
253.968	-55.64
254.185	28.33
254.401	26.28
254.618	-26.96
254.835	38.57
255.051	59.05
255.268	9.9
255.484	22.19
255.701	136.87
255.917	118.44
256.134	1.71
256.351	36.52
256.567	-2.39
256.784	30.38
257	-20.82
257.217	75.43
257.433	9.9
257.65	16.04
257.866	50.86
258.082	-20.82
258.299	136.87
258.515	1.71
258.732	-31.06
258.948	34.47
259.165	30.38
259.381	63.15
259.597	13.99
259.814	54.95
260.03	83.63
260.246	1.71
260.463	26.28
260.679	50.86
260.895	65.19
261.112	63.15
261.328	9.9
261.544	93.87
261.761	67.24
261.977	9.9
262.193	-6.49
262.409	100.01
262.626	3.75
262.842	114.34
263.058	3.75
263.274	75.43
263.49	-6.49
263.707	95.91
263.923	44.71
264.139	67.24
264.355	59.05
264.571	112.3
264.787	124.58
265.004	50.86
265.22	1.71
265.436	30.38
265.652	3.75
265.868	9.9
266.084	-4.44
266.3	79.53
266.516	61.1
266.732	1.71
266.948	38.57
267.164	34.47
267.38	65.19
267.596	42.67
267.812	63.15
268.028	26.28
268.244	-18.77
268.46	11.95
268.676	18.09
268.892	30.38
269.108	-45.4
269.324	-4.44
269.54	-18.77
269.756	83.63
269.972	-0.34
270.188	-6.49
270.403	-22.87
270.619	26.28
270.835	-26.96
271.051	9.9
271.267	-6.49
271.483	1.71
271.698	69.29
271.914	89.77
272.13	46.76
272.346	67.24
272.562	1.71
272.777	46.76
272.993	9.9
273.209	11.95
273.425	20.14
273.64	67.24
273.856	48.81
274.072	28.33
274.287	22.19
274.503	1.71
274.719	44.71
274.934	-18.77
275.15	26.28
275.366	28.33
275.581	-39.25
275.797	-4.44
276.012	-26.96
276.228	34.47
276.444	42.67
276.659	42.67
276.875	-26.96
277.09	22.19
277.306	54.95
277.521	87.72
277.737	13.99
277.952	93.87
278.168	11.95
278.383	93.87
278.599	50.86
278.814	108.2
279.03	44.71
279.245	46.76
279.461	5.8
279.676	52.91
279.892	-35.16
280.107	3.75
280.322	128.68
280.538	63.15
280.753	-18.77
280.969	44.71
281.184	-22.87
281.399	112.3
281.615	67.24
281.83	-2.39
282.045	20.14
282.26	42.67
282.476	112.3
282.691	71.34
282.906	100.01
283.122	3.75
283.337	-2.39
283.552	-22.87
283.767	1.71
283.983	-4.44
284.198	-61.78
284.413	3.75
284.628	46.76
284.843	118.44
285.058	67.24
285.274	48.81
285.489	18.09
285.704	28.33
285.919	3.75
286.134	-39.25
286.349	-37.2
286.564	-24.92
286.779	50.86
286.995	28.33
287.21	18.09
287.425	42.67
287.64	30.38
287.855	1.71
288.07	67.24
288.285	46.76
288.5	13.99
288.715	87.72
288.93	42.67
289.145	38.57
289.36	18.09
289.575	50.86
289.79	46.76
290.004	104.11
290.219	75.43
290.434	67.24
290.649	-6.49
290.864	67.24
291.079	52.91
291.294	46.76
291.509	26.28
291.724	71.34
291.938	93.87
292.153	-24.92
292.368	54.95
292.583	46.76
292.798	54.95
293.012	50.86
293.227	40.62
293.442	26.28
293.657	24.23
293.871	3.75
294.086	59.05
294.301	16.04
294.516	77.48
294.73	1.71
294.945	-61.78
295.16	-12.63
295.374	100.01
295.589	26.28
295.804	81.58
296.018	83.63
296.233	61.1
296.447	30.38
296.662	63.15
296.877	44.71
297.091	50.86
297.306	-2.39
297.52	36.52
297.735	-47.44
297.949	100.01
298.164	3.75
298.378	28.33
298.593	-20.82
298.807	-37.2
299.022	102.06
299.236	87.72
299.451	61.1
299.665	48.81
299.88	28.33
300.094	69.29
300.309	75.43
300.523	-12.63
300.737	11.95
300.952	34.47
301.166	67.24
301.381	-4.44
301.595	18.09
301.809	69.29
302.024	-31.06
302.238	44.71
302.452	36.52
302.667	-14.68
302.881	67.24
303.095	59.05
303.309	-20.82
303.524	30.38
303.738	-6.49
303.952	-2.39
304.166	34.47
304.381	18.09
304.595	9.9
304.809	-10.58
305.023	-39.25
305.237	91.82
305.452	63.15
305.666	73.39
305.88	52.91
306.094	42.67
306.308	140.97
306.522	18.09
306.736	118.44
306.95	63.15
307.164	26.28
307.379	28.33
307.593	112.3
307.807	-6.49
308.021	61.1
308.235	91.82
308.449	-10.58
308.663	40.62
308.877	124.58
309.091	-67.92
309.305	13.99
309.519	-63.83
309.733	9.9
309.947	13.99
310.161	26.28
310.374	26.28
310.588	81.58
310.802	30.38
311.016	65.19
311.23	124.58
311.444	26.28
311.658	-6.49
311.872	26.28
312.085	67.24
312.299	108.2
312.513	83.63
312.727	61.1
312.941	42.67
313.154	89.77
313.368	50.86
313.582	9.9
313.796	42.67
314.009	-18.77
314.223	-14.68
314.437	5.8
314.651	95.91
314.864	11.95
315.078	18.09
315.292	30.38
315.505	61.1
315.719	75.43
315.933	124.58
316.146	18.09
316.36	36.52
316.573	116.39
316.787	34.47
317.001	59.05
317.214	1.71
317.428	77.48
317.641	13.99
317.855	1.71
318.068	44.71
318.282	63.15
318.495	-22.87
318.709	128.68
318.922	63.15
319.136	112.3
319.349	128.68
319.563	-4.44
319.776	79.53
319.99	-14.68
320.203	20.14
320.417	71.34
320.63	57
320.843	42.67
321.057	18.09
321.27	5.8
321.483	36.52
321.697	59.05
321.91	13.99
322.124	42.67
322.337	9.9
322.55	42.67
322.763	44.71
322.977	81.58
323.19	-12.63
323.403	13.99
323.617	-26.96
323.83	50.86
324.043	22.19
324.256	57
324.469	-33.11
324.683	93.87
324.896	97.96
325.109	30.38
325.322	22.19
325.535	59.05
325.748	61.1
325.962	9.9
326.175	87.72
326.388	48.81
326.601	26.28
326.814	13.99
327.027	75.43
327.24	159.4
327.453	9.9
327.666	38.57
327.879	104.11
328.092	110.25
328.305	44.71
328.518	52.91
328.731	40.62
328.944	-8.53
329.157	50.86
329.37	71.34
329.583	83.63
329.796	100.01
330.009	-10.58
330.222	67.24
330.435	24.23
330.648	61.1
330.861	-37.2
331.073	59.05
331.286	85.67
331.499	-22.87
331.712	-72.02
331.925	67.24
332.138	34.47
332.35	63.15
332.563	-6.49
332.776	34.47
332.989	-18.77
333.202	83.63
333.414	18.09
333.627	52.91
333.84	22.19
334.053	-6.49
334.265	30.38
334.478	42.67
334.691	18.09
334.903	108.2
335.116	-4.44
335.329	1.71
335.541	3.75
335.754	104.11
335.966	1.71
336.179	100.01
336.392	79.53
336.604	61.1
336.817	77.48
337.029	57
337.242	20.14
337.454	61.1
337.667	9.9
337.88	97.96
338.092	65.19
338.305	26.28
338.517	42.67
338.729	30.38
338.942	87.72
339.154	36.52
339.367	-4.44
339.579	59.05
339.792	28.33
340.004	67.24
340.217	112.3
340.429	-2.39
340.641	67.24
340.854	85.67
341.066	3.75
341.278	93.87
341.491	1.71
341.703	-24.92
341.915	26.28
342.128	61.1
342.34	93.87
342.552	38.57
342.764	-6.49
342.977	77.48
343.189	-35.16
343.401	69.29
343.613	9.9
343.826	42.67
344.038	1.71
344.25	36.52
344.462	26.28
344.674	36.52
344.886	13.99
345.099	59.05
345.311	13.99
345.523	-10.58
345.735	-31.06
345.947	120.49
346.159	59.05
346.371	124.58
346.583	44.71
346.795	100.01
347.007	-18.77
347.219	59.05
347.431	28.33
347.643	59.05
347.855	36.52
348.067	75.43
348.279	22.19
348.491	61.1
348.703	83.63
348.915	5.8
349.127	9.9
349.339	-18.77
349.551	-4.44
349.763	91.82
349.975	54.95
350.187	145.06
350.399	9.9
350.61	32.43
350.822	79.53
351.034	18.09
351.246	20.14
351.458	28.33
351.669	1.71
351.881	30.38
352.093	34.47
352.305	106.15
352.517	77.48
352.728	95.91
352.94	67.24
353.152	116.39
353.363	9.9
353.575	-4.44
353.787	110.25
353.999	36.52
354.21	32.43
354.422	13.99
354.633	36.52
354.845	-14.68
355.057	59.05
355.268	61.1
355.48	34.47
355.692	-47.44
355.903	42.67
356.115	-102.74
356.326	36.52
356.538	100.01
356.749	18.09
356.961	112.3
357.172	52.91
357.384	50.86
357.595	67.24
357.807	-14.68
358.018	11.95
358.23	22.19
358.441	102.06
358.653	114.34
358.864	52.91
359.075	-39.25
359.287	30.38
359.498	5.8
359.709	9.9
359.921	67.24
360.132	-10.58
360.344	-61.78
360.555	11.95
360.766	-10.58
360.977	83.63
361.189	83.63
361.4	-39.25
361.611	42.67
361.823	34.47
362.034	-45.4
362.245	63.15
362.456	-4.44
362.667	77.48
362.879	54.95
363.09	1.71
363.301	44.71
363.512	20.14
363.723	-6.49
363.935	-31.06
364.146	50.86
364.357	18.09
364.568	63.15
364.779	-67.92
364.99	69.29
365.201	13.99
365.412	65.19
365.623	26.28
365.834	3.75
366.045	102.06
366.256	112.3
366.467	42.67
366.678	16.04
366.889	-47.44
367.1	1.71
367.311	130.73
367.522	93.87
367.733	3.75
367.944	65.19
368.155	75.43
368.366	42.67
368.577	108.2
368.788	91.82
368.999	3.75
369.209	61.1
369.42	108.2
369.631	77.48
369.842	63.15
370.053	61.1
370.264	5.8
370.474	83.63
370.685	3.75
370.896	40.62
371.107	71.34
371.317	52.91
371.528	13.99
371.739	118.44
371.95	38.57
372.16	61.1
372.371	-24.92
372.582	18.09
372.792	-12.63
373.003	75.43
373.214	7.85
373.424	104.11
373.635	22.19
373.846	124.58
374.056	5.8
374.267	-4.44
374.477	50.86
374.688	52.91
374.898	67.24
375.109	50.86
375.319	89.77
375.53	67.24
375.74	-12.63
375.951	-16.73
376.161	-59.73
376.372	112.3
376.582	44.71
376.793	134.82
377.003	-37.2
377.214	75.43
377.424	59.05
377.635	67.24
377.845	52.91
378.055	52.91
378.266	-47.44
378.476	46.76
378.686	46.76
378.897	77.48
379.107	42.67
379.317	85.67
379.528	34.47
379.738	93.87
379.948	67.24
380.158	85.67
380.369	5.8
380.579	57
380.789	108.2
380.999	87.72
381.21	38.57
381.42	114.34
381.63	59.05
381.84	122.54
382.05	38.57
382.261	18.09
382.471	11.95
382.681	59.05
382.891	108.2
383.101	63.15
383.311	9.9
383.521	59.05
383.731	118.44
383.941	87.72
384.151	102.06
384.361	50.86
384.571	81.58
384.781	102.06
384.991	67.24
385.201	132.78
385.411	81.58
385.621	57
385.831	26.28
386.041	100.01
386.251	75.43
386.461	79.53
386.671	63.15
386.881	28.33
387.091	40.62
387.301	46.76
387.511	63.15
387.72	67.24
387.93	38.57
388.14	69.29
388.35	-6.49
388.56	20.14
388.769	79.53
388.979	32.43
389.189	44.71
389.399	61.1
389.609	11.95
389.818	124.58
390.028	44.71
390.238	155.3
390.447	5.8
390.657	61.1
390.867	67.24
391.076	85.67
391.286	69.29
391.496	11.95
391.705	73.39
391.915	161.45
392.125	134.82
392.334	87.72
392.544	79.53
392.753	87.72
392.963	30.38
393.172	3.75
393.382	38.57
393.591	75.43
393.801	59.05
394.01	75.43
394.22	116.39
394.429	67.24
394.639	67.24
394.848	100.01
395.058	-0.34
395.267	102.06
395.477	46.76
395.686	116.39
395.895	75.43
396.105	153.26
396.314	48.81
396.524	93.87
396.733	108.2
396.942	126.63
397.152	48.81
397.361	175.78
397.57	50.86
397.78	100.01
397.989	71.34
398.198	151.21
398.407	42.67
398.617	161.45
398.826	52.91
399.035	63.15
399.244	175.78
399.453	83.63
399.663	59.05
399.872	140.97
400.081	95.91
400.29	214.7
400.499	108.2
400.708	112.3
400.917	102.06
401.127	153.26
401.336	18.09
401.545	134.82
401.754	198.31
401.963	102.06
402.172	22.19
402.381	67.24
402.59	132.78
402.799	124.58
403.008	206.5
403.217	93.87
403.426	136.87
403.635	110.25
403.844	104.11
404.053	87.72
404.262	95.91
404.471	206.5
404.68	126.63
404.888	175.78
405.097	81.58
405.306	124.58
405.515	214.7
405.724	77.48
405.933	202.41
406.142	153.26
406.35	136.87
406.559	239.27
406.768	116.39
406.977	239.27
407.185	181.93
407.394	235.18
407.603	239.27
407.812	263.85
408.02	190.12
408.229	218.79
408.438	259.75
408.646	183.98
408.855	218.79
409.064	214.7
409.272	200.36
409.481	298.66
409.69	202.41
409.898	226.98
410.107	329.38
410.315	300.71
410.524	284.33
410.733	345.77
410.941	284.33
411.15	446.12
411.358	356.01
411.567	468.64
411.775	313
411.984	427.68
412.192	366.25
412.401	437.92
412.609	513.7
412.818	439.97
413.026	454.31
413.234	458.4
413.443	503.46
413.651	452.26
413.86	456.36
414.068	579.23
414.276	579.23
414.485	534.18
414.693	642.72
414.901	616.1
415.11	648.86
415.318	685.73
415.526	663.2
415.734	726.69
415.943	779.93
416.151	798.37
416.359	839.33
416.567	845.47
416.776	747.17
416.984	820.89
417.192	911
417.4	896.67
417.608	878.24
417.817	919.2
418.025	1095.32
418.233	1078.94
418.441	986.78
418.649	1109.66
418.857	1193.62
419.065	1296.02
419.273	1212.06
419.481	1257.11
419.689	1347.22
419.897	1388.18
420.105	1466
420.313	1513.11
420.521	1492.63
420.729	1566.35
420.937	1566.35
421.145	1701.52
421.353	1742.48
421.561	1738.38
421.769	1877.65
421.977	1861.26
422.185	1762.96
422.393	1871.5
422.601	2156.17
422.809	2143.88
423.017	2180.75
423.224	2197.13
423.432	2213.51
423.64	2291.34
423.848	2598.53
424.056	2418.31
424.263	2631.3
424.471	2664.07
424.679	2717.31
424.887	2969.21
425.094	2983.55
425.302	2969.21
425.51	3010.17
425.718	3133.05
425.925	3208.83
426.133	3282.55
426.341	3475.06
426.548	3622.52
426.756	3556.98
426.964	3733.11
427.171	3841.65
427.379	4073.07
427.586	3896.94
427.794	4118.12
428.001	4388.46
428.209	4587.11
428.417	4568.68
428.624	4824.67
428.832	4736.61
429.039	4802.15
429.247	4687.46
429.454	5297.75
429.662	5455.45
429.869	5271.13
430.076	5576.28
430.284	5445.21
430.491	5746.26
430.699	5852.75
430.906	5867.09
431.114	6116.94
431.321	6461
431.528	6542.92
431.736	6778.44
431.943	7104.06
432.15	6909.51
432.358	7130.69
432.565	7333.43
432.772	7259.71
432.979	7712.31
433.187	7824.95
433.394	7718.45
433.601	8218.16
433.808	8547.88
434.016	8455.72
434.223	8664.61
434.43	9328.16
434.637	9014.82
434.844	9659.93
435.052	9801.24
435.259	9891.35
435.466	9834
435.673	9897.49
435.88	10464.78
436.087	11122.18
436.294	10679.82
436.501	10667.53
436.708	10749.45
436.915	11216.38
437.122	11701.75
437.329	11793.91
437.537	12123.63
437.743	12322.29
437.95	12242.42
438.157	12502.51
438.364	13372.89
438.571	13430.24
438.778	13395.42
438.985	14460.37
439.192	13954.52
439.399	14513.61
439.606	13925.85
439.813	14898.63
440.02	15766.97
440.227	15769.02
440.433	15037.89
440.64	15855.03
440.847	15562.17
441.054	16041.4
441.261	17081.77
441.467	16942.5
441.674	17321.38
441.881	17843.61
442.088	17880.47
442.294	17610.14
442.501	18212.24
442.708	18331.03
442.914	19111.3
443.121	19932.54
443.328	19463.55
443.534	20923.76
443.741	20184.44
443.948	19584.38
444.154	21400.93
444.361	21419.36
444.568	21273.96
444.774	21513.57
444.981	21599.59
445.187	22179.16
445.394	23428.42
445.6	23197
445.807	25109.8
446.013	24218.94
446.22	24483.13
446.426	25578.79
446.633	25689.38
446.839	26500.37
447.046	25269.55
447.252	26696.98
447.459	26828.05
447.665	26869.01
447.871	28007.68
448.078	29119.73
448.284	27614.47
448.491	28568.82
448.697	29672.68
448.903	30358.75
449.11	30332.12
449.316	29859.04
449.522	30225.63
449.728	31200.46
449.935	31282.38
450.141	31128.78
450.347	32234.69
450.553	31499.47
450.76	31548.62
450.966	32580.79
451.172	32126.14
451.378	33596.59
451.584	32449.72
451.791	33135.79
451.997	32990.39
452.203	33395.89
452.409	33739.94
452.615	33418.41
452.821	32529.59
453.027	31853.76
453.233	33414.32
453.44	32498.87
453.646	32933.04
453.852	32912.56
454.058	33563.82
454.264	32664.76
454.47	33017.01
454.676	32652.47
454.882	33369.26
455.088	30627.03
455.294	31067.34
455.5	31427.79
455.705	32128.19
455.911	30465.24
456.117	30270.68
456.323	29852.9
456.529	28308.73
456.735	29357.29
456.941	28695.8
457.147	27909.38
457.352	27499.78
457.558	27247.88
457.764	27514.12
457.97	26608.92
458.176	26268.95
458.381	26447.13
458.587	24640.82
458.793	24993.07
458.999	23690.56
459.204	25429.29
459.41	24624.43
459.616	22873.42
459.821	23283.02
460.027	23283.02
460.233	22426.96
460.438	21484.9
460.644	21697.89
460.85	20675.95
461.055	20370.8
461.261	20596.08
461.466	18734.48
461.672	18193.81
461.878	19699.07
462.083	18240.92
462.289	17769.88
462.494	17626.53
462.7	17118.63
462.905	16522.67
463.111	17227.17
463.316	17139.11
463.522	16543.15
463.727	16713.13
463.932	16645.55
464.138	16364.98
464.343	16639.4
464.549	16211.38
464.754	16674.22
464.959	16606.64
465.165	16399.79
465.37	15674.81
465.575	15386.05
465.781	15844.79
465.986	15945.14
466.191	15279.55
466.397	15064.52
466.602	14314.96
466.807	14919.11
467.012	14810.57
467.218	14712.27
467.423	14636.49
467.628	14923.21
467.833	15355.33
