Data from USB4F104151__71__14-43-21-697.txt Node

Date: Thu Mar 13 14:43:21 EDT 2025
User: louis
Spectrometer: USB4F10415
Trigger mode: 4
Integration Time (sec): 2.000000E-2
Scans to average: 1
Electric dark correction enabled: true
Nonlinearity correction enabled: false
Boxcar width: 0
XAxis mode: Wavelengths
Number of Pixels in Spectrum: 3648
>>>>>Begin Spectral Data<<<<<
178.204	-176.98
178.424	-176.98
178.644	-176.98
178.864	-119.64
179.084	-111.44
179.304	-31.57
179.524	79.02
179.744	25.77
179.964	68.78
180.184	-82.77
180.404	-23.38
180.624	-31.57
180.844	11.43
181.064	-7
181.283	-31.57
181.503	-15.19
181.723	38.06
181.943	-121.68
182.163	44.2
182.383	-27.48
182.602	11.43
182.822	38.06
183.042	134.31
183.262	-13.14
183.482	1.19
183.701	60.59
183.921	17.58
184.141	-39.76
184.361	42.15
184.58	29.87
184.8	74.92
185.02	13.48
185.239	66.73
185.459	-35.67
185.679	25.77
185.898	5.29
186.118	-39.76
186.338	-27.48
186.557	25.77
186.777	-39.76
186.997	19.63
187.216	21.67
187.436	169.13
187.655	117.93
187.875	50.35
188.095	7.34
188.314	56.49
188.534	66.73
188.753	13.48
188.973	1.19
189.192	52.39
189.412	1.19
189.631	46.25
189.851	11.43
190.07	52.39
190.29	-19.29
190.509	-0.85
190.729	-64.34
190.948	68.78
191.168	117.93
191.387	38.06
191.607	-47.96
191.826	42.15
192.045	46.25
192.265	74.92
192.484	-37.72
192.704	44.2
192.923	13.48
193.142	107.69
193.362	56.49
193.581	58.54
193.8	44.2
194.02	54.44
194.239	-103.25
194.458	-4.95
194.678	27.82
194.897	-41.81
195.116	54.44
195.335	44.2
195.555	-7
195.774	25.77
195.993	56.49
196.212	27.82
196.432	-37.72
196.651	42.15
196.87	-11.09
197.089	-7
197.308	44.2
197.528	1.19
197.747	-29.52
197.966	-11.09
198.185	33.96
198.404	-17.24
198.623	74.92
198.842	74.92
199.062	50.35
199.281	25.77
199.5	9.39
199.719	33.96
199.938	85.16
200.157	81.07
200.376	-47.96
200.595	103.59
200.814	68.78
201.033	19.63
201.252	33.96
201.471	-2.9
201.69	50.35
201.909	66.73
202.128	-9.05
202.347	54.44
202.566	13.48
202.785	-78.68
203.004	-15.19
203.223	79.02
203.442	-41.81
203.661	25.77
203.879	11.43
204.098	31.91
204.317	-33.62
204.536	58.54
204.755	13.48
204.974	3.24
205.193	38.06
205.411	58.54
205.63	81.07
205.849	-9.05
206.068	60.59
206.287	83.11
206.505	-21.33
206.724	-54.1
206.943	17.58
207.162	33.96
207.381	-50
207.599	-29.52
207.818	17.58
208.037	1.19
208.255	-41.81
208.474	50.35
208.693	-2.9
208.911	-50
209.13	13.48
209.349	44.2
209.567	-7
209.786	33.96
210.005	58.54
210.223	23.72
210.442	-41.81
210.661	-4.95
210.879	54.44
211.098	33.96
211.316	19.63
211.535	58.54
211.753	9.39
211.972	-2.9
212.191	-2.9
212.409	56.49
212.628	17.58
212.846	-82.77
213.065	-68.44
213.283	91.31
213.502	-2.9
213.72	85.16
213.938	25.77
214.157	11.43
214.375	23.72
214.594	23.72
214.812	-25.43
215.031	-2.9
215.249	13.48
215.467	58.54
215.686	91.31
215.904	19.63
216.122	-21.33
216.341	76.97
216.559	21.67
216.778	9.39
216.996	25.77
217.214	-29.52
217.432	-37.72
217.651	5.29
217.869	-23.38
218.087	50.35
218.306	-29.52
218.524	25.77
218.742	17.58
218.96	-19.29
219.179	25.77
219.397	-15.19
219.615	36.01
219.833	-41.81
220.051	79.02
220.27	119.98
220.488	1.19
220.706	42.15
220.924	-52.05
221.142	-31.57
221.36	-33.62
221.578	-39.76
221.796	23.72
222.015	60.59
222.233	81.07
222.451	25.77
222.669	-2.9
222.887	72.87
223.105	-31.57
223.323	33.96
223.541	-70.48
223.759	-21.33
223.977	33.96
224.195	44.2
224.413	66.73
224.631	25.77
224.849	9.39
225.067	54.44
225.285	70.83
225.503	21.67
225.721	-70.48
225.939	50.35
226.157	27.82
226.375	136.36
226.592	42.15
226.81	50.35
227.028	21.67
227.246	33.96
227.464	31.91
227.682	66.73
227.9	68.78
228.117	70.83
228.335	38.06
228.553	9.39
228.771	-25.43
228.989	-4.95
229.206	-37.72
229.424	21.67
229.642	23.72
229.86	-15.19
230.077	74.92
230.295	72.87
230.513	54.44
230.731	52.39
230.948	58.54
231.166	74.92
231.384	9.39
231.601	17.58
231.819	132.26
232.037	68.78
232.254	-101.2
232.472	1.19
232.689	-0.85
232.907	-2.9
233.125	7.34
233.342	-78.68
233.56	44.2
233.777	33.96
233.995	29.87
234.213	-11.09
234.43	19.63
234.648	21.67
234.865	-23.38
235.083	93.35
235.3	-21.33
235.518	17.58
235.735	11.43
235.953	50.35
236.17	-21.33
236.388	-15.19
236.605	36.01
236.822	44.2
237.04	60.59
237.257	29.87
237.475	-37.72
237.692	66.73
237.909	17.58
238.127	15.53
238.344	81.07
238.562	9.39
238.779	19.63
238.996	9.39
239.214	42.15
239.431	107.69
239.648	-13.14
239.865	44.2
240.083	3.24
240.3	3.24
240.517	-97.11
240.735	54.44
240.952	124.07
241.169	87.21
241.386	-9.05
241.603	-0.85
241.821	-62.29
242.038	60.59
242.255	29.87
242.472	-11.09
242.689	-11.09
242.907	-56.15
243.124	17.58
243.341	-13.14
243.558	-29.52
243.775	-39.76
243.992	-9.05
244.209	1.19
244.426	9.39
244.643	58.54
244.86	-64.34
245.078	66.73
245.295	21.67
245.512	-54.1
245.729	-35.67
245.946	17.58
246.163	31.91
246.38	79.02
246.597	-19.29
246.814	17.58
247.031	1.19
247.248	25.77
247.464	-4.95
247.681	1.19
247.898	-4.95
248.115	-37.72
248.332	-13.14
248.549	29.87
248.766	54.44
248.983	29.87
249.2	11.43
249.417	74.92
249.633	-11.09
249.85	-21.33
250.067	17.58
250.284	17.58
250.501	-11.09
250.717	79.02
250.934	1.19
251.151	-11.09
251.368	-29.52
251.585	54.44
251.801	-2.9
252.018	-56.15
252.235	-2.9
252.451	33.96
252.668	3.24
252.885	25.77
253.102	-23.38
253.318	60.59
253.535	38.06
253.752	91.31
253.968	36.01
254.185	-11.09
254.401	-35.67
254.618	11.43
254.835	54.44
255.051	58.54
255.268	19.63
255.484	-17.24
255.701	-15.19
255.917	62.63
256.134	52.39
256.351	13.48
256.567	17.58
256.784	50.35
257	-9.05
257.217	-2.9
257.433	74.92
257.65	-19.29
257.866	42.15
258.082	-23.38
258.299	9.39
258.515	87.21
258.732	-27.48
258.948	9.39
259.165	17.58
259.381	-4.95
259.597	27.82
259.814	15.53
260.03	76.97
260.246	-15.19
260.463	76.97
260.679	68.78
260.895	23.72
261.112	-23.38
261.328	5.29
261.544	-2.9
261.761	107.69
261.977	44.2
262.193	11.43
262.409	113.83
262.626	-23.38
262.842	70.83
263.058	-7
263.274	40.11
263.49	97.45
263.707	62.63
263.923	42.15
264.139	21.67
264.355	52.39
264.571	105.64
264.787	62.63
265.004	-7
265.22	44.2
265.436	-64.34
265.652	-39.76
265.868	21.67
266.084	21.67
266.3	107.69
266.516	-43.86
266.732	-2.9
266.948	33.96
267.164	99.5
267.38	5.29
267.596	9.39
267.812	29.87
268.028	-7
268.244	42.15
268.46	-29.52
268.676	-15.19
268.892	17.58
269.108	-31.57
269.324	19.63
269.54	-7
269.756	11.43
269.972	-78.68
270.188	23.72
270.403	-41.81
270.619	44.2
270.835	60.59
271.051	33.96
271.267	-37.72
271.483	5.29
271.698	58.54
271.914	44.2
272.13	1.19
272.346	-9.05
272.562	38.06
272.777	-4.95
272.993	1.19
273.209	-35.67
273.425	68.78
273.64	-56.15
273.856	25.77
274.072	87.21
274.287	11.43
274.503	44.2
274.719	-21.33
274.934	-31.57
275.15	9.39
275.366	103.59
275.581	1.19
275.797	27.82
276.012	50.35
276.228	29.87
276.444	13.48
276.659	79.02
276.875	-41.81
277.09	38.06
277.306	81.07
277.521	13.48
277.737	7.34
277.952	27.82
278.168	-66.39
278.383	15.53
278.599	-54.1
278.814	62.63
279.03	27.82
279.245	50.35
279.461	-21.33
279.676	-31.57
279.892	-23.38
280.107	-17.24
280.322	42.15
280.538	54.44
280.753	58.54
280.969	19.63
281.184	40.11
281.399	66.73
281.615	21.67
281.83	72.87
282.045	-9.05
282.26	-19.29
282.476	66.73
282.691	21.67
282.906	-31.57
283.122	-2.9
283.337	58.54
283.552	-27.48
283.767	-2.9
283.983	66.73
284.198	21.67
284.413	19.63
284.628	-37.72
284.843	44.2
285.058	-80.72
285.274	56.49
285.489	-4.95
285.704	9.39
285.919	-60.24
286.134	-7
286.349	5.29
286.564	-4.95
286.779	11.43
286.995	-64.34
287.21	-35.67
287.425	17.58
287.64	3.24
287.855	25.77
288.07	42.15
288.285	93.35
288.5	66.73
288.715	-7
288.93	-4.95
289.145	-2.9
289.36	33.96
289.575	-27.48
289.79	-0.85
290.004	-0.85
290.219	42.15
290.434	58.54
290.649	17.58
290.864	-37.72
291.079	25.77
291.294	107.69
291.509	54.44
291.724	62.63
291.938	3.24
292.153	-19.29
292.368	17.58
292.583	17.58
292.798	68.78
293.012	85.16
293.227	9.39
293.442	66.73
293.657	17.58
293.871	17.58
294.086	95.4
294.301	85.16
294.516	5.29
294.73	-2.9
294.945	21.67
295.16	23.72
295.374	25.77
295.589	25.77
295.804	-11.09
296.018	25.77
296.233	3.24
296.447	74.92
296.662	9.39
296.877	3.24
297.091	3.24
297.306	27.82
297.52	36.01
297.735	-19.29
297.949	23.72
298.164	-9.05
298.378	1.19
298.593	46.25
298.807	-37.72
299.022	74.92
299.236	72.87
299.451	-17.24
299.665	48.3
299.88	83.11
300.094	119.98
300.309	3.24
300.523	-2.9
300.737	-7
300.952	17.58
301.166	29.87
301.381	17.58
301.595	60.59
301.809	-17.24
302.024	52.39
302.238	-88.92
302.452	62.63
302.667	38.06
302.881	13.48
303.095	38.06
303.309	50.35
303.524	44.2
303.738	3.24
303.952	-35.67
304.166	33.96
304.381	-43.86
304.595	68.78
304.809	60.59
305.023	36.01
305.237	-39.76
305.452	23.72
305.666	58.54
305.88	29.87
306.094	3.24
306.308	54.44
306.522	33.96
306.736	48.3
306.95	21.67
307.164	1.19
307.379	58.54
307.593	101.55
307.807	89.26
308.021	76.97
308.235	-13.14
308.449	-15.19
308.663	1.19
308.877	134.31
309.091	9.39
309.305	44.2
309.519	15.53
309.733	31.91
309.947	17.58
310.161	27.82
310.374	17.58
310.588	19.63
310.802	-23.38
311.016	17.58
311.23	17.58
311.444	-50
311.658	-15.19
311.872	87.21
312.085	25.77
312.299	87.21
312.513	83.11
312.727	1.19
312.941	17.58
313.154	33.96
313.368	11.43
313.582	52.39
313.796	-31.57
314.009	54.44
314.223	9.39
314.437	1.19
314.651	-31.57
314.864	17.58
315.078	17.58
315.292	50.35
315.505	-7
315.719	58.54
315.933	36.01
316.146	-31.57
316.36	-31.57
316.573	1.19
316.787	-7
317.001	33.96
317.214	40.11
317.428	13.48
317.641	66.73
317.855	-7
318.068	48.3
318.282	17.58
318.495	21.67
318.709	40.11
318.922	-21.33
319.136	76.97
319.349	68.78
319.563	52.39
319.776	42.15
319.99	21.67
320.203	74.92
320.417	42.15
320.63	27.82
320.843	46.25
321.057	25.77
321.27	3.24
321.483	109.74
321.697	13.48
321.91	-7
322.124	56.49
322.337	9.39
322.55	13.48
322.763	74.92
322.977	31.91
323.19	19.63
323.403	17.58
323.617	46.25
323.83	3.24
324.043	44.2
324.256	58.54
324.469	-0.85
324.683	91.31
324.896	13.48
325.109	1.19
325.322	-72.53
325.535	50.35
325.748	117.93
325.962	23.72
326.175	64.68
326.388	21.67
326.601	-7
326.814	1.19
327.027	11.43
327.24	3.24
327.453	-58.2
327.666	42.15
327.879	99.5
328.092	150.7
328.305	-4.95
328.518	21.67
328.731	-43.86
328.944	27.82
329.157	-35.67
329.37	-35.67
329.583	79.02
329.796	-4.95
330.009	-62.29
330.222	128.17
330.435	31.91
330.648	9.39
330.861	56.49
331.073	3.24
331.286	36.01
331.499	-7
331.712	1.19
331.925	-11.09
332.138	52.39
332.35	109.74
332.563	3.24
332.776	54.44
332.989	9.39
333.202	85.16
333.414	33.96
333.627	66.73
333.84	-31.57
334.053	7.34
334.265	29.87
334.478	1.19
334.691	19.63
334.903	15.53
335.116	19.63
335.329	33.96
335.541	11.43
335.754	25.77
335.966	-15.19
336.179	27.82
336.392	50.35
336.604	-29.52
336.817	31.91
337.029	109.74
337.242	36.01
337.454	64.68
337.667	52.39
337.88	44.2
338.092	-56.15
338.305	19.63
338.517	60.59
338.729	40.11
338.942	58.54
339.154	74.92
339.367	19.63
339.579	58.54
339.792	-37.72
340.004	-35.67
340.217	9.39
340.429	17.58
340.641	1.19
340.854	38.06
341.066	-31.57
341.278	29.87
341.491	79.02
341.703	21.67
341.915	9.39
342.128	83.11
342.34	15.53
342.552	7.34
342.764	15.53
342.977	21.67
343.189	50.35
343.401	-27.48
343.613	44.2
343.826	54.44
344.038	-15.19
344.25	-62.29
344.462	23.72
344.674	3.24
344.886	62.63
345.099	-15.19
345.311	74.92
345.523	17.58
345.735	54.44
345.947	68.78
346.159	7.34
346.371	60.59
346.583	38.06
346.795	122.02
347.007	85.16
347.219	11.43
347.431	25.77
347.643	91.31
347.855	-82.77
348.067	7.34
348.279	-23.38
348.491	58.54
348.703	23.72
348.915	5.29
349.127	113.83
349.339	25.77
349.551	-19.29
349.763	11.43
349.975	19.63
350.187	33.96
350.399	124.07
350.61	99.5
350.822	-45.91
351.034	-4.95
351.246	79.02
351.458	56.49
351.669	50.35
351.881	103.59
352.093	62.63
352.305	29.87
352.517	19.63
352.728	85.16
352.94	-7
353.152	52.39
353.363	62.63
353.575	95.4
353.787	3.24
353.999	29.87
354.21	50.35
354.422	-2.9
354.633	-13.14
354.845	21.67
355.057	5.29
355.268	64.68
355.48	29.87
355.692	11.43
355.903	-31.57
356.115	9.39
356.326	-2.9
356.538	60.59
356.749	29.87
356.961	103.59
357.172	33.96
357.384	56.49
357.595	91.31
357.807	95.4
358.018	-43.86
358.23	70.83
358.441	79.02
358.653	60.59
358.864	17.58
359.075	3.24
359.287	19.63
359.498	62.63
359.709	25.77
359.921	33.96
360.132	29.87
360.344	1.19
360.555	7.34
360.766	-37.72
360.977	-7
361.189	25.77
361.4	-31.57
361.611	74.92
361.823	113.83
362.034	3.24
362.245	-25.43
362.456	25.77
362.667	-47.96
362.879	50.35
363.09	74.92
363.301	29.87
363.512	-45.91
363.723	-27.48
363.935	-0.85
364.146	91.31
364.357	11.43
364.568	54.44
364.779	3.24
364.99	74.92
365.201	17.58
365.412	19.63
365.623	25.77
365.834	58.54
366.045	38.06
366.256	38.06
366.467	95.4
366.678	31.91
366.889	-21.33
367.1	62.63
367.311	29.87
367.522	21.67
367.733	44.2
367.944	50.35
368.155	21.67
368.366	50.35
368.577	91.31
368.788	46.25
368.999	-23.38
369.209	72.87
369.42	29.87
369.631	25.77
369.842	42.15
370.053	5.29
370.264	21.67
370.474	1.19
370.685	-27.48
370.896	50.35
371.107	79.02
371.317	70.83
371.528	42.15
371.739	11.43
371.95	17.58
372.16	-37.72
372.371	70.83
372.582	3.24
372.792	83.11
373.003	50.35
373.214	83.11
373.424	9.39
373.635	-31.57
373.846	70.83
374.056	99.5
374.267	103.59
374.477	95.4
374.688	-11.09
374.898	44.2
375.109	33.96
375.319	-23.38
375.53	-11.09
375.74	-4.95
375.951	17.58
376.161	60.59
376.372	50.35
376.582	74.92
376.793	1.19
377.003	-13.14
377.214	5.29
377.424	9.39
377.635	1.19
377.845	-31.57
378.055	76.97
378.266	13.48
378.476	60.59
378.686	-2.9
378.897	68.78
379.107	87.21
379.317	17.58
379.528	70.83
379.738	83.11
379.948	-47.96
380.158	-43.86
380.369	36.01
380.579	29.87
380.789	-80.72
380.999	76.97
381.21	79.02
381.42	99.5
381.63	33.96
381.84	124.07
382.05	27.82
382.261	31.91
382.471	52.39
382.681	72.87
382.891	99.5
383.101	50.35
383.311	52.39
383.521	36.01
383.731	29.87
383.941	68.78
384.151	81.07
384.361	74.92
384.571	36.01
384.781	3.24
384.991	93.35
385.201	66.73
385.411	17.58
385.621	95.4
385.831	42.15
386.041	74.92
386.251	36.01
386.461	11.43
386.671	9.39
386.881	36.01
387.091	15.53
387.301	-2.9
387.511	46.25
387.72	115.88
387.93	33.96
388.14	66.73
388.35	-2.9
388.56	17.58
388.769	74.92
388.979	27.82
389.189	15.53
389.399	95.4
389.609	29.87
389.818	50.35
390.028	13.48
390.238	58.54
390.447	-0.85
390.657	83.11
390.867	74.92
391.076	9.39
391.286	25.77
391.496	83.11
391.705	97.45
391.915	64.68
392.125	183.46
392.334	17.58
392.544	25.77
392.753	85.16
392.963	40.11
393.172	42.15
393.382	27.82
393.591	109.74
393.801	48.3
394.01	91.31
394.22	42.15
394.429	42.15
394.639	83.11
394.848	66.73
395.058	74.92
395.267	-17.24
395.477	74.92
395.686	72.87
395.895	107.69
396.105	76.97
396.314	25.77
396.524	44.2
396.733	21.67
396.942	91.31
397.152	107.69
397.361	50.35
397.57	42.15
397.78	93.35
397.989	27.82
398.198	138.41
398.407	15.53
398.617	-4.95
398.826	66.73
399.035	56.49
399.244	79.02
399.453	-21.33
399.663	74.92
399.872	109.74
400.081	-21.33
400.29	122.02
400.499	105.64
400.708	148.65
400.917	91.31
401.127	27.82
401.336	113.83
401.545	169.13
401.754	179.37
401.963	60.59
402.172	95.4
402.381	83.11
402.59	25.77
402.799	64.68
403.008	124.07
403.217	117.93
403.426	66.73
403.635	173.22
403.844	165.03
404.053	33.96
404.262	83.11
404.471	208.04
404.68	99.5
404.888	152.74
405.097	83.11
405.306	134.31
405.515	105.64
405.724	124.07
405.933	113.83
406.142	134.31
406.35	173.22
406.559	74.92
406.768	107.69
406.977	205.99
407.185	197.8
407.394	222.38
407.603	62.63
407.812	140.46
408.02	142.5
408.229	167.08
408.438	189.61
408.646	167.08
408.855	234.66
409.064	169.13
409.272	201.9
409.481	162.98
409.69	216.23
409.898	134.31
410.107	232.62
410.315	298.15
410.524	199.85
410.733	271.53
410.941	210.09
411.15	296.1
411.358	236.71
411.567	238.76
411.775	257.19
411.984	226.47
412.192	345.25
412.401	289.96
412.609	353.45
412.818	353.45
413.026	339.11
413.234	306.34
413.443	349.35
413.651	392.36
413.86	369.83
414.068	427.17
414.276	457.89
414.485	447.65
414.693	418.98
414.901	515.23
415.11	461.99
415.318	447.65
415.526	494.76
415.734	500.9
415.943	611.49
416.151	644.26
416.359	613.54
416.567	648.35
416.776	591.01
416.984	693.41
417.192	728.22
417.4	644.26
417.608	701.6
417.817	742.56
418.025	742.56
418.233	814.24
418.441	857.25
418.649	808.09
418.857	906.4
419.065	926.88
419.273	824.48
419.481	1041.56
419.689	1027.23
419.897	1135.77
420.105	1090.71
420.313	1109.15
420.521	1225.88
420.729	1172.63
420.937	1152.15
421.145	1275.03
421.353	1281.18
421.561	1393.81
421.769	1315.99
421.977	1483.92
422.185	1451.16
422.393	1528.98
422.601	1705.1
422.809	1598.61
423.017	1574.03
423.224	1762.45
423.432	1762.45
423.64	1811.6
423.848	1967.24
424.056	1864.85
424.263	2012.3
424.471	2110.6
424.679	2159.75
424.887	2131.08
425.094	2323.59
425.302	2174.09
425.51	2331.78
425.718	2393.22
425.925	2428.04
426.133	2479.24
426.341	2624.64
426.548	2772.1
426.756	2729.09
426.964	2788.48
427.171	2989.18
427.379	3050.62
427.586	3048.57
427.794	3239.03
428.001	3368.06
428.209	3447.93
428.417	3509.37
428.624	3785.84
428.832	3601.52
429.039	3630.2
429.247	3650.67
429.454	3906.67
429.662	4183.15
429.869	4035.69
430.076	4224.11
430.284	4236.39
430.491	4236.39
430.699	4660.32
430.906	4658.28
431.114	4555.88
431.321	4838.5
431.528	4947.04
431.736	5065.82
431.943	5612.63
432.15	5147.74
432.358	5473.37
432.565	5571.67
432.772	5712.98
432.979	5852.24
433.187	5917.78
433.394	5964.88
433.601	6491.21
433.808	6397
434.016	6366.28
434.223	6691.91
434.43	7070.78
434.637	7001.15
434.844	7390.27
435.052	7539.77
435.259	7580.73
435.466	7660.6
435.673	7490.62
435.88	8016.94
436.087	8383.53
436.294	8338.48
436.501	8133.68
436.708	8047.66
436.915	8639.53
437.122	9053.22
437.329	9102.37
437.537	9370.65
437.743	9497.63
437.95	9264.16
438.157	9747.48
438.364	10089.49
438.571	10124.3
438.778	10298.38
438.985	11224.06
439.192	10812.42
439.399	11103.23
439.606	10832.9
439.813	11392
440.02	12071.92
440.227	11783.16
440.433	11738.1
440.64	12192.75
440.847	11924.47
441.054	12289.01
441.261	13200.35
441.467	13140.96
441.674	13093.86
441.881	13818.84
442.088	13743.06
442.294	13646.81
442.501	13845.46
442.708	14210
442.914	14805.96
443.121	15180.74
443.328	14930.89
443.534	15997.88
443.741	15254.47
443.948	15281.09
444.154	16364.46
444.361	16288.69
444.568	16436.14
444.774	16346.03
444.981	16466.86
445.187	17284
445.394	17810.33
445.6	17675.16
445.807	19360.64
446.013	18604.94
446.22	18824.08
446.426	19436.42
446.633	19698.56
446.839	20341.62
447.046	19430.27
447.252	20822.89
447.459	20802.41
447.665	20925.29
447.871	21558.11
448.078	22422.36
448.284	21633.89
448.491	21916.51
448.697	22928.2
448.903	23429.96
449.11	23194.44
449.316	23112.52
449.522	23284.55
449.728	24410.93
449.935	24367.93
450.141	24197.95
450.347	24763.18
450.553	23989.05
450.76	24394.55
450.966	25256.75
451.172	24967.98
451.378	25727.78
451.584	24955.69
451.791	26086.17
451.997	25525.03
452.203	26184.48
452.409	26252.06
452.615	25793.31
452.821	24957.74
453.027	25060.14
453.233	26129.18
453.44	25309.99
453.646	25514.79
453.852	25563.94
454.058	25916.19
454.264	25434.92
454.47	25752.35
454.676	25150.25
454.882	26170.14
455.088	23845.69
455.294	24380.21
455.5	24499
455.705	25119.53
455.911	23626.56
456.117	23712.58
456.323	22958.92
456.529	21676.9
456.735	23311.17
456.941	22088.54
457.147	22027.1
457.352	21351.27
457.558	21377.89
457.764	21381.99
457.97	21054.31
458.176	20224.89
458.381	20300.66
458.587	19592.06
458.793	19499.91
458.999	18416.53
459.204	19843.96
459.41	19213.19
459.616	18045.85
459.821	18078.61
460.027	18119.57
460.233	17593.25
460.438	16737.2
460.644	17058.73
460.85	16188.34
461.055	15813.56
461.261	15901.62
461.466	14642.12
461.672	14203.86
461.878	15172.55
462.083	14320.59
462.289	14132.18
462.494	13851.61
462.7	13210.59
462.905	12954.6
463.111	13487.07
463.316	13341.66
463.522	13222.88
463.727	13059.04
463.932	13044.71
464.138	13186.02
464.343	12983.27
464.549	12633.07
464.754	12917.73
464.959	12911.59
465.165	12729.32
465.37	12217.33
465.575	11981.81
465.781	12366.83
465.986	12381.17
466.191	11996.15
466.397	11903.99
466.602	11183.1
466.807	11551.74
467.012	11717.62
467.218	11627.51
467.423	11371.52
467.628	11451.39
467.833	11686.9
468.038	11461.63
468.244	11119.62
468.449	11650.04
