Data from USB4F104151__65__14-43-17-458.txt Node

Date: Thu Mar 13 14:43:17 EDT 2025
User: louis
Spectrometer: USB4F10415
Trigger mode: 4
Integration Time (sec): 2.000000E-2
Scans to average: 1
Electric dark correction enabled: true
Nonlinearity correction enabled: false
Boxcar width: 0
XAxis mode: Wavelengths
Number of Pixels in Spectrum: 3648
>>>>>Begin Spectral Data<<<<<
178.204	-106.67
178.424	-106.67
178.644	-106.67
178.864	-55.47
179.084	-125.1
179.304	-90.28
179.524	12.12
179.744	-0.17
179.964	71.51
180.184	16.21
180.404	-18.6
180.624	-34.99
180.844	18.26
181.064	-6.31
181.283	-18.6
181.503	46.93
181.723	3.93
181.943	-22.7
182.163	14.17
182.383	57.17
182.602	63.32
182.822	-12.46
183.042	-8.36
183.262	51.03
183.482	55.12
183.701	-43.18
183.921	-10.41
184.141	71.51
184.361	-51.37
184.58	14.17
184.8	40.79
185.02	22.36
185.239	22.36
185.459	10.07
185.679	85.84
185.898	-18.6
186.118	73.56
186.338	8.02
186.557	116.56
186.777	14.17
186.997	10.07
187.216	-18.6
187.436	30.55
187.655	44.88
187.875	120.66
188.095	89.94
188.314	55.12
188.534	114.52
188.753	28.5
188.973	63.32
189.192	112.47
189.412	63.32
189.631	-6.31
189.851	75.6
190.07	61.27
190.29	-8.36
190.509	16.21
190.729	-43.18
190.948	-4.27
191.168	114.52
191.387	1.88
191.607	1.88
191.826	-18.6
192.045	-24.75
192.265	67.41
192.484	-28.84
192.704	24.4
192.923	18.26
193.142	83.8
193.362	-18.6
193.581	55.12
193.8	40.79
194.02	18.26
194.239	46.93
194.458	5.97
194.678	71.51
194.897	14.17
195.116	32.6
195.335	87.89
195.555	59.22
195.774	-10.41
195.993	81.75
196.212	87.89
196.432	14.17
196.651	79.7
196.87	-2.22
197.089	112.47
197.308	32.6
197.528	102.23
197.747	16.21
197.966	38.74
198.185	96.08
198.404	51.03
198.623	46.93
198.842	130.9
199.062	57.17
199.281	126.8
199.5	57.17
199.719	51.03
199.938	1.88
200.157	26.45
200.376	67.41
200.595	61.27
200.814	63.32
201.033	55.12
201.252	124.76
201.471	89.94
201.69	104.28
201.909	-0.17
202.128	-8.36
202.347	38.74
202.566	55.12
202.785	22.36
203.004	5.97
203.223	100.18
203.442	104.28
203.661	46.93
203.879	22.36
204.098	46.93
204.317	24.4
204.536	26.45
204.755	65.36
204.974	71.51
205.193	24.4
205.411	71.51
205.63	165.71
205.849	96.08
206.068	32.6
206.287	-0.17
206.505	16.21
206.724	-18.6
206.943	42.84
207.162	46.93
207.381	65.36
207.599	63.32
207.818	22.36
208.037	71.51
208.255	71.51
208.474	55.12
208.693	10.07
208.911	89.94
209.13	32.6
209.349	24.4
209.567	38.74
209.786	71.51
210.005	5.97
210.223	28.5
210.442	-49.32
210.661	-84.14
210.879	28.5
211.098	-10.41
211.316	-26.79
211.535	5.97
211.753	22.36
211.972	-10.41
212.191	10.07
212.409	63.32
212.628	57.17
212.846	-10.41
213.065	65.36
213.283	104.28
213.502	81.75
213.72	71.51
213.938	55.12
214.157	14.17
214.375	122.71
214.594	-4.27
214.812	124.76
215.031	-18.6
215.249	55.12
215.467	87.89
215.686	34.64
215.904	100.18
216.122	14.17
216.341	79.7
216.559	145.24
216.778	89.94
216.996	71.51
217.214	3.93
217.432	22.36
217.651	24.4
217.869	63.32
218.087	14.17
218.306	-39.08
218.524	79.7
218.742	22.36
218.96	71.51
219.179	57.17
219.397	22.36
219.615	71.51
219.833	178
220.051	-63.66
220.27	128.85
220.488	40.79
220.706	48.98
220.924	122.71
221.142	26.45
221.36	30.55
221.578	38.74
221.796	22.36
222.015	34.64
222.233	-14.51
222.451	57.17
222.669	55.12
222.887	22.36
223.105	34.64
223.323	26.45
223.541	5.97
223.759	46.93
223.977	-51.37
224.195	22.36
224.413	-2.22
224.631	46.93
224.849	5.97
225.067	122.71
225.285	55.12
225.503	46.93
225.721	46.93
225.939	30.55
226.157	20.31
226.375	65.36
226.592	18.26
226.81	-80.04
227.028	65.36
227.246	139.09
227.464	96.08
227.682	-10.41
227.9	34.64
228.117	-22.7
228.335	40.79
228.553	40.79
228.771	65.36
228.989	128.85
229.206	26.45
229.424	3.93
229.642	122.71
229.86	22.36
230.077	102.23
230.295	16.21
230.513	16.21
230.731	10.07
230.948	94.04
231.166	83.8
231.384	94.04
231.601	139.09
231.819	40.79
232.037	-51.37
232.254	-71.85
232.472	83.8
232.689	14.17
232.907	73.56
233.125	14.17
233.342	-32.94
233.56	46.93
233.777	-8.36
233.995	106.32
234.213	81.75
234.43	30.55
234.648	98.13
234.865	26.45
235.083	48.98
235.3	38.74
235.518	59.22
235.735	20.31
235.953	48.98
236.17	-8.36
236.388	8.02
236.605	-6.31
236.822	100.18
237.04	91.99
237.257	85.84
237.475	30.55
237.692	32.6
237.909	5.97
238.127	10.07
238.344	8.02
238.562	42.84
238.779	73.56
238.996	-10.41
239.214	44.88
239.431	38.74
239.648	98.13
239.865	71.51
240.083	55.12
240.3	46.93
240.517	57.17
240.735	65.36
240.952	79.7
241.169	63.32
241.386	28.5
241.603	67.41
241.821	5.97
242.038	59.22
242.255	22.36
242.472	14.17
242.689	55.12
242.907	120.66
243.124	85.84
243.341	-8.36
243.558	-2.22
243.775	-10.41
243.992	87.89
244.209	42.84
244.426	96.08
244.643	24.4
244.86	38.74
245.078	-0.17
245.295	135
245.512	-16.55
245.729	104.28
245.946	14.17
246.163	32.6
246.38	71.51
246.597	-51.37
246.814	79.7
247.031	65.36
247.248	128.85
247.464	63.32
247.681	-6.31
247.898	112.47
248.115	18.26
248.332	-32.94
248.549	128.85
248.766	48.98
248.983	3.93
249.2	57.17
249.417	171.86
249.633	28.5
249.85	18.26
250.067	-32.94
250.284	-8.36
250.501	3.93
250.717	53.08
250.934	34.64
251.151	63.32
251.368	-41.13
251.585	8.02
251.801	-6.31
252.018	-26.79
252.235	102.23
252.451	26.45
252.668	26.45
252.885	71.51
253.102	22.36
253.318	38.74
253.535	-14.51
253.752	59.22
253.968	12.12
254.185	14.17
254.401	38.74
254.618	48.98
254.835	18.26
255.051	120.66
255.268	145.24
255.484	106.32
255.701	5.97
255.917	46.93
256.134	-39.08
256.351	36.69
256.567	8.02
256.784	-18.6
257	10.07
257.217	79.7
257.433	36.69
257.65	73.56
257.866	38.74
258.082	-59.56
258.299	18.26
258.515	30.55
258.732	34.64
258.948	1.88
259.165	63.32
259.381	3.93
259.597	48.98
259.814	-8.36
260.03	8.02
260.246	3.93
260.463	65.36
260.679	130.9
260.895	51.03
261.112	30.55
261.328	10.07
261.544	77.65
261.761	63.32
261.977	-8.36
262.193	71.51
262.409	67.41
262.626	5.97
262.842	79.7
263.058	91.99
263.274	157.52
263.49	57.17
263.707	51.03
263.923	24.4
264.139	-49.32
264.355	30.55
264.571	63.32
264.787	1.88
265.004	8.02
265.22	57.17
265.436	65.36
265.652	-34.99
265.868	87.89
266.084	48.98
266.3	-32.94
266.516	-53.42
266.732	34.64
266.948	26.45
267.164	40.79
267.38	8.02
267.596	104.28
267.812	112.47
268.028	51.03
268.244	30.55
268.46	73.56
268.676	55.12
268.892	-16.55
269.108	57.17
269.324	20.31
269.54	10.07
269.756	102.23
269.972	22.36
270.188	-32.94
270.403	8.02
270.619	34.64
270.835	55.12
271.051	-16.55
271.267	71.51
271.483	55.12
271.698	116.56
271.914	-2.22
272.13	-18.6
272.346	8.02
272.562	5.97
272.777	48.98
272.993	42.84
273.209	42.84
273.425	63.32
273.64	38.74
273.856	-2.22
274.072	5.97
274.287	38.74
274.503	24.4
274.719	55.12
274.934	55.12
275.15	57.17
275.366	-14.51
275.581	61.27
275.797	55.12
276.012	32.6
276.228	91.99
276.444	14.17
276.659	63.32
276.875	-2.22
277.09	51.03
277.306	36.69
277.521	48.98
277.737	63.32
277.952	59.22
278.168	24.4
278.383	5.97
278.599	-8.36
278.814	55.12
279.03	36.69
279.245	30.55
279.461	79.7
279.676	18.26
279.892	-14.51
280.107	-63.66
280.322	-0.17
280.538	114.52
280.753	-0.17
280.969	-2.22
281.184	24.4
281.399	89.94
281.615	73.56
281.83	79.7
282.045	8.02
282.26	20.31
282.476	18.26
282.691	46.93
282.906	71.51
283.122	38.74
283.337	20.31
283.552	57.17
283.767	73.56
283.983	42.84
284.198	5.97
284.413	57.17
284.628	22.36
284.843	14.17
285.058	53.08
285.274	5.97
285.489	-0.17
285.704	55.12
285.919	5.97
286.134	3.93
286.349	96.08
286.564	36.69
286.779	51.03
286.995	38.74
287.21	14.17
287.425	38.74
287.64	46.93
287.855	42.84
288.07	1.88
288.285	30.55
288.5	55.12
288.715	51.03
288.93	32.6
289.145	120.66
289.36	24.4
289.575	32.6
289.79	51.03
290.004	5.97
290.219	124.76
290.434	5.97
290.649	16.21
290.864	71.51
291.079	5.97
291.294	-49.32
291.509	30.55
291.724	16.21
291.938	-8.36
292.153	73.56
292.368	5.97
292.583	14.17
292.798	57.17
293.012	96.08
293.227	10.07
293.442	12.12
293.657	79.7
293.871	71.51
294.086	59.22
294.301	18.26
294.516	38.74
294.73	55.12
294.945	-10.41
295.16	-18.6
295.374	55.12
295.589	-30.89
295.804	40.79
296.018	89.94
296.233	20.31
296.447	96.08
296.662	65.36
296.877	36.69
297.091	18.26
297.306	38.74
297.52	34.64
297.735	91.99
297.949	10.07
298.164	44.88
298.378	71.51
298.593	5.97
298.807	1.88
299.022	5.97
299.236	104.28
299.451	36.69
299.665	24.4
299.88	30.55
300.094	63.32
300.309	48.98
300.523	12.12
300.737	-0.17
300.952	10.07
301.166	-2.22
301.381	69.46
301.595	22.36
301.809	-18.6
302.024	16.21
302.238	34.64
302.452	124.76
302.667	32.6
302.881	87.89
303.095	63.32
303.309	-26.79
303.524	8.02
303.738	79.7
303.952	5.97
304.166	83.8
304.381	-10.41
304.595	96.08
304.809	-8.36
305.023	63.32
305.237	-0.17
305.452	5.97
305.666	14.17
305.88	48.98
306.094	79.7
306.308	73.56
306.522	63.32
306.736	71.51
306.95	22.36
307.164	-2.22
307.379	83.8
307.593	46.93
307.807	69.46
308.021	96.08
308.235	89.94
308.449	14.17
308.663	59.22
308.877	55.12
309.091	22.36
309.305	63.32
309.519	22.36
309.733	83.8
309.947	14.17
310.161	28.5
310.374	38.74
310.588	71.51
310.802	-18.6
311.016	22.36
311.23	22.36
311.444	-0.17
311.658	8.02
311.872	114.52
312.085	48.98
312.299	48.98
312.513	65.36
312.727	57.17
312.941	-41.13
313.154	79.7
313.368	-26.79
313.582	30.55
313.796	26.45
314.009	32.6
314.223	14.17
314.437	128.85
314.651	34.64
314.864	-43.18
315.078	104.28
315.292	5.97
315.505	38.74
315.719	-45.23
315.933	12.12
316.146	26.45
316.36	20.31
316.573	-0.17
316.787	16.21
317.001	87.89
317.214	-2.22
317.428	22.36
317.641	-8.36
317.855	89.94
318.068	8.02
318.282	65.36
318.495	104.28
318.709	59.22
318.922	63.32
319.136	98.13
319.349	67.41
319.563	34.64
319.776	22.36
319.99	34.64
320.203	22.36
320.417	96.08
320.63	32.6
320.843	48.98
321.057	110.42
321.27	32.6
321.483	-0.17
321.697	24.4
321.91	145.24
322.124	-26.79
322.337	22.36
322.55	-20.65
322.763	14.17
322.977	106.32
323.19	73.56
323.403	85.84
323.617	51.03
323.83	124.76
324.043	79.7
324.256	18.26
324.469	-0.17
324.683	65.36
324.896	-39.08
325.109	71.51
325.322	57.17
325.535	51.03
325.748	91.99
325.962	10.07
326.175	96.08
326.388	38.74
326.601	48.98
326.814	46.93
327.027	73.56
327.24	112.47
327.453	-41.13
327.666	42.84
327.879	79.7
328.092	-2.22
328.305	59.22
328.518	-10.41
328.731	-2.22
328.944	59.22
329.157	44.88
329.37	-51.37
329.583	104.28
329.796	75.6
330.009	38.74
330.222	91.99
330.435	5.97
330.648	79.7
330.861	-10.41
331.073	42.84
331.286	48.98
331.499	44.88
331.712	57.17
331.925	81.75
332.138	30.55
332.35	87.89
332.563	14.17
332.776	128.85
332.989	10.07
333.202	59.22
333.414	16.21
333.627	83.8
333.84	-30.89
334.053	46.93
334.265	42.84
334.478	26.45
334.691	73.56
334.903	112.47
335.116	46.93
335.329	57.17
335.541	57.17
335.754	5.97
335.966	53.08
336.179	14.17
336.392	65.36
336.604	53.08
336.817	32.6
337.029	120.66
337.242	77.65
337.454	75.6
337.667	69.46
337.88	112.47
338.092	30.55
338.305	57.17
338.517	18.26
338.729	104.28
338.942	-8.36
339.154	14.17
339.367	18.26
339.579	5.97
339.792	24.4
340.004	22.36
340.217	83.8
340.429	34.64
340.641	8.02
340.854	55.12
341.066	20.31
341.278	122.71
341.491	106.32
341.703	34.64
341.915	-24.75
342.128	40.79
342.34	26.45
342.552	5.97
342.764	96.08
342.977	63.32
343.189	96.08
343.401	71.51
343.613	22.36
343.826	71.51
344.038	79.7
344.25	65.36
344.462	5.97
344.674	-30.89
344.886	3.93
345.099	83.8
345.311	91.99
345.523	112.47
345.735	22.36
345.947	5.97
346.159	22.36
346.371	71.51
346.583	91.99
346.795	51.03
347.007	77.65
347.219	-2.22
347.431	-8.36
347.643	98.13
347.855	89.94
348.067	89.94
348.279	-30.89
348.491	57.17
348.703	69.46
348.915	71.51
349.127	55.12
349.339	8.02
349.551	10.07
349.763	32.6
349.975	48.98
350.187	65.36
350.399	18.26
350.61	26.45
350.822	96.08
351.034	135
351.246	59.22
351.458	96.08
351.669	120.66
351.881	51.03
352.093	75.6
352.305	79.7
352.517	69.46
352.728	48.98
352.94	61.27
353.152	71.51
353.363	-4.27
353.575	38.74
353.787	71.51
353.999	57.17
354.21	104.28
354.422	-6.31
354.633	26.45
354.845	38.74
355.057	63.32
355.268	75.6
355.48	1.88
355.692	34.64
355.903	16.21
356.115	30.55
356.326	24.4
356.538	89.94
356.749	98.13
356.961	81.75
357.172	96.08
357.384	22.36
357.595	79.7
357.807	-8.36
358.018	42.84
358.23	-2.22
358.441	73.56
358.653	30.55
358.864	20.31
359.075	59.22
359.287	73.56
359.498	22.36
359.709	83.8
359.921	106.32
360.132	-8.36
360.344	-0.17
360.555	98.13
360.766	132.95
360.977	89.94
361.189	48.98
361.4	-12.46
361.611	89.94
361.823	79.7
362.034	69.46
362.245	5.97
362.456	40.79
362.667	55.12
362.879	34.64
363.09	46.93
363.301	22.36
363.512	38.74
363.723	61.27
363.935	-43.18
364.146	87.89
364.357	102.23
364.568	128.85
364.779	-30.89
364.99	87.89
365.201	30.55
365.412	75.6
365.623	-67.75
365.834	46.93
366.045	48.98
366.256	16.21
366.467	83.8
366.678	1.88
366.889	132.95
367.1	79.7
367.311	79.7
367.522	48.98
367.733	73.56
367.944	38.74
368.155	1.88
368.366	71.51
368.577	38.74
368.788	145.24
368.999	91.99
369.209	53.08
369.42	71.51
369.631	196.43
369.842	122.71
370.053	55.12
370.264	120.66
370.474	36.69
370.685	100.18
370.896	38.74
371.107	59.22
371.317	73.56
371.528	38.74
371.739	186.19
371.95	59.22
372.16	5.97
372.371	42.84
372.582	46.93
372.792	91.99
373.003	79.7
373.214	100.18
373.424	73.56
373.635	-10.41
373.846	122.71
374.056	63.32
374.267	73.56
374.477	61.27
374.688	8.02
374.898	96.08
375.109	-59.56
375.319	65.36
375.53	71.51
375.74	85.84
375.951	-26.79
376.161	73.56
376.372	79.7
376.582	10.07
376.793	63.32
377.003	26.45
377.214	83.8
377.424	65.36
377.635	104.28
377.845	10.07
378.055	126.8
378.266	28.5
378.476	38.74
378.686	137.04
378.897	79.7
379.107	-8.36
379.317	51.03
379.528	14.17
379.738	5.97
379.948	96.08
380.158	38.74
380.369	120.66
380.579	57.17
380.789	30.55
380.999	63.32
381.21	71.51
381.42	63.32
381.63	-18.6
381.84	40.79
382.05	135
382.261	163.67
382.471	63.32
382.681	79.7
382.891	79.7
383.101	63.32
383.311	8.02
383.521	42.84
383.731	16.21
383.941	79.7
384.151	38.74
384.361	-41.13
384.571	91.99
384.781	16.21
384.991	112.47
385.201	96.08
385.411	102.23
385.621	87.89
385.831	100.18
386.041	34.64
386.251	42.84
386.461	46.93
386.671	87.89
386.881	-8.36
387.091	24.4
387.301	65.36
387.511	22.36
387.72	89.94
387.93	32.6
388.14	-12.46
388.35	75.6
388.56	28.5
388.769	85.84
388.979	63.32
389.189	30.55
389.399	57.17
389.609	96.08
389.818	59.22
390.028	-18.6
390.238	73.56
390.447	-6.31
390.657	34.64
390.867	59.22
391.076	67.41
391.286	87.89
391.496	75.6
391.705	18.26
391.915	145.24
392.125	83.8
392.334	108.37
392.544	-22.7
392.753	122.71
392.963	116.56
393.172	22.36
393.382	110.42
393.591	149.33
393.801	-22.7
394.01	145.24
394.22	87.89
394.429	5.97
394.639	73.56
394.848	108.37
395.058	34.64
395.267	73.56
395.477	30.55
395.686	91.99
395.895	87.89
396.105	139.09
396.314	32.6
396.524	116.56
396.733	59.22
396.942	87.89
397.152	30.55
397.361	77.65
397.57	32.6
397.78	194.39
397.989	108.37
398.198	102.23
398.407	161.62
398.617	163.67
398.826	153.43
399.035	73.56
399.244	67.41
399.453	139.09
399.663	132.95
399.872	81.75
400.081	40.79
400.29	128.85
400.499	132.95
400.708	122.71
400.917	94.04
401.127	20.31
401.336	128.85
401.545	124.76
401.754	169.81
401.963	112.47
402.172	128.85
402.381	46.93
402.59	108.37
402.799	65.36
403.008	130.9
403.217	210.77
403.426	79.7
403.635	112.47
403.844	73.56
404.053	137.04
404.262	149.33
404.471	178
404.68	87.89
404.888	124.76
405.097	126.8
405.306	130.9
405.515	98.13
405.724	130.9
405.933	141.14
406.142	153.43
406.35	218.96
406.559	210.77
406.768	104.28
406.977	212.82
407.185	114.52
407.394	180.05
407.603	218.96
407.812	178
408.02	227.15
408.229	106.32
408.438	173.91
408.646	155.47
408.855	194.39
409.064	218.96
409.272	173.91
409.481	237.39
409.69	112.47
409.898	247.63
410.107	302.93
410.315	309.07
410.524	235.35
410.733	296.78
410.941	270.16
411.15	384.85
411.358	358.22
411.567	382.8
411.775	315.22
411.984	325.46
412.192	364.37
412.401	345.94
412.609	421.71
412.818	464.72
413.026	333.65
413.234	337.74
413.443	423.76
413.651	472.91
413.86	456.53
414.068	499.53
414.276	468.81
414.485	431.95
414.693	520.01
414.901	565.07
415.11	558.92
415.318	546.64
415.526	556.88
415.734	612.17
415.943	571.21
416.151	692.04
416.359	589.64
416.567	735.05
416.776	698.19
416.984	780.11
417.192	737.1
417.4	763.72
417.608	728.91
417.817	720.71
418.025	835.4
418.233	952.13
418.441	841.54
418.649	935.75
418.857	964.42
419.065	1009.48
419.273	1064.77
419.481	956.23
419.689	1003.33
419.897	1208.13
420.105	1083.2
420.313	1171.27
420.521	1265.47
420.729	1300.29
420.937	1300.29
421.145	1345.34
421.353	1417.02
421.561	1472.32
421.769	1382.21
421.977	1554.24
422.185	1513.28
422.393	1597.24
422.601	1716.03
422.809	1664.83
423.017	1773.37
423.224	1744.7
423.432	1744.7
423.64	1869.62
423.848	1990.45
424.056	2094.9
424.263	2199.35
424.471	2238.26
424.679	2197.3
424.887	2326.32
425.094	2307.89
425.302	2402.1
425.51	2459.44
425.718	2643.76
425.925	2588.46
426.133	2680.62
426.341	2844.46
426.548	2869.03
426.756	2848.55
426.964	2920.23
427.171	3276.58
427.379	3213.09
427.586	3327.78
427.794	3415.84
428.001	3606.3
428.209	3626.78
428.417	3602.21
428.624	3899.16
428.832	3733.28
429.039	3897.11
429.247	3942.17
429.454	4280.08
429.662	4372.24
429.869	4169.49
430.076	4644.62
430.284	4351.76
430.491	4515.6
430.699	4701.97
430.906	4830.99
431.114	4937.48
431.321	4988.68
431.528	5115.66
431.736	5529.34
431.943	5807.87
432.15	5631.74
432.358	5545.73
432.565	5873.4
432.772	5938.94
432.979	6244.09
433.187	6143.74
433.394	6082.3
433.601	6731.5
433.808	6700.78
434.016	6715.12
434.223	6995.69
434.43	7399.14
434.637	7333.61
434.844	7636.7
435.052	8031.96
435.259	7978.72
435.466	7966.43
435.673	7708.38
435.88	8601.3
436.087	8840.91
436.294	8814.29
436.501	8576.72
436.708	8636.11
436.915	9066.19
437.122	9373.38
437.329	9483.97
437.537	9760.45
437.743	9975.49
437.95	9705.15
438.157	10499.77
438.364	10667.7
438.571	10596.02
438.778	10665.65
438.985	11708.07
439.192	11415.21
439.399	11681.44
439.606	11116.2
439.813	12023.45
440.02	12641.94
440.227	12283.55
440.433	12357.27
440.64	12986
440.847	12732.05
441.054	12981.9
441.261	13819.52
441.467	13620.87
441.674	13850.24
441.881	14392.95
442.088	14392.95
442.294	14343.8
442.501	14675.57
442.708	14956.15
442.914	15644.26
443.121	15928.93
443.328	15677.03
443.534	16733.78
443.741	16223.84
443.948	16209.5
444.154	17282.64
444.361	17028.69
444.568	17282.64
444.774	17348.17
444.981	17348.17
445.187	17897.03
445.394	18710.07
445.6	18576.95
445.807	20108.83
446.013	19633.71
446.22	19621.42
446.426	20436.51
446.633	20629.02
446.839	21689.87
447.046	20563.48
447.252	21829.13
447.459	21667.34
447.665	21499.41
447.871	22840.82
448.078	23813.61
448.284	22560.25
448.491	22855.16
448.697	23815.66
448.903	24581.6
449.11	24247.78
449.316	24184.29
449.522	24645.09
449.728	25378.26
449.935	25660.88
450.141	25738.7
450.347	26052.04
450.553	25206.23
450.76	25632.21
450.966	26641.85
451.172	26230.21
451.378	26672.57
451.584	26179.01
451.791	26940.86
451.997	27131.32
452.203	27397.56
452.409	27266.49
452.615	27514.29
452.821	26308.04
453.027	26047.94
453.233	27590.06
453.44	26340.8
453.646	26830.27
453.852	26883.52
454.058	27749.81
454.264	26523.07
454.47	27379.12
454.676	26340.8
454.882	27698.61
455.088	25009.62
455.294	25720.27
455.5	25916.87
455.705	26123.72
455.911	25062.87
456.117	24714.72
456.323	24423.9
456.529	23291.38
456.735	24194.53
456.941	23608.81
457.147	23307.76
457.352	22752.76
457.558	22455.81
457.764	22304.26
457.97	21913.09
458.176	21431.82
458.381	21569.04
458.587	20375.07
458.793	20547.1
458.999	19332.65
459.204	21063.19
459.41	20258.34
459.616	19117.62
459.821	18914.87
460.027	19193.39
460.233	18384.44
460.438	17552.97
460.644	17679.94
460.85	17024.59
461.055	16862.8
461.261	16858.71
461.466	15537.77
461.672	14915.19
461.878	15898.21
462.083	15124.08
462.289	14694.01
462.494	14579.32
462.7	14022.27
462.905	13729.41
463.111	13932.16
463.316	13960.83
463.522	13678.21
463.727	13866.63
463.932	13778.56
464.138	13620.87
464.343	13584.01
464.549	13385.35
464.754	13686.4
464.959	13737.6
465.165	13432.46
465.37	12942.99
465.575	12469.91
465.781	12971.66
465.986	13078.16
466.191	12502.68
466.397	12504.73
466.602	11577
466.807	12265.11
467.012	12189.34
467.218	11959.97
467.423	11951.77
467.628	12283.55
467.833	12699.28
468.038	12359.32
468.244	11759.27
