Data from USB4F104151__24__14-42-44-974.txt Node

Date: Thu Mar 13 14:42:44 EDT 2025
User: louis
Spectrometer: USB4F10415
Trigger mode: 4
Integration Time (sec): 2.000000E-2
Scans to average: 1
Electric dark correction enabled: true
Nonlinearity correction enabled: false
Boxcar width: 0
XAxis mode: Wavelengths
Number of Pixels in Spectrum: 3648
>>>>>Begin Spectral Data<<<<<
178.204	-132.09
178.424	-132.09
178.644	-132.09
178.864	-99.33
179.084	-146.43
179.304	-7.17
179.524	-27.65
179.744	-5.12
179.964	-3.07
180.184	-5.12
180.404	-35.84
180.624	3.07
180.844	58.37
181.064	-29.7
181.283	21.5
181.503	3.07
181.723	27.65
181.943	-17.41
182.163	37.89
182.383	-17.41
182.602	80.89
182.822	-11.26
183.042	-74.75
183.262	76.8
183.482	19.46
183.701	-21.5
183.921	-3.07
184.141	11.26
184.361	52.22
184.58	13.31
184.8	-5.12
185.02	-52.22
185.239	46.08
185.459	11.26
185.679	101.37
185.898	-76.8
186.118	76.8
186.338	-5.12
186.557	93.18
186.777	5.12
186.997	29.7
187.216	31.74
187.436	31.74
187.655	68.61
187.875	60.42
188.095	-11.26
188.314	41.98
188.534	-37.89
188.753	39.94
188.973	-19.46
189.192	84.99
189.412	44.03
189.631	35.84
189.851	23.55
190.07	29.7
190.29	-13.31
190.509	1.02
190.729	54.27
190.948	46.08
191.168	84.99
191.387	54.27
191.607	19.46
191.826	80.89
192.045	62.46
192.265	21.5
192.484	-93.18
192.704	23.55
192.923	-39.94
193.142	117.76
193.362	27.65
193.581	60.42
193.8	35.84
194.02	50.18
194.239	-19.46
194.458	17.41
194.678	-3.07
194.897	-21.5
195.116	13.31
195.335	-13.31
195.555	68.61
195.774	-3.07
195.993	-3.07
196.212	-1.02
196.432	37.89
196.651	-1.02
196.87	15.36
197.089	84.99
197.308	13.31
197.528	74.75
197.747	52.22
197.966	-5.12
198.185	82.94
198.404	68.61
198.623	87.04
198.842	105.47
199.062	44.03
199.281	101.37
199.5	84.99
199.719	25.6
199.938	52.22
200.157	70.65
200.376	97.28
200.595	70.65
200.814	33.79
201.033	41.98
201.252	103.42
201.471	52.22
201.69	48.13
201.909	54.27
202.128	46.08
202.347	-3.07
202.566	27.65
202.785	-3.07
203.004	-50.18
203.223	76.8
203.442	-5.12
203.661	-21.5
203.879	-25.6
204.098	15.36
204.317	13.31
204.536	41.98
204.755	56.32
204.974	52.22
205.193	46.08
205.411	95.23
205.63	80.89
205.849	37.89
206.068	11.26
206.287	95.23
206.505	44.03
206.724	-37.89
206.943	-17.41
207.162	52.22
207.381	70.65
207.599	46.08
207.818	29.7
208.037	5.12
208.255	-15.36
208.474	37.89
208.693	27.65
208.911	44.03
209.13	11.26
209.349	13.31
209.567	15.36
209.786	44.03
210.005	-29.7
210.223	27.65
210.442	-13.31
210.661	27.65
210.879	-3.07
211.098	31.74
211.316	52.22
211.535	-21.5
211.753	35.84
211.972	3.07
212.191	68.61
212.409	48.13
212.628	44.03
212.846	3.07
213.065	87.04
213.283	103.42
213.502	41.98
213.72	68.61
213.938	3.07
214.157	11.26
214.375	54.27
214.594	35.84
214.812	84.99
215.031	-13.31
215.249	46.08
215.467	-3.07
215.686	3.07
215.904	52.22
216.122	23.55
216.341	-5.12
216.559	-5.12
216.778	31.74
216.996	56.32
217.214	19.46
217.432	-1.02
217.651	39.94
217.869	35.84
218.087	13.31
218.306	-21.5
218.524	52.22
218.742	-11.26
218.96	-1.02
219.179	-21.5
219.397	3.07
219.615	48.13
219.833	60.42
220.051	11.26
220.27	76.8
220.488	95.23
220.706	68.61
220.924	33.79
221.142	3.07
221.36	84.99
221.578	74.75
221.796	-13.31
222.015	27.65
222.233	39.94
222.451	62.46
222.669	-25.6
222.887	19.46
223.105	-50.18
223.323	35.84
223.541	35.84
223.759	23.55
223.977	68.61
224.195	78.85
224.413	68.61
224.631	11.26
224.849	-1.02
225.067	162.81
225.285	-1.02
225.503	35.84
225.721	-9.22
225.939	60.42
226.157	37.89
226.375	31.74
226.592	35.84
226.81	-37.89
227.028	76.8
227.246	142.33
227.464	-62.46
227.682	46.08
227.9	68.61
228.117	87.04
228.335	-13.31
228.553	7.17
228.771	56.32
228.989	19.46
229.206	37.89
229.424	76.8
229.642	31.74
229.86	-37.89
230.077	5.12
230.295	19.46
230.513	80.89
230.731	33.79
230.948	-23.55
231.166	62.46
231.384	3.07
231.601	15.36
231.819	23.55
232.037	35.84
232.254	19.46
232.472	-5.12
232.689	33.79
232.907	68.61
233.125	-11.26
233.342	3.07
233.56	23.55
233.777	-1.02
233.995	-29.7
234.213	37.89
234.43	5.12
234.648	11.26
234.865	76.8
235.083	-3.07
235.3	29.7
235.518	66.56
235.735	37.89
235.953	101.37
236.17	-13.31
236.388	44.03
236.605	35.84
236.822	60.42
237.04	95.23
237.257	-27.65
237.475	-11.26
237.692	66.56
237.909	23.55
238.127	19.46
238.344	44.03
238.562	3.07
238.779	11.26
238.996	72.7
239.214	29.7
239.431	60.42
239.648	-13.31
239.865	76.8
240.083	68.61
240.3	93.18
240.517	52.22
240.735	17.41
240.952	78.85
241.169	44.03
241.386	7.17
241.603	35.84
241.821	68.61
242.038	-1.02
242.255	48.13
242.472	-13.31
242.689	-33.79
242.907	44.03
243.124	56.32
243.341	58.37
243.558	56.32
243.775	60.42
243.992	37.89
244.209	93.18
244.426	-3.07
244.643	-17.41
244.86	11.26
245.078	74.75
245.295	23.55
245.512	19.46
245.729	60.42
245.946	27.65
246.163	54.27
246.38	99.33
246.597	11.26
246.814	50.18
247.031	76.8
247.248	-5.12
247.464	46.08
247.681	-29.7
247.898	80.89
248.115	103.42
248.332	58.37
248.549	72.7
248.766	97.28
248.983	72.7
249.2	60.42
249.417	62.46
249.633	35.84
249.85	87.04
250.067	52.22
250.284	-9.22
250.501	46.08
250.717	31.74
250.934	46.08
251.151	-37.89
251.368	7.17
251.585	68.61
251.801	-3.07
252.018	35.84
252.235	21.5
252.451	56.32
252.668	44.03
252.885	80.89
253.102	60.42
253.318	-5.12
253.535	11.26
253.752	-23.55
253.968	27.65
254.185	95.23
254.401	31.74
254.618	11.26
254.835	3.07
255.051	134.14
255.268	97.28
255.484	35.84
255.701	52.22
255.917	78.85
256.134	-11.26
256.351	80.89
256.567	-29.7
256.784	-46.08
257	-48.13
257.217	84.99
257.433	93.18
257.65	80.89
257.866	25.6
258.082	31.74
258.299	-7.17
258.515	68.61
258.732	80.89
258.948	7.17
259.165	-37.89
259.381	-3.07
259.597	21.5
259.814	-13.31
260.03	84.99
260.246	3.07
260.463	9.22
260.679	15.36
260.895	-25.6
261.112	78.85
261.328	11.26
261.544	-3.07
261.761	87.04
261.977	-29.7
262.193	-58.37
262.409	35.84
262.626	72.7
262.842	21.5
263.058	27.65
263.274	-9.22
263.49	105.47
263.707	31.74
263.923	-46.08
264.139	-5.12
264.355	-11.26
264.571	82.94
264.787	48.13
265.004	76.8
265.22	93.18
265.436	29.7
265.652	-5.12
265.868	19.46
266.084	13.31
266.3	19.46
266.516	33.79
266.732	5.12
266.948	-7.17
267.164	33.79
267.38	17.41
267.596	29.7
267.812	119.81
268.028	5.12
268.244	68.61
268.46	23.55
268.676	39.94
268.892	93.18
269.108	-46.08
269.324	5.12
269.54	-46.08
269.756	52.22
269.972	3.07
270.188	3.07
270.403	5.12
270.619	5.12
270.835	-11.26
271.051	76.8
271.267	52.22
271.483	44.03
271.698	54.27
271.914	109.57
272.13	64.51
272.346	-33.79
272.562	70.65
272.777	87.04
272.993	31.74
273.209	93.18
273.425	56.32
273.64	70.65
273.856	27.65
274.072	-19.46
274.287	46.08
274.503	35.84
274.719	68.61
274.934	-3.07
275.15	9.22
275.366	74.75
275.581	7.17
275.797	29.7
276.012	15.36
276.228	21.5
276.444	52.22
276.659	97.28
276.875	-52.22
277.09	1.02
277.306	19.46
277.521	56.32
277.737	-11.26
277.952	91.13
278.168	27.65
278.383	76.8
278.599	76.8
278.814	35.84
279.03	-13.31
279.245	68.61
279.461	25.6
279.676	97.28
279.892	35.84
280.107	-19.46
280.322	37.89
280.538	11.26
280.753	-1.02
280.969	66.56
281.184	93.18
281.399	35.84
281.615	11.26
281.83	11.26
282.045	21.5
282.26	-21.5
282.476	62.46
282.691	31.74
282.906	7.17
283.122	60.42
283.337	-7.17
283.552	35.84
283.767	-37.89
283.983	39.94
284.198	-33.79
284.413	78.85
284.628	62.46
284.843	39.94
285.058	52.22
285.274	76.8
285.489	52.22
285.704	82.94
285.919	-13.31
286.134	-5.12
286.349	-13.31
286.564	-11.26
286.779	72.7
286.995	68.61
287.21	-3.07
287.425	84.99
287.64	-11.26
287.855	-5.12
288.07	-48.13
288.285	44.03
288.5	72.7
288.715	-1.02
288.93	1.02
289.145	3.07
289.36	3.07
289.575	25.6
289.79	125.95
290.004	11.26
290.219	39.94
290.434	5.12
290.649	15.36
290.864	-5.12
291.079	19.46
291.294	76.8
291.509	5.12
291.724	44.03
291.938	-3.07
292.153	62.46
292.368	9.22
292.583	15.36
292.798	48.13
293.012	27.65
293.227	60.42
293.442	19.46
293.657	50.18
293.871	68.61
294.086	46.08
294.301	-13.31
294.516	39.94
294.73	62.46
294.945	-19.46
295.16	93.18
295.374	44.03
295.589	35.84
295.804	39.94
296.018	46.08
296.233	-33.79
296.447	95.23
296.662	-21.5
296.877	82.94
297.091	5.12
297.306	80.89
297.52	-25.6
297.735	21.5
297.949	29.7
298.164	48.13
298.378	29.7
298.593	25.6
298.807	23.55
299.022	54.27
299.236	44.03
299.451	-3.07
299.665	-44.03
299.88	60.42
300.094	-25.6
300.309	29.7
300.523	134.14
300.737	27.65
300.952	41.98
301.166	64.51
301.381	-46.08
301.595	48.13
301.809	136.19
302.024	-5.12
302.238	-60.42
302.452	109.57
302.667	5.12
302.881	31.74
303.095	101.37
303.309	44.03
303.524	74.75
303.738	68.61
303.952	33.79
304.166	-5.12
304.381	-66.56
304.595	58.37
304.809	31.74
305.023	56.32
305.237	52.22
305.452	19.46
305.666	72.7
305.88	44.03
306.094	52.22
306.308	70.65
306.522	84.99
306.736	39.94
306.95	-11.26
307.164	-5.12
307.379	52.22
307.593	44.03
307.807	62.46
308.021	70.65
308.235	11.26
308.449	-19.46
308.663	101.37
308.877	52.22
309.091	56.32
309.305	44.03
309.519	-35.84
309.733	87.04
309.947	-50.18
310.161	44.03
310.374	84.99
310.588	91.13
310.802	-46.08
311.016	19.46
311.23	35.84
311.444	-17.41
311.658	17.41
311.872	70.65
312.085	44.03
312.299	84.99
312.513	70.65
312.727	-7.17
312.941	11.26
313.154	-46.08
313.368	72.7
313.582	-1.02
313.796	21.5
314.009	44.03
314.223	97.28
314.437	68.61
314.651	78.85
314.864	60.42
315.078	15.36
315.292	5.12
315.505	72.7
315.719	19.46
315.933	54.27
316.146	17.41
316.36	1.02
316.573	80.89
316.787	3.07
317.001	109.57
317.214	29.7
317.428	84.99
317.641	-1.02
317.855	-9.22
318.068	23.55
318.282	76.8
318.495	23.55
318.709	11.26
318.922	-33.79
319.136	113.66
319.349	46.08
319.563	-91.13
319.776	-21.5
319.99	-5.12
320.203	35.84
320.417	46.08
320.63	33.79
320.843	29.7
321.057	70.65
321.27	-29.7
321.483	5.12
321.697	70.65
321.91	39.94
322.124	-78.85
322.337	-21.5
322.55	-33.79
322.763	15.36
322.977	-19.46
323.19	35.84
323.403	19.46
323.617	60.42
323.83	23.55
324.043	54.27
324.256	68.61
324.469	-54.27
324.683	37.89
324.896	76.8
325.109	7.17
325.322	-3.07
325.535	84.99
325.748	68.61
325.962	46.08
326.175	54.27
326.388	54.27
326.601	27.65
326.814	15.36
327.027	-13.31
327.24	50.18
327.453	-31.74
327.666	70.65
327.879	111.61
328.092	52.22
328.305	113.66
328.518	82.94
328.731	44.03
328.944	15.36
329.157	11.26
329.37	37.89
329.583	44.03
329.796	33.79
330.009	5.12
330.222	70.65
330.435	44.03
330.648	64.51
330.861	56.32
331.073	-11.26
331.286	46.08
331.499	58.37
331.712	27.65
331.925	27.65
332.138	52.22
332.35	35.84
332.563	-33.79
332.776	119.81
332.989	1.02
333.202	11.26
333.414	5.12
333.627	52.22
333.84	23.55
334.053	35.84
334.265	31.74
334.478	-3.07
334.691	5.12
334.903	35.84
335.116	27.65
335.329	-70.65
335.541	60.42
335.754	109.57
335.966	5.12
336.179	-62.46
336.392	35.84
336.604	70.65
336.817	56.32
337.029	29.7
337.242	11.26
337.454	23.55
337.667	46.08
337.88	33.79
338.092	-17.41
338.305	76.8
338.517	-9.22
338.729	72.7
338.942	87.04
339.154	3.07
339.367	3.07
339.579	60.42
339.792	-39.94
340.004	64.51
340.217	3.07
340.429	46.08
340.641	13.31
340.854	-5.12
341.066	48.13
341.278	95.23
341.491	56.32
341.703	101.37
341.915	3.07
342.128	80.89
342.34	48.13
342.552	52.22
342.764	3.07
342.977	-7.17
343.189	50.18
343.401	48.13
343.613	-13.31
343.826	68.61
344.038	31.74
344.25	15.36
344.462	29.7
344.674	44.03
344.886	52.22
345.099	99.33
345.311	27.65
345.523	-29.7
345.735	5.12
345.947	87.04
346.159	7.17
346.371	48.13
346.583	11.26
346.795	58.37
347.007	46.08
347.219	31.74
347.431	-9.22
347.643	54.27
347.855	39.94
348.067	-41.98
348.279	-5.12
348.491	35.84
348.703	44.03
348.915	44.03
349.127	-29.7
349.339	7.17
349.551	35.84
349.763	15.36
349.975	44.03
350.187	89.09
350.399	-11.26
350.61	-3.07
350.822	9.22
351.034	21.5
351.246	27.65
351.458	19.46
351.669	-21.5
351.881	80.89
352.093	37.89
352.305	78.85
352.517	87.04
352.728	130.05
352.94	-9.22
353.152	103.42
353.363	-5.12
353.575	101.37
353.787	97.28
353.999	5.12
354.21	111.61
354.422	72.7
354.633	46.08
354.845	68.61
355.057	-5.12
355.268	5.12
355.48	11.26
355.692	-5.12
355.903	68.61
356.115	41.98
356.326	31.74
356.538	64.51
356.749	31.74
356.961	87.04
357.172	7.17
357.384	-13.31
357.595	64.51
357.807	35.84
358.018	33.79
358.23	78.85
358.441	134.14
358.653	84.99
358.864	46.08
359.075	44.03
359.287	-54.27
359.498	46.08
359.709	23.55
359.921	-13.31
360.132	11.26
360.344	21.5
360.555	27.65
360.766	35.84
360.977	89.09
361.189	103.42
361.4	19.46
361.611	105.47
361.823	101.37
362.034	13.31
362.245	11.26
362.456	89.09
362.667	64.51
362.879	-21.5
363.09	23.55
363.301	35.84
363.512	62.46
363.723	-17.41
363.935	35.84
364.146	29.7
364.357	13.31
364.568	44.03
364.779	21.5
364.99	121.85
365.201	15.36
365.412	103.42
365.623	3.07
365.834	78.85
366.045	-29.7
366.256	27.65
366.467	144.38
366.678	-21.5
366.889	17.41
367.1	33.79
367.311	54.27
367.522	9.22
367.733	84.99
367.944	48.13
368.155	35.84
368.366	19.46
368.577	37.89
368.788	80.89
368.999	44.03
369.209	78.85
369.42	3.07
369.631	121.85
369.842	123.9
370.053	21.5
370.264	33.79
370.474	56.32
370.685	35.84
370.896	11.26
371.107	72.7
371.317	39.94
371.528	-46.08
371.739	37.89
371.95	-1.02
372.16	41.98
372.371	-15.36
372.582	103.42
372.792	56.32
373.003	84.99
373.214	89.09
373.424	101.37
373.635	11.26
373.846	134.14
374.056	44.03
374.267	31.74
374.477	23.55
374.688	52.22
374.898	74.75
375.109	72.7
375.319	70.65
375.53	70.65
375.74	13.31
375.951	11.26
376.161	64.51
376.372	99.33
376.582	-3.07
376.793	138.24
377.003	138.24
377.214	33.79
377.424	87.04
377.635	91.13
377.845	21.5
378.055	99.33
378.266	-9.22
378.476	19.46
378.686	97.28
378.897	-13.31
379.107	46.08
379.317	103.42
379.528	-37.89
379.738	44.03
379.948	23.55
380.158	82.94
380.369	68.61
380.579	46.08
380.789	44.03
380.999	37.89
381.21	60.42
381.42	121.85
381.63	-23.55
381.84	7.17
382.05	101.37
382.261	54.27
382.471	56.32
382.681	44.03
382.891	84.99
383.101	84.99
383.311	31.74
383.521	5.12
383.731	58.37
383.941	121.85
384.151	70.65
384.361	56.32
384.571	11.26
384.781	54.27
384.991	54.27
385.201	-35.84
385.411	48.13
385.621	78.85
385.831	111.61
386.041	89.09
386.251	27.65
386.461	39.94
386.671	31.74
386.881	54.27
387.091	11.26
387.301	35.84
387.511	13.31
387.72	60.42
387.93	27.65
388.14	1.02
388.35	52.22
388.56	72.7
388.769	70.65
388.979	70.65
389.189	-7.17
389.399	37.89
389.609	37.89
389.818	44.03
390.028	37.89
390.238	58.37
390.447	58.37
390.657	21.5
390.867	-5.12
391.076	-13.31
391.286	97.28
391.496	52.22
391.705	-27.65
391.915	35.84
392.125	87.04
392.334	76.8
392.544	70.65
392.753	78.85
392.963	68.61
393.172	68.61
393.382	72.7
393.591	93.18
393.801	19.46
394.01	121.85
394.22	19.46
394.429	60.42
394.639	35.84
394.848	54.27
395.058	60.42
395.267	76.8
395.477	35.84
395.686	93.18
395.895	156.67
396.105	121.85
396.314	113.66
396.524	72.7
396.733	103.42
396.942	52.22
397.152	70.65
397.361	117.76
397.57	17.41
397.78	52.22
397.989	60.42
398.198	171.01
398.407	76.8
398.617	105.47
398.826	9.22
399.035	111.61
399.244	56.32
399.453	39.94
399.663	87.04
399.872	150.53
400.081	11.26
400.29	121.85
400.499	23.55
400.708	101.37
400.917	84.99
401.127	31.74
401.336	72.7
401.545	207.87
401.754	80.89
401.963	84.99
402.172	62.46
402.381	-5.12
402.59	105.47
402.799	76.8
403.008	82.94
403.217	179.2
403.426	109.57
403.635	27.65
403.844	105.47
404.053	80.89
404.262	101.37
404.471	228.35
404.68	171.01
404.888	109.57
405.097	64.51
405.306	150.53
405.515	183.29
405.724	87.04
405.933	76.8
406.142	146.43
406.35	123.9
406.559	109.57
406.768	95.23
406.977	142.33
407.185	187.39
407.394	220.16
407.603	99.33
407.812	183.29
408.02	257.02
408.229	183.29
408.438	68.61
408.646	162.81
408.855	173.05
409.064	162.81
409.272	203.77
409.481	199.68
409.69	175.1
409.898	199.68
410.107	175.1
410.315	195.58
410.524	228.35
410.733	207.87
410.941	289.79
411.15	228.35
411.358	261.12
411.567	318.46
411.775	207.87
411.984	338.94
412.192	285.69
412.401	283.64
412.609	359.42
412.818	359.42
413.026	363.51
413.234	379.9
413.443	357.37
413.651	396.28
413.86	445.43
414.068	431.1
414.276	470.01
414.485	422.91
414.693	459.77
414.901	488.44
415.11	502.78
415.318	476.15
415.526	478.2
415.734	455.67
415.943	470.01
416.151	617.46
416.359	537.59
416.567	588.79
416.776	609.27
416.984	658.42
417.192	709.62
417.4	674.81
417.608	644.09
417.817	699.38
418.025	846.84
418.233	846.84
418.441	701.43
418.649	797.68
418.857	879.6
419.065	922.61
419.273	846.84
419.481	928.75
419.689	986.1
419.897	1035.25
420.105	1043.44
420.313	1117.17
420.521	1168.37
420.729	1215.47
420.937	1186.8
421.145	1305.58
421.353	1309.68
421.561	1358.83
421.769	1457.13
421.977	1434.6
422.185	1457.13
422.393	1473.51
422.601	1557.48
422.809	1637.35
423.017	1686.5
423.224	1528.81
423.432	1801.19
423.64	1782.76
423.848	1854.44
424.056	1776.61
424.263	1944.55
424.471	2005.99
424.679	1948.64
424.887	2173.92
425.094	2307.04
425.302	2206.69
425.51	2304.99
425.718	2335.71
425.925	2343.9
426.133	2388.96
426.341	2552.79
426.548	2657.24
426.756	2724.82
426.964	2698.2
427.171	2892.76
427.379	2929.62
427.586	3052.5
427.794	3249.1
428.001	3197.9
428.209	3474.38
428.417	3492.81
428.624	3511.24
428.832	3505.1
429.039	3552.2
429.247	3582.92
429.454	3814.34
429.662	4086.72
429.869	3865.54
430.076	4260.8
430.284	3943.36
430.491	4254.66
430.699	4490.17
430.906	4578.23
431.114	4570.04
431.321	4576.19
431.528	4707.26
431.736	5077.94
431.943	5458.86
432.15	5295.02
432.358	5305.26
432.565	5508.01
432.772	5395.37
432.979	5864.36
433.187	5802.92
433.394	5843.88
433.601	6347.68
433.808	6337.44
434.016	6241.18
434.223	6267.81
434.43	6908.82
434.637	6720.41
434.844	7175.06
435.052	7318.42
435.259	7150.48
435.466	7408.53
435.673	7179.15
435.88	7717.77
436.087	8129.41
436.294	8049.54
436.501	8065.92
436.708	8260.48
436.915	8479.61
437.122	8825.72
437.329	8631.16
437.537	8956.79
437.743	9198.45
437.95	8926.07
438.157	9536.37
438.364	9800.55
438.571	9833.32
438.778	9849.71
438.985	10816.35
439.192	10392.42
439.399	10744.67
439.606	10451.81
439.813	11070.3
440.02	11918.15
440.227	11580.24
440.433	11348.82
440.64	11828.04
440.847	11877.19
441.054	12118.86
441.261	12806.97
441.467	12634.94
441.674	12950.33
441.881	13443.89
442.088	13261.62
442.294	12913.47
442.501	13609.78
442.708	13720.37
442.914	14424.87
443.121	15014.68
443.328	14693.15
443.534	15657.75
443.741	15282.97
443.948	14867.23
444.154	16098.06
444.361	15829.77
444.568	15860.49
444.774	15862.54
444.981	16153.35
445.187	16651.01
445.394	17582.84
445.6	17314.55
445.807	19014.37
446.013	17959.66
446.22	18297.58
446.426	19000.03
446.633	19108.57
446.839	19921.62
447.046	19102.43
447.252	20181.71
447.459	19997.39
447.665	20040.4
447.871	20939.46
448.078	21795.51
448.284	20789.95
448.491	21291.71
448.697	22139.57
448.903	22747.81
449.11	22973.09
449.316	22354.6
449.522	22794.92
449.728	23386.78
449.935	23597.72
450.141	23722.65
450.347	24267.41
450.553	23480.99
450.76	23593.62
450.966	24644.23
451.172	24570.51
451.378	24988.29
451.584	24226.45
451.791	25109.12
451.997	24855.17
452.203	25485.95
452.409	25528.95
452.615	25068.16
452.821	24109.71
453.027	23716.5
453.233	25385.6
453.44	24181.39
453.646	24658.57
453.852	25217.66
454.058	25215.62
454.264	24677
454.47	25375.36
454.676	24539.79
454.882	25440.89
455.088	22971.04
455.294	23454.36
455.5	23771.8
455.705	24085.14
455.911	23067.3
456.117	22749.86
456.323	22379.18
456.529	21410.49
456.735	22119.09
456.941	21527.22
457.147	21314.23
457.352	20765.38
457.558	20273.87
457.764	20556.49
457.97	20087.5
458.176	19669.72
458.381	19751.63
458.587	18813.66
458.793	18770.66
458.999	17887.98
459.204	19204.83
459.41	18402.02
459.616	17214.2
459.821	17187.58
460.027	17132.28
460.233	17011.45
460.438	16229.13
460.644	16257.8
460.85	15627.03
461.055	15381.27
461.261	15274.77
461.466	13953.84
461.672	13699.89
461.878	14797.6
462.083	13863.72
462.289	13386.55
462.494	13339.44
462.7	12741.44
462.905	12397.38
463.111	12761.92
463.316	12802.88
463.522	12616.51
463.727	12776.25
463.932	12708.67
464.138	12497.73
464.343	12524.35
464.549	12168.01
464.754	12514.11
464.959	12671.81
465.165	12319.56
465.37	11819.85
465.575	11438.93
465.781	12084.04
465.986	12069.7
466.191	11279.19
466.397	11361.11
466.602	10832.73
466.807	11266.9
467.012	11314
467.218	11129.69
467.423	10910.55
467.628	11115.35
467.833	11635.53
468.038	11139.93
468.244	10955.61
