Data from USB4F104151__248__14-45-51-742.txt Node

Date: Thu Mar 13 14:45:51 EDT 2025
User: louis
Spectrometer: USB4F10415
Trigger mode: 4
Integration Time (sec): 2.000000E-2
Scans to average: 1
Electric dark correction enabled: true
Nonlinearity correction enabled: false
Boxcar width: 0
XAxis mode: Wavelengths
Number of Pixels in Spectrum: 3648
>>>>>Begin Spectral Data<<<<<
178.204	-105.47
178.424	-105.47
178.644	-105.47
178.864	-95.23
179.084	-80.89
179.304	-48.13
179.524	-17.41
179.744	-9.22
179.964	66.56
180.184	1.02
180.404	-25.6
180.624	25.6
180.844	17.41
181.064	1.02
181.283	1.02
181.503	-15.36
181.723	3.07
181.943	-54.27
182.163	74.75
182.383	41.98
182.602	107.52
182.822	113.66
183.042	19.46
183.262	-17.41
183.482	91.13
183.701	48.13
183.921	82.94
184.141	44.03
184.361	19.46
184.58	48.13
184.8	41.98
185.02	39.94
185.239	97.28
185.459	87.04
185.679	76.8
185.898	-5.12
186.118	84.99
186.338	11.26
186.557	37.89
186.777	25.6
186.997	25.6
187.216	50.18
187.436	89.09
187.655	74.75
187.875	82.94
188.095	27.65
188.314	99.33
188.534	54.27
188.753	39.94
188.973	3.07
189.192	62.46
189.412	3.07
189.631	19.46
189.851	50.18
190.07	115.71
190.29	62.46
190.509	58.37
190.729	52.22
190.948	93.18
191.168	134.14
191.387	91.13
191.607	46.08
191.826	50.18
192.045	64.51
192.265	58.37
192.484	115.71
192.704	33.79
192.923	134.14
193.142	95.23
193.362	39.94
193.581	181.25
193.8	105.47
194.02	29.7
194.239	-31.74
194.458	23.55
194.678	33.79
194.897	99.33
195.116	105.47
195.335	60.42
195.555	21.5
195.774	17.41
195.993	35.84
196.212	74.75
196.432	66.56
196.651	74.75
196.87	91.13
197.089	103.42
197.308	58.37
197.528	82.94
197.747	19.46
197.966	93.18
198.185	91.13
198.404	52.22
198.623	76.8
198.842	-19.46
199.062	39.94
199.281	46.08
199.5	27.65
199.719	-21.5
199.938	91.13
200.157	74.75
200.376	68.61
200.595	50.18
200.814	54.27
201.033	17.41
201.252	44.03
201.471	5.12
201.69	74.75
201.909	-15.36
202.128	33.79
202.347	58.37
202.566	17.41
202.785	50.18
203.004	44.03
203.223	107.52
203.442	-19.46
203.661	115.71
203.879	52.22
204.098	80.89
204.317	19.46
204.536	41.98
204.755	95.23
204.974	41.98
205.193	50.18
205.411	132.09
205.63	-48.13
205.849	9.22
206.068	-44.03
206.287	58.37
206.505	70.65
206.724	-3.07
206.943	39.94
207.162	74.75
207.381	35.84
207.599	62.46
207.818	60.42
208.037	39.94
208.255	91.13
208.474	35.84
208.693	17.41
208.911	1.02
209.13	41.98
209.349	66.56
209.567	9.22
209.786	66.56
210.005	48.13
210.223	50.18
210.442	13.31
210.661	76.8
210.879	82.94
211.098	29.7
211.316	-9.22
211.535	132.09
211.753	91.13
211.972	132.09
212.191	58.37
212.409	31.74
212.628	82.94
212.846	95.23
213.065	91.13
213.283	82.94
213.502	68.61
213.72	-7.17
213.938	31.74
214.157	93.18
214.375	52.22
214.594	33.79
214.812	62.46
215.031	66.56
215.249	1.02
215.467	115.71
215.686	68.61
215.904	76.8
216.122	115.71
216.341	132.09
216.559	17.41
216.778	70.65
216.996	50.18
217.214	44.03
217.432	136.19
217.651	1.02
217.869	-21.5
218.087	-27.65
218.306	7.17
218.524	91.13
218.742	-13.31
218.96	115.71
219.179	1.02
219.397	99.33
219.615	136.19
219.833	109.57
220.051	58.37
220.27	82.94
220.488	44.03
220.706	105.47
220.924	123.9
221.142	21.5
221.36	48.13
221.578	115.71
221.796	119.81
222.015	25.6
222.233	35.84
222.451	93.18
222.669	35.84
222.887	31.74
223.105	50.18
223.323	3.07
223.541	95.23
223.759	64.51
223.977	29.7
224.195	50.18
224.413	82.94
224.631	41.98
224.849	95.23
225.067	99.33
225.285	27.65
225.503	103.42
225.721	-39.94
225.939	58.37
226.157	25.6
226.375	107.52
226.592	5.12
226.81	-29.7
227.028	33.79
227.246	109.57
227.464	44.03
227.682	119.81
227.9	33.79
228.117	-19.46
228.335	72.7
228.553	17.41
228.771	99.33
228.989	41.98
229.206	19.46
229.424	29.7
229.642	21.5
229.86	-13.31
230.077	99.33
230.295	46.08
230.513	89.09
230.731	37.89
230.948	50.18
231.166	107.52
231.384	54.27
231.601	58.37
231.819	125.95
232.037	3.07
232.254	-11.26
232.472	50.18
232.689	37.89
232.907	74.75
233.125	66.56
233.342	-21.5
233.56	27.65
233.777	74.75
233.995	29.7
234.213	99.33
234.43	132.09
234.648	66.56
234.865	50.18
235.083	66.56
235.3	93.18
235.518	50.18
235.735	62.46
235.953	105.47
236.17	76.8
236.388	50.18
236.605	19.46
236.822	82.94
237.04	82.94
237.257	58.37
237.475	54.27
237.692	58.37
237.909	13.31
238.127	27.65
238.344	60.42
238.562	56.32
238.779	50.18
238.996	123.9
239.214	46.08
239.431	66.56
239.648	-11.26
239.865	84.99
240.083	41.98
240.3	132.09
240.517	64.51
240.735	46.08
240.952	82.94
241.169	62.46
241.386	140.29
241.603	25.6
241.821	21.5
242.038	119.81
242.255	87.04
242.472	13.31
242.689	78.85
242.907	52.22
243.124	70.65
243.341	35.84
243.558	70.65
243.775	101.37
243.992	50.18
244.209	146.43
244.426	99.33
244.643	35.84
244.86	33.79
245.078	33.79
245.295	11.26
245.512	115.71
245.729	-5.12
245.946	109.57
246.163	146.43
246.38	50.18
246.597	31.74
246.814	93.18
247.031	52.22
247.248	58.37
247.464	115.71
247.681	66.56
247.898	82.94
248.115	99.33
248.332	58.37
248.549	105.47
248.766	66.56
248.983	60.42
249.2	58.37
249.417	87.04
249.633	25.6
249.85	46.08
250.067	68.61
250.284	60.42
250.501	41.98
250.717	50.18
250.934	109.57
251.151	74.75
251.368	93.18
251.585	35.84
251.801	50.18
252.018	-7.17
252.235	29.7
252.451	13.31
252.668	56.32
252.885	125.95
253.102	76.8
253.318	91.13
253.535	11.26
253.752	50.18
253.968	52.22
254.185	50.18
254.401	21.5
254.618	125.95
254.835	-19.46
255.051	160.77
255.268	97.28
255.484	33.79
255.701	35.84
255.917	58.37
256.134	68.61
256.351	48.13
256.567	35.84
256.784	84.99
257	37.89
257.217	128
257.433	70.65
257.65	111.61
257.866	31.74
258.082	-15.36
258.299	-31.74
258.515	76.8
258.732	80.89
258.948	37.89
259.165	33.79
259.381	33.79
259.597	17.41
259.814	58.37
260.03	29.7
260.246	-56.32
260.463	33.79
260.679	58.37
260.895	17.41
261.112	58.37
261.328	25.6
261.544	70.65
261.761	101.37
261.977	44.03
262.193	19.46
262.409	33.79
262.626	41.98
262.842	70.65
263.058	35.84
263.274	123.9
263.49	60.42
263.707	76.8
263.923	21.5
264.139	48.13
264.355	41.98
264.571	35.84
264.787	140.29
265.004	95.23
265.22	-35.84
265.436	105.47
265.652	-13.31
265.868	93.18
266.084	62.46
266.3	74.75
266.516	9.22
266.732	25.6
266.948	41.98
267.164	33.79
267.38	74.75
267.596	27.65
267.812	91.13
268.028	37.89
268.244	66.56
268.46	41.98
268.676	78.85
268.892	60.42
269.108	78.85
269.324	17.41
269.54	-56.32
269.756	82.94
269.972	89.09
270.188	33.79
270.403	50.18
270.619	58.37
270.835	27.65
271.051	76.8
271.267	52.22
271.483	84.99
271.698	70.65
271.914	52.22
272.13	54.27
272.346	58.37
272.562	62.46
272.777	44.03
272.993	74.75
273.209	1.02
273.425	50.18
273.64	41.98
273.856	115.71
274.072	19.46
274.287	17.41
274.503	97.28
274.719	103.42
274.934	54.27
275.15	-56.32
275.366	5.12
275.581	-21.5
275.797	132.09
276.012	103.42
276.228	62.46
276.444	82.94
276.659	140.29
276.875	15.36
277.09	27.65
277.306	29.7
277.521	58.37
277.737	58.37
277.952	29.7
278.168	70.65
278.383	58.37
278.599	62.46
278.814	33.79
279.03	-1.02
279.245	41.98
279.461	46.08
279.676	84.99
279.892	-19.46
280.107	56.32
280.322	82.94
280.538	107.52
280.753	-3.07
280.969	54.27
281.184	41.98
281.399	95.23
281.615	58.37
281.83	74.75
282.045	-27.65
282.26	95.23
282.476	123.9
282.691	93.18
282.906	91.13
283.122	41.98
283.337	58.37
283.552	76.8
283.767	66.56
283.983	54.27
284.198	25.6
284.413	17.41
284.628	74.75
284.843	-5.12
285.058	95.23
285.274	-15.36
285.489	39.94
285.704	123.9
285.919	41.98
286.134	58.37
286.349	11.26
286.564	27.65
286.779	33.79
286.995	9.22
287.21	37.89
287.425	21.5
287.64	-13.31
287.855	74.75
288.07	-1.02
288.285	60.42
288.5	103.42
288.715	50.18
288.93	39.94
289.145	-5.12
289.36	109.57
289.575	82.94
289.79	164.86
290.004	33.79
290.219	68.61
290.434	70.65
290.649	41.98
290.864	62.46
291.079	66.56
291.294	58.37
291.509	84.99
291.724	97.28
291.938	62.46
292.153	74.75
292.368	3.07
292.583	91.13
292.798	58.37
293.012	41.98
293.227	50.18
293.442	66.56
293.657	68.61
293.871	33.79
294.086	48.13
294.301	33.79
294.516	72.7
294.73	164.86
294.945	50.18
295.16	27.65
295.374	70.65
295.589	60.42
295.804	60.42
296.018	60.42
296.233	48.13
296.447	66.56
296.662	-3.07
296.877	115.71
297.091	84.99
297.306	95.23
297.52	68.61
297.735	111.61
297.949	35.84
298.164	25.6
298.378	56.32
298.593	54.27
298.807	68.61
299.022	35.84
299.236	146.43
299.451	66.56
299.665	33.79
299.88	60.42
300.094	-7.17
300.309	33.79
300.523	150.53
300.737	19.46
300.952	44.03
301.166	115.71
301.381	19.46
301.595	33.79
301.809	39.94
302.024	-15.36
302.238	46.08
302.452	148.48
302.667	48.13
302.881	72.7
303.095	128
303.309	99.33
303.524	23.55
303.738	101.37
303.952	82.94
304.166	60.42
304.381	60.42
304.595	99.33
304.809	23.55
305.023	101.37
305.237	115.71
305.452	54.27
305.666	58.37
305.88	68.61
306.094	101.37
306.308	99.33
306.522	33.79
306.736	125.95
306.95	128
307.164	60.42
307.379	17.41
307.593	66.56
307.807	66.56
308.021	128
308.235	84.99
308.449	68.61
308.663	50.18
308.877	76.8
309.091	82.94
309.305	99.33
309.519	29.7
309.733	87.04
309.947	9.22
310.161	128
310.374	54.27
310.588	134.14
310.802	128
311.016	91.13
311.23	107.52
311.444	115.71
311.658	80.89
311.872	134.14
312.085	70.65
312.299	78.85
312.513	25.6
312.727	107.52
312.941	46.08
313.154	119.81
313.368	97.28
313.582	123.9
313.796	107.52
314.009	84.99
314.223	140.29
314.437	21.5
314.651	17.41
314.864	66.56
315.078	54.27
315.292	58.37
315.505	78.85
315.719	99.33
315.933	13.31
316.146	74.75
316.36	44.03
316.573	103.42
316.787	93.18
317.001	41.98
317.214	66.56
317.428	78.85
317.641	9.22
317.855	84.99
318.068	87.04
318.282	68.61
318.495	91.13
318.709	93.18
318.922	74.75
319.136	76.8
319.349	33.79
319.563	128
319.776	37.89
319.99	23.55
320.203	107.52
320.417	33.79
320.63	101.37
320.843	119.81
321.057	44.03
321.27	41.98
321.483	82.94
321.697	99.33
321.91	41.98
322.124	134.14
322.337	35.84
322.55	-23.55
322.763	101.37
322.977	95.23
323.19	74.75
323.403	-15.36
323.617	64.51
323.83	60.42
324.043	91.13
324.256	33.79
324.469	99.33
324.683	121.85
324.896	66.56
325.109	93.18
325.322	25.6
325.535	62.46
325.748	117.76
325.962	150.53
326.175	39.94
326.388	193.53
326.601	84.99
326.814	35.84
327.027	91.13
327.24	107.52
327.453	62.46
327.666	50.18
327.879	44.03
328.092	66.56
328.305	125.95
328.518	60.42
328.731	17.41
328.944	35.84
329.157	74.75
329.37	21.5
329.583	78.85
329.796	111.61
330.009	70.65
330.222	101.37
330.435	119.81
330.648	27.65
330.861	74.75
331.073	152.57
331.286	84.99
331.499	54.27
331.712	54.27
331.925	78.85
332.138	70.65
332.35	76.8
332.563	-15.36
332.776	87.04
332.989	113.66
333.202	74.75
333.414	74.75
333.627	93.18
333.84	-23.55
334.053	99.33
334.265	113.66
334.478	52.22
334.691	78.85
334.903	68.61
335.116	66.56
335.329	111.61
335.541	60.42
335.754	103.42
335.966	68.61
336.179	54.27
336.392	66.56
336.604	50.18
336.817	113.66
337.029	50.18
337.242	50.18
337.454	111.61
337.667	123.9
337.88	115.71
338.092	78.85
338.305	101.37
338.517	62.46
338.729	70.65
338.942	134.14
339.154	23.55
339.367	27.65
339.579	87.04
339.792	76.8
340.004	27.65
340.217	105.47
340.429	113.66
340.641	19.46
340.854	17.41
341.066	44.03
341.278	101.37
341.491	179.2
341.703	82.94
341.915	41.98
342.128	99.33
342.34	62.46
342.552	93.18
342.764	123.9
342.977	72.7
343.189	50.18
343.401	91.13
343.613	105.47
343.826	84.99
344.038	68.61
344.25	66.56
344.462	68.61
344.674	60.42
344.886	62.46
345.099	58.37
345.311	97.28
345.523	46.08
345.735	62.46
345.947	72.7
346.159	78.85
346.371	27.65
346.583	136.19
346.795	99.33
347.007	27.65
347.219	66.56
347.431	-31.74
347.643	91.13
347.855	82.94
348.067	132.09
348.279	11.26
348.491	74.75
348.703	142.33
348.915	50.18
349.127	-13.31
349.339	19.46
349.551	160.77
349.763	76.8
349.975	68.61
350.187	140.29
350.399	78.85
350.61	99.33
350.822	33.79
351.034	46.08
351.246	70.65
351.458	39.94
351.669	44.03
351.881	117.76
352.093	142.33
352.305	119.81
352.517	76.8
352.728	103.42
352.94	41.98
353.152	84.99
353.363	103.42
353.575	66.56
353.787	123.9
353.999	74.75
354.21	50.18
354.422	46.08
354.633	62.46
354.845	84.99
355.057	39.94
355.268	54.27
355.48	128
355.692	25.6
355.903	74.75
356.115	54.27
356.326	99.33
356.538	117.76
356.749	44.03
356.961	50.18
357.172	68.61
357.384	74.75
357.595	115.71
357.807	101.37
358.018	17.41
358.23	95.23
358.441	82.94
358.653	128
358.864	82.94
359.075	39.94
359.287	107.52
359.498	107.52
359.709	84.99
359.921	74.75
360.132	107.52
360.344	41.98
360.555	37.89
360.766	66.56
360.977	-29.7
361.189	209.92
361.4	132.09
361.611	95.23
361.823	109.57
362.034	107.52
362.245	3.07
362.456	101.37
362.667	54.27
362.879	82.94
363.09	150.53
363.301	82.94
363.512	93.18
363.723	148.48
363.935	29.7
364.146	62.46
364.357	107.52
364.568	50.18
364.779	44.03
364.99	44.03
365.201	21.5
365.412	109.57
365.623	-23.55
365.834	80.89
366.045	58.37
366.256	125.95
366.467	60.42
366.678	111.61
366.889	64.51
367.1	99.33
367.311	115.71
367.522	136.19
367.733	50.18
367.944	99.33
368.155	21.5
368.366	58.37
368.577	105.47
368.788	52.22
368.999	60.42
369.209	25.6
369.42	168.96
369.631	144.38
369.842	52.22
370.053	107.52
370.264	148.48
370.474	107.52
370.685	19.46
370.896	13.31
371.107	144.38
371.317	123.9
371.528	58.37
371.739	130.05
371.95	115.71
372.16	54.27
372.371	74.75
372.582	50.18
372.792	74.75
373.003	74.75
373.214	41.98
373.424	74.75
373.635	29.7
373.846	150.53
374.056	78.85
374.267	84.99
374.477	166.91
374.688	140.29
374.898	95.23
375.109	140.29
375.319	105.47
375.53	148.48
375.74	121.85
375.951	58.37
376.161	58.37
376.372	64.51
376.582	156.67
376.793	93.18
377.003	95.23
377.214	82.94
377.424	39.94
377.635	54.27
377.845	-11.26
378.055	140.29
378.266	44.03
378.476	76.8
378.686	181.25
378.897	66.56
379.107	62.46
379.317	148.48
379.528	93.18
379.738	82.94
379.948	52.22
380.158	156.67
380.369	91.13
380.579	50.18
380.789	164.86
380.999	125.95
381.21	103.42
381.42	148.48
381.63	68.61
381.84	128
382.05	95.23
382.261	146.43
382.471	115.71
382.681	62.46
382.891	58.37
383.101	148.48
383.311	37.89
383.521	74.75
383.731	134.14
383.941	132.09
384.151	136.19
384.361	115.71
384.571	115.71
384.781	95.23
384.991	193.53
385.201	144.38
385.411	123.9
385.621	134.14
385.831	142.33
386.041	91.13
386.251	95.23
386.461	82.94
386.671	31.74
386.881	82.94
387.091	82.94
387.301	84.99
387.511	111.61
387.72	95.23
387.93	33.79
388.14	50.18
388.35	58.37
388.56	128
388.769	107.52
388.979	132.09
389.189	156.67
389.399	134.14
389.609	117.76
389.818	66.56
390.028	136.19
390.238	101.37
390.447	111.61
390.657	123.9
390.867	111.61
391.076	21.5
391.286	82.94
391.496	109.57
391.705	5.12
391.915	205.82
392.125	175.1
392.334	103.42
392.544	91.13
392.753	142.33
392.963	78.85
393.172	185.34
393.382	103.42
393.591	132.09
393.801	84.99
394.01	111.61
394.22	95.23
394.429	117.76
394.639	35.84
394.848	152.57
395.058	160.77
395.267	58.37
395.477	173.05
395.686	91.13
395.895	181.25
396.105	183.29
396.314	185.34
396.524	138.24
396.733	107.52
396.942	146.43
397.152	136.19
397.361	181.25
397.57	58.37
397.78	158.72
397.989	99.33
398.198	238.59
398.407	138.24
398.617	115.71
398.826	76.8
399.035	181.25
399.244	150.53
399.453	123.9
399.663	162.81
399.872	197.63
400.081	70.65
400.29	148.48
400.499	181.25
400.708	142.33
400.917	66.56
401.127	125.95
401.336	123.9
401.545	107.52
401.754	209.92
401.963	140.29
402.172	166.91
402.381	181.25
402.59	199.68
402.799	248.83
403.008	187.39
403.217	160.77
403.426	113.66
403.635	148.48
403.844	191.49
404.053	191.49
404.262	179.2
404.471	238.59
404.68	187.39
404.888	248.83
405.097	220.16
405.306	236.54
405.515	214.01
405.724	248.83
405.933	203.77
406.142	257.02
406.35	242.68
406.559	246.78
406.768	279.55
406.977	259.07
407.185	179.2
407.394	259.07
407.603	248.83
407.812	297.98
408.02	345.08
408.229	263.16
408.438	263.16
408.646	252.92
408.855	304.12
409.064	332.79
409.272	293.88
409.481	388.09
409.69	388.09
409.898	345.08
410.107	414.71
410.315	379.9
410.524	414.71
410.733	433.15
410.941	467.96
411.15	394.23
411.358	443.39
411.567	439.29
411.775	476.15
411.984	492.54
412.192	488.44
412.401	574.46
412.609	533.5
412.818	646.13
413.026	619.51
413.234	664.57
413.443	697.33
413.651	609.27
413.86	697.33
414.068	721.91
414.276	844.79
414.485	748.53
414.693	746.48
414.901	789.49
415.11	812.02
415.318	838.64
415.526	844.79
415.734	924.66
415.943	945.14
416.151	961.52
416.359	1025.01
416.567	1041.39
416.776	975.86
416.984	1190.89
417.192	1137.65
417.4	1123.31
417.608	1151.98
417.817	1246.19
418.025	1256.43
418.233	1385.45
418.441	1344.49
418.649	1364.97
418.857	1532.9
419.065	1569.77
419.273	1479.66
419.481	1489.9
419.689	1754.09
419.897	1762.28
420.105	1860.58
420.313	1815.52
420.521	1872.87
420.729	1975.27
420.937	1983.46
421.145	2032.61
421.353	2200.54
421.561	2198.49
421.769	2288.61
421.977	2474.97
422.185	2378.72
422.393	2503.64
422.601	2687.96
422.809	2671.58
423.017	2657.24
423.224	2884.56
423.432	2876.37
423.64	2929.62
423.848	3195.86
424.056	3050.45
424.263	3367.88
424.471	3386.32
424.679	3308.49
424.887	3498.95
425.094	3664.84
425.302	3711.94
425.51	3834.82
425.718	4115.39
425.925	4131.78
426.133	4236.22
426.341	4375.49
426.548	4606.91
426.756	4639.67
426.964	4613.05
427.171	5012.4
427.379	5131.19
427.586	5264.3
427.794	5249.97
428.001	5403.57
428.209	5829.54
428.417	5723.05
428.624	6091.68
428.832	6071.2
429.039	6063.01
429.247	6017.96
429.454	6654.87
429.662	7039.89
429.869	6632.35
430.076	7168.91
430.284	6800.28
430.491	7050.13
430.699	7691.15
430.906	7566.22
431.114	7863.18
431.321	7941
431.528	8246.15
431.736	8651.64
431.943	9102.2
432.15	8770.43
432.358	8838.01
432.565	9272.18
432.772	9356.15
432.979	9970.54
433.187	10093.41
433.394	10191.72
433.601	10546.02
433.808	10926.94
434.016	10580.83
434.223	11053.91
434.43	11838.28
434.637	11471.7
434.844	12288.84
435.052	12446.53
435.259	12419.91
435.466	12596.03
435.673	12299.08
435.88	13300.53
436.087	13962.03
436.294	13941.55
436.501	13615.92
436.708	13929.26
436.915	14426.92
437.122	15223.58
437.329	14803.74
437.537	15391.51
437.743	15909.65
437.95	15549.2
438.157	16562.95
438.364	16931.58
438.571	16823.04
438.778	17214.2
438.985	18803.43
439.192	18068.2
439.399	18363.11
439.606	18033.39
439.813	19245.79
440.02	20470.47
440.227	20007.63
440.433	19811.03
440.64	20566.73
440.847	20241.1
441.054	20810.43
441.261	22096.56
441.467	21727.92
441.674	22459.05
441.881	23349.92
442.088	23151.26
442.294	23071.39
442.501	23153.31
442.708	24003.22
442.914	24922.76
443.121	26045.04
443.328	25148.03
443.534	27028.07
443.741	26018.42
443.948	25406.08
444.154	27636.31
444.361	27511.39
444.568	27816.54
444.774	27804.25
444.981	27935.32
445.187	29006.41
445.394	30167.6
445.6	29860.41
445.807	32487.95
446.013	31136.29
446.22	31765.02
446.426	33047.05
446.633	33499.65
446.839	34597.36
447.046	33411.59
447.252	35230.18
447.459	34804.2
447.665	34824.68
447.871	36049.37
448.078	38058.43
448.284	36336.09
448.491	37413.32
448.697	38638
448.903	39473.57
449.11	39440.81
449.316	39035.31
449.522	39412.13
449.728	41165.2
449.935	40982.93
450.141	41097.61
450.347	42166.65
450.553	40515.99
450.76	41195.92
450.966	42674.55
451.172	42277.24
451.378	43114.86
451.584	42637.69
451.791	43501.93
451.997	43491.69
452.203	44241.24
452.409	44106.08
452.615	43874.66
452.821	42350.97
453.027	42285.43
453.233	44458.33
453.44	42766.71
453.646	43372.91
453.852	43379.05
454.058	43911.52
454.264	42848.63
454.47	44001.63
454.676	42690.93
454.882	44200.29
455.088	40638.87
455.294	41449.86
455.5	41980.29
455.705	42178.94
455.911	40692.12
456.117	40147.36
456.323	40063.39
456.529	37247.43
456.735	38965.68
456.941	37976.51
457.147	38054.33
457.352	36495.83
457.558	36155.86
457.764	36641.23
457.97	35957.21
458.176	35117.54
458.381	35043.82
458.587	33272.32
458.793	33247.75
458.999	31652.38
459.204	33554.94
459.41	33065.48
459.616	31126.05
459.821	30876.2
460.027	30810.67
460.233	30181.94
460.438	28965.45
460.644	29061.7
460.85	28009.04
461.055	27564.64
461.261	27376.22
461.466	25440.89
461.672	24502.92
461.878	26280.56
462.083	24681.1
462.289	24285.84
462.494	24128.14
462.7	23003.81
462.905	22289.07
463.111	22882.98
463.316	23138.97
463.522	22532.78
463.727	22694.57
463.932	22856.36
464.138	22516.39
464.343	22411.95
464.549	21926.58
464.754	22594.22
464.959	22360.75
465.165	22289.07
465.37	21385.91
465.575	20722.37
465.781	21820.08
465.986	21635.77
