Data from USB4F104151__213__14-45-27-488.txt Node

Date: Thu Mar 13 14:45:27 EDT 2025
User: louis
Spectrometer: USB4F10415
Trigger mode: 4
Integration Time (sec): 2.000000E-2
Scans to average: 1
Electric dark correction enabled: true
Nonlinearity correction enabled: false
Boxcar width: 0
XAxis mode: Wavelengths
Number of Pixels in Spectrum: 3648
>>>>>Begin Spectral Data<<<<<
178.204	-138.92
178.424	-138.92
178.644	-138.92
178.864	-157.35
179.084	-138.92
179.304	-3.75
179.524	0.34
179.744	-59.05
179.964	100.69
180.184	76.12
180.404	-20.14
180.624	10.58
180.844	2.39
181.064	-9.9
181.283	-11.95
181.503	-63.15
181.723	-22.19
181.943	-75.43
182.163	76.12
182.383	29.01
182.602	55.64
182.822	6.49
183.042	88.4
183.262	10.58
183.482	-36.52
183.701	-1.71
183.921	12.63
184.141	61.78
184.361	39.25
184.58	-13.99
184.8	26.96
185.02	-102.06
185.239	-1.71
185.459	43.35
185.679	43.35
185.898	-9.9
186.118	31.06
186.338	8.53
186.557	-1.71
186.777	-22.19
186.997	51.54
187.216	35.16
187.436	26.96
187.655	84.31
187.875	-38.57
188.095	29.01
188.314	-22.19
188.534	18.77
188.753	24.92
188.973	59.73
189.192	35.16
189.412	-3.75
189.631	26.96
189.851	-46.76
190.07	20.82
190.29	39.25
190.509	-40.62
190.729	-71.34
190.948	2.39
191.168	63.83
191.387	98.64
191.607	35.16
191.826	-11.95
192.045	2.39
192.265	43.35
192.484	12.63
192.704	-26.28
192.923	10.58
193.142	10.58
193.362	33.11
193.581	43.35
193.8	10.58
194.02	29.01
194.239	-34.47
194.458	10.58
194.678	12.63
194.897	16.73
195.116	43.35
195.335	-3.75
195.555	-28.33
195.774	51.54
195.993	-50.86
196.212	-22.19
196.432	26.96
196.651	-7.85
196.87	-34.47
197.089	12.63
197.308	43.35
197.528	104.79
197.747	-67.24
197.966	26.96
198.185	96.6
198.404	8.53
198.623	-36.52
198.842	100.69
199.062	18.77
199.281	-3.75
199.5	12.63
199.719	18.77
199.938	84.31
200.157	-5.8
200.376	76.12
200.595	92.5
200.814	39.25
201.033	-1.71
201.252	76.12
201.471	-36.52
201.69	45.4
201.909	-24.23
202.128	47.44
202.347	6.49
202.566	6.49
202.785	29.01
203.004	-16.04
203.223	94.55
203.442	-22.19
203.661	-5.8
203.879	35.16
204.098	59.73
204.317	-63.15
204.536	117.08
204.755	67.92
204.974	137.56
205.193	49.49
205.411	37.2
205.63	74.07
205.849	18.77
206.068	31.06
206.287	4.44
206.505	69.97
206.724	76.12
206.943	69.97
207.162	10.58
207.381	57.68
207.599	-3.75
207.818	26.96
208.037	22.87
208.255	12.63
208.474	112.98
208.693	63.83
208.911	22.87
209.13	76.12
209.349	80.21
209.567	33.11
209.786	94.55
210.005	26.96
210.223	43.35
210.442	72.02
210.661	-3.75
210.879	45.4
211.098	78.16
211.316	-3.75
211.535	104.79
211.753	29.01
211.972	35.16
212.191	-26.28
212.409	-18.09
212.628	41.3
212.846	29.01
213.065	61.78
213.283	94.55
213.502	-36.52
213.72	29.01
213.938	47.44
214.157	22.87
214.375	-52.91
214.594	55.64
214.812	55.64
215.031	-1.71
215.249	51.54
215.467	80.21
215.686	4.44
215.904	72.02
216.122	2.39
216.341	59.73
216.559	39.25
216.778	72.02
216.996	76.12
217.214	45.4
217.432	26.96
217.651	-24.23
217.869	63.83
218.087	63.83
218.306	43.35
218.524	49.49
218.742	-7.85
218.96	47.44
219.179	51.54
219.397	88.4
219.615	102.74
219.833	59.73
220.051	-38.57
220.27	78.16
220.488	-3.75
220.706	76.12
220.924	72.02
221.142	24.92
221.36	14.68
221.578	10.58
221.796	18.77
222.015	-22.19
222.233	2.39
222.451	57.68
222.669	84.31
222.887	20.82
223.105	-1.71
223.323	43.35
223.541	8.53
223.759	67.92
223.977	10.58
224.195	26.96
224.413	84.31
224.631	100.69
224.849	76.12
225.067	51.54
225.285	45.4
225.503	55.64
225.721	-28.33
225.939	-9.9
226.157	-46.76
226.375	59.73
226.592	-13.99
226.81	-5.8
227.028	100.69
227.246	92.5
227.464	59.73
227.682	-5.8
227.9	45.4
228.117	37.2
228.335	65.88
228.553	-3.75
228.771	72.02
228.989	59.73
229.206	29.01
229.424	-3.75
229.642	-44.71
229.86	6.49
230.077	16.73
230.295	39.25
230.513	41.3
230.731	80.21
230.948	47.44
231.166	100.69
231.384	55.64
231.601	12.63
231.819	53.59
232.037	31.06
232.254	-3.75
232.472	59.73
232.689	-1.71
232.907	63.83
233.125	-9.9
233.342	47.44
233.56	-3.75
233.777	51.54
233.995	35.16
234.213	133.46
234.43	24.92
234.648	59.73
234.865	10.58
235.083	31.06
235.3	31.06
235.518	-59.05
235.735	-18.09
235.953	51.54
236.17	57.68
236.388	10.58
236.605	31.06
236.822	94.55
237.04	76.12
237.257	-3.75
237.475	82.26
237.692	-5.8
237.909	43.35
238.127	29.01
238.344	82.26
238.562	43.35
238.779	-67.24
238.996	29.01
239.214	41.3
239.431	51.54
239.648	-9.9
239.865	-46.76
240.083	43.35
240.3	6.49
240.517	-13.99
240.735	10.58
240.952	72.02
241.169	84.31
241.386	31.06
241.603	39.25
241.821	2.39
242.038	39.25
242.255	16.73
242.472	-34.47
242.689	-30.38
242.907	78.16
243.124	10.58
243.341	-83.63
243.558	53.59
243.775	2.39
243.992	4.44
244.209	-11.95
244.426	67.92
244.643	26.96
244.86	98.64
245.078	92.5
245.295	74.07
245.512	47.44
245.729	47.44
245.946	-42.67
246.163	51.54
246.38	72.02
246.597	-13.99
246.814	43.35
247.031	31.06
247.248	31.06
247.464	31.06
247.681	45.4
247.898	2.39
248.115	63.83
248.332	2.39
248.549	55.64
248.766	98.64
248.983	33.11
249.2	-65.19
249.417	74.07
249.633	33.11
249.85	55.64
250.067	-7.85
250.284	43.35
250.501	18.77
250.717	104.79
250.934	-1.71
251.151	31.06
251.368	-13.99
251.585	55.64
251.801	39.25
252.018	-36.52
252.235	55.64
252.451	26.96
252.668	49.49
252.885	16.73
253.102	-1.71
253.318	47.44
253.535	-1.71
253.752	-46.76
253.968	43.35
254.185	45.4
254.401	-11.95
254.618	61.78
254.835	51.54
255.051	31.06
255.268	39.25
255.484	24.92
255.701	47.44
255.917	-20.14
256.134	45.4
256.351	39.25
256.567	-18.09
256.784	41.3
257	4.44
257.217	8.53
257.433	80.21
257.65	29.01
257.866	29.01
258.082	-22.19
258.299	-28.33
258.515	-22.19
258.732	16.73
258.948	-20.14
259.165	6.49
259.381	10.58
259.597	26.96
259.814	104.79
260.03	-3.75
260.246	-13.99
260.463	43.35
260.679	67.92
260.895	31.06
261.112	35.16
261.328	63.83
261.544	14.68
261.761	35.16
261.977	20.82
262.193	22.87
262.409	51.54
262.626	-28.33
262.842	39.25
263.058	-26.28
263.274	4.44
263.49	55.64
263.707	67.92
263.923	102.74
264.139	-5.8
264.355	29.01
264.571	39.25
264.787	29.01
265.004	26.96
265.22	-1.71
265.436	47.44
265.652	8.53
265.868	35.16
266.084	33.11
266.3	-50.86
266.516	-11.95
266.732	92.5
266.948	133.46
267.164	24.92
267.38	-7.85
267.596	-26.28
267.812	67.92
268.028	-42.67
268.244	-13.99
268.46	-18.09
268.676	29.01
268.892	35.16
269.108	-75.43
269.324	67.92
269.54	-5.8
269.756	18.77
269.972	14.68
270.188	78.16
270.403	59.73
270.619	67.92
270.835	47.44
271.051	76.12
271.267	-54.95
271.483	-5.8
271.698	51.54
271.914	72.02
272.13	0.34
272.346	-13.99
272.562	18.77
272.777	67.92
272.993	-7.85
273.209	61.78
273.425	6.49
273.64	92.5
273.856	121.17
274.072	10.58
274.287	-57
274.503	43.35
274.719	49.49
274.934	35.16
275.15	2.39
275.366	65.88
275.581	41.3
275.797	-20.14
276.012	112.98
276.228	2.39
276.444	31.06
276.659	90.45
276.875	51.54
277.09	24.92
277.306	-7.85
277.521	43.35
277.737	2.39
277.952	45.4
278.168	10.58
278.383	-1.71
278.599	24.92
278.814	51.54
279.03	108.88
279.245	160.08
279.461	59.73
279.676	117.08
279.892	10.58
280.107	-71.34
280.322	2.39
280.538	49.49
280.753	-3.75
280.969	63.83
281.184	2.39
281.399	84.31
281.615	0.34
281.83	59.73
282.045	29.01
282.26	-3.75
282.476	53.59
282.691	-3.75
282.906	-16.04
283.122	18.77
283.337	47.44
283.552	10.58
283.767	-26.28
283.983	-22.19
284.198	-22.19
284.413	18.77
284.628	-11.95
284.843	14.68
285.058	59.73
285.274	43.35
285.489	-13.99
285.704	49.49
285.919	-24.23
286.134	37.2
286.349	37.2
286.564	84.31
286.779	53.59
286.995	22.87
287.21	6.49
287.425	45.4
287.64	-46.76
287.855	-20.14
288.07	65.88
288.285	55.64
288.5	43.35
288.715	78.16
288.93	-11.95
289.145	12.63
289.36	-20.14
289.575	26.96
289.79	53.59
290.004	35.16
290.219	76.12
290.434	55.64
290.649	-28.33
290.864	-52.91
291.079	-9.9
291.294	67.92
291.509	78.16
291.724	12.63
291.938	82.26
292.153	102.74
292.368	10.58
292.583	78.16
292.798	4.44
293.012	37.2
293.227	63.83
293.442	-1.71
293.657	35.16
293.871	57.68
294.086	-46.76
294.301	69.97
294.516	51.54
294.73	29.01
294.945	41.3
295.16	18.77
295.374	-9.9
295.589	84.31
295.804	63.83
296.018	47.44
296.233	4.44
296.447	10.58
296.662	43.35
296.877	43.35
297.091	47.44
297.306	76.12
297.52	-28.33
297.735	10.58
297.949	35.16
298.164	-22.19
298.378	-9.9
298.593	4.44
298.807	-38.57
299.022	-38.57
299.236	37.2
299.451	78.16
299.665	45.4
299.88	39.25
300.094	10.58
300.309	6.49
300.523	12.63
300.737	-9.9
300.952	55.64
301.166	94.55
301.381	2.39
301.595	108.88
301.809	51.54
302.024	-67.24
302.238	14.68
302.452	72.02
302.667	10.58
302.881	51.54
303.095	2.39
303.309	55.64
303.524	67.92
303.738	47.44
303.952	-5.8
304.166	8.53
304.381	-34.47
304.595	33.11
304.809	-3.75
305.023	35.16
305.237	2.39
305.452	6.49
305.666	39.25
305.88	59.73
306.094	47.44
306.308	43.35
306.522	-1.71
306.736	67.92
306.95	0.34
307.164	41.3
307.379	86.36
307.593	100.69
307.807	-9.9
308.021	59.73
308.235	39.25
308.449	-42.67
308.663	41.3
308.877	59.73
309.091	59.73
309.305	74.07
309.519	35.16
309.733	86.36
309.947	-5.8
310.161	33.11
310.374	51.54
310.588	43.35
310.802	-75.43
311.016	-13.99
311.23	92.5
311.444	-9.9
311.658	-36.52
311.872	84.31
312.085	67.92
312.299	2.39
312.513	35.16
312.727	72.02
312.941	53.59
313.154	59.73
313.368	2.39
313.582	14.68
313.796	-22.19
314.009	45.4
314.223	100.69
314.437	67.92
314.651	143.7
314.864	104.79
315.078	45.4
315.292	63.83
315.505	10.58
315.719	55.64
315.933	45.4
316.146	10.58
316.36	67.92
316.573	26.96
316.787	59.73
317.001	86.36
317.214	45.4
317.428	31.06
317.641	24.92
317.855	10.58
318.068	14.68
318.282	131.41
318.495	84.31
318.709	51.54
318.922	61.78
319.136	51.54
319.349	10.58
319.563	63.83
319.776	31.06
319.99	-46.76
320.203	8.53
320.417	-20.14
320.63	76.12
320.843	104.79
321.057	12.63
321.27	100.69
321.483	39.25
321.697	12.63
321.91	14.68
322.124	49.49
322.337	43.35
322.55	37.2
322.763	59.73
322.977	-1.71
323.19	-65.19
323.403	80.21
323.617	106.84
323.83	108.88
324.043	-1.71
324.256	59.73
324.469	-3.75
324.683	43.35
324.896	61.78
325.109	125.27
325.322	-52.91
325.535	67.92
325.748	20.82
325.962	108.88
326.175	51.54
326.388	92.5
326.601	22.87
326.814	4.44
327.027	20.82
327.24	63.83
327.453	51.54
327.666	24.92
327.879	121.17
328.092	59.73
328.305	45.4
328.518	18.77
328.731	10.58
328.944	69.97
329.157	-26.28
329.37	84.31
329.583	74.07
329.796	180.56
330.009	55.64
330.222	43.35
330.435	35.16
330.648	26.96
330.861	74.07
331.073	51.54
331.286	65.88
331.499	31.06
331.712	26.96
331.925	39.25
332.138	43.35
332.35	69.97
332.563	10.58
332.776	43.35
332.989	-28.33
333.202	20.82
333.414	12.63
333.627	133.46
333.84	53.59
334.053	63.83
334.265	39.25
334.478	2.39
334.691	29.01
334.903	39.25
335.116	-5.8
335.329	45.4
335.541	20.82
335.754	78.16
335.966	31.06
336.179	59.73
336.392	-20.14
336.604	110.93
336.817	94.55
337.029	53.59
337.242	129.36
337.454	63.83
337.667	-38.57
337.88	104.79
338.092	29.01
338.305	37.2
338.517	-36.52
338.729	61.78
338.942	43.35
339.154	-59.05
339.367	26.96
339.579	47.44
339.792	39.25
340.004	12.63
340.217	22.87
340.429	94.55
340.641	-1.71
340.854	-75.43
341.066	-22.19
341.278	12.63
341.491	76.12
341.703	18.77
341.915	37.2
342.128	80.21
342.34	14.68
342.552	26.96
342.764	43.35
342.977	78.16
343.189	-65.19
343.401	26.96
343.613	-59.05
343.826	47.44
344.038	-28.33
344.25	45.4
344.462	6.49
344.674	37.2
344.886	8.53
345.099	67.92
345.311	-28.33
345.523	26.96
345.735	-77.48
345.947	65.88
346.159	-16.04
346.371	2.39
346.583	16.73
346.795	127.32
347.007	20.82
347.219	26.96
347.431	0.34
347.643	35.16
347.855	-54.95
348.067	51.54
348.279	-11.95
348.491	35.16
348.703	63.83
348.915	29.01
349.127	10.58
349.339	51.54
349.551	39.25
349.763	100.69
349.975	-5.8
350.187	51.54
350.399	76.12
350.61	90.45
350.822	-3.75
351.034	104.79
351.246	-13.99
351.458	10.58
351.669	92.5
351.881	26.96
352.093	80.21
352.305	53.59
352.517	61.78
352.728	67.92
352.94	112.98
353.152	37.2
353.363	-13.99
353.575	10.58
353.787	72.02
353.999	76.12
354.21	2.39
354.422	61.78
354.633	-1.71
354.845	-9.9
355.057	55.64
355.268	51.54
355.48	4.44
355.692	26.96
355.903	-20.14
356.115	39.25
356.326	-26.28
356.538	37.2
356.749	47.44
356.961	76.12
357.172	-22.19
357.384	76.12
357.595	125.27
357.807	29.01
358.018	-5.8
358.23	72.02
358.441	112.98
358.653	121.17
358.864	45.4
359.075	67.92
359.287	14.68
359.498	72.02
359.709	-3.75
359.921	43.35
360.132	63.83
360.344	2.39
360.555	31.06
360.766	72.02
360.977	-42.67
361.189	65.88
361.4	26.96
361.611	-3.75
361.823	20.82
362.034	39.25
362.245	47.44
362.456	35.16
362.667	18.77
362.879	67.92
363.09	90.45
363.301	35.16
363.512	67.92
363.723	61.78
363.935	35.16
364.146	24.92
364.357	10.58
364.568	67.92
364.779	-30.38
364.99	133.46
365.201	-22.19
365.412	84.31
365.623	22.87
365.834	65.88
366.045	74.07
366.256	88.4
366.467	35.16
366.678	24.92
366.889	51.54
367.1	10.58
367.311	59.73
367.522	49.49
367.733	80.21
367.944	29.01
368.155	31.06
368.366	4.44
368.577	59.73
368.788	106.84
368.999	100.69
369.209	51.54
369.42	151.89
369.631	104.79
369.842	14.68
370.053	-3.75
370.264	67.92
370.474	-46.76
370.685	41.3
370.896	86.36
371.107	12.63
371.317	29.01
371.528	39.25
371.739	63.83
371.95	74.07
372.16	26.96
372.371	22.87
372.582	47.44
372.792	22.87
373.003	96.6
373.214	26.96
373.424	51.54
373.635	67.92
373.846	110.93
374.056	47.44
374.267	-28.33
374.477	63.83
374.688	108.88
374.898	10.58
375.109	35.16
375.319	18.77
375.53	80.21
375.74	18.77
375.951	53.59
376.161	12.63
376.372	12.63
376.582	12.63
376.793	-13.99
377.003	-30.38
377.214	-3.75
377.424	33.11
377.635	88.4
377.845	76.12
378.055	51.54
378.266	-22.19
378.476	84.31
378.686	98.64
378.897	86.36
379.107	51.54
379.317	88.4
379.528	16.73
379.738	108.88
379.948	2.39
380.158	67.92
380.369	72.02
380.579	74.07
380.789	-30.38
380.999	78.16
381.21	51.54
381.42	61.78
381.63	12.63
381.84	63.83
382.05	45.4
382.261	69.97
382.471	96.6
382.681	72.02
382.891	26.96
383.101	76.12
383.311	-11.95
383.521	104.79
383.731	51.54
383.941	26.96
384.151	45.4
384.361	26.96
384.571	35.16
384.781	69.97
384.991	84.31
385.201	94.55
385.411	67.92
385.621	63.83
385.831	24.92
386.041	106.84
386.251	45.4
386.461	100.69
386.671	43.35
386.881	102.74
387.091	102.74
387.301	74.07
387.511	72.02
387.72	55.64
387.93	18.77
388.14	61.78
388.35	106.84
388.56	78.16
388.769	63.83
388.979	84.31
389.189	-18.09
389.399	80.21
389.609	72.02
389.818	72.02
390.028	78.16
390.238	153.94
390.447	22.87
390.657	-5.8
390.867	35.16
391.076	18.77
391.286	8.53
391.496	29.01
391.705	67.92
391.915	112.98
392.125	82.26
392.334	51.54
392.544	12.63
392.753	61.78
392.963	86.36
393.172	47.44
393.382	98.64
393.591	117.08
393.801	22.87
394.01	92.5
394.22	117.08
394.429	72.02
394.639	-5.8
394.848	59.73
395.058	141.65
395.267	86.36
395.477	84.31
395.686	35.16
395.895	110.93
396.105	129.36
396.314	59.73
396.524	76.12
396.733	43.35
396.942	100.69
397.152	125.27
397.361	192.85
397.57	26.96
397.78	84.31
397.989	65.88
398.198	133.46
398.407	43.35
398.617	57.68
398.826	35.16
399.035	104.79
399.244	82.26
399.453	84.31
399.663	96.6
399.872	121.17
400.081	108.88
400.29	121.17
400.499	53.59
400.708	158.03
400.917	110.93
401.127	170.32
401.336	18.77
401.545	184.66
401.754	149.84
401.963	123.22
402.172	102.74
402.381	45.4
402.59	90.45
402.799	100.69
403.008	147.8
403.217	141.65
403.426	8.53
403.635	33.11
403.844	133.46
404.053	117.08
404.262	94.55
404.471	178.51
404.68	117.08
404.888	94.55
405.097	51.54
405.306	100.69
405.515	125.27
405.724	125.27
405.933	209.23
406.142	141.65
406.35	141.65
406.559	121.17
406.768	170.32
406.977	215.38
407.185	215.38
407.394	184.66
407.603	51.54
407.812	215.38
408.02	166.23
408.229	108.88
408.438	186.71
408.646	219.47
408.855	145.75
409.064	274.77
409.272	227.67
409.481	209.23
409.69	158.03
409.898	184.66
410.107	237.91
410.315	350.54
410.524	207.19
410.733	268.63
410.941	274.77
411.15	381.26
411.358	307.54
411.567	364.88
411.775	330.06
411.984	354.64
412.192	371.02
412.401	338.26
412.609	432.46
412.818	436.56
413.026	411.98
413.234	411.98
413.443	409.94
413.651	383.31
413.86	510.29
414.068	498
414.276	592.2
414.485	569.68
414.693	510.29
414.901	596.3
415.11	567.63
415.318	534.86
415.526	655.69
415.734	706.89
415.943	696.65
416.151	602.44
416.359	665.93
416.567	682.31
416.776	815.43
416.984	770.38
417.192	817.48
417.4	756.04
417.608	819.53
417.817	858.44
418.025	928.07
418.233	977.22
418.441	948.55
418.649	1009.99
418.857	1046.85
419.065	1100.1
419.273	1036.61
419.481	1149.25
419.689	1251.65
419.897	1313.09
420.105	1196.36
420.313	1229.12
420.521	1347.9
420.729	1362.24
420.937	1397.06
421.145	1405.25
421.353	1417.54
421.561	1624.38
421.769	1595.71
421.977	1636.67
422.185	1755.45
422.393	1765.69
422.601	1796.41
422.809	1831.23
423.017	1837.37
423.224	1907
423.432	2005.3
423.64	2033.97
423.848	2197.81
424.056	2230.58
424.263	2314.55
424.471	2396.46
424.679	2375.99
424.887	2502.96
425.094	2541.87
425.302	2445.62
425.51	2734.38
425.718	2763.05
425.925	2697.52
426.133	2859.31
426.341	3010.86
426.548	3158.31
426.756	3033.38
426.964	3369.25
427.171	3412.26
427.379	3432.74
427.586	3553.57
427.794	3533.09
428.001	3780.89
428.209	4106.52
428.417	3977.5
428.624	4213.01
428.832	4155.67
429.039	4221.2
429.247	4223.25
429.454	4589.84
429.662	4655.37
429.869	4448.53
430.076	4876.55
430.284	4733.2
430.491	4921.61
430.699	5171.46
430.906	5241.09
431.114	5146.89
431.321	5503.23
431.528	5632.26
431.736	6025.47
431.943	6211.83
432.15	6023.42
432.358	5982.46
432.565	6363.38
432.772	6420.72
432.979	6873.32
433.187	6721.77
433.394	6803.69
433.601	7385.32
433.808	7422.18
434.016	7094.51
434.223	7512.29
434.43	8030.43
434.637	8007.9
434.844	8386.77
435.052	8386.77
435.259	8243.42
435.466	8589.52
435.673	8317.14
435.88	9119.95
436.087	9500.87
436.294	9482.44
436.501	9423.05
436.708	9439.43
436.915	9912.51
437.122	10647.73
437.329	10231.99
437.537	10713.27
437.743	10752.18
437.95	10793.14
438.157	11137.2
438.364	11481.25
438.571	11593.89
438.778	11540.65
438.985	12576.92
439.192	12216.47
439.399	12650.64
439.606	12128.41
439.813	13043.85
440.02	13553.8
440.227	13480.07
440.433	13371.53
440.64	13940.86
440.847	13660.29
441.054	14055.55
441.261	15016.05
441.467	14653.56
441.674	14940.27
441.881	15566.95
442.088	15485.03
442.294	15267.95
442.501	15972.45
442.708	16083.04
442.914	16783.45
443.121	17573.96
443.328	17041.49
443.534	18053.19
443.741	17463.37
443.948	17215.57
444.154	18767.93
444.361	18587.71
444.568	18569.27
444.774	18626.62
444.981	18714.68
445.187	19593.26
445.394	20264.99
445.6	20238.37
445.807	21862.41
446.013	20981.78
446.22	21450.77
446.426	22247.43
446.633	22611.96
446.839	23404.53
447.046	22329.34
447.252	23586.8
447.459	23605.23
447.665	23373.81
447.871	24289.25
448.078	25360.34
448.284	24125.41
448.491	25122.77
448.697	25898.95
448.903	26236.87
449.11	26247.11
449.316	26036.17
449.522	26400.71
449.728	27166.65
449.935	27387.83
450.141	27275.19
450.347	28002.22
450.553	27103.16
450.76	27379.64
450.966	28389.28
451.172	27961.26
451.378	29022.11
451.584	28198.82
451.791	29018.01
451.997	28934.04
452.203	29327.25
452.409	29470.61
452.615	29403.03
452.821	28190.63
453.027	27596.72
453.233	29400.98
453.44	28112.81
453.646	28403.62
453.852	28719.01
454.058	29140.89
454.264	28366.76
454.47	29091.74
454.676	28061.61
454.882	29343.64
455.088	26779.58
455.294	27135.93
455.5	27344.82
455.705	27801.52
455.911	26836.92
456.117	26625.98
456.323	25966.54
456.529	24850.39
456.735	25688.01
456.941	24948.7
457.147	24653.79
457.352	23891.94
457.558	23707.63
457.764	23789.55
457.97	23295.99
458.176	22927.35
458.381	23107.57
458.587	21641.23
458.793	21710.86
458.999	20660.25
459.204	22147.08
459.41	21403.66
459.616	19890.21
459.821	20031.52
460.027	19853.35
460.233	19556.39
460.438	18663.48
460.644	18972.72
460.85	17883.2
461.055	17715.27
461.261	17440.84
461.466	16386.14
461.672	16109.66
461.878	16781.4
462.083	15880.29
462.289	15495.27
462.494	15343.72
462.7	14973.04
462.905	14430.33
463.111	15175.79
463.316	15067.25
463.522	14639.22
463.727	14585.97
463.932	14561.4
464.138	14456.95
464.343	14512.25
464.549	14080.13
464.754	14653.56
464.959	14323.83
465.165	14166.14
465.37	13648.01
465.575	13385.87
465.781	13740.16
465.986	13987.97
466.191	13443.21
466.397	13133.96
466.602	12495
466.807	13066.38
467.012	12871.82
467.218	12849.3
467.423	12597.4
