Data from USB4F104151__282__14-46-22-295.txt Node

Date: Thu Mar 13 14:46:22 EDT 2025
User: louis
Spectrometer: USB4F10415
Trigger mode: 4
Integration Time (sec): 2.000000E-2
Scans to average: 1
Electric dark correction enabled: true
Nonlinearity correction enabled: false
Boxcar width: 0
XAxis mode: Wavelengths
Number of Pixels in Spectrum: 3648
>>>>>Begin Spectral Data<<<<<
178.204	-48.47
178.424	-48.47
178.644	-48.47
178.864	-62.8
179.084	-130.39
179.304	-34.13
179.524	-11.61
179.744	0.68
179.964	33.45
180.184	33.45
180.404	-15.7
180.624	-11.61
180.844	62.12
181.064	-58.71
181.283	0.68
181.503	0.68
181.723	0.68
181.943	4.78
182.163	119.46
182.383	82.6
182.602	84.65
182.822	76.46
183.042	115.37
183.262	-44.37
183.482	15.02
183.701	4.78
183.921	82.6
184.141	0.68
184.361	113.32
184.58	12.97
184.8	115.37
185.02	12.97
185.239	8.87
185.459	103.08
185.679	49.83
185.898	66.22
186.118	88.75
186.338	58.03
186.557	17.07
186.777	92.84
186.997	-46.42
187.216	43.69
187.436	158.38
187.655	27.31
187.875	58.03
188.095	-11.61
188.314	117.42
188.534	60.07
188.753	8.87
188.973	133.8
189.192	-15.7
189.412	90.79
189.631	35.5
189.851	92.84
190.07	-15.7
190.29	90.79
190.509	25.26
190.729	66.22
190.948	94.89
191.168	162.47
191.387	17.07
191.607	25.26
191.826	70.31
192.045	53.93
192.265	68.27
192.484	12.97
192.704	8.87
192.923	8.87
193.142	70.31
193.362	49.83
193.581	78.51
193.8	25.26
194.02	-5.46
194.239	25.26
194.458	6.83
194.678	21.16
194.897	111.27
195.116	82.6
195.335	101.03
195.555	-7.51
195.774	66.22
195.993	74.41
196.212	70.31
196.432	45.74
196.651	8.87
196.87	92.84
197.089	133.8
197.308	62.12
197.528	98.99
197.747	29.35
197.966	66.22
198.185	125.61
198.404	58.03
198.623	35.5
198.842	0.68
199.062	45.74
199.281	37.55
199.5	-19.8
199.719	62.12
199.938	133.8
200.157	25.26
200.376	70.31
200.595	86.7
200.814	74.41
201.033	27.31
201.252	64.17
201.471	70.31
201.69	160.42
201.909	49.83
202.128	94.89
202.347	55.98
202.566	62.12
202.785	0.68
203.004	21.16
203.223	88.75
203.442	-25.94
203.661	64.17
203.879	68.27
204.098	117.42
204.317	17.07
204.536	123.56
204.755	-15.7
204.974	33.45
205.193	66.22
205.411	146.09
205.63	43.69
205.849	78.51
206.068	0.68
206.287	49.83
206.505	107.18
206.724	-7.51
206.943	-3.41
207.162	49.83
207.381	25.26
207.599	6.83
207.818	47.79
208.037	66.22
208.255	41.64
208.474	-7.51
208.693	131.75
208.911	-46.42
209.13	66.22
209.349	25.26
209.567	33.45
209.786	70.31
210.005	53.93
210.223	119.46
210.442	84.65
210.661	29.35
210.879	49.83
211.098	33.45
211.316	86.7
211.535	41.64
211.753	66.22
211.972	27.31
212.191	33.45
212.409	58.03
212.628	101.03
212.846	-19.8
213.065	27.31
213.283	47.79
213.502	-7.51
213.72	62.12
213.938	135.85
214.157	74.41
214.375	58.03
214.594	82.6
214.812	62.12
215.031	21.16
215.249	80.55
215.467	103.08
215.686	12.97
215.904	49.83
216.122	172.71
216.341	103.08
216.559	41.64
216.778	39.59
216.996	76.46
217.214	47.79
217.432	37.55
217.651	6.83
217.869	68.27
218.087	19.11
218.306	51.88
218.524	86.7
218.742	41.64
218.96	94.89
219.179	45.74
219.397	53.93
219.615	133.8
219.833	60.07
220.051	78.51
220.27	60.07
220.488	68.27
220.706	58.03
220.924	47.79
221.142	2.73
221.36	-7.51
221.578	62.12
221.796	74.41
222.015	49.83
222.233	33.45
222.451	109.23
222.669	4.78
222.887	164.52
223.105	53.93
223.323	55.98
223.541	12.97
223.759	68.27
223.977	17.07
224.195	86.7
224.413	76.46
224.631	-11.61
224.849	15.02
225.067	64.17
225.285	37.55
225.503	25.26
225.721	-64.85
225.939	68.27
226.157	68.27
226.375	148.14
226.592	-27.99
226.81	25.26
227.028	129.7
227.246	107.18
227.464	21.16
227.682	90.79
227.9	19.11
228.117	43.69
228.335	68.27
228.553	58.03
228.771	84.65
228.989	90.79
229.206	123.56
229.424	72.36
229.642	90.79
229.86	76.46
230.077	74.41
230.295	68.27
230.513	70.31
230.731	92.84
230.948	17.07
231.166	148.14
231.384	-23.89
231.601	-5.46
231.819	117.42
232.037	68.27
232.254	74.41
232.472	43.69
232.689	27.31
232.907	119.46
233.125	74.41
233.342	49.83
233.56	72.36
233.777	92.84
233.995	74.41
234.213	60.07
234.43	19.11
234.648	86.7
234.865	0.68
235.083	96.94
235.3	49.83
235.518	-23.89
235.735	152.23
235.953	117.42
236.17	17.07
236.388	10.92
236.605	92.84
236.822	62.12
237.04	139.94
237.257	23.21
237.475	33.45
237.692	45.74
237.909	137.9
238.127	60.07
238.344	70.31
238.562	33.45
238.779	-13.65
238.996	-3.41
239.214	86.7
239.431	90.79
239.648	0.68
239.865	109.23
240.083	90.79
240.3	35.5
240.517	8.87
240.735	76.46
240.952	82.6
241.169	37.55
241.386	119.46
241.603	84.65
241.821	25.26
242.038	49.83
242.255	74.41
242.472	-19.8
242.689	-5.46
242.907	82.6
243.124	51.88
243.341	41.64
243.558	-9.56
243.775	-27.99
243.992	25.26
244.209	33.45
244.426	90.79
244.643	33.45
244.86	-30.04
245.078	41.64
245.295	66.22
245.512	84.65
245.729	39.59
245.946	117.42
246.163	94.89
246.38	82.6
246.597	53.93
246.814	70.31
247.031	41.64
247.248	101.03
247.464	80.55
247.681	-5.46
247.898	70.31
248.115	43.69
248.332	10.92
248.549	101.03
248.766	144.04
248.983	8.87
249.2	64.17
249.417	98.99
249.633	-32.08
249.85	58.03
250.067	98.99
250.284	41.64
250.501	-17.75
250.717	107.18
250.934	51.88
251.151	90.79
251.368	55.98
251.585	129.7
251.801	70.31
252.018	19.11
252.235	33.45
252.451	-3.41
252.668	80.55
252.885	90.79
253.102	60.07
253.318	4.78
253.535	115.37
253.752	49.83
253.968	-25.94
254.185	-17.75
254.401	29.35
254.618	76.46
254.835	-3.41
255.051	96.94
255.268	25.26
255.484	49.83
255.701	25.26
255.917	45.74
256.134	33.45
256.351	125.61
256.567	21.16
256.784	64.17
257	88.75
257.217	111.27
257.433	8.87
257.65	90.79
257.866	70.31
258.082	82.6
258.299	12.97
258.515	17.07
258.732	76.46
258.948	21.16
259.165	-11.61
259.381	15.02
259.597	98.99
259.814	35.5
260.03	90.79
260.246	103.08
260.463	74.41
260.679	84.65
260.895	62.12
261.112	66.22
261.328	76.46
261.544	60.07
261.761	60.07
261.977	78.51
262.193	-56.66
262.409	51.88
262.626	60.07
262.842	29.35
263.058	41.64
263.274	90.79
263.49	107.18
263.707	98.99
263.923	0.68
264.139	-11.61
264.355	68.27
264.571	35.5
264.787	86.7
265.004	115.37
265.22	86.7
265.436	-23.89
265.652	74.41
265.868	78.51
266.084	35.5
266.3	49.83
266.516	12.97
266.732	21.16
266.948	119.46
267.164	21.16
267.38	62.12
267.596	62.12
267.812	90.79
268.028	90.79
268.244	127.66
268.46	90.79
268.676	41.64
268.892	66.22
269.108	33.45
269.324	68.27
269.54	41.64
269.756	47.79
269.972	-3.41
270.188	8.87
270.403	35.5
270.619	68.27
270.835	68.27
271.051	33.45
271.267	15.02
271.483	84.65
271.698	76.46
271.914	33.45
272.13	86.7
272.346	-3.41
272.562	82.6
272.777	19.11
272.993	45.74
273.209	58.03
273.425	19.11
273.64	49.83
273.856	82.6
274.072	23.21
274.287	41.64
274.503	86.7
274.719	0.68
274.934	19.11
275.15	58.03
275.366	12.97
275.581	72.36
275.797	17.07
276.012	58.03
276.228	72.36
276.444	51.88
276.659	141.99
276.875	94.89
277.09	41.64
277.306	76.46
277.521	76.46
277.737	49.83
277.952	90.79
278.168	64.17
278.383	43.69
278.599	39.59
278.814	117.42
279.03	35.5
279.245	98.99
279.461	60.07
279.676	82.6
279.892	-32.08
280.107	41.64
280.322	8.87
280.538	53.93
280.753	10.92
280.969	84.65
281.184	58.03
281.399	49.83
281.615	72.36
281.83	107.18
282.045	72.36
282.26	49.83
282.476	101.03
282.691	90.79
282.906	43.69
283.122	37.55
283.337	-15.7
283.552	21.16
283.767	111.27
283.983	2.73
284.198	25.26
284.413	33.45
284.628	15.02
284.843	76.46
285.058	19.11
285.274	123.56
285.489	43.69
285.704	74.41
285.919	60.07
286.134	58.03
286.349	-23.89
286.564	78.51
286.779	27.31
286.995	39.59
287.21	66.22
287.425	127.66
287.64	0.68
287.855	45.74
288.07	-15.7
288.285	98.99
288.5	17.07
288.715	101.03
288.93	27.31
289.145	8.87
289.36	74.41
289.575	35.5
289.79	62.12
290.004	82.6
290.219	98.99
290.434	41.64
290.649	21.16
290.864	0.68
291.079	-23.89
291.294	58.03
291.509	-11.61
291.724	76.46
291.938	66.22
292.153	98.99
292.368	27.31
292.583	41.64
292.798	74.41
293.012	66.22
293.227	19.11
293.442	53.93
293.657	92.84
293.871	107.18
294.086	45.74
294.301	76.46
294.516	70.31
294.73	58.03
294.945	2.73
295.16	41.64
295.374	148.14
295.589	8.87
295.804	4.78
296.018	64.17
296.233	68.27
296.447	115.37
296.662	127.66
296.877	33.45
297.091	19.11
297.306	51.88
297.52	-30.04
297.735	60.07
297.949	146.09
298.164	74.41
298.378	82.6
298.593	2.73
298.807	25.26
299.022	0.68
299.236	35.5
299.451	-48.47
299.665	-7.51
299.88	78.51
300.094	25.26
300.309	8.87
300.523	19.11
300.737	74.41
300.952	51.88
301.166	49.83
301.381	82.6
301.595	45.74
301.809	25.26
302.024	21.16
302.238	-21.85
302.452	129.7
302.667	27.31
302.881	133.8
303.095	62.12
303.309	58.03
303.524	21.16
303.738	66.22
303.952	76.46
304.166	68.27
304.381	33.45
304.595	109.23
304.809	49.83
305.023	62.12
305.237	82.6
305.452	76.46
305.666	62.12
305.88	37.55
306.094	58.03
306.308	139.94
306.522	68.27
306.736	82.6
306.95	27.31
307.164	82.6
307.379	86.7
307.593	82.6
307.807	131.75
308.021	58.03
308.235	123.56
308.449	84.65
308.663	4.78
308.877	160.42
309.091	58.03
309.305	141.99
309.519	66.22
309.733	90.79
309.947	27.31
310.161	62.12
310.374	25.26
310.588	72.36
310.802	-52.56
311.016	10.92
311.23	41.64
311.444	-9.56
311.658	74.41
311.872	103.08
312.085	76.46
312.299	76.46
312.513	66.22
312.727	29.35
312.941	-3.41
313.154	68.27
313.368	19.11
313.582	70.31
313.796	119.46
314.009	55.98
314.223	68.27
314.437	127.66
314.651	45.74
314.864	37.55
315.078	78.51
315.292	70.31
315.505	86.7
315.719	74.41
315.933	10.92
316.146	58.03
316.36	66.22
316.573	82.6
316.787	86.7
317.001	27.31
317.214	-11.61
317.428	86.7
317.641	25.26
317.855	101.03
318.068	74.41
318.282	115.37
318.495	35.5
318.709	135.85
318.922	23.21
319.136	109.23
319.349	88.75
319.563	43.69
319.776	55.98
319.99	23.21
320.203	107.18
320.417	70.31
320.63	41.64
320.843	117.42
321.057	68.27
321.27	19.11
321.483	58.03
321.697	90.79
321.91	41.64
322.124	103.08
322.337	21.16
322.55	80.55
322.763	60.07
322.977	51.88
323.19	8.87
323.403	8.87
323.617	53.93
323.83	88.75
324.043	101.03
324.256	115.37
324.469	-1.37
324.683	60.07
324.896	51.88
325.109	29.35
325.322	-32.08
325.535	82.6
325.748	-13.65
325.962	82.6
326.175	58.03
326.388	88.75
326.601	115.37
326.814	-9.56
327.027	115.37
327.24	135.85
327.453	29.35
327.666	148.14
327.879	86.7
328.092	78.51
328.305	68.27
328.518	-21.85
328.731	23.21
328.944	90.79
329.157	4.78
329.37	156.33
329.583	66.22
329.796	103.08
330.009	0.68
330.222	92.84
330.435	78.51
330.648	33.45
330.861	86.7
331.073	58.03
331.286	43.69
331.499	82.6
331.712	29.35
331.925	74.41
332.138	113.32
332.35	66.22
332.563	8.87
332.776	90.79
332.989	53.93
333.202	80.55
333.414	49.83
333.627	94.89
333.84	64.17
334.053	64.17
334.265	70.31
334.478	92.84
334.691	117.42
334.903	53.93
335.116	2.73
335.329	78.51
335.541	82.6
335.754	35.5
335.966	27.31
336.179	66.22
336.392	55.98
336.604	113.32
336.817	25.26
337.029	119.46
337.242	25.26
337.454	66.22
337.667	66.22
337.88	58.03
338.092	150.18
338.305	98.99
338.517	37.55
338.729	92.84
338.942	109.23
339.154	25.26
339.367	-15.7
339.579	107.18
339.792	58.03
340.004	25.26
340.217	8.87
340.429	76.46
340.641	43.69
340.854	101.03
341.066	70.31
341.278	92.84
341.491	139.94
341.703	74.41
341.915	96.94
342.128	98.99
342.34	123.56
342.552	10.92
342.764	98.99
342.977	25.26
343.189	117.42
343.401	119.46
343.613	35.5
343.826	33.45
344.038	-13.65
344.25	82.6
344.462	45.74
344.674	78.51
344.886	49.83
345.099	51.88
345.311	25.26
345.523	72.36
345.735	27.31
345.947	60.07
346.159	74.41
346.371	88.75
346.583	103.08
346.795	94.89
347.007	4.78
347.219	51.88
347.431	60.07
347.643	94.89
347.855	84.65
348.067	94.89
348.279	86.7
348.491	49.83
348.703	39.59
348.915	53.93
349.127	84.65
349.339	62.12
349.551	60.07
349.763	82.6
349.975	51.88
350.187	117.42
350.399	74.41
350.61	21.16
350.822	41.64
351.034	62.12
351.246	21.16
351.458	21.16
351.669	92.84
351.881	84.65
352.093	86.7
352.305	51.88
352.517	15.02
352.728	113.32
352.94	90.79
353.152	53.93
353.363	131.75
353.575	66.22
353.787	45.74
353.999	66.22
354.21	135.85
354.422	66.22
354.633	62.12
354.845	94.89
355.057	51.88
355.268	96.94
355.48	107.18
355.692	33.45
355.903	41.64
356.115	29.35
356.326	-25.94
356.538	107.18
356.749	113.32
356.961	105.13
357.172	86.7
357.384	51.88
357.595	144.04
357.807	43.69
358.018	98.99
358.23	101.03
358.441	105.13
358.653	41.64
358.864	27.31
359.075	33.45
359.287	94.89
359.498	82.6
359.709	94.89
359.921	94.89
360.132	144.04
360.344	33.45
360.555	41.64
360.766	74.41
360.977	66.22
361.189	115.37
361.4	129.7
361.611	98.99
361.823	35.5
362.034	109.23
362.245	0.68
362.456	41.64
362.667	119.46
362.879	74.41
363.09	45.74
363.301	107.18
363.512	-11.61
363.723	84.65
363.935	17.07
364.146	115.37
364.357	45.74
364.568	111.27
364.779	66.22
364.99	74.41
365.201	-79.19
365.412	117.42
365.623	41.64
365.834	98.99
366.045	35.5
366.256	53.93
366.467	8.87
366.678	33.45
366.889	51.88
367.1	21.16
367.311	199.34
367.522	23.21
367.733	41.64
367.944	166.57
368.155	70.31
368.366	47.79
368.577	76.46
368.788	84.65
368.999	60.07
369.209	182.95
369.42	74.41
369.631	111.27
369.842	29.35
370.053	72.36
370.264	43.69
370.474	80.55
370.685	-11.61
370.896	35.5
371.107	98.99
371.317	0.68
371.528	19.11
371.739	82.6
371.95	68.27
372.16	123.56
372.371	-30.04
372.582	117.42
372.792	58.03
373.003	70.31
373.214	33.45
373.424	43.69
373.635	21.16
373.846	98.99
374.056	41.64
374.267	101.03
374.477	70.31
374.688	29.35
374.898	-13.65
375.109	68.27
375.319	133.8
375.53	78.51
375.74	66.22
375.951	23.21
376.161	8.87
376.372	129.7
376.582	78.51
376.793	39.59
377.003	64.17
377.214	33.45
377.424	127.66
377.635	135.85
377.845	66.22
378.055	82.6
378.266	31.4
378.476	74.41
378.686	111.27
378.897	94.89
379.107	78.51
379.317	86.7
379.528	148.14
379.738	31.4
379.948	53.93
380.158	90.79
380.369	35.5
380.579	127.66
380.789	27.31
380.999	133.8
381.21	90.79
381.42	172.71
381.63	98.99
381.84	96.94
382.05	58.03
382.261	84.65
382.471	121.51
382.681	0.68
382.891	174.76
383.101	35.5
383.311	19.11
383.521	78.51
383.731	90.79
383.941	90.79
384.151	21.16
384.361	92.84
384.571	103.08
384.781	76.46
384.991	90.79
385.201	125.61
385.411	51.88
385.621	90.79
385.831	68.27
386.041	51.88
386.251	58.03
386.461	92.84
386.671	62.12
386.881	92.84
387.091	62.12
387.301	76.46
387.511	8.87
387.72	96.94
387.93	158.38
388.14	82.6
388.35	43.69
388.56	139.94
388.769	129.7
388.979	12.97
389.189	51.88
389.399	103.08
389.609	78.51
389.818	158.38
390.028	141.99
390.238	53.93
390.447	94.89
390.657	154.28
390.867	41.64
391.076	2.73
391.286	78.51
391.496	43.69
391.705	66.22
391.915	84.65
392.125	123.56
392.334	53.93
392.544	35.5
392.753	107.18
392.963	19.11
393.172	107.18
393.382	125.61
393.591	74.41
393.801	133.8
394.01	133.8
394.22	90.79
394.429	115.37
394.639	76.46
394.848	115.37
395.058	39.59
395.267	160.42
395.477	125.61
395.686	82.6
395.895	154.28
396.105	176.81
396.314	27.31
396.524	103.08
396.733	78.51
396.942	66.22
397.152	168.62
397.361	115.37
397.57	84.65
397.78	125.61
397.989	193.19
398.198	144.04
398.407	96.94
398.617	90.79
398.826	68.27
399.035	94.89
399.244	123.56
399.453	84.65
399.663	82.6
399.872	133.8
400.081	88.75
400.29	148.14
400.499	41.64
400.708	168.62
400.917	103.08
401.127	123.56
401.336	49.83
401.545	139.94
401.754	168.62
401.963	221.86
402.172	51.88
402.381	139.94
402.59	135.85
402.799	129.7
403.008	166.57
403.217	74.41
403.426	209.58
403.635	115.37
403.844	111.27
404.053	119.46
404.262	98.99
404.471	215.72
404.68	92.84
404.888	191.14
405.097	197.29
405.306	160.42
405.515	162.47
405.724	217.77
405.933	248.49
406.142	197.29
406.35	244.39
406.559	197.29
406.768	148.14
406.977	266.92
407.185	160.42
407.394	240.3
407.603	232.1
407.812	166.57
408.02	295.59
408.229	139.94
408.438	152.23
408.646	193.19
408.855	258.73
409.064	279.21
409.272	164.52
409.481	324.26
409.69	230.06
409.898	242.34
410.107	287.4
410.315	369.32
410.524	287.4
410.733	311.97
410.941	303.78
411.15	361.13
411.358	320.17
411.567	344.74
411.775	369.32
411.984	379.56
412.192	395.94
412.401	334.5
412.609	484
412.818	363.17
413.026	422.56
413.234	379.56
413.443	484
413.651	479.91
413.86	500.39
414.068	553.63
414.276	584.35
414.485	516.77
414.693	582.31
414.901	588.45
415.11	527.01
415.318	596.64
415.526	647.84
415.734	705.18
415.943	672.42
416.151	756.38
416.359	713.38
416.567	795.29
416.776	756.38
416.984	889.5
417.192	848.54
417.4	778.91
417.608	846.49
417.817	909.98
418.025	936.6
418.233	996
418.441	934.56
418.649	1016.48
418.857	1180.31
419.065	1165.98
419.273	1213.08
419.481	1188.5
419.689	1204.89
419.897	1276.57
420.105	1221.27
420.313	1340.05
420.521	1534.61
420.729	1428.12
420.937	1335.96
421.145	1573.52
421.353	1618.58
421.561	1655.44
421.769	1708.69
421.977	1712.78
422.185	1735.31
422.393	1839.76
422.601	1962.64
422.809	1976.97
423.017	1921.68
423.224	2042.51
423.432	2140.81
423.64	2177.67
423.848	2458.25
424.056	2269.83
424.263	2372.23
424.471	2435.72
424.679	2515.59
424.887	2638.47
425.094	2658.95
425.302	2777.73
425.51	2790.02
425.718	2966.14
425.925	2937.47
426.133	3058.3
426.341	3302.01
426.548	3375.74
426.756	3314.3
426.964	3338.87
427.171	3596.92
427.379	3770.99
427.586	3779.19
427.794	3932.78
428.001	3957.36
428.209	4309.61
428.417	4092.52
428.624	4506.21
428.832	4387.43
429.039	4401.77
429.247	4461.16
429.454	4794.98
429.662	5161.56
429.869	4829.79
430.076	5151.32
430.284	4903.52
430.491	5311.07
430.699	5382.74
430.906	5458.52
431.114	5435.99
431.321	5784.15
431.528	5917.26
431.736	6251.08
431.943	6566.47
432.15	6349.39
432.358	6384.2
432.565	6701.64
432.772	6607.43
432.979	7148.09
433.187	7217.72
433.394	7221.82
433.601	7553.59
433.808	7766.58
434.016	7535.16
434.223	8100.4
434.43	8546.86
434.637	8370.73
434.844	8909.35
435.052	9206.3
435.259	9036.32
435.466	9105.95
435.673	9032.22
435.88	9626.14
436.087	10101.26
436.294	10037.78
436.501	9699.86
436.708	9888.28
436.915	10502.67
437.122	10850.82
437.329	10578.44
437.537	11108.87
437.743	11303.42
437.95	11235.84
438.157	11923.96
438.364	12001.78
438.571	11792.89
438.778	12364.27
438.985	13478.36
439.192	12739.05
439.399	13335.01
439.606	13066.72
439.813	13771.22
440.02	14520.78
440.227	14209.49
440.433	14049.75
440.64	14692.81
440.847	14774.73
441.054	14848.46
441.261	16064.95
441.467	15473.09
441.674	16093.62
441.881	16617.9
442.088	16406.96
442.294	16421.3
442.501	16687.53
442.708	17220
442.914	17811.87
443.121	18467.22
443.328	18147.73
443.534	19126.66
443.741	18737.55
443.948	18612.62
444.154	19949.95
444.361	19757.44
444.568	20081.02
444.774	20066.68
444.981	20148.6
445.187	20795.76
445.394	21580.13
445.6	21389.67
445.807	23560.52
446.013	22380.89
446.22	22841.68
446.426	23781.7
446.633	24107.32
446.839	24979.76
447.046	23720.26
447.252	25188.65
447.459	25184.55
447.665	25127.21
447.871	26396.95
448.078	27416.84
448.284	26075.42
448.491	26872.08
448.697	27703.56
448.903	28492.02
449.11	28653.81
449.316	28008.7
449.522	28473.59
449.728	29171.95
449.935	29737.19
450.141	29554.92
450.347	30398.68
450.553	29657.32
450.76	29806.82
450.966	30970.07
451.172	30496.99
451.378	31496.39
451.584	30675.16
451.791	31602.89
451.997	31283.41
452.203	31643.85
452.409	31973.57
452.615	32014.53
452.821	30585.05
453.027	30482.65
453.233	32155.84
453.44	30628.06
453.646	31000.79
453.852	31361.23
454.058	31875.27
454.264	30861.52
454.47	31957.19
454.676	31025.36
454.882	32116.93
455.088	29554.92
455.294	29595.88
455.5	30214.37
455.705	30415.07
455.911	29327.6
456.117	28899.57
456.323	28688.63
456.529	26767.63
456.735	28311.8
456.941	27349.26
457.147	27150.6
457.352	26030.37
457.558	25954.59
457.764	26136.86
457.97	25612.58
458.176	25080.11
458.381	25127.21
458.587	23832.89
458.793	24281.4
458.999	22514
459.204	24510.77
459.41	23724.35
459.616	22131.03
459.821	22120.79
460.027	22131.03
460.233	21694.82
460.438	20533.62
460.644	20676.98
460.85	19675.52
461.055	19458.43
461.261	19503.49
461.466	18055.58
461.672	17490.34
461.878	18934.15
462.083	17576.35
462.289	17328.55
462.494	17037.73
462.7	16327.09
462.905	16050.61
463.111	16462.26
463.316	16544.17
463.522	16261.55
463.727	16316.85
463.932	16572.85
464.138	15886.78
464.343	16302.51
464.549	15675.84
464.754	16060.85
464.959	16167.35
465.165	16023.99
465.37	15266.24
465.575	14813.64
465.781	15735.23
465.986	15540.67
466.191	15141.32
466.397	14655.95
466.602	13939.16
466.807	14494.16
467.012	14547.4
467.218	14508.49
