Data from USB4F104151__36__14-42-52-944.txt Node

Date: Thu Mar 13 14:42:52 EDT 2025
User: louis
Spectrometer: USB4F10415
Trigger mode: 4
Integration Time (sec): 2.000000E-2
Scans to average: 1
Electric dark correction enabled: true
Nonlinearity correction enabled: false
Boxcar width: 0
XAxis mode: Wavelengths
Number of Pixels in Spectrum: 3648
>>>>>Begin Spectral Data<<<<<
178.204	-139.6
178.424	-139.6
178.644	-139.6
178.864	-92.5
179.084	-49.49
179.304	3.75
179.524	48.81
179.744	13.99
179.964	28.33
180.184	-2.39
180.404	-45.4
180.624	-0.34
180.844	-2.39
181.064	-20.82
181.283	3.75
181.503	-14.68
181.723	-12.63
181.943	5.8
182.163	61.1
182.383	7.85
182.602	22.19
182.822	38.57
183.042	87.72
183.262	5.8
183.482	89.77
183.701	3.75
183.921	-45.4
184.141	30.38
184.361	110.25
184.58	32.43
184.8	69.29
185.02	32.43
185.239	20.14
185.459	16.04
185.679	126.63
185.898	26.28
186.118	97.96
186.338	61.1
186.557	97.96
186.777	22.19
186.997	-16.73
187.216	26.28
187.436	110.25
187.655	52.91
187.875	69.29
188.095	20.14
188.314	59.05
188.534	59.05
188.753	110.25
188.973	61.1
189.192	159.4
189.412	67.24
189.631	-12.63
189.851	16.04
190.07	71.34
190.29	16.04
190.509	-0.34
190.729	46.76
190.948	112.3
191.168	128.68
191.387	77.48
191.607	24.23
191.826	79.53
192.045	61.1
192.265	106.15
192.484	7.85
192.704	34.47
192.923	22.19
193.142	95.91
193.362	32.43
193.581	11.95
193.8	112.3
194.02	120.49
194.239	16.04
194.458	110.25
194.678	54.95
194.897	42.67
195.116	-41.3
195.335	36.52
195.555	13.99
195.774	136.87
195.993	38.57
196.212	77.48
196.432	-53.59
196.651	87.72
196.87	28.33
197.089	136.87
197.308	36.52
197.528	26.28
197.747	3.75
197.966	44.71
198.185	100.01
198.404	3.75
198.623	75.43
198.842	-12.63
199.062	36.52
199.281	116.39
199.5	7.85
199.719	112.3
199.938	110.25
200.157	44.71
200.376	-10.58
200.595	87.72
200.814	100.01
201.033	44.71
201.252	32.43
201.471	-2.39
201.69	-49.49
201.909	28.33
202.128	100.01
202.347	77.48
202.566	79.53
202.785	38.57
203.004	32.43
203.223	167.59
203.442	52.91
203.661	-6.49
203.879	44.71
204.098	-8.53
204.317	-12.63
204.536	40.62
204.755	28.33
204.974	40.62
205.193	-4.44
205.411	95.91
205.63	54.95
205.849	93.87
206.068	46.76
206.287	52.91
206.505	48.81
206.724	11.95
206.943	-10.58
207.162	102.06
207.381	93.87
207.599	40.62
207.818	38.57
208.037	13.99
208.255	36.52
208.474	57
208.693	30.38
208.911	-16.73
209.13	-24.92
209.349	42.67
209.567	63.15
209.786	59.05
210.005	-0.34
210.223	24.23
210.442	81.58
210.661	-43.35
210.879	52.91
211.098	65.19
211.316	44.71
211.535	54.95
211.753	136.87
211.972	81.58
212.191	118.44
212.409	108.2
212.628	48.81
212.846	11.95
213.065	40.62
213.283	87.72
213.502	20.14
213.72	38.57
213.938	63.15
214.157	65.19
214.375	36.52
214.594	-10.58
214.812	73.39
215.031	40.62
215.249	24.23
215.467	-0.34
215.686	-20.82
215.904	122.54
216.122	34.47
216.341	46.76
216.559	63.15
216.778	67.24
216.996	136.87
217.214	65.19
217.432	48.81
217.651	-10.58
217.869	63.15
218.087	28.33
218.306	-37.2
218.524	54.95
218.742	30.38
218.96	136.87
219.179	-12.63
219.397	1.71
219.615	52.91
219.833	87.72
220.051	11.95
220.27	102.06
220.488	36.52
220.706	16.04
220.924	54.95
221.142	52.91
221.36	108.2
221.578	83.63
221.796	52.91
222.015	34.47
222.233	52.91
222.451	32.43
222.669	63.15
222.887	61.1
223.105	-45.4
223.323	-4.44
223.541	-6.49
223.759	24.23
223.977	81.58
224.195	136.87
224.413	73.39
224.631	63.15
224.849	-49.49
225.067	118.44
225.285	9.9
225.503	122.54
225.721	22.19
225.939	16.04
226.157	79.53
226.375	69.29
226.592	85.67
226.81	100.01
227.028	61.1
227.246	85.67
227.464	114.34
227.682	79.53
227.9	81.58
228.117	-2.39
228.335	85.67
228.553	87.72
228.771	26.28
228.989	26.28
229.206	79.53
229.424	20.14
229.642	93.87
229.86	69.29
230.077	122.54
230.295	81.58
230.513	91.82
230.731	40.62
230.948	61.1
231.166	63.15
231.384	9.9
231.601	65.19
231.819	102.06
232.037	95.91
232.254	69.29
232.472	89.77
232.689	-8.53
232.907	32.43
233.125	38.57
233.342	54.95
233.56	44.71
233.777	24.23
233.995	102.06
234.213	71.34
234.43	81.58
234.648	-98.64
234.865	73.39
235.083	85.67
235.3	59.05
235.518	57
235.735	20.14
235.953	24.23
236.17	24.23
236.388	110.25
236.605	34.47
236.822	102.06
237.04	85.67
237.257	46.76
237.475	61.1
237.692	54.95
237.909	69.29
238.127	63.15
238.344	122.54
238.562	30.38
238.779	5.8
238.996	95.91
239.214	52.91
239.431	61.1
239.648	44.71
239.865	36.52
240.083	71.34
240.3	20.14
240.517	52.91
240.735	3.75
240.952	69.29
241.169	22.19
241.386	100.01
241.603	-2.39
241.821	28.33
242.038	93.87
242.255	75.43
242.472	93.87
242.689	147.11
242.907	59.05
243.124	18.09
243.341	77.48
243.558	32.43
243.775	5.8
243.992	30.38
244.209	102.06
244.426	48.81
244.643	69.29
244.86	-4.44
245.078	26.28
245.295	44.71
245.512	40.62
245.729	44.71
245.946	71.34
246.163	63.15
246.38	87.72
246.597	20.14
246.814	36.52
247.031	65.19
247.248	110.25
247.464	65.19
247.681	22.19
247.898	5.8
248.115	126.63
248.332	91.82
248.549	85.67
248.766	81.58
248.983	126.63
249.2	87.72
249.417	46.76
249.633	77.48
249.85	40.62
250.067	52.91
250.284	30.38
250.501	118.44
250.717	79.53
250.934	-29.01
251.151	54.95
251.368	48.81
251.585	79.53
251.801	-43.35
252.018	44.71
252.235	100.01
252.451	11.95
252.668	13.99
252.885	52.91
253.102	69.29
253.318	114.34
253.535	44.71
253.752	65.19
253.968	54.95
254.185	59.05
254.401	44.71
254.618	126.63
254.835	63.15
255.051	126.63
255.268	42.67
255.484	77.48
255.701	36.52
255.917	112.3
256.134	57
256.351	71.34
256.567	63.15
256.784	112.3
257	81.58
257.217	81.58
257.433	-41.3
257.65	87.72
257.866	81.58
258.082	20.14
258.299	91.82
258.515	89.77
258.732	71.34
258.948	54.95
259.165	20.14
259.381	77.48
259.597	106.15
259.814	22.19
260.03	52.91
260.246	54.95
260.463	57
260.679	54.95
260.895	85.67
261.112	59.05
261.328	83.63
261.544	52.91
261.761	116.39
261.977	24.23
262.193	3.75
262.409	52.91
262.626	69.29
262.842	40.62
263.058	52.91
263.274	143.02
263.49	13.99
263.707	87.72
263.923	42.67
264.139	22.19
264.355	54.95
264.571	63.15
264.787	-14.68
265.004	77.48
265.22	3.75
265.436	22.19
265.652	54.95
265.868	36.52
266.084	7.85
266.3	-43.35
266.516	63.15
266.732	-29.01
266.948	28.33
267.164	77.48
267.38	118.44
267.596	28.33
267.812	40.62
268.028	46.76
268.244	48.81
268.46	61.1
268.676	59.05
268.892	118.44
269.108	48.81
269.324	40.62
269.54	-20.82
269.756	36.52
269.972	20.14
270.188	89.77
270.403	32.43
270.619	57
270.835	-4.44
271.051	126.63
271.267	28.33
271.483	44.71
271.698	112.3
271.914	59.05
272.13	50.86
272.346	-26.96
272.562	22.19
272.777	30.38
272.993	30.38
273.209	1.71
273.425	69.29
273.64	-24.92
273.856	54.95
274.072	71.34
274.287	61.1
274.503	30.38
274.719	28.33
274.934	65.19
275.15	-94.55
275.366	65.19
275.581	63.15
275.797	44.71
276.012	11.95
276.228	36.52
276.444	63.15
276.659	13.99
276.875	-6.49
277.09	-12.63
277.306	71.34
277.521	42.67
277.737	-4.44
277.952	48.81
278.168	20.14
278.383	52.91
278.599	67.24
278.814	112.3
279.03	93.87
279.245	102.06
279.461	102.06
279.676	106.15
279.892	69.29
280.107	16.04
280.322	120.49
280.538	30.38
280.753	114.34
280.969	36.52
281.184	57
281.399	130.73
281.615	-8.53
281.83	93.87
282.045	57
282.26	36.52
282.476	97.96
282.691	112.3
282.906	20.14
283.122	77.48
283.337	18.09
283.552	11.95
283.767	63.15
283.983	102.06
284.198	3.75
284.413	143.02
284.628	-37.2
284.843	36.52
285.058	44.71
285.274	24.23
285.489	-14.68
285.704	71.34
285.919	7.85
286.134	42.67
286.349	85.67
286.564	-4.44
286.779	87.72
286.995	93.87
287.21	81.58
287.425	69.29
287.64	-18.77
287.855	67.24
288.07	40.62
288.285	124.58
288.5	40.62
288.715	79.53
288.93	46.76
289.145	-4.44
289.36	95.91
289.575	48.81
289.79	42.67
290.004	106.15
290.219	57
290.434	36.52
290.649	32.43
290.864	87.72
291.079	5.8
291.294	52.91
291.509	81.58
291.724	22.19
291.938	46.76
292.153	63.15
292.368	36.52
292.583	11.95
292.798	73.39
293.012	22.19
293.227	-31.06
293.442	-45.4
293.657	30.38
293.871	85.67
294.086	69.29
294.301	77.48
294.516	69.29
294.73	40.62
294.945	38.57
295.16	-4.44
295.374	61.1
295.589	77.48
295.804	22.19
296.018	3.75
296.233	95.91
296.447	61.1
296.662	13.99
296.877	114.34
297.091	28.33
297.306	95.91
297.52	69.29
297.735	-16.73
297.949	30.38
298.164	48.81
298.378	81.58
298.593	-2.39
298.807	52.91
299.022	97.96
299.236	93.87
299.451	102.06
299.665	30.38
299.88	81.58
300.094	44.71
300.309	3.75
300.523	71.34
300.737	77.48
300.952	69.29
301.166	163.5
301.381	81.58
301.595	71.34
301.809	97.96
302.024	44.71
302.238	-4.44
302.452	81.58
302.667	3.75
302.881	114.34
303.095	48.81
303.309	77.48
303.524	-72.02
303.738	-4.44
303.952	26.28
304.166	40.62
304.381	44.71
304.595	110.25
304.809	104.11
305.023	46.76
305.237	-65.88
305.452	112.3
305.666	57
305.88	65.19
306.094	16.04
306.308	116.39
306.522	-14.68
306.736	24.23
306.95	120.49
307.164	85.67
307.379	28.33
307.593	69.29
307.807	57
308.021	130.73
308.235	69.29
308.449	93.87
308.663	93.87
308.877	97.96
309.091	85.67
309.305	114.34
309.519	-20.82
309.733	95.91
309.947	-26.96
310.161	136.87
310.374	155.3
310.588	104.11
310.802	65.19
311.016	24.23
311.23	52.91
311.444	28.33
311.658	24.23
311.872	52.91
312.085	97.96
312.299	122.54
312.513	93.87
312.727	81.58
312.941	69.29
313.154	-29.01
313.368	73.39
313.582	106.15
313.796	18.09
314.009	89.77
314.223	11.95
314.437	36.52
314.651	143.02
314.864	38.57
315.078	-0.34
315.292	28.33
315.505	42.67
315.719	93.87
315.933	54.95
316.146	36.52
316.36	-8.53
316.573	93.87
316.787	44.71
317.001	40.62
317.214	77.48
317.428	20.14
317.641	30.38
317.855	11.95
318.068	71.34
318.282	28.33
318.495	85.67
318.709	11.95
318.922	5.8
319.136	16.04
319.349	-26.96
319.563	30.38
319.776	57
319.99	30.38
320.203	77.48
320.417	93.87
320.63	83.63
320.843	177.83
321.057	42.67
321.27	102.06
321.483	71.34
321.697	128.68
321.91	28.33
322.124	104.11
322.337	106.15
322.55	52.91
322.763	32.43
322.977	85.67
323.19	69.29
323.403	52.91
323.617	11.95
323.83	81.58
324.043	30.38
324.256	50.86
324.469	-0.34
324.683	44.71
324.896	97.96
325.109	71.34
325.322	44.71
325.535	69.29
325.748	63.15
325.962	36.52
326.175	97.96
326.388	28.33
326.601	42.67
326.814	5.8
327.027	52.91
327.24	48.81
327.453	-51.54
327.666	54.95
327.879	102.06
328.092	52.91
328.305	22.19
328.518	11.95
328.731	32.43
328.944	-4.44
329.157	75.43
329.37	28.33
329.583	48.81
329.796	32.43
330.009	3.75
330.222	91.82
330.435	57
330.648	77.48
330.861	3.75
331.073	57
331.286	100.01
331.499	7.85
331.712	20.14
331.925	126.63
332.138	36.52
332.35	52.91
332.563	65.19
332.776	71.34
332.989	30.38
333.202	97.96
333.414	61.1
333.627	77.48
333.84	54.95
334.053	28.33
334.265	13.99
334.478	54.95
334.691	7.85
334.903	75.43
335.116	28.33
335.329	36.52
335.541	13.99
335.754	104.11
335.966	13.99
336.179	48.81
336.392	5.8
336.604	48.81
336.817	52.91
337.029	108.2
337.242	-4.44
337.454	36.52
337.667	-10.58
337.88	157.35
338.092	18.09
338.305	89.77
338.517	30.38
338.729	153.26
338.942	161.45
339.154	63.15
339.367	-4.44
339.579	36.52
339.792	28.33
340.004	7.85
340.217	112.3
340.429	102.06
340.641	40.62
340.854	16.04
341.066	36.52
341.278	79.53
341.491	143.02
341.703	81.58
341.915	24.23
342.128	110.25
342.34	63.15
342.552	40.62
342.764	63.15
342.977	61.1
343.189	81.58
343.401	52.91
343.613	-24.92
343.826	7.85
344.038	110.25
344.25	85.67
344.462	69.29
344.674	93.87
344.886	-6.49
345.099	63.15
345.311	61.1
345.523	63.15
345.735	5.8
345.947	16.04
346.159	54.95
346.371	77.48
346.583	46.76
346.795	85.67
347.007	-10.58
347.219	28.33
347.431	11.95
347.643	38.57
347.855	9.9
348.067	95.91
348.279	32.43
348.491	95.91
348.703	87.72
348.915	-0.34
349.127	9.9
349.339	93.87
349.551	77.48
349.763	97.96
349.975	50.86
350.187	118.44
350.399	149.16
350.61	102.06
350.822	-2.39
351.034	26.28
351.246	79.53
351.458	65.19
351.669	85.67
351.881	106.15
352.093	61.1
352.305	30.38
352.517	87.72
352.728	128.68
352.94	106.15
353.152	102.06
353.363	28.33
353.575	69.29
353.787	81.58
353.999	36.52
354.21	89.77
354.422	-43.35
354.633	22.19
354.845	11.95
355.057	77.48
355.268	44.71
355.48	112.3
355.692	97.96
355.903	102.06
356.115	77.48
356.326	-2.39
356.538	102.06
356.749	75.43
356.961	75.43
357.172	79.53
357.384	87.72
357.595	161.45
357.807	52.91
358.018	20.14
358.23	63.15
358.441	93.87
358.653	20.14
358.864	57
359.075	40.62
359.287	134.82
359.498	79.53
359.709	67.24
359.921	110.25
360.132	102.06
360.344	126.63
360.555	7.85
360.766	52.91
360.977	102.06
361.189	186.02
361.4	61.1
361.611	81.58
361.823	81.58
362.034	63.15
362.245	61.1
362.456	118.44
362.667	28.33
362.879	118.44
363.09	48.81
363.301	102.06
363.512	71.34
363.723	16.04
363.935	40.62
364.146	102.06
364.357	112.3
364.568	44.71
364.779	79.53
364.99	93.87
365.201	71.34
365.412	100.01
365.623	40.62
365.834	28.33
366.045	16.04
366.256	63.15
366.467	85.67
366.678	65.19
366.889	87.72
367.1	93.87
367.311	36.52
367.522	-4.44
367.733	102.06
367.944	65.19
368.155	11.95
368.366	75.43
368.577	75.43
368.788	87.72
368.999	85.67
369.209	110.25
369.42	91.82
369.631	100.01
369.842	81.58
370.053	40.62
370.264	89.77
370.474	102.06
370.685	24.23
370.896	65.19
371.107	89.77
371.317	118.44
371.528	61.1
371.739	11.95
371.95	75.43
372.16	61.1
372.371	1.71
372.582	18.09
372.792	95.91
373.003	28.33
373.214	61.1
373.424	85.67
373.635	34.47
373.846	73.39
374.056	65.19
374.267	34.47
374.477	104.11
374.688	69.29
374.898	42.67
375.109	46.76
375.319	44.71
375.53	134.82
375.74	130.73
375.951	87.72
376.161	-12.63
376.372	87.72
376.582	-4.44
376.793	-4.44
377.003	87.72
377.214	97.96
377.424	5.8
377.635	-0.34
377.845	28.33
378.055	122.54
378.266	116.39
378.476	28.33
378.686	63.15
378.897	116.39
379.107	93.87
379.317	97.96
379.528	89.77
379.738	91.82
379.948	28.33
380.158	120.49
380.369	147.11
380.579	52.91
380.789	95.91
380.999	71.34
381.21	32.43
381.42	153.26
381.63	38.57
381.84	169.64
382.05	9.9
382.261	134.82
382.471	91.82
382.681	61.1
382.891	97.96
383.101	110.25
383.311	30.38
383.521	-12.63
383.731	22.19
383.941	69.29
384.151	83.63
384.361	65.19
384.571	126.63
384.781	73.39
384.991	79.53
385.201	132.78
385.411	67.24
385.621	20.14
385.831	93.87
386.041	93.87
386.251	42.67
386.461	114.34
386.671	110.25
386.881	3.75
387.091	42.67
387.301	79.53
387.511	28.33
387.72	91.82
387.93	79.53
388.14	91.82
388.35	120.49
388.56	108.2
388.769	50.86
388.979	36.52
389.189	71.34
389.399	128.68
389.609	153.26
389.818	83.63
390.028	147.11
390.238	57
390.447	34.47
390.657	-16.73
390.867	11.95
391.076	71.34
391.286	102.06
391.496	44.71
391.705	81.58
391.915	77.48
392.125	59.05
392.334	73.39
392.544	130.73
392.753	159.4
392.963	-41.3
393.172	69.29
393.382	67.24
393.591	118.44
393.801	61.1
394.01	151.21
394.22	24.23
394.429	-39.25
394.639	63.15
394.848	93.87
395.058	95.91
395.267	52.91
395.477	126.63
395.686	20.14
395.895	116.39
396.105	95.91
396.314	73.39
396.524	112.3
396.733	65.19
396.942	138.92
397.152	104.11
397.361	171.69
397.57	95.91
397.78	138.92
397.989	151.21
398.198	202.41
398.407	87.72
398.617	93.87
398.826	190.12
399.035	69.29
399.244	85.67
399.453	134.82
399.663	147.11
399.872	85.67
400.081	79.53
400.29	159.4
400.499	83.63
400.708	108.2
400.917	67.24
401.127	110.25
401.336	128.68
401.545	104.11
401.754	95.91
401.963	159.4
402.172	136.87
402.381	100.01
402.59	54.95
402.799	145.06
403.008	138.92
403.217	85.67
403.426	159.4
403.635	69.29
403.844	134.82
404.053	143.02
404.262	161.45
404.471	177.83
404.68	118.44
404.888	102.06
405.097	196.26
405.306	147.11
405.515	265.89
405.724	87.72
405.933	143.02
406.142	218.79
406.35	171.69
406.559	212.65
406.768	194.22
406.977	224.94
407.185	100.01
407.394	200.36
407.603	128.68
407.812	155.3
408.02	196.26
408.229	181.93
408.438	284.33
408.646	159.4
408.855	263.85
409.064	286.37
409.272	224.94
409.481	329.38
409.69	278.18
409.898	257.7
410.107	276.13
410.315	265.89
410.524	241.32
410.733	331.43
410.941	290.47
411.15	310.95
411.358	390.82
411.567	349.86
411.775	360.1
411.984	454.31
412.192	427.68
412.401	315.05
412.609	439.97
412.818	464.55
413.026	448.16
413.234	446.12
413.443	433.83
413.651	495.27
413.86	523.94
414.068	568.99
414.276	450.21
414.485	544.42
414.693	597.67
414.901	657.06
415.11	634.53
415.318	603.81
415.526	634.53
415.734	669.34
415.943	693.92
416.151	773.79
416.359	804.51
416.567	691.87
416.776	781.98
416.984	921.24
417.192	847.52
417.4	882.33
417.608	868
417.817	947.87
418.025	999.07
418.233	964.25
418.441	1040.03
418.649	1109.66
418.857	1083.03
419.065	1109.66
419.273	1169.05
419.481	1136.28
419.689	1234.58
419.897	1371.8
420.105	1334.93
420.313	1494.68
420.521	1412.76
420.729	1445.52
420.937	1453.72
421.145	1496.72
421.353	1635.99
421.561	1644.18
421.769	1609.36
421.977	1781.39
422.185	1732.24
422.393	1930.89
422.601	2092.68
422.809	2047.63
423.017	2051.72
423.224	2160.27
423.432	2287.24
423.64	2207.37
423.848	2465.41
424.056	2363.01
424.263	2430.6
424.471	2543.24
424.679	2487.94
424.887	2727.55
425.094	2733.7
425.302	2756.22
425.51	2846.34
425.718	3020.41
425.925	3131
426.133	3010.17
426.341	3341.94
426.548	3534.45
426.756	3481.21
426.964	3497.59
427.171	3608.18
427.379	3712.63
427.586	3714.67
427.794	3833.46
428.001	4091.5
428.209	4357.74
428.417	4222.57
428.624	4462.18
428.832	4664.93
429.039	4492.9
429.247	4484.71
429.454	4910.69
429.662	5246.55
429.869	4779.62
430.076	5140.06
430.284	5006.94
430.491	5248.6
430.699	5625.43
430.906	5531.22
431.114	5697.11
431.321	5906
431.528	6030.93
431.736	6291.02
431.943	6745.67
432.15	6542.92
432.358	6606.41
432.565	6843.97
432.772	6786.63
432.979	7257.66
433.187	7417.4
433.394	7401.02
433.601	7798.32
433.808	7972.4
434.016	7906.87
434.223	8136.24
434.43	8425
434.637	8486.44
434.844	9035.3
435.052	9279.01
435.259	9121.31
435.466	9240.09
435.673	9129.5
435.88	9907.73
436.087	10178.06
436.294	10046.99
436.501	9887.25
436.708	10114.58
436.915	10685.96
437.122	11132.42
437.329	11038.21
437.537	11347.45
437.743	11437.56
437.95	11546.11
438.157	12006.9
438.364	12496.36
438.571	12277.23
438.778	12572.14
438.985	13454.81
439.192	12867.05
439.399	13559.26
439.606	13041.12
439.813	13870.55
440.02	14863.82
440.227	14489.04
440.433	14210.51
440.64	14988.74
440.847	14998.98
441.054	15087.04
441.261	15893.94
441.467	15949.24
441.674	16055.73
441.881	16686.51
442.088	16915.88
442.294	16360.88
442.501	16872.87
442.708	17319.33
442.914	17933.72
443.121	18701.71
443.328	18120.09
443.534	19459.46
443.741	18822.54
443.948	18730.38
444.154	19930.49
444.361	20041.08
444.568	20100.47
444.774	20280.69
444.981	20450.67
445.187	21044.59
445.394	22011.23
445.6	21441.89
445.807	23487.81
446.013	22492.5
446.22	22928.72
446.426	23678.27
446.633	24198.46
446.839	24692.02
447.046	23719.23
447.252	25122.09
447.459	24751.41
447.665	25302.31
447.871	26232.09
448.078	27264.27
448.284	26258.71
448.491	26516.76
448.697	27790.59
448.903	28417.27
449.11	28243.2
449.316	27796.74
449.522	28177.66
449.728	29244.65
449.935	29148.4
450.141	29551.85
450.347	29801.7
450.553	29361.39
450.76	29633.77
450.966	30645.46
451.172	30213.34
451.378	31196.37
451.584	30338.27
451.791	30991.57
451.997	31040.72
452.203	31186.13
452.409	31616.2
452.615	31708.36
452.821	30307.55
453.027	29873.38
453.233	31610.06
453.44	30256.35
453.646	30827.73
453.852	30631.13
454.058	31407.31
454.264	30471.39
454.47	31151.31
454.676	30315.74
454.882	31431.88
455.088	28714.23
455.294	29355.24
455.5	29859.04
455.705	30186.72
455.911	28370.17
456.117	27944.19
456.323	27987.2
456.529	26473.75
456.735	27567.37
456.941	27139.34
457.147	26369.3
457.352	25720.1
457.558	25492.77
457.764	25394.47
457.97	25351.46
458.176	24548.66
458.381	24356.15
458.587	23422.28
458.793	23119.18
458.999	22130.01
459.204	23936.32
459.41	23055.69
459.616	21560.67
459.821	21622.11
460.027	21722.46
460.233	21114.22
460.438	20032.89
460.644	20192.63
460.85	19357.06
461.055	19164.55
461.261	19043.72
461.466	17534.37
461.672	17169.83
461.878	18449.81
462.083	17165.73
462.289	16795.05
462.494	16602.54
462.7	15961.53
462.905	15297.99
463.111	15865.27
463.316	15844.79
463.522	15611.32
463.727	15658.43
463.932	15758.78
464.138	15674.81
464.343	15558.08
464.549	15238.59
464.754	15803.83
464.959	15429.06
465.165	15283.65
465.37	14456.27
465.575	14525.9
465.781	14964.17
465.986	15089.09
466.191	14509.52
466.397	14007.76
466.602	13540.83
466.807	14216.66
467.012	13811.16
467.218	13735.39
467.423	13694.43
