Data from USB4F104151__171__14-44-59-875.txt Node

Date: Thu Mar 13 14:44:59 EDT 2025
User: louis
Spectrometer: USB4F10415
Trigger mode: 4
Integration Time (sec): 2.000000E-2
Scans to average: 1
Electric dark correction enabled: true
Nonlinearity correction enabled: false
Boxcar width: 0
XAxis mode: Wavelengths
Number of Pixels in Spectrum: 3648
>>>>>Begin Spectral Data<<<<<
178.204	-86.19
178.424	-86.19
178.644	-86.19
178.864	-77.99
179.084	-104.62
179.304	24.4
179.524	10.07
179.744	14.17
179.964	38.74
180.184	-8.36
180.404	44.88
180.624	-30.89
180.844	-14.51
181.064	-24.75
181.283	-12.46
181.503	-84.14
181.723	42.84
181.943	1.88
182.163	40.79
182.383	-6.31
182.602	20.31
182.822	67.41
183.042	100.18
183.262	-0.17
183.482	16.21
183.701	8.02
183.921	30.55
184.141	-14.51
184.361	42.84
184.58	10.07
184.8	75.6
185.02	-8.36
185.239	77.65
185.459	40.79
185.679	40.79
185.898	12.12
186.118	26.45
186.338	-39.08
186.557	75.6
186.777	12.12
186.997	36.69
187.216	-14.51
187.436	20.31
187.655	16.21
187.875	81.75
188.095	10.07
188.314	32.6
188.534	16.21
188.753	-39.08
188.973	20.31
189.192	40.79
189.412	44.88
189.631	-32.94
189.851	77.65
190.07	36.69
190.29	-77.99
190.509	57.17
190.729	-8.36
190.948	-14.51
191.168	65.36
191.387	94.04
191.607	12.12
191.826	71.51
192.045	-22.7
192.265	24.4
192.484	42.84
192.704	26.45
192.923	-45.23
193.142	145.24
193.362	10.07
193.581	61.27
193.8	-0.17
194.02	48.98
194.239	59.22
194.458	34.64
194.678	-16.55
194.897	36.69
195.116	40.79
195.335	26.45
195.555	5.97
195.774	-18.6
195.993	-0.17
196.212	-0.17
196.432	-45.23
196.651	8.02
196.87	16.21
197.089	59.22
197.308	46.93
197.528	30.55
197.747	-16.55
197.966	79.7
198.185	69.46
198.404	73.56
198.623	16.21
198.842	75.6
199.062	106.32
199.281	48.98
199.5	-20.65
199.719	38.74
199.938	44.88
200.157	18.26
200.376	32.6
200.595	-8.36
200.814	38.74
201.033	8.02
201.252	48.98
201.471	40.79
201.69	-10.41
201.909	24.4
202.128	65.36
202.347	65.36
202.566	-22.7
202.785	-22.7
203.004	-12.46
203.223	118.61
203.442	18.26
203.661	53.08
203.879	-0.17
204.098	8.02
204.317	-8.36
204.536	61.27
204.755	26.45
204.974	77.65
205.193	44.88
205.411	63.32
205.63	3.93
205.849	3.93
206.068	-37.03
206.287	40.79
206.505	-0.17
206.724	38.74
206.943	32.6
207.162	12.12
207.381	36.69
207.599	73.56
207.818	-16.55
208.037	26.45
208.255	-16.55
208.474	61.27
208.693	36.69
208.911	-8.36
209.13	40.79
209.349	98.13
209.567	5.97
209.786	34.64
210.005	32.6
210.223	-80.04
210.442	34.64
210.661	53.08
210.879	3.93
211.098	48.98
211.316	28.5
211.535	48.98
211.753	36.69
211.972	108.37
212.191	32.6
212.409	28.5
212.628	28.5
212.846	-32.94
213.065	53.08
213.283	44.88
213.502	24.4
213.72	16.21
213.938	51.03
214.157	1.88
214.375	16.21
214.594	10.07
214.812	79.7
215.031	42.84
215.249	-34.99
215.467	42.84
215.686	69.46
215.904	53.08
216.122	-0.17
216.341	55.12
216.559	-18.6
216.778	69.46
216.996	63.32
217.214	59.22
217.432	42.84
217.651	5.97
217.869	-14.51
218.087	-22.7
218.306	69.46
218.524	96.08
218.742	-0.17
218.96	18.26
219.179	14.17
219.397	67.41
219.615	-0.17
219.833	48.98
220.051	3.93
220.27	83.8
220.488	44.88
220.706	32.6
220.924	-6.31
221.142	38.74
221.36	18.26
221.578	20.31
221.796	18.26
222.015	-41.13
222.233	10.07
222.451	77.65
222.669	-45.23
222.887	81.75
223.105	16.21
223.323	40.79
223.541	-39.08
223.759	3.93
223.977	34.64
224.195	83.8
224.413	24.4
224.631	34.64
224.849	-8.36
225.067	69.46
225.285	77.65
225.503	40.79
225.721	24.4
225.939	-37.03
226.157	-18.6
226.375	91.99
226.592	20.31
226.81	-0.17
227.028	12.12
227.246	89.94
227.464	16.21
227.682	75.6
227.9	48.98
228.117	8.02
228.335	91.99
228.553	24.4
228.771	65.36
228.989	32.6
229.206	34.64
229.424	38.74
229.642	-22.7
229.86	24.4
230.077	12.12
230.295	24.4
230.513	32.6
230.731	83.8
230.948	63.32
231.166	46.93
231.384	16.21
231.601	34.64
231.819	38.74
232.037	40.79
232.254	-26.79
232.472	-12.46
232.689	-30.89
232.907	-8.36
233.125	-26.79
233.342	-20.65
233.56	-20.65
233.777	53.08
233.995	-37.03
234.213	59.22
234.43	-12.46
234.648	-16.55
234.865	-22.7
235.083	46.93
235.3	28.5
235.518	8.02
235.735	40.79
235.953	-0.17
236.17	83.8
236.388	-24.75
236.605	8.02
236.822	73.56
237.04	38.74
237.257	-4.27
237.475	48.98
237.692	40.79
237.909	57.17
238.127	-16.55
238.344	30.55
238.562	59.22
238.779	1.88
238.996	14.17
239.214	59.22
239.431	12.12
239.648	-20.65
239.865	110.42
240.083	16.21
240.3	-0.17
240.517	124.76
240.735	91.99
240.952	65.36
241.169	65.36
241.386	32.6
241.603	46.93
241.821	-22.7
242.038	65.36
242.255	48.98
242.472	18.26
242.689	73.56
242.907	98.13
243.124	5.97
243.341	-0.17
243.558	-0.17
243.775	73.56
243.992	-24.75
244.209	12.12
244.426	28.5
244.643	83.8
244.86	59.22
245.078	24.4
245.295	118.61
245.512	48.98
245.729	-34.99
245.946	-0.17
246.163	65.36
246.38	-14.51
246.597	1.88
246.814	102.23
247.031	-41.13
247.248	96.08
247.464	69.46
247.681	-6.31
247.898	10.07
248.115	48.98
248.332	-41.13
248.549	48.98
248.766	81.75
248.983	32.6
249.2	10.07
249.417	28.5
249.633	-22.7
249.85	-8.36
250.067	5.97
250.284	51.03
250.501	51.03
250.717	1.88
250.934	-24.75
251.151	102.23
251.368	1.88
251.585	3.93
251.801	-32.94
252.018	-32.94
252.235	-30.89
252.451	-34.99
252.668	20.31
252.885	12.12
253.102	12.12
253.318	61.27
253.535	26.45
253.752	81.75
253.968	-0.17
254.185	5.97
254.401	48.98
254.618	40.79
254.835	-41.13
255.051	100.18
255.268	32.6
255.484	34.64
255.701	98.13
255.917	55.12
256.134	53.08
256.351	8.02
256.567	44.88
256.784	-0.17
257	-32.94
257.217	69.46
257.433	85.84
257.65	57.17
257.866	65.36
258.082	51.03
258.299	10.07
258.515	-0.17
258.732	-0.17
258.948	-57.51
259.165	83.8
259.381	30.55
259.597	81.75
259.814	-20.65
260.03	69.46
260.246	-34.99
260.463	-2.22
260.679	53.08
260.895	61.27
261.112	77.65
261.328	48.98
261.544	24.4
261.761	135
261.977	85.84
262.193	-16.55
262.409	61.27
262.626	61.27
262.842	32.6
263.058	83.8
263.274	22.36
263.49	48.98
263.707	1.88
263.923	24.4
264.139	-22.7
264.355	-0.17
264.571	40.79
264.787	-4.27
265.004	24.4
265.22	3.93
265.436	73.56
265.652	57.17
265.868	42.84
266.084	3.93
266.3	-6.31
266.516	10.07
266.732	14.17
266.948	-49.32
267.164	81.75
267.38	91.99
267.596	36.69
267.812	3.93
268.028	51.03
268.244	65.36
268.46	67.41
268.676	-32.94
268.892	40.79
269.108	-8.36
269.324	20.31
269.54	-41.13
269.756	14.17
269.972	-57.51
270.188	98.13
270.403	-32.94
270.619	32.6
270.835	83.8
271.051	-8.36
271.267	-26.79
271.483	-86.19
271.698	3.93
271.914	106.32
272.13	63.32
272.346	42.84
272.562	-28.84
272.777	-16.55
272.993	38.74
273.209	8.02
273.425	32.6
273.64	10.07
273.856	94.04
274.072	-8.36
274.287	24.4
274.503	51.03
274.719	42.84
274.934	59.22
275.15	-39.08
275.366	16.21
275.581	-28.84
275.797	57.17
276.012	5.97
276.228	20.31
276.444	67.41
276.659	69.46
276.875	8.02
277.09	-26.79
277.306	57.17
277.521	32.6
277.737	-41.13
277.952	77.65
278.168	-0.17
278.383	61.27
278.599	16.21
278.814	59.22
279.03	10.07
279.245	-10.41
279.461	36.69
279.676	69.46
279.892	26.45
280.107	8.02
280.322	8.02
280.538	3.93
280.753	10.07
280.969	102.23
281.184	122.71
281.399	53.08
281.615	40.79
281.83	81.75
282.045	-49.32
282.26	34.64
282.476	14.17
282.691	57.17
282.906	75.6
283.122	40.79
283.337	-98.47
283.552	-6.31
283.767	-65.71
283.983	26.45
284.198	26.45
284.413	28.5
284.628	24.4
284.843	20.31
285.058	65.36
285.274	24.4
285.489	-4.27
285.704	44.88
285.919	-49.32
286.134	61.27
286.349	87.89
286.564	40.79
286.779	79.7
286.995	20.31
287.21	-20.65
287.425	-10.41
287.64	-32.94
287.855	112.47
288.07	12.12
288.285	51.03
288.5	53.08
288.715	116.56
288.93	55.12
289.145	18.26
289.36	12.12
289.575	-12.46
289.79	57.17
290.004	14.17
290.219	40.79
290.434	32.6
290.649	40.79
290.864	-71.85
291.079	36.69
291.294	98.13
291.509	16.21
291.724	-20.65
291.938	83.8
292.153	36.69
292.368	-16.55
292.583	-22.7
292.798	59.22
293.012	46.93
293.227	-98.47
293.442	8.02
293.657	8.02
293.871	48.98
294.086	1.88
294.301	3.93
294.516	28.5
294.73	-30.89
294.945	-0.17
295.16	40.79
295.374	67.41
295.589	77.65
295.804	16.21
296.018	32.6
296.233	106.32
296.447	96.08
296.662	-12.46
296.877	73.56
297.091	28.5
297.306	24.4
297.52	79.7
297.735	51.03
297.949	-47.27
298.164	96.08
298.378	65.36
298.593	61.27
298.807	1.88
299.022	24.4
299.236	89.94
299.451	48.98
299.665	-8.36
299.88	65.36
300.094	75.6
300.309	32.6
300.523	51.03
300.737	-18.6
300.952	40.79
301.166	44.88
301.381	32.6
301.595	8.02
301.809	-53.42
302.024	10.07
302.238	5.97
302.452	-12.46
302.667	22.36
302.881	98.13
303.095	-28.84
303.309	-16.55
303.524	48.98
303.738	24.4
303.952	-22.7
304.166	87.89
304.381	-24.75
304.595	48.98
304.809	-24.75
305.023	32.6
305.237	-39.08
305.452	-28.84
305.666	8.02
305.88	26.45
306.094	8.02
306.308	-4.27
306.522	89.94
306.736	34.64
306.95	57.17
307.164	59.22
307.379	32.6
307.593	42.84
307.807	118.61
308.021	26.45
308.235	28.5
308.449	-22.7
308.663	61.27
308.877	147.28
309.091	3.93
309.305	100.18
309.519	16.21
309.733	114.52
309.947	12.12
310.161	67.41
310.374	67.41
310.588	32.6
310.802	-32.94
311.016	59.22
311.23	20.31
311.444	32.6
311.658	42.84
311.872	85.84
312.085	73.56
312.299	28.5
312.513	24.4
312.727	83.8
312.941	59.22
313.154	18.26
313.368	48.98
313.582	53.08
313.796	71.51
314.009	98.13
314.223	-8.36
314.437	8.02
314.651	65.36
314.864	-0.17
315.078	44.88
315.292	3.93
315.505	-14.51
315.719	57.17
315.933	36.69
316.146	87.89
316.36	-77.99
316.573	28.5
316.787	16.21
317.001	69.46
317.214	57.17
317.428	-0.17
317.641	-14.51
317.855	-41.13
318.068	12.12
318.282	87.89
318.495	81.75
318.709	67.41
318.922	128.85
319.136	42.84
319.349	126.8
319.563	1.88
319.776	65.36
319.99	40.79
320.203	73.56
320.417	-22.7
320.63	-8.36
320.843	24.4
321.057	38.74
321.27	69.46
321.483	32.6
321.697	42.84
321.91	51.03
322.124	61.27
322.337	20.31
322.55	28.5
322.763	-39.08
322.977	44.88
323.19	36.69
323.403	-55.47
323.617	24.4
323.83	8.02
324.043	-0.17
324.256	36.69
324.469	-49.32
324.683	-2.22
324.896	-8.36
325.109	61.27
325.322	-2.22
325.535	48.98
325.748	59.22
325.962	-24.75
326.175	3.93
326.388	-8.36
326.601	44.88
326.814	-57.51
327.027	32.6
327.24	38.74
327.453	46.93
327.666	46.93
327.879	85.84
328.092	46.93
328.305	48.98
328.518	-12.46
328.731	81.75
328.944	-24.75
329.157	55.12
329.37	36.69
329.583	110.42
329.796	8.02
330.009	71.51
330.222	-32.94
330.435	53.08
330.648	73.56
330.861	8.02
331.073	-14.51
331.286	-16.55
331.499	24.4
331.712	73.56
331.925	1.88
332.138	-6.31
332.35	65.36
332.563	61.27
332.776	36.69
332.989	-32.94
333.202	16.21
333.414	32.6
333.627	-0.17
333.84	57.17
334.053	-12.46
334.265	12.12
334.478	-10.41
334.691	81.75
334.903	-6.31
335.116	61.27
335.329	61.27
335.541	63.32
335.754	132.95
335.966	-12.46
336.179	44.88
336.392	77.65
336.604	32.6
336.817	12.12
337.029	51.03
337.242	44.88
337.454	67.41
337.667	16.21
337.88	48.98
338.092	-8.36
338.305	83.8
338.517	-14.51
338.729	-6.31
338.942	71.51
339.154	81.75
339.367	81.75
339.579	36.69
339.792	44.88
340.004	-22.7
340.217	44.88
340.429	89.94
340.641	-34.99
340.854	-22.7
341.066	20.31
341.278	55.12
341.491	44.88
341.703	-24.75
341.915	34.64
342.128	16.21
342.34	32.6
342.552	-0.17
342.764	-45.23
342.977	-0.17
343.189	59.22
343.401	-0.17
343.613	-28.84
343.826	10.07
344.038	3.93
344.25	85.84
344.462	46.93
344.674	-6.31
344.886	48.98
345.099	36.69
345.311	83.8
345.523	1.88
345.735	16.21
345.947	24.4
346.159	36.69
346.371	81.75
346.583	16.21
346.795	106.32
347.007	-0.17
347.219	55.12
347.431	57.17
347.643	16.21
347.855	51.03
348.067	59.22
348.279	10.07
348.491	-6.31
348.703	30.55
348.915	40.79
349.127	-39.08
349.339	57.17
349.551	-65.71
349.763	8.02
349.975	20.31
350.187	32.6
350.399	77.65
350.61	-8.36
350.822	-8.36
351.034	40.79
351.246	-0.17
351.458	53.08
351.669	10.07
351.881	40.79
352.093	77.65
352.305	40.79
352.517	18.26
352.728	73.56
352.94	-82.09
353.152	55.12
353.363	34.64
353.575	57.17
353.787	55.12
353.999	-57.51
354.21	132.95
354.422	73.56
354.633	-14.51
354.845	73.56
355.057	77.65
355.268	-28.84
355.48	36.69
355.692	65.36
355.903	-0.17
356.115	34.64
356.326	26.45
356.538	118.61
356.749	114.52
356.961	81.75
357.172	-2.22
357.384	-16.55
357.595	77.65
357.807	-20.65
358.018	40.79
358.23	73.56
358.441	81.75
358.653	83.8
358.864	57.17
359.075	32.6
359.287	106.32
359.498	83.8
359.709	30.55
359.921	20.31
360.132	65.36
360.344	34.64
360.555	-0.17
360.766	81.75
360.977	40.79
361.189	28.5
361.4	53.08
361.611	85.84
361.823	30.55
362.034	42.84
362.245	-2.22
362.456	20.31
362.667	-8.36
362.879	61.27
363.09	42.84
363.301	32.6
363.512	65.36
363.723	-0.17
363.935	55.12
364.146	40.79
364.357	73.56
364.568	79.7
364.779	3.93
364.99	110.42
365.201	16.21
365.412	57.17
365.623	65.36
365.834	112.47
366.045	32.6
366.256	77.65
366.467	26.45
366.678	32.6
366.889	20.31
367.1	55.12
367.311	73.56
367.522	40.79
367.733	147.28
367.944	26.45
368.155	32.6
368.366	65.36
368.577	8.02
368.788	65.36
368.999	24.4
369.209	24.4
369.42	89.94
369.631	98.13
369.842	8.02
370.053	85.84
370.264	110.42
370.474	8.02
370.685	65.36
370.896	-0.17
371.107	-12.46
371.317	36.69
371.528	28.5
371.739	14.17
371.95	48.98
372.16	10.07
372.371	18.26
372.582	55.12
372.792	-12.46
373.003	16.21
373.214	3.93
373.424	122.71
373.635	-10.41
373.846	-12.46
374.056	114.52
374.267	3.93
374.477	57.17
374.688	77.65
374.898	-0.17
375.109	108.37
375.319	-8.36
375.53	34.64
375.74	73.56
375.951	28.5
376.161	67.41
376.372	30.55
376.582	16.21
376.793	73.56
377.003	53.08
377.214	-8.36
377.424	24.4
377.635	98.13
377.845	-28.84
378.055	59.22
378.266	59.22
378.476	18.26
378.686	42.84
378.897	53.08
379.107	44.88
379.317	-0.17
379.528	20.31
379.738	89.94
379.948	-12.46
380.158	1.88
380.369	81.75
380.579	38.74
380.789	-20.65
380.999	73.56
381.21	57.17
381.42	73.56
381.63	83.8
381.84	94.04
382.05	73.56
382.261	69.46
382.471	55.12
382.681	73.56
382.891	36.69
383.101	87.89
383.311	-32.94
383.521	-6.31
383.731	-37.03
383.941	48.98
384.151	16.21
384.361	14.17
384.571	5.97
384.781	69.46
384.991	65.36
385.201	94.04
385.411	55.12
385.621	139.09
385.831	14.17
386.041	55.12
386.251	-26.79
386.461	30.55
386.671	22.36
386.881	14.17
387.091	69.46
387.301	40.79
387.511	22.36
387.72	32.6
387.93	40.79
388.14	40.79
388.35	-8.36
388.56	75.6
388.769	108.37
388.979	44.88
389.189	24.4
389.399	36.69
389.609	53.08
389.818	24.4
390.028	65.36
390.238	57.17
390.447	79.7
390.657	24.4
390.867	-22.7
391.076	-0.17
391.286	26.45
391.496	98.13
391.705	57.17
391.915	36.69
392.125	-16.55
392.334	53.08
392.544	28.5
392.753	59.22
392.963	44.88
393.172	57.17
393.382	26.45
393.591	67.41
393.801	57.17
394.01	28.5
394.22	132.95
394.429	89.94
394.639	16.21
394.848	85.84
395.058	44.88
395.267	57.17
395.477	116.56
395.686	69.46
395.895	81.75
396.105	122.71
396.314	-14.51
396.524	55.12
396.733	24.4
396.942	75.6
397.152	122.71
397.361	91.99
397.57	32.6
397.78	51.03
397.989	104.28
398.198	83.8
398.407	24.4
398.617	36.69
398.826	20.31
399.035	81.75
399.244	61.27
399.453	116.56
399.663	32.6
399.872	65.36
400.081	-12.46
400.29	139.09
400.499	73.56
400.708	89.94
400.917	94.04
401.127	-45.23
401.336	3.93
401.545	100.18
401.754	34.64
401.963	53.08
402.172	118.61
402.381	53.08
402.59	12.12
402.799	98.13
403.008	77.65
403.217	57.17
403.426	77.65
403.635	16.21
403.844	98.13
404.053	100.18
404.262	73.56
404.471	100.18
404.68	139.09
404.888	63.32
405.097	87.89
405.306	122.71
405.515	130.9
405.724	89.94
405.933	132.95
406.142	126.8
406.35	85.84
406.559	77.65
406.768	108.37
406.977	196.43
407.185	159.57
407.394	130.9
407.603	53.08
407.812	98.13
408.02	169.81
408.229	130.9
408.438	184.15
408.646	36.69
408.855	173.91
409.064	206.67
409.272	137.04
409.481	208.72
409.69	126.8
409.898	149.33
410.107	223.06
410.315	251.73
410.524	91.99
410.733	282.45
410.941	167.76
411.15	210.77
411.358	264.02
411.567	290.64
411.775	298.83
411.984	245.59
412.192	272.21
412.401	327.5
412.609	333.65
412.818	352.08
413.026	296.78
413.234	241.49
413.443	304.98
413.651	327.5
413.86	393.04
414.068	485.2
414.276	489.29
414.485	386.9
414.693	413.52
414.901	474.96
415.11	434
415.318	474.96
415.526	477.01
415.734	526.16
415.943	477.01
416.151	440.14
416.359	524.11
416.567	550.73
416.776	581.45
416.984	681.8
417.192	565.07
417.4	597.84
417.608	610.12
417.817	733
418.025	675.66
418.233	714.57
418.441	741.19
418.649	714.57
418.857	835.4
419.065	853.83
419.273	794.44
419.481	819.02
419.689	909.13
419.897	892.74
420.105	925.51
420.313	1027.91
420.521	1034.05
420.729	1126.21
420.937	1113.92
421.145	1066.82
421.353	1199.94
421.561	1171.27
421.769	1156.93
421.977	1240.9
422.185	1263.43
422.393	1306.43
422.601	1392.45
422.809	1507.13
423.017	1398.59
423.224	1474.37
423.432	1556.29
423.64	1574.72
423.848	1707.84
424.056	1632.06
424.263	1785.66
424.471	1713.98
424.679	1834.81
424.887	1883.96
425.094	2035.51
425.302	1972.02
425.51	2039.61
425.718	2113.33
425.925	2195.25
426.133	2090.81
426.341	2467.63
426.548	2367.28
426.756	2416.43
426.964	2510.64
427.171	2531.12
427.379	2803.5
427.586	2760.49
427.794	2850.6
428.001	2957.1
428.209	3229.48
428.417	3153.7
428.624	3374.88
428.832	3215.14
429.039	3213.09
429.247	3358.5
429.454	3497.76
429.662	3761.95
429.869	3464.99
430.076	3757.85
430.284	3620.64
430.491	3817.24
430.699	4015.9
430.906	4194.07
431.114	4116.25
431.321	4292.37
431.528	4472.59
431.736	4560.66
431.943	4718.35
432.15	4732.69
432.358	4744.97
432.565	4955.91
432.772	4949.77
432.979	5226.25
433.187	5408.51
433.394	5383.94
433.601	5664.51
433.808	5738.24
434.016	5617.41
434.223	5834.49
434.43	6203.13
434.637	6287.09
434.844	6618.86
435.052	6614.77
435.259	6622.96
435.466	6635.25
435.673	6741.74
435.88	6917.87
436.087	7175.91
436.294	7347.94
436.501	7241.45
436.708	7337.7
436.915	7857.89
437.122	7962.33
437.329	7972.57
437.537	8228.57
437.743	8474.32
437.95	8169.18
438.157	8660.69
438.364	8873.68
438.571	8847.05
438.778	8963.79
438.985	9766.59
439.192	9281.22
439.399	9547.46
439.606	9664.19
439.813	9938.62
440.02	10444.47
440.227	10438.33
440.433	10432.18
440.64	10847.92
440.847	10407.61
441.054	10766
441.261	11628.2
441.467	11443.88
441.674	11620
441.881	11781.79
442.088	12103.32
442.294	11773.6
442.501	12242.59
442.708	12396.18
442.914	13061.77
443.121	13667.97
443.328	13051.53
443.534	14067.33
443.741	13594.25
443.948	13512.33
444.154	14288.51
444.361	14562.94
444.568	14503.54
444.774	14481.02
444.981	14462.58
445.187	15042.16
445.394	15808.1
445.6	15306.35
445.807	16977.49
446.013	16199.26
446.22	16502.36
446.426	17022.55
446.633	17442.38
446.839	18136.64
447.046	17219.15
447.252	18073.15
447.459	18245.18
447.665	18048.58
447.871	18794.04
448.078	19662.38
448.284	18634.3
448.491	19414.57
448.697	20155.94
448.903	20205.09
449.11	20633.11
449.316	20102.69
449.522	20444.7
449.728	21044.76
449.935	21364.24
450.141	21192.21
450.347	21476.88
450.553	21063.19
450.76	21351.95
450.966	21980.68
451.172	22054.4
451.378	22695.42
451.584	22056.45
451.791	22410.75
451.997	22425.09
452.203	22808.06
452.409	22527.49
452.615	23098.87
452.821	21945.86
453.027	21521.93
453.233	22734.33
453.44	22060.55
453.646	22296.07
453.852	22451.71
454.058	22717.95
454.264	21909
454.47	22613.5
454.676	21880.33
454.882	22824.44
455.088	20727.32
455.294	21118.48
455.5	21429.77
455.705	21630.48
455.911	20792.86
456.117	20100.64
456.323	20442.65
456.529	19054.13
456.735	20096.55
456.941	19557.93
457.147	19277.36
457.352	18568.76
457.558	18378.3
457.764	18415.16
457.97	18163.26
458.176	17704.52
458.381	18034.24
458.587	17010.26
458.793	16926.29
458.999	15814.24
459.204	17217.1
459.41	16662.1
459.616	15713.89
459.821	15890.02
460.027	15527.53
460.233	15011.44
460.438	14597.75
460.644	14593.65
460.85	13895.3
461.055	13745.8
461.261	13796.99
461.466	12859.03
461.672	12183.2
461.878	13301.39
462.083	12463.77
462.289	12132
462.494	11878.05
462.7	11511.46
462.905	11108.01
463.111	11478.69
463.316	11636.39
463.522	11218.6
463.727	11382.44
463.932	11517.61
464.138	11126.44
464.343	11333.29
464.549	11044.52
464.754	11046.57
464.959	11329.19
465.165	11124.4
465.37	10731.19
465.575	10346.17
465.781	10929.84
465.986	10714.8
466.191	10292.92
466.397	10073.79
466.602	9766.59
466.807	10233.53
467.012	10053.31
467.218	9817.79
467.423	9871.04
467.628	10065.6
467.833	10542.77
468.038	10096.32
468.244	9758.4
468.449	10251.96
468.654	9604.8
468.859	9606.85
469.064	9733.82
