Data from USB4F104151__58__14-43-11-280.txt Node

Date: Thu Mar 13 14:43:11 EDT 2025
User: louis
Spectrometer: USB4F10415
Trigger mode: 4
Integration Time (sec): 2.000000E-2
Scans to average: 1
Electric dark correction enabled: true
Nonlinearity correction enabled: false
Boxcar width: 0
XAxis mode: Wavelengths
Number of Pixels in Spectrum: 3648
>>>>>Begin Spectral Data<<<<<
178.204	-69.63
178.424	-69.63
178.644	-69.63
178.864	-178.17
179.084	-92.16
179.304	-38.91
179.524	8.19
179.744	-45.06
179.964	69.63
180.184	-28.67
180.404	20.48
180.624	-6.14
180.844	47.1
181.064	-47.1
181.283	-18.43
181.503	-32.77
181.723	71.68
181.943	-63.49
182.163	81.92
182.383	0
182.602	6.14
182.822	73.73
183.042	49.15
183.262	-12.29
183.482	4.1
183.701	45.06
183.921	-16.38
184.141	-8.19
184.361	57.34
184.58	-4.1
184.8	45.06
185.02	36.86
185.239	86.01
185.459	-36.86
185.679	49.15
185.898	-20.48
186.118	24.58
186.338	36.86
186.557	0
186.777	-6.14
186.997	63.49
187.216	26.62
187.436	59.39
187.655	28.67
187.875	22.53
188.095	14.34
188.314	94.21
188.534	30.72
188.753	-16.38
188.973	69.63
189.192	90.11
189.412	69.63
189.631	16.38
189.851	30.72
190.07	49.15
190.29	-55.3
190.509	-34.82
190.729	55.3
190.948	88.06
191.168	106.49
191.387	147.45
191.607	61.44
191.826	71.68
192.045	-51.2
192.265	30.72
192.484	53.25
192.704	90.11
192.923	26.62
193.142	120.83
193.362	-73.73
193.581	63.49
193.8	8.19
194.02	98.3
194.239	49.15
194.458	94.21
194.678	57.34
194.897	69.63
195.116	69.63
195.335	14.34
195.555	-24.58
195.774	20.48
195.993	69.63
196.212	18.43
196.432	-45.06
196.651	-28.67
196.87	-18.43
197.089	61.44
197.308	112.64
197.528	38.91
197.747	45.06
197.966	0
198.185	139.26
198.404	83.97
198.623	49.15
198.842	86.01
199.062	86.01
199.281	88.06
199.5	81.92
199.719	-38.91
199.938	49.15
200.157	65.54
200.376	26.62
200.595	16.38
200.814	28.67
201.033	-8.19
201.252	126.97
201.471	73.73
201.69	65.54
201.909	24.58
202.128	53.25
202.347	32.77
202.566	73.73
202.785	-4.1
203.004	-57.34
203.223	83.97
203.442	112.64
203.661	-20.48
203.879	53.25
204.098	124.93
204.317	-18.43
204.536	16.38
204.755	49.15
204.974	12.29
205.193	28.67
205.411	102.4
205.63	45.06
205.849	53.25
206.068	4.1
206.287	0
206.505	12.29
206.724	30.72
206.943	34.82
207.162	49.15
207.381	4.1
207.599	55.3
207.818	26.62
208.037	86.01
208.255	36.86
208.474	61.44
208.693	28.67
208.911	18.43
209.13	36.86
209.349	53.25
209.567	55.3
209.786	45.06
210.005	36.86
210.223	-8.19
210.442	-61.44
210.661	69.63
210.879	10.24
211.098	86.01
211.316	159.74
211.535	6.14
211.753	30.72
211.972	6.14
212.191	-40.96
212.409	40.96
212.628	45.06
212.846	38.91
213.065	69.63
213.283	118.78
213.502	124.93
213.72	-2.05
213.938	36.86
214.157	-45.06
214.375	45.06
214.594	0
214.812	-32.77
215.031	69.63
215.249	-2.05
215.467	61.44
215.686	-32.77
215.904	77.82
216.122	20.48
216.341	81.92
216.559	-4.1
216.778	98.3
216.996	145.41
217.214	6.14
217.432	22.53
217.651	73.73
217.869	55.3
218.087	22.53
218.306	63.49
218.524	-45.06
218.742	-32.77
218.96	81.92
219.179	28.67
219.397	57.34
219.615	77.82
219.833	92.16
220.051	69.63
220.27	83.97
220.488	63.49
220.706	-16.38
220.924	16.38
221.142	14.34
221.36	-20.48
221.578	69.63
221.796	-4.1
222.015	16.38
222.233	40.96
222.451	77.82
222.669	0
222.887	81.92
223.105	-106.49
223.323	55.3
223.541	12.29
223.759	88.06
223.977	49.15
224.195	53.25
224.413	63.49
224.631	57.34
224.849	36.86
225.067	151.55
225.285	-18.43
225.503	-26.62
225.721	20.48
225.939	20.48
226.157	12.29
226.375	143.36
226.592	14.34
226.81	26.62
227.028	69.63
227.246	86.01
227.464	-24.58
227.682	61.44
227.9	49.15
228.117	75.77
228.335	20.48
228.553	24.58
228.771	61.44
228.989	12.29
229.206	-4.1
229.424	0
229.642	51.2
229.86	40.96
230.077	61.44
230.295	-16.38
230.513	32.77
230.731	12.29
230.948	77.82
231.166	57.34
231.384	-22.53
231.601	61.44
231.819	14.34
232.037	-28.67
232.254	22.53
232.472	49.15
232.689	36.86
232.907	114.69
233.125	-22.53
233.342	49.15
233.56	67.58
233.777	61.44
233.995	24.58
234.213	94.21
234.43	49.15
234.648	153.6
234.865	71.68
235.083	38.91
235.3	77.82
235.518	86.01
235.735	-4.1
235.953	88.06
236.17	28.67
236.388	20.48
236.605	2.05
236.822	73.73
237.04	55.3
237.257	51.2
237.475	28.67
237.692	65.54
237.909	30.72
238.127	83.97
238.344	28.67
238.562	-81.92
238.779	-12.29
238.996	-24.58
239.214	-20.48
239.431	26.62
239.648	12.29
239.865	24.58
240.083	67.58
240.3	-73.73
240.517	45.06
240.735	-4.1
240.952	12.29
241.169	120.83
241.386	12.29
241.603	-4.1
241.821	-83.97
242.038	26.62
242.255	22.53
242.472	-4.1
242.689	114.69
242.907	139.26
243.124	40.96
243.341	6.14
243.558	77.82
243.775	8.19
243.992	8.19
244.209	22.53
244.426	65.54
244.643	18.43
244.86	73.73
245.078	49.15
245.295	43.01
245.512	16.38
245.729	40.96
245.946	40.96
246.163	45.06
246.38	-40.96
246.597	-2.05
246.814	153.6
247.031	-61.44
247.248	6.14
247.464	24.58
247.681	77.82
247.898	8.19
248.115	77.82
248.332	38.91
248.549	45.06
248.766	104.45
248.983	55.3
249.2	-8.19
249.417	53.25
249.633	-38.91
249.85	47.1
250.067	10.24
250.284	-6.14
250.501	26.62
250.717	94.21
250.934	57.34
251.151	16.38
251.368	36.86
251.585	94.21
251.801	-36.86
252.018	0
252.235	24.58
252.451	96.25
252.668	53.25
252.885	12.29
253.102	24.58
253.318	43.01
253.535	16.38
253.752	43.01
253.968	36.86
254.185	2.05
254.401	65.54
254.618	16.38
254.835	-16.38
255.051	69.63
255.268	104.45
255.484	32.77
255.701	79.87
255.917	47.1
256.134	-51.2
256.351	-8.19
256.567	67.58
256.784	-18.43
257	77.82
257.217	86.01
257.433	47.1
257.65	16.38
257.866	61.44
258.082	61.44
258.299	-20.48
258.515	49.15
258.732	6.14
258.948	-10.24
259.165	18.43
259.381	53.25
259.597	59.39
259.814	6.14
260.03	20.48
260.246	20.48
260.463	65.54
260.679	57.34
260.895	4.1
261.112	45.06
261.328	4.1
261.544	20.48
261.761	90.11
261.977	61.44
262.193	-12.29
262.409	6.14
262.626	67.58
262.842	20.48
263.058	-24.58
263.274	53.25
263.49	86.01
263.707	45.06
263.923	83.97
264.139	0
264.355	55.3
264.571	102.4
264.787	24.58
265.004	30.72
265.22	49.15
265.436	-2.05
265.652	-36.86
265.868	49.15
266.084	63.49
266.3	102.4
266.516	20.48
266.732	88.06
266.948	57.34
267.164	16.38
267.38	86.01
267.596	36.86
267.812	-4.1
268.028	75.77
268.244	-6.14
268.46	83.97
268.676	28.67
268.892	30.72
269.108	-2.05
269.324	90.11
269.54	26.62
269.756	59.39
269.972	-114.69
270.188	53.25
270.403	-83.97
270.619	20.48
270.835	-12.29
271.051	43.01
271.267	45.06
271.483	-53.25
271.698	63.49
271.914	79.87
272.13	-20.48
272.346	63.49
272.562	22.53
272.777	36.86
272.993	24.58
273.209	14.34
273.425	79.87
273.64	-18.43
273.856	61.44
274.072	38.91
274.287	-12.29
274.503	14.34
274.719	61.44
274.934	-28.67
275.15	-73.73
275.366	81.92
275.581	12.29
275.797	65.54
276.012	94.21
276.228	20.48
276.444	12.29
276.659	77.82
276.875	57.34
277.09	-2.05
277.306	53.25
277.521	71.68
277.737	32.77
277.952	63.49
278.168	14.34
278.383	61.44
278.599	18.43
278.814	-12.29
279.03	-14.34
279.245	63.49
279.461	12.29
279.676	86.01
279.892	-6.14
280.107	0
280.322	22.53
280.538	112.64
280.753	14.34
280.969	16.38
281.184	28.67
281.399	94.21
281.615	71.68
281.83	47.1
282.045	36.86
282.26	-28.67
282.476	-20.48
282.691	51.2
282.906	16.38
283.122	86.01
283.337	-40.96
283.552	36.86
283.767	-18.43
283.983	61.44
284.198	120.83
284.413	38.91
284.628	-4.1
284.843	73.73
285.058	49.15
285.274	36.86
285.489	36.86
285.704	32.77
285.919	57.34
286.134	20.48
286.349	-4.1
286.564	61.44
286.779	49.15
286.995	-4.1
287.21	55.3
287.425	65.54
287.64	-12.29
287.855	24.58
288.07	6.14
288.285	45.06
288.5	139.26
288.715	51.2
288.93	-4.1
289.145	6.14
289.36	-51.2
289.575	77.82
289.79	63.49
290.004	137.21
290.219	-30.72
290.434	20.48
290.649	-28.67
290.864	57.34
291.079	-12.29
291.294	69.63
291.509	51.2
291.724	36.86
291.938	65.54
292.153	55.3
292.368	32.77
292.583	55.3
292.798	47.1
293.012	104.45
293.227	94.21
293.442	-26.62
293.657	36.86
293.871	61.44
294.086	106.49
294.301	151.55
294.516	26.62
294.73	92.16
294.945	14.34
295.16	-2.05
295.374	20.48
295.589	88.06
295.804	-6.14
296.018	161.79
296.233	63.49
296.447	110.59
296.662	12.29
296.877	38.91
297.091	22.53
297.306	16.38
297.52	22.53
297.735	-8.19
297.949	8.19
298.164	8.19
298.378	-26.62
298.593	53.25
298.807	0
299.022	57.34
299.236	92.16
299.451	-32.77
299.665	-10.24
299.88	-4.1
300.094	20.48
300.309	77.82
300.523	83.97
300.737	24.58
300.952	16.38
301.166	47.1
301.381	45.06
301.595	55.3
301.809	61.44
302.024	20.48
302.238	28.67
302.452	38.91
302.667	-8.19
302.881	61.44
303.095	110.59
303.309	61.44
303.524	12.29
303.738	63.49
303.952	4.1
304.166	110.59
304.381	0
304.595	79.87
304.809	88.06
305.023	16.38
305.237	28.67
305.452	14.34
305.666	90.11
305.88	126.97
306.094	40.96
306.308	38.91
306.522	28.67
306.736	51.2
306.95	88.06
307.164	71.68
307.379	36.86
307.593	86.01
307.807	118.78
308.021	69.63
308.235	61.44
308.449	20.48
308.663	77.82
308.877	-12.29
309.091	-28.67
309.305	28.67
309.519	-12.29
309.733	69.63
309.947	4.1
310.161	40.96
310.374	-20.48
310.588	12.29
310.802	-18.43
311.016	24.58
311.23	12.29
311.444	-16.38
311.658	36.86
311.872	94.21
312.085	10.24
312.299	92.16
312.513	92.16
312.727	88.06
312.941	-24.58
313.154	-49.15
313.368	-12.29
313.582	77.82
313.796	88.06
314.009	63.49
314.223	4.1
314.437	49.15
314.651	-2.05
314.864	55.3
315.078	30.72
315.292	65.54
315.505	16.38
315.719	69.63
315.933	53.25
316.146	20.48
316.36	-4.1
316.573	47.1
316.787	79.87
317.001	36.86
317.214	49.15
317.428	40.96
317.641	-57.34
317.855	18.43
318.068	-20.48
318.282	102.4
318.495	53.25
318.709	63.49
318.922	38.91
319.136	73.73
319.349	90.11
319.563	16.38
319.776	6.14
319.99	38.91
320.203	94.21
320.417	38.91
320.63	-22.53
320.843	69.63
321.057	20.48
321.27	45.06
321.483	32.77
321.697	100.35
321.91	18.43
322.124	20.48
322.337	10.24
322.55	-36.86
322.763	53.25
322.977	36.86
323.19	22.53
323.403	28.67
323.617	63.49
323.83	79.87
324.043	94.21
324.256	12.29
324.469	-36.86
324.683	98.3
324.896	4.1
325.109	69.63
325.322	20.48
325.535	110.59
325.748	51.2
325.962	40.96
326.175	55.3
326.388	28.67
326.601	-8.19
326.814	40.96
327.027	36.86
327.24	77.82
327.453	-18.43
327.666	6.14
327.879	61.44
328.092	98.3
328.305	-12.29
328.518	14.34
328.731	-20.48
328.944	22.53
329.157	24.58
329.37	88.06
329.583	73.73
329.796	106.49
330.009	40.96
330.222	49.15
330.435	-2.05
330.648	100.35
330.861	61.44
331.073	40.96
331.286	53.25
331.499	57.34
331.712	20.48
331.925	79.87
332.138	8.19
332.35	14.34
332.563	-10.24
332.776	88.06
332.989	0
333.202	55.3
333.414	4.1
333.627	-12.29
333.84	36.86
334.053	36.86
334.265	53.25
334.478	57.34
334.691	55.3
334.903	36.86
335.116	12.29
335.329	-2.05
335.541	20.48
335.754	120.83
335.966	-4.1
336.179	86.01
336.392	16.38
336.604	69.63
336.817	28.67
337.029	28.67
337.242	-4.1
337.454	65.54
337.667	36.86
337.88	96.25
338.092	55.3
338.305	77.82
338.517	12.29
338.729	12.29
338.942	4.1
339.154	4.1
339.367	47.1
339.579	-12.29
339.792	77.82
340.004	-22.53
340.217	8.19
340.429	4.1
340.641	36.86
340.854	63.49
341.066	-6.14
341.278	77.82
341.491	55.3
341.703	57.34
341.915	18.43
342.128	12.29
342.34	55.3
342.552	12.29
342.764	49.15
342.977	18.43
343.189	38.91
343.401	131.07
343.613	10.24
343.826	20.48
344.038	57.34
344.25	8.19
344.462	45.06
344.674	28.67
344.886	55.3
345.099	-14.34
345.311	69.63
345.523	90.11
345.735	-43.01
345.947	55.3
346.159	12.29
346.371	24.58
346.583	8.19
346.795	77.82
347.007	12.29
347.219	45.06
347.431	-36.86
347.643	147.45
347.855	26.62
348.067	61.44
348.279	12.29
348.491	73.73
348.703	36.86
348.915	75.77
349.127	22.53
349.339	2.05
349.551	14.34
349.763	20.48
349.975	38.91
350.187	36.86
350.399	63.49
350.61	118.78
350.822	-8.19
351.034	88.06
351.246	90.11
351.458	94.21
351.669	53.25
351.881	104.45
352.093	67.58
352.305	-2.05
352.517	45.06
352.728	45.06
352.94	65.54
353.152	57.34
353.363	69.63
353.575	129.02
353.787	45.06
353.999	59.39
354.21	86.01
354.422	88.06
354.633	43.01
354.845	45.06
355.057	59.39
355.268	71.68
355.48	102.4
355.692	-24.58
355.903	32.77
356.115	14.34
356.326	81.92
356.538	102.4
356.749	110.59
356.961	53.25
357.172	55.3
357.384	51.2
357.595	131.07
357.807	88.06
358.018	22.53
358.23	114.69
358.441	79.87
358.653	69.63
358.864	6.14
359.075	2.05
359.287	86.01
359.498	77.82
359.709	32.77
359.921	-12.29
360.132	45.06
360.344	30.72
360.555	-4.1
360.766	-26.62
360.977	14.34
361.189	38.91
361.4	43.01
361.611	73.73
361.823	69.63
362.034	49.15
362.245	12.29
362.456	81.92
362.667	40.96
362.879	73.73
363.09	112.64
363.301	40.96
363.512	83.97
363.723	47.1
363.935	-28.67
364.146	96.25
364.357	-10.24
364.568	-26.62
364.779	-12.29
364.99	110.59
365.201	-57.34
365.412	14.34
365.623	12.29
365.834	47.1
366.045	79.87
366.256	12.29
366.467	20.48
366.678	65.54
366.889	28.67
367.1	16.38
367.311	77.82
367.522	26.62
367.733	30.72
367.944	14.34
368.155	16.38
368.366	63.49
368.577	81.92
368.788	135.17
368.999	-12.29
369.209	63.49
369.42	131.07
369.631	100.35
369.842	65.54
370.053	-32.77
370.264	86.01
370.474	45.06
370.685	106.49
370.896	6.14
371.107	4.1
371.317	-4.1
371.528	18.43
371.739	73.73
371.95	47.1
372.16	86.01
372.371	34.82
372.582	-2.05
372.792	122.88
373.003	88.06
373.214	45.06
373.424	40.96
373.635	16.38
373.846	139.26
374.056	75.77
374.267	81.92
374.477	32.77
374.688	69.63
374.898	96.25
375.109	143.36
375.319	6.14
375.53	69.63
375.74	30.72
375.951	36.86
376.161	88.06
376.372	118.78
376.582	-88.06
376.793	-16.38
377.003	6.14
377.214	14.34
377.424	102.4
377.635	28.67
377.845	0
378.055	86.01
378.266	38.91
378.476	36.86
378.686	98.3
378.897	110.59
379.107	71.68
379.317	77.82
379.528	81.92
379.738	32.77
379.948	49.15
380.158	22.53
380.369	-4.1
380.579	77.82
380.789	-20.48
380.999	77.82
381.21	63.49
381.42	86.01
381.63	112.64
381.84	217.08
382.05	126.97
382.261	120.83
382.471	36.86
382.681	53.25
382.891	116.73
383.101	69.63
383.311	57.34
383.521	4.1
383.731	61.44
383.941	69.63
384.151	61.44
384.361	32.77
384.571	110.59
384.781	26.62
384.991	133.12
385.201	102.4
385.411	102.4
385.621	63.49
385.831	96.25
386.041	120.83
386.251	30.72
386.461	18.43
386.671	14.34
386.881	67.58
387.091	63.49
387.301	135.17
387.511	12.29
387.72	63.49
387.93	47.1
388.14	63.49
388.35	83.97
388.56	120.83
388.769	77.82
388.979	53.25
389.189	16.38
389.399	16.38
389.609	20.48
389.818	63.49
390.028	69.63
390.238	22.53
390.447	18.43
390.657	-10.24
390.867	75.77
391.076	16.38
391.286	45.06
391.496	98.3
391.705	77.82
391.915	67.58
392.125	118.78
392.334	0
392.544	104.45
392.753	16.38
392.963	24.58
393.172	53.25
393.382	22.53
393.591	114.69
393.801	34.82
394.01	120.83
394.22	81.92
394.429	94.21
394.639	61.44
394.848	129.02
395.058	104.45
395.267	71.68
395.477	94.21
395.686	112.64
395.895	159.74
396.105	163.84
396.314	108.54
396.524	163.84
396.733	63.49
396.942	135.17
397.152	126.97
397.361	129.02
397.57	145.41
397.78	167.93
397.989	83.97
398.198	131.07
398.407	100.35
398.617	106.49
398.826	55.3
399.035	86.01
399.244	75.77
399.453	81.92
399.663	159.74
399.872	124.93
400.081	49.15
400.29	110.59
400.499	83.97
400.708	129.02
400.917	104.45
401.127	145.41
401.336	104.45
401.545	143.36
401.754	151.55
401.963	139.26
402.172	79.87
402.381	20.48
402.59	108.54
402.799	118.78
403.008	86.01
403.217	81.92
403.426	155.65
403.635	118.78
403.844	149.5
404.053	131.07
404.262	126.97
404.471	178.17
404.68	149.5
404.888	159.74
405.097	153.6
405.306	126.97
405.515	79.87
405.724	96.25
405.933	131.07
406.142	137.21
406.35	188.41
406.559	159.74
406.768	194.56
406.977	245.76
407.185	225.28
407.394	217.08
407.603	264.19
407.812	241.66
408.02	129.02
408.229	200.7
408.438	215.04
408.646	241.66
408.855	206.84
409.064	317.44
409.272	348.15
409.481	239.61
409.69	221.18
409.898	352.25
410.107	266.24
410.315	229.37
410.524	260.09
410.733	292.86
410.941	276.48
411.15	401.4
411.358	374.78
411.567	370.68
411.775	401.4
411.984	294.91
412.192	446.46
412.401	362.49
412.609	399.35
412.818	491.51
413.026	440.31
413.234	503.8
413.443	454.65
413.651	462.84
413.86	475.13
414.068	645.11
414.276	589.82
414.485	511.99
414.693	634.87
414.901	724.98
415.11	630.77
415.318	620.53
415.526	698.36
415.734	641.01
415.943	661.49
416.151	817.14
416.359	880.63
416.567	825.33
416.776	923.63
416.984	827.38
417.192	897.01
417.4	874.48
417.608	899.06
417.817	841.72
418.025	991.22
418.233	1120.24
418.441	1056.75
418.649	993.26
418.857	1267.69
419.065	1212.4
419.273	1167.34
419.481	1245.17
419.689	1384.43
419.897	1445.87
420.105	1464.3
420.313	1427.43
420.521	1507.31
420.729	1445.87
420.937	1589.22
421.145	1607.66
421.353	1660.9
421.561	1703.91
421.769	1736.68
421.977	1857.51
422.185	1796.07
422.393	1945.57
422.601	2093.02
422.809	1953.76
423.017	1966.05
423.224	2133.98
423.432	2250.72
423.64	2277.34
423.848	2416.6
424.056	2383.84
424.263	2521.05
424.471	2568.15
424.679	2584.54
424.887	2664.41
425.094	2922.45
425.302	2775
425.51	2965.46
425.718	3008.47
425.925	2959.31
426.133	3352.52
426.341	3315.66
426.548	3469.26
426.756	3553.23
426.964	3551.18
427.171	3643.34
427.379	3905.48
427.586	3966.92
427.794	4104.13
428.001	4186.05
428.209	4394.94
428.417	4327.36
428.624	4583.35
428.832	4708.28
429.039	4665.27
429.247	4749.24
429.454	5164.98
429.662	5332.91
429.869	4997.04
430.076	5445.55
430.284	5175.22
430.491	5492.65
430.699	5740.46
430.906	5730.22
431.114	5812.14
431.321	6059.94
431.528	6213.54
431.736	6576.03
431.943	6713.24
432.15	6623.13
432.358	6698.91
432.565	7253.91
432.772	7098.26
432.979	7262.1
433.187	7591.82
433.394	7759.75
433.601	8245.12
433.808	8341.38
434.016	8134.53
434.223	8306.56
434.43	8904.57
434.637	8830.84
434.844	9162.61
435.052	9406.32
435.259	9500.53
435.466	9574.25
435.673	9375.6
435.88	10071.91
436.087	10559.33
436.294	10628.96
436.501	10264.42
436.708	10669.92
436.915	10809.18
437.122	11423.57
437.329	11251.54
437.537	11675.47
437.743	12029.77
437.95	11734.86
438.157	12431.17
438.364	12728.13
438.571	12570.43
438.778	12836.67
438.985	13909.8
439.192	13627.18
439.399	13961
439.606	13764.4
439.813	14483.23
440.02	15333.14
440.227	14923.55
440.433	14767.9
440.64	15347.48
440.847	15200.02
441.054	15533.84
441.261	16496.39
441.467	16486.15
441.674	16631.55
441.881	17237.75
442.088	17094.4
442.294	17135.35
442.501	17501.94
442.708	17704.69
442.914	18702.05
443.121	19451.61
443.328	18964.19
443.534	20213.45
443.741	19547.86
443.948	19394.26
444.154	21067.45
444.361	20774.59
444.568	20821.7
444.774	20764.36
444.981	20819.65
445.187	21331.64
445.394	22367.91
445.6	22077.1
445.807	24284.81
446.013	23146.14
446.22	23457.43
446.426	24571.53
446.633	24778.37
446.839	25810.55
447.046	24565.39
447.252	26197.62
447.459	26099.31
447.665	25812.6
447.871	27166.31
448.078	28239.44
448.284	26984.04
448.491	27887.19
448.697	28751.43
448.903	29498.94
449.11	29460.03
449.316	28821.06
449.522	29312.58
449.728	30281.27
449.935	30527.02
450.141	30395.95
450.347	30983.72
450.553	30266.93
450.76	30375.47
450.966	31594.01
451.172	31252
451.378	32159.25
451.584	31720.99
451.791	32169.49
451.997	32331.28
452.203	32722.44
452.409	32648.72
452.615	32435.73
452.821	31524.38
453.027	30924.33
453.233	32531.98
453.44	31620.64
453.646	31921.69
453.852	31608.35
454.058	32493.07
454.264	31524.38
454.47	32263.7
454.676	31082.02
454.882	32394.77
455.088	29824.57
455.294	29996.6
455.5	30477.87
455.705	30967.34
455.911	29679.16
456.117	29275.71
456.323	28800.58
456.529	27237.98
456.735	28776.01
456.941	27983.44
457.147	27430.49
457.352	26351.21
457.558	26443.37
457.764	26259.06
457.97	26187.38
458.176	25118.34
458.381	25296.51
458.587	24043.15
458.793	24276.62
458.999	22728.36
459.204	24573.58
459.41	24104.59
459.616	22302.38
459.821	22345.39
460.027	22339.24
460.233	21735.09
460.438	20836.03
460.644	21200.57
460.85	19979.98
461.055	19830.48
461.261	19590.87
461.466	18310.89
461.672	17573.62
461.878	18929.38
462.083	17553.14
462.289	17417.97
462.494	17331.96
462.7	16449.28
462.905	15673.1
463.111	16537.35
463.316	16500.48
463.522	16224.01
463.727	16191.24
463.932	16056.07
464.138	15955.72
464.343	15955.72
464.549	15597.33
464.754	15941.39
464.959	15773.46
465.165	15552.27
465.37	15292.18
465.575	14507.81
465.781	15343.38
465.986	15488.79
466.191	14722.85
466.397	14518.05
466.602	13918
466.807	14538.53
467.012	14337.83
467.218	14266.15
467.423	14188.33
467.628	13903.66
467.833	15054.62
468.038	14300.97
