Data from USB4F104151__208__14-45-24-249.txt Node

Date: Thu Mar 13 14:45:24 EDT 2025
User: louis
Spectrometer: USB4F10415
Trigger mode: 4
Integration Time (sec): 2.000000E-2
Scans to average: 1
Electric dark correction enabled: true
Nonlinearity correction enabled: false
Boxcar width: 0
XAxis mode: Wavelengths
Number of Pixels in Spectrum: 3648
>>>>>Begin Spectral Data<<<<<
178.204	-113.15
178.424	-113.15
178.644	-113.15
178.864	-66.05
179.084	-109.05
179.304	-10.75
179.524	-86.53
179.744	24.06
179.964	48.64
180.184	-31.23
180.404	-20.99
180.624	34.3
180.844	71.17
181.064	30.21
181.283	-8.7
181.503	-49.66
181.723	-0.51
181.943	-66.05
182.163	140.8
182.383	-33.28
182.602	-16.9
182.822	19.97
183.042	103.93
183.262	-33.28
183.482	-29.18
183.701	52.74
183.921	13.82
184.141	-27.14
184.361	17.92
184.58	22.02
184.8	-33.28
185.02	46.59
185.239	40.45
185.459	-53.76
185.679	-8.7
185.898	65.02
186.118	52.74
186.338	44.54
186.557	28.16
186.777	-64
186.997	28.16
187.216	-27.14
187.436	85.5
187.655	13.82
187.875	38.4
188.095	-14.85
188.314	67.07
188.534	3.58
188.753	50.69
188.973	75.26
189.192	126.46
189.412	19.97
189.631	-18.94
189.851	24.06
190.07	48.64
190.29	-29.18
190.509	87.55
190.729	28.16
190.948	1.54
191.168	97.79
191.387	73.21
191.607	-49.66
191.826	108.03
192.045	26.11
192.265	9.73
192.484	-0.51
192.704	56.83
192.923	-33.28
193.142	58.88
193.362	48.64
193.581	146.94
193.8	89.6
194.02	93.69
194.239	44.54
194.458	89.6
194.678	-20.99
194.897	-59.9
195.116	97.79
195.335	48.64
195.555	-20.99
195.774	73.21
195.993	-0.51
196.212	26.11
196.432	-12.8
196.651	15.87
196.87	40.45
197.089	58.88
197.308	-35.33
197.528	48.64
197.747	15.87
197.966	15.87
198.185	85.5
198.404	58.88
198.623	75.26
198.842	-29.18
199.062	97.79
199.281	120.32
199.5	-33.28
199.719	91.65
199.938	40.45
200.157	17.92
200.376	69.12
200.595	85.5
200.814	-90.62
201.033	-6.66
201.252	50.69
201.471	17.92
201.69	32.26
201.909	89.6
202.128	-4.61
202.347	-0.51
202.566	32.26
202.785	15.87
203.004	-2.56
203.223	17.92
203.442	46.59
203.661	26.11
203.879	75.26
204.098	17.92
204.317	-57.86
204.536	44.54
204.755	101.89
204.974	62.98
205.193	34.3
205.411	58.88
205.63	22.02
205.849	42.5
206.068	42.5
206.287	19.97
206.505	77.31
206.724	28.16
206.943	24.06
207.162	-31.23
207.381	50.69
207.599	-64
207.818	1.54
208.037	56.83
208.255	38.4
208.474	65.02
208.693	44.54
208.911	48.64
209.13	60.93
209.349	-6.66
209.567	17.92
209.786	71.17
210.005	-25.09
210.223	-43.52
210.442	-35.33
210.661	-16.9
210.879	28.16
211.098	73.21
211.316	71.17
211.535	58.88
211.753	-0.51
211.972	-14.85
212.191	30.21
212.409	26.11
212.628	97.79
212.846	17.92
213.065	-8.7
213.283	42.5
213.502	42.5
213.72	-6.66
213.938	36.35
214.157	19.97
214.375	71.17
214.594	50.69
214.812	114.17
215.031	13.82
215.249	40.45
215.467	-31.23
215.686	-25.09
215.904	34.3
216.122	-6.66
216.341	34.3
216.559	71.17
216.778	50.69
216.996	28.16
217.214	24.06
217.432	30.21
217.651	26.11
217.869	15.87
218.087	17.92
218.306	50.69
218.524	24.06
218.742	73.21
218.96	32.26
219.179	32.26
219.397	15.87
219.615	67.07
219.833	-8.7
220.051	-49.66
220.27	7.68
220.488	-0.51
220.706	7.68
220.924	-33.28
221.142	19.97
221.36	83.45
221.578	81.41
221.796	-4.61
222.015	65.02
222.233	19.97
222.451	81.41
222.669	17.92
222.887	69.12
223.105	50.69
223.323	34.3
223.541	-41.47
223.759	81.41
223.977	34.3
224.195	77.31
224.413	3.58
224.631	19.97
224.849	24.06
225.067	-10.75
225.285	7.68
225.503	40.45
225.721	-12.8
225.939	44.54
226.157	75.26
226.375	81.41
226.592	-8.7
226.81	34.3
227.028	34.3
227.246	81.41
227.464	36.35
227.682	-37.38
227.9	101.89
228.117	-25.09
228.335	-2.56
228.553	19.97
228.771	44.54
228.989	11.78
229.206	50.69
229.424	48.64
229.642	-33.28
229.86	-31.23
230.077	75.26
230.295	-57.86
230.513	60.93
230.731	56.83
230.948	-47.62
231.166	26.11
231.384	32.26
231.601	7.68
231.819	19.97
232.037	-23.04
232.254	9.73
232.472	-14.85
232.689	32.26
232.907	5.63
233.125	11.78
233.342	7.68
233.56	-25.09
233.777	7.68
233.995	-49.66
234.213	73.21
234.43	40.45
234.648	50.69
234.865	-43.52
235.083	19.97
235.3	-0.51
235.518	32.26
235.735	73.21
235.953	-10.75
236.17	56.83
236.388	42.5
236.605	65.02
236.822	15.87
237.04	15.87
237.257	38.4
237.475	-12.8
237.692	89.6
237.909	-23.04
238.127	24.06
238.344	24.06
238.562	97.79
238.779	30.21
238.996	-25.09
239.214	56.83
239.431	7.68
239.648	-4.61
239.865	34.3
240.083	85.5
240.3	11.78
240.517	-18.94
240.735	48.64
240.952	-4.61
241.169	9.73
241.386	101.89
241.603	93.69
241.821	24.06
242.038	56.83
242.255	26.11
242.472	-0.51
242.689	108.03
242.907	79.36
243.124	46.59
243.341	65.02
243.558	26.11
243.775	-8.7
243.992	-53.76
244.209	19.97
244.426	77.31
244.643	-47.62
244.86	15.87
245.078	48.64
245.295	3.58
245.512	-4.61
245.729	5.63
245.946	85.5
246.163	3.58
246.38	32.26
246.597	26.11
246.814	19.97
247.031	17.92
247.248	34.3
247.464	73.21
247.681	-8.7
247.898	-0.51
248.115	42.5
248.332	-16.9
248.549	48.64
248.766	52.74
248.983	60.93
249.2	-12.8
249.417	54.78
249.633	-14.85
249.85	24.06
250.067	-23.04
250.284	13.82
250.501	1.54
250.717	36.35
250.934	46.59
251.151	17.92
251.368	15.87
251.585	79.36
251.801	58.88
252.018	-14.85
252.235	-6.66
252.451	48.64
252.668	-12.8
252.885	24.06
253.102	17.92
253.318	-4.61
253.535	9.73
253.752	36.35
253.968	-23.04
254.185	-10.75
254.401	-6.66
254.618	89.6
254.835	19.97
255.051	97.79
255.268	58.88
255.484	48.64
255.701	3.58
255.917	44.54
256.134	-57.86
256.351	32.26
256.567	-8.7
256.784	24.06
257	26.11
257.217	44.54
257.433	56.83
257.65	34.3
257.866	56.83
258.082	19.97
258.299	-10.75
258.515	93.69
258.732	-0.51
258.948	32.26
259.165	81.41
259.381	-25.09
259.597	75.26
259.814	15.87
260.03	15.87
260.246	-20.99
260.463	48.64
260.679	11.78
260.895	48.64
261.112	44.54
261.328	-0.51
261.544	85.5
261.761	138.75
261.977	-2.56
262.193	-29.18
262.409	40.45
262.626	69.12
262.842	-16.9
263.058	44.54
263.274	15.87
263.49	7.68
263.707	54.78
263.923	75.26
264.139	7.68
264.355	93.69
264.571	65.02
264.787	87.55
265.004	62.98
265.22	-0.51
265.436	81.41
265.652	32.26
265.868	60.93
266.084	-12.8
266.3	46.59
266.516	-8.7
266.732	-57.86
266.948	-33.28
267.164	7.68
267.38	9.73
267.596	85.5
267.812	114.17
268.028	60.93
268.244	65.02
268.46	65.02
268.676	-29.18
268.892	56.83
269.108	67.07
269.324	-35.33
269.54	-0.51
269.756	73.21
269.972	15.87
270.188	-4.61
270.403	15.87
270.619	32.26
270.835	44.54
271.051	15.87
271.267	-27.14
271.483	-43.52
271.698	-16.9
271.914	81.41
272.13	-18.94
272.346	110.08
272.562	-6.66
272.777	17.92
272.993	44.54
273.209	19.97
273.425	48.64
273.64	-37.38
273.856	19.97
274.072	73.21
274.287	11.78
274.503	11.78
274.719	48.64
274.934	13.82
275.15	71.17
275.366	58.88
275.581	-8.7
275.797	56.83
276.012	46.59
276.228	48.64
276.444	65.02
276.659	40.45
276.875	-8.7
277.09	1.54
277.306	1.54
277.521	28.16
277.737	-12.8
277.952	-8.7
278.168	40.45
278.383	67.07
278.599	-41.47
278.814	42.5
279.03	-0.51
279.245	48.64
279.461	38.4
279.676	130.56
279.892	54.78
280.107	-12.8
280.322	50.69
280.538	58.88
280.753	17.92
280.969	32.26
281.184	-10.75
281.399	58.88
281.615	-16.9
281.83	38.4
282.045	-6.66
282.26	73.21
282.476	-25.09
282.691	1.54
282.906	-14.85
283.122	67.07
283.337	44.54
283.552	42.5
283.767	-41.47
283.983	48.64
284.198	62.98
284.413	56.83
284.628	15.87
284.843	73.21
285.058	9.73
285.274	-4.61
285.489	11.78
285.704	24.06
285.919	-49.66
286.134	42.5
286.349	28.16
286.564	-10.75
286.779	65.02
286.995	48.64
287.21	32.26
287.425	-4.61
287.64	9.73
287.855	30.21
288.07	-27.14
288.285	34.3
288.5	42.5
288.715	56.83
288.93	108.03
289.145	44.54
289.36	105.98
289.575	-12.8
289.79	83.45
290.004	-25.09
290.219	-27.14
290.434	-41.47
290.649	32.26
290.864	1.54
291.079	-25.09
291.294	26.11
291.509	48.64
291.724	-49.66
291.938	28.16
292.153	5.63
292.368	26.11
292.583	108.03
292.798	91.65
293.012	28.16
293.227	-20.99
293.442	-25.09
293.657	19.97
293.871	126.46
294.086	3.58
294.301	83.45
294.516	-55.81
294.73	19.97
294.945	-20.99
295.16	-18.94
295.374	36.35
295.589	75.26
295.804	13.82
296.018	48.64
296.233	7.68
296.447	26.11
296.662	32.26
296.877	40.45
297.091	52.74
297.306	-18.94
297.52	-6.66
297.735	-12.8
297.949	58.88
298.164	89.6
298.378	13.82
298.593	32.26
298.807	5.63
299.022	26.11
299.236	56.83
299.451	40.45
299.665	60.93
299.88	128.51
300.094	-86.53
300.309	52.74
300.523	15.87
300.737	56.83
300.952	9.73
301.166	-0.51
301.381	-18.94
301.595	17.92
301.809	-14.85
302.024	15.87
302.238	34.3
302.452	114.17
302.667	-49.66
302.881	50.69
303.095	97.79
303.309	7.68
303.524	-20.99
303.738	34.3
303.952	-84.48
304.166	73.21
304.381	-43.52
304.595	-0.51
304.809	28.16
305.023	44.54
305.237	5.63
305.452	15.87
305.666	93.69
305.88	56.83
306.094	44.54
306.308	26.11
306.522	97.79
306.736	77.31
306.95	26.11
307.164	52.74
307.379	58.88
307.593	-25.09
307.807	-16.9
308.021	46.59
308.235	46.59
308.449	36.35
308.663	28.16
308.877	124.41
309.091	11.78
309.305	-4.61
309.519	3.58
309.733	54.78
309.947	7.68
310.161	62.98
310.374	73.21
310.588	81.41
310.802	32.26
311.016	19.97
311.23	-4.61
311.444	-49.66
311.658	34.3
311.872	65.02
312.085	-18.94
312.299	89.6
312.513	54.78
312.727	108.03
312.941	48.64
313.154	48.64
313.368	73.21
313.582	-12.8
313.796	97.79
314.009	5.63
314.223	15.87
314.437	40.45
314.651	56.83
314.864	40.45
315.078	19.97
315.292	26.11
315.505	24.06
315.719	24.06
315.933	-8.7
316.146	40.45
316.36	-29.18
316.573	56.83
316.787	24.06
317.001	56.83
317.214	-31.23
317.428	24.06
317.641	48.64
317.855	-16.9
318.068	19.97
318.282	1.54
318.495	79.36
318.709	42.5
318.922	42.5
319.136	81.41
319.349	3.58
319.563	24.06
319.776	19.97
319.99	54.78
320.203	15.87
320.417	22.02
320.63	15.87
320.843	69.12
321.057	11.78
321.27	40.45
321.483	44.54
321.697	42.5
321.91	52.74
322.124	24.06
322.337	-14.85
322.55	83.45
322.763	50.69
322.977	62.98
323.19	-35.33
323.403	44.54
323.617	-8.7
323.83	26.11
324.043	-20.99
324.256	42.5
324.469	-33.28
324.683	-16.9
324.896	17.92
325.109	-2.56
325.322	24.06
325.535	128.51
325.748	50.69
325.962	-12.8
326.175	32.26
326.388	75.26
326.601	58.88
326.814	-0.51
327.027	73.21
327.24	89.6
327.453	-0.51
327.666	75.26
327.879	48.64
328.092	-41.47
328.305	52.74
328.518	75.26
328.731	91.65
328.944	38.4
329.157	26.11
329.37	-37.38
329.583	56.83
329.796	126.46
330.009	9.73
330.222	26.11
330.435	48.64
330.648	-4.61
330.861	65.02
331.073	116.22
331.286	-0.51
331.499	75.26
331.712	19.97
331.925	-41.47
332.138	-14.85
332.35	93.69
332.563	-0.51
332.776	46.59
332.989	22.02
333.202	-25.09
333.414	-16.9
333.627	-35.33
333.84	-8.7
334.053	101.89
334.265	9.73
334.478	7.68
334.691	40.45
334.903	67.07
335.116	36.35
335.329	32.26
335.541	1.54
335.754	52.74
335.966	-14.85
336.179	7.68
336.392	-29.18
336.604	89.6
336.817	44.54
337.029	118.27
337.242	73.21
337.454	73.21
337.667	-0.51
337.88	-8.7
338.092	48.64
338.305	54.78
338.517	17.92
338.729	36.35
338.942	60.93
339.154	48.64
339.367	-33.28
339.579	87.55
339.792	-57.86
340.004	130.56
340.217	-10.75
340.429	40.45
340.641	24.06
340.854	3.58
341.066	24.06
341.278	73.21
341.491	91.65
341.703	-8.7
341.915	17.92
342.128	101.89
342.34	40.45
342.552	32.26
342.764	15.87
342.977	28.16
343.189	73.21
343.401	30.21
343.613	28.16
343.826	26.11
344.038	-39.42
344.25	54.78
344.462	-20.99
344.674	-51.71
344.886	7.68
345.099	105.98
345.311	67.07
345.523	-41.47
345.735	-74.24
345.947	-23.04
346.159	11.78
346.371	-49.66
346.583	1.54
346.795	85.5
347.007	-31.23
347.219	40.45
347.431	-2.56
347.643	83.45
347.855	24.06
348.067	58.88
348.279	46.59
348.491	-0.51
348.703	50.69
348.915	9.73
349.127	34.3
349.339	38.4
349.551	9.73
349.763	34.3
349.975	32.26
350.187	9.73
350.399	26.11
350.61	130.56
350.822	24.06
351.034	69.12
351.246	-6.66
351.458	11.78
351.669	48.64
351.881	17.92
352.093	40.45
352.305	91.65
352.517	7.68
352.728	56.83
352.94	22.02
353.152	50.69
353.363	11.78
353.575	15.87
353.787	97.79
353.999	48.64
354.21	140.8
354.422	-14.85
354.633	48.64
354.845	36.35
355.057	77.31
355.268	126.46
355.48	26.11
355.692	-16.9
355.903	9.73
356.115	-12.8
356.326	3.58
356.538	134.65
356.749	56.83
356.961	52.74
357.172	-0.51
357.384	-0.51
357.595	52.74
357.807	1.54
358.018	-35.33
358.23	124.41
358.441	101.89
358.653	9.73
358.864	52.74
359.075	24.06
359.287	60.93
359.498	65.02
359.709	56.83
359.921	36.35
360.132	73.21
360.344	32.26
360.555	7.68
360.766	146.94
360.977	38.4
361.189	81.41
361.4	24.06
361.611	50.69
361.823	24.06
362.034	81.41
362.245	38.4
362.456	7.68
362.667	3.58
362.879	32.26
363.09	9.73
363.301	30.21
363.512	-4.61
363.723	-0.51
363.935	91.65
364.146	81.41
364.357	69.12
364.568	73.21
364.779	7.68
364.99	-31.23
365.201	3.58
365.412	81.41
365.623	15.87
365.834	67.07
366.045	85.5
366.256	3.58
366.467	56.83
366.678	40.45
366.889	-29.18
367.1	73.21
367.311	24.06
367.522	65.02
367.733	34.3
367.944	-14.85
368.155	-23.04
368.366	-14.85
368.577	79.36
368.788	114.17
368.999	7.68
369.209	26.11
369.42	89.6
369.631	97.79
369.842	-33.28
370.053	7.68
370.264	40.45
370.474	1.54
370.685	26.11
370.896	19.97
371.107	120.32
371.317	40.45
371.528	97.79
371.739	34.3
371.95	89.6
372.16	89.6
372.371	69.12
372.582	91.65
372.792	34.3
373.003	122.37
373.214	26.11
373.424	56.83
373.635	26.11
373.846	83.45
374.056	65.02
374.267	75.26
374.477	87.55
374.688	105.98
374.898	36.35
375.109	34.3
375.319	46.59
375.53	146.94
375.74	40.45
375.951	32.26
376.161	-16.9
376.372	91.65
376.582	40.45
376.793	65.02
377.003	32.26
377.214	89.6
377.424	142.85
377.635	-29.18
377.845	-4.61
378.055	114.17
378.266	1.54
378.476	91.65
378.686	83.45
378.897	83.45
379.107	89.6
379.317	116.22
379.528	-14.85
379.738	89.6
379.948	5.63
380.158	7.68
380.369	-33.28
380.579	60.93
380.789	-16.9
380.999	93.69
381.21	1.54
381.42	114.17
381.63	22.02
381.84	26.11
382.05	56.83
382.261	81.41
382.471	52.74
382.681	32.26
382.891	99.84
383.101	26.11
383.311	48.64
383.521	-0.51
383.731	50.69
383.941	105.98
384.151	81.41
384.361	28.16
384.571	73.21
384.781	46.59
384.991	112.13
385.201	91.65
385.411	9.73
385.621	118.27
385.831	58.88
386.041	15.87
386.251	34.3
386.461	24.06
386.671	15.87
386.881	60.93
387.091	108.03
387.301	48.64
387.511	30.21
387.72	32.26
387.93	-2.56
388.14	24.06
388.35	52.74
388.56	89.6
388.769	69.12
388.979	36.35
389.189	60.93
389.399	73.21
389.609	26.11
389.818	85.5
390.028	32.26
390.238	26.11
390.447	56.83
390.657	81.41
390.867	56.83
391.076	155.13
391.286	34.3
391.496	50.69
391.705	32.26
391.915	60.93
392.125	159.23
392.334	48.64
392.544	130.56
392.753	32.26
392.963	15.87
393.172	97.79
393.382	-0.51
393.591	132.61
393.801	44.54
394.01	91.65
394.22	73.21
394.429	71.17
394.639	30.21
394.848	69.12
395.058	89.6
395.267	32.26
395.477	114.17
395.686	105.98
395.895	99.84
396.105	69.12
396.314	58.88
396.524	91.65
396.733	1.54
396.942	85.5
397.152	65.02
397.361	110.08
397.57	105.98
397.78	67.07
397.989	142.85
398.198	122.37
398.407	15.87
398.617	28.16
398.826	103.93
399.035	67.07
399.244	140.8
399.453	50.69
399.663	58.88
399.872	118.27
400.081	87.55
400.29	110.08
400.499	65.02
400.708	24.06
400.917	87.55
401.127	58.88
401.336	73.21
401.545	114.17
401.754	48.64
401.963	138.75
402.172	65.02
402.381	75.26
402.59	95.74
402.799	99.84
403.008	105.98
403.217	85.5
403.426	60.93
403.635	138.75
403.844	56.83
404.053	110.08
404.262	44.54
404.471	153.09
404.68	128.51
404.888	83.45
405.097	97.79
405.306	157.18
405.515	52.74
405.724	126.46
405.933	189.95
406.142	159.23
406.35	93.69
406.559	165.37
406.768	171.52
406.977	163.33
407.185	196.09
407.394	185.85
407.603	165.37
407.812	181.76
408.02	99.84
408.229	212.48
408.438	155.13
408.646	228.86
408.855	198.14
409.064	257.53
409.272	271.87
409.481	228.86
409.69	237.05
409.898	226.81
410.107	228.86
410.315	271.87
410.524	247.29
410.733	300.54
410.941	259.58
411.15	224.76
411.358	380.41
411.567	400.89
411.775	237.05
411.984	355.83
412.192	351.74
412.401	425.47
412.609	474.62
412.818	390.65
413.026	364.03
413.234	460.28
413.443	431.61
413.651	411.13
413.86	517.62
414.068	482.81
414.276	513.53
414.485	507.38
414.693	542.2
414.901	572.92
415.11	468.47
415.318	589.3
415.526	611.83
415.734	617.97
415.943	654.84
416.151	691.7
416.359	622.07
416.567	671.22
416.776	679.41
416.984	773.62
417.192	763.38
417.4	779.76
417.608	695.8
417.817	769.52
418.025	787.96
418.233	945.65
418.441	941.55
418.649	1005.04
418.857	1080.82
419.065	1035.76
419.273	1002.99
419.481	1140.21
419.689	1129.97
419.897	1236.46
420.105	1187.31
420.313	1224.17
420.521	1232.37
420.729	1148.4
420.937	1469.93
421.145	1373.68
421.353	1514.98
421.561	1568.23
421.769	1572.33
421.977	1555.94
422.185	1687.01
422.393	1629.67
422.601	1846.76
422.809	1793.51
423.017	1781.22
423.224	1842.66
423.432	1906.15
423.64	1789.41
423.848	2129.38
424.056	2065.89
424.263	2280.93
424.471	2260.45
424.679	2203.1
424.887	2473.43
425.094	2457.05
425.302	2518.49
425.51	2590.17
425.718	2631.13
425.925	2713.05
426.133	2711
426.341	3083.73
426.548	3065.3
426.756	3147.22
426.964	3089.87
427.171	3251.66
427.379	3309.01
427.586	3474.89
427.794	3612.1
428.001	3722.7
428.209	3980.74
428.417	3888.58
428.624	4249.02
428.832	4038.08
429.039	4163.01
429.247	4025.79
429.454	4341.18
429.662	4705.72
429.869	4318.65
430.076	4781.5
430.284	4677.05
430.491	4902.33
430.699	5148.08
430.906	5141.94
431.114	5014.96
431.321	5488.04
431.528	5498.28
431.736	5715.37
431.943	6149.54
432.15	5782.95
432.358	5971.36
432.565	6278.56
432.772	6286.75
432.979	6497.69
433.187	6682.01
433.394	6720.92
433.601	7339.41
433.808	7302.54
434.016	7267.73
434.223	7415.18
434.43	7890.31
434.637	7851.4
434.844	8244.61
435.052	8523.13
435.259	8406.4
435.466	8480.13
435.673	8283.52
435.88	8844.67
436.087	9309.55
436.294	9373.04
436.501	9067.89
436.708	9291.12
436.915	9600.37
437.122	9878.89
437.329	10052.97
437.537	10329.44
437.743	10610.01
437.95	10306.91
438.157	10956.12
438.364	11378
438.571	11124.05
438.778	11312.47
438.985	12332.36
439.192	11611.47
439.399	12123.46
439.606	11771.21
439.813	12592.45
440.02	13454.64
440.227	13188.41
440.433	12795.2
440.64	13348.15
440.847	13419.83
441.054	13673.78
441.261	14411.04
441.467	14331.17
441.674	14589.22
441.881	15162.65
442.088	15199.51
442.294	14914.84
442.501	15652.11
442.708	15742.22
442.914	16276.74
443.121	17118.46
443.328	16702.72
443.534	17595.64
443.741	17163.51
443.948	17052.92
444.154	18308.33
444.361	18443.49
444.568	18398.44
444.774	18291.94
444.981	18347.24
445.187	19051.74
445.394	19741.91
445.6	19623.12
445.807	21492.92
446.013	20698.31
446.22	20780.23
446.426	21798.07
446.633	21841.07
446.839	22582.44
447.046	21798.07
447.252	22926.5
447.459	23088.29
447.665	22617.25
447.871	23798.93
448.078	24804.49
448.284	23557.27
448.491	24560.78
448.697	25576.57
448.903	25789.56
449.11	25597.05
449.316	25611.39
449.522	25998.45
449.728	26588.27
449.935	26729.58
450.141	26922.09
450.347	27358.3
450.553	26510.44
450.76	26977.38
450.966	27759.7
451.172	27579.48
451.378	28144.72
451.584	27667.55
451.791	28251.22
451.997	28339.28
452.203	28578.89
452.409	28605.52
452.615	28742.73
452.821	27798.62
453.027	27184.23
453.233	28849.22
453.44	27769.94
453.646	28267.6
453.852	27878.49
454.058	28826.7
454.264	27815
454.47	28181.59
454.676	27489.37
454.882	28449.87
455.088	26233.97
455.294	26418.28
455.5	27192.42
455.705	27274.34
455.911	26170.48
456.117	25638.01
456.323	25189.5
456.529	23780.5
456.735	24843.4
456.941	24601.74
457.147	24534.15
457.352	23463.07
457.558	23026.85
457.764	23495.83
457.97	22932.64
458.176	22459.56
458.381	22420.65
458.587	21402.81
458.793	21226.68
458.999	20225.23
459.204	21900.47
459.41	20751.56
459.616	19647.7
459.821	19711.19
460.027	19496.15
460.233	19176.67
460.438	18117.87
460.644	18382.06
460.85	17517.81
461.055	17376.5
461.261	17317.11
461.466	16164.11
461.672	15633.68
461.878	16620.8
462.083	15703.31
462.289	15256.86
462.494	15105.31
462.7	14515.49
462.905	14052.65
463.111	14808.35
463.316	14318.89
463.522	14312.74
463.727	14353.7
463.932	14239.01
464.138	14112.04
464.343	14081.32
464.549	13651.25
464.754	14099.75
464.959	14146.86
465.165	13851.95
465.37	13346.1
465.575	13004.09
465.781	13581.62
465.986	13741.36
466.191	13081.91
466.397	13028.67
466.602	12291.4
466.807	12866.88
467.012	12842.3
467.218	12477.76
467.423	12377.41
467.628	12602.69
467.833	13065.53
468.038	12586.3
