Data from USB4F104151__273__14-46-10-858.txt Node

Date: Thu Mar 13 14:46:10 EDT 2025
User: louis
Spectrometer: USB4F10415
Trigger mode: 4
Integration Time (sec): 2.000000E-2
Scans to average: 1
Electric dark correction enabled: true
Nonlinearity correction enabled: false
Boxcar width: 0
XAxis mode: Wavelengths
Number of Pixels in Spectrum: 3648
>>>>>Begin Spectral Data<<<<<
178.204	-107.18
178.424	-107.18
178.644	-107.18
178.864	-146.09
179.084	-123.56
179.304	25.94
179.524	25.94
179.744	-15.02
179.964	-19.11
180.184	-43.69
180.404	66.9
180.624	-55.98
180.844	52.56
181.064	-109.22
181.283	50.52
181.503	-10.92
181.723	32.08
181.943	-27.31
182.163	105.81
182.383	-68.27
182.602	91.48
182.822	38.23
183.042	-37.55
183.262	-6.83
183.482	66.9
183.701	-23.21
183.921	-2.73
184.141	77.14
184.361	91.48
184.58	-4.78
184.8	36.18
185.02	-27.31
185.239	71
185.459	-23.21
185.679	1.37
185.898	-43.69
186.118	30.04
186.338	91.48
186.557	60.76
186.777	9.56
186.997	-6.83
187.216	9.56
187.436	56.66
187.655	66.9
187.875	32.08
188.095	9.56
188.314	25.94
188.534	50.52
188.753	15.7
188.973	7.51
189.192	68.95
189.412	-12.97
189.631	44.37
189.851	3.41
190.07	9.56
190.29	25.94
190.509	9.56
190.729	107.86
190.948	42.32
191.168	136.53
191.387	71
191.607	-23.21
191.826	-47.79
192.045	34.13
192.265	48.47
192.484	1.37
192.704	58.71
192.923	-0.68
193.142	5.46
193.362	19.8
193.581	-6.83
193.8	-51.88
194.02	71
194.239	13.65
194.458	99.67
194.678	42.32
194.897	25.94
195.116	13.65
195.335	-41.64
195.555	75.09
195.774	23.89
195.993	118.1
196.212	-19.11
196.432	30.04
196.651	95.57
196.87	9.56
197.089	66.9
197.308	-23.21
197.528	42.32
197.747	-27.31
197.966	27.99
198.185	71
198.404	42.32
198.623	-29.35
198.842	-27.31
199.062	58.71
199.281	38.23
199.5	34.13
199.719	19.8
199.938	15.7
200.157	83.28
200.376	62.8
200.595	44.37
200.814	-4.78
201.033	13.65
201.252	44.37
201.471	32.08
201.69	71
201.909	109.91
202.128	-12.97
202.347	50.52
202.566	-19.11
202.785	-23.21
203.004	21.85
203.223	118.1
203.442	-17.07
203.661	3.41
203.879	11.61
204.098	38.23
204.317	60.76
204.536	81.24
204.755	30.04
204.974	79.19
205.193	11.61
205.411	107.86
205.63	9.56
205.849	-2.73
206.068	25.94
206.287	21.85
206.505	83.28
206.724	38.23
206.943	-21.16
207.162	-23.21
207.381	-37.55
207.599	-4.78
207.818	-21.16
208.037	1.37
208.255	-6.83
208.474	5.46
208.693	36.18
208.911	11.61
209.13	83.28
209.349	3.41
209.567	-6.83
209.786	111.96
210.005	38.23
210.223	34.13
210.442	3.41
210.661	68.95
210.879	5.46
211.098	1.37
211.316	-23.21
211.535	-17.07
211.753	11.61
211.972	71
212.191	42.32
212.409	-6.83
212.628	-35.5
212.846	-10.92
213.065	46.42
213.283	50.52
213.502	-17.07
213.72	-39.59
213.938	44.37
214.157	68.95
214.375	1.37
214.594	-15.02
214.812	68.95
215.031	75.09
215.249	-12.97
215.467	52.56
215.686	17.75
215.904	25.94
216.122	-55.98
216.341	58.71
216.559	34.13
216.778	46.42
216.996	56.66
217.214	-6.83
217.432	9.56
217.651	-21.16
217.869	42.32
218.087	42.32
218.306	1.37
218.524	27.99
218.742	34.13
218.96	42.32
219.179	5.46
219.397	42.32
219.615	109.91
219.833	60.76
220.051	25.94
220.27	52.56
220.488	15.7
220.706	9.56
220.924	15.7
221.142	19.8
221.36	17.75
221.578	9.56
221.796	79.19
222.015	9.56
222.233	50.52
222.451	58.71
222.669	9.56
222.887	58.71
223.105	13.65
223.323	-6.83
223.541	-2.73
223.759	19.8
223.977	-60.07
224.195	105.81
224.413	44.37
224.631	23.89
224.849	77.14
225.067	79.19
225.285	-31.4
225.503	-19.11
225.721	-25.26
225.939	3.41
226.157	-12.97
226.375	83.28
226.592	34.13
226.81	25.94
227.028	19.8
227.246	11.61
227.464	109.91
227.682	17.75
227.9	1.37
228.117	-51.88
228.335	13.65
228.553	50.52
228.771	52.56
228.989	25.94
229.206	9.56
229.424	21.85
229.642	66.9
229.86	9.56
230.077	30.04
230.295	42.32
230.513	68.95
230.731	107.86
230.948	54.61
231.166	60.76
231.384	-21.16
231.601	-31.4
231.819	9.56
232.037	62.8
232.254	42.32
232.472	50.52
232.689	25.94
232.907	-8.87
233.125	-33.45
233.342	21.85
233.56	3.41
233.777	27.99
233.995	73.04
234.213	103.76
234.43	17.75
234.648	52.56
234.865	-15.02
235.083	38.23
235.3	64.85
235.518	73.04
235.735	42.32
235.953	50.52
236.17	-47.79
236.388	79.19
236.605	-23.21
236.822	73.04
237.04	93.52
237.257	-47.79
237.475	17.75
237.692	48.47
237.909	66.9
238.127	-6.83
238.344	50.52
238.562	-12.97
238.779	36.18
238.996	56.66
239.214	52.56
239.431	114
239.648	1.37
239.865	5.46
240.083	58.71
240.3	5.46
240.517	-15.02
240.735	9.56
240.952	52.56
241.169	-6.83
241.386	87.38
241.603	34.13
241.821	40.28
242.038	27.99
242.255	124.24
242.472	42.32
242.689	58.71
242.907	62.8
243.124	17.75
243.341	54.61
243.558	-19.11
243.775	1.37
243.992	-96.94
244.209	75.09
244.426	38.23
244.643	77.14
244.86	27.99
245.078	107.86
245.295	9.56
245.512	-23.21
245.729	42.32
245.946	15.7
246.163	38.23
246.38	3.41
246.597	3.41
246.814	34.13
247.031	17.75
247.248	50.52
247.464	50.52
247.681	7.51
247.898	91.48
248.115	42.32
248.332	48.47
248.549	34.13
248.766	109.91
248.983	17.75
249.2	19.8
249.417	9.56
249.633	25.94
249.85	66.9
250.067	-17.07
250.284	-6.83
250.501	134.48
250.717	23.89
250.934	-45.74
251.151	42.32
251.368	75.09
251.585	9.56
251.801	30.04
252.018	-35.5
252.235	36.18
252.451	-2.73
252.668	17.75
252.885	34.13
253.102	48.47
253.318	58.71
253.535	17.75
253.752	13.65
253.968	66.9
254.185	-88.75
254.401	46.42
254.618	-2.73
254.835	-55.98
255.051	79.19
255.268	1.37
255.484	21.85
255.701	27.99
255.917	50.52
256.134	1.37
256.351	66.9
256.567	3.41
256.784	83.28
257	-27.31
257.217	99.67
257.433	60.76
257.65	-6.83
257.866	46.42
258.082	-62.12
258.299	5.46
258.515	1.37
258.732	30.04
258.948	3.41
259.165	52.56
259.381	1.37
259.597	21.85
259.814	68.95
260.03	-72.36
260.246	25.94
260.463	5.46
260.679	-21.16
260.895	-29.35
261.112	27.99
261.328	25.94
261.544	36.18
261.761	25.94
261.977	48.47
262.193	-43.69
262.409	95.57
262.626	38.23
262.842	46.42
263.058	-2.73
263.274	142.68
263.49	36.18
263.707	-12.97
263.923	3.41
264.139	42.32
264.355	50.52
264.571	-23.21
264.787	38.23
265.004	5.46
265.22	71
265.436	42.32
265.652	-31.4
265.868	19.8
266.084	15.7
266.3	-31.4
266.516	-80.55
266.732	-64.17
266.948	56.66
267.164	17.75
267.38	148.82
267.596	75.09
267.812	111.96
268.028	21.85
268.244	-12.97
268.46	44.37
268.676	-6.83
268.892	50.52
269.108	-19.11
269.324	81.24
269.54	19.8
269.756	75.09
269.972	32.08
270.188	-25.26
270.403	-2.73
270.619	17.75
270.835	56.66
271.051	-10.92
271.267	-47.79
271.483	-78.51
271.698	7.51
271.914	5.46
272.13	9.56
272.346	-2.73
272.562	17.75
272.777	52.56
272.993	50.52
273.209	25.94
273.425	19.8
273.64	-49.83
273.856	25.94
274.072	23.89
274.287	-76.46
274.503	15.7
274.719	-6.83
274.934	58.71
275.15	73.04
275.366	73.04
275.581	-80.55
275.797	30.04
276.012	-6.83
276.228	66.9
276.444	3.41
276.659	-15.02
276.875	34.13
277.09	136.53
277.306	17.75
277.521	25.94
277.737	13.65
277.952	42.32
278.168	5.46
278.383	17.75
278.599	-37.55
278.814	44.37
279.03	-51.88
279.245	17.75
279.461	1.37
279.676	36.18
279.892	-45.74
280.107	-45.74
280.322	-4.78
280.538	9.56
280.753	32.08
280.969	56.66
281.184	9.56
281.399	138.58
281.615	15.7
281.83	42.32
282.045	-21.16
282.26	-31.4
282.476	17.75
282.691	52.56
282.906	46.42
283.122	27.99
283.337	-47.79
283.552	48.47
283.767	-37.55
283.983	-23.21
284.198	99.67
284.413	-12.97
284.628	9.56
284.843	11.61
285.058	111.96
285.274	46.42
285.489	-2.73
285.704	71
285.919	-45.74
286.134	79.19
286.349	1.37
286.564	40.28
286.779	27.99
286.995	21.85
287.21	-53.93
287.425	-53.93
287.64	17.75
287.855	52.56
288.07	134.48
288.285	36.18
288.5	-4.78
288.715	-10.92
288.93	3.41
289.145	-45.74
289.36	66.9
289.575	25.94
289.79	64.85
290.004	17.75
290.219	60.76
290.434	17.75
290.649	38.23
290.864	-6.83
291.079	-51.88
291.294	50.52
291.509	1.37
291.724	30.04
291.938	-35.5
292.153	17.75
292.368	-41.64
292.583	17.75
292.798	85.33
293.012	-47.79
293.227	9.56
293.442	-6.83
293.657	34.13
293.871	107.86
294.086	-6.83
294.301	66.9
294.516	25.94
294.73	93.52
294.945	-33.45
295.16	54.61
295.374	36.18
295.589	34.13
295.804	17.75
296.018	62.8
296.233	-2.73
296.447	13.65
296.662	34.13
296.877	-21.16
297.091	21.85
297.306	-12.97
297.52	-6.83
297.735	83.28
297.949	25.94
298.164	5.46
298.378	21.85
298.593	-10.92
298.807	42.32
299.022	-33.45
299.236	32.08
299.451	21.85
299.665	-12.97
299.88	25.94
300.094	21.85
300.309	42.32
300.523	-4.78
300.737	79.19
300.952	71
301.166	54.61
301.381	42.32
301.595	36.18
301.809	15.7
302.024	-8.87
302.238	-10.92
302.452	81.24
302.667	25.94
302.881	52.56
303.095	48.47
303.309	93.52
303.524	36.18
303.738	58.71
303.952	44.37
304.166	36.18
304.381	-47.79
304.595	-4.78
304.809	36.18
305.023	54.61
305.237	66.9
305.452	-10.92
305.666	62.8
305.88	9.56
306.094	99.67
306.308	1.37
306.522	83.28
306.736	36.18
306.95	-12.97
307.164	52.56
307.379	-12.97
307.593	71
307.807	34.13
308.021	7.51
308.235	44.37
308.449	34.13
308.663	17.75
308.877	66.9
309.091	-15.02
309.305	68.95
309.519	15.7
309.733	34.13
309.947	-47.79
310.161	36.18
310.374	21.85
310.588	58.71
310.802	-35.5
311.016	23.89
311.23	-35.5
311.444	-31.4
311.658	42.32
311.872	83.28
312.085	75.09
312.299	34.13
312.513	138.58
312.727	75.09
312.941	25.94
313.154	38.23
313.368	87.38
313.582	83.28
313.796	9.56
314.009	7.51
314.223	42.32
314.437	79.19
314.651	19.8
314.864	-55.98
315.078	21.85
315.292	-37.55
315.505	30.04
315.719	-43.69
315.933	-6.83
316.146	17.75
316.36	-39.59
316.573	-21.16
316.787	-6.83
317.001	101.72
317.214	46.42
317.428	9.56
317.641	32.08
317.855	21.85
318.068	42.32
318.282	79.19
318.495	25.94
318.709	50.52
318.922	-15.02
319.136	107.86
319.349	44.37
319.563	17.75
319.776	93.52
319.99	34.13
320.203	30.04
320.417	17.75
320.63	42.32
320.843	126.29
321.057	1.37
321.27	-23.21
321.483	17.75
321.697	120.15
321.91	71
322.124	-39.59
322.337	62.8
322.55	89.43
322.763	-29.35
322.977	-2.73
323.19	3.41
323.403	97.62
323.617	68.95
323.83	93.52
324.043	48.47
324.256	32.08
324.469	-2.73
324.683	52.56
324.896	-4.78
325.109	1.37
325.322	-23.21
325.535	25.94
325.748	-25.26
325.962	91.48
326.175	34.13
326.388	-68.27
326.601	66.9
326.814	36.18
327.027	103.76
327.24	19.8
327.453	-6.83
327.666	54.61
327.879	68.95
328.092	58.71
328.305	-37.55
328.518	46.42
328.731	62.8
328.944	-23.21
329.157	-10.92
329.37	32.08
329.583	103.76
329.796	107.86
330.009	-8.87
330.222	56.66
330.435	68.95
330.648	56.66
330.861	-19.11
331.073	-35.5
331.286	111.96
331.499	3.41
331.712	5.46
331.925	-25.26
332.138	25.94
332.35	85.33
332.563	-25.26
332.776	44.37
332.989	-80.55
333.202	17.75
333.414	101.72
333.627	-39.59
333.84	-39.59
334.053	36.18
334.265	17.75
334.478	19.8
334.691	66.9
334.903	46.42
335.116	-12.97
335.329	25.94
335.541	19.8
335.754	99.67
335.966	17.75
336.179	-2.73
336.392	-19.11
336.604	13.65
336.817	75.09
337.029	9.56
337.242	-10.92
337.454	116.05
337.667	-17.07
337.88	25.94
338.092	-2.73
338.305	-27.31
338.517	1.37
338.729	79.19
338.942	-23.21
339.154	-4.78
339.367	5.46
339.579	11.61
339.792	27.99
340.004	56.66
340.217	30.04
340.429	15.7
340.641	-23.21
340.854	11.61
341.066	-29.35
341.278	44.37
341.491	15.7
341.703	17.75
341.915	60.76
342.128	50.52
342.34	-4.78
342.552	-12.97
342.764	46.42
342.977	3.41
343.189	13.65
343.401	118.1
343.613	-0.68
343.826	50.52
344.038	42.32
344.25	-29.35
344.462	11.61
344.674	25.94
344.886	-31.4
345.099	44.37
345.311	-27.31
345.523	19.8
345.735	-23.21
345.947	34.13
346.159	25.94
346.371	-21.16
346.583	85.33
346.795	60.76
347.007	23.89
347.219	103.76
347.431	27.99
347.643	38.23
347.855	68.95
348.067	17.75
348.279	-47.79
348.491	85.33
348.703	66.9
348.915	146.77
349.127	21.85
349.339	58.71
349.551	66.9
349.763	27.99
349.975	71
350.187	87.38
350.399	116.05
350.61	46.42
350.822	32.08
351.034	11.61
351.246	120.15
351.458	99.67
351.669	79.19
351.881	99.67
352.093	44.37
352.305	97.62
352.517	17.75
352.728	111.96
352.94	-23.21
353.152	19.8
353.363	30.04
353.575	87.38
353.787	44.37
353.999	46.42
354.21	50.52
354.422	-6.83
354.633	3.41
354.845	1.37
355.057	15.7
355.268	54.61
355.48	71
355.692	42.32
355.903	75.09
356.115	-29.35
356.326	17.75
356.538	66.9
356.749	34.13
356.961	79.19
357.172	19.8
357.384	71
357.595	71
357.807	71
358.018	50.52
358.23	91.48
358.441	128.34
358.653	-12.97
358.864	-6.83
359.075	95.57
359.287	-4.78
359.498	32.08
359.709	32.08
359.921	-43.69
360.132	27.99
360.344	68.95
360.555	-109.22
360.766	44.37
360.977	-10.92
361.189	34.13
361.4	-45.74
361.611	23.89
361.823	17.75
362.034	159.06
362.245	11.61
362.456	75.09
362.667	44.37
362.879	50.52
363.09	25.94
363.301	71
363.512	77.14
363.723	25.94
363.935	25.94
364.146	77.14
364.357	-60.07
364.568	58.71
364.779	-6.83
364.99	42.32
365.201	-33.45
365.412	91.48
365.623	19.8
365.834	52.56
366.045	3.41
366.256	68.95
366.467	34.13
366.678	87.38
366.889	124.24
367.1	-25.26
367.311	1.37
367.522	23.89
367.733	75.09
367.944	34.13
368.155	-0.68
368.366	50.52
368.577	-31.4
368.788	40.28
368.999	3.41
369.209	-12.97
369.42	-10.92
369.631	56.66
369.842	68.95
370.053	79.19
370.264	21.85
370.474	66.9
370.685	128.34
370.896	21.85
371.107	19.8
371.317	23.89
371.528	25.94
371.739	54.61
371.95	3.41
372.16	136.53
372.371	19.8
372.582	9.56
372.792	-25.26
373.003	19.8
373.214	34.13
373.424	44.37
373.635	101.72
373.846	66.9
374.056	15.7
374.267	75.09
374.477	-0.68
374.688	19.8
374.898	34.13
375.109	77.14
375.319	17.75
375.53	91.48
375.74	34.13
375.951	13.65
376.161	17.75
376.372	97.62
376.582	38.23
376.793	27.99
377.003	46.42
377.214	27.99
377.424	124.24
377.635	44.37
377.845	-41.64
378.055	34.13
378.266	3.41
378.476	-2.73
378.686	87.38
378.897	15.7
379.107	3.41
379.317	75.09
379.528	34.13
379.738	93.52
379.948	66.9
380.158	21.85
380.369	17.75
380.579	19.8
380.789	75.09
380.999	58.71
381.21	75.09
381.42	58.71
381.63	66.9
381.84	95.57
382.05	77.14
382.261	46.42
382.471	64.85
382.681	42.32
382.891	54.61
383.101	93.52
383.311	11.61
383.521	58.71
383.731	17.75
383.941	66.9
384.151	54.61
384.361	46.42
384.571	101.72
384.781	38.23
384.991	138.58
385.201	3.41
385.411	120.15
385.621	54.61
385.831	34.13
386.041	93.52
386.251	58.71
386.461	66.9
386.671	17.75
386.881	9.56
387.091	1.37
387.301	17.75
387.511	42.32
387.72	116.05
387.93	38.23
388.14	30.04
388.35	30.04
388.56	54.61
388.769	118.1
388.979	21.85
389.189	19.8
389.399	60.76
389.609	34.13
389.818	27.99
390.028	34.13
390.238	17.75
390.447	36.18
390.657	95.57
390.867	52.56
391.076	3.41
391.286	25.94
391.496	25.94
391.705	60.76
391.915	87.38
392.125	34.13
392.334	23.89
392.544	21.85
392.753	71
392.963	91.48
393.172	54.61
393.382	-31.4
393.591	124.24
393.801	19.8
394.01	58.71
394.22	44.37
394.429	46.42
394.639	71
394.848	46.42
395.058	30.04
395.267	91.48
395.477	107.86
395.686	46.42
395.895	144.72
396.105	128.34
396.314	79.19
396.524	58.71
396.733	71
396.942	120.15
397.152	58.71
397.361	71
397.57	58.71
397.78	79.19
397.989	144.72
398.198	150.87
398.407	169.3
398.617	68.95
398.826	75.09
399.035	134.48
399.244	60.76
399.453	58.71
399.663	60.76
399.872	120.15
400.081	13.65
400.29	114
400.499	58.71
400.708	114
400.917	38.23
401.127	163.15
401.336	25.94
401.545	132.44
401.754	116.05
401.963	116.05
402.172	146.77
402.381	66.9
402.59	126.29
402.799	206.16
403.008	66.9
403.217	99.67
403.426	95.57
403.635	21.85
403.844	159.06
404.053	140.63
404.262	93.52
404.471	148.82
404.68	148.82
404.888	44.37
405.097	136.53
405.306	124.24
405.515	85.33
405.724	197.97
405.933	148.82
406.142	173.39
406.35	175.44
406.559	167.25
406.768	159.06
406.977	185.68
407.185	148.82
407.394	148.82
407.603	173.39
407.812	181.59
408.02	243.03
408.229	202.07
408.438	197.97
408.646	177.49
408.855	169.3
409.064	265.55
409.272	206.16
409.481	259.41
409.69	163.15
409.898	240.98
410.107	320.85
410.315	224.59
410.524	249.17
410.733	267.6
410.941	347.47
411.15	312.66
411.358	363.86
411.567	413.01
411.775	394.58
411.984	404.82
412.192	388.43
412.401	353.62
412.609	429.39
412.818	445.77
413.026	460.11
413.234	374.1
413.443	419.15
413.651	380.24
413.86	478.54
414.068	542.03
414.276	517.45
414.485	466.25
414.693	607.56
414.901	669
415.11	628.04
415.318	576.84
415.526	556.36
415.734	712.01
415.943	707.91
416.151	677.19
416.359	654.67
416.567	787.79
416.776	771.4
416.984	896.33
417.192	812.36
417.4	869.7
417.608	820.55
417.817	877.9
418.025	1051.97
418.233	972.1
418.441	992.58
418.649	931.14
418.857	1076.55
419.065	1168.71
419.273	1142.08
419.481	1117.51
419.689	1310.02
419.897	1316.16
420.105	1240.39
420.313	1357.12
420.521	1348.93
420.729	1432.9
420.937	1361.22
421.145	1492.29
421.353	1543.49
421.561	1637.69
421.769	1705.28
421.977	1639.74
422.185	1738.04
422.393	1854.78
422.601	2043.19
422.809	1985.85
423.017	1926.46
423.224	2073.91
423.432	2204.98
423.64	2170.16
423.848	2420.02
424.056	2118.97
424.263	2395.44
424.471	2391.34
424.679	2528.56
424.887	2725.16
425.094	2665.77
425.302	2723.12
425.51	2714.92
425.718	2934.06
425.925	2833.71
426.133	3065.13
426.341	3181.86
426.548	3321.12
426.756	3353.89
426.964	3394.85
427.171	3640.61
427.379	3691.81
427.586	3681.57
427.794	3874.07
428.001	4121.88
428.209	4269.33
428.417	4105.49
428.624	4384.02
428.832	4293.91
429.039	4328.72
429.247	4396.31
429.454	4848.91
429.662	5002.51
429.869	4615.44
430.076	4967.69
430.284	5020.94
430.491	5170.44
430.699	5637.38
430.906	5526.78
431.114	5743.87
431.321	5782.78
431.528	5782.78
431.736	6175.99
431.943	6440.18
432.15	6317.3
432.358	6292.73
432.565	6800.62
432.772	6759.66
432.979	7265.51
433.187	7222.5
433.394	7267.56
433.601	7818.46
433.808	7865.57
434.016	7783.65
434.223	7941.34
434.43	8844.49
434.637	8434.9
434.844	8758.48
435.052	9178.31
435.259	8932.56
435.466	9000.14
435.673	9088.2
435.88	9536.71
436.087	10208.44
436.294	10126.52
436.501	9680.07
436.708	9864.38
436.915	10491.06
437.122	10994.86
437.329	10896.56
437.537	11211.95
437.743	11334.82
437.95	11271.34
438.157	11969.69
438.364	12289.18
438.571	12373.14
438.778	12430.49
438.985	13493.38
439.192	12840.08
439.399	13409.42
439.606	13147.28
439.813	13862.02
440.02	14564.47
440.227	14402.68
440.433	14326.91
440.64	14822.52
440.847	14554.23
441.054	15191.15
441.261	16137.31
441.467	15789.16
441.674	16290.91
441.881	16610.39
442.088	16798.81
442.294	16524.38
442.501	16929.88
442.708	17650.76
442.914	17957.96
443.121	18822.2
443.328	18211.9
443.534	19506.22
443.741	18936.88
443.948	18885.69
444.154	20235.3
444.361	19909.67
444.568	20065.32
444.774	20116.51
444.981	20444.19
445.187	21103.64
445.394	22070.28
445.6	21648.39
445.807	23563.25
446.013	22782.97
446.22	23182.32
446.426	24323.04
446.633	24067.05
446.839	25103.32
447.046	24069.09
447.252	25623.5
447.459	25549.78
447.665	25224.15
447.871	26330.05
448.078	27814.83
448.284	26358.72
448.491	27161.53
448.697	28167.08
448.903	28812.19
449.11	28871.58
449.316	28052.39
449.522	28683.17
449.728	29832.08
449.935	30243.72
450.141	29721.49
450.347	30577.54
450.553	29647.76
450.76	29891.47
450.966	31193.98
451.172	30493.57
451.378	31632.24
451.584	31208.31
451.791	31769.46
451.997	31773.55
452.203	32072.56
452.409	32559.97
452.615	32379.75
452.821	31069.05
453.027	30864.25
453.233	32303.98
453.44	31216.51
453.646	31642.48
453.852	31925.1
454.058	32531.3
454.264	31294.33
454.47	32068.46
454.676	31464.31
454.882	32402.28
455.088	29686.67
455.294	29803.41
455.5	30479.24
455.705	30913.41
455.911	29420.44
456.117	29174.68
456.323	28834.72
456.529	27419.57
456.735	28519.33
456.941	27995.05
457.147	27278.26
457.352	26465.22
457.558	26094.54
457.764	26606.53
457.97	25936.84
458.176	25594.83
458.381	25711.56
458.587	24110.05
458.793	23935.98
458.999	22770.68
459.204	24826.84
459.41	23991.27
459.616	22447.1
459.821	22211.59
460.027	22379.52
460.233	22176.77
460.438	20644.89
460.644	21595.15
460.85	20067.36
461.055	19690.54
461.261	20050.98
461.466	18236.48
461.672	17943.62
461.878	19250.22
462.083	17892.42
462.289	17359.95
462.494	17368.14
462.7	16374.88
462.905	16125.02
463.111	16784.47
463.316	16831.57
463.522	16213.09
463.727	16432.22
463.932	16516.19
464.138	16280.67
464.343	16131.17
464.549	15862.88
464.754	16462.94
464.959	16139.36
465.165	16034.91
465.37	15510.63
465.575	14974.06
465.781	15651.94
465.986	15664.23
466.191	15316.08
466.397	15066.22
466.602	14257.28
466.807	14775.41
467.012	14783.6
467.218	14640.25
467.423	14603.38
467.628	14785.65
467.833	15236.2
468.038	14621.81
468.244	14400.63
