Data from USB4F104151__242__14-45-47-583.txt Node

Date: Thu Mar 13 14:45:47 EDT 2025
User: louis
Spectrometer: USB4F10415
Trigger mode: 4
Integration Time (sec): 2.000000E-2
Scans to average: 1
Electric dark correction enabled: true
Nonlinearity correction enabled: false
Boxcar width: 0
XAxis mode: Wavelengths
Number of Pixels in Spectrum: 3648
>>>>>Begin Spectral Data<<<<<
178.204	-145.06
178.424	-145.06
178.644	-145.06
178.864	-130.73
179.084	-159.4
179.304	26.96
179.524	-38.57
179.744	-7.85
179.964	41.3
180.184	2.39
180.404	4.44
180.624	39.25
180.844	-40.62
181.064	-22.19
181.283	10.58
181.503	33.11
181.723	-48.81
181.943	-104.11
182.163	49.49
182.383	-7.85
182.602	10.58
182.822	-9.9
183.042	-57
183.262	-16.04
183.482	41.3
183.701	-32.43
183.921	0.34
184.141	-3.75
184.361	37.2
184.58	-24.23
184.8	-5.8
185.02	-57
185.239	78.16
185.459	35.16
185.679	29.01
185.898	8.53
186.118	-22.19
186.338	8.53
186.557	31.06
186.777	-3.75
186.997	18.77
187.216	-7.85
187.436	63.83
187.655	10.58
187.875	8.53
188.095	16.73
188.314	76.12
188.534	82.26
188.753	-7.85
188.973	37.2
189.192	16.73
189.412	59.73
189.631	-18.09
189.851	33.11
190.07	41.3
190.29	29.01
190.509	-48.81
190.729	76.12
190.948	96.6
191.168	115.03
191.387	53.59
191.607	-40.62
191.826	24.92
192.045	24.92
192.265	-3.75
192.484	29.01
192.704	-5.8
192.923	-20.14
193.142	123.22
193.362	69.97
193.581	16.73
193.8	49.49
194.02	100.69
194.239	12.63
194.458	-5.8
194.678	-24.23
194.897	53.59
195.116	37.2
195.335	43.35
195.555	22.87
195.774	57.68
195.993	49.49
196.212	-16.04
196.432	29.01
196.651	45.4
196.87	-7.85
197.089	117.08
197.308	-13.99
197.528	82.26
197.747	-36.52
197.966	-9.9
198.185	10.58
198.404	-38.57
198.623	14.68
198.842	108.88
199.062	57.68
199.281	16.73
199.5	57.68
199.719	-20.14
199.938	22.87
200.157	45.4
200.376	80.21
200.595	49.49
200.814	-7.85
201.033	-61.1
201.252	88.4
201.471	16.73
201.69	61.78
201.909	55.64
202.128	65.88
202.347	49.49
202.566	-3.75
202.785	6.49
203.004	45.4
203.223	117.08
203.442	82.26
203.661	20.82
203.879	41.3
204.098	-7.85
204.317	-9.9
204.536	57.68
204.755	-48.81
204.974	31.06
205.193	80.21
205.411	65.88
205.63	39.25
205.849	51.54
206.068	78.16
206.287	0.34
206.505	29.01
206.724	-20.14
206.943	-20.14
207.162	33.11
207.381	-3.75
207.599	-16.04
207.818	37.2
208.037	-1.71
208.255	16.73
208.474	63.83
208.693	20.82
208.911	0.34
209.13	33.11
209.349	31.06
209.567	-16.04
209.786	57.68
210.005	98.64
210.223	-3.75
210.442	37.2
210.661	12.63
210.879	-32.43
211.098	65.88
211.316	0.34
211.535	12.63
211.753	-3.75
211.972	33.11
212.191	-36.52
212.409	49.49
212.628	47.44
212.846	69.97
213.065	16.73
213.283	10.58
213.502	-13.99
213.72	10.58
213.938	0.34
214.157	10.58
214.375	33.11
214.594	-69.29
214.812	57.68
215.031	65.88
215.249	18.77
215.467	-48.81
215.686	8.53
215.904	37.2
216.122	-34.47
216.341	0.34
216.559	10.58
216.778	24.92
216.996	78.16
217.214	-7.85
217.432	20.82
217.651	-40.62
217.869	-9.9
218.087	31.06
218.306	37.2
218.524	12.63
218.742	45.4
218.96	8.53
219.179	-57
219.397	78.16
219.615	43.35
219.833	43.35
220.051	-42.67
220.27	51.54
220.488	90.45
220.706	10.58
220.924	24.92
221.142	41.3
221.36	31.06
221.578	-3.75
221.796	18.77
222.015	4.44
222.233	-7.85
222.451	94.55
222.669	-13.99
222.887	49.49
223.105	24.92
223.323	10.58
223.541	-46.76
223.759	72.02
223.977	43.35
224.195	-1.71
224.413	35.16
224.631	35.16
224.849	-11.95
225.067	63.83
225.285	-67.24
225.503	-44.71
225.721	-3.75
225.939	94.55
226.157	-3.75
226.375	135.51
226.592	-63.15
226.81	-32.43
227.028	10.58
227.246	24.92
227.464	2.39
227.682	16.73
227.9	65.88
228.117	8.53
228.335	33.11
228.553	-114.34
228.771	-13.99
228.989	49.49
229.206	6.49
229.424	-32.43
229.642	-13.99
229.86	-7.85
230.077	20.82
230.295	-30.38
230.513	49.49
230.731	49.49
230.948	33.11
231.166	16.73
231.384	-24.23
231.601	-28.33
231.819	63.83
232.037	-7.85
232.254	-57
232.472	76.12
232.689	-54.95
232.907	57.68
233.125	20.82
233.342	78.16
233.56	6.49
233.777	-20.14
233.995	35.16
234.213	76.12
234.43	-63.15
234.648	-5.8
234.865	-22.19
235.083	41.3
235.3	-22.19
235.518	-24.23
235.735	69.97
235.953	49.49
236.17	-48.81
236.388	12.63
236.605	-48.81
236.822	24.92
237.04	51.54
237.257	67.92
237.475	18.77
237.692	53.59
237.909	51.54
238.127	-3.75
238.344	125.27
238.562	86.36
238.779	10.58
238.996	41.3
239.214	41.3
239.431	35.16
239.648	-57
239.865	61.78
240.083	92.5
240.3	37.2
240.517	-13.99
240.735	51.54
240.952	14.68
241.169	41.3
241.386	-30.38
241.603	6.49
241.821	10.58
242.038	117.08
242.255	26.96
242.472	22.87
242.689	74.07
242.907	61.78
243.124	0.34
243.341	26.96
243.558	8.53
243.775	-5.8
243.992	-36.52
244.209	-32.43
244.426	104.79
244.643	45.4
244.86	-3.75
245.078	74.07
245.295	-11.95
245.512	67.92
245.729	29.01
245.946	121.17
246.163	-1.71
246.38	51.54
246.597	-34.47
246.814	49.49
247.031	82.26
247.248	65.88
247.464	37.2
247.681	-28.33
247.898	16.73
248.115	-65.19
248.332	-48.81
248.549	69.97
248.766	20.82
248.983	74.07
249.2	-18.09
249.417	53.59
249.633	24.92
249.85	4.44
250.067	33.11
250.284	49.49
250.501	-44.71
250.717	18.77
250.934	49.49
251.151	67.92
251.368	26.96
251.585	-48.81
251.801	31.06
252.018	-1.71
252.235	4.44
252.451	-85.67
252.668	90.45
252.885	29.01
253.102	26.96
253.318	57.68
253.535	-16.04
253.752	-36.52
253.968	65.88
254.185	78.16
254.401	76.12
254.618	12.63
254.835	33.11
255.051	90.45
255.268	-5.8
255.484	35.16
255.701	10.58
255.917	26.96
256.134	22.87
256.351	94.55
256.567	-57
256.784	14.68
257	16.73
257.217	53.59
257.433	61.78
257.65	12.63
257.866	16.73
258.082	-7.85
258.299	16.73
258.515	41.3
258.732	-3.75
258.948	-11.95
259.165	20.82
259.381	0.34
259.597	12.63
259.814	-11.95
260.03	26.96
260.246	55.64
260.463	33.11
260.679	20.82
260.895	-5.8
261.112	18.77
261.328	18.77
261.544	16.73
261.761	20.82
261.977	-26.28
262.193	-44.71
262.409	22.87
262.626	45.4
262.842	98.64
263.058	4.44
263.274	90.45
263.49	-3.75
263.707	43.35
263.923	49.49
264.139	61.78
264.355	-20.14
264.571	41.3
264.787	24.92
265.004	67.92
265.22	53.59
265.436	0.34
265.652	18.77
265.868	74.07
266.084	-3.75
266.3	55.64
266.516	-5.8
266.732	-79.53
266.948	51.54
267.164	8.53
267.38	51.54
267.596	18.77
267.812	106.84
268.028	49.49
268.244	0.34
268.46	-9.9
268.676	47.44
268.892	57.68
269.108	26.96
269.324	37.2
269.54	-3.75
269.756	10.58
269.972	-11.95
270.188	0.34
270.403	-16.04
270.619	20.82
270.835	51.54
271.051	-22.19
271.267	41.3
271.483	69.97
271.698	-11.95
271.914	16.73
272.13	18.77
272.346	-13.99
272.562	57.68
272.777	51.54
272.993	-71.34
273.209	61.78
273.425	55.64
273.64	49.49
273.856	43.35
274.072	-28.33
274.287	-69.29
274.503	57.68
274.719	82.26
274.934	-46.76
275.15	-48.81
275.366	24.92
275.581	33.11
275.797	2.39
276.012	41.3
276.228	33.11
276.444	-36.52
276.659	92.5
276.875	-48.81
277.09	-7.85
277.306	4.44
277.521	16.73
277.737	35.16
277.952	20.82
278.168	29.01
278.383	39.25
278.599	-32.43
278.814	41.3
279.03	51.54
279.245	63.83
279.461	106.84
279.676	16.73
279.892	22.87
280.107	-24.23
280.322	110.93
280.538	65.88
280.753	-48.81
280.969	6.49
281.184	26.96
281.399	45.4
281.615	45.4
281.83	20.82
282.045	-28.33
282.26	-30.38
282.476	0.34
282.691	74.07
282.906	6.49
283.122	51.54
283.337	-5.8
283.552	51.54
283.767	10.58
283.983	16.73
284.198	-28.33
284.413	43.35
284.628	-11.95
284.843	-20.14
285.058	20.82
285.274	-16.04
285.489	69.97
285.704	18.77
285.919	90.45
286.134	35.16
286.349	18.77
286.564	0.34
286.779	57.68
286.995	59.73
287.21	-16.04
287.425	86.36
287.64	0.34
287.855	57.68
288.07	-36.52
288.285	26.96
288.5	29.01
288.715	12.63
288.93	35.16
289.145	20.82
289.36	53.59
289.575	26.96
289.79	37.2
290.004	12.63
290.219	8.53
290.434	-30.38
290.649	49.49
290.864	18.77
291.079	14.68
291.294	16.73
291.509	18.77
291.724	-5.8
291.938	59.73
292.153	69.97
292.368	-11.95
292.583	8.53
292.798	-46.76
293.012	82.26
293.227	10.58
293.442	-81.58
293.657	41.3
293.871	69.97
294.086	10.58
294.301	12.63
294.516	74.07
294.73	43.35
294.945	-16.04
295.16	16.73
295.374	90.45
295.589	67.92
295.804	-20.14
296.018	-18.09
296.233	57.68
296.447	-24.23
296.662	-5.8
296.877	33.11
297.091	61.78
297.306	16.73
297.52	-57
297.735	12.63
297.949	-16.04
298.164	-9.9
298.378	-42.67
298.593	2.39
298.807	-71.34
299.022	41.3
299.236	-30.38
299.451	67.92
299.665	-5.8
299.88	-36.52
300.094	16.73
300.309	0.34
300.523	51.54
300.737	43.35
300.952	33.11
301.166	8.53
301.381	57.68
301.595	-13.99
301.809	45.4
302.024	67.92
302.238	-5.8
302.452	33.11
302.667	-3.75
302.881	26.96
303.095	12.63
303.309	69.97
303.524	-124.58
303.738	37.2
303.952	-65.19
304.166	59.73
304.381	-57
304.595	53.59
304.809	49.49
305.023	61.78
305.237	-52.91
305.452	72.02
305.666	78.16
305.88	2.39
306.094	-3.75
306.308	4.44
306.522	41.3
306.736	10.58
306.95	76.12
307.164	8.53
307.379	8.53
307.593	51.54
307.807	37.2
308.021	78.16
308.235	65.88
308.449	61.78
308.663	-3.75
308.877	82.26
309.091	-13.99
309.305	16.73
309.519	-69.29
309.733	76.12
309.947	26.96
310.161	8.53
310.374	-7.85
310.588	72.02
310.802	10.58
311.016	41.3
311.23	82.26
311.444	61.78
311.658	-16.04
311.872	43.35
312.085	14.68
312.299	-13.99
312.513	102.74
312.727	12.63
312.941	-28.33
313.154	24.92
313.368	-40.62
313.582	2.39
313.796	78.16
314.009	24.92
314.223	8.53
314.437	-57
314.651	29.01
314.864	-5.8
315.078	14.68
315.292	-30.38
315.505	-22.19
315.719	-24.23
315.933	-44.71
316.146	18.77
316.36	24.92
316.573	16.73
316.787	41.3
317.001	-7.85
317.214	31.06
317.428	63.83
317.641	2.39
317.855	-32.43
318.068	-32.43
318.282	43.35
318.495	49.49
318.709	53.59
318.922	-32.43
319.136	41.3
319.349	31.06
319.563	57.68
319.776	29.01
319.99	0.34
320.203	78.16
320.417	-22.19
320.63	-16.04
320.843	76.12
321.057	26.96
321.27	6.49
321.483	33.11
321.697	96.6
321.91	49.49
322.124	33.11
322.337	57.68
322.55	-22.19
322.763	-50.86
322.977	22.87
323.19	59.73
323.403	-22.19
323.617	24.92
323.83	96.6
324.043	-20.14
324.256	33.11
324.469	41.3
324.683	69.97
324.896	-32.43
325.109	51.54
325.322	8.53
325.535	43.35
325.748	0.34
325.962	33.11
326.175	37.2
326.388	33.11
326.601	10.58
326.814	94.55
327.027	-30.38
327.24	86.36
327.453	16.73
327.666	65.88
327.879	12.63
328.092	18.77
328.305	-52.91
328.518	10.58
328.731	57.68
328.944	74.07
329.157	57.68
329.37	-48.81
329.583	78.16
329.796	108.88
330.009	14.68
330.222	2.39
330.435	41.3
330.648	8.53
330.861	-3.75
331.073	86.36
331.286	-13.99
331.499	45.4
331.712	2.39
331.925	65.88
332.138	0.34
332.35	86.36
332.563	39.25
332.776	16.73
332.989	-7.85
333.202	4.44
333.414	20.82
333.627	-24.23
333.84	26.96
334.053	0.34
334.265	-7.85
334.478	55.64
334.691	26.96
334.903	29.01
335.116	-16.04
335.329	29.01
335.541	8.53
335.754	92.5
335.966	-11.95
336.179	-7.85
336.392	65.88
336.604	33.11
336.817	35.16
337.029	51.54
337.242	41.3
337.454	-5.8
337.667	-22.19
337.88	35.16
338.092	57.68
338.305	37.2
338.517	20.82
338.729	67.92
338.942	94.55
339.154	-63.15
339.367	-9.9
339.579	-63.15
339.792	98.64
340.004	41.3
340.217	65.88
340.429	-26.28
340.641	-5.8
340.854	-3.75
341.066	-32.43
341.278	0.34
341.491	18.77
341.703	76.12
341.915	-79.53
342.128	55.64
342.34	-24.23
342.552	33.11
342.764	65.88
342.977	2.39
343.189	-32.43
343.401	53.59
343.613	-11.95
343.826	12.63
344.038	0.34
344.25	-7.85
344.462	65.88
344.674	2.39
344.886	18.77
345.099	-13.99
345.311	-48.81
345.523	-44.71
345.735	-32.43
345.947	49.49
346.159	49.49
346.371	-11.95
346.583	-16.04
346.795	76.12
347.007	29.01
347.219	33.11
347.431	2.39
347.643	82.26
347.855	49.49
348.067	14.68
348.279	35.16
348.491	6.49
348.703	45.4
348.915	-5.8
349.127	-13.99
349.339	74.07
349.551	-54.95
349.763	57.68
349.975	-20.14
350.187	92.5
350.399	14.68
350.61	53.59
350.822	20.82
351.034	29.01
351.246	-7.85
351.458	65.88
351.669	8.53
351.881	33.11
352.093	-18.09
352.305	8.53
352.517	37.2
352.728	41.3
352.94	4.44
353.152	33.11
353.363	-48.81
353.575	43.35
353.787	10.58
353.999	16.73
354.21	12.63
354.422	-32.43
354.633	33.11
354.845	-48.81
355.057	16.73
355.268	55.64
355.48	49.49
355.692	8.53
355.903	35.16
356.115	4.44
356.326	-46.76
356.538	65.88
356.749	33.11
356.961	33.11
357.172	49.49
357.384	104.79
357.595	172.37
357.807	43.35
358.018	18.77
358.23	20.82
358.441	-11.95
358.653	117.08
358.864	-61.1
359.075	35.16
359.287	43.35
359.498	41.3
359.709	31.06
359.921	78.16
360.132	74.07
360.344	12.63
360.555	-32.43
360.766	86.36
360.977	2.39
361.189	74.07
361.4	20.82
361.611	18.77
361.823	57.68
362.034	49.49
362.245	8.53
362.456	18.77
362.667	8.53
362.879	37.2
363.09	8.53
363.301	2.39
363.512	24.92
363.723	-13.99
363.935	59.73
364.146	0.34
364.357	-48.81
364.568	100.69
364.779	18.77
364.99	-57
365.201	8.53
365.412	22.87
365.623	-48.81
365.834	12.63
366.045	-3.75
366.256	-5.8
366.467	57.68
366.678	14.68
366.889	-24.23
367.1	2.39
367.311	104.79
367.522	-40.62
367.733	18.77
367.944	16.73
368.155	24.92
368.366	-16.04
368.577	33.11
368.788	-48.81
368.999	16.73
369.209	-5.8
369.42	59.73
369.631	106.84
369.842	18.77
370.053	65.88
370.264	8.53
370.474	22.87
370.685	74.07
370.896	-28.33
371.107	90.45
371.317	-9.9
371.528	59.73
371.739	41.3
371.95	78.16
372.16	67.92
372.371	4.44
372.582	39.25
372.792	-13.99
373.003	18.77
373.214	-28.33
373.424	110.93
373.635	57.68
373.846	82.26
374.056	-57
374.267	-20.14
374.477	22.87
374.688	98.64
374.898	-3.75
375.109	61.78
375.319	-65.19
375.53	61.78
375.74	35.16
375.951	20.82
376.161	106.84
376.372	69.97
376.582	-32.43
376.793	92.5
377.003	-46.76
377.214	57.68
377.424	55.64
377.635	22.87
377.845	-32.43
378.055	10.58
378.266	10.58
378.476	-42.67
378.686	59.73
378.897	26.96
379.107	78.16
379.317	90.45
379.528	18.77
379.738	-71.34
379.948	-83.63
380.158	-38.57
380.369	-26.28
380.579	-9.9
380.789	43.35
380.999	125.27
381.21	-3.75
381.42	88.4
381.63	37.2
381.84	12.63
382.05	18.77
382.261	10.58
382.471	82.26
382.681	41.3
382.891	29.01
383.101	37.2
383.311	8.53
383.521	10.58
383.731	67.92
383.941	10.58
384.151	63.83
384.361	49.49
384.571	65.88
384.781	59.73
384.991	47.44
385.201	102.74
385.411	57.68
385.621	10.58
385.831	18.77
386.041	69.97
386.251	-5.8
386.461	10.58
386.671	82.26
386.881	35.16
387.091	16.73
387.301	67.92
387.511	49.49
387.72	59.73
387.93	49.49
388.14	-24.23
388.35	49.49
388.56	47.44
388.769	-7.85
388.979	82.26
389.189	10.58
389.399	31.06
389.609	53.59
389.818	41.3
390.028	106.84
390.238	14.68
390.447	49.49
390.657	80.21
390.867	65.88
391.076	2.39
391.286	92.5
391.496	29.01
391.705	-11.95
391.915	82.26
392.125	43.35
392.334	86.36
392.544	92.5
392.753	72.02
392.963	41.3
393.172	12.63
393.382	-38.57
393.591	55.64
393.801	6.49
394.01	53.59
394.22	76.12
394.429	-16.04
394.639	41.3
394.848	92.5
395.058	78.16
395.267	51.54
395.477	57.68
395.686	57.68
395.895	49.49
396.105	158.03
396.314	63.83
396.524	59.73
396.733	57.68
396.942	117.08
397.152	45.4
397.361	90.45
397.57	69.97
397.78	94.55
397.989	115.03
398.198	59.73
398.407	45.4
398.617	80.21
398.826	-3.75
399.035	115.03
399.244	24.92
399.453	86.36
399.663	106.84
399.872	90.45
400.081	65.88
400.29	57.68
400.499	16.73
400.708	125.27
400.917	61.78
401.127	39.25
401.336	76.12
401.545	98.64
401.754	205.14
401.963	147.8
402.172	82.26
402.381	4.44
402.59	131.41
402.799	67.92
403.008	86.36
403.217	94.55
403.426	14.68
403.635	65.88
403.844	86.36
404.053	69.97
404.262	106.84
404.471	147.8
404.68	129.36
404.888	125.27
405.097	57.68
405.306	115.03
405.515	117.08
405.724	90.45
405.933	106.84
406.142	155.99
406.35	149.84
406.559	131.41
406.768	145.75
406.977	248.15
407.185	123.22
407.394	135.51
407.603	141.65
407.812	98.64
408.02	268.63
408.229	164.18
408.438	153.94
408.646	160.08
408.855	205.14
409.064	198.99
409.272	143.7
409.481	203.09
409.69	196.95
409.898	205.14
410.107	198.99
410.315	227.67
410.524	131.41
410.733	254.29
410.941	205.14
411.15	246.1
411.358	303.44
411.567	336.21
411.775	280.91
411.984	280.91
412.192	274.77
412.401	244.05
412.609	436.56
412.818	278.87
413.026	315.73
413.234	356.69
413.443	393.55
413.651	364.88
413.86	438.61
414.068	446.8
414.276	483.66
414.485	508.24
414.693	452.94
414.901	534.86
415.11	502.09
415.318	502.09
415.526	481.61
415.734	557.39
415.943	581.96
416.151	616.78
416.359	606.54
416.567	598.35
416.776	702.79
416.984	629.07
417.192	778.57
417.4	698.7
417.608	684.36
417.817	770.38
418.025	778.57
418.233	835.91
418.441	813.38
418.649	788.81
418.857	913.74
419.065	919.88
419.273	934.22
419.481	946.5
419.689	1018.18
419.897	958.79
420.105	1053
420.313	1096
420.521	1081.67
420.729	1206.59
420.937	1149.25
421.145	1151.3
421.353	1397.06
421.561	1460.54
421.769	1384.77
421.977	1397.06
422.185	1384.77
422.393	1526.08
422.601	1685.82
422.809	1655.1
423.017	1640.76
423.224	1618.24
423.432	1745.21
423.64	1728.83
423.848	1929.53
424.056	1911.1
424.263	1968.44
424.471	1982.78
424.679	2097.46
424.887	2130.23
425.094	2246.96
425.302	2224.44
425.51	2375.99
425.718	2519.34
425.925	2394.42
426.133	2472.24
426.341	2664.75
426.548	2730.28
426.756	2705.71
426.964	2928.94
427.171	2851.11
427.379	3047.72
427.586	3111.21
427.794	3178.79
428.001	3256.61
428.209	3375.39
428.417	3359.01
428.624	3703.07
428.832	3559.71
429.039	3666.21
429.247	3621.15
429.454	4038.94
429.662	4260.12
429.869	3985.69
430.076	4170.01
430.284	4137.24
430.491	4278.55
430.699	4583.7
430.906	4548.88
431.114	4677.9
431.321	4864.27
431.528	4927.75
431.736	5095.69
431.943	5515.52
432.15	5320.96
432.358	5359.88
432.565	5572.86
432.772	5413.12
432.979	5804.28
433.187	5955.83
433.394	5832.96
433.601	6338.8
433.808	6336.76
434.016	6467.83
434.223	6744.3
434.43	6988.01
434.637	6916.33
434.844	7405.8
435.052	7459.04
435.259	7241.96
435.466	7483.62
435.673	7450.85
435.88	8007.9
436.087	8274.14
436.294	8466.64
436.501	8194.26
436.708	8151.26
436.915	8659.15
437.122	8984.78
437.329	8913.1
437.537	9160.91
437.743	9509.06
437.95	9154.76
438.157	9746.62
438.364	10098.88
438.571	9846.98
438.778	10129.59
438.985	11045.04
439.192	10623.16
439.399	10830
439.606	10399.93
439.813	11534.5
440.02	11985.05
440.227	11567.27
440.433	11612.32
440.64	12052.64
440.847	11921.57
441.054	12304.54
441.261	13074.57
441.467	12787.86
441.674	12949.65
441.881	13570.18
442.088	13715.59
442.294	13643.91
442.501	13713.54
442.708	14145.66
442.914	14563.45
443.121	15155.31
443.328	14772.34
443.534	15886.43
443.741	15226.99
443.948	15233.13
444.154	16298.08
444.361	16236.64
444.568	16633.94
444.774	16289.88
444.981	16562.26
445.187	16898.13
445.394	17766.47
445.6	17524.81
445.807	18968.63
446.013	18188.35
446.22	18714.68
446.426	19566.63
446.633	19728.42
446.839	20340.77
447.046	19306.54
447.252	20324.38
447.459	20461.6
447.665	20320.29
447.871	21309.46
448.078	22312.96
448.284	21137.43
448.491	21418
448.697	22761.47
448.903	22777.85
449.11	22935.54
449.316	22816.76
449.522	23295.99
449.728	23666.67
449.935	23926.76
450.141	24045.54
450.347	24664.03
450.553	24010.73
450.76	24362.98
450.966	24991.7
451.172	24686.56
451.378	25311.19
451.584	24797.15
451.791	25346
451.997	25376.72
452.203	25628.62
452.409	25618.38
452.615	25462.74
452.821	24539.1
453.027	24516.58
453.233	26111.94
453.44	24829.91
453.646	24899.55
453.852	25329.62
454.058	25833.42
454.264	24801.24
454.47	25356.24
454.676	24424.42
454.882	25618.38
455.088	23300.08
455.294	24070.12
455.5	24102.89
455.705	24555.49
455.911	23539.69
456.117	23406.58
456.323	22910.97
456.529	21575.69
456.735	22515.71
456.941	21944.33
457.147	21487.63
457.352	21047.32
457.558	20672.54
457.764	20928.53
457.97	20535.32
458.176	19861.54
458.381	20015.14
458.587	19009.59
458.793	18985.01
458.999	18264.13
459.204	19324.97
459.41	18839.61
459.616	17571.91
459.821	17719.37
460.027	17616.97
460.233	17291.34
460.438	16531.55
460.644	16654.42
460.85	15802.47
461.055	15501.42
461.261	15698.02
461.466	14424.19
461.672	14041.22
461.878	15018.1
462.083	13992.06
462.289	13951.1
462.494	13574.28
462.7	13064.33
462.905	12664.98
463.111	13062.29
463.316	13156.49
463.522	12636.31
463.727	12656.79
463.932	12820.63
464.138	12759.19
464.343	12773.52
464.549	12435.61
464.754	12773.52
464.959	12576.92
465.165	12220.57
465.37	12083.36
465.575	11749.54
465.781	12255.39
465.986	12357.78
466.191	11819.17
466.397	11806.88
466.602	10879.15
466.807	11468.97
467.012	11460.77
467.218	11554.98
467.423	11501.73
467.628	11364.52
467.833	11665.57
468.038	11104.43
468.244	11094.19
