Data from USB4F104151__13__14-42-37-248.txt Node

Date: Thu Mar 13 14:42:37 EDT 2025
User: louis
Spectrometer: USB4F10415
Trigger mode: 4
Integration Time (sec): 2.000000E-2
Scans to average: 1
Electric dark correction enabled: true
Nonlinearity correction enabled: false
Boxcar width: 0
XAxis mode: Wavelengths
Number of Pixels in Spectrum: 3648
>>>>>Begin Spectral Data<<<<<
178.204	-54.78
178.424	-54.78
178.644	-54.78
178.864	-87.55
179.084	-99.84
179.304	-67.07
179.524	-30.21
179.744	-67.07
179.964	78.33
180.184	16.9
180.404	18.94
180.624	55.81
180.844	4.61
181.064	14.85
181.283	-28.16
181.503	29.18
181.723	-26.11
181.943	-62.98
182.163	57.86
182.383	-30.21
182.602	55.81
182.822	74.24
183.042	41.47
183.262	-1.54
183.482	14.85
183.701	-30.21
183.921	31.23
184.141	-34.3
184.361	-7.68
184.58	33.28
184.8	25.09
185.02	64
185.239	0.51
185.459	-15.87
185.679	12.8
185.898	-48.64
186.118	82.43
186.338	66.05
186.557	41.47
186.777	8.7
186.997	57.86
187.216	6.66
187.436	156.16
187.655	59.9
187.875	80.38
188.095	64
188.314	51.71
188.534	72.19
188.753	43.52
188.973	64
189.192	39.42
189.412	6.66
189.631	-3.58
189.851	98.81
190.07	51.71
190.29	-67.07
190.509	0.51
190.729	25.09
190.948	-15.87
191.168	104.96
191.387	47.62
191.607	-34.3
191.826	51.71
192.045	68.09
192.265	-17.92
192.484	29.18
192.704	45.57
192.923	27.14
193.142	43.52
193.362	39.42
193.581	92.67
193.8	68.09
194.02	31.23
194.239	-34.3
194.458	29.18
194.678	-1.54
194.897	98.81
195.116	33.28
195.335	27.14
195.555	94.72
195.774	23.04
195.993	33.28
196.212	23.04
196.432	64
196.651	8.7
196.87	2.56
197.089	41.47
197.308	96.77
197.528	25.09
197.747	6.66
197.966	55.81
198.185	76.29
198.404	-5.63
198.623	45.57
198.842	51.71
199.062	51.71
199.281	43.52
199.5	10.75
199.719	53.76
199.938	-17.92
200.157	-46.59
200.376	16.9
200.595	6.66
200.814	47.62
201.033	8.7
201.252	16.9
201.471	43.52
201.69	10.75
201.909	80.38
202.128	20.99
202.347	57.86
202.566	2.56
202.785	-17.92
203.004	98.81
203.223	72.19
203.442	37.38
203.661	-3.58
203.879	55.81
204.098	39.42
204.317	8.7
204.536	78.33
204.755	59.9
204.974	82.43
205.193	80.38
205.411	6.66
205.63	-9.73
205.849	39.42
206.068	53.76
206.287	31.23
206.505	25.09
206.724	-48.64
206.943	47.62
207.162	0.51
207.381	0.51
207.599	94.72
207.818	-38.4
208.037	14.85
208.255	-17.92
208.474	14.85
208.693	66.05
208.911	94.72
209.13	25.09
209.349	14.85
209.567	72.19
209.786	88.57
210.005	41.47
210.223	8.7
210.442	-13.82
210.661	84.48
210.879	41.47
211.098	31.23
211.316	14.85
211.535	55.81
211.753	14.85
211.972	-30.21
212.191	31.23
212.409	27.14
212.628	27.14
212.846	16.9
213.065	96.77
213.283	51.71
213.502	6.66
213.72	57.86
213.938	72.19
214.157	0.51
214.375	64
214.594	31.23
214.812	90.62
215.031	51.71
215.249	20.99
215.467	64
215.686	39.42
215.904	80.38
216.122	23.04
216.341	18.94
216.559	-30.21
216.778	27.14
216.996	86.53
217.214	49.66
217.432	-1.54
217.651	-22.02
217.869	102.91
218.087	82.43
218.306	16.9
218.524	88.57
218.742	47.62
218.96	31.23
219.179	27.14
219.397	57.86
219.615	68.09
219.833	23.04
220.051	-13.82
220.27	2.56
220.488	33.28
220.706	37.38
220.924	-19.97
221.142	8.7
221.36	33.28
221.578	33.28
221.796	-15.87
222.015	0.51
222.233	72.19
222.451	145.92
222.669	78.33
222.887	14.85
223.105	-5.63
223.323	16.9
223.541	-17.92
223.759	-28.16
223.977	16.9
224.195	90.62
224.413	119.29
224.631	90.62
224.849	16.9
225.067	82.43
225.285	-58.88
225.503	61.95
225.721	6.66
225.939	68.09
226.157	-9.73
226.375	170.49
226.592	-54.78
226.81	-34.3
227.028	14.85
227.246	111.1
227.464	43.52
227.682	-13.82
227.9	33.28
228.117	35.33
228.335	43.52
228.553	72.19
228.771	8.7
228.989	55.81
229.206	86.53
229.424	-1.54
229.642	-1.54
229.86	33.28
230.077	45.57
230.295	59.9
230.513	25.09
230.731	80.38
230.948	137.73
231.166	100.86
231.384	39.42
231.601	12.8
231.819	14.85
232.037	55.81
232.254	-17.92
232.472	88.57
232.689	6.66
232.907	59.9
233.125	4.61
233.342	33.28
233.56	-42.5
233.777	6.66
233.995	51.71
234.213	14.85
234.43	16.9
234.648	12.8
234.865	-26.11
235.083	72.19
235.3	16.9
235.518	68.09
235.735	82.43
235.953	33.28
236.17	72.19
236.388	12.8
236.605	-101.89
236.822	88.57
237.04	64
237.257	0.51
237.475	51.71
237.692	-1.54
237.909	-13.82
238.127	59.9
238.344	25.09
238.562	-1.54
238.779	74.24
238.996	18.94
239.214	39.42
239.431	102.91
239.648	49.66
239.865	55.81
240.083	-5.63
240.3	0.51
240.517	8.7
240.735	-38.4
240.952	16.9
241.169	139.77
241.386	80.38
241.603	25.09
241.821	-30.21
242.038	59.9
242.255	31.23
242.472	31.23
242.689	37.38
242.907	107.01
243.124	-7.68
243.341	14.85
243.558	14.85
243.775	-38.4
243.992	-3.58
244.209	10.75
244.426	82.43
244.643	31.23
244.86	74.24
245.078	104.96
245.295	29.18
245.512	51.71
245.729	25.09
245.946	18.94
246.163	-5.63
246.38	84.48
246.597	72.19
246.814	12.8
247.031	39.42
247.248	141.82
247.464	47.62
247.681	74.24
247.898	121.34
248.115	64
248.332	-9.73
248.549	88.57
248.766	70.14
248.983	84.48
249.2	39.42
249.417	-9.73
249.633	8.7
249.85	10.75
250.067	-17.92
250.284	23.04
250.501	47.62
250.717	18.94
250.934	-1.54
251.151	14.85
251.368	72.19
251.585	39.42
251.801	29.18
252.018	16.9
252.235	-17.92
252.451	39.42
252.668	-24.06
252.885	31.23
253.102	96.77
253.318	31.23
253.535	-67.07
253.752	84.48
253.968	53.76
254.185	-26.11
254.401	55.81
254.618	47.62
254.835	0.51
255.051	59.9
255.268	76.29
255.484	43.52
255.701	12.8
255.917	131.58
256.134	14.85
256.351	16.9
256.567	23.04
256.784	33.28
257	8.7
257.217	131.58
257.433	-26.11
257.65	33.28
257.866	39.42
258.082	88.57
258.299	6.66
258.515	39.42
258.732	-17.92
258.948	-3.58
259.165	41.47
259.381	72.19
259.597	51.71
259.814	6.66
260.03	12.8
260.246	2.56
260.463	33.28
260.679	35.33
260.895	61.95
261.112	8.7
261.328	41.47
261.544	2.56
261.761	61.95
261.977	49.66
262.193	25.09
262.409	39.42
262.626	74.24
262.842	70.14
263.058	39.42
263.274	55.81
263.49	51.71
263.707	47.62
263.923	2.56
264.139	-73.21
264.355	39.42
264.571	6.66
264.787	-9.73
265.004	47.62
265.22	25.09
265.436	16.9
265.652	59.9
265.868	-1.54
266.084	121.34
266.3	39.42
266.516	-40.45
266.732	-9.73
266.948	23.04
267.164	72.19
267.38	35.33
267.596	43.52
267.812	57.86
268.028	102.91
268.244	16.9
268.46	29.18
268.676	6.66
268.892	-32.26
269.108	49.66
269.324	4.61
269.54	51.71
269.756	145.92
269.972	47.62
270.188	39.42
270.403	-62.98
270.619	0.51
270.835	102.91
271.051	14.85
271.267	2.56
271.483	8.7
271.698	47.62
271.914	18.94
272.13	14.85
272.346	76.29
272.562	8.7
272.777	55.81
272.993	-5.63
273.209	72.19
273.425	-1.54
273.64	-22.02
273.856	37.38
274.072	-34.3
274.287	-11.78
274.503	6.66
274.719	98.81
274.934	-1.54
275.15	-71.17
275.366	6.66
275.581	8.7
275.797	-9.73
276.012	25.09
276.228	18.94
276.444	12.8
276.659	31.23
276.875	10.75
277.09	39.42
277.306	8.7
277.521	51.71
277.737	47.62
277.952	14.85
278.168	8.7
278.383	10.75
278.599	59.9
278.814	8.7
279.03	10.75
279.245	98.81
279.461	31.23
279.676	31.23
279.892	23.04
280.107	23.04
280.322	-38.4
280.538	59.9
280.753	-26.11
280.969	57.86
281.184	74.24
281.399	104.96
281.615	-7.68
281.83	14.85
282.045	16.9
282.26	55.81
282.476	20.99
282.691	84.48
282.906	14.85
283.122	-26.11
283.337	47.62
283.552	-5.63
283.767	10.75
283.983	64
284.198	133.63
284.413	8.7
284.628	-42.5
284.843	27.14
285.058	31.23
285.274	-19.97
285.489	-3.58
285.704	61.95
285.919	-7.68
286.134	-15.87
286.349	2.56
286.564	-7.68
286.779	119.29
286.995	39.42
287.21	43.52
287.425	47.62
287.64	-42.5
287.855	31.23
288.07	-9.73
288.285	72.19
288.5	68.09
288.715	47.62
288.93	47.62
289.145	-1.54
289.36	78.33
289.575	4.61
289.79	39.42
290.004	49.66
290.219	145.92
290.434	-17.92
290.649	35.33
290.864	-9.73
291.079	-40.45
291.294	10.75
291.509	80.38
291.724	64
291.938	-9.73
292.153	121.34
292.368	-1.54
292.583	88.57
292.798	39.42
293.012	98.81
293.227	113.15
293.442	59.9
293.657	107.01
293.871	113.15
294.086	57.86
294.301	64
294.516	64
294.73	57.86
294.945	31.23
295.16	57.86
295.374	35.33
295.589	68.09
295.804	23.04
296.018	31.23
296.233	41.47
296.447	49.66
296.662	18.94
296.877	14.85
297.091	8.7
297.306	76.29
297.52	41.47
297.735	10.75
297.949	-79.36
298.164	6.66
298.378	-24.06
298.593	6.66
298.807	-5.63
299.022	25.09
299.236	6.66
299.451	-40.45
299.665	35.33
299.88	18.94
300.094	-15.87
300.309	109.05
300.523	139.77
300.737	23.04
300.952	84.48
301.166	-28.16
301.381	2.56
301.595	23.04
301.809	-1.54
302.024	29.18
302.238	25.09
302.452	35.33
302.667	72.19
302.881	66.05
303.095	135.68
303.309	-1.54
303.524	55.81
303.738	104.96
303.952	-1.54
304.166	-7.68
304.381	-50.69
304.595	25.09
304.809	64
305.023	55.81
305.237	68.09
305.452	49.66
305.666	-17.92
305.88	45.57
306.094	49.66
306.308	-32.26
306.522	121.34
306.736	53.76
306.95	90.62
307.164	47.62
307.379	2.56
307.593	45.57
307.807	68.09
308.021	47.62
308.235	6.66
308.449	16.9
308.663	25.09
308.877	131.58
309.091	-32.26
309.305	57.86
309.519	31.23
309.733	41.47
309.947	6.66
310.161	68.09
310.374	70.14
310.588	53.76
310.802	33.28
311.016	59.9
311.23	31.23
311.444	0.51
311.658	35.33
311.872	111.1
312.085	41.47
312.299	39.42
312.513	74.24
312.727	113.15
312.941	53.76
313.154	84.48
313.368	-32.26
313.582	-9.73
313.796	-7.68
314.009	43.52
314.223	37.38
314.437	64
314.651	41.47
314.864	-9.73
315.078	51.71
315.292	23.04
315.505	10.75
315.719	-11.78
315.933	64
316.146	2.56
316.36	49.66
316.573	80.38
316.787	72.19
317.001	-56.83
317.214	8.7
317.428	10.75
317.641	-30.21
317.855	10.75
318.068	39.42
318.282	23.04
318.495	107.01
318.709	37.38
318.922	59.9
319.136	70.14
319.349	-7.68
319.563	27.14
319.776	43.52
319.99	55.81
320.203	8.7
320.417	-24.06
320.63	49.66
320.843	33.28
321.057	53.76
321.27	33.28
321.483	49.66
321.697	43.52
321.91	25.09
322.124	51.71
322.337	31.23
322.55	23.04
322.763	59.9
322.977	27.14
323.19	-24.06
323.403	-26.11
323.617	25.09
323.83	76.29
324.043	68.09
324.256	47.62
324.469	14.85
324.683	31.23
324.896	0.51
325.109	6.66
325.322	23.04
325.535	49.66
325.748	14.85
325.962	43.52
326.175	14.85
326.388	45.57
326.601	55.81
326.814	-13.82
327.027	8.7
327.24	39.42
327.453	-7.68
327.666	45.57
327.879	90.62
328.092	68.09
328.305	74.24
328.518	88.57
328.731	10.75
328.944	47.62
329.157	59.9
329.37	55.81
329.583	86.53
329.796	35.33
330.009	6.66
330.222	41.47
330.435	-15.87
330.648	98.81
330.861	-32.26
331.073	37.38
331.286	64
331.499	23.04
331.712	6.66
331.925	74.24
332.138	12.8
332.35	100.86
332.563	2.56
332.776	35.33
332.989	-30.21
333.202	14.85
333.414	109.05
333.627	33.28
333.84	43.52
334.053	39.42
334.265	31.23
334.478	41.47
334.691	55.81
334.903	-9.73
335.116	14.85
335.329	82.43
335.541	-1.54
335.754	39.42
335.966	-22.02
336.179	72.19
336.392	16.9
336.604	4.61
336.817	23.04
337.029	55.81
337.242	-1.54
337.454	2.56
337.667	55.81
337.88	145.92
338.092	31.23
338.305	27.14
338.517	47.62
338.729	33.28
338.942	72.19
339.154	80.38
339.367	-5.63
339.579	39.42
339.792	-19.97
340.004	80.38
340.217	100.86
340.429	70.14
340.641	27.14
340.854	49.66
341.066	-1.54
341.278	64
341.491	37.38
341.703	18.94
341.915	31.23
342.128	51.71
342.34	-17.92
342.552	74.24
342.764	98.81
342.977	39.42
343.189	92.67
343.401	-71.17
343.613	47.62
343.826	0.51
344.038	55.81
344.25	-40.45
344.462	29.18
344.674	29.18
344.886	43.52
345.099	31.23
345.311	-7.68
345.523	16.9
345.735	-26.11
345.947	74.24
346.159	6.66
346.371	20.99
346.583	53.76
346.795	158.21
347.007	4.61
347.219	33.28
347.431	-11.78
347.643	72.19
347.855	49.66
348.067	203.26
348.279	-19.97
348.491	31.23
348.703	121.34
348.915	64
349.127	49.66
349.339	-1.54
349.551	86.53
349.763	66.05
349.975	47.62
350.187	90.62
350.399	92.67
350.61	76.29
350.822	55.81
351.034	92.67
351.246	31.23
351.458	113.15
351.669	33.28
351.881	96.77
352.093	35.33
352.305	-38.4
352.517	88.57
352.728	59.9
352.94	115.2
353.152	59.9
353.363	39.42
353.575	98.81
353.787	43.52
353.999	76.29
354.21	0.51
354.422	98.81
354.633	14.85
354.845	55.81
355.057	14.85
355.268	76.29
355.48	51.71
355.692	80.38
355.903	47.62
356.115	57.86
356.326	-9.73
356.538	31.23
356.749	51.71
356.961	145.92
357.172	25.09
357.384	18.94
357.595	74.24
357.807	72.19
358.018	64
358.23	14.85
358.441	2.56
358.653	96.77
358.864	64
359.075	8.7
359.287	72.19
359.498	18.94
359.709	55.81
359.921	72.19
360.132	6.66
360.344	47.62
360.555	6.66
360.766	121.34
360.977	39.42
361.189	104.96
361.4	92.67
361.611	72.19
361.823	61.95
362.034	49.66
362.245	29.18
362.456	14.85
362.667	31.23
362.879	53.76
363.09	41.47
363.301	-5.63
363.512	80.38
363.723	31.23
363.935	14.85
364.146	14.85
364.357	18.94
364.568	76.29
364.779	16.9
364.99	152.06
365.201	-24.06
365.412	72.19
365.623	-3.58
365.834	47.62
366.045	80.38
366.256	86.53
366.467	82.43
366.678	147.97
366.889	66.05
367.1	47.62
367.311	64
367.522	109.05
367.733	16.9
367.944	33.28
368.155	-17.92
368.366	104.96
368.577	27.14
368.788	59.9
368.999	-1.54
369.209	6.66
369.42	72.19
369.631	193.02
369.842	127.49
370.053	84.48
370.264	18.94
370.474	0.51
370.685	27.14
370.896	47.62
371.107	59.9
371.317	76.29
371.528	31.23
371.739	-17.92
371.95	31.23
372.16	57.86
372.371	39.42
372.582	53.76
372.792	74.24
373.003	61.95
373.214	27.14
373.424	8.7
373.635	6.66
373.846	31.23
374.056	8.7
374.267	47.62
374.477	39.42
374.688	-3.58
374.898	55.81
375.109	80.38
375.319	90.62
375.53	113.15
375.74	39.42
375.951	113.15
376.161	74.24
376.372	131.58
376.582	35.33
376.793	-42.5
377.003	-1.54
377.214	84.48
377.424	49.66
377.635	49.66
377.845	-19.97
378.055	133.63
378.266	68.09
378.476	25.09
378.686	90.62
378.897	78.33
379.107	10.75
379.317	39.42
379.528	55.81
379.738	74.24
379.948	64
380.158	72.19
380.369	6.66
380.579	84.48
380.789	33.28
380.999	76.29
381.21	39.42
381.42	143.87
381.63	72.19
381.84	80.38
382.05	55.81
382.261	90.62
382.471	72.19
382.681	98.81
382.891	47.62
383.101	43.52
383.311	33.28
383.521	80.38
383.731	154.11
383.941	14.85
384.151	-1.54
384.361	104.96
384.571	76.29
384.781	20.99
384.991	59.9
385.201	154.11
385.411	70.14
385.621	31.23
385.831	84.48
386.041	80.38
386.251	27.14
386.461	100.86
386.671	66.05
386.881	104.96
387.091	33.28
387.301	76.29
387.511	49.66
387.72	10.75
387.93	104.96
388.14	-1.54
388.35	43.52
388.56	137.73
388.769	90.62
388.979	57.86
389.189	8.7
389.399	25.09
389.609	154.11
389.818	98.81
390.028	25.09
390.238	86.53
390.447	104.96
390.657	-17.92
390.867	82.43
391.076	68.09
391.286	121.34
391.496	68.09
391.705	16.9
391.915	25.09
392.125	104.96
392.334	80.38
392.544	96.77
392.753	18.94
392.963	92.67
393.172	35.33
393.382	80.38
393.591	10.75
393.801	72.19
394.01	182.78
394.22	61.95
394.429	121.34
394.639	43.52
394.848	115.2
395.058	-9.73
395.267	72.19
395.477	186.88
395.686	76.29
395.895	113.15
396.105	113.15
396.314	23.04
396.524	109.05
396.733	129.53
396.942	96.77
397.152	117.25
397.361	137.73
397.57	66.05
397.78	129.53
397.989	143.87
398.198	141.82
398.407	39.42
398.617	66.05
398.826	66.05
399.035	88.57
399.244	84.48
399.453	131.58
399.663	39.42
399.872	131.58
400.081	76.29
400.29	57.86
400.499	98.81
400.708	129.53
400.917	92.67
401.127	90.62
401.336	125.44
401.545	125.44
401.754	90.62
401.963	139.77
402.172	37.38
402.381	35.33
402.59	72.19
402.799	80.38
403.008	121.34
403.217	70.14
403.426	162.3
403.635	107.01
403.844	141.82
404.053	-1.54
404.262	113.15
404.471	252.41
404.68	82.43
404.888	76.29
405.097	121.34
405.306	139.77
405.515	117.25
405.724	121.34
405.933	104.96
406.142	123.39
406.35	178.69
406.559	98.81
406.768	174.59
406.977	213.5
407.185	170.49
407.394	158.21
407.603	186.88
407.812	107.01
408.02	193.02
408.229	295.42
408.438	268.8
408.646	223.74
408.855	207.36
409.064	227.84
409.272	201.21
409.481	252.41
409.69	203.26
409.898	174.59
410.107	260.6
410.315	272.89
410.524	231.93
410.733	276.99
410.941	258.56
411.15	344.57
411.358	295.42
411.567	328.19
411.775	342.52
411.984	434.68
412.192	399.87
412.401	365.05
412.609	451.07
412.818	469.5
413.026	416.25
413.234	406.01
413.443	399.87
413.651	498.17
413.86	459.26
414.068	449.02
414.276	514.55
414.485	438.78
414.693	608.76
414.901	561.66
415.11	557.56
415.318	571.9
415.526	557.56
415.734	629.24
415.943	635.38
416.151	621.05
416.359	645.62
416.567	682.49
416.776	758.26
416.984	752.12
417.192	883.19
417.4	807.41
417.608	809.46
417.817	819.7
418.025	868.85
418.233	874.99
418.441	977.39
418.649	926.19
418.857	942.58
419.065	1022.45
419.273	1042.93
419.481	1042.93
419.689	1178.09
419.897	1219.05
420.105	1182.19
420.313	1253.87
420.521	1350.12
420.729	1325.55
420.937	1354.22
421.145	1415.66
421.353	1423.85
421.561	1579.5
421.769	1489.39
421.977	1665.51
422.185	1513.96
422.393	1718.76
422.601	1802.72
422.809	1843.68
423.017	1769.96
423.224	1800.68
423.432	2044.38
423.64	1915.36
423.848	2095.58
424.056	2005.47
424.263	2251.23
424.471	2316.76
424.679	2341.34
424.887	2480.6
425.094	2490.84
425.302	2499.03
425.51	2537.95
425.718	2603.48
425.925	2574.81
426.133	2820.56
426.341	2965.97
426.548	3021.27
426.756	3148.24
426.964	3013.07
427.171	3314.13
427.379	3326.41
427.586	3461.58
427.794	3455.44
428.001	3688.9
428.209	3891.65
428.417	3834.31
428.624	4082.11
428.832	4057.54
429.039	3996.1
429.247	4096.45
429.454	4405.69
429.662	4669.88
429.869	4489.66
430.076	4954.55
430.284	4504
430.491	4686.26
430.699	5005.75
430.906	4985.27
431.114	5138.87
431.321	5151.15
431.528	5413.29
431.736	5708.2
431.943	6132.13
432.15	5892.52
432.358	6007.2
432.565	6183.33
432.772	6252.96
432.979	6633.88
433.187	6744.47
433.394	6717.85
433.601	7174.55
433.808	7055.76
434.016	7260.56
434.223	7436.69
434.43	7963.01
434.637	7895.43
434.844	8405.38
435.052	8538.49
435.259	8401.28
435.466	8249.73
435.673	8069.51
435.88	8905.08
436.087	9421.17
436.294	9140.6
436.501	9142.64
436.708	9322.87
436.915	9580.91
437.122	10176.87
437.329	9898.34
437.537	10316.13
437.743	10541.41
437.95	10410.34
438.157	10907.99
438.364	11467.09
438.571	11323.73
438.778	11276.63
438.985	12456.26
439.192	11854.16
439.399	12321.09
439.606	12282.18
439.813	12908.86
440.02	13664.56
440.227	13263.16
440.433	13142.33
440.64	13639.98
440.847	13560.11
441.054	14043.43
441.261	14524.71
441.467	14618.91
441.674	14825.76
441.881	15300.89
442.088	15204.63
442.294	15284.5
442.501	15528.21
442.708	15995.15
442.914	16546.05
443.121	17303.8
443.328	16857.34
443.534	17873.14
443.741	17598.71
443.948	17191.16
444.154	18694.37
444.361	18565.35
444.568	18565.35
444.774	18663.65
444.981	18786.53
445.187	19392.73
445.394	20203.72
445.6	19769.55
445.807	22114.48
446.013	21016.77
446.22	21412.03
446.426	22300.84
446.633	22255.79
446.839	23263.39
447.046	22306.99
447.252	23464.09
447.459	23718.04
447.665	23537.82
447.871	24606.86
448.078	25438.33
448.284	24326.28
448.491	25172.1
448.697	25903.22
448.903	26275.95
449.11	26519.66
449.316	26284.14
449.522	26642.54
449.728	27324.51
449.935	27730.01
450.141	27525.21
450.347	28301.39
450.553	27328.61
450.76	27914.33
450.966	29046.85
451.172	28362.83
451.378	29362.24
451.584	28432.46
451.791	29007.94
451.997	28991.56
452.203	29681.72
452.409	30050.36
452.615	29771.83
452.821	28694.6
453.027	27949.14
453.233	29874.23
453.44	28872.78
453.646	28805.19
453.852	28971.08
454.058	29757.5
454.264	28725.32
454.47	29454.4
454.676	28739.66
454.882	29642.81
455.088	27199.58
455.294	27600.99
455.5	27908.18
455.705	28063.83
455.911	27326.56
456.117	26368.11
456.323	26327.15
456.529	24807.56
456.735	26054.77
456.941	25294.97
457.147	25067.65
457.352	24397.96
457.558	23892.12
457.764	23980.18
457.97	23640.22
458.176	23281.82
458.381	22960.29
458.587	22034.61
458.793	21936.31
458.999	20861.12
459.204	22401.19
459.41	21874.87
459.616	20404.42
459.821	20431.05
460.027	20523.21
460.233	19960.02
460.438	19304.67
460.644	19304.67
460.85	18196.71
461.055	17783.02
461.261	18077.93
461.466	16720.13
461.672	16328.97
461.878	17494.26
462.083	16183.56
462.289	15862.03
462.494	15925.52
462.7	14956.83
462.905	14711.07
463.111	15431.96
463.316	15159.58
463.522	14950.68
463.727	14915.87
463.932	14960.92
464.138	14776.61
464.343	14928.16
464.549	14440.74
464.754	14919.96
464.959	14768.41
465.165	14899.48
465.37	14194.98
465.575	13771.05
465.781	14584.1
465.986	14459.17
466.191	13936.94
466.397	13750.57
466.602	13056.31
466.807	13355.32
467.012	13541.68
467.218	13496.63
467.423	13089.08
467.628	12949.82
467.833	13769.01
468.038	13199.67
468.244	12970.3
468.449	13418.8
468.654	13029.69
468.859	13156.66
469.064	12884.28
