Data from USB4F104151__211__14-45-26-788.txt Node

Date: Thu Mar 13 14:45:26 EDT 2025
User: louis
Spectrometer: USB4F10415
Trigger mode: 4
Integration Time (sec): 2.000000E-2
Scans to average: 1
Electric dark correction enabled: true
Nonlinearity correction enabled: false
Boxcar width: 0
XAxis mode: Wavelengths
Number of Pixels in Spectrum: 3648
>>>>>Begin Spectral Data<<<<<
178.204	-98.99
178.424	-98.99
178.644	-98.99
178.864	-144.04
179.084	-160.42
179.304	9.56
179.524	52.56
179.744	1.37
179.964	-0.68
180.184	-17.07
180.404	-25.26
180.624	11.61
180.844	-43.69
181.064	-12.97
181.283	17.75
181.503	-37.55
181.723	44.37
181.943	-27.31
182.163	81.24
182.383	-0.68
182.602	56.66
182.822	114
183.042	34.13
183.262	-12.97
183.482	25.94
183.701	-15.02
183.921	44.37
184.141	-39.59
184.361	75.09
184.58	-6.83
184.8	40.28
185.02	75.09
185.239	38.23
185.459	-39.59
185.679	9.56
185.898	-25.26
186.118	-45.74
186.338	-8.87
186.557	40.28
186.777	15.7
186.997	-82.6
187.216	34.13
187.436	89.43
187.655	40.28
187.875	54.61
188.095	38.23
188.314	64.85
188.534	11.61
188.753	-29.35
188.973	66.9
189.192	58.71
189.412	-82.6
189.631	15.7
189.851	-37.55
190.07	157.01
190.29	48.47
190.509	15.7
190.729	-8.87
190.948	56.66
191.168	134.48
191.387	50.52
191.607	32.08
191.826	-8.87
192.045	-37.55
192.265	101.72
192.484	-58.03
192.704	46.42
192.923	-0.68
193.142	-0.68
193.362	34.13
193.581	-0.68
193.8	60.76
194.02	23.89
194.239	-10.92
194.458	36.18
194.678	-2.73
194.897	81.24
195.116	77.14
195.335	50.52
195.555	114
195.774	3.41
195.993	40.28
196.212	9.56
196.432	34.13
196.651	17.75
196.87	42.32
197.089	13.65
197.308	25.94
197.528	-55.98
197.747	-19.11
197.966	-25.26
198.185	81.24
198.404	-0.68
198.623	36.18
198.842	19.8
199.062	77.14
199.281	89.43
199.5	9.56
199.719	54.61
199.938	13.65
200.157	40.28
200.376	52.56
200.595	-0.68
200.814	50.52
201.033	85.33
201.252	3.41
201.471	19.8
201.69	15.7
201.909	97.62
202.128	-45.74
202.347	9.56
202.566	1.37
202.785	-17.07
203.004	-4.78
203.223	23.89
203.442	-45.74
203.661	58.71
203.879	-33.45
204.098	56.66
204.317	19.8
204.536	9.56
204.755	81.24
204.974	58.71
205.193	-29.35
205.411	89.43
205.63	32.08
205.849	66.9
206.068	-15.02
206.287	-25.26
206.505	60.76
206.724	19.8
206.943	11.61
207.162	-0.68
207.381	89.43
207.599	-8.87
207.818	64.85
208.037	1.37
208.255	-17.07
208.474	21.85
208.693	1.37
208.911	25.94
209.13	23.89
209.349	36.18
209.567	52.56
209.786	42.32
210.005	-72.36
210.223	-41.64
210.442	-37.55
210.661	7.51
210.879	-37.55
211.098	64.85
211.316	-86.7
211.535	-25.26
211.753	-0.68
211.972	-0.68
212.191	40.28
212.409	40.28
212.628	30.04
212.846	-74.41
213.065	21.85
213.283	25.94
213.502	7.51
213.72	93.52
213.938	-4.78
214.157	114
214.375	77.14
214.594	-10.92
214.812	64.85
215.031	46.42
215.249	36.18
215.467	-0.68
215.686	1.37
215.904	64.85
216.122	58.71
216.341	50.52
216.559	83.28
216.778	109.91
216.996	15.7
217.214	-33.45
217.432	50.52
217.651	-17.07
217.869	32.08
218.087	48.47
218.306	-4.78
218.524	95.57
218.742	3.41
218.96	58.71
219.179	1.37
219.397	-0.68
219.615	58.71
219.833	48.47
220.051	19.8
220.27	75.09
220.488	32.08
220.706	58.71
220.924	-15.02
221.142	-17.07
221.36	-0.68
221.578	19.8
221.796	-2.73
222.015	89.43
222.233	27.99
222.451	64.85
222.669	40.28
222.887	-6.83
223.105	-0.68
223.323	48.47
223.541	3.41
223.759	23.89
223.977	38.23
224.195	-21.16
224.413	-49.83
224.631	-0.68
224.849	48.47
225.067	42.32
225.285	64.85
225.503	83.28
225.721	-96.94
225.939	-0.68
226.157	-8.87
226.375	68.95
226.592	-49.83
226.81	40.28
227.028	36.18
227.246	83.28
227.464	-53.93
227.682	71
227.9	56.66
228.117	1.37
228.335	44.37
228.553	32.08
228.771	48.47
228.989	99.67
229.206	34.13
229.424	-6.83
229.642	5.46
229.86	25.94
230.077	-12.97
230.295	-2.73
230.513	11.61
230.731	48.47
230.948	56.66
231.166	17.75
231.384	3.41
231.601	3.41
231.819	105.81
232.037	-4.78
232.254	3.41
232.472	56.66
232.689	-0.68
232.907	122.2
233.125	-4.78
233.342	5.46
233.56	54.61
233.777	32.08
233.995	3.41
234.213	77.14
234.43	1.37
234.648	15.7
234.865	52.56
235.083	97.62
235.3	75.09
235.518	23.89
235.735	52.56
235.953	-29.35
236.17	32.08
236.388	56.66
236.605	3.41
236.822	93.52
237.04	32.08
237.257	-6.83
237.475	-21.16
237.692	83.28
237.909	-12.97
238.127	-15.02
238.344	-8.87
238.562	7.51
238.779	68.95
238.996	-53.93
239.214	36.18
239.431	64.85
239.648	38.23
239.865	1.37
240.083	32.08
240.3	1.37
240.517	56.66
240.735	-8.87
240.952	46.42
241.169	25.94
241.386	32.08
241.603	32.08
241.821	-15.02
242.038	54.61
242.255	23.89
242.472	-23.21
242.689	44.37
242.907	11.61
243.124	42.32
243.341	48.47
243.558	-8.87
243.775	68.95
243.992	-0.68
244.209	7.51
244.426	114
244.643	50.52
244.86	-17.07
245.078	17.75
245.295	9.56
245.512	97.62
245.729	-15.02
245.946	60.76
246.163	68.95
246.38	52.56
246.597	-17.07
246.814	-23.21
247.031	-12.97
247.248	64.85
247.464	-6.83
247.681	101.72
247.898	21.85
248.115	52.56
248.332	56.66
248.549	71
248.766	101.72
248.983	116.05
249.2	44.37
249.417	1.37
249.633	-49.83
249.85	-25.26
250.067	-31.4
250.284	-8.87
250.501	-4.78
250.717	52.56
250.934	48.47
251.151	11.61
251.368	71
251.585	77.14
251.801	19.8
252.018	-23.21
252.235	66.9
252.451	19.8
252.668	-6.83
252.885	-0.68
253.102	-15.02
253.318	44.37
253.535	40.28
253.752	105.81
253.968	48.47
254.185	36.18
254.401	11.61
254.618	11.61
254.835	-8.87
255.051	48.47
255.268	62.8
255.484	89.43
255.701	-51.88
255.917	44.37
256.134	-17.07
256.351	34.13
256.567	-2.73
256.784	23.89
257	38.23
257.217	97.62
257.433	25.94
257.65	62.8
257.866	56.66
258.082	-8.87
258.299	-15.02
258.515	52.56
258.732	32.08
258.948	-15.02
259.165	19.8
259.381	1.37
259.597	-8.87
259.814	83.28
260.03	-74.41
260.246	-0.68
260.463	-0.68
260.679	93.52
260.895	44.37
261.112	81.24
261.328	1.37
261.544	-23.21
261.761	81.24
261.977	23.89
262.193	-29.35
262.409	89.43
262.626	58.71
262.842	64.85
263.058	66.9
263.274	83.28
263.49	40.28
263.707	17.75
263.923	-39.59
264.139	7.51
264.355	48.47
264.571	118.1
264.787	40.28
265.004	19.8
265.22	105.81
265.436	-37.55
265.652	7.51
265.868	3.41
266.084	85.33
266.3	23.89
266.516	32.08
266.732	3.41
266.948	-2.73
267.164	36.18
267.38	91.48
267.596	36.18
267.812	146.77
268.028	109.91
268.244	-17.07
268.46	21.85
268.676	27.99
268.892	-6.83
269.108	32.08
269.324	1.37
269.54	-68.27
269.756	48.47
269.972	42.32
270.188	40.28
270.403	38.23
270.619	23.89
270.835	56.66
271.051	-0.68
271.267	-23.21
271.483	19.8
271.698	9.56
271.914	91.48
272.13	48.47
272.346	46.42
272.562	3.41
272.777	91.48
272.993	25.94
273.209	-64.17
273.425	56.66
273.64	32.08
273.856	95.57
274.072	17.75
274.287	75.09
274.503	105.81
274.719	68.95
274.934	64.85
275.15	-17.07
275.366	-80.55
275.581	-6.83
275.797	52.56
276.012	75.09
276.228	34.13
276.444	42.32
276.659	44.37
276.875	11.61
277.09	7.51
277.306	-29.35
277.521	32.08
277.737	9.56
277.952	89.43
278.168	1.37
278.383	9.56
278.599	-23.21
278.814	75.09
279.03	52.56
279.245	73.04
279.461	-0.68
279.676	23.89
279.892	7.51
280.107	-31.4
280.322	-33.45
280.538	25.94
280.753	58.71
280.969	48.47
281.184	50.52
281.399	34.13
281.615	15.7
281.83	48.47
282.045	-53.93
282.26	-37.55
282.476	52.56
282.691	27.99
282.906	11.61
283.122	-8.87
283.337	17.75
283.552	25.94
283.767	-55.98
283.983	73.04
284.198	-60.07
284.413	75.09
284.628	1.37
284.843	7.51
285.058	68.95
285.274	-8.87
285.489	-12.97
285.704	73.04
285.919	15.7
286.134	71
286.349	91.48
286.564	-45.74
286.779	23.89
286.995	-39.59
287.21	-15.02
287.425	3.41
287.64	27.99
287.855	-6.83
288.07	-21.16
288.285	107.86
288.5	40.28
288.715	5.46
288.93	23.89
289.145	-31.4
289.36	27.99
289.575	64.85
289.79	3.41
290.004	19.8
290.219	-0.68
290.434	38.23
290.649	36.18
290.864	7.51
291.079	21.85
291.294	46.42
291.509	44.37
291.724	7.51
291.938	48.47
292.153	19.8
292.368	11.61
292.583	81.24
292.798	-12.97
293.012	58.71
293.227	23.89
293.442	89.43
293.657	19.8
293.871	77.14
294.086	3.41
294.301	138.58
294.516	9.56
294.73	19.8
294.945	11.61
295.16	-58.03
295.374	56.66
295.589	42.32
295.804	-17.07
296.018	42.32
296.233	40.28
296.447	58.71
296.662	-17.07
296.877	66.9
297.091	58.71
297.306	-8.87
297.52	-0.68
297.735	9.56
297.949	23.89
298.164	-0.68
298.378	64.85
298.593	48.47
298.807	9.56
299.022	38.23
299.236	1.37
299.451	19.8
299.665	50.52
299.88	73.04
300.094	17.75
300.309	-8.87
300.523	64.85
300.737	9.56
300.952	32.08
301.166	-19.11
301.381	40.28
301.595	7.51
301.809	30.04
302.024	17.75
302.238	32.08
302.452	56.66
302.667	-39.59
302.881	42.32
303.095	163.15
303.309	44.37
303.524	66.9
303.738	-12.97
303.952	-0.68
304.166	36.18
304.381	32.08
304.595	114
304.809	87.38
305.023	-0.68
305.237	75.09
305.452	91.48
305.666	89.43
305.88	40.28
306.094	-19.11
306.308	21.85
306.522	17.75
306.736	30.04
306.95	58.71
307.164	-45.74
307.379	-17.07
307.593	75.09
307.807	114
308.021	36.18
308.235	77.14
308.449	7.51
308.663	21.85
308.877	3.41
309.091	79.19
309.305	38.23
309.519	17.75
309.733	89.43
309.947	13.65
310.161	25.94
310.374	13.65
310.588	91.48
310.802	-0.68
311.016	-6.83
311.23	34.13
311.444	54.61
311.658	23.89
311.872	73.04
312.085	27.99
312.299	50.52
312.513	32.08
312.727	-12.97
312.941	-55.98
313.154	-53.93
313.368	7.51
313.582	58.71
313.796	81.24
314.009	17.75
314.223	114
314.437	75.09
314.651	-35.5
314.864	48.47
315.078	1.37
315.292	-2.73
315.505	56.66
315.719	89.43
315.933	44.37
316.146	52.56
316.36	-60.07
316.573	71
316.787	23.89
317.001	32.08
317.214	21.85
317.428	89.43
317.641	71
317.855	23.89
318.068	-62.12
318.282	-8.87
318.495	40.28
318.709	32.08
318.922	-6.83
319.136	66.9
319.349	36.18
319.563	40.28
319.776	83.28
319.99	-37.55
320.203	64.85
320.417	89.43
320.63	44.37
320.843	23.89
321.057	58.71
321.27	5.46
321.483	40.28
321.697	58.71
321.91	7.51
322.124	9.56
322.337	-29.35
322.55	-4.78
322.763	15.7
322.977	-6.83
323.19	27.99
323.403	75.09
323.617	85.33
323.83	27.99
324.043	19.8
324.256	46.42
324.469	27.99
324.683	23.89
324.896	71
325.109	68.95
325.322	-4.78
325.535	40.28
325.748	52.56
325.962	40.28
326.175	56.66
326.388	50.52
326.601	56.66
326.814	25.94
327.027	36.18
327.24	64.85
327.453	17.75
327.666	85.33
327.879	7.51
328.092	107.86
328.305	68.95
328.518	34.13
328.731	40.28
328.944	68.95
329.157	62.8
329.37	48.47
329.583	64.85
329.796	150.87
330.009	13.65
330.222	27.99
330.435	64.85
330.648	85.33
330.861	81.24
331.073	83.28
331.286	56.66
331.499	21.85
331.712	-53.93
331.925	48.47
332.138	32.08
332.35	64.85
332.563	34.13
332.776	40.28
332.989	97.62
333.202	60.76
333.414	-31.4
333.627	77.14
333.84	23.89
334.053	52.56
334.265	56.66
334.478	60.76
334.691	38.23
334.903	87.38
335.116	-17.07
335.329	-12.97
335.541	-2.73
335.754	107.86
335.966	64.85
336.179	40.28
336.392	44.37
336.604	23.89
336.817	54.61
337.029	66.9
337.242	48.47
337.454	58.71
337.667	87.38
337.88	7.51
338.092	-4.78
338.305	15.7
338.517	56.66
338.729	15.7
338.942	27.99
339.154	-17.07
339.367	-39.59
339.579	62.8
339.792	19.8
340.004	15.7
340.217	-10.92
340.429	50.52
340.641	23.89
340.854	-0.68
341.066	23.89
341.278	-8.87
341.491	7.51
341.703	42.32
341.915	-19.11
342.128	27.99
342.34	44.37
342.552	-0.68
342.764	-17.07
342.977	46.42
343.189	44.37
343.401	81.24
343.613	-6.83
343.826	-12.97
344.038	38.23
344.25	116.05
344.462	56.66
344.674	64.85
344.886	124.24
345.099	66.9
345.311	19.8
345.523	124.24
345.735	-17.07
345.947	27.99
346.159	-19.11
346.371	-0.68
346.583	-6.83
346.795	130.39
347.007	36.18
347.219	32.08
347.431	-2.73
347.643	68.95
347.855	17.75
348.067	75.09
348.279	44.37
348.491	-6.83
348.703	9.56
348.915	77.14
349.127	77.14
349.339	91.48
349.551	-49.83
349.763	75.09
349.975	-15.02
350.187	66.9
350.399	97.62
350.61	40.28
350.822	-49.83
351.034	52.56
351.246	68.95
351.458	130.39
351.669	81.24
351.881	54.61
352.093	91.48
352.305	66.9
352.517	58.71
352.728	25.94
352.94	27.99
353.152	17.75
353.363	3.41
353.575	15.7
353.787	64.85
353.999	56.66
354.21	15.7
354.422	11.61
354.633	-17.07
354.845	73.04
355.057	-39.59
355.268	-25.26
355.48	-0.68
355.692	44.37
355.903	17.75
356.115	9.56
356.326	-29.35
356.538	42.32
356.749	13.65
356.961	48.47
357.172	-0.68
357.384	48.47
357.595	85.33
357.807	42.32
358.018	15.7
358.23	111.96
358.441	89.43
358.653	38.23
358.864	15.7
359.075	56.66
359.287	17.75
359.498	97.62
359.709	34.13
359.921	21.85
360.132	7.51
360.344	-8.87
360.555	54.61
360.766	36.18
360.977	107.86
361.189	58.71
361.4	-23.21
361.611	93.52
361.823	40.28
362.034	42.32
362.245	-33.45
362.456	52.56
362.667	93.52
362.879	1.37
363.09	17.75
363.301	79.19
363.512	44.37
363.723	36.18
363.935	15.7
364.146	17.75
364.357	40.28
364.568	134.48
364.779	-29.35
364.99	23.89
365.201	7.51
365.412	68.95
365.623	-6.83
365.834	64.85
366.045	120.15
366.256	19.8
366.467	46.42
366.678	42.32
366.889	68.95
367.1	1.37
367.311	40.28
367.522	38.23
367.733	87.38
367.944	73.04
368.155	1.37
368.366	-15.02
368.577	93.52
368.788	42.32
368.999	101.72
369.209	-2.73
369.42	146.77
369.631	130.39
369.842	9.56
370.053	107.86
370.264	97.62
370.474	54.61
370.685	60.76
370.896	-4.78
371.107	85.33
371.317	56.66
371.528	-12.97
371.739	77.14
371.95	25.94
372.16	19.8
372.371	89.43
372.582	52.56
372.792	73.04
373.003	42.32
373.214	64.85
373.424	64.85
373.635	25.94
373.846	138.58
374.056	44.37
374.267	-4.78
374.477	32.08
374.688	60.76
374.898	126.29
375.109	89.43
375.319	56.66
375.53	87.38
375.74	89.43
375.951	-19.11
376.161	-23.21
376.372	36.18
376.582	-39.59
376.793	-12.97
377.003	1.37
377.214	44.37
377.424	97.62
377.635	68.95
377.845	-15.02
378.055	42.32
378.266	44.37
378.476	75.09
378.686	52.56
378.897	32.08
379.107	56.66
379.317	81.24
379.528	15.7
379.738	25.94
379.948	-6.83
380.158	15.7
380.369	32.08
380.579	83.28
380.789	40.28
380.999	89.43
381.21	83.28
381.42	97.62
381.63	50.52
381.84	-19.11
382.05	52.56
382.261	32.08
382.471	27.99
382.681	42.32
382.891	75.09
383.101	56.66
383.311	-39.59
383.521	52.56
383.731	109.91
383.941	40.28
384.151	68.95
384.361	99.67
384.571	50.52
384.781	-21.16
384.991	101.72
385.201	27.99
385.411	56.66
385.621	81.24
385.831	85.33
386.041	50.52
386.251	40.28
386.461	97.62
386.671	32.08
386.881	77.14
387.091	48.47
387.301	34.13
387.511	50.52
387.72	56.66
387.93	62.8
388.14	89.43
388.35	34.13
388.56	79.19
388.769	19.8
388.979	-0.68
389.189	-29.35
389.399	7.51
389.609	85.33
389.818	68.95
390.028	54.61
390.238	81.24
390.447	42.32
390.657	40.28
390.867	15.7
391.076	36.18
391.286	-4.78
391.496	66.9
391.705	52.56
391.915	46.42
392.125	89.43
392.334	40.28
392.544	140.63
392.753	56.66
392.963	7.51
393.172	68.95
393.382	21.85
393.591	91.48
393.801	-0.68
394.01	83.28
394.22	81.24
394.429	52.56
394.639	130.39
394.848	77.14
395.058	146.77
395.267	64.85
395.477	40.28
395.686	64.85
395.895	64.85
396.105	114
396.314	101.72
396.524	56.66
396.733	34.13
396.942	107.86
397.152	126.29
397.361	122.2
397.57	89.43
397.78	89.43
397.989	77.14
398.198	128.34
398.407	15.7
398.617	130.39
398.826	138.58
399.035	32.08
399.244	111.96
399.453	109.91
399.663	114
399.872	68.95
400.081	11.61
400.29	157.01
400.499	60.76
400.708	124.24
400.917	36.18
401.127	73.04
401.336	81.24
401.545	107.86
401.754	87.38
401.963	75.09
402.172	-8.87
402.381	15.7
402.59	101.72
402.799	124.24
403.008	91.48
403.217	101.72
403.426	118.1
403.635	130.39
403.844	99.67
404.053	122.2
404.262	44.37
404.471	122.2
404.68	126.29
404.888	105.81
405.097	181.59
405.306	136.53
405.515	79.19
405.724	228.69
405.933	171.35
406.142	189.78
406.35	177.49
406.559	157.01
406.768	146.77
406.977	105.81
407.185	200.02
407.394	187.73
407.603	171.35
407.812	167.25
408.02	267.6
408.229	216.4
408.438	214.35
408.646	214.35
408.855	140.63
409.064	226.64
409.272	195.92
409.481	240.98
409.69	179.54
409.898	281.94
410.107	204.11
410.315	329.04
410.524	265.55
410.733	281.94
410.941	191.83
411.15	257.36
411.358	277.84
411.567	386.38
411.775	314.7
411.984	347.47
412.192	361.81
412.401	277.84
412.609	380.24
412.818	431.44
413.026	380.24
413.234	433.49
413.443	490.83
413.651	466.25
413.86	380.24
414.068	515.41
414.276	554.32
414.485	408.91
414.693	556.36
414.901	634.19
415.11	533.84
415.318	599.37
415.526	654.67
415.734	597.32
415.943	621.9
416.151	630.09
416.359	658.76
416.567	699.72
416.776	761.16
416.984	822.6
417.192	769.35
417.4	810.31
417.608	777.55
417.817	810.31
418.025	918.86
418.233	957.77
418.441	961.86
418.649	976.2
418.857	959.81
419.065	1047.88
419.273	1047.88
419.481	1154.37
419.689	1131.84
419.897	1275.2
420.105	1215.81
420.313	1334.59
420.521	1375.55
420.729	1439.04
420.937	1404.22
421.145	1428.8
421.353	1512.77
421.561	1559.87
421.769	1613.12
421.977	1613.12
422.185	1617.21
422.393	1746.23
422.601	1875.26
422.809	1752.38
423.017	1883.45
423.224	1985.85
423.432	2016.57
423.64	1926.46
423.848	2204.98
424.056	2075.96
424.263	2268.47
424.471	2317.62
424.679	2448.69
424.887	2426.16
425.094	2579.76
425.302	2645.29
425.51	2657.58
425.718	2721.07
425.925	2874.67
426.133	2909.48
426.341	3099.94
426.548	3122.47
426.756	3071.27
426.964	3118.37
427.171	3362.08
427.379	3570.97
427.586	3542.3
427.794	3695.9
428.001	3767.58
428.209	4029.72
428.417	3999
428.624	4103.45
428.832	4066.58
429.039	4146.45
429.247	4160.79
429.454	4685.07
429.662	4836.62
429.869	4441.36
430.076	4826.38
430.284	4754.7
430.491	4910.35
430.699	5301.51
430.906	5242.12
431.114	5221.64
431.321	5405.95
431.528	5664
431.736	6020.35
431.943	6135.03
432.15	5971.19
432.358	6122.74
432.565	6409.46
432.772	6356.21
432.979	6714.61
433.187	6733.04
433.394	6804.72
433.601	7406.82
433.808	7347.43
434.016	7462.12
434.223	7494.88
434.43	8215.77
434.637	7990.49
434.844	8183
435.052	8459.48
435.259	8518.87
435.466	8512.72
435.673	8301.78
435.88	9010.38
436.087	9456.84
436.294	9458.89
436.501	9243.85
436.708	9362.63
436.915	9983.17
437.122	10222.78
437.329	10235.07
437.537	10534.07
437.743	10658.99
437.95	10499.25
438.157	11132.08
438.364	11695.27
438.571	11449.51
438.778	11541.67
438.985	12776.59
439.192	12117.15
439.399	12438.68
439.606	12104.86
439.813	12948.62
440.02	13804.67
440.227	13409.42
440.433	13212.81
440.64	13847.68
440.847	13831.3
441.054	13915.26
441.261	14820.47
441.467	14761.08
441.674	14967.92
441.881	15641.7
442.088	15545.45
442.294	15623.27
442.501	15658.09
442.708	16024.67
442.914	16979.03
443.121	17488.97
443.328	16819.28
443.534	18158.66
443.741	17542.22
443.948	17286.22
444.154	18623.55
444.361	18740.28
444.568	18992.18
444.774	18793.53
444.981	18844.73
445.187	19362.86
445.394	20491.29
445.6	20044.84
445.807	21883.91
446.013	20925.46
446.22	21279.76
446.426	22072.32
446.633	22406.14
446.839	23436.27
447.046	22354.94
447.252	23493.61
447.459	23364.59
447.665	23466.99
447.871	24339.43
448.078	25549.78
448.284	24208.36
448.491	24875.99
448.697	26287.04
448.903	26375.11
449.11	26065.86
449.316	25963.47
449.522	26303.43
449.728	27202.49
449.935	27431.86
450.141	27476.91
450.347	27988.91
450.553	27325.36
450.76	27442.1
450.966	28828.57
451.172	28400.55
451.378	29121.43
451.584	28386.21
451.791	29072.28
451.997	28961.69
452.203	29371.29
452.409	29541.27
452.615	29285.27
452.821	28318.63
453.027	27931.56
453.233	29391.76
453.44	28144.55
453.646	28435.36
453.852	28711.84
454.058	29197.21
454.264	28279.72
454.47	29082.52
454.676	28271.53
454.882	29092.76
455.088	26796.99
455.294	27089.85
455.5	27603.89
455.705	27796.4
455.911	26854.33
456.117	25961.42
456.323	25854.92
456.529	24714.2
456.735	25799.63
456.941	24902.62
457.147	24515.55
457.352	23952.36
457.558	23542.77
457.764	23794.67
457.97	23348.21
458.176	22854.65
458.381	22883.32
458.587	21752.84
458.793	21629.96
458.999	20710.43
459.204	22273.03
459.41	21478.41
459.616	20194.34
459.821	20169.76
460.027	20061.22
460.233	19831.85
460.438	18719.8
460.644	18922.55
460.85	17960
461.055	17810.5
461.261	17853.51
461.466	16481.37
461.672	15965.28
461.878	16946.26
462.083	16079.97
462.289	15580.26
462.494	15416.43
462.7	14660.73
462.905	14161.02
463.111	14916.72
463.316	14808.18
463.522	14525.56
463.727	14785.65
463.932	14660.73
464.138	14546.04
464.343	14621.81
464.549	14220.41
464.754	14597.24
464.959	14417.02
465.165	14079.1
465.37	13487.24
465.575	13382.79
465.781	13864.07
465.986	13909.12
466.191	13515.91
466.397	13214.86
466.602	12573.85
466.807	13057.17
467.012	12903.57
467.218	12936.34
467.423	12766.35
467.628	12887.18
467.833	13372.55
468.038	13024.4
468.244	12666
