Data from USB4F104151__29__14-42-48-445.txt Node

Date: Thu Mar 13 14:42:48 EDT 2025
User: louis
Spectrometer: USB4F10415
Trigger mode: 4
Integration Time (sec): 2.000000E-2
Scans to average: 1
Electric dark correction enabled: true
Nonlinearity correction enabled: false
Boxcar width: 0
XAxis mode: Wavelengths
Number of Pixels in Spectrum: 3648
>>>>>Begin Spectral Data<<<<<
178.204	-24.4
178.424	-24.4
178.644	-24.4
178.864	-102.23
179.084	-155.47
179.304	-38.74
179.524	49.32
179.744	8.36
179.964	41.13
180.184	8.36
180.404	10.41
180.624	-26.45
180.844	-12.12
181.064	-16.21
181.283	-32.6
181.503	-16.21
181.723	24.75
181.943	-130.9
182.163	14.51
182.383	8.36
182.602	-16.21
182.822	0.17
183.042	4.27
183.262	32.94
183.482	-14.17
183.701	24.75
183.921	2.22
184.141	4.27
184.361	10.41
184.58	-48.98
184.8	24.75
185.02	-24.4
185.239	-26.45
185.459	-12.12
185.679	57.51
185.898	-34.64
186.118	4.27
186.338	49.32
186.557	-3.93
186.777	0.17
186.997	82.09
187.216	24.75
187.436	139.43
187.655	10.41
187.875	-44.88
188.095	14.51
188.314	20.65
188.534	112.81
188.753	49.32
188.973	41.13
189.192	147.62
189.412	-24.4
189.631	-24.4
189.851	67.75
190.07	57.51
190.29	20.65
190.509	-32.6
190.729	-38.74
190.948	39.08
191.168	57.51
191.387	12.46
191.607	20.65
191.826	18.6
192.045	-22.36
192.265	63.66
192.484	-12.12
192.704	-65.36
192.923	-36.69
193.142	102.57
193.362	-63.32
193.581	121
193.8	30.89
194.02	73.9
194.239	-20.31
194.458	106.67
194.678	26.79
194.897	-42.84
195.116	-57.17
195.335	-30.55
195.555	22.7
195.774	86.19
195.993	51.37
196.212	-16.21
196.432	90.28
196.651	-32.6
196.87	24.75
197.089	133.29
197.308	43.18
197.528	88.23
197.747	-20.31
197.966	24.75
198.185	112.81
198.404	-55.12
198.623	24.75
198.842	-14.17
199.062	47.27
199.281	75.95
199.5	-3.93
199.719	59.56
199.938	53.42
200.157	20.65
200.376	-22.36
200.595	59.56
200.814	24.75
201.033	98.47
201.252	18.6
201.471	26.79
201.69	67.75
201.909	51.37
202.128	43.18
202.347	-14.17
202.566	65.71
202.785	-8.02
203.004	-16.21
203.223	92.33
203.442	57.51
203.661	-30.55
203.879	-3.93
204.098	28.84
204.317	-65.36
204.536	0.17
204.755	-48.98
204.974	8.36
205.193	10.41
205.411	20.65
205.63	22.7
205.849	-32.6
206.068	20.65
206.287	-24.4
206.505	8.36
206.724	10.41
206.943	-22.36
207.162	28.84
207.381	24.75
207.599	71.85
207.818	34.99
208.037	32.94
208.255	4.27
208.474	2.22
208.693	59.56
208.911	45.23
209.13	-8.02
209.349	41.13
209.567	30.89
209.786	43.18
210.005	65.71
210.223	77.99
210.442	28.84
210.661	-28.5
210.879	12.46
211.098	-63.32
211.316	49.32
211.535	65.71
211.753	61.61
211.972	32.94
212.191	20.65
212.409	39.08
212.628	53.42
212.846	0.17
213.065	82.09
213.283	41.13
213.502	49.32
213.72	26.79
213.938	-28.5
214.157	-10.07
214.375	61.61
214.594	41.13
214.812	28.84
215.031	-32.6
215.249	-26.45
215.467	67.75
215.686	57.51
215.904	45.23
216.122	10.41
216.341	77.99
216.559	73.9
216.778	-44.88
216.996	28.84
217.214	-81.75
217.432	-8.02
217.651	-24.4
217.869	16.55
218.087	14.51
218.306	30.89
218.524	-3.93
218.742	12.46
218.96	24.75
219.179	-40.79
219.397	-22.36
219.615	59.56
219.833	41.13
220.051	-5.97
220.27	65.71
220.488	37.03
220.706	18.6
220.924	24.75
221.142	8.36
221.36	-46.93
221.578	0.17
221.796	45.23
222.015	41.13
222.233	-55.12
222.451	45.23
222.669	41.13
222.887	-8.02
223.105	-57.17
223.323	2.22
223.541	10.41
223.759	4.27
223.977	-48.98
224.195	73.9
224.413	43.18
224.631	49.32
224.849	4.27
225.067	123.05
225.285	-24.4
225.503	-61.27
225.721	-38.74
225.939	80.04
226.157	75.95
226.375	-38.74
226.592	0.17
226.81	8.36
227.028	-10.07
227.246	8.36
227.464	18.6
227.682	-12.12
227.9	-24.4
228.117	-20.31
228.335	41.13
228.553	8.36
228.771	-40.79
228.989	41.13
229.206	34.99
229.424	39.08
229.642	-128.85
229.86	59.56
230.077	41.13
230.295	-40.79
230.513	18.6
230.731	8.36
230.948	49.32
231.166	90.28
231.384	-44.88
231.601	10.41
231.819	26.79
232.037	-14.17
232.254	-51.03
232.472	16.55
232.689	59.56
232.907	86.19
233.125	24.75
233.342	75.95
233.56	28.84
233.777	32.94
233.995	-32.6
234.213	59.56
234.43	32.94
234.648	69.8
234.865	12.46
235.083	22.7
235.3	2.22
235.518	-12.12
235.735	106.67
235.953	41.13
236.17	24.75
236.388	16.55
236.605	43.18
236.822	-1.88
237.04	24.75
237.257	32.94
237.475	32.94
237.692	-3.93
237.909	0.17
238.127	-12.12
238.344	57.51
238.562	92.33
238.779	30.89
238.996	-44.88
239.214	30.89
239.431	41.13
239.648	-5.97
239.865	-73.56
240.083	-48.98
240.3	18.6
240.517	-32.6
240.735	69.8
240.952	53.42
241.169	12.46
241.386	0.17
241.603	57.51
241.821	-53.08
242.038	10.41
242.255	-28.5
242.472	-32.6
242.689	20.65
242.907	2.22
243.124	20.65
243.341	-48.98
243.558	37.03
243.775	65.71
243.992	16.55
244.209	20.65
244.426	16.55
244.643	32.94
244.86	-12.12
245.078	53.42
245.295	73.9
245.512	32.94
245.729	-63.32
245.946	24.75
246.163	73.9
246.38	28.84
246.597	8.36
246.814	77.99
247.031	-96.08
247.248	86.19
247.464	43.18
247.681	26.79
247.898	2.22
248.115	-5.97
248.332	53.42
248.549	26.79
248.766	65.71
248.983	65.71
249.2	-26.45
249.417	34.99
249.633	-51.03
249.85	61.61
250.067	-16.21
250.284	-63.32
250.501	-24.4
250.717	28.84
250.934	24.75
251.151	-40.79
251.368	28.84
251.585	69.8
251.801	0.17
252.018	-16.21
252.235	18.6
252.451	16.55
252.668	-8.02
252.885	106.67
253.102	-16.21
253.318	41.13
253.535	2.22
253.752	-1.88
253.968	26.79
254.185	-14.17
254.401	49.32
254.618	-69.46
254.835	16.55
255.051	10.41
255.268	24.75
255.484	73.9
255.701	51.37
255.917	67.75
256.134	-14.17
256.351	16.55
256.567	-48.98
256.784	8.36
257	-16.21
257.217	4.27
257.433	-36.69
257.65	32.94
257.866	88.23
258.082	-3.93
258.299	-20.31
258.515	43.18
258.732	26.79
258.948	73.9
259.165	4.27
259.381	0.17
259.597	-8.02
259.814	24.75
260.03	-8.02
260.246	28.84
260.463	12.46
260.679	43.18
260.895	-14.17
261.112	-22.36
261.328	0.17
261.544	41.13
261.761	63.66
261.977	61.61
262.193	51.37
262.409	77.99
262.626	53.42
262.842	-32.6
263.058	-5.97
263.274	49.32
263.49	-16.21
263.707	84.14
263.923	20.65
264.139	18.6
264.355	39.08
264.571	-16.21
264.787	-16.21
265.004	-5.97
265.22	41.13
265.436	-22.36
265.652	-57.17
265.868	16.55
266.084	-8.02
266.3	24.75
266.516	-42.84
266.732	90.28
266.948	41.13
267.164	84.14
267.38	-1.88
267.596	20.65
267.812	18.6
268.028	51.37
268.244	-36.69
268.46	16.55
268.676	24.75
268.892	-40.79
269.108	-24.4
269.324	41.13
269.54	0.17
269.756	55.47
269.972	-16.21
270.188	20.65
270.403	65.71
270.619	-22.36
270.835	30.89
271.051	16.55
271.267	-20.31
271.483	49.32
271.698	51.37
271.914	61.61
272.13	57.51
272.346	-42.84
272.562	-5.97
272.777	55.47
272.993	59.56
273.209	2.22
273.425	67.75
273.64	-57.17
273.856	73.9
274.072	16.55
274.287	16.55
274.503	34.99
274.719	57.51
274.934	-38.74
275.15	32.94
275.366	-22.36
275.581	-12.12
275.797	26.79
276.012	57.51
276.228	-30.55
276.444	37.03
276.659	53.42
276.875	-12.12
277.09	-65.36
277.306	-22.36
277.521	16.55
277.737	12.46
277.952	65.71
278.168	-1.88
278.383	-40.79
278.599	6.31
278.814	77.99
279.03	18.6
279.245	73.9
279.461	12.46
279.676	51.37
279.892	55.47
280.107	67.75
280.322	10.41
280.538	49.32
280.753	-20.31
280.969	-40.79
281.184	53.42
281.399	8.36
281.615	8.36
281.83	20.65
282.045	-32.6
282.26	24.75
282.476	16.55
282.691	-22.36
282.906	-3.93
283.122	34.99
283.337	53.42
283.552	49.32
283.767	8.36
283.983	51.37
284.198	24.75
284.413	-12.12
284.628	6.31
284.843	57.51
285.058	49.32
285.274	20.65
285.489	-3.93
285.704	26.79
285.919	45.23
286.134	57.51
286.349	-32.6
286.564	32.94
286.779	73.9
286.995	0.17
287.21	-53.08
287.425	65.71
287.64	-28.5
287.855	61.61
288.07	-69.46
288.285	86.19
288.5	-3.93
288.715	18.6
288.93	-63.32
289.145	41.13
289.36	20.65
289.575	61.61
289.79	-44.88
290.004	12.46
290.219	69.8
290.434	18.6
290.649	-12.12
290.864	16.55
291.079	-12.12
291.294	26.79
291.509	-75.6
291.724	-20.31
291.938	16.55
292.153	-20.31
292.368	22.7
292.583	-24.4
292.798	-40.79
293.012	-38.74
293.227	10.41
293.442	10.41
293.657	57.51
293.871	32.94
294.086	-22.36
294.301	139.43
294.516	53.42
294.73	37.03
294.945	41.13
295.16	32.94
295.374	20.65
295.589	-8.02
295.804	-24.4
296.018	10.41
296.233	24.75
296.447	65.71
296.662	-40.79
296.877	-14.17
297.091	92.33
297.306	8.36
297.52	47.27
297.735	51.37
297.949	-24.4
298.164	4.27
298.378	41.13
298.593	-24.4
298.807	82.09
299.022	18.6
299.236	8.36
299.451	65.71
299.665	16.55
299.88	110.76
300.094	47.27
300.309	65.71
300.523	4.27
300.737	59.56
300.952	-38.74
301.166	90.28
301.381	-5.97
301.595	-14.17
301.809	49.32
302.024	26.79
302.238	-14.17
302.452	32.94
302.667	18.6
302.881	47.27
303.095	53.42
303.309	26.79
303.524	0.17
303.738	-5.97
303.952	45.23
304.166	69.8
304.381	39.08
304.595	63.66
304.809	-3.93
305.023	-48.98
305.237	32.94
305.452	-55.12
305.666	65.71
305.88	65.71
306.094	45.23
306.308	59.56
306.522	37.03
306.736	77.99
306.95	-14.17
307.164	55.47
307.379	43.18
307.593	-8.02
307.807	0.17
308.021	57.51
308.235	-14.17
308.449	-16.21
308.663	10.41
308.877	102.57
309.091	24.75
309.305	8.36
309.519	39.08
309.733	57.51
309.947	8.36
310.161	69.8
310.374	32.94
310.588	84.14
310.802	20.65
311.016	-8.02
311.23	53.42
311.444	32.94
311.658	43.18
311.872	32.94
312.085	-8.02
312.299	98.47
312.513	30.89
312.727	-10.07
312.941	6.31
313.154	41.13
313.368	-18.26
313.582	12.46
313.796	-20.31
314.009	118.95
314.223	75.95
314.437	51.37
314.651	59.56
314.864	-14.17
315.078	4.27
315.292	-1.88
315.505	0.17
315.719	-22.36
315.933	-22.36
316.146	10.41
316.36	71.85
316.573	94.38
316.787	53.42
317.001	-14.17
317.214	123.05
317.428	73.9
317.641	-61.27
317.855	-10.07
318.068	75.95
318.282	37.03
318.495	98.47
318.709	-1.88
318.922	73.9
319.136	57.51
319.349	0.17
319.563	59.56
319.776	75.95
319.99	10.41
320.203	-5.97
320.417	22.7
320.63	10.41
320.843	45.23
321.057	32.94
321.27	59.56
321.483	28.84
321.697	59.56
321.91	57.51
322.124	-3.93
322.337	-18.26
322.55	28.84
322.763	51.37
322.977	41.13
323.19	24.75
323.403	2.22
323.617	43.18
323.83	28.84
324.043	57.51
324.256	82.09
324.469	6.31
324.683	47.27
324.896	32.94
325.109	20.65
325.322	-12.12
325.535	26.79
325.748	-12.12
325.962	-46.93
326.175	106.67
326.388	24.75
326.601	-22.36
326.814	-12.12
327.027	34.99
327.24	-24.4
327.453	41.13
327.666	34.99
327.879	80.04
328.092	49.32
328.305	26.79
328.518	24.75
328.731	-8.02
328.944	-36.69
329.157	-1.88
329.37	57.51
329.583	84.14
329.796	65.71
330.009	28.84
330.222	24.75
330.435	75.95
330.648	47.27
330.861	45.23
331.073	69.8
331.286	123.05
331.499	-12.12
331.712	24.75
331.925	82.09
332.138	10.41
332.35	63.66
332.563	0.17
332.776	73.9
332.989	-44.88
333.202	84.14
333.414	2.22
333.627	0.17
333.84	2.22
334.053	49.32
334.265	75.95
334.478	4.27
334.691	106.67
334.903	-12.12
335.116	41.13
335.329	75.95
335.541	28.84
335.754	73.9
335.966	49.32
336.179	12.46
336.392	73.9
336.604	20.65
336.817	18.6
337.029	-36.69
337.242	49.32
337.454	77.99
337.667	-18.26
337.88	18.6
338.092	65.71
338.305	69.8
338.517	-3.93
338.729	16.55
338.942	51.37
339.154	55.47
339.367	18.6
339.579	65.71
339.792	-24.4
340.004	59.56
340.217	-8.02
340.429	57.51
340.641	37.03
340.854	-44.88
341.066	-30.55
341.278	94.38
341.491	75.95
341.703	22.7
341.915	65.71
342.128	2.22
342.34	43.18
342.552	49.32
342.764	18.6
342.977	86.19
343.189	90.28
343.401	75.95
343.613	-16.21
343.826	-8.02
344.038	34.99
344.25	14.51
344.462	-65.36
344.674	57.51
344.886	-3.93
345.099	90.28
345.311	86.19
345.523	57.51
345.735	18.6
345.947	-38.74
346.159	8.36
346.371	-40.79
346.583	82.09
346.795	90.28
347.007	4.27
347.219	151.72
347.431	41.13
347.643	84.14
347.855	41.13
348.067	18.6
348.279	-40.79
348.491	32.94
348.703	18.6
348.915	16.55
349.127	-28.5
349.339	51.37
349.551	-42.84
349.763	24.75
349.975	-34.64
350.187	65.71
350.399	63.66
350.61	90.28
350.822	18.6
351.034	114.86
351.246	28.84
351.458	57.51
351.669	39.08
351.881	34.99
352.093	106.67
352.305	57.51
352.517	32.94
352.728	94.38
352.94	-16.21
353.152	8.36
353.363	-5.97
353.575	77.99
353.787	28.84
353.999	49.32
354.21	14.51
354.422	37.03
354.633	-61.27
354.845	-5.97
355.057	82.09
355.268	24.75
355.48	45.23
355.692	-53.08
355.903	-16.21
356.115	75.95
356.326	20.65
356.538	16.55
356.749	-16.21
356.961	94.38
357.172	43.18
357.384	51.37
357.595	100.52
357.807	-3.93
358.018	0.17
358.23	49.32
358.441	86.19
358.653	6.31
358.864	59.56
359.075	45.23
359.287	24.75
359.498	-3.93
359.709	26.79
359.921	71.85
360.132	49.32
360.344	26.79
360.555	45.23
360.766	98.47
360.977	-53.08
361.189	32.94
361.4	90.28
361.611	12.46
361.823	18.6
362.034	-5.97
362.245	-20.31
362.456	-36.69
362.667	43.18
362.879	18.6
363.09	37.03
363.301	18.6
363.512	-32.6
363.723	32.94
363.935	90.28
364.146	84.14
364.357	28.84
364.568	82.09
364.779	-1.88
364.99	51.37
365.201	53.42
365.412	16.55
365.623	-5.97
365.834	43.18
366.045	6.31
366.256	30.89
366.467	55.47
366.678	-40.79
366.889	37.03
367.1	32.94
367.311	24.75
367.522	-34.64
367.733	102.57
367.944	24.75
368.155	57.51
368.366	34.99
368.577	82.09
368.788	53.42
368.999	22.7
369.209	75.95
369.42	149.67
369.631	86.19
369.842	45.23
370.053	28.84
370.264	-24.4
370.474	4.27
370.685	45.23
370.896	53.42
371.107	12.46
371.317	110.76
371.528	20.65
371.739	69.8
371.95	18.6
372.16	-20.31
372.371	18.6
372.582	32.94
372.792	53.42
373.003	-1.88
373.214	-12.12
373.424	127.14
373.635	-16.21
373.846	100.52
374.056	55.47
374.267	69.8
374.477	24.75
374.688	55.47
374.898	32.94
375.109	24.75
375.319	32.94
375.53	164.01
375.74	106.67
375.951	2.22
376.161	28.84
376.372	45.23
376.582	-30.55
376.793	34.99
377.003	-44.88
377.214	30.89
377.424	0.17
377.635	-20.31
377.845	84.14
378.055	30.89
378.266	-24.4
378.476	82.09
378.686	-24.4
378.897	88.23
379.107	39.08
379.317	16.55
379.528	-30.55
379.738	49.32
379.948	34.99
380.158	84.14
380.369	-16.21
380.579	82.09
380.789	-24.4
380.999	18.6
381.21	-32.6
381.42	98.47
381.63	67.75
381.84	-8.02
382.05	37.03
382.261	49.32
382.471	-48.98
382.681	49.32
382.891	90.28
383.101	86.19
383.311	-77.65
383.521	43.18
383.731	71.85
383.941	88.23
384.151	69.8
384.361	-20.31
384.571	55.47
384.781	73.9
384.991	59.56
385.201	121
385.411	98.47
385.621	51.37
385.831	16.55
386.041	80.04
386.251	26.79
386.461	92.33
386.671	8.36
386.881	141.48
387.091	57.51
387.301	159.91
387.511	32.94
387.72	69.8
387.93	59.56
388.14	4.27
388.35	34.99
388.56	41.13
388.769	96.43
388.979	65.71
389.189	10.41
389.399	57.51
389.609	32.94
389.818	106.67
390.028	-10.07
390.238	102.57
390.447	16.55
390.657	82.09
390.867	28.84
391.076	-20.31
391.286	114.86
391.496	92.33
391.705	53.42
391.915	114.86
392.125	61.61
392.334	43.18
392.544	73.9
392.753	73.9
392.963	37.03
393.172	32.94
393.382	0.17
393.591	116.9
393.801	57.51
394.01	98.47
394.22	26.79
394.429	57.51
394.639	20.65
394.848	2.22
395.058	-8.02
395.267	108.71
395.477	88.23
395.686	24.75
395.895	2.22
396.105	147.62
396.314	94.38
396.524	61.61
396.733	34.99
396.942	114.86
397.152	106.67
397.361	168.1
397.57	106.67
397.78	114.86
397.989	137.38
398.198	84.14
398.407	92.33
398.617	69.8
398.826	53.42
399.035	4.27
399.244	65.71
399.453	41.13
399.663	96.43
399.872	59.56
400.081	96.43
400.29	127.14
400.499	84.14
400.708	65.71
400.917	30.89
401.127	14.51
401.336	69.8
401.545	102.57
401.754	55.47
401.963	207.02
402.172	161.96
402.381	106.67
402.59	94.38
402.799	-8.02
403.008	106.67
403.217	125.1
403.426	145.58
403.635	141.48
403.844	55.47
404.053	16.55
404.262	37.03
404.471	204.97
404.68	125.1
404.888	147.62
405.097	108.71
405.306	80.04
405.515	123.05
405.724	188.58
405.933	88.23
406.142	131.24
406.35	157.86
406.559	133.29
406.768	182.44
406.977	145.58
407.185	92.33
407.394	184.49
407.603	166.06
407.812	174.25
408.02	217.26
408.229	170.15
408.438	170.15
408.646	196.78
408.855	159.91
409.064	266.41
409.272	139.43
409.481	190.63
409.69	237.74
409.898	237.74
410.107	241.83
410.315	327.85
410.524	213.16
410.733	270.5
410.941	264.36
411.15	344.23
411.358	303.27
411.567	409.76
411.775	286.89
411.984	360.61
412.192	440.48
412.401	417.96
412.609	463.01
412.818	323.75
413.026	403.62
413.234	405.67
413.443	420
413.651	409.76
413.86	469.16
414.068	450.72
414.276	536.74
414.485	514.21
414.693	604.32
414.901	569.51
415.11	643.23
415.318	555.17
415.526	649.38
415.734	606.37
415.943	622.75
416.151	655.52
416.359	698.53
416.567	688.29
416.776	745.63
416.984	725.15
417.192	823.45
417.4	860.32
417.608	852.13
417.817	811.17
418.025	946.33
418.233	952.48
418.441	991.39
418.649	1018.01
418.857	1015.96
419.065	1075.35
419.273	966.81
419.481	1114.27
419.689	1124.51
419.897	1171.61
420.105	1200.28
420.313	1265.82
420.521	1368.21
420.729	1345.69
420.937	1331.35
421.145	1437.84
421.353	1468.56
421.561	1570.96
421.769	1556.63
421.977	1665.17
422.185	1523.86
422.393	1671.31
422.601	1880.21
422.809	1869.97
423.017	1908.88
423.224	1872.01
423.432	1982.6
423.64	1970.32
423.848	2238.6
424.056	2162.83
424.263	2279.56
424.471	2246.79
424.679	2492.55
424.887	2531.46
425.094	2568.32
425.302	2533.51
425.51	2664.58
425.718	2736.26
425.925	2779.26
426.133	2920.57
426.341	2941.05
426.548	3248.25
426.756	3195
426.964	3252.35
427.171	3268.73
427.379	3582.07
427.586	3469.43
427.794	3582.07
428.001	3670.13
428.209	3934.32
428.417	3899.5
428.624	4040.81
428.832	4235.37
429.039	4096.11
429.247	4145.26
429.454	4477.03
429.662	4794.47
429.869	4573.28
430.076	4825.19
430.284	4651.11
430.491	4743.27
430.699	5210.2
430.906	5124.19
431.114	5124.19
431.321	5423.19
431.528	5525.59
431.736	5890.13
431.943	6230.09
432.15	6076.49
432.358	6090.83
432.565	6430.79
432.772	6389.83
432.979	6668.36
433.187	6830.15
433.394	6920.26
433.601	7239.74
433.808	7422.01
434.016	7389.24
434.223	7651.38
434.43	8144.94
434.637	7868.47
434.844	8587.3
435.052	8548.39
435.259	8445.99
435.466	8577.06
435.673	8652.84
435.88	9054.24
436.087	9349.15
436.294	9689.11
436.501	9244.7
436.708	9539.61
436.915	9775.13
437.122	10278.93
437.329	10201.1
437.537	10479.63
437.743	10780.68
437.95	10756.1
438.157	11096.07
438.364	11468.8
438.571	11517.95
438.778	11571.19
438.985	12488.68
439.192	12234.74
439.399	12691.43
439.606	12466.16
439.813	13115.36
440.02	13682.65
440.227	13344.74
440.433	13393.89
440.64	14073.81
440.847	13649.88
441.054	13811.67
441.261	15159.24
441.467	14813.13
441.674	15384.51
441.881	15593.4
442.088	15597.5
442.294	15732.67
442.501	15765.43
442.708	16363.44
442.914	16936.87
443.121	17723.29
443.328	16902.06
443.534	18378.64
443.741	17938.33
443.948	17594.27
444.154	18730.89
444.361	18853.77
444.568	18778
444.774	18829.2
444.981	19169.16
445.187	19580.8
445.394	20645.74
445.6	20316.02
445.807	22452.05
446.013	21096.3
446.22	21548.9
446.426	22507.35
446.633	22970.19
446.839	23533.38
447.046	22822.73
447.252	24170.3
447.459	23772.99
447.665	23828.29
447.871	25003.82
448.078	25878.3
448.284	24313.66
448.491	25239.34
448.697	26378.01
448.903	26763.03
449.11	27176.72
449.316	26722.07
449.522	27078.41
449.728	27803.39
449.935	27930.37
450.141	28153.6
450.347	28747.51
450.553	27991.81
450.76	28071.68
450.966	29146.86
451.172	28874.48
451.378	29630.18
451.584	29042.42
451.791	29929.19
451.997	29826.79
452.203	30138.08
452.409	30500.57
452.615	30326.49
452.821	29112.05
453.027	28550.9
453.233	30215.9
453.44	29427.43
453.646	29382.38
453.852	29628.13
454.058	30039.78
454.264	28995.31
454.47	29847.27
454.676	29140.72
454.882	29970.15
455.088	27678.47
455.294	28167.93
455.5	28352.25
455.705	28464.89
455.911	27418.38
456.117	27158.28
456.323	26414.87
456.529	25394.98
456.735	26720.02
456.941	26011.42
457.147	25390.89
457.352	24602.42
457.558	24422.2
457.764	24610.61
457.97	24045.37
458.176	23652.16
458.381	23813.95
458.587	22298.45
458.793	22445.91
458.999	21096.3
459.204	22990.67
459.41	22107.99
459.616	21028.71
459.821	20557.68
460.027	20688.75
460.233	20338.55
460.438	19378.05
460.644	19726.21
460.85	18696.08
461.055	18280.34
461.261	18468.75
461.466	16732.08
461.672	16586.67
461.878	17878.94
462.083	16418.74
462.289	16058.29
462.494	16078.77
462.7	15378.37
462.905	14899.14
463.111	15366.08
463.316	15458.24
463.522	15187.91
463.727	15333.31
463.932	15433.66
464.138	15056.84
464.343	15103.94
464.549	14616.52
464.754	15179.72
464.959	15097.8
465.165	14837.7
465.37	14172.11
465.575	13565.92
465.781	14628.81
465.986	14653.39
466.191	14264.27
466.397	13828.06
466.602	13041.64
466.807	13524.96
467.012	13518.81
467.218	13623.26
467.423	13264.86
