Data from USB4F104151__275__14-46-11-517.txt Node

Date: Thu Mar 13 14:46:11 EDT 2025
User: louis
Spectrometer: USB4F10415
Trigger mode: 4
Integration Time (sec): 2.000000E-2
Scans to average: 1
Electric dark correction enabled: true
Nonlinearity correction enabled: false
Boxcar width: 0
XAxis mode: Wavelengths
Number of Pixels in Spectrum: 3648
>>>>>Begin Spectral Data<<<<<
178.204	-149.16
178.424	-149.16
178.644	-149.16
178.864	-140.97
179.084	-155.3
179.304	-26.28
179.524	-59.05
179.744	33.11
179.964	63.83
180.184	57.68
180.404	-77.48
180.624	-40.62
180.844	18.77
181.064	-50.86
181.283	0.34
181.503	14.68
181.723	65.88
181.943	-40.62
182.163	0.34
182.383	-7.85
182.602	33.11
182.822	6.49
183.042	2.39
183.262	8.53
183.482	57.68
183.701	-67.24
183.921	67.92
184.141	-50.86
184.361	31.06
184.58	35.16
184.8	-13.99
185.02	-48.81
185.239	57.68
185.459	67.92
185.679	63.83
185.898	18.77
186.118	63.83
186.338	127.32
186.557	-1.71
186.777	-34.47
186.997	-9.9
187.216	18.77
187.436	80.21
187.655	24.92
187.875	82.26
188.095	2.39
188.314	63.83
188.534	55.64
188.753	39.25
188.973	16.73
189.192	74.07
189.412	39.25
189.631	2.39
189.851	-7.85
190.07	4.44
190.29	-24.23
190.509	18.77
190.729	-24.23
190.948	24.92
191.168	170.32
191.387	45.4
191.607	-7.85
191.826	35.16
192.045	8.53
192.265	65.88
192.484	33.11
192.704	43.35
192.923	14.68
193.142	141.65
193.362	35.16
193.581	74.07
193.8	14.68
194.02	74.07
194.239	41.3
194.458	47.44
194.678	-34.47
194.897	39.25
195.116	43.35
195.335	39.25
195.555	18.77
195.774	57.68
195.993	8.53
196.212	-9.9
196.432	-44.71
196.651	43.35
196.87	-28.33
197.089	104.79
197.308	39.25
197.528	6.49
197.747	18.77
197.966	41.3
198.185	100.69
198.404	4.44
198.623	-22.19
198.842	26.96
199.062	72.02
199.281	16.73
199.5	-1.71
199.719	47.44
199.938	41.3
200.157	80.21
200.376	-20.14
200.595	65.88
200.814	76.12
201.033	-38.57
201.252	72.02
201.471	84.31
201.69	43.35
201.909	55.64
202.128	41.3
202.347	63.83
202.566	72.02
202.785	-79.53
203.004	-83.63
203.223	59.73
203.442	26.96
203.661	6.49
203.879	41.3
204.098	-1.71
204.317	-91.82
204.536	57.68
204.755	26.96
204.974	-9.9
205.193	104.79
205.411	155.99
205.63	49.49
205.849	98.64
206.068	0.34
206.287	24.92
206.505	31.06
206.724	39.25
206.943	35.16
207.162	-61.1
207.381	10.58
207.599	63.83
207.818	65.88
208.037	-5.8
208.255	22.87
208.474	12.63
208.693	16.73
208.911	63.83
209.13	35.16
209.349	-9.9
209.567	8.53
209.786	6.49
210.005	123.22
210.223	26.96
210.442	6.49
210.661	55.64
210.879	31.06
211.098	-34.47
211.316	67.92
211.535	22.87
211.753	-11.95
211.972	8.53
212.191	2.39
212.409	-13.99
212.628	43.35
212.846	16.73
213.065	53.59
213.283	127.32
213.502	-32.43
213.72	22.87
213.938	94.55
214.157	-5.8
214.375	39.25
214.594	12.63
214.812	98.64
215.031	-5.8
215.249	18.77
215.467	-1.71
215.686	43.35
215.904	57.68
216.122	-11.95
216.341	-16.04
216.559	8.53
216.778	67.92
216.996	67.92
217.214	51.54
217.432	18.77
217.651	26.96
217.869	-3.75
218.087	12.63
218.306	-16.04
218.524	37.2
218.742	-36.52
218.96	-18.09
219.179	49.49
219.397	-1.71
219.615	123.22
219.833	-1.71
220.051	-28.33
220.27	49.49
220.488	55.64
220.706	47.44
220.924	-1.71
221.142	106.84
221.36	-40.62
221.578	-38.57
221.796	26.96
222.015	-34.47
222.233	31.06
222.451	39.25
222.669	-13.99
222.887	80.21
223.105	-24.23
223.323	72.02
223.541	0.34
223.759	80.21
223.977	59.73
224.195	-42.67
224.413	72.02
224.631	96.6
224.849	-50.86
225.067	72.02
225.285	47.44
225.503	41.3
225.721	14.68
225.939	94.55
226.157	49.49
226.375	96.6
226.592	55.64
226.81	86.36
227.028	49.49
227.246	72.02
227.464	6.49
227.682	55.64
227.9	86.36
228.117	39.25
228.335	16.73
228.553	31.06
228.771	43.35
228.989	39.25
229.206	10.58
229.424	2.39
229.642	-16.04
229.86	22.87
230.077	-5.8
230.295	45.4
230.513	0.34
230.731	35.16
230.948	74.07
231.166	96.6
231.384	43.35
231.601	55.64
231.819	22.87
232.037	86.36
232.254	55.64
232.472	57.68
232.689	67.92
232.907	39.25
233.125	-26.28
233.342	39.25
233.56	-16.04
233.777	43.35
233.995	35.16
234.213	39.25
234.43	80.21
234.648	39.25
234.865	22.87
235.083	57.68
235.3	24.92
235.518	55.64
235.735	55.64
235.953	-34.47
236.17	-40.62
236.388	67.92
236.605	-13.99
236.822	31.06
237.04	76.12
237.257	-26.28
237.475	-65.19
237.692	74.07
237.909	22.87
238.127	26.96
238.344	117.08
238.562	-42.67
238.779	26.96
238.996	29.01
239.214	59.73
239.431	39.25
239.648	63.83
239.865	41.3
240.083	-30.38
240.3	100.69
240.517	-5.8
240.735	102.74
240.952	26.96
241.169	55.64
241.386	39.25
241.603	8.53
241.821	-5.8
242.038	22.87
242.255	88.4
242.472	69.97
242.689	-5.8
242.907	6.49
243.124	22.87
243.341	22.87
243.558	-46.76
243.775	-42.67
243.992	26.96
244.209	57.68
244.426	108.88
244.643	-13.99
244.86	33.11
245.078	16.73
245.295	33.11
245.512	-9.9
245.729	55.64
245.946	-5.8
246.163	88.4
246.38	6.49
246.597	41.3
246.814	41.3
247.031	69.97
247.248	31.06
247.464	69.97
247.681	35.16
247.898	69.97
248.115	59.73
248.332	69.97
248.549	78.16
248.766	14.68
248.983	47.44
249.2	-1.71
249.417	14.68
249.633	-65.19
249.85	31.06
250.067	2.39
250.284	55.64
250.501	55.64
250.717	26.96
250.934	10.58
251.151	-40.62
251.368	-3.75
251.585	31.06
251.801	-16.04
252.018	57.68
252.235	-63.15
252.451	-1.71
252.668	6.49
252.885	-9.9
253.102	-18.09
253.318	4.44
253.535	57.68
253.752	39.25
253.968	14.68
254.185	41.3
254.401	22.87
254.618	82.26
254.835	31.06
255.051	80.21
255.268	39.25
255.484	39.25
255.701	55.64
255.917	31.06
256.134	26.96
256.351	-22.19
256.567	-9.9
256.784	39.25
257	-9.9
257.217	45.4
257.433	33.11
257.65	-59.05
257.866	0.34
258.082	39.25
258.299	-34.47
258.515	55.64
258.732	0.34
258.948	-22.19
259.165	90.45
259.381	-75.43
259.597	-18.09
259.814	-18.09
260.03	63.83
260.246	6.49
260.463	43.35
260.679	14.68
260.895	20.82
261.112	35.16
261.328	6.49
261.544	-20.14
261.761	117.08
261.977	2.39
262.193	65.88
262.409	53.59
262.626	61.78
262.842	14.68
263.058	26.96
263.274	18.77
263.49	74.07
263.707	6.49
263.923	53.59
264.139	-52.91
264.355	16.73
264.571	67.92
264.787	121.17
265.004	41.3
265.22	63.83
265.436	72.02
265.652	49.49
265.868	76.12
266.084	-18.09
266.3	16.73
266.516	0.34
266.732	45.4
266.948	39.25
267.164	37.2
267.38	8.53
267.596	16.73
267.812	69.97
268.028	18.77
268.244	6.49
268.46	35.16
268.676	14.68
268.892	65.88
269.108	-28.33
269.324	-13.99
269.54	59.73
269.756	31.06
269.972	26.96
270.188	26.96
270.403	-16.04
270.619	82.26
270.835	-18.09
271.051	92.5
271.267	26.96
271.483	8.53
271.698	72.02
271.914	72.02
272.13	33.11
272.346	16.73
272.562	18.77
272.777	104.79
272.993	26.96
273.209	33.11
273.425	78.16
273.64	31.06
273.856	2.39
274.072	-5.8
274.287	12.63
274.503	59.73
274.719	63.83
274.934	41.3
275.15	-9.9
275.366	24.92
275.581	49.49
275.797	22.87
276.012	63.83
276.228	-18.09
276.444	55.64
276.659	57.68
276.875	-42.67
277.09	2.39
277.306	55.64
277.521	24.92
277.737	10.58
277.952	14.68
278.168	76.12
278.383	104.79
278.599	-24.23
278.814	110.93
279.03	6.49
279.245	131.41
279.461	31.06
279.676	24.92
279.892	63.83
280.107	47.44
280.322	-26.28
280.538	8.53
280.753	-18.09
280.969	2.39
281.184	-5.8
281.399	31.06
281.615	4.44
281.83	59.73
282.045	41.3
282.26	-1.71
282.476	63.83
282.691	47.44
282.906	72.02
283.122	-1.71
283.337	-48.81
283.552	-34.47
283.767	-46.76
283.983	139.6
284.198	31.06
284.413	90.45
284.628	-24.23
284.843	-26.28
285.058	82.26
285.274	-16.04
285.489	53.59
285.704	39.25
285.919	31.06
286.134	-63.15
286.349	-83.63
286.564	-18.09
286.779	74.07
286.995	-26.28
287.21	-18.09
287.425	26.96
287.64	14.68
287.855	33.11
288.07	59.73
288.285	78.16
288.5	18.77
288.715	55.64
288.93	14.68
289.145	57.68
289.36	39.25
289.575	-13.99
289.79	-7.85
290.004	14.68
290.219	35.16
290.434	76.12
290.649	-5.8
290.864	22.87
291.079	14.68
291.294	37.2
291.509	39.25
291.724	-7.85
291.938	49.49
292.153	33.11
292.368	-24.23
292.583	43.35
292.798	-57
293.012	-28.33
293.227	26.96
293.442	-13.99
293.657	53.59
293.871	29.01
294.086	31.06
294.301	4.44
294.516	59.73
294.73	22.87
294.945	31.06
295.16	26.96
295.374	35.16
295.589	106.84
295.804	14.68
296.018	-46.76
296.233	18.77
296.447	-1.71
296.662	43.35
296.877	53.59
297.091	72.02
297.306	33.11
297.52	82.26
297.735	12.63
297.949	16.73
298.164	67.92
298.378	0.34
298.593	-13.99
298.807	63.83
299.022	63.83
299.236	22.87
299.451	8.53
299.665	-7.85
299.88	59.73
300.094	18.77
300.309	-46.76
300.523	67.92
300.737	16.73
300.952	43.35
301.166	16.73
301.381	-1.71
301.595	14.68
301.809	24.92
302.024	6.49
302.238	-32.43
302.452	96.6
302.667	-3.75
302.881	59.73
303.095	59.73
303.309	133.46
303.524	14.68
303.738	10.58
303.952	39.25
304.166	31.06
304.381	57.68
304.595	63.83
304.809	-20.14
305.023	39.25
305.237	-16.04
305.452	-7.85
305.666	-22.19
305.88	-1.71
306.094	98.64
306.308	-7.85
306.522	72.02
306.736	35.16
306.95	72.02
307.164	80.21
307.379	-9.9
307.593	31.06
307.807	78.16
308.021	47.44
308.235	69.97
308.449	35.16
308.663	55.64
308.877	115.03
309.091	51.54
309.305	31.06
309.519	-16.04
309.733	65.88
309.947	-24.23
310.161	47.44
310.374	-32.43
310.588	43.35
310.802	-5.8
311.016	-48.81
311.23	-1.71
311.444	22.87
311.658	-42.67
311.872	63.83
312.085	-3.75
312.299	76.12
312.513	98.64
312.727	106.84
312.941	80.21
313.154	-40.62
313.368	39.25
313.582	-28.33
313.796	78.16
314.009	72.02
314.223	31.06
314.437	31.06
314.651	39.25
314.864	26.96
315.078	16.73
315.292	-5.8
315.505	18.77
315.719	-40.62
315.933	6.49
316.146	37.2
316.36	-57
316.573	67.92
316.787	182.61
317.001	26.96
317.214	-34.47
317.428	88.4
317.641	51.54
317.855	6.49
318.068	51.54
318.282	86.36
318.495	104.79
318.709	55.64
318.922	22.87
319.136	39.25
319.349	49.49
319.563	76.12
319.776	41.3
319.99	-24.23
320.203	-30.38
320.417	39.25
320.63	45.4
320.843	63.83
321.057	2.39
321.27	51.54
321.483	14.68
321.697	53.59
321.91	65.88
322.124	33.11
322.337	47.44
322.55	26.96
322.763	-22.19
322.977	16.73
323.19	31.06
323.403	18.77
323.617	16.73
323.83	39.25
324.043	117.08
324.256	26.96
324.469	-75.43
324.683	100.69
324.896	-1.71
325.109	88.4
325.322	24.92
325.535	47.44
325.748	69.97
325.962	37.2
326.175	92.5
326.388	24.92
326.601	35.16
326.814	51.54
327.027	92.5
327.24	-9.9
327.453	31.06
327.666	72.02
327.879	-1.71
328.092	47.44
328.305	86.36
328.518	-42.67
328.731	-5.8
328.944	53.59
329.157	63.83
329.37	22.87
329.583	55.64
329.796	-11.95
330.009	6.49
330.222	35.16
330.435	39.25
330.648	14.68
330.861	43.35
331.073	39.25
331.286	55.64
331.499	39.25
331.712	55.64
331.925	41.3
332.138	47.44
332.35	45.4
332.563	31.06
332.776	31.06
332.989	67.92
333.202	88.4
333.414	-11.95
333.627	22.87
333.84	-7.85
334.053	22.87
334.265	-71.34
334.478	-1.71
334.691	43.35
334.903	82.26
335.116	-16.04
335.329	74.07
335.541	47.44
335.754	65.88
335.966	47.44
336.179	90.45
336.392	-1.71
336.604	102.74
336.817	117.08
337.029	84.31
337.242	-50.86
337.454	39.25
337.667	6.49
337.88	123.22
338.092	63.83
338.305	39.25
338.517	51.54
338.729	14.68
338.942	10.58
339.154	65.88
339.367	69.97
339.579	-24.23
339.792	37.2
340.004	20.82
340.217	-9.9
340.429	53.59
340.641	63.83
340.854	78.16
341.066	6.49
341.278	88.4
341.491	98.64
341.703	45.4
341.915	41.3
342.128	123.22
342.34	22.87
342.552	14.68
342.764	-7.85
342.977	72.02
343.189	49.49
343.401	33.11
343.613	43.35
343.826	43.35
344.038	-24.23
344.25	24.92
344.462	8.53
344.674	57.68
344.886	35.16
345.099	0.34
345.311	14.68
345.523	-34.47
345.735	43.35
345.947	26.96
346.159	69.97
346.371	31.06
346.583	63.83
346.795	104.79
347.007	8.53
347.219	35.16
347.431	-22.19
347.643	117.08
347.855	63.83
348.067	0.34
348.279	-5.8
348.491	0.34
348.703	31.06
348.915	84.31
349.127	-40.62
349.339	2.39
349.551	-24.23
349.763	76.12
349.975	41.3
350.187	80.21
350.399	121.17
350.61	31.06
350.822	55.64
351.034	39.25
351.246	14.68
351.458	-18.09
351.669	35.16
351.881	82.26
352.093	84.31
352.305	-22.19
352.517	55.64
352.728	0.34
352.94	-26.28
353.152	67.92
353.363	55.64
353.575	51.54
353.787	82.26
353.999	20.82
354.21	78.16
354.422	55.64
354.633	67.92
354.845	80.21
355.057	86.36
355.268	59.73
355.48	65.88
355.692	31.06
355.903	55.64
356.115	39.25
356.326	-34.47
356.538	31.06
356.749	-9.9
356.961	63.83
357.172	57.68
357.384	35.16
357.595	84.31
357.807	82.26
358.018	-24.23
358.23	69.97
358.441	96.6
358.653	92.5
358.864	47.44
359.075	-18.09
359.287	31.06
359.498	18.77
359.709	49.49
359.921	90.45
360.132	-22.19
360.344	18.77
360.555	115.03
360.766	88.4
360.977	47.44
361.189	96.6
361.4	22.87
361.611	49.49
361.823	90.45
362.034	35.16
362.245	31.06
362.456	-16.04
362.667	139.6
362.879	31.06
363.09	39.25
363.301	39.25
363.512	-5.8
363.723	26.96
363.935	-83.63
364.146	31.06
364.357	8.53
364.568	57.68
364.779	-18.09
364.99	49.49
365.201	-18.09
365.412	72.02
365.623	72.02
365.834	121.17
366.045	24.92
366.256	63.83
366.467	80.21
366.678	96.6
366.889	-26.28
367.1	8.53
367.311	117.08
367.522	82.26
367.733	-3.75
367.944	55.64
368.155	47.44
368.366	-1.71
368.577	115.03
368.788	59.73
368.999	-59.05
369.209	43.35
369.42	133.46
369.631	102.74
369.842	29.01
370.053	-9.9
370.264	112.98
370.474	0.34
370.685	-3.75
370.896	43.35
371.107	33.11
371.317	78.16
371.528	47.44
371.739	96.6
371.95	-7.85
372.16	88.4
372.371	108.88
372.582	49.49
372.792	-18.09
373.003	72.02
373.214	55.64
373.424	63.83
373.635	72.02
373.846	74.07
374.056	57.68
374.267	41.3
374.477	61.78
374.688	61.78
374.898	0.34
375.109	96.6
375.319	2.39
375.53	39.25
375.74	63.83
375.951	10.58
376.161	53.59
376.372	96.6
376.582	6.49
376.793	2.39
377.003	55.64
377.214	6.49
377.424	80.21
377.635	-36.52
377.845	0.34
378.055	12.63
378.266	-7.85
378.476	63.83
378.686	51.54
378.897	72.02
379.107	63.83
379.317	-1.71
379.528	22.87
379.738	14.68
379.948	80.21
380.158	-1.71
380.369	6.49
380.579	102.74
380.789	51.54
380.999	92.5
381.21	115.03
381.42	92.5
381.63	51.54
381.84	100.69
382.05	92.5
382.261	106.84
382.471	88.4
382.681	18.77
382.891	41.3
383.101	65.88
383.311	61.78
383.521	41.3
383.731	63.83
383.941	53.59
384.151	0.34
384.361	4.44
384.571	41.3
384.781	22.87
384.991	31.06
385.201	90.45
385.411	-5.8
385.621	100.69
385.831	51.54
386.041	59.73
386.251	-3.75
386.461	153.94
386.671	72.02
386.881	51.54
387.091	125.27
387.301	96.6
387.511	90.45
387.72	6.49
387.93	80.21
388.14	80.21
388.35	22.87
388.56	90.45
388.769	82.26
388.979	57.68
389.189	-24.23
389.399	47.44
389.609	82.26
389.818	31.06
390.028	80.21
390.238	88.4
390.447	74.07
390.657	4.44
390.867	88.4
391.076	84.31
391.286	98.64
391.496	76.12
391.705	39.25
391.915	35.16
392.125	112.98
392.334	74.07
392.544	53.59
392.753	33.11
392.963	55.64
393.172	6.49
393.382	78.16
393.591	22.87
393.801	92.5
394.01	55.64
394.22	31.06
394.429	-16.04
394.639	88.4
394.848	31.06
395.058	-1.71
395.267	76.12
395.477	43.35
395.686	29.01
395.895	153.94
396.105	178.51
396.314	119.12
396.524	96.6
396.733	6.49
396.942	88.4
397.152	82.26
397.361	82.26
397.57	80.21
397.78	104.79
397.989	145.75
398.198	88.4
398.407	90.45
398.617	33.11
398.826	115.03
399.035	80.21
399.244	80.21
399.453	115.03
399.663	72.02
399.872	125.27
400.081	141.65
400.29	121.17
400.499	39.25
400.708	186.71
400.917	108.88
401.127	129.36
401.336	96.6
401.545	121.17
401.754	98.64
401.963	135.51
402.172	147.8
402.381	96.6
402.59	72.02
402.799	90.45
403.008	123.22
403.217	145.75
403.426	178.51
403.635	80.21
403.844	96.6
404.053	10.58
404.262	82.26
404.471	190.8
404.68	104.79
404.888	108.88
405.097	82.26
405.306	174.42
405.515	164.18
405.724	98.64
405.933	106.84
406.142	176.47
406.35	153.94
406.559	170.32
406.768	170.32
406.977	260.43
407.185	186.71
407.394	102.74
407.603	184.66
407.812	219.47
408.02	194.9
408.229	119.12
408.438	203.09
408.646	194.9
408.855	225.62
409.064	151.89
409.272	235.86
409.481	203.09
409.69	219.47
409.898	162.13
410.107	285.01
410.315	235.86
410.524	235.86
410.733	325.97
410.941	299.34
411.15	364.88
411.358	309.58
411.567	391.5
411.775	336.21
411.984	407.89
412.192	323.92
412.401	407.89
412.609	383.31
412.818	418.13
413.026	356.69
413.234	426.32
413.443	407.89
413.651	377.17
413.86	430.41
414.068	483.66
414.276	495.95
414.485	500.05
414.693	506.19
414.901	571.72
415.11	481.61
415.318	543.05
415.526	530.77
415.734	581.96
415.943	500.05
416.151	694.6
416.359	710.99
416.567	690.51
416.776	696.65
416.984	745.8
417.192	811.34
417.4	739.66
417.608	723.27
417.817	797
418.025	751.95
418.233	971.08
418.441	874.82
418.649	878.92
418.857	958.79
419.065	966.98
419.273	983.37
419.481	1061.19
419.689	1235.27
419.897	1098.05
420.105	1194.31
420.313	1169.73
420.521	1304.9
420.729	1218.88
420.937	1280.32
421.145	1276.23
421.353	1296.71
421.561	1481.02
421.769	1483.07
421.977	1499.45
422.185	1530.17
422.393	1628.48
422.601	1767.74
422.809	1753.4
423.017	1726.78
423.224	1743.16
423.432	1878.33
423.64	1892.66
423.848	2013.49
424.056	1933.62
424.263	2044.21
424.471	2015.54
424.679	2203.96
424.887	2152.76
425.094	2308.4
425.302	2353.46
425.51	2472.24
425.718	2564.4
425.925	2605.36
426.133	2599.21
426.341	2775.34
426.548	2908.46
426.756	2941.22
426.964	2930.98
427.171	3076.39
427.379	3148.07
427.586	3158.31
427.794	3490.08
428.001	3594.53
428.209	3635.49
428.417	3764.51
428.624	3889.43
428.832	3803.42
429.039	3954.97
429.247	3791.13
429.454	4098.33
429.662	4540.69
429.869	4143.38
430.076	4555.02
430.284	4290.84
430.491	4530.45
430.699	4835.6
430.906	4768.01
431.114	5003.53
431.321	5050.63
431.528	5218.57
431.736	5396.74
431.943	5822.72
432.15	5554.43
432.358	5380.36
432.565	5921.02
432.772	5892.35
432.979	6211.83
433.187	6408.44
433.394	6234.36
433.601	6840.56
433.808	6875.37
434.016	6641.9
434.223	7059.69
434.43	7235.81
434.637	7215.34
434.844	7626.98
435.052	7872.73
435.259	7839.97
435.466	8077.53
435.673	7786.72
435.88	8311
436.087	8560.85
436.294	8704.21
436.501	8648.91
436.708	8634.58
436.915	9058.51
437.122	9517.25
437.329	9347.27
437.537	9783.49
437.743	9914.56
437.95	9844.93
438.157	10303.67
438.364	10754.23
438.571	10576.05
438.778	10680.5
438.985	11495.59
439.192	11200.68
439.399	11763.87
439.606	11393.19
439.813	11927.71
440.02	12562.58
440.227	12724.37
440.433	12318.87
440.64	12867.73
440.847	12728.47
441.054	12961.94
441.261	13672.58
441.467	13660.29
441.674	13994.11
441.881	14405.75
442.088	14375.03
442.294	14178.43
442.501	14821.49
442.708	15290.48
442.914	15614.06
443.121	16160.86
443.328	15761.51
443.534	17143.89
443.741	16373.85
443.948	16064.61
444.154	17367.12
444.361	17459.27
444.568	17397.84
444.774	17397.84
444.981	17745.99
445.187	18233.41
445.394	19034.16
445.6	19001.4
445.807	20643.87
446.013	19707.94
446.22	20135.97
446.426	20625.43
446.633	21114.9
446.839	22001.67
447.046	20799.51
447.252	22300.67
447.459	22020.1
447.665	22198.27
447.871	23205.88
448.078	24014.82
448.284	23017.46
448.491	23594.99
448.697	24219.62
448.903	24713.18
449.11	25147.35
449.316	24621.02
449.522	25380.82
449.728	25831.37
449.935	26212.29
450.141	26290.12
450.347	26359.75
450.553	25964.49
450.76	26267.59
450.966	27187.13
451.172	26834.88
451.378	27621.3
451.584	27031.48
451.791	27475.89
451.997	27576.24
452.203	28176.3
452.409	28307.37
452.615	28010.41
452.821	26859.45
453.027	26750.91
453.233	27957.16
453.44	27086.78
453.646	27504.56
453.852	27684.78
454.058	28104.62
454.264	27033.53
454.47	27652.02
454.676	26845.12
454.882	28004.27
455.088	25741.26
455.294	26183.62
455.5	26607.55
455.705	26873.79
455.911	25866.19
456.117	25309.14
456.323	25163.73
456.529	23519.21
456.735	24854.49
456.941	23965.67
457.147	23863.27
457.352	23035.89
457.558	22689.79
457.764	22714.36
457.97	22474.75
458.176	21903.37
458.381	22155.27
458.587	21032.98
458.793	21321.74
458.999	19912.74
459.204	21336.08
459.41	20887.57
459.616	19001.4
459.821	19241.01
460.027	19292.21
460.233	19120.18
460.438	18341.95
460.644	18333.76
460.85	17473.61
461.055	17188.94
461.261	17127.5
461.466	15851.62
461.672	15075.44
461.878	16404.57
462.083	15579.24
462.289	15102.06
462.494	14977.14
462.7	14241.92
462.905	14153.85
463.111	14628.98
463.316	14674.04
463.522	14299.26
463.727	14258.3
463.932	14401.66
464.138	14145.66
464.343	14354.55
464.549	13779.08
464.754	14223.48
464.959	14063.74
465.165	14305.4
465.37	13486.22
465.575	12933.26
465.781	13502.6
465.986	13717.64
466.191	13189.26
466.397	13033.61
466.602	12212.38
466.807	12759.19
467.012	12832.91
467.218	12712.08
467.423	12476.57
467.628	12814.48
467.833	13111.44
468.038	12804.24
