Data from USB4F104151__180__14-45-04-933.txt Node

Date: Thu Mar 13 14:45:04 EDT 2025
User: louis
Spectrometer: USB4F10415
Trigger mode: 4
Integration Time (sec): 2.000000E-2
Scans to average: 1
Electric dark correction enabled: true
Nonlinearity correction enabled: false
Boxcar width: 0
XAxis mode: Wavelengths
Number of Pixels in Spectrum: 3648
>>>>>Begin Spectral Data<<<<<
178.204	-105.13
178.424	-105.13
178.644	-105.13
178.864	-152.23
179.084	-148.14
179.304	-17.07
179.524	-62.12
179.744	36.18
179.964	77.14
180.184	-8.87
180.404	17.75
180.624	-6.83
180.844	-15.02
181.064	-12.97
181.283	9.56
181.503	-49.83
181.723	32.08
181.943	-51.88
182.163	68.95
182.383	73.04
182.602	15.7
182.822	46.42
183.042	23.89
183.262	-84.65
183.482	46.42
183.701	11.61
183.921	42.32
184.141	7.51
184.361	48.47
184.58	17.75
184.8	15.7
185.02	13.65
185.239	-6.83
185.459	42.32
185.679	-4.78
185.898	-60.07
186.118	36.18
186.338	-10.92
186.557	64.85
186.777	38.23
186.997	-21.16
187.216	9.56
187.436	89.43
187.655	9.56
187.875	93.52
188.095	32.08
188.314	52.56
188.534	60.76
188.753	60.76
188.973	101.72
189.192	66.9
189.412	1.37
189.631	-12.97
189.851	-47.79
190.07	25.94
190.29	-39.59
190.509	66.9
190.729	1.37
190.948	79.19
191.168	68.95
191.387	73.04
191.607	-15.02
191.826	91.48
192.045	13.65
192.265	89.43
192.484	44.37
192.704	-12.97
192.923	-41.64
193.142	58.71
193.362	42.32
193.581	46.42
193.8	15.7
194.02	89.43
194.239	50.52
194.458	-0.68
194.678	-51.88
194.897	50.52
195.116	75.09
195.335	11.61
195.555	-45.74
195.774	-15.02
195.993	3.41
196.212	-2.73
196.432	48.47
196.651	25.94
196.87	9.56
197.089	105.81
197.308	9.56
197.528	27.99
197.747	-21.16
197.966	-33.45
198.185	17.75
198.404	-39.59
198.623	25.94
198.842	9.56
199.062	19.8
199.281	17.75
199.5	23.89
199.719	-17.07
199.938	3.41
200.157	27.99
200.376	66.9
200.595	150.87
200.814	15.7
201.033	-53.93
201.252	36.18
201.471	1.37
201.69	11.61
201.909	75.09
202.128	25.94
202.347	15.7
202.566	-74.41
202.785	-58.03
203.004	-98.99
203.223	75.09
203.442	7.51
203.661	-39.59
203.879	32.08
204.098	-55.98
204.317	-70.31
204.536	93.52
204.755	-6.83
204.974	64.85
205.193	42.32
205.411	97.62
205.63	-31.4
205.849	-70.31
206.068	40.28
206.287	36.18
206.505	60.76
206.724	25.94
206.943	32.08
207.162	-70.31
207.381	36.18
207.599	1.37
207.818	34.13
208.037	-21.16
208.255	1.37
208.474	-41.64
208.693	40.28
208.911	-33.45
209.13	40.28
209.349	89.43
209.567	30.04
209.786	7.51
210.005	52.56
210.223	56.66
210.442	-6.83
210.661	-41.64
210.879	36.18
211.098	-25.26
211.316	23.89
211.535	40.28
211.753	62.8
211.972	-41.64
212.191	9.56
212.409	48.47
212.628	36.18
212.846	-23.21
213.065	83.28
213.283	93.52
213.502	-37.55
213.72	50.52
213.938	-0.68
214.157	-41.64
214.375	73.04
214.594	-0.68
214.812	42.32
215.031	75.09
215.249	23.89
215.467	-0.68
215.686	64.85
215.904	36.18
216.122	81.24
216.341	109.91
216.559	15.7
216.778	-31.4
216.996	-25.26
217.214	-8.87
217.432	32.08
217.651	15.7
217.869	32.08
218.087	-47.79
218.306	-45.74
218.524	-19.11
218.742	-31.4
218.96	64.85
219.179	-17.07
219.397	54.61
219.615	101.72
219.833	11.61
220.051	52.56
220.27	9.56
220.488	60.76
220.706	1.37
220.924	40.28
221.142	19.8
221.36	15.7
221.578	15.7
221.796	48.47
222.015	-15.02
222.233	73.04
222.451	64.85
222.669	-53.93
222.887	1.37
223.105	3.41
223.323	44.37
223.541	-29.35
223.759	7.51
223.977	64.85
224.195	85.33
224.413	111.96
224.631	1.37
224.849	-0.68
225.067	71
225.285	71
225.503	1.37
225.721	27.99
225.939	-12.97
226.157	-10.92
226.375	44.37
226.592	44.37
226.81	36.18
227.028	75.09
227.246	83.28
227.464	97.62
227.682	23.89
227.9	21.85
228.117	50.52
228.335	52.56
228.553	-15.02
228.771	19.8
228.989	56.66
229.206	52.56
229.424	11.61
229.642	32.08
229.86	27.99
230.077	56.66
230.295	25.94
230.513	25.94
230.731	-8.87
230.948	77.14
231.166	122.2
231.384	-17.07
231.601	-23.21
231.819	85.33
232.037	-8.87
232.254	19.8
232.472	-43.69
232.689	17.75
232.907	48.47
233.125	46.42
233.342	3.41
233.56	-4.78
233.777	-31.4
233.995	15.7
234.213	56.66
234.43	-23.21
234.648	-4.78
234.865	7.51
235.083	91.48
235.3	7.51
235.518	-29.35
235.735	56.66
235.953	116.05
236.17	3.41
236.388	-19.11
236.605	27.99
236.822	56.66
237.04	44.37
237.257	-8.87
237.475	23.89
237.692	-21.16
237.909	42.32
238.127	-17.07
238.344	148.82
238.562	66.9
238.779	-37.55
238.996	-0.68
239.214	15.7
239.431	17.75
239.648	11.61
239.865	-0.68
240.083	32.08
240.3	-8.87
240.517	52.56
240.735	105.81
240.952	23.89
241.169	23.89
241.386	-12.97
241.603	-86.7
241.821	-31.4
242.038	3.41
242.255	1.37
242.472	-45.74
242.689	9.56
242.907	46.42
243.124	-0.68
243.341	73.04
243.558	-29.35
243.775	-74.41
243.992	-51.88
244.209	13.65
244.426	23.89
244.643	46.42
244.86	-8.87
245.078	13.65
245.295	-0.68
245.512	81.24
245.729	-45.74
245.946	83.28
246.163	15.7
246.38	101.72
246.597	21.85
246.814	-29.35
247.031	-29.35
247.248	56.66
247.464	-19.11
247.681	42.32
247.898	48.47
248.115	15.7
248.332	32.08
248.549	11.61
248.766	48.47
248.983	97.62
249.2	42.32
249.417	97.62
249.633	-12.97
249.85	40.28
250.067	27.99
250.284	-37.55
250.501	17.75
250.717	48.47
250.934	52.56
251.151	13.65
251.368	-2.73
251.585	-6.83
251.801	44.37
252.018	-8.87
252.235	52.56
252.451	-12.97
252.668	-4.78
252.885	62.8
253.102	21.85
253.318	-33.45
253.535	-49.83
253.752	7.51
253.968	-51.88
254.185	-49.83
254.401	-6.83
254.618	79.19
254.835	7.51
255.051	32.08
255.268	9.56
255.484	9.56
255.701	25.94
255.917	52.56
256.134	46.42
256.351	66.9
256.567	-35.5
256.784	1.37
257	-8.87
257.217	36.18
257.433	11.61
257.65	27.99
257.866	56.66
258.082	-45.74
258.299	-29.35
258.515	19.8
258.732	32.08
258.948	40.28
259.165	103.76
259.381	19.8
259.597	32.08
259.814	56.66
260.03	52.56
260.246	-0.68
260.463	-8.87
260.679	87.38
260.895	15.7
261.112	64.85
261.328	21.85
261.544	81.24
261.761	44.37
261.977	7.51
262.193	-47.79
262.409	9.56
262.626	-8.87
262.842	-21.16
263.058	17.75
263.274	-0.68
263.49	-17.07
263.707	73.04
263.923	56.66
264.139	27.99
264.355	-33.45
264.571	116.05
264.787	38.23
265.004	23.89
265.22	17.75
265.436	36.18
265.652	30.04
265.868	56.66
266.084	-35.5
266.3	11.61
266.516	7.51
266.732	-15.02
266.948	-0.68
267.164	-19.11
267.38	44.37
267.596	60.76
267.812	27.99
268.028	21.85
268.244	11.61
268.46	93.52
268.676	-15.02
268.892	105.81
269.108	19.8
269.324	58.71
269.54	40.28
269.756	77.14
269.972	-53.93
270.188	-6.83
270.403	-82.6
270.619	-0.68
270.835	-33.45
271.051	91.48
271.267	34.13
271.483	-6.83
271.698	32.08
271.914	-53.93
272.13	15.7
272.346	64.85
272.562	21.85
272.777	-15.02
272.993	48.47
273.209	1.37
273.425	36.18
273.64	-8.87
273.856	9.56
274.072	56.66
274.287	23.89
274.503	58.71
274.719	-33.45
274.934	23.89
275.15	-78.51
275.366	71
275.581	9.56
275.797	23.89
276.012	23.89
276.228	1.37
276.444	-17.07
276.659	25.94
276.875	-8.87
277.09	-8.87
277.306	-27.31
277.521	126.29
277.737	36.18
277.952	34.13
278.168	17.75
278.383	23.89
278.599	-41.64
278.814	-12.97
279.03	11.61
279.245	64.85
279.461	15.7
279.676	114
279.892	-21.16
280.107	48.47
280.322	-25.26
280.538	-49.83
280.753	-8.87
280.969	73.04
281.184	27.99
281.399	99.67
281.615	-8.87
281.83	-0.68
282.045	19.8
282.26	32.08
282.476	17.75
282.691	89.43
282.906	56.66
283.122	-21.16
283.337	-58.03
283.552	-8.87
283.767	9.56
283.983	21.85
284.198	25.94
284.413	68.95
284.628	17.75
284.843	-6.83
285.058	-39.59
285.274	58.71
285.489	27.99
285.704	42.32
285.919	-33.45
286.134	3.41
286.349	1.37
286.564	-17.07
286.779	97.62
286.995	19.8
287.21	-25.26
287.425	-10.92
287.64	-15.02
287.855	73.04
288.07	-17.07
288.285	87.38
288.5	25.94
288.715	19.8
288.93	56.66
289.145	-41.64
289.36	66.9
289.575	-6.83
289.79	17.75
290.004	-17.07
290.219	-6.83
290.434	25.94
290.649	21.85
290.864	-49.83
291.079	75.09
291.294	-31.4
291.509	-25.26
291.724	32.08
291.938	23.89
292.153	-12.97
292.368	-33.45
292.583	27.99
292.798	-2.73
293.012	58.71
293.227	7.51
293.442	56.66
293.657	-21.16
293.871	44.37
294.086	3.41
294.301	89.43
294.516	7.51
294.73	-35.5
294.945	15.7
295.16	-17.07
295.374	50.52
295.589	60.76
295.804	77.14
296.018	9.56
296.233	93.52
296.447	3.41
296.662	-29.35
296.877	-39.59
297.091	-33.45
297.306	48.47
297.52	-8.87
297.735	-27.31
297.949	-2.73
298.164	34.13
298.378	-17.07
298.593	9.56
298.807	44.37
299.022	-21.16
299.236	-2.73
299.451	40.28
299.665	9.56
299.88	19.8
300.094	89.43
300.309	23.89
300.523	40.28
300.737	25.94
300.952	21.85
301.166	23.89
301.381	40.28
301.595	-29.35
301.809	36.18
302.024	42.32
302.238	73.04
302.452	-39.59
302.667	-29.35
302.881	7.51
303.095	40.28
303.309	77.14
303.524	15.7
303.738	-4.78
303.952	-53.93
304.166	73.04
304.381	-49.83
304.595	56.66
304.809	-21.16
305.023	40.28
305.237	-64.17
305.452	-27.31
305.666	11.61
305.88	-23.21
306.094	75.09
306.308	89.43
306.522	38.23
306.736	60.76
306.95	15.7
307.164	36.18
307.379	-41.64
307.593	-12.97
307.807	89.43
308.021	75.09
308.235	103.76
308.449	-45.74
308.663	64.85
308.877	62.8
309.091	66.9
309.305	32.08
309.519	40.28
309.733	-6.83
309.947	-12.97
310.161	17.75
310.374	42.32
310.588	81.24
310.802	1.37
311.016	23.89
311.23	19.8
311.444	-8.87
311.658	13.65
311.872	32.08
312.085	38.23
312.299	107.86
312.513	-23.21
312.727	19.8
312.941	-23.21
313.154	50.52
313.368	34.13
313.582	-58.03
313.796	19.8
314.009	-6.83
314.223	79.19
314.437	7.51
314.651	25.94
314.864	-12.97
315.078	13.65
315.292	-72.36
315.505	-39.59
315.719	56.66
315.933	13.65
316.146	34.13
316.36	3.41
316.573	27.99
316.787	32.08
317.001	83.28
317.214	-27.31
317.428	15.7
317.641	-15.02
317.855	-15.02
318.068	-10.92
318.282	27.99
318.495	75.09
318.709	34.13
318.922	15.7
319.136	40.28
319.349	15.7
319.563	-21.16
319.776	11.61
319.99	27.99
320.203	9.56
320.417	-53.93
320.63	32.08
320.843	97.62
321.057	-39.59
321.27	15.7
321.483	17.75
321.697	-6.83
321.91	50.52
322.124	66.9
322.337	40.28
322.55	-49.83
322.763	15.7
322.977	-15.02
323.19	-0.68
323.403	27.99
323.617	-39.59
323.83	21.85
324.043	-23.21
324.256	-21.16
324.469	-0.68
324.683	73.04
324.896	-23.21
325.109	91.48
325.322	-15.02
325.535	56.66
325.748	48.47
325.962	-15.02
326.175	25.94
326.388	34.13
326.601	56.66
326.814	48.47
327.027	56.66
327.24	54.61
327.453	-8.87
327.666	32.08
327.879	30.04
328.092	48.47
328.305	-31.4
328.518	-0.68
328.731	23.89
328.944	40.28
329.157	-4.78
329.37	30.04
329.583	56.66
329.796	42.32
330.009	9.56
330.222	48.47
330.435	138.58
330.648	-66.22
330.861	32.08
331.073	21.85
331.286	32.08
331.499	-0.68
331.712	-62.12
331.925	42.32
332.138	-47.79
332.35	-47.79
332.563	7.51
332.776	44.37
332.989	56.66
333.202	48.47
333.414	17.75
333.627	-8.87
333.84	34.13
334.053	91.48
334.265	-49.83
334.478	17.75
334.691	-31.4
334.903	-2.73
335.116	-4.78
335.329	73.04
335.541	23.89
335.754	48.47
335.966	15.7
336.179	-31.4
336.392	-6.83
336.604	60.76
336.817	19.8
337.029	1.37
337.242	-25.26
337.454	40.28
337.667	36.18
337.88	-17.07
338.092	-25.26
338.305	75.09
338.517	-25.26
338.729	19.8
338.942	64.85
339.154	-80.55
339.367	-0.68
339.579	9.56
339.792	32.08
340.004	15.7
340.217	-8.87
340.429	17.75
340.641	25.94
340.854	23.89
341.066	19.8
341.278	97.62
341.491	93.52
341.703	52.56
341.915	-49.83
342.128	23.89
342.34	-21.16
342.552	-23.21
342.764	52.56
342.977	32.08
343.189	-33.45
343.401	66.9
343.613	-12.97
343.826	44.37
344.038	-17.07
344.25	-86.7
344.462	58.71
344.674	17.75
344.886	-0.68
345.099	34.13
345.311	48.47
345.523	21.85
345.735	7.51
345.947	44.37
346.159	-29.35
346.371	-66.22
346.583	11.61
346.795	116.05
347.007	-53.93
347.219	17.75
347.431	23.89
347.643	68.95
347.855	-19.11
348.067	-12.97
348.279	7.51
348.491	13.65
348.703	38.23
348.915	60.76
349.127	-51.88
349.339	64.85
349.551	73.04
349.763	32.08
349.975	89.43
350.187	15.7
350.399	56.66
350.61	-29.35
350.822	-17.07
351.034	-68.27
351.246	-8.87
351.458	30.04
351.669	3.41
351.881	58.71
352.093	40.28
352.305	36.18
352.517	58.71
352.728	109.91
352.94	52.56
353.152	62.8
353.363	-45.74
353.575	-0.68
353.787	27.99
353.999	-19.11
354.21	52.56
354.422	48.47
354.633	27.99
354.845	48.47
355.057	79.19
355.268	23.89
355.48	54.61
355.692	95.57
355.903	50.52
356.115	-8.87
356.326	-15.02
356.538	93.52
356.749	99.67
356.961	48.47
357.172	126.29
357.384	-31.4
357.595	36.18
357.807	32.08
358.018	32.08
358.23	34.13
358.441	7.51
358.653	7.51
358.864	-21.16
359.075	1.37
359.287	1.37
359.498	64.85
359.709	71
359.921	-43.69
360.132	34.13
360.344	93.52
360.555	19.8
360.766	114
360.977	-29.35
361.189	58.71
361.4	-47.79
361.611	60.76
361.823	34.13
362.034	-0.68
362.245	-82.6
362.456	60.76
362.667	52.56
362.879	3.41
363.09	25.94
363.301	-0.68
363.512	60.76
363.723	-12.97
363.935	32.08
364.146	50.52
364.357	27.99
364.568	27.99
364.779	-12.97
364.99	40.28
365.201	7.51
365.412	32.08
365.623	-45.74
365.834	146.77
366.045	-4.78
366.256	68.95
366.467	-21.16
366.678	36.18
366.889	25.94
367.1	1.37
367.311	56.66
367.522	52.56
367.733	-33.45
367.944	11.61
368.155	25.94
368.366	146.77
368.577	15.7
368.788	81.24
368.999	-53.93
369.209	9.56
369.42	122.2
369.631	128.34
369.842	-94.89
370.053	19.8
370.264	32.08
370.474	15.7
370.685	-10.92
370.896	-47.79
371.107	44.37
371.317	19.8
371.528	87.38
371.739	42.32
371.95	19.8
372.16	23.89
372.371	-90.79
372.582	34.13
372.792	32.08
373.003	32.08
373.214	3.41
373.424	40.28
373.635	-15.02
373.846	60.76
374.056	103.76
374.267	38.23
374.477	58.71
374.688	-29.35
374.898	25.94
375.109	13.65
375.319	91.48
375.53	60.76
375.74	87.38
375.951	-29.35
376.161	23.89
376.372	189.78
376.582	97.62
376.793	60.76
377.003	7.51
377.214	34.13
377.424	-17.07
377.635	42.32
377.845	71
378.055	34.13
378.266	-19.11
378.476	34.13
378.686	36.18
378.897	32.08
379.107	7.51
379.317	48.47
379.528	-55.98
379.738	17.75
379.948	23.89
380.158	60.76
380.369	97.62
380.579	15.7
380.789	56.66
380.999	40.28
381.21	83.28
381.42	77.14
381.63	25.94
381.84	15.7
382.05	19.8
382.261	62.8
382.471	62.8
382.681	-21.16
382.891	68.95
383.101	56.66
383.311	-15.02
383.521	-8.87
383.731	73.04
383.941	17.75
384.151	17.75
384.361	50.52
384.571	58.71
384.781	56.66
384.991	50.52
385.201	81.24
385.411	-31.4
385.621	15.7
385.831	48.47
386.041	81.24
386.251	42.32
386.461	40.28
386.671	79.19
386.881	32.08
387.091	46.42
387.301	66.9
387.511	42.32
387.72	50.52
387.93	42.32
388.14	68.95
388.35	3.41
388.56	25.94
388.769	32.08
388.979	11.61
389.189	64.85
389.399	27.99
389.609	64.85
389.818	-6.83
390.028	15.7
390.238	56.66
390.447	46.42
390.657	75.09
390.867	-12.97
391.076	40.28
391.286	-17.07
391.496	48.47
391.705	122.2
391.915	81.24
392.125	40.28
392.334	56.66
392.544	19.8
392.753	13.65
392.963	-21.16
393.172	81.24
393.382	19.8
393.591	60.76
393.801	44.37
394.01	75.09
394.22	9.56
394.429	114
394.639	56.66
394.848	101.72
395.058	-4.78
395.267	17.75
395.477	66.9
395.686	58.71
395.895	97.62
396.105	114
396.314	75.09
396.524	73.04
396.733	103.76
396.942	64.85
397.152	73.04
397.361	142.68
397.57	89.43
397.78	9.56
397.989	50.52
398.198	71
398.407	-23.21
398.617	60.76
398.826	52.56
399.035	60.76
399.244	89.43
399.453	48.47
399.663	-23.21
399.872	124.24
400.081	134.48
400.29	142.68
400.499	81.24
400.708	73.04
400.917	52.56
401.127	52.56
401.336	58.71
401.545	93.52
401.754	116.05
401.963	77.14
402.172	32.08
402.381	62.8
402.59	81.24
402.799	66.9
403.008	68.95
403.217	114
403.426	134.48
403.635	-58.03
403.844	93.52
404.053	56.66
404.262	87.38
404.471	122.2
404.68	126.29
404.888	116.05
405.097	34.13
405.306	122.2
405.515	75.09
405.724	150.87
405.933	114
406.142	91.48
406.35	97.62
406.559	146.77
406.768	73.04
406.977	171.35
407.185	75.09
407.394	183.63
407.603	114
407.812	91.48
408.02	126.29
408.229	134.48
408.438	148.82
408.646	152.91
408.855	114
409.064	206.16
409.272	157.01
409.481	187.73
409.69	146.77
409.898	220.5
410.107	240.98
410.315	238.93
410.524	255.31
410.733	212.31
410.941	238.93
411.15	279.89
411.358	265.55
411.567	279.89
411.775	277.84
411.984	306.51
412.192	343.38
412.401	335.18
412.609	308.56
412.818	269.65
413.026	370
413.234	372.05
413.443	353.62
413.651	339.28
413.86	427.34
414.068	433.49
414.276	359.76
414.485	425.29
414.693	488.78
414.901	408.91
415.11	437.58
415.318	482.64
415.526	486.73
415.734	478.54
415.943	580.94
416.151	552.27
416.359	544.08
416.567	484.69
416.776	597.32
416.984	726.35
417.192	705.87
417.4	687.43
417.608	654.67
417.817	630.09
418.025	763.21
418.233	820.55
418.441	765.26
418.649	793.93
418.857	787.79
419.065	900.42
419.273	845.13
419.481	873.8
419.689	1019.21
419.897	1076.55
420.105	1015.11
420.313	1056.07
420.521	1072.45
420.729	1228.1
420.937	1109.32
421.145	1207.62
421.353	1230.15
421.561	1326.4
421.769	1318.21
421.977	1404.22
422.185	1529.15
422.393	1375.55
422.601	1576.25
422.809	1568.06
423.017	1584.45
423.224	1590.59
423.432	1752.38
423.64	1664.32
423.848	1858.87
424.056	1846.59
424.263	1830.2
424.471	1887.54
424.679	1928.5
424.887	2049.33
425.094	2198.84
425.302	2211.12
425.51	2254.13
425.718	2276.66
425.925	2321.71
426.133	2327.86
426.341	2604.33
426.548	2735.4
426.756	2610.48
426.964	2708.78
427.171	2764.08
427.379	2901.29
427.586	2977.06
427.794	3142.95
428.001	3177.76
428.209	3376.42
428.417	3300.64
428.624	3542.3
428.832	3472.67
429.039	3431.71
429.247	3530.02
429.454	3810.59
429.662	4066.58
429.869	3822.88
430.076	4089.11
430.284	3974.42
430.491	4168.98
430.699	4355.35
430.906	4295.96
431.114	4347.15
431.321	4717.84
431.528	4711.69
431.736	4908.3
431.943	5205.25
432.15	4951.31
432.358	5061.9
432.565	5526.78
432.772	5211.4
432.979	5713.15
433.187	5655.81
433.394	5768.45
433.601	6110.46
433.808	6245.62
434.016	6051.06
434.223	6622.45
434.43	6757.61
434.637	6788.33
434.844	7036.14
435.052	7019.75
435.259	7206.12
435.466	7103.72
435.673	7298.28
435.88	7650.53
436.087	8035.55
436.294	8105.18
436.501	7793.89
436.708	8129.75
436.915	8250.58
437.122	8492.24
437.329	8361.17
437.537	8783.06
437.743	8944.84
437.95	8805.58
438.157	9290.95
438.364	9587.91
438.571	9710.79
438.778	9635.01
438.985	10437.81
439.192	10415.29
439.399	10497.21
439.606	10151.1
439.813	10964.14
440.02	11502.76
440.227	11101.36
440.433	11275.43
440.64	11463.85
440.847	11496.61
441.054	11754.66
441.261	12385.43
441.467	12465.3
441.674	12526.74
441.881	13286.54
442.088	12797.07
442.294	12698.77
442.501	13415.56
442.708	13571.21
442.914	13929.6
443.121	14550.14
443.328	14367.87
443.534	15324.27
443.741	14877.81
443.948	14500.98
444.154	15531.11
444.361	15635.56
444.568	15651.94
444.774	15520.87
444.981	15813.73
445.187	16192.61
445.394	16987.22
445.6	16929.87
445.807	18394.17
446.013	17685.58
446.22	17785.93
446.426	18617.4
446.633	18406.46
446.839	19297.33
447.046	18789.43
447.252	19350.57
447.459	19471.4
447.665	19340.33
447.871	20581.4
448.078	21183.51
448.284	20319.26
448.491	20882.45
448.697	21685.26
448.903	22264.83
449.11	21931.01
449.316	21636.11
449.522	22213.63
449.728	22682.62
449.935	22844.41
450.141	22864.89
450.347	23454.7
450.553	22338.56
450.76	23172.08
450.966	23577.58
451.172	23364.59
451.378	24169.44
451.584	23706.6
451.791	24392.67
451.997	23854.06
452.203	24503.26
452.409	24658.91
452.615	24888.28
452.821	23430.13
453.027	23124.98
453.233	24536.03
453.44	23780.33
453.646	23927.78
453.852	24151.01
454.058	24626.14
454.264	23696.36
454.47	24101.86
454.676	23583.73
454.882	24327.14
455.088	22250.5
455.294	22506.49
455.5	22701.05
455.705	23215.09
455.911	22361.09
456.117	21636.11
456.323	21416.97
456.529	20538.4
456.735	21484.56
456.941	20687.9
457.147	20266.02
457.352	19858.47
457.558	19561.51
457.764	19711.02
457.97	19467.31
458.176	18922.55
458.381	18963.51
458.587	18000.96
458.793	17931.33
458.999	17024.08
459.204	18439.23
459.41	17714.25
459.616	16632.92
459.821	16596.06
460.027	16577.62
460.233	16387.16
460.438	15574.12
460.644	15371.37
460.85	14941.3
461.055	14720.12
461.261	14804.08
461.466	13452.42
461.672	13216.91
461.878	14195.84
462.083	13286.54
462.289	12788.88
462.494	12700.82
462.7	12270.75
462.905	11902.11
463.111	12291.23
463.316	12350.62
463.522	11963.55
463.727	12213.4
463.932	12178.59
464.138	12065.95
464.343	11857.06
464.549	11766.95
464.754	12090.52
464.959	11803.81
465.165	11730.08
465.37	11300.01
465.575	10955.95
465.781	11474.09
465.986	11455.65
466.191	11230.38
466.397	10822.83
466.602	10308.79
466.807	10925.23
467.012	11001.01
467.218	10874.03
467.423	10615.99
467.628	10667.19
467.833	10980.53
