Data from USB4F104151__82__14-43-28-076.txt Node

Date: Thu Mar 13 14:43:28 EDT 2025
User: louis
Spectrometer: USB4F10415
Trigger mode: 4
Integration Time (sec): 2.000000E-2
Scans to average: 1
Electric dark correction enabled: true
Nonlinearity correction enabled: false
Boxcar width: 0
XAxis mode: Wavelengths
Number of Pixels in Spectrum: 3648
>>>>>Begin Spectral Data<<<<<
178.204	-62.63
178.424	-62.63
178.644	-62.63
178.864	-119.98
179.084	-119.98
179.304	43.86
179.524	-21.67
179.744	-3.24
179.964	50
180.184	-70.83
180.404	50
180.624	-9.39
180.844	11.09
181.064	-60.59
181.283	35.67
181.503	-48.3
181.723	23.38
181.943	7
182.163	43.86
182.383	19.29
182.602	45.91
182.822	101.2
183.042	109.4
183.262	7
183.482	4.95
183.701	0.85
183.921	-1.19
184.141	31.57
184.361	115.54
184.58	27.48
184.8	-27.82
185.02	-1.19
185.239	60.24
185.459	7
185.679	45.91
185.898	-5.29
186.118	35.67
186.338	56.15
186.557	2.9
186.777	-13.48
186.997	2.9
187.216	-21.67
187.436	133.97
187.655	74.58
187.875	15.19
188.095	29.52
188.314	45.91
188.534	62.29
188.753	21.33
188.973	-5.29
189.192	60.24
189.412	43.86
189.631	-1.19
189.851	-5.29
190.07	2.9
190.29	7
190.509	-13.48
190.729	43.86
190.948	27.48
191.168	150.36
191.387	113.49
191.607	2.9
191.826	15.19
192.045	56.15
192.265	31.57
192.484	84.82
192.704	45.91
192.923	-17.58
193.142	160.59
193.362	47.96
193.581	70.48
193.8	52.05
194.02	113.49
194.239	37.72
194.458	4.95
194.678	-40.11
194.897	123.73
195.116	-19.63
195.335	76.63
195.555	39.76
195.774	27.48
195.993	-1.19
196.212	90.96
196.432	39.76
196.651	27.48
196.87	-36.01
197.089	56.15
197.308	86.87
197.528	54.1
197.747	47.96
197.966	17.24
198.185	47.96
198.404	29.52
198.623	125.78
198.842	43.86
199.062	43.86
199.281	62.29
199.5	19.29
199.719	47.96
199.938	54.1
200.157	43.86
200.376	80.72
200.595	64.34
200.814	76.63
201.033	43.86
201.252	31.57
201.471	52.05
201.69	11.09
201.909	74.58
202.128	66.39
202.347	78.68
202.566	70.48
202.785	2.9
203.004	-25.77
203.223	2.9
203.442	15.19
203.661	33.62
203.879	76.63
204.098	35.67
204.317	17.24
204.536	95.06
204.755	-29.87
204.974	-11.43
205.193	105.3
205.411	191.31
205.63	93.01
205.849	-15.53
206.068	64.34
206.287	21.33
206.505	93.01
206.724	11.09
206.943	62.29
207.162	7
207.381	76.63
207.599	54.1
207.818	60.24
208.037	56.15
208.255	-27.82
208.474	23.38
208.693	125.78
208.911	62.29
209.13	66.39
209.349	23.38
209.567	23.38
209.786	125.78
210.005	43.86
210.223	37.72
210.442	-3.24
210.661	27.48
210.879	31.57
211.098	-19.63
211.316	39.76
211.535	129.88
211.753	39.76
211.972	19.29
212.191	43.86
212.409	35.67
212.628	60.24
212.846	-15.53
213.065	39.76
213.283	45.91
213.502	31.57
213.72	-3.24
213.938	17.24
214.157	54.1
214.375	47.96
214.594	2.9
214.812	88.92
215.031	17.24
215.249	-36.01
215.467	43.86
215.686	70.48
215.904	41.81
216.122	50
216.341	11.09
216.559	7
216.778	54.1
216.996	27.48
217.214	76.63
217.432	11.09
217.651	39.76
217.869	101.2
218.087	-3.24
218.306	35.67
218.524	76.63
218.742	-79.02
218.96	56.15
219.179	-40.11
219.397	11.09
219.615	113.49
219.833	66.39
220.051	-56.49
220.27	103.25
220.488	35.67
220.706	78.68
220.924	68.44
221.142	-5.29
221.36	-21.67
221.578	37.72
221.796	37.72
222.015	21.33
222.233	54.1
222.451	88.92
222.669	45.91
222.887	101.2
223.105	-11.43
223.323	97.11
223.541	-3.24
223.759	72.53
223.977	80.72
224.195	66.39
224.413	76.63
224.631	39.76
224.849	43.86
225.067	-5.29
225.285	52.05
225.503	15.19
225.721	31.57
225.939	13.14
226.157	-21.67
226.375	129.88
226.592	-5.29
226.81	4.95
227.028	97.11
227.246	54.1
227.464	-44.2
227.682	103.25
227.9	72.53
228.117	47.96
228.335	47.96
228.553	29.52
228.771	37.72
228.989	47.96
229.206	54.1
229.424	95.06
229.642	52.05
229.86	35.67
230.077	62.29
230.295	35.67
230.513	37.72
230.731	47.96
230.948	109.4
231.166	166.74
231.384	13.14
231.601	-79.02
231.819	39.76
232.037	-27.82
232.254	11.09
232.472	52.05
232.689	-33.96
232.907	29.52
233.125	31.57
233.342	43.86
233.56	-11.43
233.777	21.33
233.995	-7.34
234.213	129.88
234.43	78.68
234.648	43.86
234.865	45.91
235.083	84.82
235.3	97.11
235.518	13.14
235.735	43.86
235.953	62.29
236.17	43.86
236.388	68.44
236.605	-21.67
236.822	68.44
237.04	103.25
237.257	43.86
237.475	43.86
237.692	25.43
237.909	7
238.127	15.19
238.344	-5.29
238.562	35.67
238.779	19.29
238.996	43.86
239.214	54.1
239.431	76.63
239.648	-50.35
239.865	52.05
240.083	121.68
240.3	74.58
240.517	27.48
240.735	27.48
240.952	84.82
241.169	88.92
241.386	113.49
241.603	45.91
241.821	-25.77
242.038	60.24
242.255	74.58
242.472	-50.35
242.689	4.95
242.907	84.82
243.124	56.15
243.341	43.86
243.558	21.33
243.775	52.05
243.992	-19.63
244.209	-1.19
244.426	41.81
244.643	35.67
244.86	-13.48
245.078	43.86
245.295	80.72
245.512	-17.58
245.729	76.63
245.946	-11.43
246.163	13.14
246.38	19.29
246.597	-5.29
246.814	64.34
247.031	35.67
247.248	-5.29
247.464	35.67
247.681	17.24
247.898	41.81
248.115	-3.24
248.332	13.14
248.549	70.48
248.766	70.48
248.983	58.2
249.2	68.44
249.417	52.05
249.633	27.48
249.85	78.68
250.067	52.05
250.284	58.2
250.501	76.63
250.717	43.86
250.934	68.44
251.151	13.14
251.368	33.62
251.585	-13.48
251.801	43.86
252.018	70.48
252.235	13.14
252.451	17.24
252.668	68.44
252.885	76.63
253.102	43.86
253.318	11.09
253.535	4.95
253.752	56.15
253.968	76.63
254.185	47.96
254.401	23.38
254.618	2.9
254.835	13.14
255.051	109.4
255.268	101.2
255.484	47.96
255.701	35.67
255.917	2.9
256.134	-1.19
256.351	13.14
256.567	13.14
256.784	117.59
257	-74.92
257.217	70.48
257.433	-33.96
257.65	11.09
257.866	84.82
258.082	27.48
258.299	11.09
258.515	47.96
258.732	-9.39
258.948	54.1
259.165	-7.34
259.381	56.15
259.597	7
259.814	15.19
260.03	21.33
260.246	-9.39
260.463	64.34
260.679	101.2
260.895	62.29
261.112	144.21
261.328	70.48
261.544	35.67
261.761	78.68
261.977	13.14
262.193	35.67
262.409	62.29
262.626	19.29
262.842	7
263.058	45.91
263.274	47.96
263.49	4.95
263.707	101.2
263.923	-1.19
264.139	-9.39
264.355	-9.39
264.571	109.4
264.787	29.52
265.004	101.2
265.22	43.86
265.436	2.9
265.652	50
265.868	76.63
266.084	-13.48
266.3	68.44
266.516	43.86
266.732	52.05
266.948	19.29
267.164	15.19
267.38	62.29
267.596	60.24
267.812	60.24
268.028	60.24
268.244	-1.19
268.46	60.24
268.676	2.9
268.892	27.48
269.108	-44.2
269.324	-13.48
269.54	19.29
269.756	113.49
269.972	-11.43
270.188	47.96
270.403	21.33
270.619	27.48
270.835	13.14
271.051	-79.02
271.267	43.86
271.483	35.67
271.698	68.44
271.914	37.72
272.13	2.9
272.346	23.38
272.562	105.3
272.777	45.91
272.993	11.09
273.209	56.15
273.425	33.62
273.64	60.24
273.856	13.14
274.072	43.86
274.287	-11.43
274.503	27.48
274.719	-17.58
274.934	-9.39
275.15	-11.43
275.366	39.76
275.581	50
275.797	39.76
276.012	19.29
276.228	41.81
276.444	52.05
276.659	88.92
276.875	29.52
277.09	70.48
277.306	43.86
277.521	45.91
277.737	31.57
277.952	93.01
278.168	62.29
278.383	27.48
278.599	68.44
278.814	76.63
279.03	35.67
279.245	66.39
279.461	-3.24
279.676	2.9
279.892	62.29
280.107	19.29
280.322	-15.53
280.538	70.48
280.753	-13.48
280.969	15.19
281.184	52.05
281.399	84.82
281.615	29.52
281.83	19.29
282.045	15.19
282.26	11.09
282.476	25.43
282.691	-5.29
282.906	64.34
283.122	56.15
283.337	19.29
283.552	11.09
283.767	39.76
283.983	131.92
284.198	31.57
284.413	54.1
284.628	13.14
284.843	35.67
285.058	19.29
285.274	9.05
285.489	68.44
285.704	52.05
285.919	2.9
286.134	70.48
286.349	99.16
286.564	70.48
286.779	95.06
286.995	45.91
287.21	-1.19
287.425	101.2
287.64	15.19
287.855	93.01
288.07	-3.24
288.285	7
288.5	70.48
288.715	105.3
288.93	56.15
289.145	56.15
289.36	138.07
289.575	54.1
289.79	88.92
290.004	37.72
290.219	43.86
290.434	52.05
290.649	78.68
290.864	9.05
291.079	31.57
291.294	80.72
291.509	78.68
291.724	19.29
291.938	-5.29
292.153	68.44
292.368	11.09
292.583	64.34
292.798	88.92
293.012	52.05
293.227	27.48
293.442	68.44
293.657	60.24
293.871	56.15
294.086	-5.29
294.301	43.86
294.516	7
294.73	54.1
294.945	-95.4
295.16	7
295.374	56.15
295.589	62.29
295.804	9.05
296.018	86.87
296.233	103.25
296.447	84.82
296.662	-21.67
296.877	84.82
297.091	97.11
297.306	56.15
297.52	2.9
297.735	76.63
297.949	23.38
298.164	43.86
298.378	39.76
298.593	43.86
298.807	11.09
299.022	80.72
299.236	-11.43
299.451	58.2
299.665	58.2
299.88	70.48
300.094	88.92
300.309	27.48
300.523	68.44
300.737	-25.77
300.952	47.96
301.166	60.24
301.381	-1.19
301.595	68.44
301.809	39.76
302.024	78.68
302.238	93.01
302.452	19.29
302.667	35.67
302.881	35.67
303.095	64.34
303.309	74.58
303.524	68.44
303.738	-38.06
303.952	-17.58
304.166	140.12
304.381	29.52
304.595	47.96
304.809	27.48
305.023	33.62
305.237	52.05
305.452	93.01
305.666	115.54
305.88	64.34
306.094	-5.29
306.308	-5.29
306.522	39.76
306.736	45.91
306.95	58.2
307.164	21.33
307.379	66.39
307.593	76.63
307.807	64.34
308.021	11.09
308.235	58.2
308.449	23.38
308.663	47.96
308.877	101.2
309.091	-15.53
309.305	109.4
309.519	-21.67
309.733	76.63
309.947	-76.97
310.161	33.62
310.374	56.15
310.588	101.2
310.802	-3.24
311.016	45.91
311.23	31.57
311.444	56.15
311.658	13.14
311.872	19.29
312.085	119.64
312.299	117.59
312.513	80.72
312.727	-21.67
312.941	33.62
313.154	74.58
313.368	68.44
313.582	117.59
313.796	-5.29
314.009	-17.58
314.223	21.33
314.437	-19.63
314.651	58.2
314.864	68.44
315.078	80.72
315.292	37.72
315.505	33.62
315.719	60.24
315.933	133.97
316.146	41.81
316.36	-13.48
316.573	70.48
316.787	117.59
317.001	45.91
317.214	7
317.428	35.67
317.641	76.63
317.855	99.16
318.068	29.52
318.282	68.44
318.495	109.4
318.709	70.48
318.922	60.24
319.136	95.06
319.349	50
319.563	33.62
319.776	39.76
319.99	43.86
320.203	21.33
320.417	54.1
320.63	76.63
320.843	113.49
321.057	19.29
321.27	95.06
321.483	19.29
321.697	43.86
321.91	41.81
322.124	19.29
322.337	99.16
322.55	35.67
322.763	93.01
322.977	13.14
323.19	2.9
323.403	23.38
323.617	82.77
323.83	27.48
324.043	35.67
324.256	52.05
324.469	68.44
324.683	62.29
324.896	-1.19
325.109	-19.63
325.322	78.68
325.535	21.33
325.748	76.63
325.962	35.67
326.175	39.76
326.388	35.67
326.601	84.82
326.814	27.48
327.027	95.06
327.24	82.77
327.453	2.9
327.666	19.29
327.879	35.67
328.092	68.44
328.305	125.78
328.518	52.05
328.731	68.44
328.944	60.24
329.157	60.24
329.37	29.52
329.583	54.1
329.796	84.82
330.009	13.14
330.222	39.76
330.435	13.14
330.648	76.63
330.861	47.96
331.073	-29.87
331.286	11.09
331.499	43.86
331.712	-11.43
331.925	70.48
332.138	13.14
332.35	19.29
332.563	27.48
332.776	117.59
332.989	70.48
333.202	17.24
333.414	11.09
333.627	84.82
333.84	23.38
334.053	125.78
334.265	47.96
334.478	19.29
334.691	47.96
334.903	-11.43
335.116	101.2
335.329	17.24
335.541	52.05
335.754	136.02
335.966	13.14
336.179	11.09
336.392	19.29
336.604	117.59
336.817	68.44
337.029	56.15
337.242	52.05
337.454	45.91
337.667	56.15
337.88	35.67
338.092	82.77
338.305	27.48
338.517	-46.25
338.729	84.82
338.942	64.34
339.154	52.05
339.367	68.44
339.579	56.15
339.792	4.95
340.004	117.59
340.217	52.05
340.429	35.67
340.641	15.19
340.854	19.29
341.066	60.24
341.278	72.53
341.491	95.06
341.703	-11.43
341.915	47.96
342.128	29.52
342.34	2.9
342.552	52.05
342.764	95.06
342.977	43.86
343.189	62.29
343.401	52.05
343.613	-11.43
343.826	19.29
344.038	27.48
344.25	-9.39
344.462	31.57
344.674	68.44
344.886	68.44
345.099	62.29
345.311	142.16
345.523	117.59
345.735	-19.63
345.947	133.97
346.159	50
346.371	4.95
346.583	35.67
346.795	62.29
347.007	41.81
347.219	90.96
347.431	31.57
347.643	136.02
347.855	11.09
348.067	95.06
348.279	-25.77
348.491	-1.19
348.703	150.36
348.915	86.87
349.127	11.09
349.339	156.5
349.551	35.67
349.763	21.33
349.975	58.2
350.187	74.58
350.399	121.68
350.61	70.48
350.822	25.43
351.034	80.72
351.246	72.53
351.458	127.83
351.669	47.96
351.881	74.58
352.093	23.38
352.305	101.2
352.517	47.96
352.728	60.24
352.94	62.29
353.152	80.72
353.363	70.48
353.575	121.68
353.787	125.78
353.999	76.63
354.21	93.01
354.422	45.91
354.633	74.58
354.845	76.63
355.057	56.15
355.268	93.01
355.48	-3.24
355.692	62.29
355.903	25.43
356.115	-7.34
356.326	31.57
356.538	68.44
356.749	76.63
356.961	86.87
357.172	64.34
357.384	52.05
357.595	123.73
357.807	56.15
358.018	11.09
358.23	37.72
358.441	107.35
358.653	11.09
358.864	68.44
359.075	4.95
359.287	56.15
359.498	56.15
359.709	25.43
359.921	27.48
360.132	-36.01
360.344	52.05
360.555	76.63
360.766	43.86
360.977	76.63
361.189	76.63
361.4	111.44
361.611	43.86
361.823	35.67
362.034	43.86
362.245	17.24
362.456	4.95
362.667	19.29
362.879	70.48
363.09	-13.48
363.301	23.38
363.512	11.09
363.723	7
363.935	33.62
364.146	74.58
364.357	11.09
364.568	60.24
364.779	35.67
364.99	125.78
365.201	2.9
365.412	119.64
365.623	-27.82
365.834	21.33
366.045	93.01
366.256	52.05
366.467	43.86
366.678	52.05
366.889	99.16
367.1	37.72
367.311	84.82
367.522	70.48
367.733	13.14
367.944	-19.63
368.155	72.53
368.366	43.86
368.577	117.59
368.788	47.96
368.999	31.57
369.209	43.86
369.42	103.25
369.631	146.26
369.842	-1.19
370.053	25.43
370.264	47.96
370.474	-38.06
370.685	76.63
370.896	52.05
371.107	80.72
371.317	27.48
371.528	23.38
371.739	60.24
371.95	72.53
372.16	78.68
372.371	41.81
372.582	31.57
372.792	37.72
373.003	78.68
373.214	68.44
373.424	111.44
373.635	72.53
373.846	117.59
374.056	15.19
374.267	93.01
374.477	105.3
374.688	47.96
374.898	101.2
375.109	68.44
375.319	93.01
375.53	93.01
375.74	66.39
375.951	95.06
376.161	31.57
376.372	76.63
376.582	45.91
376.793	-7.34
377.003	13.14
377.214	39.76
377.424	47.96
377.635	62.29
377.845	-13.48
378.055	86.87
378.266	43.86
378.476	125.78
378.686	52.05
378.897	109.4
379.107	27.48
379.317	88.92
379.528	70.48
379.738	154.45
379.948	-19.63
380.158	101.2
380.369	101.2
380.579	74.58
380.789	142.16
380.999	2.9
381.21	90.96
381.42	45.91
381.63	17.24
381.84	144.21
382.05	113.49
382.261	93.01
382.471	170.83
382.681	15.19
382.891	37.72
383.101	111.44
383.311	43.86
383.521	39.76
383.731	80.72
383.941	84.82
384.151	113.49
384.361	62.29
384.571	90.96
384.781	97.11
384.991	68.44
385.201	162.64
385.411	131.92
385.621	76.63
385.831	45.91
386.041	62.29
386.251	62.29
386.461	103.25
386.671	84.82
386.881	-5.29
387.091	19.29
387.301	37.72
387.511	37.72
387.72	111.44
387.93	45.91
388.14	37.72
388.35	-5.29
388.56	19.29
388.769	113.49
388.979	43.86
389.189	50
389.399	29.52
389.609	15.19
389.818	70.48
390.028	21.33
390.238	117.59
390.447	93.01
390.657	52.05
390.867	64.34
391.076	-29.87
391.286	62.29
391.496	136.02
391.705	21.33
391.915	62.29
392.125	101.2
392.334	76.63
392.544	142.16
392.753	58.2
392.963	41.81
393.172	133.97
393.382	7
393.591	119.64
393.801	86.87
394.01	109.4
394.22	97.11
394.429	35.67
394.639	39.76
394.848	125.78
395.058	33.62
395.267	-9.39
395.477	72.53
395.686	68.44
395.895	156.5
396.105	109.4
396.314	33.62
396.524	60.24
396.733	93.01
396.942	121.68
397.152	133.97
397.361	136.02
397.57	117.59
397.78	86.87
397.989	43.86
398.198	101.2
398.407	62.29
398.617	93.01
398.826	162.64
399.035	93.01
399.244	158.55
399.453	191.31
399.663	138.07
399.872	191.31
400.081	127.83
400.29	193.36
400.499	82.77
400.708	90.96
400.917	146.26
401.127	86.87
401.336	86.87
401.545	93.01
401.754	70.48
401.963	95.06
402.172	117.59
402.381	170.83
402.59	105.3
402.799	125.78
403.008	207.7
403.217	99.16
403.426	156.5
403.635	119.64
403.844	121.68
404.053	127.83
404.262	260.95
404.471	142.16
404.68	119.64
404.888	160.59
405.097	197.46
405.306	88.92
405.515	181.07
405.724	195.41
405.933	187.22
406.142	140.12
406.35	219.99
406.559	199.51
406.768	183.12
406.977	219.99
407.185	215.89
407.394	185.17
407.603	179.03
407.812	193.36
408.02	215.89
408.229	209.75
408.438	191.31
408.646	136.02
408.855	262.99
409.064	316.24
409.272	279.38
409.481	299.86
409.69	260.95
409.898	273.23
410.107	306
410.315	273.23
410.524	346.96
410.733	322.38
410.941	267.09
411.15	379.73
411.358	408.4
411.567	355.15
411.775	355.15
411.984	439.12
412.192	367.44
412.401	389.97
412.609	441.17
412.818	428.88
413.026	422.73
413.234	518.99
413.443	492.37
413.651	379.73
413.86	498.51
414.068	619.34
414.276	566.09
414.485	539.47
414.693	527.18
414.901	668.49
415.11	676.68
415.318	643.92
415.526	674.64
415.734	674.64
415.943	830.28
416.151	756.55
416.359	772.94
416.567	815.94
416.776	895.82
416.984	832.33
417.192	936.78
417.4	912.2
417.608	963.4
417.817	965.45
418.025	1157.96
418.233	1067.85
418.441	1026.89
418.649	1133.38
418.857	1248.07
419.065	1223.49
419.273	1176.39
419.481	1340.22
419.689	1252.16
419.897	1334.08
420.105	1354.56
420.313	1416
420.521	1456.96
420.729	1545.02
420.937	1514.3
421.145	1618.75
421.353	1749.82
421.561	1854.27
421.769	1813.31
421.977	1807.16
422.185	1915.7
422.393	2075.45
422.601	2124.6
422.809	2128.69
423.017	2132.79
423.224	2151.22
423.432	2304.82
423.64	2188.08
423.848	2626.35
424.056	2362.16
424.263	2593.58
424.471	2601.77
424.679	2708.27
424.887	2763.56
425.094	2775.85
425.302	2915.11
425.51	2820.91
425.718	3058.47
425.925	3255.08
426.133	3310.37
426.341	3334.95
426.548	3398.43
426.756	3552.03
426.964	3570.46
427.171	3791.64
427.379	3943.19
427.586	3984.15
427.794	4084.5
428.001	4305.68
428.209	4549.39
428.417	4326.16
428.624	4676.37
428.832	4666.13
429.039	4766.48
429.247	4610.83
429.454	5081.86
429.662	5540.61
429.869	5081.86
430.076	5460.74
430.284	5313.28
430.491	5630.72
430.699	5864.19
430.906	6015.74
431.114	5837.56
431.321	6271.73
431.528	6417.14
431.736	6728.43
431.943	6970.09
432.15	6789.87
432.358	6851.31
432.565	7193.32
432.772	7103.21
432.979	7441.12
433.187	7713.5
433.394	7695.07
433.601	8213.21
433.808	8342.23
434.016	8202.97
434.223	8571.6
434.43	9169.61
434.637	8927.95
434.844	9589.44
435.052	9509.57
435.259	9272.01
435.466	9616.07
435.673	9468.61
435.88	10183.35
436.087	10674.87
436.294	10730.16
436.501	10490.55
436.708	10652.34
436.915	11123.37
437.122	11594.4
437.329	11451.05
437.537	11606.69
437.743	11997.85
437.95	12040.86
438.157	12774.03
438.364	12982.93
438.571	12657.3
438.778	13005.45
438.985	14199.42
439.192	13666.95
439.399	14183.04
439.606	13666.95
439.813	14490.23
440.02	15325.8
440.227	15164.01
440.433	14908.02
440.64	15676.01
440.847	15215.21
441.054	15602.28
441.261	16937.55
441.467	16472.67
441.674	16710.23
441.881	17470.03
442.088	17470.03
442.294	17259.09
442.501	17701.45
442.708	18020.93
442.914	18700.86
443.121	19706.41
443.328	19397.17
443.534	20212.26
443.741	19829.29
443.948	19405.36
444.154	20918.81
444.361	20879.89
444.568	20779.54
444.774	20879.89
444.981	21295.63
445.187	21770.76
445.394	22555.13
445.6	22460.93
445.807	24383.97
446.013	23570.93
446.22	23929.32
446.426	24736.22
446.633	25033.18
446.839	25911.75
447.046	24934.87
447.252	26022.34
447.459	26177.99
447.665	26231.24
447.871	27228.6
448.078	28457.38
448.284	27036.09
448.491	28121.51
448.697	28903.84
448.903	29618.58
449.11	29946.25
449.316	29034.91
449.522	29606.29
449.728	30439.81
449.935	30718.34
450.141	30650.75
450.347	31220.09
450.553	30243.21
450.76	30841.21
450.966	31797.62
451.172	31385.97
451.378	32483.69
451.584	31691.12
451.791	32375.14
451.997	32596.32
452.203	32829.79
452.409	32872.8
452.615	32936.29
452.821	31457.65
453.027	31156.6
453.233	33214.81
453.44	31822.19
453.646	32252.27
453.852	32360.81
454.058	32258.41
454.264	31867.25
454.47	32514.41
454.676	31908.21
454.882	32868.7
455.088	29862.29
455.294	30601.6
455.5	30800.26
455.705	31291.77
455.911	29979.02
456.117	29706.64
456.323	29288.85
456.529	27789.74
456.735	28916.12
456.941	27980.2
457.147	27652.53
457.352	27025.85
457.558	26188.23
457.764	26790.33
457.97	26206.66
458.176	25639.37
458.381	25772.49
458.587	24590.81
458.793	24467.94
458.999	23050.74
459.204	25082.33
459.41	24295.91
459.616	22551.04
459.821	22505.98
460.027	22456.83
460.233	22006.28
460.438	20941.33
460.644	21400.08
460.85	20240.93
461.055	19853.86
461.261	19796.52
461.466	18588.22
461.672	17943.11
461.878	19286.58
462.083	17857.09
462.289	17572.43
462.494	17433.16
462.7	16415.32
462.905	16235.1
463.111	16786.01
463.316	16775.77
463.522	16593.5
463.727	16530.01
463.932	16360.03
464.138	16306.78
464.343	16241.25
464.549	15864.42
464.754	16177.76
464.959	16454.23
465.165	15784.55
465.37	15575.66
465.575	14979.7
465.781	15645.29
465.986	15698.53
466.191	15039.09
466.397	14721.65
466.602	13970.05
466.807	14561.91
467.012	14652.02
467.218	14664.31
467.423	14340.73
467.628	14445.18
467.833	14971.5
468.038	14328.44
