Data from USB4F104151__114__14-43-52-590.txt Node

Date: Thu Mar 13 14:43:52 EDT 2025
User: louis
Spectrometer: USB4F10415
Trigger mode: 4
Integration Time (sec): 2.000000E-2
Scans to average: 1
Electric dark correction enabled: true
Nonlinearity correction enabled: false
Boxcar width: 0
XAxis mode: Wavelengths
Number of Pixels in Spectrum: 3648
>>>>>Begin Spectral Data<<<<<
178.204	-166.4
178.424	-166.4
178.644	-166.4
178.864	-102.91
179.084	-78.33
179.304	36.35
179.524	30.21
179.744	1.54
179.964	-16.9
180.184	3.58
180.404	38.4
180.624	-18.94
180.844	5.63
181.064	-94.72
181.283	58.88
181.503	-70.14
181.723	26.11
181.943	-57.86
182.163	42.5
182.383	17.92
182.602	99.84
182.822	34.3
183.042	83.45
183.262	54.78
183.482	-6.66
183.701	56.83
183.921	50.69
184.141	-8.7
184.361	75.26
184.58	-18.94
184.8	5.63
185.02	-10.75
185.239	32.26
185.459	97.79
185.679	50.69
185.898	-2.56
186.118	91.65
186.338	-10.75
186.557	9.73
186.777	-20.99
186.997	24.06
187.216	11.78
187.436	69.12
187.655	5.63
187.875	-39.42
188.095	67.07
188.314	50.69
188.534	44.54
188.753	-37.38
188.973	-55.81
189.192	-8.7
189.412	7.68
189.631	36.35
189.851	38.4
190.07	108.03
190.29	-55.81
190.509	-12.8
190.729	46.59
190.948	40.45
191.168	91.65
191.387	-29.18
191.607	26.11
191.826	48.64
192.045	-39.42
192.265	15.87
192.484	36.35
192.704	83.45
192.923	3.58
193.142	108.03
193.362	91.65
193.581	9.73
193.8	83.45
194.02	17.92
194.239	73.21
194.458	3.58
194.678	-10.75
194.897	42.5
195.116	-10.75
195.335	17.92
195.555	13.82
195.774	11.78
195.993	56.83
196.212	-61.95
196.432	22.02
196.651	40.45
196.87	46.59
197.089	50.69
197.308	60.93
197.528	60.93
197.747	-6.66
197.966	-12.8
198.185	-23.04
198.404	-31.23
198.623	32.26
198.842	-29.18
199.062	128.51
199.281	58.88
199.5	7.68
199.719	9.73
199.938	-12.8
200.157	52.74
200.376	11.78
200.595	34.3
200.814	38.4
201.033	9.73
201.252	73.21
201.471	-31.23
201.69	67.07
201.909	83.45
202.128	69.12
202.347	-18.94
202.566	9.73
202.785	26.11
203.004	-14.85
203.223	134.65
203.442	126.46
203.661	22.02
203.879	26.11
204.098	42.5
204.317	77.31
204.536	17.92
204.755	101.89
204.974	97.79
205.193	40.45
205.411	93.69
205.63	52.74
205.849	40.45
206.068	-2.56
206.287	-31.23
206.505	36.35
206.724	9.73
206.943	58.88
207.162	28.16
207.381	30.21
207.599	73.21
207.818	11.78
208.037	7.68
208.255	-14.85
208.474	9.73
208.693	1.54
208.911	30.21
209.13	85.5
209.349	-12.8
209.567	36.35
209.786	28.16
210.005	91.65
210.223	3.58
210.442	-25.09
210.661	93.69
210.879	-39.42
211.098	34.3
211.316	7.68
211.535	-8.7
211.753	-31.23
211.972	97.79
212.191	-4.61
212.409	34.3
212.628	112.13
212.846	108.03
213.065	58.88
213.283	9.73
213.502	58.88
213.72	-37.38
213.938	7.68
214.157	75.26
214.375	-10.75
214.594	28.16
214.812	91.65
215.031	28.16
215.249	-6.66
215.467	58.88
215.686	-23.04
215.904	48.64
216.122	1.54
216.341	52.74
216.559	-72.19
216.778	75.26
216.996	97.79
217.214	-0.51
217.432	17.92
217.651	17.92
217.869	17.92
218.087	42.5
218.306	11.78
218.524	32.26
218.742	-39.42
218.96	69.12
219.179	-35.33
219.397	-14.85
219.615	40.45
219.833	-70.14
220.051	19.97
220.27	50.69
220.488	36.35
220.706	-12.8
220.924	44.54
221.142	-43.52
221.36	103.93
221.578	58.88
221.796	58.88
222.015	75.26
222.233	58.88
222.451	1.54
222.669	34.3
222.887	101.89
223.105	19.97
223.323	-6.66
223.541	77.31
223.759	19.97
223.977	-55.81
224.195	38.4
224.413	40.45
224.631	28.16
224.849	-2.56
225.067	42.5
225.285	83.45
225.503	46.59
225.721	13.82
225.939	11.78
226.157	58.88
226.375	34.3
226.592	19.97
226.81	1.54
227.028	32.26
227.246	9.73
227.464	42.5
227.682	13.82
227.9	26.11
228.117	50.69
228.335	48.64
228.553	-31.23
228.771	19.97
228.989	34.3
229.206	52.74
229.424	-74.24
229.642	60.93
229.86	69.12
230.077	-33.28
230.295	-27.14
230.513	30.21
230.731	134.65
230.948	67.07
231.166	91.65
231.384	50.69
231.601	-6.66
231.819	48.64
232.037	44.54
232.254	9.73
232.472	30.21
232.689	-8.7
232.907	17.92
233.125	-29.18
233.342	-35.33
233.56	-12.8
233.777	9.73
233.995	77.31
234.213	-31.23
234.43	-4.61
234.648	58.88
234.865	-29.18
235.083	38.4
235.3	13.82
235.518	46.59
235.735	52.74
235.953	62.98
236.17	-27.14
236.388	-86.53
236.605	17.92
236.822	83.45
237.04	13.82
237.257	58.88
237.475	11.78
237.692	77.31
237.909	77.31
238.127	17.92
238.344	7.68
238.562	11.78
238.779	-45.57
238.996	-59.9
239.214	7.68
239.431	79.36
239.648	7.68
239.865	52.74
240.083	-12.8
240.3	54.78
240.517	-39.42
240.735	26.11
240.952	-0.51
241.169	67.07
241.386	-37.38
241.603	91.65
241.821	11.78
242.038	17.92
242.255	69.12
242.472	-23.04
242.689	54.78
242.907	67.07
243.124	38.4
243.341	9.73
243.558	-16.9
243.775	17.92
243.992	-55.81
244.209	-14.85
244.426	67.07
244.643	75.26
244.86	-43.52
245.078	44.54
245.295	-45.57
245.512	65.02
245.729	-31.23
245.946	28.16
246.163	17.92
246.38	30.21
246.597	-2.56
246.814	42.5
247.031	-23.04
247.248	-14.85
247.464	-18.94
247.681	13.82
247.898	-2.56
248.115	42.5
248.332	-66.05
248.549	58.88
248.766	91.65
248.983	91.65
249.2	67.07
249.417	71.17
249.633	3.58
249.85	93.69
250.067	46.59
250.284	71.17
250.501	77.31
250.717	46.59
250.934	-45.57
251.151	34.3
251.368	1.54
251.585	5.63
251.801	3.58
252.018	-39.42
252.235	67.07
252.451	1.54
252.668	-31.23
252.885	-12.8
253.102	-14.85
253.318	-2.56
253.535	69.12
253.752	-4.61
253.968	1.54
254.185	-14.85
254.401	-53.76
254.618	36.35
254.835	-31.23
255.051	85.5
255.268	-31.23
255.484	54.78
255.701	-0.51
255.917	83.45
256.134	-66.05
256.351	-14.85
256.567	-47.62
256.784	116.22
257	-61.95
257.217	15.87
257.433	65.02
257.65	112.13
257.866	67.07
258.082	11.78
258.299	-12.8
258.515	34.3
258.732	44.54
258.948	-100.86
259.165	67.07
259.381	7.68
259.597	50.69
259.814	19.97
260.03	5.63
260.246	42.5
260.463	17.92
260.679	-4.61
260.895	58.88
261.112	46.59
261.328	1.54
261.544	-23.04
261.761	99.84
261.977	1.54
262.193	36.35
262.409	3.58
262.626	54.78
262.842	67.07
263.058	-61.95
263.274	34.3
263.49	3.58
263.707	17.92
263.923	-8.7
264.139	-43.52
264.355	67.07
264.571	93.69
264.787	62.98
265.004	50.69
265.22	36.35
265.436	-6.66
265.652	-29.18
265.868	71.17
266.084	-64
266.3	75.26
266.516	17.92
266.732	28.16
266.948	1.54
267.164	-2.56
267.38	17.92
267.596	58.88
267.812	105.98
268.028	62.98
268.244	-4.61
268.46	9.73
268.676	67.07
268.892	26.11
269.108	-55.81
269.324	3.58
269.54	-31.23
269.756	-4.61
269.972	-76.29
270.188	-6.66
270.403	-10.75
270.619	-2.56
270.835	17.92
271.051	22.02
271.267	38.4
271.483	1.54
271.698	116.22
271.914	-12.8
272.13	9.73
272.346	42.5
272.562	24.06
272.777	58.88
272.993	26.11
273.209	3.58
273.425	34.3
273.64	-4.61
273.856	3.58
274.072	19.97
274.287	-10.75
274.503	36.35
274.719	52.74
274.934	-14.85
275.15	60.93
275.366	34.3
275.581	1.54
275.797	44.54
276.012	1.54
276.228	79.36
276.444	46.59
276.659	28.16
276.875	-49.66
277.09	30.21
277.306	15.87
277.521	54.78
277.737	75.26
277.952	56.83
278.168	19.97
278.383	-61.95
278.599	17.92
278.814	62.98
279.03	56.83
279.245	60.93
279.461	3.58
279.676	38.4
279.892	34.3
280.107	19.97
280.322	77.31
280.538	75.26
280.753	-6.66
280.969	44.54
281.184	-55.81
281.399	83.45
281.615	30.21
281.83	22.02
282.045	17.92
282.26	38.4
282.476	1.54
282.691	58.88
282.906	110.08
283.122	-12.8
283.337	26.11
283.552	17.92
283.767	-8.7
283.983	93.69
284.198	3.58
284.413	-14.85
284.628	13.82
284.843	34.3
285.058	-23.04
285.274	75.26
285.489	9.73
285.704	69.12
285.919	-33.28
286.134	-39.42
286.349	-2.56
286.564	26.11
286.779	-31.23
286.995	-10.75
287.21	5.63
287.425	9.73
287.64	19.97
287.855	-14.85
288.07	-20.99
288.285	42.5
288.5	42.5
288.715	50.69
288.93	9.73
289.145	-23.04
289.36	54.78
289.575	17.92
289.79	75.26
290.004	52.74
290.219	38.4
290.434	50.69
290.649	32.26
290.864	9.73
291.079	34.3
291.294	9.73
291.509	46.59
291.724	19.97
291.938	1.54
292.153	-6.66
292.368	-2.56
292.583	60.93
292.798	30.21
293.012	83.45
293.227	-64
293.442	83.45
293.657	17.92
293.871	65.02
294.086	-14.85
294.301	124.41
294.516	15.87
294.73	1.54
294.945	-4.61
295.16	50.69
295.374	30.21
295.589	-47.62
295.804	3.58
296.018	42.5
296.233	22.02
296.447	1.54
296.662	-6.66
296.877	42.5
297.091	79.36
297.306	32.26
297.52	22.02
297.735	17.92
297.949	1.54
298.164	34.3
298.378	-8.7
298.593	28.16
298.807	-23.04
299.022	26.11
299.236	99.84
299.451	-6.66
299.665	54.78
299.88	34.3
300.094	52.74
300.309	58.88
300.523	-25.09
300.737	-10.75
300.952	77.31
301.166	44.54
301.381	30.21
301.595	34.3
301.809	30.21
302.024	3.58
302.238	-6.66
302.452	-12.8
302.667	-4.61
302.881	81.41
303.095	34.3
303.309	75.26
303.524	38.4
303.738	-47.62
303.952	26.11
304.166	69.12
304.381	-27.14
304.595	60.93
304.809	46.59
305.023	3.58
305.237	46.59
305.452	42.5
305.666	50.69
305.88	52.74
306.094	58.88
306.308	-12.8
306.522	62.98
306.736	114.17
306.95	44.54
307.164	-55.81
307.379	22.02
307.593	26.11
307.807	67.07
308.021	-8.7
308.235	60.93
308.449	-29.18
308.663	38.4
308.877	67.07
309.091	73.21
309.305	46.59
309.519	13.82
309.733	9.73
309.947	-27.14
310.161	11.78
310.374	101.89
310.588	81.41
310.802	-51.71
311.016	52.74
311.23	34.3
311.444	71.17
311.658	71.17
311.872	-25.09
312.085	9.73
312.299	3.58
312.513	1.54
312.727	87.55
312.941	19.97
313.154	5.63
313.368	95.74
313.582	34.3
313.796	58.88
314.009	3.58
314.223	26.11
314.437	32.26
314.651	-10.75
314.864	60.93
315.078	9.73
315.292	26.11
315.505	9.73
315.719	46.59
315.933	3.58
316.146	17.92
316.36	28.16
316.573	114.17
316.787	65.02
317.001	77.31
317.214	52.74
317.428	50.69
317.641	-55.81
317.855	22.02
318.068	-10.75
318.282	22.02
318.495	89.6
318.709	108.03
318.922	-10.75
319.136	83.45
319.349	17.92
319.563	40.45
319.776	69.12
319.99	62.98
320.203	-2.56
320.417	-14.85
320.63	52.74
320.843	9.73
321.057	-12.8
321.27	34.3
321.483	50.69
321.697	17.92
321.91	13.82
322.124	9.73
322.337	-23.04
322.55	17.92
322.763	28.16
322.977	44.54
323.19	44.54
323.403	-47.62
323.617	-12.8
323.83	75.26
324.043	34.3
324.256	58.88
324.469	-10.75
324.683	110.08
324.896	38.4
325.109	26.11
325.322	9.73
325.535	124.41
325.748	48.64
325.962	-12.8
326.175	36.35
326.388	-6.66
326.601	22.02
326.814	26.11
327.027	44.54
327.24	99.84
327.453	36.35
327.666	52.74
327.879	34.3
328.092	69.12
328.305	1.54
328.518	77.31
328.731	-6.66
328.944	34.3
329.157	38.4
329.37	30.21
329.583	95.74
329.796	22.02
330.009	-14.85
330.222	93.69
330.435	58.88
330.648	42.5
330.861	24.06
331.073	26.11
331.286	13.82
331.499	58.88
331.712	-0.51
331.925	108.03
332.138	40.45
332.35	56.83
332.563	-23.04
332.776	56.83
332.989	-29.18
333.202	-37.38
333.414	-4.61
333.627	85.5
333.84	34.3
334.053	67.07
334.265	-16.9
334.478	-16.9
334.691	101.89
334.903	101.89
335.116	-14.85
335.329	83.45
335.541	17.92
335.754	32.26
335.966	19.97
336.179	54.78
336.392	-6.66
336.604	-10.75
336.817	83.45
337.029	19.97
337.242	50.69
337.454	91.65
337.667	30.21
337.88	99.84
338.092	91.65
338.305	-4.61
338.517	-47.62
338.729	93.69
338.942	60.93
339.154	67.07
339.367	-12.8
339.579	17.92
339.792	19.97
340.004	9.73
340.217	56.83
340.429	77.31
340.641	69.12
340.854	-0.51
341.066	17.92
341.278	46.59
341.491	124.41
341.703	46.59
341.915	13.82
342.128	46.59
342.34	-4.61
342.552	26.11
342.764	83.45
342.977	-29.18
343.189	1.54
343.401	-31.23
343.613	32.26
343.826	-61.95
344.038	42.5
344.25	52.74
344.462	3.58
344.674	24.06
344.886	5.63
345.099	42.5
345.311	28.16
345.523	-4.61
345.735	-80.38
345.947	50.69
346.159	42.5
346.371	95.74
346.583	-6.66
346.795	67.07
347.007	5.63
347.219	103.93
347.431	-23.04
347.643	75.26
347.855	50.69
348.067	58.88
348.279	26.11
348.491	54.78
348.703	-31.23
348.915	28.16
349.127	7.68
349.339	11.78
349.551	36.35
349.763	44.54
349.975	44.54
350.187	120.32
350.399	34.3
350.61	-64
350.822	13.82
351.034	-4.61
351.246	67.07
351.458	19.97
351.669	-12.8
351.881	9.73
352.093	60.93
352.305	17.92
352.517	50.69
352.728	93.69
352.94	75.26
353.152	79.36
353.363	-23.04
353.575	-0.51
353.787	58.88
353.999	79.36
354.21	44.54
354.422	-14.85
354.633	30.21
354.845	1.54
355.057	-16.9
355.268	17.92
355.48	73.21
355.692	-51.71
355.903	26.11
356.115	38.4
356.326	-45.57
356.538	19.97
356.749	73.21
356.961	52.74
357.172	-39.42
357.384	58.88
357.595	179.71
357.807	32.26
358.018	-29.18
358.23	-49.66
358.441	91.65
358.653	30.21
358.864	26.11
359.075	-16.9
359.287	105.98
359.498	58.88
359.709	-35.33
359.921	19.97
360.132	44.54
360.344	19.97
360.555	-23.04
360.766	26.11
360.977	28.16
361.189	24.06
361.4	52.74
361.611	110.08
361.823	36.35
362.034	44.54
362.245	17.92
362.456	34.3
362.667	38.4
362.879	9.73
363.09	58.88
363.301	-37.38
363.512	73.21
363.723	58.88
363.935	-23.04
364.146	19.97
364.357	5.63
364.568	22.02
364.779	-27.14
364.99	83.45
365.201	58.88
365.412	26.11
365.623	-31.23
365.834	116.22
366.045	52.74
366.256	-0.51
366.467	28.16
366.678	-6.66
366.889	-12.8
367.1	15.87
367.311	91.65
367.522	73.21
367.733	97.79
367.944	46.59
368.155	134.65
368.366	58.88
368.577	95.74
368.788	58.88
368.999	-29.18
369.209	95.74
369.42	85.5
369.631	62.98
369.842	62.98
370.053	50.69
370.264	65.02
370.474	34.3
370.685	36.35
370.896	42.5
371.107	5.63
371.317	50.69
371.528	46.59
371.739	34.3
371.95	36.35
372.16	58.88
372.371	26.11
372.582	-6.66
372.792	71.17
373.003	44.54
373.214	116.22
373.424	85.5
373.635	54.78
373.846	91.65
374.056	34.3
374.267	42.5
374.477	22.02
374.688	19.97
374.898	108.03
375.109	-2.56
375.319	42.5
375.53	-23.04
375.74	-8.7
375.951	-18.94
376.161	83.45
376.372	26.11
376.582	97.79
376.793	85.5
377.003	36.35
377.214	62.98
377.424	26.11
377.635	50.69
377.845	56.83
378.055	34.3
378.266	-59.9
378.476	-10.75
378.686	-2.56
378.897	52.74
379.107	67.07
379.317	34.3
379.528	-10.75
379.738	69.12
379.948	-14.85
380.158	108.03
380.369	26.11
380.579	42.5
380.789	67.07
380.999	71.17
381.21	77.31
381.42	17.92
381.63	67.07
381.84	50.69
382.05	46.59
382.261	71.17
382.471	75.26
382.681	44.54
382.891	73.21
383.101	32.26
383.311	13.82
383.521	17.92
383.731	26.11
383.941	30.21
384.151	110.08
384.361	34.3
384.571	93.69
384.781	-18.94
384.991	58.88
385.201	38.4
385.411	-2.56
385.621	79.36
385.831	1.54
386.041	-61.95
386.251	17.92
386.461	101.89
386.671	87.55
386.881	46.59
387.091	79.36
387.301	69.12
387.511	71.17
387.72	83.45
387.93	67.07
388.14	22.02
388.35	71.17
388.56	60.93
388.769	3.58
388.979	67.07
389.189	9.73
389.399	58.88
389.609	50.69
389.818	114.17
390.028	38.4
390.238	93.69
390.447	34.3
390.657	38.4
390.867	62.98
391.076	95.74
391.286	71.17
391.496	30.21
391.705	42.5
391.915	93.69
392.125	75.26
392.334	71.17
392.544	44.54
392.753	38.4
392.963	30.21
393.172	42.5
393.382	42.5
393.591	54.78
393.801	-4.61
394.01	34.3
394.22	101.89
394.429	81.41
394.639	3.58
394.848	26.11
395.058	-16.9
395.267	32.26
395.477	108.03
395.686	112.13
395.895	126.46
396.105	153.09
396.314	91.65
396.524	148.99
396.733	46.59
396.942	79.36
397.152	58.88
397.361	142.85
397.57	126.46
397.78	36.35
397.989	65.02
398.198	79.36
398.407	22.02
398.617	67.07
398.826	126.46
399.035	83.45
399.244	79.36
399.453	24.06
399.663	54.78
399.872	75.26
400.081	42.5
400.29	140.8
400.499	26.11
400.708	42.5
400.917	157.18
401.127	34.3
401.336	91.65
401.545	151.04
401.754	95.74
401.963	91.65
402.172	62.98
402.381	-12.8
402.59	58.88
402.799	75.26
403.008	110.08
403.217	-2.56
403.426	44.54
403.635	67.07
403.844	9.73
404.053	116.22
404.262	65.02
404.471	134.65
404.68	71.17
404.888	60.93
405.097	60.93
405.306	116.22
405.515	126.46
405.724	34.3
405.933	124.41
406.142	159.23
406.35	44.54
406.559	83.45
406.768	198.14
406.977	192
407.185	108.03
407.394	130.56
407.603	138.75
407.812	235
408.02	198.14
408.229	148.99
408.438	230.91
408.646	75.26
408.855	167.42
409.064	116.22
409.272	206.33
409.481	222.72
409.69	163.33
409.898	151.04
410.107	192
410.315	232.96
410.524	181.76
410.733	239.1
410.941	232.96
411.15	288.25
411.358	259.58
411.567	292.35
411.775	329.21
411.984	306.68
412.192	339.45
412.401	298.49
412.609	325.12
412.818	331.26
413.026	314.88
413.234	361.98
413.443	323.07
413.651	304.64
413.86	431.61
414.068	355.83
414.276	460.28
414.485	447.99
414.693	398.84
414.901	466.42
415.11	460.28
415.318	491
415.526	517.62
415.734	548.34
415.943	472.57
416.151	560.63
416.359	544.25
416.567	607.73
416.776	632.31
416.984	603.64
417.192	667.13
417.4	593.4
417.608	695.8
417.817	654.84
418.025	744.95
418.233	849.4
418.441	800.24
418.649	747
418.857	828.92
419.065	792.05
419.273	886.26
419.481	849.4
419.689	962.03
419.897	1035.76
420.105	968.18
420.313	1035.76
420.521	994.8
420.729	1109.49
420.937	1080.82
421.145	1172.97
421.353	1107.44
421.561	1316.33
421.769	1267.18
421.977	1222.13
422.185	1316.33
422.393	1385.96
422.601	1533.42
422.809	1451.5
423.017	1557.99
423.224	1623.53
423.432	1668.58
423.64	1711.59
423.848	1791.46
424.056	1807.84
424.263	1869.28
424.471	1871.33
424.679	1848.8
424.887	1943.01
425.094	2115.04
425.302	1893.86
425.51	2147.81
425.718	2297.31
425.925	2211.29
426.133	2223.58
426.341	2426.33
426.548	2581.98
426.756	2538.97
426.964	2559.45
427.171	2659.8
427.379	2856.4
427.586	2866.64
427.794	2790.87
428.001	3071.44
428.209	3188.18
428.417	3087.82
428.624	3288.53
428.832	3188.18
429.039	3368.4
429.247	3321.29
429.454	3732.94
429.662	4009.41
429.869	3663.3
430.076	3780.04
430.284	3737.03
430.491	3864.01
430.699	4218.3
430.906	4163.01
431.114	4277.69
431.321	4392.38
431.528	4433.34
431.736	4912.57
431.943	4881.85
432.15	4707.77
432.358	4914.61
432.565	5178.8
432.772	5031.35
432.979	5340.59
433.187	5500.33
433.394	5518.76
433.601	5907.88
433.808	5864.87
434.016	5748.14
434.223	6063.52
434.43	6493.6
434.637	6440.35
434.844	6688.15
435.052	6743.45
435.259	6843.8
435.466	6837.66
435.673	6808.98
435.88	7335.31
436.087	7630.22
436.294	7550.35
436.501	7423.37
436.708	7505.29
436.915	7851.4
437.122	8265.09
437.329	8299.91
437.537	8340.86
437.743	8551.81
437.95	8314.24
438.157	9022.84
438.364	9248.11
438.571	9334.13
438.778	9356.66
438.985	10083.69
439.192	9758.06
439.399	9805.16
439.606	9649.52
439.813	10231.14
440.02	10784.09
440.227	10831.19
440.433	10603.87
440.64	10970.46
440.847	10919.26
441.054	11285.84
441.261	11918.67
441.467	11844.94
441.674	11945.29
441.881	12209.48
442.088	12297.54
442.294	12469.57
442.501	12598.59
442.708	13114.68
442.914	13360.44
443.121	13747.5
443.328	13366.58
443.534	14607.65
443.741	14066.99
443.948	13884.72
444.154	15041.82
444.361	14931.23
444.568	14935.32
444.774	14927.13
444.981	14959.9
445.187	15568.15
445.394	16178.44
445.6	15912.21
445.807	17566.96
446.013	16682.24
446.22	16938.24
446.426	17609.97
446.633	17908.97
446.839	18371.82
447.046	17788.14
447.252	18613.48
447.459	18883.81
447.665	18793.7
447.871	19326.17
448.078	20315.34
448.284	19260.63
448.491	19799.25
448.697	20593.86
448.903	21236.92
449.11	21091.52
449.316	20538.57
449.522	20901.06
449.728	21486.78
449.935	22039.73
450.141	21558.46
450.347	22310.06
450.553	21685.43
450.76	21961.9
450.966	22682.79
451.172	22117.55
451.378	23211.17
451.584	22461.61
451.791	23329.95
451.997	22938.79
452.203	23237.79
452.409	23569.56
452.615	23278.75
452.821	22631.59
453.027	22348.97
453.233	23336.09
453.44	22504.62
453.646	23147.68
453.852	22930.59
454.058	23291.04
454.264	22602.92
454.47	22979.75
454.676	22670.5
454.882	23434.39
455.088	21173.44
455.294	21537.98
455.5	22189.23
455.705	22226.09
455.911	21068.99
456.117	20911.3
456.323	20604.1
456.529	19457.24
456.735	20276.43
456.941	19825.87
457.147	19647.7
457.352	18812.13
457.558	18785.51
457.764	18863.33
457.97	18582.76
458.176	18169.07
458.381	18506.98
458.587	17566.96
458.793	17259.77
458.999	16373
459.204	17667.31
459.41	17204.47
459.616	16297.22
459.821	16155.91
460.027	16131.34
460.233	15664.4
460.438	15105.31
460.644	15039.77
460.85	14449.96
461.055	14163.24
461.261	14107.94
461.466	13049.14
461.672	12807.48
461.878	13604.14
462.083	12668.22
462.289	12453.19
462.494	12307.78
462.7	11808.08
462.905	11552.08
463.111	12135.75
463.316	11978.06
463.522	11707.73
463.727	11664.72
463.932	11769.16
464.138	11441.49
464.343	11437.39
464.549	11089.24
464.754	11371.86
464.959	11380.05
465.165	11335
465.37	10921.31
465.575	10667.36
465.781	11085.14
465.986	11236.69
466.191	10673.5
466.397	10454.37
466.602	9979.24
466.807	10270.05
467.012	10394.98
467.218	10478.94
467.423	10145.13
467.628	10188.13
467.833	10722.65
468.038	10300.77
468.244	9979.24
468.449	10360.16
468.654	10104.17
468.859	9913.7
