Data from USB4F104151__278__14-46-19-956.txt Node

Date: Thu Mar 13 14:46:19 EDT 2025
User: louis
Spectrometer: USB4F10415
Trigger mode: 4
Integration Time (sec): 2.000000E-2
Scans to average: 1
Electric dark correction enabled: true
Nonlinearity correction enabled: false
Boxcar width: 0
XAxis mode: Wavelengths
Number of Pixels in Spectrum: 3648
>>>>>Begin Spectral Data<<<<<
178.204	-117.59
178.424	-117.59
178.644	-117.59
178.864	-68.44
179.084	-150.36
179.304	1.19
179.524	-43.86
179.744	9.39
179.964	17.58
180.184	-54.1
180.404	-37.72
180.624	13.48
180.844	-13.14
181.064	-7
181.283	79.02
181.503	-11.09
181.723	46.25
181.943	-41.81
182.163	74.92
182.383	5.29
182.602	66.73
182.822	62.63
183.042	38.06
183.262	-54.1
183.482	50.35
183.701	13.48
183.921	64.68
184.141	21.67
184.361	105.64
184.58	-27.48
184.8	29.87
185.02	38.06
185.239	40.11
185.459	48.3
185.679	111.78
185.898	13.48
186.118	23.72
186.338	11.43
186.557	13.48
186.777	-9.05
186.997	-17.24
187.216	-86.87
187.436	44.2
187.655	46.25
187.875	64.68
188.095	-17.24
188.314	64.68
188.534	5.29
188.753	-0.85
188.973	13.48
189.192	-39.76
189.412	38.06
189.631	29.87
189.851	122.02
190.07	40.11
190.29	21.67
190.509	-27.48
190.729	52.39
190.948	81.07
191.168	44.2
191.387	3.24
191.607	29.87
191.826	46.25
192.045	66.73
192.265	21.67
192.484	38.06
192.704	-0.85
192.923	-4.95
193.142	95.4
193.362	150.7
193.581	124.07
193.8	83.11
194.02	42.15
194.239	74.92
194.458	50.35
194.678	-39.76
194.897	79.02
195.116	-13.14
195.335	3.24
195.555	81.07
195.774	-27.48
195.993	76.97
196.212	13.48
196.432	-9.05
196.651	-25.43
196.87	31.91
197.089	81.07
197.308	62.63
197.528	17.58
197.747	-2.9
197.966	1.19
198.185	101.55
198.404	31.91
198.623	-9.05
198.842	5.29
199.062	50.35
199.281	99.5
199.5	21.67
199.719	33.96
199.938	25.77
200.157	87.21
200.376	38.06
200.595	107.69
200.814	83.11
201.033	33.96
201.252	93.35
201.471	-15.19
201.69	74.92
201.909	-11.09
202.128	-0.85
202.347	29.87
202.566	58.54
202.785	48.3
203.004	7.34
203.223	74.92
203.442	-15.19
203.661	-7
203.879	15.53
204.098	91.31
204.317	-11.09
204.536	68.78
204.755	81.07
204.974	-7
205.193	13.48
205.411	74.92
205.63	-13.14
205.849	64.68
206.068	-74.58
206.287	-11.09
206.505	66.73
206.724	-27.48
206.943	27.82
207.162	29.87
207.381	5.29
207.599	13.48
207.818	29.87
208.037	17.58
208.255	-35.67
208.474	5.29
208.693	25.77
208.911	17.58
209.13	15.53
209.349	17.58
209.567	113.83
209.786	15.53
210.005	62.63
210.223	-7
210.442	-33.62
210.661	46.25
210.879	105.64
211.098	44.2
211.316	17.58
211.535	-9.05
211.753	74.92
211.972	79.02
212.191	23.72
212.409	33.96
212.628	-11.09
212.846	-7
213.065	58.54
213.283	46.25
213.502	-41.81
213.72	9.39
213.938	-0.85
214.157	-9.05
214.375	21.67
214.594	-45.91
214.812	70.83
215.031	-2.9
215.249	7.34
215.467	38.06
215.686	-11.09
215.904	42.15
216.122	79.02
216.341	40.11
216.559	15.53
216.778	111.78
216.996	13.48
217.214	42.15
217.432	-60.24
217.651	-56.15
217.869	-25.43
218.087	-33.62
218.306	11.43
218.524	-9.05
218.742	48.3
218.96	70.83
219.179	48.3
219.397	72.87
219.615	52.39
219.833	-33.62
220.051	7.34
220.27	40.11
220.488	95.4
220.706	15.53
220.924	40.11
221.142	-27.48
221.36	-13.14
221.578	70.83
221.796	-2.9
222.015	25.77
222.233	46.25
222.451	109.74
222.669	42.15
222.887	54.44
223.105	42.15
223.323	-31.57
223.541	-4.95
223.759	46.25
223.977	-2.9
224.195	87.21
224.413	62.63
224.631	-19.29
224.849	5.29
225.067	130.22
225.285	7.34
225.503	29.87
225.721	-47.96
225.939	15.53
226.157	46.25
226.375	99.5
226.592	-52.05
226.81	40.11
227.028	-9.05
227.246	113.83
227.464	40.11
227.682	144.55
227.9	38.06
228.117	72.87
228.335	62.63
228.553	130.22
228.771	74.92
228.989	-25.43
229.206	74.92
229.424	-2.9
229.642	-9.05
229.86	-7
230.077	13.48
230.295	9.39
230.513	42.15
230.731	72.87
230.948	36.01
231.166	103.59
231.384	103.59
231.601	7.34
231.819	97.45
232.037	33.96
232.254	36.01
232.472	36.01
232.689	19.63
232.907	23.72
233.125	-13.14
233.342	-2.9
233.56	52.39
233.777	-33.62
233.995	-0.85
234.213	70.83
234.43	-52.05
234.648	7.34
234.865	54.44
235.083	70.83
235.3	21.67
235.518	7.34
235.735	48.3
235.953	-41.81
236.17	62.63
236.388	42.15
236.605	54.44
236.822	115.88
237.04	83.11
237.257	103.59
237.475	46.25
237.692	72.87
237.909	-33.62
238.127	-29.52
238.344	52.39
238.562	87.21
238.779	11.43
238.996	1.19
239.214	54.44
239.431	128.17
239.648	31.91
239.865	87.21
240.083	58.54
240.3	11.43
240.517	5.29
240.735	-9.05
240.952	31.91
241.169	38.06
241.386	-0.85
241.603	-11.09
241.821	5.29
242.038	87.21
242.255	95.4
242.472	21.67
242.689	85.16
242.907	29.87
243.124	119.98
243.341	40.11
243.558	21.67
243.775	-17.24
243.992	50.35
244.209	23.72
244.426	42.15
244.643	15.53
244.86	-0.85
245.078	103.59
245.295	5.29
245.512	31.91
245.729	27.82
245.946	44.2
246.163	31.91
246.38	15.53
246.597	66.73
246.814	-84.82
247.031	3.24
247.248	-31.57
247.464	48.3
247.681	48.3
247.898	62.63
248.115	54.44
248.332	15.53
248.549	119.98
248.766	68.78
248.983	58.54
249.2	111.78
249.417	46.25
249.633	-11.09
249.85	38.06
250.067	-52.05
250.284	-25.43
250.501	48.3
250.717	103.59
250.934	56.49
251.151	1.19
251.368	31.91
251.585	74.92
251.801	42.15
252.018	-29.52
252.235	72.87
252.451	40.11
252.668	66.73
252.885	38.06
253.102	-11.09
253.318	66.73
253.535	-25.43
253.752	-47.96
253.968	-11.09
254.185	64.68
254.401	21.67
254.618	5.29
254.835	-23.38
255.051	50.35
255.268	97.45
255.484	58.54
255.701	-27.48
255.917	117.93
256.134	-2.9
256.351	29.87
256.567	-9.05
256.784	58.54
257	-11.09
257.217	58.54
257.433	111.78
257.65	58.54
257.866	64.68
258.082	-9.05
258.299	25.77
258.515	-27.48
258.732	-0.85
258.948	-2.9
259.165	13.48
259.381	62.63
259.597	-33.62
259.814	17.58
260.03	38.06
260.246	50.35
260.463	5.29
260.679	64.68
260.895	44.2
261.112	13.48
261.328	17.58
261.544	-60.24
261.761	60.59
261.977	-72.53
262.193	-7
262.409	29.87
262.626	58.54
262.842	29.87
263.058	-19.29
263.274	101.55
263.49	-11.09
263.707	66.73
263.923	33.96
264.139	-52.05
264.355	54.44
264.571	79.02
264.787	130.22
265.004	38.06
265.22	66.73
265.436	107.69
265.652	29.87
265.868	54.44
266.084	-47.96
266.3	21.67
266.516	-60.24
266.732	9.39
266.948	70.83
267.164	50.35
267.38	62.63
267.596	23.72
267.812	25.77
268.028	-41.81
268.244	58.54
268.46	74.92
268.676	17.58
268.892	13.48
269.108	38.06
269.324	-52.05
269.54	-15.19
269.756	17.58
269.972	-0.85
270.188	38.06
270.403	-2.9
270.619	48.3
270.835	72.87
271.051	-27.48
271.267	5.29
271.483	76.97
271.698	19.63
271.914	21.67
272.13	9.39
272.346	21.67
272.562	15.53
272.777	58.54
272.993	46.25
273.209	-47.96
273.425	87.21
273.64	23.72
273.856	-21.33
274.072	25.77
274.287	54.44
274.503	13.48
274.719	70.83
274.934	33.96
275.15	23.72
275.366	5.29
275.581	5.29
275.797	79.02
276.012	58.54
276.228	38.06
276.444	29.87
276.659	76.97
276.875	-76.63
277.09	13.48
277.306	56.49
277.521	56.49
277.737	79.02
277.952	31.91
278.168	46.25
278.383	-15.19
278.599	-7
278.814	58.54
279.03	-39.76
279.245	62.63
279.461	-23.38
279.676	-41.81
279.892	-41.81
280.107	66.73
280.322	38.06
280.538	-27.48
280.753	3.24
280.969	54.44
281.184	38.06
281.399	46.25
281.615	38.06
281.83	87.21
282.045	1.19
282.26	31.91
282.476	27.82
282.691	91.31
282.906	58.54
283.122	21.67
283.337	31.91
283.552	21.67
283.767	21.67
283.983	-19.29
284.198	40.11
284.413	46.25
284.628	105.64
284.843	5.29
285.058	5.29
285.274	27.82
285.489	21.67
285.704	62.63
285.919	-60.24
286.134	42.15
286.349	54.44
286.564	-9.05
286.779	64.68
286.995	21.67
287.21	7.34
287.425	31.91
287.64	-35.67
287.855	9.39
288.07	81.07
288.285	38.06
288.5	70.83
288.715	-0.85
288.93	42.15
289.145	7.34
289.36	-2.9
289.575	33.96
289.79	17.58
290.004	87.21
290.219	99.5
290.434	79.02
290.649	42.15
290.864	31.91
291.079	-21.33
291.294	29.87
291.509	1.19
291.724	15.53
291.938	70.83
292.153	-27.48
292.368	72.87
292.583	29.87
292.798	5.29
293.012	64.68
293.227	31.91
293.442	-7
293.657	91.31
293.871	-60.24
294.086	44.2
294.301	62.63
294.516	72.87
294.73	42.15
294.945	81.07
295.16	48.3
295.374	36.01
295.589	48.3
295.804	11.43
296.018	46.25
296.233	136.36
296.447	21.67
296.662	15.53
296.877	42.15
297.091	27.82
297.306	46.25
297.52	42.15
297.735	46.25
297.949	31.91
298.164	56.49
298.378	44.2
298.593	66.73
298.807	40.11
299.022	-68.44
299.236	70.83
299.451	29.87
299.665	-27.48
299.88	64.68
300.094	13.48
300.309	79.02
300.523	1.19
300.737	-19.29
300.952	128.17
301.166	46.25
301.381	-9.05
301.595	50.35
301.809	74.92
302.024	-27.48
302.238	38.06
302.452	103.59
302.667	7.34
302.881	48.3
303.095	111.78
303.309	25.77
303.524	5.29
303.738	76.97
303.952	-11.09
304.166	95.4
304.381	-27.48
304.595	113.83
304.809	40.11
305.023	38.06
305.237	-13.14
305.452	21.67
305.666	62.63
305.88	81.07
306.094	70.83
306.308	46.25
306.522	-17.24
306.736	46.25
306.95	21.67
307.164	54.44
307.379	91.31
307.593	46.25
307.807	54.44
308.021	101.55
308.235	76.97
308.449	-33.62
308.663	-13.14
308.877	138.41
309.091	38.06
309.305	101.55
309.519	27.82
309.733	111.78
309.947	11.43
310.161	13.48
310.374	42.15
310.588	70.83
310.802	-19.29
311.016	103.59
311.23	29.87
311.444	-19.29
311.658	99.5
311.872	48.3
312.085	54.44
312.299	5.29
312.513	122.02
312.727	-13.14
312.941	-23.38
313.154	48.3
313.368	58.54
313.582	-39.76
313.796	-27.48
314.009	48.3
314.223	38.06
314.437	-27.48
314.651	97.45
314.864	33.96
315.078	31.91
315.292	21.67
315.505	25.77
315.719	79.02
315.933	91.31
316.146	1.19
316.36	-0.85
316.573	74.92
316.787	72.87
317.001	89.26
317.214	46.25
317.428	99.5
317.641	-31.57
317.855	11.43
318.068	46.25
318.282	5.29
318.495	9.39
318.709	62.63
318.922	38.06
319.136	99.5
319.349	46.25
319.563	-2.9
319.776	46.25
319.99	38.06
320.203	124.07
320.417	25.77
320.63	89.26
320.843	15.53
321.057	124.07
321.27	11.43
321.483	44.2
321.697	1.19
321.91	3.24
322.124	38.06
322.337	-7
322.55	36.01
322.763	50.35
322.977	74.92
323.19	13.48
323.403	13.48
323.617	54.44
323.83	79.02
324.043	-37.72
324.256	25.77
324.469	38.06
324.683	60.59
324.896	87.21
325.109	25.77
325.322	-47.96
325.535	54.44
325.748	56.49
325.962	-0.85
326.175	70.83
326.388	44.2
326.601	85.16
326.814	50.35
327.027	5.29
327.24	40.11
327.453	54.44
327.666	91.31
327.879	74.92
328.092	66.73
328.305	23.72
328.518	29.87
328.731	29.87
328.944	29.87
329.157	46.25
329.37	-17.24
329.583	95.4
329.796	58.54
330.009	5.29
330.222	79.02
330.435	31.91
330.648	29.87
330.861	42.15
331.073	-17.24
331.286	15.53
331.499	44.2
331.712	29.87
331.925	33.96
332.138	-4.95
332.35	54.44
332.563	46.25
332.776	54.44
332.989	29.87
333.202	15.53
333.414	56.49
333.627	1.19
333.84	62.63
334.053	-0.85
334.265	23.72
334.478	5.29
334.691	113.83
334.903	7.34
335.116	19.63
335.329	46.25
335.541	46.25
335.754	70.83
335.966	111.78
336.179	9.39
336.392	-9.05
336.604	-9.05
336.817	42.15
337.029	56.49
337.242	48.3
337.454	76.97
337.667	72.87
337.88	36.01
338.092	-17.24
338.305	62.63
338.517	36.01
338.729	-27.48
338.942	48.3
339.154	-15.19
339.367	21.67
339.579	109.74
339.792	-11.09
340.004	-2.9
340.217	50.35
340.429	23.72
340.641	46.25
340.854	134.31
341.066	15.53
341.278	62.63
341.491	64.68
341.703	-43.86
341.915	38.06
342.128	79.02
342.34	72.87
342.552	21.67
342.764	58.54
342.977	29.87
343.189	58.54
343.401	42.15
343.613	-13.14
343.826	58.54
344.038	87.21
344.25	15.53
344.462	64.68
344.674	42.15
344.886	19.63
345.099	-11.09
345.311	38.06
345.523	7.34
345.735	25.77
345.947	52.39
346.159	81.07
346.371	-70.48
346.583	38.06
346.795	134.31
347.007	72.87
347.219	50.35
347.431	-15.19
347.643	66.73
347.855	-15.19
348.067	70.83
348.279	-15.19
348.491	64.68
348.703	79.02
348.915	97.45
349.127	-19.29
349.339	40.11
349.551	66.73
349.763	136.36
349.975	29.87
350.187	76.97
350.399	5.29
350.61	70.83
350.822	42.15
351.034	60.59
351.246	-41.81
351.458	66.73
351.669	33.96
351.881	60.59
352.093	29.87
352.305	1.19
352.517	128.17
352.728	62.63
352.94	79.02
353.152	81.07
353.363	46.25
353.575	99.5
353.787	60.59
353.999	87.21
354.21	99.5
354.422	64.68
354.633	-7
354.845	70.83
355.057	99.5
355.268	111.78
355.48	13.48
355.692	74.92
355.903	38.06
356.115	42.15
356.326	15.53
356.538	64.68
356.749	81.07
356.961	62.63
357.172	93.35
357.384	-27.48
357.595	29.87
357.807	5.29
358.018	62.63
358.23	91.31
358.441	97.45
358.653	23.72
358.864	46.25
359.075	-27.48
359.287	25.77
359.498	38.06
359.709	17.58
359.921	62.63
360.132	83.11
360.344	25.77
360.555	103.59
360.766	48.3
360.977	50.35
361.189	54.44
361.4	87.21
361.611	107.69
361.823	74.92
362.034	56.49
362.245	-0.85
362.456	29.87
362.667	42.15
362.879	13.48
363.09	99.5
363.301	134.31
363.512	83.11
363.723	17.58
363.935	46.25
364.146	81.07
364.357	38.06
364.568	50.35
364.779	62.63
364.99	25.77
365.201	21.67
365.412	79.02
365.623	-31.57
365.834	56.49
366.045	62.63
366.256	113.83
366.467	11.43
366.678	38.06
366.889	17.58
367.1	7.34
367.311	91.31
367.522	128.17
367.733	27.82
367.944	103.59
368.155	23.72
368.366	54.44
368.577	7.34
368.788	119.98
368.999	1.19
369.209	15.53
369.42	79.02
369.631	124.07
369.842	64.68
370.053	52.39
370.264	68.78
370.474	11.43
370.685	66.73
370.896	50.35
371.107	27.82
371.317	99.5
371.528	5.29
371.739	25.77
371.95	81.07
372.16	89.26
372.371	29.87
372.582	76.97
372.792	99.5
373.003	89.26
373.214	56.49
373.424	42.15
373.635	25.77
373.846	23.72
374.056	29.87
374.267	21.67
374.477	142.5
374.688	-33.62
374.898	93.35
375.109	97.45
375.319	56.49
375.53	50.35
375.74	42.15
375.951	79.02
376.161	-2.9
376.372	66.73
376.582	-27.48
376.793	79.02
377.003	33.96
377.214	64.68
377.424	23.72
377.635	48.3
377.845	46.25
378.055	21.67
378.266	23.72
378.476	62.63
378.686	95.4
378.897	95.4
379.107	89.26
379.317	95.4
379.528	68.78
379.738	33.96
379.948	42.15
380.158	-27.48
380.369	54.44
380.579	54.44
380.789	21.67
380.999	54.44
381.21	128.17
381.42	107.69
381.63	-11.09
381.84	105.64
382.05	111.78
382.261	142.5
382.471	144.55
382.681	-11.09
382.891	40.11
383.101	103.59
383.311	29.87
383.521	70.83
383.731	-23.38
383.941	54.44
384.151	107.69
384.361	-27.48
384.571	5.29
384.781	160.94
384.991	107.69
385.201	119.98
385.411	113.83
385.621	130.22
385.831	62.63
386.041	76.97
386.251	87.21
386.461	-11.09
386.671	1.19
386.881	56.49
387.091	46.25
387.301	31.91
387.511	7.34
387.72	79.02
387.93	111.78
388.14	17.58
388.35	38.06
388.56	111.78
388.769	134.31
388.979	21.67
389.189	70.83
389.399	74.92
389.609	36.01
389.818	169.13
390.028	115.88
390.238	91.31
390.447	62.63
390.657	107.69
390.867	40.11
391.076	-11.09
391.286	-19.29
391.496	66.73
391.705	-23.38
391.915	64.68
392.125	52.39
392.334	56.49
392.544	27.82
392.753	93.35
392.963	21.67
393.172	103.59
393.382	56.49
393.591	103.59
393.801	54.44
394.01	56.49
394.22	54.44
394.429	31.91
394.639	195.75
394.848	95.4
395.058	95.4
395.267	140.46
395.477	95.4
395.686	62.63
395.895	152.74
396.105	169.13
396.314	38.06
396.524	87.21
396.733	70.83
396.942	130.22
397.152	72.87
397.361	72.87
397.57	72.87
397.78	107.69
397.989	89.26
398.198	103.59
398.407	58.54
398.617	79.02
398.826	124.07
399.035	83.11
399.244	115.88
399.453	70.83
399.663	70.83
399.872	46.25
400.081	89.26
400.29	128.17
400.499	119.98
400.708	97.45
400.917	58.54
401.127	138.41
401.336	122.02
401.545	255.14
401.754	93.35
401.963	95.4
402.172	130.22
402.381	79.02
402.59	105.64
402.799	128.17
403.008	91.31
403.217	169.13
403.426	15.53
403.635	111.78
403.844	93.35
404.053	40.11
404.262	89.26
404.471	152.74
404.68	185.51
404.888	148.65
405.097	83.11
405.306	132.26
405.515	122.02
405.724	187.56
405.933	87.21
406.142	158.89
406.35	132.26
406.559	205.99
406.768	179.37
406.977	162.98
407.185	226.47
407.394	226.47
407.603	171.18
407.812	197.8
408.02	218.28
408.229	165.03
408.438	175.27
408.646	185.51
408.855	152.74
409.064	222.38
409.272	220.33
409.481	273.57
409.69	242.85
409.898	238.76
410.107	244.9
410.315	289.96
410.524	267.43
410.733	222.38
410.941	218.28
411.15	294.05
411.358	335.01
411.567	361.64
411.775	332.97
411.984	349.35
412.192	386.21
412.401	289.96
412.609	435.36
412.818	304.29
413.026	392.36
413.234	384.16
413.443	410.79
413.651	392.36
413.86	406.69
414.068	535.71
414.276	439.46
414.485	570.53
414.693	490.66
414.901	552.1
415.11	537.76
415.318	580.77
415.526	580.77
415.734	603.3
415.943	652.45
416.151	644.26
416.359	619.68
416.567	603.3
416.776	808.09
416.984	689.31
417.192	832.67
417.4	758.94
417.608	787.61
417.817	758.94
418.025	793.76
418.233	988.32
418.441	961.69
418.649	937.12
418.857	955.55
419.065	1232.02
419.273	961.69
419.481	1162.39
419.689	1111.19
419.897	1195.16
420.105	1203.35
420.313	1227.93
420.521	1320.09
420.729	1291.41
420.937	1393.81
421.145	1326.23
421.353	1512.6
421.561	1457.3
421.769	1555.6
421.977	1561.75
422.185	1512.6
422.393	1625.23
422.601	1821.84
422.809	1848.46
423.017	1758.35
423.224	1954.96
423.432	2043.02
423.64	1959.05
423.848	2167.95
424.056	2122.89
424.263	2276.49
424.471	2303.11
424.679	2344.07
424.887	2448.52
425.094	2497.67
425.302	2479.24
425.51	2538.63
425.718	2690.18
425.925	2722.95
426.133	2774.14
426.341	3038.33
426.548	3138.68
426.756	2978.94
426.964	3157.11
427.171	3257.46
427.379	3339.38
427.586	3296.38
427.794	3585.14
428.001	3675.25
428.209	3830.9
428.417	3746.93
428.624	4035.69
428.832	3980.4
429.039	3961.97
429.247	4088.94
429.454	4389.99
429.662	4797.54
429.869	4473.96
430.076	4719.71
430.284	4461.67
430.491	4654.18
430.699	5092.44
430.906	4924.51
431.114	4996.19
431.321	5411.93
431.528	5377.11
431.736	5758.03
431.943	6009.93
432.15	5809.23
432.358	5962.83
432.565	6212.68
432.772	6263.88
432.979	6577.22
433.187	6483.02
433.394	6691.91
433.601	7062.59
433.808	7054.4
434.016	6960.19
434.223	7334.97
434.43	7855.15
434.637	7674.93
434.844	8098.86
435.052	8227.89
435.259	8148.01
435.466	8338.48
435.673	8289.32
435.88	8811.56
436.087	9303.07
436.294	9466.91
436.501	8842.28
436.708	9253.92
436.915	9477.15
437.122	9962.51
437.329	9999.38
437.537	10241.04
437.743	10304.53
437.95	10353.68
438.157	10875.91
438.364	11318.27
438.571	11293.69
438.778	11484.16
438.985	12383.21
439.192	11854.84
439.399	12155.89
439.606	11826.17
439.813	12676.07
440.02	13417.44
440.227	13167.59
440.433	13081.57
440.64	13196.26
440.847	13407.2
441.054	13775.83
441.261	14513.1
441.467	14326.74
441.674	14691.27
441.881	15008.71
442.088	15201.22
442.294	15170.5
442.501	15205.31
442.708	15922.1
442.914	16198.58
443.121	16868.27
443.328	16737.2
443.534	17896.35
443.741	17177.51
443.948	16892.84
444.154	18394
444.361	18273.17
444.568	18371.47
444.774	18236.31
444.981	18461.58
445.187	19024.78
445.394	19872.64
445.6	19512.19
445.807	21670.75
446.013	20806.51
446.22	21179.24
446.426	21977.95
446.633	22086.49
446.839	22930.25
447.046	21693.28
447.252	23233.35
447.459	23403.33
447.665	22827.85
447.871	23868.22
448.078	25318.18
448.284	23778.11
448.491	24623.92
448.697	25590.56
448.903	25971.49
449.11	25989.92
449.316	25887.52
449.522	26161.95
449.728	27122.44
449.935	27368.2
450.141	27314.95
450.347	27935.49
450.553	26964.75
450.76	27462.41
450.966	28187.39
451.172	28087.04
451.378	28607.22
451.584	27921.15
451.791	28977.9
451.997	28760.82
452.203	29240.04
452.409	29418.22
452.615	29096.69
452.821	28259.07
453.027	27951.87
453.233	29512.42
453.44	28447.48
453.646	28513.02
453.852	28386.04
454.058	29479.66
454.264	28543.74
454.47	29127.41
454.676	28136.19
454.882	29194.99
455.088	26745.62
455.294	27163.4
455.5	28023.55
455.705	27994.88
455.911	26592.02
456.117	26241.82
456.323	26129.18
456.529	24959.79
456.735	25723.68
456.941	25105.2
457.147	24718.13
457.352	24183.61
457.558	23763.78
457.764	24007.48
457.97	23307.08
458.176	22838.09
458.381	23008.08
458.587	21924.7
458.793	21807.97
458.999	20849.52
459.204	22371.16
459.41	21519.2
459.616	20087.67
459.821	20079.48
460.027	20200.31
460.233	19635.07
460.438	18817.93
460.644	18918.28
460.85	18285.46
461.055	17871.77
461.261	17867.67
461.466	16589.74
461.672	16081.85
461.878	17150.88
462.083	16225.2
462.289	15868.86
462.494	15434.69
462.7	14918.6
462.905	14584.78
463.111	15107.01
463.316	15320
463.522	14881.74
463.727	14922.69
463.932	14789.58
464.138	14724.04
464.343	14889.93
464.549	14289.87
464.754	14693.32
464.959	14773.19
465.165	14513.1
465.37	13958.1
465.575	13652.95
465.781	14134.23
465.986	14130.13
466.191	13616.09
466.397	13429.73
466.602	12946.41
466.807	13243.36
467.012	13356
467.218	13323.23
467.423	13218.78
467.628	13013.99
