Data from USB4F104151__227__14-45-36-486.txt Node

Date: Thu Mar 13 14:45:36 EDT 2025
User: louis
Spectrometer: USB4F10415
Trigger mode: 4
Integration Time (sec): 2.000000E-2
Scans to average: 1
Electric dark correction enabled: true
Nonlinearity correction enabled: false
Boxcar width: 0
XAxis mode: Wavelengths
Number of Pixels in Spectrum: 3648
>>>>>Begin Spectral Data<<<<<
178.204	-78.33
178.424	-78.33
178.644	-78.33
178.864	-76.29
179.084	-135.68
179.304	19.97
179.524	-53.76
179.744	7.68
179.964	95.74
180.184	-41.47
180.404	42.5
180.624	28.16
180.844	-86.53
181.064	-16.9
181.283	28.16
181.503	48.64
181.723	-72.19
181.943	-59.9
182.163	110.08
182.383	17.92
182.602	105.98
182.822	54.78
183.042	85.5
183.262	-25.09
183.482	91.65
183.701	-12.8
183.921	58.88
184.141	-10.75
184.361	15.87
184.58	81.41
184.8	73.21
185.02	67.07
185.239	130.56
185.459	108.03
185.679	7.68
185.898	-16.9
186.118	130.56
186.338	32.26
186.557	69.12
186.777	56.83
186.997	103.93
187.216	65.02
187.436	65.02
187.655	19.97
187.875	3.58
188.095	36.35
188.314	28.16
188.534	36.35
188.753	73.21
188.973	97.79
189.192	19.97
189.412	19.97
189.631	13.82
189.851	85.5
190.07	110.08
190.29	19.97
190.509	52.74
190.729	38.4
190.948	22.02
191.168	144.89
191.387	142.85
191.607	65.02
191.826	-8.7
192.045	48.64
192.265	-0.51
192.484	-8.7
192.704	48.64
192.923	-0.51
193.142	38.4
193.362	97.79
193.581	13.82
193.8	38.4
194.02	19.97
194.239	85.5
194.458	65.02
194.678	54.78
194.897	97.79
195.116	77.31
195.335	118.27
195.555	32.26
195.774	34.3
195.993	103.93
196.212	11.78
196.432	36.35
196.651	32.26
196.87	-20.99
197.089	60.93
197.308	48.64
197.528	-20.99
197.747	-35.33
197.966	54.78
198.185	75.26
198.404	7.68
198.623	71.17
198.842	48.64
199.062	52.74
199.281	-10.75
199.5	28.16
199.719	56.83
199.938	54.78
200.157	73.21
200.376	56.83
200.595	62.98
200.814	26.11
201.033	19.97
201.252	-4.61
201.471	58.88
201.69	71.17
201.909	52.74
202.128	71.17
202.347	24.06
202.566	-35.33
202.785	22.02
203.004	-14.85
203.223	79.36
203.442	15.87
203.661	60.93
203.879	44.54
204.098	77.31
204.317	28.16
204.536	46.59
204.755	-6.66
204.974	118.27
205.193	38.4
205.411	101.89
205.63	69.12
205.849	24.06
206.068	77.31
206.287	-16.9
206.505	11.78
206.724	56.83
206.943	44.54
207.162	71.17
207.381	30.21
207.599	28.16
207.818	7.68
208.037	32.26
208.255	62.98
208.474	42.5
208.693	40.45
208.911	48.64
209.13	71.17
209.349	46.59
209.567	19.97
209.786	30.21
210.005	30.21
210.223	-8.7
210.442	-0.51
210.661	11.78
210.879	69.12
211.098	28.16
211.316	-37.38
211.535	56.83
211.753	13.82
211.972	52.74
212.191	46.59
212.409	5.63
212.628	85.5
212.846	11.78
213.065	62.98
213.283	73.21
213.502	11.78
213.72	-12.8
213.938	1.54
214.157	19.97
214.375	87.55
214.594	120.32
214.812	48.64
215.031	110.08
215.249	60.93
215.467	58.88
215.686	56.83
215.904	44.54
216.122	40.45
216.341	71.17
216.559	30.21
216.778	85.5
216.996	3.58
217.214	69.12
217.432	93.69
217.651	79.36
217.869	79.36
218.087	-16.9
218.306	3.58
218.524	103.93
218.742	5.63
218.96	13.82
219.179	54.78
219.397	48.64
219.615	105.98
219.833	130.56
220.051	-16.9
220.27	87.55
220.488	-35.33
220.706	-25.09
220.924	11.78
221.142	-37.38
221.36	-16.9
221.578	28.16
221.796	42.5
222.015	48.64
222.233	5.63
222.451	38.4
222.669	17.92
222.887	34.3
223.105	28.16
223.323	34.3
223.541	-4.61
223.759	40.45
223.977	40.45
224.195	110.08
224.413	19.97
224.631	87.55
224.849	108.03
225.067	110.08
225.285	44.54
225.503	69.12
225.721	30.21
225.939	48.64
226.157	19.97
226.375	120.32
226.592	30.21
226.81	56.83
227.028	75.26
227.246	81.41
227.464	19.97
227.682	73.21
227.9	22.02
228.117	28.16
228.335	62.98
228.553	36.35
228.771	42.5
228.989	38.4
229.206	93.69
229.424	95.74
229.642	11.78
229.86	-4.61
230.077	44.54
230.295	42.5
230.513	26.11
230.731	69.12
230.948	46.59
231.166	83.45
231.384	-12.8
231.601	36.35
231.819	44.54
232.037	-0.51
232.254	24.06
232.472	110.08
232.689	15.87
232.907	126.46
233.125	105.98
233.342	36.35
233.56	-8.7
233.777	87.55
233.995	40.45
234.213	-2.56
234.43	52.74
234.648	-0.51
234.865	3.58
235.083	60.93
235.3	52.74
235.518	58.88
235.735	118.27
235.953	-16.9
236.17	36.35
236.388	97.79
236.605	5.63
236.822	38.4
237.04	71.17
237.257	60.93
237.475	-8.7
237.692	46.59
237.909	1.54
238.127	93.69
238.344	-10.75
238.562	79.36
238.779	17.92
238.996	32.26
239.214	-10.75
239.431	85.5
239.648	-33.28
239.865	60.93
240.083	42.5
240.3	19.97
240.517	22.02
240.735	-6.66
240.952	81.41
241.169	28.16
241.386	126.46
241.603	62.98
241.821	48.64
242.038	52.74
242.255	56.83
242.472	108.03
242.689	67.07
242.907	87.55
243.124	101.89
243.341	24.06
243.558	26.11
243.775	44.54
243.992	-16.9
244.209	40.45
244.426	101.89
244.643	28.16
244.86	19.97
245.078	110.08
245.295	-53.76
245.512	3.58
245.729	19.97
245.946	50.69
246.163	22.02
246.38	-10.75
246.597	118.27
246.814	71.17
247.031	60.93
247.248	7.68
247.464	65.02
247.681	56.83
247.898	22.02
248.115	91.65
248.332	36.35
248.549	95.74
248.766	52.74
248.983	7.68
249.2	28.16
249.417	95.74
249.633	75.26
249.85	-10.75
250.067	-37.38
250.284	91.65
250.501	42.5
250.717	93.69
250.934	56.83
251.151	32.26
251.368	32.26
251.585	30.21
251.801	114.17
252.018	-10.75
252.235	-6.66
252.451	60.93
252.668	24.06
252.885	99.84
253.102	52.74
253.318	-16.9
253.535	-0.51
253.752	101.89
253.968	3.58
254.185	-86.53
254.401	30.21
254.618	38.4
254.835	69.12
255.051	122.37
255.268	28.16
255.484	44.54
255.701	48.64
255.917	69.12
256.134	-4.61
256.351	60.93
256.567	87.55
256.784	77.31
257	19.97
257.217	42.5
257.433	28.16
257.65	36.35
257.866	93.69
258.082	44.54
258.299	62.98
258.515	-2.56
258.732	30.21
258.948	13.82
259.165	69.12
259.381	19.97
259.597	85.5
259.814	58.88
260.03	36.35
260.246	-20.99
260.463	54.78
260.679	134.65
260.895	69.12
261.112	40.45
261.328	71.17
261.544	-2.56
261.761	99.84
261.977	58.88
262.193	44.54
262.409	24.06
262.626	50.69
262.842	71.17
263.058	9.73
263.274	30.21
263.49	15.87
263.707	-12.8
263.923	101.89
264.139	42.5
264.355	54.78
264.571	177.66
264.787	50.69
265.004	67.07
265.22	36.35
265.436	62.98
265.652	15.87
265.868	44.54
266.084	19.97
266.3	28.16
266.516	54.78
266.732	103.93
266.948	15.87
267.164	95.74
267.38	62.98
267.596	36.35
267.812	97.79
268.028	95.74
268.244	-45.57
268.46	50.69
268.676	52.74
268.892	46.59
269.108	-0.51
269.324	-37.38
269.54	83.45
269.756	89.6
269.972	85.5
270.188	44.54
270.403	50.69
270.619	85.5
270.835	32.26
271.051	32.26
271.267	32.26
271.483	1.54
271.698	58.88
271.914	52.74
272.13	85.5
272.346	13.82
272.562	-12.8
272.777	-2.56
272.993	46.59
273.209	3.58
273.425	19.97
273.64	99.84
273.856	112.13
274.072	52.74
274.287	-18.94
274.503	62.98
274.719	26.11
274.934	62.98
275.15	-35.33
275.366	44.54
275.581	-2.56
275.797	3.58
276.012	9.73
276.228	-2.56
276.444	81.41
276.659	108.03
276.875	62.98
277.09	28.16
277.306	-18.94
277.521	56.83
277.737	-0.51
277.952	28.16
278.168	118.27
278.383	19.97
278.599	46.59
278.814	54.78
279.03	77.31
279.245	108.03
279.461	65.02
279.676	40.45
279.892	32.26
280.107	77.31
280.322	5.63
280.538	105.98
280.753	50.69
280.969	54.78
281.184	28.16
281.399	60.93
281.615	54.78
281.83	52.74
282.045	-37.38
282.26	-37.38
282.476	40.45
282.691	28.16
282.906	36.35
283.122	19.97
283.337	73.21
283.552	153.09
283.767	69.12
283.983	36.35
284.198	38.4
284.413	-10.75
284.628	62.98
284.843	118.27
285.058	17.92
285.274	105.98
285.489	77.31
285.704	101.89
285.919	9.73
286.134	-29.18
286.349	65.02
286.564	-18.94
286.779	85.5
286.995	69.12
287.21	-10.75
287.425	48.64
287.64	13.82
287.855	-8.7
288.07	22.02
288.285	36.35
288.5	69.12
288.715	62.98
288.93	-0.51
289.145	1.54
289.36	110.08
289.575	40.45
289.79	56.83
290.004	24.06
290.219	101.89
290.434	77.31
290.649	-2.56
290.864	19.97
291.079	50.69
291.294	52.74
291.509	48.64
291.724	62.98
291.938	-41.47
292.153	101.89
292.368	75.26
292.583	114.17
292.798	73.21
293.012	56.83
293.227	22.02
293.442	5.63
293.657	136.7
293.871	159.23
294.086	5.63
294.301	65.02
294.516	77.31
294.73	54.78
294.945	-2.56
295.16	126.46
295.374	58.88
295.589	77.31
295.804	-4.61
296.018	-41.47
296.233	26.11
296.447	13.82
296.662	44.54
296.877	24.06
297.091	46.59
297.306	56.83
297.52	-35.33
297.735	28.16
297.949	15.87
298.164	9.73
298.378	46.59
298.593	11.78
298.807	3.58
299.022	-12.8
299.236	118.27
299.451	52.74
299.665	44.54
299.88	-14.85
300.094	79.36
300.309	52.74
300.523	87.55
300.737	99.84
300.952	52.74
301.166	62.98
301.381	44.54
301.595	101.89
301.809	30.21
302.024	-27.14
302.238	36.35
302.452	11.78
302.667	81.41
302.881	126.46
303.095	19.97
303.309	30.21
303.524	11.78
303.738	26.11
303.952	34.3
304.166	134.65
304.381	-18.94
304.595	146.94
304.809	13.82
305.023	-29.18
305.237	-4.61
305.452	32.26
305.666	46.59
305.88	30.21
306.094	-16.9
306.308	89.6
306.522	114.17
306.736	60.93
306.95	11.78
307.164	65.02
307.379	101.89
307.593	44.54
307.807	52.74
308.021	101.89
308.235	56.83
308.449	38.4
308.663	-10.75
308.877	93.69
309.091	13.82
309.305	101.89
309.519	-41.47
309.733	101.89
309.947	-29.18
310.161	93.69
310.374	52.74
310.588	116.22
310.802	-27.14
311.016	28.16
311.23	114.17
311.444	62.98
311.658	30.21
311.872	7.68
312.085	-12.8
312.299	52.74
312.513	46.59
312.727	24.06
312.941	36.35
313.154	77.31
313.368	108.03
313.582	85.5
313.796	28.16
314.009	28.16
314.223	85.5
314.437	134.65
314.651	-20.99
314.864	69.12
315.078	7.68
315.292	-18.94
315.505	56.83
315.719	28.16
315.933	62.98
316.146	13.82
316.36	15.87
316.573	91.65
316.787	19.97
317.001	95.74
317.214	-45.57
317.428	38.4
317.641	19.97
317.855	60.93
318.068	56.83
318.282	28.16
318.495	93.69
318.709	71.17
318.922	44.54
319.136	71.17
319.349	56.83
319.563	22.02
319.776	-20.99
319.99	60.93
320.203	15.87
320.417	144.89
320.63	85.5
320.843	118.27
321.057	3.58
321.27	93.69
321.483	67.07
321.697	142.85
321.91	-4.61
322.124	48.64
322.337	58.88
322.55	36.35
322.763	-4.61
322.977	19.97
323.19	19.97
323.403	28.16
323.617	11.78
323.83	142.85
324.043	83.45
324.256	13.82
324.469	11.78
324.683	26.11
324.896	65.02
325.109	-0.51
325.322	103.93
325.535	79.36
325.748	54.78
325.962	60.93
326.175	-12.8
326.388	97.79
326.601	13.82
326.814	-25.09
327.027	19.97
327.24	26.11
327.453	-37.38
327.666	85.5
327.879	151.04
328.092	50.69
328.305	19.97
328.518	24.06
328.731	24.06
328.944	65.02
329.157	79.36
329.37	36.35
329.583	112.13
329.796	85.5
330.009	-45.57
330.222	99.84
330.435	58.88
330.648	3.58
330.861	36.35
331.073	122.37
331.286	93.69
331.499	48.64
331.712	-4.61
331.925	46.59
332.138	19.97
332.35	62.98
332.563	-2.56
332.776	5.63
332.989	48.64
333.202	-27.14
333.414	36.35
333.627	67.07
333.84	87.55
334.053	126.46
334.265	24.06
334.478	52.74
334.691	17.92
334.903	52.74
335.116	-8.7
335.329	15.87
335.541	56.83
335.754	165.37
335.966	28.16
336.179	60.93
336.392	99.84
336.604	85.5
336.817	11.78
337.029	28.16
337.242	36.35
337.454	103.93
337.667	40.45
337.88	71.17
338.092	48.64
338.305	126.46
338.517	-10.75
338.729	-2.56
338.942	93.69
339.154	1.54
339.367	44.54
339.579	54.78
339.792	77.31
340.004	108.03
340.217	118.27
340.429	3.58
340.641	60.93
340.854	95.74
341.066	44.54
341.278	108.03
341.491	75.26
341.703	69.12
341.915	52.74
342.128	50.69
342.34	65.02
342.552	-10.75
342.764	38.4
342.977	28.16
343.189	97.79
343.401	44.54
343.613	-10.75
343.826	22.02
344.038	42.5
344.25	-4.61
344.462	19.97
344.674	62.98
344.886	73.21
345.099	62.98
345.311	3.58
345.523	105.98
345.735	13.82
345.947	40.45
346.159	46.59
346.371	103.93
346.583	36.35
346.795	60.93
347.007	69.12
347.219	5.63
347.431	69.12
347.643	56.83
347.855	24.06
348.067	110.08
348.279	-4.61
348.491	24.06
348.703	1.54
348.915	69.12
349.127	11.78
349.339	110.08
349.551	28.16
349.763	44.54
349.975	19.97
350.187	-39.42
350.399	69.12
350.61	46.59
350.822	-10.75
351.034	40.45
351.246	24.06
351.458	44.54
351.669	44.54
351.881	44.54
352.093	89.6
352.305	42.5
352.517	118.27
352.728	77.31
352.94	44.54
353.152	85.5
353.363	54.78
353.575	122.37
353.787	85.5
353.999	-8.7
354.21	1.54
354.422	54.78
354.633	19.97
354.845	48.64
355.057	15.87
355.268	97.79
355.48	65.02
355.692	-20.99
355.903	3.58
356.115	58.88
356.326	34.3
356.538	93.69
356.749	97.79
356.961	130.56
357.172	44.54
357.384	83.45
357.595	118.27
357.807	1.54
358.018	-10.75
358.23	38.4
358.441	128.51
358.653	81.41
358.864	48.64
359.075	19.97
359.287	46.59
359.498	69.12
359.709	101.89
359.921	101.89
360.132	142.85
360.344	85.5
360.555	46.59
360.766	19.97
360.977	-57.86
361.189	-27.14
361.4	48.64
361.611	118.27
361.823	95.74
362.034	89.6
362.245	22.02
362.456	116.22
362.667	11.78
362.879	69.12
363.09	97.79
363.301	56.83
363.512	73.21
363.723	13.82
363.935	19.97
364.146	5.63
364.357	91.65
364.568	22.02
364.779	-20.99
364.99	69.12
365.201	128.51
365.412	60.93
365.623	-10.75
365.834	65.02
366.045	-16.9
366.256	97.79
366.467	46.59
366.678	77.31
366.889	22.02
367.1	-14.85
367.311	36.35
367.522	116.22
367.733	56.83
367.944	134.65
368.155	-10.75
368.366	26.11
368.577	118.27
368.788	38.4
368.999	62.98
369.209	52.74
369.42	56.83
369.631	120.32
369.842	11.78
370.053	19.97
370.264	30.21
370.474	95.74
370.685	112.13
370.896	15.87
371.107	62.98
371.317	81.41
371.528	44.54
371.739	85.5
371.95	44.54
372.16	65.02
372.371	13.82
372.582	75.26
372.792	75.26
373.003	52.74
373.214	-23.04
373.424	44.54
373.635	11.78
373.846	85.5
374.056	65.02
374.267	7.68
374.477	101.89
374.688	52.74
374.898	77.31
375.109	38.4
375.319	52.74
375.53	60.93
375.74	81.41
375.951	103.93
376.161	134.65
376.372	52.74
376.582	-0.51
376.793	77.31
377.003	52.74
377.214	-12.8
377.424	60.93
377.635	40.45
377.845	32.26
378.055	65.02
378.266	7.68
378.476	28.16
378.686	38.4
378.897	38.4
379.107	103.93
379.317	22.02
379.528	1.54
379.738	15.87
379.948	24.06
380.158	77.31
380.369	-4.61
380.579	132.61
380.789	-2.56
380.999	38.4
381.21	38.4
381.42	105.98
381.63	-14.85
381.84	52.74
382.05	56.83
382.261	28.16
382.471	85.5
382.681	-41.47
382.891	177.66
383.101	65.02
383.311	19.97
383.521	-4.61
383.731	69.12
383.941	142.85
384.151	-29.18
384.361	30.21
384.571	24.06
384.781	-4.61
384.991	81.41
385.201	134.65
385.411	56.83
385.621	112.13
385.831	40.45
386.041	85.5
386.251	65.02
386.461	95.74
386.671	11.78
386.881	54.78
387.091	83.45
387.301	60.93
387.511	36.35
387.72	13.82
387.93	85.5
388.14	58.88
388.35	77.31
388.56	52.74
388.769	36.35
388.979	83.45
389.189	26.11
389.399	134.65
389.609	79.36
389.818	126.46
390.028	67.07
390.238	65.02
390.447	-43.52
390.657	112.13
390.867	40.45
391.076	44.54
391.286	83.45
391.496	15.87
391.705	-12.8
391.915	114.17
392.125	118.27
392.334	15.87
392.544	42.5
392.753	128.51
392.963	36.35
393.172	60.93
393.382	110.08
393.591	183.81
393.801	30.21
394.01	128.51
394.22	52.74
394.429	85.5
394.639	44.54
394.848	142.85
395.058	75.26
395.267	159.23
395.477	60.93
395.686	44.54
395.895	110.08
396.105	151.04
396.314	77.31
396.524	112.13
396.733	60.93
396.942	77.31
397.152	95.74
397.361	28.16
397.57	118.27
397.78	85.5
397.989	-12.8
398.198	183.81
398.407	54.78
398.617	101.89
398.826	77.31
399.035	163.33
399.244	38.4
399.453	110.08
399.663	155.13
399.872	44.54
400.081	60.93
400.29	93.69
400.499	30.21
400.708	122.37
400.917	-20.99
401.127	101.89
401.336	44.54
401.545	151.04
401.754	153.09
401.963	110.08
402.172	114.17
402.381	89.6
402.59	87.55
402.799	118.27
403.008	110.08
403.217	138.75
403.426	126.46
403.635	85.5
403.844	124.41
404.053	116.22
404.262	77.31
404.471	208.38
404.68	126.46
404.888	101.89
405.097	101.89
405.306	93.69
405.515	185.85
405.724	105.98
405.933	95.74
406.142	136.7
406.35	177.66
406.559	134.65
406.768	99.84
406.977	185.85
407.185	142.85
407.394	177.66
407.603	130.56
407.812	157.18
408.02	185.85
408.229	257.53
408.438	171.52
408.646	161.28
408.855	189.95
409.064	206.33
409.272	208.38
409.481	194.05
409.69	192
409.898	112.13
410.107	306.68
410.315	218.62
410.524	177.66
410.733	257.53
410.941	249.34
411.15	267.77
411.358	316.92
411.567	280.06
411.775	286.2
411.984	290.3
412.192	298.49
412.401	259.58
412.609	355.83
412.818	290.3
413.026	364.03
413.234	265.72
413.443	355.83
413.651	388.6
413.86	376.31
414.068	347.64
414.276	425.47
414.485	361.98
414.693	445.95
414.901	454.14
415.11	429.56
415.318	470.52
415.526	445.95
415.734	495.1
415.943	589.3
416.151	566.78
416.359	556.54
416.567	568.82
416.776	581.11
416.984	654.84
417.192	650.74
417.4	695.8
417.608	589.3
417.817	695.8
418.025	732.66
418.233	777.72
418.441	669.17
418.649	816.63
418.857	775.67
419.065	802.29
419.273	800.24
419.481	820.72
419.689	939.51
419.897	859.63
420.105	896.5
420.313	1048.05
420.521	937.46
420.729	982.51
420.937	1013.23
421.145	1043.95
421.353	1203.69
421.561	1211.89
421.769	1207.79
421.977	1275.37
422.185	1330.67
422.393	1367.53
422.601	1529.32
422.809	1371.63
423.017	1416.68
423.224	1478.12
423.432	1572.33
423.64	1572.33
423.848	1867.24
424.056	1750.5
424.263	1732.07
424.471	1857
424.679	1936.87
424.887	1857
425.094	1977.83
425.302	2059.74
425.51	2014.69
425.718	1994.21
425.925	2100.7
426.133	2182.62
426.341	2452.95
426.548	2438.62
426.756	2446.81
426.964	2426.33
427.171	2586.07
427.379	2584.02
427.586	2766.29
427.794	2766.29
428.001	2977.23
428.209	3069.39
428.417	3087.82
428.624	3200.46
428.832	3339.73
429.039	3206.61
429.247	3255.76
429.454	3542.47
429.662	3634.63
429.869	3501.51
430.076	3814.85
430.284	3575.24
430.491	3839.43
430.699	3995.08
430.906	4042.18
431.114	4072.9
431.321	4107.71
431.528	4210.11
431.736	4478.4
431.943	4873.65
432.15	4636.09
432.358	4656.57
432.565	5064.11
432.772	4877.75
432.979	5211.57
433.187	5195.18
433.394	5201.33
433.601	5500.33
433.808	5623.21
434.016	5715.37
434.223	5918.12
434.43	6143.39
434.637	6012.32
434.844	6493.6
435.052	6452.64
435.259	6475.17
435.466	6532.51
435.673	6616.48
435.88	6993.3
436.087	7327.12
436.294	7200.15
436.501	7171.47
436.708	7284.11
436.915	7419.28
437.122	7826.82
437.329	8023.43
437.537	8033.67
437.743	8007.05
437.95	8174.98
438.157	8682.88
438.364	8859
438.571	8717.69
438.778	8850.81
438.985	9866.6
439.192	9344.37
439.399	9528.69
439.606	9207.16
439.813	9991.53
440.02	10587.49
440.227	10302.82
440.433	10141.03
440.64	10538.34
440.847	10480.99
441.054	10644.83
441.261	11345.23
441.467	11408.72
441.674	11455.83
441.881	11943.24
442.088	11894.09
442.294	11814.22
442.501	12203.33
442.708	12375.36
442.914	13071.67
443.121	13393.2
443.328	12940.6
443.534	13753.65
443.741	13528.37
443.948	13374.77
444.154	14335.27
444.361	14165.29
444.568	14447.91
444.774	14269.73
444.981	14533.92
445.187	14953.76
445.394	15664.4
445.6	15379.73
445.807	16903.42
446.013	15930.64
446.22	16246.02
446.426	16813.31
446.633	17001.72
446.839	17784.05
447.046	17059.07
447.252	17835.25
447.459	17771.76
447.665	17964.27
447.871	18832.61
448.078	19451.1
448.284	18347.24
448.491	19119.32
448.697	19920.08
448.903	20067.53
449.11	20456.65
449.316	19797.2
449.522	20280.52
449.728	20927.68
449.935	21173.44
450.141	21193.92
450.347	21589.17
450.553	20952.26
450.76	21193.92
450.966	21830.83
451.172	21623.99
451.378	22222
451.584	21693.62
451.791	22281.39
451.997	22305.96
452.203	22617.25
452.409	22602.92
452.615	22471.85
452.821	21986.48
453.027	21597.37
453.233	22488.23
453.44	21707.96
453.646	22205.61
453.852	22162.61
454.058	22678.69
454.264	21843.12
454.47	22516.9
454.676	21687.48
454.882	22535.34
455.088	20475.08
455.294	20907.2
455.5	21212.35
455.705	21578.93
455.911	20479.18
456.117	20339.91
456.323	19864.78
456.529	18963.68
456.735	19600.6
456.941	19469.53
457.147	18943.2
457.352	18332.9
457.558	18357.48
457.764	18656.48
457.97	18031.85
458.176	17534.2
458.381	17509.62
458.587	16647.43
458.793	16798.98
458.999	15822.09
459.204	17108.22
459.41	16612.61
459.616	15494.42
459.821	15559.95
460.027	15402.26
460.233	15013.15
460.438	14306.6
460.644	14708
460.85	13815.09
461.055	13606.19
461.261	13675.82
461.466	12705.09
461.672	12299.59
461.878	13143.35
462.083	12311.88
462.289	11937.1
462.494	11820.36
462.7	11246.93
462.905	10933.59
463.111	11361.62
463.316	11400.53
463.522	11287.89
463.727	11373.91
463.932	11253.08
464.138	11169.11
464.343	11064.66
464.549	10730.84
464.754	11302.23
464.959	11025.75
465.165	10890.59
465.37	10472.8
465.575	10257.76
465.781	10607.97
465.986	10810.72
466.191	10360.16
466.397	10149.22
466.602	9674.09
466.807	9917.8
467.012	10089.83
467.218	9934.18
467.423	10014.06
467.628	10087.78
467.833	10429.79
