Data from USB4F104151__210__14-45-24-968.txt Node

Date: Thu Mar 13 14:45:24 EDT 2025
User: louis
Spectrometer: USB4F10415
Trigger mode: 4
Integration Time (sec): 2.000000E-2
Scans to average: 1
Electric dark correction enabled: true
Nonlinearity correction enabled: false
Boxcar width: 0
XAxis mode: Wavelengths
Number of Pixels in Spectrum: 3648
>>>>>Begin Spectral Data<<<<<
178.204	-38.4
178.424	-38.4
178.644	-38.4
178.864	-134.65
179.084	-87.55
179.304	0.51
179.524	-44.54
179.744	55.81
179.964	55.81
180.184	51.71
180.404	-22.02
180.624	43.52
180.844	14.85
181.064	-75.26
181.283	-42.5
181.503	-32.26
181.723	-5.63
181.943	-7.68
182.163	109.05
182.383	70.14
182.602	39.42
182.822	-58.88
183.042	80.38
183.262	-13.82
183.482	-67.07
183.701	8.7
183.921	59.9
184.141	12.8
184.361	84.48
184.58	70.14
184.8	39.42
185.02	51.71
185.239	-5.63
185.459	-19.97
185.679	64
185.898	0.51
186.118	92.67
186.338	76.29
186.557	25.09
186.777	33.28
186.997	-17.92
187.216	41.47
187.436	59.9
187.655	72.19
187.875	53.76
188.095	55.81
188.314	74.24
188.534	154.11
188.753	88.57
188.973	96.77
189.192	45.57
189.412	14.85
189.631	-34.3
189.851	72.19
190.07	23.04
190.29	55.81
190.509	47.62
190.729	-5.63
190.948	6.66
191.168	127.49
191.387	129.53
191.607	-9.73
191.826	-9.73
192.045	39.42
192.265	74.24
192.484	23.04
192.704	72.19
192.923	-30.21
193.142	64
193.362	49.66
193.581	113.15
193.8	113.15
194.02	55.81
194.239	14.85
194.458	18.94
194.678	6.66
194.897	57.86
195.116	88.57
195.335	78.33
195.555	39.42
195.774	-9.73
195.993	57.86
196.212	39.42
196.432	131.58
196.651	49.66
196.87	35.33
197.089	145.92
197.308	88.57
197.528	18.94
197.747	-1.54
197.966	6.66
198.185	88.57
198.404	-9.73
198.623	51.71
198.842	31.23
199.062	88.57
199.281	98.81
199.5	-46.59
199.719	14.85
199.938	61.95
200.157	55.81
200.376	72.19
200.595	57.86
200.814	6.66
201.033	-1.54
201.252	98.81
201.471	55.81
201.69	47.62
201.909	4.61
202.128	43.52
202.347	104.96
202.566	43.52
202.785	8.7
203.004	47.62
203.223	172.54
203.442	137.73
203.661	121.34
203.879	33.28
204.098	14.85
204.317	-9.73
204.536	66.05
204.755	-34.3
204.974	104.96
205.193	92.67
205.411	31.23
205.63	12.8
205.849	51.71
206.068	37.38
206.287	80.38
206.505	154.11
206.724	64
206.943	98.81
207.162	47.62
207.381	-34.3
207.599	6.66
207.818	86.53
208.037	55.81
208.255	35.33
208.474	64
208.693	78.33
208.911	25.09
209.13	-32.26
209.349	39.42
209.567	37.38
209.786	39.42
210.005	55.81
210.223	43.52
210.442	27.14
210.661	96.77
210.879	88.57
211.098	23.04
211.316	43.52
211.535	23.04
211.753	-26.11
211.972	33.28
212.191	47.62
212.409	27.14
212.628	121.34
212.846	72.19
213.065	25.09
213.283	125.44
213.502	31.23
213.72	41.47
213.938	66.05
214.157	-34.3
214.375	57.86
214.594	-1.54
214.812	66.05
215.031	66.05
215.249	6.66
215.467	80.38
215.686	66.05
215.904	41.47
216.122	18.94
216.341	113.15
216.559	23.04
216.778	104.96
216.996	117.25
217.214	10.75
217.432	0.51
217.651	14.85
217.869	12.8
218.087	107.01
218.306	53.76
218.524	-17.92
218.742	-5.63
218.96	-1.54
219.179	49.66
219.397	51.71
219.615	98.81
219.833	129.53
220.051	-15.87
220.27	102.91
220.488	4.61
220.706	-1.54
220.924	-1.54
221.142	-34.3
221.36	25.09
221.578	55.81
221.796	-17.92
222.015	-32.26
222.233	-19.97
222.451	57.86
222.669	43.52
222.887	55.81
223.105	72.19
223.323	18.94
223.541	55.81
223.759	55.81
223.977	-38.4
224.195	47.62
224.413	49.66
224.631	51.71
224.849	33.28
225.067	98.81
225.285	53.76
225.503	33.28
225.721	-40.45
225.939	64
226.157	59.9
226.375	117.25
226.592	72.19
226.81	23.04
227.028	78.33
227.246	49.66
227.464	51.71
227.682	82.43
227.9	39.42
228.117	66.05
228.335	98.81
228.553	72.19
228.771	25.09
228.989	184.83
229.206	-15.87
229.424	4.61
229.642	23.04
229.86	-73.21
230.077	27.14
230.295	47.62
230.513	18.94
230.731	55.81
230.948	80.38
231.166	92.67
231.384	90.62
231.601	25.09
231.819	80.38
232.037	10.75
232.254	45.57
232.472	88.57
232.689	59.9
232.907	37.38
233.125	51.71
233.342	35.33
233.56	33.28
233.777	45.57
233.995	86.53
234.213	104.96
234.43	18.94
234.648	-50.69
234.865	-1.54
235.083	61.95
235.3	41.47
235.518	102.91
235.735	145.92
235.953	31.23
236.17	53.76
236.388	23.04
236.605	61.95
236.822	59.9
237.04	-19.97
237.257	49.66
237.475	43.52
237.692	49.66
237.909	80.38
238.127	-22.02
238.344	66.05
238.562	82.43
238.779	-50.69
238.996	14.85
239.214	2.56
239.431	43.52
239.648	96.77
239.865	47.62
240.083	-5.63
240.3	2.56
240.517	92.67
240.735	88.57
240.952	90.62
241.169	68.09
241.386	49.66
241.603	113.15
241.821	-32.26
242.038	68.09
242.255	-24.06
242.472	27.14
242.689	31.23
242.907	57.86
243.124	2.56
243.341	47.62
243.558	2.56
243.775	64
243.992	0.51
244.209	90.62
244.426	92.67
244.643	76.29
244.86	47.62
245.078	25.09
245.295	125.44
245.512	59.9
245.729	-13.82
245.946	68.09
246.163	51.71
246.38	39.42
246.597	74.24
246.814	55.81
247.031	-1.54
247.248	49.66
247.464	-13.82
247.681	31.23
247.898	18.94
248.115	-19.97
248.332	27.14
248.549	88.57
248.766	41.47
248.983	2.56
249.2	39.42
249.417	-1.54
249.633	84.48
249.85	84.48
250.067	82.43
250.284	51.71
250.501	53.76
250.717	55.81
250.934	-1.54
251.151	37.38
251.368	76.29
251.585	74.24
251.801	121.34
252.018	33.28
252.235	74.24
252.451	45.57
252.668	8.7
252.885	-1.54
253.102	35.33
253.318	61.95
253.535	123.39
253.752	49.66
253.968	86.53
254.185	18.94
254.401	-1.54
254.618	96.77
254.835	88.57
255.051	88.57
255.268	66.05
255.484	64
255.701	49.66
255.917	4.61
256.134	8.7
256.351	37.38
256.567	-26.11
256.784	-1.54
257	-9.73
257.217	45.57
257.433	-40.45
257.65	98.81
257.866	59.9
258.082	-9.73
258.299	45.57
258.515	76.29
258.732	14.85
258.948	55.81
259.165	-3.58
259.381	-17.92
259.597	0.51
259.814	51.71
260.03	113.15
260.246	4.61
260.463	104.96
260.679	74.24
260.895	25.09
261.112	33.28
261.328	33.28
261.544	-13.82
261.761	150.01
261.977	51.71
262.193	25.09
262.409	68.09
262.626	45.57
262.842	16.9
263.058	27.14
263.274	82.43
263.49	47.62
263.707	76.29
263.923	64
264.139	49.66
264.355	2.56
264.571	41.47
264.787	14.85
265.004	55.81
265.22	45.57
265.436	45.57
265.652	-17.92
265.868	41.47
266.084	-30.21
266.3	55.81
266.516	8.7
266.732	41.47
266.948	12.8
267.164	111.1
267.38	113.15
267.596	31.23
267.812	104.96
268.028	80.38
268.244	37.38
268.46	-26.11
268.676	31.23
268.892	66.05
269.108	39.42
269.324	20.99
269.54	25.09
269.756	-1.54
269.972	-9.73
270.188	20.99
270.403	-32.26
270.619	31.23
270.835	29.18
271.051	16.9
271.267	33.28
271.483	55.81
271.698	-1.54
271.914	33.28
272.13	64
272.346	-7.68
272.562	-1.54
272.777	72.19
272.993	23.04
273.209	20.99
273.425	6.66
273.64	10.75
273.856	68.09
274.072	18.94
274.287	6.66
274.503	-22.02
274.719	59.9
274.934	35.33
275.15	-69.12
275.366	39.42
275.581	2.56
275.797	64
276.012	23.04
276.228	72.19
276.444	76.29
276.659	88.57
276.875	33.28
277.09	33.28
277.306	-5.63
277.521	104.96
277.737	27.14
277.952	-19.97
278.168	80.38
278.383	49.66
278.599	-7.68
278.814	64
279.03	92.67
279.245	64
279.461	47.62
279.676	84.48
279.892	57.86
280.107	43.52
280.322	51.71
280.538	107.01
280.753	86.53
280.969	59.9
281.184	57.86
281.399	125.44
281.615	72.19
281.83	96.77
282.045	6.66
282.26	8.7
282.476	6.66
282.691	0.51
282.906	90.62
283.122	90.62
283.337	-67.07
283.552	-9.73
283.767	12.8
283.983	104.96
284.198	51.71
284.413	33.28
284.628	-17.92
284.843	76.29
285.058	82.43
285.274	61.95
285.489	14.85
285.704	57.86
285.919	-9.73
286.134	23.04
286.349	8.7
286.564	8.7
286.779	109.05
286.995	59.9
287.21	-40.45
287.425	104.96
287.64	16.9
287.855	92.67
288.07	8.7
288.285	82.43
288.5	0.51
288.715	0.51
288.93	25.09
289.145	-13.82
289.36	14.85
289.575	31.23
289.79	72.19
290.004	80.38
290.219	41.47
290.434	27.14
290.649	4.61
290.864	-32.26
291.079	88.57
291.294	74.24
291.509	96.77
291.724	2.56
291.938	51.71
292.153	117.25
292.368	64
292.583	-7.68
292.798	94.72
293.012	76.29
293.227	31.23
293.442	-24.06
293.657	104.96
293.871	35.33
294.086	18.94
294.301	131.58
294.516	72.19
294.73	-9.73
294.945	51.71
295.16	49.66
295.374	41.47
295.589	0.51
295.804	20.99
296.018	72.19
296.233	39.42
296.447	82.43
296.662	41.47
296.877	104.96
297.091	72.19
297.306	-50.69
297.52	74.24
297.735	6.66
297.949	23.04
298.164	141.82
298.378	31.23
298.593	47.62
298.807	-58.88
299.022	23.04
299.236	66.05
299.451	6.66
299.665	6.66
299.88	0.51
300.094	113.15
300.309	27.14
300.523	41.47
300.737	29.18
300.952	14.85
301.166	59.9
301.381	82.43
301.595	55.81
301.809	59.9
302.024	66.05
302.238	10.75
302.452	82.43
302.667	8.7
302.881	82.43
303.095	43.52
303.309	51.71
303.524	-17.92
303.738	-38.4
303.952	31.23
304.166	66.05
304.381	59.9
304.595	107.01
304.809	35.33
305.023	82.43
305.237	47.62
305.452	51.71
305.666	104.96
305.88	10.75
306.094	80.38
306.308	33.28
306.522	6.66
306.736	23.04
306.95	37.38
307.164	51.71
307.379	80.38
307.593	55.81
307.807	55.81
308.021	33.28
308.235	31.23
308.449	-9.73
308.663	92.67
308.877	107.01
309.091	18.94
309.305	57.86
309.519	-9.73
309.733	66.05
309.947	-13.82
310.161	96.77
310.374	35.33
310.588	6.66
310.802	64
311.016	-13.82
311.23	59.9
311.444	33.28
311.658	64
311.872	121.34
312.085	68.09
312.299	121.34
312.513	84.48
312.727	80.38
312.941	16.9
313.154	113.15
313.368	-9.73
313.582	43.52
313.796	59.9
314.009	51.71
314.223	88.57
314.437	27.14
314.651	59.9
314.864	27.14
315.078	14.85
315.292	64
315.505	16.9
315.719	121.34
315.933	68.09
316.146	49.66
316.36	18.94
316.573	98.81
316.787	31.23
317.001	64
317.214	57.86
317.428	8.7
317.641	39.42
317.855	41.47
318.068	-9.73
318.282	31.23
318.495	74.24
318.709	47.62
318.922	98.81
319.136	113.15
319.349	47.62
319.563	23.04
319.776	6.66
319.99	49.66
320.203	51.71
320.417	6.66
320.63	86.53
320.843	76.29
321.057	23.04
321.27	86.53
321.483	104.96
321.697	96.77
321.91	68.09
322.124	-38.4
322.337	37.38
322.55	37.38
322.763	-38.4
322.977	43.52
323.19	80.38
323.403	90.62
323.617	27.14
323.83	47.62
324.043	18.94
324.256	-1.54
324.469	23.04
324.683	92.67
324.896	47.62
325.109	47.62
325.322	-44.54
325.535	96.77
325.748	55.81
325.962	55.81
326.175	39.42
326.388	96.77
326.601	-22.02
326.814	35.33
327.027	84.48
327.24	88.57
327.453	57.86
327.666	35.33
327.879	49.66
328.092	84.48
328.305	55.81
328.518	41.47
328.731	33.28
328.944	76.29
329.157	41.47
329.37	137.73
329.583	76.29
329.796	107.01
330.009	8.7
330.222	59.9
330.435	72.19
330.648	47.62
330.861	8.7
331.073	109.05
331.286	35.33
331.499	-1.54
331.712	33.28
331.925	18.94
332.138	90.62
332.35	37.38
332.563	68.09
332.776	92.67
332.989	39.42
333.202	20.99
333.414	29.18
333.627	72.19
333.84	80.38
334.053	76.29
334.265	53.76
334.478	68.09
334.691	-26.11
334.903	-26.11
335.116	25.09
335.329	0.51
335.541	47.62
335.754	59.9
335.966	2.56
336.179	25.09
336.392	23.04
336.604	78.33
336.817	8.7
337.029	31.23
337.242	41.47
337.454	29.18
337.667	96.77
337.88	33.28
338.092	-1.54
338.305	-1.54
338.517	-13.82
338.729	115.2
338.942	129.53
339.154	94.72
339.367	25.09
339.579	109.05
339.792	-1.54
340.004	-9.73
340.217	70.14
340.429	31.23
340.641	8.7
340.854	6.66
341.066	-24.06
341.278	125.44
341.491	51.71
341.703	-7.68
341.915	35.33
342.128	59.9
342.34	43.52
342.552	16.9
342.764	72.19
342.977	-11.78
343.189	55.81
343.401	51.71
343.613	43.52
343.826	96.77
344.038	27.14
344.25	59.9
344.462	102.91
344.674	64
344.886	8.7
345.099	59.9
345.311	66.05
345.523	41.47
345.735	64
345.947	72.19
346.159	43.52
346.371	23.04
346.583	6.66
346.795	147.97
347.007	-7.68
347.219	57.86
347.431	66.05
347.643	96.77
347.855	16.9
348.067	158.21
348.279	31.23
348.491	51.71
348.703	14.85
348.915	23.04
349.127	84.48
349.339	23.04
349.551	102.91
349.763	86.53
349.975	70.14
350.187	121.34
350.399	72.19
350.61	51.71
350.822	-5.63
351.034	25.09
351.246	8.7
351.458	41.47
351.669	115.2
351.881	121.34
352.093	123.39
352.305	55.81
352.517	72.19
352.728	76.29
352.94	109.05
353.152	31.23
353.363	14.85
353.575	88.57
353.787	70.14
353.999	109.05
354.21	64
354.422	113.15
354.633	51.71
354.845	-7.68
355.057	35.33
355.268	41.47
355.48	-1.54
355.692	8.7
355.903	90.62
356.115	55.81
356.326	25.09
356.538	59.9
356.749	49.66
356.961	64
357.172	14.85
357.384	113.15
357.595	107.01
357.807	-30.21
358.018	43.52
358.23	27.14
358.441	100.86
358.653	88.57
358.864	59.9
359.075	-22.02
359.287	-13.82
359.498	96.77
359.709	80.38
359.921	47.62
360.132	35.33
360.344	29.18
360.555	104.96
360.766	-1.54
360.977	96.77
361.189	162.3
361.4	0.51
361.611	147.97
361.823	72.19
362.034	57.86
362.245	39.42
362.456	8.7
362.667	70.14
362.879	57.86
363.09	10.75
363.301	35.33
363.512	47.62
363.723	33.28
363.935	-48.64
364.146	88.57
364.357	76.29
364.568	-7.68
364.779	-5.63
364.99	104.96
365.201	0.51
365.412	55.81
365.623	51.71
365.834	143.87
366.045	16.9
366.256	55.81
366.467	43.52
366.678	41.47
366.889	10.75
367.1	90.62
367.311	51.71
367.522	35.33
367.733	31.23
367.944	-13.82
368.155	51.71
368.366	64
368.577	57.86
368.788	92.67
368.999	47.62
369.209	25.09
369.42	145.92
369.631	121.34
369.842	53.76
370.053	39.42
370.264	51.71
370.474	23.04
370.685	27.14
370.896	-17.92
371.107	156.16
371.317	119.29
371.528	74.24
371.739	141.82
371.95	72.19
372.16	96.77
372.371	16.9
372.582	23.04
372.792	-26.11
373.003	72.19
373.214	66.05
373.424	80.38
373.635	70.14
373.846	92.67
374.056	64
374.267	35.33
374.477	49.66
374.688	84.48
374.898	72.19
375.109	129.53
375.319	23.04
375.53	68.09
375.74	98.81
375.951	18.94
376.161	39.42
376.372	154.11
376.582	31.23
376.793	51.71
377.003	31.23
377.214	16.9
377.424	23.04
377.635	123.39
377.845	39.42
378.055	137.73
378.266	18.94
378.476	98.81
378.686	49.66
378.897	80.38
379.107	92.67
379.317	6.66
379.528	37.38
379.738	121.34
379.948	-3.58
380.158	121.34
380.369	35.33
380.579	123.39
380.789	-56.83
380.999	121.34
381.21	-22.02
381.42	109.05
381.63	-5.63
381.84	96.77
382.05	27.14
382.261	49.66
382.471	59.9
382.681	10.75
382.891	147.97
383.101	72.19
383.311	10.75
383.521	25.09
383.731	39.42
383.941	14.85
384.151	64
384.361	66.05
384.571	66.05
384.781	43.52
384.991	82.43
385.201	66.05
385.411	-26.11
385.621	39.42
385.831	59.9
386.041	14.85
386.251	43.52
386.461	41.47
386.671	64
386.881	86.53
387.091	39.42
387.301	18.94
387.511	27.14
387.72	123.39
387.93	135.68
388.14	-17.92
388.35	31.23
388.56	78.33
388.769	59.9
388.979	25.09
389.189	39.42
389.399	104.96
389.609	72.19
389.818	14.85
390.028	78.33
390.238	47.62
390.447	-9.73
390.657	31.23
390.867	80.38
391.076	51.71
391.286	64
391.496	96.77
391.705	72.19
391.915	100.86
392.125	90.62
392.334	57.86
392.544	92.67
392.753	121.34
392.963	-15.87
393.172	47.62
393.382	39.42
393.591	107.01
393.801	129.53
394.01	113.15
394.22	113.15
394.429	31.23
394.639	33.28
394.848	90.62
395.058	96.77
395.267	137.73
395.477	53.76
395.686	82.43
395.895	64
396.105	84.48
396.314	14.85
396.524	111.1
396.733	47.62
396.942	64
397.152	111.1
397.361	98.81
397.57	88.57
397.78	102.91
397.989	78.33
398.198	125.44
398.407	82.43
398.617	47.62
398.826	43.52
399.035	150.01
399.244	125.44
399.453	121.34
399.663	94.72
399.872	74.24
400.081	145.92
400.29	55.81
400.499	10.75
400.708	76.29
400.917	51.71
401.127	64
401.336	100.86
401.545	117.25
401.754	76.29
401.963	129.53
402.172	100.86
402.381	104.96
402.59	90.62
402.799	100.86
403.008	123.39
403.217	117.25
403.426	117.25
403.635	10.75
403.844	59.9
404.053	68.09
404.262	139.77
404.471	145.92
404.68	145.92
404.888	96.77
405.097	186.88
405.306	213.5
405.515	145.92
405.724	199.16
405.933	143.87
406.142	100.86
406.35	205.31
406.559	172.54
406.768	170.49
406.977	145.92
407.185	205.31
407.394	236.03
407.603	166.4
407.812	190.97
408.02	219.64
408.229	293.37
408.438	186.88
408.646	145.92
408.855	178.69
409.064	231.93
409.272	178.69
409.481	219.64
409.69	256.51
409.898	236.03
410.107	260.6
410.315	289.28
410.524	229.88
410.733	317.95
410.941	293.37
411.15	256.51
411.358	371.19
411.567	375.29
411.775	387.58
411.984	326.14
412.192	416.25
412.401	350.71
412.609	395.77
412.818	399.87
413.026	416.25
413.234	442.87
413.443	483.83
413.651	399.87
413.86	381.43
414.068	565.75
414.276	510.46
414.485	514.55
414.693	528.89
414.901	555.51
415.11	494.07
415.318	616.95
415.526	539.13
415.734	670.2
415.943	631.29
416.151	745.97
416.359	649.72
416.567	737.78
416.776	713.21
416.984	778.74
417.192	725.49
417.4	842.23
417.608	690.68
417.817	778.74
418.025	915.95
418.233	950.77
418.441	866.8
418.649	983.54
418.857	999.92
419.065	1022.45
419.273	991.73
419.481	1028.59
419.689	1255.92
419.897	1139.18
420.105	1309.16
420.313	1243.63
420.521	1319.4
420.729	1272.3
420.937	1407.47
421.145	1417.71
421.353	1595.88
421.561	1434.09
421.769	1554.92
421.977	1692.13
422.185	1579.5
422.393	1755.62
422.601	1837.54
422.809	1769.96
423.017	1782.24
423.224	1923.55
423.432	1933.79
423.64	1903.07
423.848	2052.58
424.056	2054.62
424.263	2349.53
424.471	2195.93
424.679	2271.71
424.887	2513.37
425.094	2492.89
425.302	2537.95
425.51	2613.72
425.718	2660.82
425.925	2671.06
426.133	2740.69
426.341	3017.17
426.548	3060.18
426.756	3215.82
426.964	3160.53
427.171	3334.61
427.379	3348.94
427.586	3375.56
427.794	3627.46
428.001	3770.82
428.209	3793.35
428.417	3889.6
428.624	4235.71
428.832	3973.57
429.039	4016.58
429.247	4045.25
429.454	4346.3
429.662	4733.37
429.869	4356.54
430.076	4800.95
430.284	4622.78
430.491	4901.3
430.699	5058.99
430.906	5155.25
431.114	5104.05
431.321	5224.88
431.528	5482.92
431.736	5710.25
431.943	6097.31
432.15	5857.7
432.358	5888.42
432.565	6130.08
432.772	6199.71
432.979	6699.42
433.187	6515.1
433.394	6566.3
433.601	7141.78
433.808	7170.45
434.016	7199.12
434.223	7369.1
434.43	8038.79
434.637	7711.11
434.844	8094.08
435.052	8364.42
435.259	8225.15
435.466	8432
435.673	8317.31
435.88	8700.28
436.087	9437.55
436.294	9238.9
436.501	9083.25
436.708	9097.59
436.915	9574.77
437.122	9896.3
437.329	9847.15
437.537	10099.05
437.743	10402.15
437.95	10424.67
438.157	10799.45
438.364	11354.45
438.571	11352.4
438.778	11516.24
438.985	12196.17
439.192	11905.35
439.399	12118.34
439.606	11747.66
439.813	12722.49
440.02	13340.98
440.227	13025.59
440.433	12935.48
440.64	13279.54
440.847	13306.16
441.054	13697.33
441.261	14457.12
441.467	14283.05
441.674	14588.19
441.881	15061.27
442.088	15063.32
442.294	15087.9
442.501	15272.21
442.708	15745.3
442.914	16269.58
443.121	16785.66
443.328	16732.42
443.534	17506.55
443.741	17279.22
443.948	16843.01
444.154	18202.86
444.361	18211.05
444.568	18184.43
444.774	18286.82
444.981	18424.04
445.187	18700.51
445.394	19529.94
445.6	19546.33
445.807	21590.2
446.013	20416.71
446.22	20742.34
446.426	21960.88
446.633	21424.31
446.839	22233.26
447.046	21457.08
447.252	22560.94
447.459	22900.9
447.665	22720.68
447.871	23853.2
448.078	24705.16
448.284	23355.55
448.491	24473.74
448.697	25155.71
448.903	25671.8
449.11	25626.74
449.316	25335.93
449.522	25559.16
449.728	26333.29
449.935	26601.58
450.141	26488.94
450.347	27531.36
450.553	26505.32
450.76	26865.77
450.966	27658.33
451.172	27324.51
451.378	27826.26
451.584	27435.1
451.791	28207.19
451.997	28047.44
452.203	28840.01
452.409	28653.64
452.615	28491.85
452.821	27615.32
453.027	26904.68
453.233	28899.4
453.44	27510.88
453.646	27969.62
453.852	28135.51
454.058	28512.33
454.264	27856.98
454.47	28221.52
454.676	27242.59
454.882	28590.16
455.088	26013.81
455.294	26538.09
455.5	26755.18
455.705	27150.43
455.911	26056.82
456.117	25794.68
456.323	25241.73
456.529	23539.86
456.735	25086.08
456.941	24551.56
457.147	24098.96
457.352	23220.38
457.558	23292.06
457.764	22845.6
457.97	22864.04
458.176	22251.69
458.381	21881.01
458.587	21227.71
458.793	21258.43
458.999	20052.17
459.204	21831.86
459.41	20621.51
459.616	19488.98
459.821	19542.23
460.027	19417.3
460.233	18921.7
460.438	18114.8
460.644	18190.57
460.85	17428.73
461.055	17213.69
461.261	17135.87
461.466	15913.23
461.672	15526.16
461.878	16320.77
462.083	15526.16
462.289	15077.66
462.494	15132.95
462.7	14192.94
462.905	14016.81
463.111	14657.82
463.316	14453.03
463.522	13984.04
463.727	14143.78
463.932	14166.31
464.138	13914.41
464.343	14080.3
464.549	13828.4
464.754	14010.67
464.959	14086.44
465.165	13926.7
465.37	13177.14
465.575	13123.9
465.781	13390.13
465.986	13639.98
466.191	12970.3
466.397	12902.72
466.602	12091.72
466.807	12616
467.012	12429.63
467.218	12579.14
467.423	12362.05
467.628	12699.97
467.833	12964.15
468.038	12351.81
468.244	12061
468.449	12585.28
468.654	12163.4
468.859	12196.17
