Data from USB4F104151__91__14-43-34-274.txt Node

Date: Thu Mar 13 14:43:34 EDT 2025
User: louis
Spectrometer: USB4F10415
Trigger mode: 4
Integration Time (sec): 2.000000E-2
Scans to average: 1
Electric dark correction enabled: true
Nonlinearity correction enabled: false
Boxcar width: 0
XAxis mode: Wavelengths
Number of Pixels in Spectrum: 3648
>>>>>Begin Spectral Data<<<<<
178.204	-142.5
178.424	-142.5
178.644	-142.5
178.864	-175.27
179.084	-48.3
179.304	62.29
179.524	-19.63
179.744	-11.43
179.964	21.33
180.184	15.19
180.404	-46.25
180.624	50
180.844	-38.06
181.064	-42.15
181.283	0.85
181.503	-21.67
181.723	29.52
181.943	-72.87
182.163	117.59
182.383	41.81
182.602	72.53
182.822	60.24
183.042	50
183.262	23.38
183.482	82.77
183.701	9.05
183.921	25.43
184.141	-19.63
184.361	82.77
184.58	35.67
184.8	29.52
185.02	37.72
185.239	52.05
185.459	58.2
185.679	0.85
185.898	-1.19
186.118	76.63
186.338	-9.39
186.557	-7.34
186.777	-3.24
186.997	21.33
187.216	29.52
187.436	41.81
187.655	64.34
187.875	50
188.095	-13.48
188.314	66.39
188.534	56.15
188.753	31.57
188.973	4.95
189.192	86.87
189.412	-15.53
189.631	37.72
189.851	13.14
190.07	43.86
190.29	-19.63
190.509	45.91
190.729	43.86
190.948	-31.91
191.168	103.25
191.387	-23.72
191.607	2.9
191.826	-11.43
192.045	60.24
192.265	66.39
192.484	-27.82
192.704	21.33
192.923	-21.67
193.142	80.72
193.362	-48.3
193.581	109.4
193.8	-11.43
194.02	-3.24
194.239	-42.15
194.458	19.29
194.678	9.05
194.897	-23.72
195.116	76.63
195.335	0.85
195.555	33.62
195.774	9.05
195.993	76.63
196.212	25.43
196.432	15.19
196.651	-3.24
196.87	-15.53
197.089	70.48
197.308	60.24
197.528	107.35
197.747	-64.68
197.966	0.85
198.185	72.53
198.404	45.91
198.623	58.2
198.842	56.15
199.062	11.09
199.281	43.86
199.5	-13.48
199.719	66.39
199.938	43.86
200.157	82.77
200.376	103.25
200.595	119.64
200.814	4.95
201.033	43.86
201.252	50
201.471	-11.43
201.69	45.91
201.909	58.2
202.128	52.05
202.347	43.86
202.566	-23.72
202.785	-5.29
203.004	-7.34
203.223	84.82
203.442	19.29
203.661	25.43
203.879	47.96
204.098	15.19
204.317	0.85
204.536	2.9
204.755	-60.59
204.974	21.33
205.193	-11.43
205.411	119.64
205.63	-11.43
205.849	86.87
206.068	27.48
206.287	15.19
206.505	29.52
206.724	-31.91
206.943	33.62
207.162	-29.87
207.381	66.39
207.599	-23.72
207.818	23.38
208.037	-15.53
208.255	-7.34
208.474	-13.48
208.693	41.81
208.911	29.52
209.13	25.43
209.349	70.48
209.567	31.57
209.786	99.16
210.005	64.34
210.223	58.2
210.442	17.24
210.661	37.72
210.879	-31.91
211.098	25.43
211.316	13.14
211.535	52.05
211.753	0.85
211.972	60.24
212.191	0.85
212.409	72.53
212.628	15.19
212.846	52.05
213.065	11.09
213.283	17.24
213.502	29.52
213.72	76.63
213.938	-54.44
214.157	-5.29
214.375	25.43
214.594	-7.34
214.812	-15.53
215.031	13.14
215.249	-23.72
215.467	19.29
215.686	17.24
215.904	58.2
216.122	35.67
216.341	43.86
216.559	-15.53
216.778	47.96
216.996	125.78
217.214	-23.72
217.432	0.85
217.651	58.2
217.869	25.43
218.087	74.58
218.306	-23.72
218.524	13.14
218.742	-11.43
218.96	23.38
219.179	-31.91
219.397	41.81
219.615	66.39
219.833	29.52
220.051	-9.39
220.27	29.52
220.488	17.24
220.706	70.48
220.924	-15.53
221.142	-54.44
221.36	25.43
221.578	-29.87
221.796	13.14
222.015	58.2
222.233	-48.3
222.451	115.54
222.669	29.52
222.887	35.67
223.105	-3.24
223.323	-21.67
223.541	13.14
223.759	45.91
223.977	11.09
224.195	41.81
224.413	29.52
224.631	37.72
224.849	33.62
225.067	105.3
225.285	-87.21
225.503	27.48
225.721	-54.44
225.939	-23.72
226.157	13.14
226.375	74.58
226.592	-21.67
226.81	17.24
227.028	95.06
227.246	33.62
227.464	-13.48
227.682	-64.68
227.9	41.81
228.117	50
228.335	33.62
228.553	-7.34
228.771	0.85
228.989	9.05
229.206	39.76
229.424	52.05
229.642	-15.53
229.86	-46.25
230.077	-15.53
230.295	41.81
230.513	-27.82
230.731	90.96
230.948	66.39
231.166	52.05
231.384	13.14
231.601	0.85
231.819	17.24
232.037	25.43
232.254	4.95
232.472	11.09
232.689	50
232.907	58.2
233.125	4.95
233.342	33.62
233.56	-36.01
233.777	27.48
233.995	56.15
234.213	60.24
234.43	74.58
234.648	-13.48
234.865	-62.63
235.083	13.14
235.3	45.91
235.518	0.85
235.735	4.95
235.953	109.4
236.17	-5.29
236.388	0.85
236.605	-40.11
236.822	50
237.04	68.44
237.257	-13.48
237.475	-23.72
237.692	52.05
237.909	76.63
238.127	-60.59
238.344	95.06
238.562	19.29
238.779	2.9
238.996	-42.15
239.214	17.24
239.431	45.91
239.648	60.24
239.865	54.1
240.083	-60.59
240.3	-48.3
240.517	2.9
240.735	66.39
240.952	74.58
241.169	-5.29
241.386	-19.63
241.603	17.24
241.821	-13.48
242.038	47.96
242.255	13.14
242.472	50
242.689	-23.72
242.907	93.01
243.124	74.58
243.341	66.39
243.558	-19.63
243.775	31.57
243.992	15.19
244.209	54.1
244.426	-7.34
244.643	62.29
244.86	21.33
245.078	90.96
245.295	80.72
245.512	-52.39
245.729	-21.67
245.946	29.52
246.163	19.29
246.38	-40.11
246.597	27.48
246.814	33.62
247.031	33.62
247.248	27.48
247.464	66.39
247.681	-3.24
247.898	-7.34
248.115	50
248.332	-36.01
248.549	15.19
248.766	101.2
248.983	43.86
249.2	0.85
249.417	58.2
249.633	74.58
249.85	-25.77
250.067	-38.06
250.284	0.85
250.501	23.38
250.717	31.57
250.934	-15.53
251.151	64.34
251.368	-3.24
251.585	0.85
251.801	58.2
252.018	-40.11
252.235	52.05
252.451	15.19
252.668	17.24
252.885	50
253.102	-31.91
253.318	23.38
253.535	-5.29
253.752	-19.63
253.968	-3.24
254.185	-7.34
254.401	13.14
254.618	50
254.835	-21.67
255.051	70.48
255.268	9.05
255.484	33.62
255.701	41.81
255.917	-7.34
256.134	-21.67
256.351	43.86
256.567	-11.43
256.784	58.2
257	-15.53
257.217	17.24
257.433	93.01
257.65	-15.53
257.866	9.05
258.082	-46.25
258.299	41.81
258.515	39.76
258.732	0.85
258.948	35.67
259.165	37.72
259.381	-3.24
259.597	43.86
259.814	-27.82
260.03	17.24
260.246	41.81
260.463	35.67
260.679	21.33
260.895	50
261.112	25.43
261.328	-23.72
261.544	0.85
261.761	78.68
261.977	0.85
262.193	21.33
262.409	4.95
262.626	115.54
262.842	27.48
263.058	-122.02
263.274	13.14
263.49	150.36
263.707	9.05
263.923	78.68
264.139	-15.53
264.355	-38.06
264.571	-48.3
264.787	35.67
265.004	45.91
265.22	37.72
265.436	-15.53
265.652	54.1
265.868	25.43
266.084	-52.39
266.3	-60.59
266.516	-1.19
266.732	76.63
266.948	-15.53
267.164	70.48
267.38	13.14
267.596	-60.59
267.812	58.2
268.028	-15.53
268.244	-5.29
268.46	-15.53
268.676	50
268.892	54.1
269.108	-44.2
269.324	-9.39
269.54	-27.82
269.756	82.77
269.972	9.05
270.188	27.48
270.403	33.62
270.619	-33.96
270.835	-15.53
271.051	-7.34
271.267	17.24
271.483	-15.53
271.698	52.05
271.914	52.05
272.13	4.95
272.346	58.2
272.562	0.85
272.777	60.24
272.993	58.2
273.209	-19.63
273.425	41.81
273.64	-36.01
273.856	99.16
274.072	27.48
274.287	35.67
274.503	74.58
274.719	52.05
274.934	-7.34
275.15	-21.67
275.366	-52.39
275.581	35.67
275.797	21.33
276.012	-11.43
276.228	33.62
276.444	25.43
276.659	76.63
276.875	74.58
277.09	31.57
277.306	9.05
277.521	101.2
277.737	-58.54
277.952	95.06
278.168	82.77
278.383	101.2
278.599	17.24
278.814	45.91
279.03	-56.49
279.245	72.53
279.461	-64.68
279.676	90.96
279.892	-13.48
280.107	54.1
280.322	-19.63
280.538	17.24
280.753	-7.34
280.969	9.05
281.184	-7.34
281.399	43.86
281.615	9.05
281.83	-7.34
282.045	-3.24
282.26	-19.63
282.476	-56.49
282.691	82.77
282.906	31.57
283.122	25.43
283.337	0.85
283.552	62.29
283.767	-21.67
283.983	41.81
284.198	31.57
284.413	70.48
284.628	74.58
284.843	33.62
285.058	82.77
285.274	-13.48
285.489	9.05
285.704	-23.72
285.919	41.81
286.134	-11.43
286.349	-36.01
286.564	27.48
286.779	58.2
286.995	62.29
287.21	-21.67
287.425	-7.34
287.64	29.52
287.855	60.24
288.07	82.77
288.285	25.43
288.5	35.67
288.715	60.24
288.93	17.24
289.145	50
289.36	-3.24
289.575	43.86
289.79	-5.29
290.004	25.43
290.219	11.09
290.434	-29.87
290.649	60.24
290.864	0.85
291.079	-19.63
291.294	0.85
291.509	-7.34
291.724	-27.82
291.938	23.38
292.153	70.48
292.368	-40.11
292.583	2.9
292.798	84.82
293.012	2.9
293.227	45.91
293.442	-29.87
293.657	80.72
293.871	-1.19
294.086	13.14
294.301	115.54
294.516	-3.24
294.73	27.48
294.945	-72.87
295.16	-11.43
295.374	-29.87
295.589	25.43
295.804	13.14
296.018	43.86
296.233	82.77
296.447	74.58
296.662	-15.53
296.877	123.73
297.091	-11.43
297.306	17.24
297.52	78.68
297.735	35.67
297.949	17.24
298.164	41.81
298.378	9.05
298.593	-68.78
298.807	4.95
299.022	-7.34
299.236	50
299.451	-15.53
299.665	-3.24
299.88	21.33
300.094	50
300.309	-11.43
300.523	33.62
300.737	-15.53
300.952	33.62
301.166	50
301.381	33.62
301.595	7
301.809	35.67
302.024	13.14
302.238	19.29
302.452	-9.39
302.667	15.19
302.881	90.96
303.095	33.62
303.309	52.05
303.524	-23.72
303.738	9.05
303.952	-7.34
304.166	144.21
304.381	-42.15
304.595	-21.67
304.809	-19.63
305.023	90.96
305.237	52.05
305.452	17.24
305.666	-21.67
305.88	97.11
306.094	72.53
306.308	37.72
306.522	84.82
306.736	58.2
306.95	2.9
307.164	33.62
307.379	9.05
307.593	52.05
307.807	-5.29
308.021	17.24
308.235	88.92
308.449	-31.91
308.663	60.24
308.877	121.68
309.091	70.48
309.305	82.77
309.519	0.85
309.733	37.72
309.947	-38.06
310.161	35.67
310.374	50
310.588	33.62
310.802	-56.49
311.016	-13.48
311.23	17.24
311.444	-38.06
311.658	74.58
311.872	33.62
312.085	60.24
312.299	41.81
312.513	33.62
312.727	54.1
312.941	-23.72
313.154	-7.34
313.368	-13.48
313.582	66.39
313.796	43.86
314.009	33.62
314.223	90.96
314.437	105.3
314.651	-31.91
314.864	-11.43
315.078	-21.67
315.292	-19.63
315.505	70.48
315.719	82.77
315.933	27.48
316.146	19.29
316.36	27.48
316.573	142.16
316.787	13.14
317.001	60.24
317.214	-1.19
317.428	-15.53
317.641	-60.59
317.855	52.05
318.068	29.52
318.282	21.33
318.495	27.48
318.709	17.24
318.922	-25.77
319.136	99.16
319.349	13.14
319.563	54.1
319.776	4.95
319.99	-7.34
320.203	58.2
320.417	23.38
320.63	50
320.843	95.06
321.057	70.48
321.27	31.57
321.483	60.24
321.697	78.68
321.91	41.81
322.124	19.29
322.337	-11.43
322.55	-3.24
322.763	84.82
322.977	33.62
323.19	4.95
323.403	-79.02
323.617	9.05
323.83	15.19
324.043	9.05
324.256	17.24
324.469	2.9
324.683	99.16
324.896	19.29
325.109	-31.91
325.322	-15.53
325.535	43.86
325.748	4.95
325.962	2.9
326.175	-81.07
326.388	17.24
326.601	41.81
326.814	11.09
327.027	25.43
327.24	50
327.453	-25.77
327.666	29.52
327.879	41.81
328.092	19.29
328.305	-7.34
328.518	-13.48
328.731	76.63
328.944	9.05
329.157	13.14
329.37	21.33
329.583	27.48
329.796	90.96
330.009	-23.72
330.222	60.24
330.435	88.92
330.648	54.1
330.861	11.09
331.073	13.14
331.286	64.34
331.499	19.29
331.712	-7.34
331.925	80.72
332.138	86.87
332.35	37.72
332.563	-66.73
332.776	25.43
332.989	-21.67
333.202	45.91
333.414	58.2
333.627	86.87
333.84	7
334.053	37.72
334.265	19.29
334.478	-27.82
334.691	-27.82
334.903	-54.44
335.116	41.81
335.329	-15.53
335.541	29.52
335.754	39.76
335.966	-21.67
336.179	0.85
336.392	9.05
336.604	-5.29
336.817	27.48
337.029	29.52
337.242	0.85
337.454	56.15
337.667	11.09
337.88	21.33
338.092	2.9
338.305	86.87
338.517	0.85
338.729	39.76
338.942	90.96
339.154	52.05
339.367	21.33
339.579	4.95
339.792	43.86
340.004	15.19
340.217	-38.06
340.429	11.09
340.641	-7.34
340.854	0.85
341.066	-11.43
341.278	23.38
341.491	146.26
341.703	31.57
341.915	0.85
342.128	33.62
342.34	9.05
342.552	-21.67
342.764	7
342.977	33.62
343.189	27.48
343.401	-42.15
343.613	2.9
343.826	19.29
344.038	31.57
344.25	50
344.462	-31.91
344.674	136.02
344.886	-15.53
345.099	7
345.311	93.01
345.523	41.81
345.735	-11.43
345.947	9.05
346.159	25.43
346.371	43.86
346.583	50
346.795	86.87
347.007	50
347.219	25.43
347.431	27.48
347.643	-5.29
347.855	62.29
348.067	13.14
348.279	33.62
348.491	7
348.703	25.43
348.915	29.52
349.127	2.9
349.339	62.29
349.551	-15.53
349.763	50
349.975	2.9
350.187	43.86
350.399	33.62
350.61	90.96
350.822	70.48
351.034	58.2
351.246	-44.2
351.458	41.81
351.669	39.76
351.881	74.58
352.093	17.24
352.305	4.95
352.517	86.87
352.728	52.05
352.94	60.24
353.152	66.39
353.363	66.39
353.575	7
353.787	33.62
353.999	66.39
354.21	82.77
354.422	-27.82
354.633	43.86
354.845	66.39
355.057	-19.63
355.268	27.48
355.48	50
355.692	33.62
355.903	39.76
356.115	37.72
356.326	-13.48
356.538	90.96
356.749	54.1
356.961	74.58
357.172	41.81
357.384	-48.3
357.595	86.87
357.807	4.95
358.018	-27.82
358.23	50
358.441	17.24
358.653	33.62
358.864	50
359.075	21.33
359.287	68.44
359.498	66.39
359.709	45.91
359.921	17.24
360.132	43.86
360.344	17.24
360.555	76.63
360.766	23.38
360.977	-54.44
361.189	29.52
361.4	50
361.611	31.57
361.823	56.15
362.034	-13.48
362.245	-1.19
362.456	78.68
362.667	-21.67
362.879	-13.48
363.09	27.48
363.301	76.63
363.512	11.09
363.723	-7.34
363.935	7
364.146	-5.29
364.357	54.1
364.568	142.16
364.779	9.05
364.99	121.68
365.201	17.24
365.412	82.77
365.623	58.2
365.834	138.07
366.045	25.43
366.256	58.2
366.467	93.01
366.678	74.58
366.889	13.14
367.1	25.43
367.311	50
367.522	-21.67
367.733	84.82
367.944	11.09
368.155	74.58
368.366	78.68
368.577	-13.48
368.788	-7.34
368.999	-58.54
369.209	25.43
369.42	93.01
369.631	125.78
369.842	109.4
370.053	25.43
370.264	41.81
370.474	66.39
370.685	103.25
370.896	21.33
371.107	82.77
371.317	50
371.528	-13.48
371.739	43.86
371.95	86.87
372.16	35.67
372.371	-3.24
372.582	41.81
372.792	-15.53
373.003	90.96
373.214	84.82
373.424	74.58
373.635	66.39
373.846	107.35
374.056	-50.35
374.267	0.85
374.477	17.24
374.688	11.09
374.898	45.91
375.109	41.81
375.319	72.53
375.53	31.57
375.74	-15.53
375.951	66.39
376.161	74.58
376.372	142.16
376.582	-31.91
376.793	-5.29
377.003	-29.87
377.214	31.57
377.424	70.48
377.635	19.29
377.845	-19.63
378.055	70.48
378.266	11.09
378.476	54.1
378.686	66.39
378.897	107.35
379.107	15.19
379.317	107.35
379.528	-31.91
379.738	37.72
379.948	-48.3
380.158	9.05
380.369	17.24
380.579	35.67
380.789	52.05
380.999	21.33
381.21	45.91
381.42	74.58
381.63	84.82
381.84	21.33
382.05	37.72
382.261	90.96
382.471	52.05
382.681	-21.67
382.891	123.73
383.101	60.24
383.311	-74.92
383.521	-7.34
383.731	74.58
383.941	133.97
384.151	52.05
384.361	80.72
384.571	25.43
384.781	74.58
384.991	172.88
385.201	88.92
385.411	15.19
385.621	60.24
385.831	41.81
386.041	58.2
386.251	25.43
386.461	27.48
386.671	37.72
386.881	99.16
387.091	9.05
387.301	66.39
387.511	-9.39
387.72	-38.06
387.93	35.67
388.14	-3.24
388.35	84.82
388.56	70.48
388.769	37.72
388.979	29.52
389.189	101.2
389.399	78.68
389.609	-15.53
389.818	93.01
390.028	29.52
390.238	0.85
390.447	4.95
390.657	54.1
390.867	93.01
391.076	35.67
391.286	23.38
391.496	62.29
391.705	129.88
391.915	129.88
392.125	68.44
392.334	9.05
392.544	68.44
392.753	17.24
392.963	93.01
393.172	2.9
393.382	56.15
393.591	45.91
393.801	27.48
394.01	95.06
394.22	125.78
394.429	33.62
394.639	74.58
394.848	133.97
395.058	209.75
395.267	50
395.477	95.06
395.686	25.43
395.895	74.58
396.105	103.25
396.314	86.87
396.524	52.05
396.733	54.1
396.942	115.54
397.152	99.16
397.361	74.58
397.57	93.01
397.78	88.92
397.989	33.62
398.198	111.44
398.407	117.59
398.617	119.64
398.826	-21.67
399.035	107.35
399.244	148.31
399.453	123.73
399.663	123.73
399.872	70.48
400.081	107.35
400.29	105.3
400.499	35.67
400.708	84.82
400.917	109.4
401.127	50
401.336	17.24
401.545	189.27
401.754	86.87
401.963	74.58
402.172	62.29
402.381	156.5
402.59	111.44
402.799	39.76
403.008	152.4
403.217	156.5
403.426	64.34
403.635	90.96
403.844	103.25
404.053	93.01
404.262	78.68
404.471	203.6
404.68	50
404.888	103.25
405.097	123.73
405.306	160.59
405.515	152.4
405.724	107.35
405.933	144.21
406.142	191.31
406.35	93.01
406.559	123.73
406.768	150.36
406.977	238.42
407.185	166.74
407.394	160.59
407.603	191.31
407.812	181.07
408.02	232.27
408.229	256.85
408.438	213.84
408.646	197.46
408.855	181.07
409.064	250.71
409.272	209.75
409.481	172.88
409.69	254.8
409.898	230.23
410.107	312.14
410.315	265.04
410.524	244.56
410.733	320.34
410.941	228.18
411.15	328.53
411.358	381.78
411.567	344.91
411.775	344.91
411.984	336.72
412.192	426.83
412.401	410.45
412.609	443.21
412.818	404.3
413.026	410.45
413.234	469.84
413.443	467.79
413.651	498.51
413.86	457.55
414.068	490.32
414.276	533.33
414.485	557.9
414.693	615.24
414.901	598.86
415.11	602.96
415.318	654.16
415.526	598.86
415.734	682.83
415.943	688.97
416.151	746.31
416.359	680.78
416.567	713.55
416.776	764.75
416.984	779.08
417.192	856.9
417.4	885.58
417.608	807.75
417.817	938.82
418.025	918.34
418.233	996.17
418.441	1051.46
418.649	942.92
418.857	1164.1
419.065	1125.19
419.273	1071.94
419.481	1170.24
419.689	1223.49
419.897	1278.79
420.105	1352.51
420.313	1377.09
420.521	1315.65
420.729	1430.34
420.937	1499.97
421.145	1518.4
421.353	1532.73
421.561	1641.28
421.769	1704.76
421.977	1706.81
422.185	1770.3
422.393	1893.18
422.601	1864.5
422.809	1917.75
423.017	1987.38
423.224	2100.02
423.432	2118.45
423.64	2159.41
423.848	2310.96
424.056	2317.11
424.263	2376.5
424.471	2458.42
424.679	2450.22
424.887	2507.57
425.094	2808.62
425.302	2757.42
425.51	2722.6
425.718	2892.59
425.925	2919.21
426.133	2929.45
426.341	3302.18
426.548	3443.49
426.756	3253.03
426.964	3341.09
427.171	3625.76
427.379	3679.01
427.586	3836.7
427.794	3891.99
428.001	4023.06
428.209	4160.28
428.417	4033.3
428.624	4485.9
428.832	4451.09
429.039	4317.97
429.247	4397.84
429.454	4842.25
429.662	5090.06
429.869	4850.44
430.076	5266.18
430.284	4956.94
430.491	5292.8
430.699	5493.51
430.906	5524.23
431.114	5622.53
431.321	5776.13
431.528	5925.63
431.736	6376.18
431.943	6513.39
432.15	6423.28
432.358	6480.63
432.565	6742.77
432.772	6791.92
432.979	7135.98
433.187	7221.99
433.394	7400.16
433.601	7588.58
433.808	7858.91
434.016	7807.71
434.223	8028.89
434.43	8526.55
434.637	8276.7
434.844	8841.93
435.052	9081.55
435.259	8784.59
435.466	8995.53
435.673	8901.33
435.88	9693.89
436.087	10023.61
436.294	10003.13
436.501	9714.37
436.708	10027.71
436.915	10298.04
437.122	10678.96
437.329	10828.46
437.537	11342.5
437.743	11238.06
437.95	11408.04
438.157	11676.32
438.364	12225.18
438.571	12100.25
438.778	12102.3
438.985	13503.11
439.192	12767.89
439.399	13083.28
439.606	12880.53
439.813	13742.72
440.02	14664.31
440.227	14432.89
440.433	14226.04
440.64	14508.66
440.847	14531.19
441.054	14924.4
441.261	15880.8
441.467	15659.62
441.674	15891.04
441.881	16376.41
442.088	16753.24
442.294	16073.31
442.501	16945.75
442.708	17091.15
442.914	17726.02
443.121	18383.42
443.328	17977.92
443.534	19049.01
443.741	18524.73
443.948	18086.47
444.154	19374.64
444.361	19577.39
444.568	19544.62
444.774	19780.14
444.981	19837.48
445.187	20601.37
445.394	21408.27
445.6	21119.51
445.807	23177.72
446.013	22086.15
446.22	22612.48
446.426	23271.92
446.633	23515.63
446.839	24715.74
447.046	23663.08
447.252	24855
447.459	24990.17
447.665	24760.8
447.871	25559.5
448.078	26868.16
448.284	25567.7
448.491	26378.69
448.697	27445.68
448.903	28053.93
449.11	28068.27
449.316	27705.77
449.522	27972.01
449.728	28756.38
449.935	28983.71
450.141	28952.99
450.347	29634.96
450.553	28823.97
450.76	29094.3
450.966	30067.08
451.172	29802.89
451.378	30181.77
451.584	29798.8
451.791	30439.81
451.997	30542.21
452.203	31127.93
452.409	31400.31
452.615	31205.75
452.821	29735.31
453.027	29649.3
453.233	31084.92
453.44	30130.57
453.646	30460.29
453.852	30437.76
454.058	30982.52
454.264	29878.67
454.47	30675.33
454.676	29878.67
454.882	30863.74
455.088	28473.76
455.294	28950.94
455.5	29116.83
455.705	29464.98
455.911	28105.13
456.117	27802.03
456.323	27703.73
456.529	26122.69
456.735	27281.85
456.941	26810.81
457.147	26264
457.352	25412.05
457.558	25178.58
457.764	25199.06
457.97	25016.79
458.176	23982.57
458.381	24203.75
458.587	22956.54
458.793	22921.72
458.999	21920.26
459.204	23497.2
459.41	22821.37
459.616	21375.5
459.821	21287.44
460.027	21242.39
460.233	20963.86
460.438	19749.42
460.644	20019.75
460.85	19128.88
461.055	18825.78
461.261	18838.07
461.466	17234.51
461.672	17015.38
461.878	18006.59
462.083	17099.34
462.289	16573.02
462.494	16560.73
462.7	15657.57
462.905	15516.26
463.111	15815.27
463.316	15848.04
463.522	15440.49
463.727	15557.22
463.932	15487.59
464.138	15450.73
464.343	15200.88
464.549	14918.26
464.754	15405.67
464.959	15272.56
465.165	15063.66
465.37	14672.5
465.575	14082.69
465.781	14715.51
465.986	14656.12
466.191	14344.83
466.397	13951.62
466.602	13273.74
466.807	13748.87
467.012	13910.66
467.218	13523.59
467.423	13666.95
467.628	13441.67
467.833	14125.69
468.038	13886.08
468.244	13429.38
468.449	13892.23
