Data from USB4F104151__254__14-45-55-701.txt Node

Date: Thu Mar 13 14:45:55 EDT 2025
User: louis
Spectrometer: USB4F10415
Trigger mode: 4
Integration Time (sec): 2.000000E-2
Scans to average: 1
Electric dark correction enabled: true
Nonlinearity correction enabled: false
Boxcar width: 0
XAxis mode: Wavelengths
Number of Pixels in Spectrum: 3648
>>>>>Begin Spectral Data<<<<<
178.204	-88.75
178.424	-88.75
178.644	-88.75
178.864	-162.47
179.084	-78.51
179.304	21.84
179.524	36.18
179.744	-31.4
179.964	-2.73
180.184	9.56
180.404	1.37
180.624	-0.68
180.844	60.76
181.064	-23.21
181.283	-37.55
181.503	5.46
181.723	-39.59
181.943	-90.79
182.163	83.28
182.383	-53.93
182.602	58.71
182.822	-6.83
183.042	25.94
183.262	64.85
183.482	-33.45
183.701	-10.92
183.921	-8.87
184.141	1.37
184.361	7.51
184.58	25.94
184.8	27.99
185.02	-37.55
185.239	44.37
185.459	11.61
185.679	-19.11
185.898	-88.75
186.118	27.99
186.338	36.18
186.557	3.41
186.777	-84.65
186.997	116.05
187.216	36.18
187.436	124.24
187.655	83.28
187.875	58.71
188.095	9.56
188.314	71
188.534	36.18
188.753	-10.92
188.973	-19.11
189.192	-2.73
189.412	58.71
189.631	-2.73
189.851	32.08
190.07	66.9
190.29	-21.16
190.509	66.9
190.729	44.37
190.948	27.99
191.168	73.04
191.387	-23.21
191.607	17.75
191.826	-23.21
192.045	-2.73
192.265	66.9
192.484	48.47
192.704	42.32
192.923	17.75
193.142	87.38
193.362	68.95
193.581	163.15
193.8	42.32
194.02	58.71
194.239	87.38
194.458	13.65
194.678	66.9
194.897	54.61
195.116	50.52
195.335	64.85
195.555	46.42
195.774	13.65
195.993	-21.16
196.212	15.7
196.432	50.52
196.651	42.32
196.87	30.04
197.089	120.15
197.308	-37.55
197.528	66.9
197.747	58.71
197.966	52.56
198.185	60.76
198.404	-6.83
198.623	1.37
198.842	99.67
199.062	42.32
199.281	83.28
199.5	1.37
199.719	7.51
199.938	42.32
200.157	54.61
200.376	91.48
200.595	99.67
200.814	5.46
201.033	15.7
201.252	19.8
201.471	13.65
201.69	111.96
201.909	27.99
202.128	48.47
202.347	66.9
202.566	38.23
202.785	-12.97
203.004	-6.83
203.223	103.76
203.442	-47.79
203.661	17.75
203.879	42.32
204.098	167.25
204.317	-23.21
204.536	38.23
204.755	34.13
204.974	17.75
205.193	-0.68
205.411	99.67
205.63	66.9
205.849	44.37
206.068	3.41
206.287	3.41
206.505	42.32
206.724	-10.92
206.943	-27.31
207.162	83.28
207.381	66.9
207.599	19.8
207.818	-43.69
208.037	32.08
208.255	-15.02
208.474	-37.55
208.693	19.8
208.911	38.23
209.13	-10.92
209.349	91.48
209.567	60.76
209.786	71
210.005	93.52
210.223	62.8
210.442	-4.78
210.661	-6.83
210.879	34.13
211.098	42.32
211.316	34.13
211.535	91.48
211.753	42.32
211.972	36.18
212.191	-70.31
212.409	27.99
212.628	-8.87
212.846	-43.69
213.065	99.67
213.283	58.71
213.502	-6.83
213.72	-51.88
213.938	75.09
214.157	103.76
214.375	25.94
214.594	-53.93
214.812	-2.73
215.031	50.52
215.249	7.51
215.467	52.56
215.686	75.09
215.904	75.09
216.122	-31.4
216.341	95.57
216.559	9.56
216.778	25.94
216.996	27.99
217.214	-15.02
217.432	-33.45
217.651	-19.11
217.869	66.9
218.087	-10.92
218.306	25.94
218.524	77.14
218.742	1.37
218.96	93.52
219.179	5.46
219.397	66.9
219.615	91.48
219.833	34.13
220.051	9.56
220.27	36.18
220.488	42.32
220.706	38.23
220.924	9.56
221.142	42.32
221.36	44.37
221.578	25.94
221.796	-15.02
222.015	56.66
222.233	1.37
222.451	68.95
222.669	-39.59
222.887	15.7
223.105	23.89
223.323	21.84
223.541	-41.64
223.759	71
223.977	89.43
224.195	99.67
224.413	-35.5
224.631	58.71
224.849	54.61
225.067	11.61
225.285	13.65
225.503	-68.27
225.721	44.37
225.939	25.94
226.157	91.48
226.375	89.43
226.592	1.37
226.81	-2.73
227.028	91.48
227.246	50.52
227.464	13.65
227.682	68.95
227.9	19.8
228.117	99.67
228.335	-15.02
228.553	50.52
228.771	-6.83
228.989	75.09
229.206	-6.83
229.424	83.28
229.642	36.18
229.86	42.32
230.077	3.41
230.295	-2.73
230.513	93.52
230.731	27.99
230.948	60.76
231.166	68.95
231.384	73.04
231.601	-45.74
231.819	17.75
232.037	68.95
232.254	3.41
232.472	83.28
232.689	-12.97
232.907	21.84
233.125	50.52
233.342	27.99
233.56	11.61
233.777	58.71
233.995	7.51
234.213	120.15
234.43	-6.83
234.648	42.32
234.865	60.76
235.083	42.32
235.3	-21.16
235.518	11.61
235.735	42.32
235.953	89.43
236.17	15.7
236.388	54.61
236.605	1.37
236.822	60.76
237.04	38.23
237.257	25.94
237.475	34.13
237.692	1.37
237.909	66.9
238.127	77.14
238.344	81.24
238.562	42.32
238.779	9.56
238.996	27.99
239.214	32.08
239.431	73.04
239.648	-76.46
239.865	68.95
240.083	50.52
240.3	17.75
240.517	7.51
240.735	9.56
240.952	81.24
241.169	52.56
241.386	79.19
241.603	34.13
241.821	-2.73
242.038	19.8
242.255	79.19
242.472	25.94
242.689	60.76
242.907	36.18
243.124	-6.83
243.341	15.7
243.558	34.13
243.775	13.65
243.992	-70.31
244.209	21.84
244.426	87.38
244.643	34.13
244.86	-27.31
245.078	34.13
245.295	17.75
245.512	13.65
245.729	27.99
245.946	75.09
246.163	79.19
246.38	83.28
246.597	58.71
246.814	50.52
247.031	34.13
247.248	52.56
247.464	60.76
247.681	19.8
247.898	21.84
248.115	-12.97
248.332	-2.73
248.549	83.28
248.766	107.86
248.983	91.48
249.2	30.04
249.417	-21.16
249.633	27.99
249.85	1.37
250.067	9.56
250.284	62.8
250.501	71
250.717	99.67
250.934	-68.27
251.151	32.08
251.368	-21.16
251.585	42.32
251.801	46.42
252.018	-6.83
252.235	27.99
252.451	25.94
252.668	36.18
252.885	66.9
253.102	66.9
253.318	42.32
253.535	15.7
253.752	1.37
253.968	-4.78
254.185	52.56
254.401	52.56
254.618	-12.97
254.835	52.56
255.051	116.05
255.268	21.84
255.484	-23.21
255.701	52.56
255.917	-15.02
256.134	21.84
256.351	60.76
256.567	42.32
256.784	85.33
257	1.37
257.217	25.94
257.433	-21.16
257.65	-10.92
257.866	-35.5
258.082	11.61
258.299	-15.02
258.515	25.94
258.732	19.8
258.948	-17.07
259.165	58.71
259.381	-15.02
259.597	5.46
259.814	58.71
260.03	-23.21
260.246	50.52
260.463	46.42
260.679	56.66
260.895	46.42
261.112	54.61
261.328	-2.73
261.544	44.37
261.761	64.85
261.977	60.76
262.193	-72.36
262.409	83.28
262.626	36.18
262.842	9.56
263.058	9.56
263.274	77.14
263.49	25.94
263.707	-4.78
263.923	60.76
264.139	11.61
264.355	-68.27
264.571	68.95
264.787	54.61
265.004	34.13
265.22	-39.59
265.436	-29.35
265.652	66.9
265.868	75.09
266.084	-6.83
266.3	42.32
266.516	-19.11
266.732	-10.92
266.948	52.56
267.164	34.13
267.38	-23.21
267.596	-10.92
267.812	62.8
268.028	30.04
268.244	5.46
268.46	-6.83
268.676	38.23
268.892	79.19
269.108	-55.98
269.324	-29.35
269.54	-21.16
269.756	48.47
269.972	-31.4
270.188	-19.11
270.403	-53.93
270.619	21.84
270.835	-10.92
271.051	9.56
271.267	-25.26
271.483	-23.21
271.698	7.51
271.914	-2.73
272.13	68.95
272.346	42.32
272.562	56.66
272.777	83.28
272.993	52.56
273.209	-6.83
273.425	91.48
273.64	-2.73
273.856	32.08
274.072	85.33
274.287	-70.31
274.503	23.89
274.719	-19.11
274.934	40.28
275.15	21.84
275.366	75.09
275.581	50.52
275.797	27.99
276.012	56.66
276.228	71
276.444	38.23
276.659	109.91
276.875	11.61
277.09	23.89
277.306	1.37
277.521	83.28
277.737	-15.02
277.952	81.24
278.168	42.32
278.383	109.91
278.599	58.71
278.814	-10.92
279.03	19.8
279.245	34.13
279.461	85.33
279.676	58.71
279.892	34.13
280.107	68.95
280.322	17.75
280.538	27.99
280.753	-23.21
280.969	73.04
281.184	34.13
281.399	17.75
281.615	73.04
281.83	19.8
282.045	-39.59
282.26	3.41
282.476	58.71
282.691	66.9
282.906	58.71
283.122	50.52
283.337	36.18
283.552	83.28
283.767	9.56
283.983	71
284.198	66.9
284.413	93.52
284.628	1.37
284.843	73.04
285.058	150.87
285.274	46.42
285.489	58.71
285.704	42.32
285.919	40.28
286.134	99.67
286.349	-23.21
286.564	-4.78
286.779	25.94
286.995	66.9
287.21	-37.55
287.425	42.32
287.64	17.75
287.855	46.42
288.07	30.04
288.285	50.52
288.5	91.48
288.715	42.32
288.93	62.8
289.145	-37.55
289.36	5.46
289.575	25.94
289.79	19.8
290.004	111.96
290.219	83.28
290.434	44.37
290.649	52.56
290.864	71
291.079	54.61
291.294	128.34
291.509	15.7
291.724	27.99
291.938	56.66
292.153	75.09
292.368	66.9
292.583	9.56
292.798	46.42
293.012	91.48
293.227	3.41
293.442	87.38
293.657	58.71
293.871	5.46
294.086	17.75
294.301	9.56
294.516	73.04
294.73	-2.73
294.945	-12.97
295.16	44.37
295.374	30.04
295.589	25.94
295.804	7.51
296.018	34.13
296.233	128.34
296.447	9.56
296.662	34.13
296.877	3.41
297.091	21.84
297.306	34.13
297.52	25.94
297.735	42.32
297.949	-19.11
298.164	-0.68
298.378	50.52
298.593	-39.59
298.807	46.42
299.022	58.71
299.236	17.75
299.451	38.23
299.665	7.51
299.88	-15.02
300.094	9.56
300.309	56.66
300.523	30.04
300.737	27.99
300.952	66.9
301.166	21.84
301.381	42.32
301.595	46.42
301.809	9.56
302.024	54.61
302.238	23.89
302.452	44.37
302.667	15.7
302.881	66.9
303.095	42.32
303.309	27.99
303.524	-64.17
303.738	32.08
303.952	-60.07
304.166	91.48
304.381	-31.4
304.595	46.42
304.809	38.23
305.023	5.46
305.237	-21.16
305.452	42.32
305.666	81.24
305.88	17.75
306.094	50.52
306.308	9.56
306.522	58.71
306.736	111.96
306.95	46.42
307.164	75.09
307.379	19.8
307.593	19.8
307.807	89.43
308.021	50.52
308.235	87.38
308.449	-29.35
308.663	-113.32
308.877	60.76
309.091	-17.07
309.305	60.76
309.519	42.32
309.733	40.28
309.947	-41.64
310.161	83.28
310.374	-4.78
310.588	52.56
310.802	79.19
311.016	40.28
311.23	116.05
311.444	99.67
311.658	-12.97
311.872	38.23
312.085	-8.87
312.299	93.52
312.513	-62.12
312.727	25.94
312.941	17.75
313.154	107.86
313.368	1.37
313.582	-15.02
313.796	44.37
314.009	5.46
314.223	68.95
314.437	3.41
314.651	91.48
314.864	91.48
315.078	56.66
315.292	25.94
315.505	64.85
315.719	13.65
315.933	58.71
316.146	111.96
316.36	-29.35
316.573	79.19
316.787	7.51
317.001	52.56
317.214	27.99
317.428	46.42
317.641	13.65
317.855	17.75
318.068	-47.79
318.282	3.41
318.495	60.76
318.709	11.61
318.922	27.99
319.136	56.66
319.349	42.32
319.563	-23.21
319.776	109.91
319.99	-53.93
320.203	48.47
320.417	9.56
320.63	64.85
320.843	54.61
321.057	34.13
321.27	60.76
321.483	17.75
321.697	-6.83
321.91	83.28
322.124	17.75
322.337	-4.78
322.55	-23.21
322.763	77.14
322.977	46.42
323.19	27.99
323.403	-55.98
323.617	66.9
323.83	54.61
324.043	58.71
324.256	25.94
324.469	19.8
324.683	50.52
324.896	42.32
325.109	66.9
325.322	-2.73
325.535	40.28
325.748	3.41
325.962	11.61
326.175	91.48
326.388	97.62
326.601	93.52
326.814	30.04
327.027	83.28
327.24	85.33
327.453	-6.83
327.666	19.8
327.879	73.04
328.092	66.9
328.305	68.95
328.518	56.66
328.731	9.56
328.944	42.32
329.157	9.56
329.37	75.09
329.583	138.58
329.796	5.46
330.009	11.61
330.222	40.28
330.435	87.38
330.648	107.86
330.861	30.04
331.073	64.85
331.286	9.56
331.499	50.52
331.712	1.37
331.925	25.94
332.138	-35.5
332.35	38.23
332.563	-35.5
332.776	66.9
332.989	36.18
333.202	109.91
333.414	-31.4
333.627	71
333.84	3.41
334.053	77.14
334.265	19.8
334.478	-29.35
334.691	17.75
334.903	27.99
335.116	-23.21
335.329	34.13
335.541	5.46
335.754	87.38
335.966	-29.35
336.179	87.38
336.392	19.8
336.604	19.8
336.817	71
337.029	46.42
337.242	66.9
337.454	3.41
337.667	-15.02
337.88	25.94
338.092	54.61
338.305	34.13
338.517	-0.68
338.729	1.37
338.942	60.76
339.154	50.52
339.367	54.61
339.579	34.13
339.792	-15.02
340.004	73.04
340.217	83.28
340.429	23.89
340.641	64.85
340.854	3.41
341.066	17.75
341.278	81.24
341.491	30.04
341.703	34.13
341.915	1.37
342.128	120.15
342.34	68.95
342.552	-21.16
342.764	60.76
342.977	36.18
343.189	42.32
343.401	-80.55
343.613	-4.78
343.826	3.41
344.038	77.14
344.25	66.9
344.462	50.52
344.674	71
344.886	44.37
345.099	36.18
345.311	30.04
345.523	77.14
345.735	-41.64
345.947	21.84
346.159	25.94
346.371	60.76
346.583	1.37
346.795	50.52
347.007	23.89
347.219	62.8
347.431	97.62
347.643	58.71
347.855	91.48
348.067	99.67
348.279	-37.55
348.491	27.99
348.703	5.46
348.915	60.76
349.127	25.94
349.339	34.13
349.551	46.42
349.763	109.91
349.975	25.94
350.187	140.63
350.399	124.24
350.61	-4.78
350.822	-39.59
351.034	56.66
351.246	60.76
351.458	-70.31
351.669	17.75
351.881	99.67
352.093	27.99
352.305	58.71
352.517	5.46
352.728	68.95
352.94	103.76
353.152	87.38
353.363	73.04
353.575	66.9
353.787	95.57
353.999	-10.92
354.21	109.91
354.422	30.04
354.633	34.13
354.845	25.94
355.057	-27.31
355.268	75.09
355.48	9.56
355.692	17.75
355.903	60.76
356.115	-10.92
356.326	27.99
356.538	81.24
356.749	44.37
356.961	128.34
357.172	-37.55
357.384	-23.21
357.595	89.43
357.807	38.23
358.018	-19.11
358.23	87.38
358.441	21.84
358.653	83.28
358.864	-27.31
359.075	23.89
359.287	21.84
359.498	34.13
359.709	87.38
359.921	58.71
360.132	75.09
360.344	68.95
360.555	66.9
360.766	11.61
360.977	-6.83
361.189	38.23
361.4	-8.87
361.611	-2.73
361.823	36.18
362.034	34.13
362.245	54.61
362.456	71
362.667	27.99
362.879	-15.02
363.09	46.42
363.301	66.9
363.512	3.41
363.723	-62.12
363.935	9.56
364.146	60.76
364.357	9.56
364.568	50.52
364.779	-6.83
364.99	91.48
365.201	19.8
365.412	62.8
365.623	56.66
365.834	66.9
366.045	46.42
366.256	109.91
366.467	-0.68
366.678	30.04
366.889	77.14
367.1	44.37
367.311	114
367.522	101.72
367.733	44.37
367.944	148.82
368.155	81.24
368.366	120.15
368.577	42.32
368.788	73.04
368.999	9.56
369.209	42.32
369.42	132.44
369.631	77.14
369.842	97.62
370.053	91.48
370.264	34.13
370.474	17.75
370.685	81.24
370.896	75.09
371.107	38.23
371.317	42.32
371.528	58.71
371.739	42.32
371.95	27.99
372.16	140.63
372.371	44.37
372.582	54.61
372.792	50.52
373.003	91.48
373.214	5.46
373.424	13.65
373.635	-2.73
373.846	66.9
374.056	120.15
374.267	-2.73
374.477	46.42
374.688	1.37
374.898	-15.02
375.109	38.23
375.319	25.94
375.53	58.71
375.74	60.76
375.951	-4.78
376.161	9.56
376.372	75.09
376.582	1.37
376.793	159.06
377.003	25.94
377.214	21.84
377.424	-6.83
377.635	42.32
377.845	52.56
378.055	1.37
378.266	-19.11
378.476	-10.92
378.686	54.61
378.897	-4.78
379.107	60.76
379.317	87.38
379.528	50.52
379.738	81.24
379.948	-31.4
380.158	60.76
380.369	71
380.579	132.44
380.789	17.75
380.999	36.18
381.21	64.85
381.42	75.09
381.63	77.14
381.84	54.61
382.05	58.71
382.261	34.13
382.471	138.58
382.681	46.42
382.891	91.48
383.101	46.42
383.311	17.75
383.521	73.04
383.731	38.23
383.941	52.56
384.151	118.1
384.361	-12.97
384.571	68.95
384.781	124.24
384.991	120.15
385.201	30.04
385.411	27.99
385.621	50.52
385.831	30.04
386.041	91.48
386.251	42.32
386.461	116.05
386.671	58.71
386.881	66.9
387.091	103.76
387.301	56.66
387.511	101.72
387.72	109.91
387.93	42.32
388.14	21.84
388.35	81.24
388.56	52.56
388.769	85.33
388.979	75.09
389.189	5.46
389.399	68.95
389.609	62.8
389.818	173.39
390.028	124.24
390.238	107.86
390.447	44.37
390.657	99.67
390.867	52.56
391.076	19.8
391.286	34.13
391.496	68.95
391.705	66.9
391.915	95.57
392.125	116.05
392.334	93.52
392.544	99.67
392.753	103.76
392.963	21.84
393.172	79.19
393.382	71
393.591	126.29
393.801	50.52
394.01	101.72
394.22	-21.16
394.429	99.67
394.639	83.28
394.848	103.76
395.058	58.71
395.267	21.84
395.477	101.72
395.686	83.28
395.895	118.1
396.105	148.82
396.314	118.1
396.524	62.8
396.733	17.75
396.942	124.24
397.152	62.8
397.361	66.9
397.57	140.63
397.78	68.95
397.989	50.52
398.198	167.25
398.407	60.76
398.617	103.76
398.826	25.94
399.035	50.52
399.244	107.86
399.453	107.86
399.663	109.91
399.872	105.81
400.081	7.51
400.29	116.05
400.499	75.09
400.708	107.86
400.917	130.39
401.127	101.72
401.336	77.14
401.545	206.16
401.754	109.91
401.963	165.2
402.172	146.77
402.381	99.67
402.59	120.15
402.799	93.52
403.008	77.14
403.217	132.44
403.426	103.76
403.635	99.67
403.844	95.57
404.053	148.82
404.262	144.72
404.471	167.25
404.68	124.24
404.888	97.62
405.097	87.38
405.306	208.21
405.515	118.1
405.724	97.62
405.933	265.55
406.142	154.96
406.35	208.21
406.559	216.4
406.768	134.48
406.977	200.02
407.185	124.24
407.394	197.97
407.603	189.78
407.812	200.02
408.02	200.02
408.229	161.11
408.438	191.83
408.646	157.01
408.855	263.51
409.064	318.8
409.272	234.83
409.481	263.51
409.69	204.11
409.898	265.55
410.107	277.84
410.315	337.23
410.524	238.93
410.733	290.13
410.941	353.62
411.15	413.01
411.358	290.13
411.567	341.33
411.775	230.74
411.984	341.33
412.192	382.29
412.401	402.77
412.609	370
412.818	410.96
413.026	427.34
413.234	398.67
413.443	402.77
413.651	488.78
413.86	515.41
414.068	529.74
414.276	519.5
414.485	513.36
414.693	509.26
414.901	632.14
415.11	501.07
415.318	574.8
415.526	542.03
415.734	593.23
415.943	720.2
416.151	755.02
416.359	701.77
416.567	722.25
416.776	836.94
416.984	814.41
417.192	841.03
417.4	804.17
417.608	765.26
417.817	828.74
418.025	886.09
418.233	1021.25
418.441	906.57
418.649	1078.6
418.857	1049.93
419.065	982.34
419.273	1062.21
419.481	1185.09
419.689	1166.66
419.897	1224
420.105	1246.53
420.313	1303.87
420.521	1355.07
420.729	1287.49
420.937	1379.65
421.145	1398.08
421.353	1543.49
421.561	1570.11
421.769	1545.53
421.977	1764.67
422.185	1674.56
422.393	1738.04
422.601	1885.5
422.809	1836.35
423.017	1905.98
423.224	2012.47
423.432	2139.44
423.64	2030.9
423.848	2258.23
424.056	2123.06
424.263	2317.62
424.471	2460.98
424.679	2495.79
424.887	2618.67
425.094	2729.26
425.302	2635.05
425.51	2757.93
425.718	2755.88
425.925	2749.74
426.133	3011.88
426.341	3132.71
426.548	3312.93
426.756	3265.83
426.964	3138.85
427.171	3423.52
427.379	3419.43
427.586	3659.04
427.794	3620.13
428.001	3917.08
428.209	4091.16
428.417	4042.01
428.624	4369.68
428.832	4246.8
429.039	4138.26
429.247	4326.68
429.454	4582.67
429.662	4994.31
429.869	4680.97
430.076	4973.83
430.284	4752.65
430.491	4949.26
430.699	5305.6
430.906	5301.51
431.114	5467.39
431.321	5588.22
431.528	5696.77
431.736	6018.3
431.943	6319.35
432.15	6132.98
432.358	6219
432.565	6472.95
432.772	6460.66
432.979	6882.54
433.187	6925.55
433.394	7113.96
433.601	7404.77
433.808	7439.59
434.016	7363.81
434.223	7761.12
434.43	8189.14
434.637	7935.2
434.844	8637.65
435.052	8672.47
435.259	8672.47
435.466	8768.72
435.673	8412.37
435.88	9301.19
436.087	9696.45
436.294	9811.14
436.501	9563.33
436.708	9630.91
436.915	10013.88
437.122	10443.96
437.329	10364.09
437.537	10724.53
437.743	10955.95
437.95	10884.27
438.157	11467.94
438.364	11670.69
438.571	11842.72
438.778	11805.86
438.985	12944.53
439.192	12166.3
439.399	12809.36
439.606	12594.33
439.813	13247.63
440.02	14230.65
440.227	13661.32
440.433	13601.93
440.64	14111.87
440.847	13980.8
441.054	14441.59
441.261	14937.2
441.467	15074.42
441.674	15344.75
441.881	16122.98
442.088	16073.82
442.294	15846.5
442.501	16059.49
442.708	16755.8
442.914	17173.58
443.121	17972.29
443.328	17288.27
443.534	18756.66
443.741	18160.7
443.948	17955.91
444.154	19143.73
444.361	19358.77
444.568	19199.02
444.774	19604.52
444.981	19608.62
445.187	20225.06
445.394	21177.36
445.6	20575.26
445.807	22379.52
446.013	21939.21
446.22	22397.95
446.426	22977.53
446.633	23280.63
446.839	24112.1
447.046	23213.04
447.252	24296.42
447.459	24630.24
447.665	24251.36
447.871	25236.44
448.078	26524.61
448.284	25453.52
448.491	26026.95
448.697	27159.48
448.903	27681.71
449.11	27530.16
449.316	27372.47
449.522	27777.97
449.728	28453.8
449.935	28896.16
450.141	28834.72
450.347	29270.93
450.553	28390.31
450.76	28666.78
450.966	29789.07
451.172	29574.03
451.378	30374.79
451.584	29504.4
451.791	30258.06
451.997	30167.94
452.203	31095.67
452.409	30940.03
452.615	30880.64
452.821	29901.71
453.027	29045.66
453.233	30759.81
453.44	29866.89
453.646	30243.72
453.852	30063.5
454.058	30843.77
454.264	29797.26
454.47	30819.2
454.676	29698.96
454.882	30825.34
455.088	28259.24
455.294	28738.46
455.5	29037.47
455.705	29205.4
455.911	28195.75
456.117	27718.57
456.323	27501.49
456.529	25936.84
456.735	27112.38
456.941	26557.38
457.147	26061.77
457.352	25441.23
457.558	25101.27
457.764	25000.92
457.97	24638.43
458.176	24261.6
458.381	24077.29
458.587	22758.39
458.793	23333.87
458.999	22014.98
459.204	23464.94
459.41	22877.18
459.616	21238.8
459.821	21363.73
460.027	21359.63
460.233	20851.74
460.438	19901.48
460.644	19967.01
460.85	19186.74
461.055	18914.36
461.261	18852.92
461.466	17476.68
461.672	16950.35
461.878	18259.01
462.083	17034.32
462.289	16643.16
462.494	16280.67
462.7	16043.1
462.905	15119.47
463.111	15930.47
463.316	15950.95
463.522	15873.12
463.727	15592.55
463.932	15840.36
464.138	15264.88
464.343	15547.5
464.549	15197.29
464.754	15557.74
464.959	15402.09
465.165	15361.13
465.37	14855.28
465.575	14410.87
465.781	15006.83
465.986	14988.4
466.191	14509.18
466.397	14259.32
466.602	13667.46
466.807	14148.73
467.012	14054.53
467.218	13825.15
467.423	13800.58
467.628	13780.1
467.833	14476.41
468.038	14079.1
468.244	13433.99
468.449	14095.49
