Data from USB4F104151__52__14-43-06-721.txt Node

Date: Thu Mar 13 14:43:06 EDT 2025
User: louis
Spectrometer: USB4F10415
Trigger mode: 4
Integration Time (sec): 2.000000E-2
Scans to average: 1
Electric dark correction enabled: true
Nonlinearity correction enabled: false
Boxcar width: 0
XAxis mode: Wavelengths
Number of Pixels in Spectrum: 3648
>>>>>Begin Spectral Data<<<<<
178.204	-120.49
178.424	-120.49
178.644	-120.49
178.864	-169.64
179.084	-128.68
179.304	-102.06
179.524	-13.99
179.744	47.44
179.964	16.73
180.184	39.25
180.404	-3.75
180.624	51.54
180.844	45.4
181.064	-71.34
181.283	2.39
181.503	-32.43
181.723	20.82
181.943	-104.11
182.163	88.4
182.383	26.96
182.602	61.78
182.822	84.31
183.042	10.58
183.262	-18.09
183.482	29.01
183.701	41.3
183.921	-13.99
184.141	-26.28
184.361	74.07
184.58	-42.67
184.8	59.73
185.02	-34.47
185.239	39.25
185.459	16.73
185.679	43.35
185.898	-79.53
186.118	18.77
186.338	-26.28
186.557	90.45
186.777	2.39
186.997	-5.8
187.216	-28.33
187.436	78.16
187.655	12.63
187.875	20.82
188.095	6.49
188.314	84.31
188.534	108.88
188.753	53.59
188.973	-13.99
189.192	94.55
189.412	0.34
189.631	-3.75
189.851	-28.33
190.07	78.16
190.29	-13.99
190.509	18.77
190.729	10.58
190.948	-7.85
191.168	180.56
191.387	61.78
191.607	-9.9
191.826	59.73
192.045	63.83
192.265	18.77
192.484	35.16
192.704	43.35
192.923	-13.99
193.142	86.36
193.362	76.12
193.581	41.3
193.8	39.25
194.02	35.16
194.239	-9.9
194.458	33.11
194.678	12.63
194.897	20.82
195.116	-1.71
195.335	63.83
195.555	35.16
195.774	104.79
195.993	-7.85
196.212	-22.19
196.432	-22.19
196.651	26.96
196.87	-16.04
197.089	65.88
197.308	10.58
197.528	-3.75
197.747	26.96
197.966	10.58
198.185	76.12
198.404	-22.19
198.623	174.42
198.842	18.77
199.062	20.82
199.281	-52.91
199.5	45.4
199.719	-26.28
199.938	-3.75
200.157	88.4
200.376	69.97
200.595	80.21
200.814	63.83
201.033	-36.52
201.252	-7.85
201.471	2.39
201.69	61.78
201.909	-18.09
202.128	57.68
202.347	80.21
202.566	125.27
202.785	4.44
203.004	-65.19
203.223	102.74
203.442	37.2
203.661	2.39
203.879	-28.33
204.098	39.25
204.317	-18.09
204.536	94.55
204.755	-22.19
204.974	-36.52
205.193	-7.85
205.411	110.93
205.63	76.12
205.849	26.96
206.068	33.11
206.287	-46.76
206.505	82.26
206.724	26.96
206.943	72.02
207.162	-3.75
207.381	-42.67
207.599	-52.91
207.818	110.93
208.037	20.82
208.255	4.44
208.474	67.92
208.693	-22.19
208.911	35.16
209.13	-67.24
209.349	14.68
209.567	63.83
209.786	22.87
210.005	-34.47
210.223	22.87
210.442	-9.9
210.661	29.01
210.879	61.78
211.098	26.96
211.316	61.78
211.535	78.16
211.753	-5.8
211.972	-36.52
212.191	4.44
212.409	2.39
212.628	24.92
212.846	20.82
213.065	35.16
213.283	-5.8
213.502	4.44
213.72	-18.09
213.938	18.77
214.157	-13.99
214.375	39.25
214.594	31.06
214.812	-5.8
215.031	26.96
215.249	-44.71
215.467	-22.19
215.686	35.16
215.904	45.4
216.122	18.77
216.341	78.16
216.559	76.12
216.778	67.92
216.996	117.08
217.214	-1.71
217.432	10.58
217.651	12.63
217.869	-1.71
218.087	26.96
218.306	14.68
218.524	106.84
218.742	72.02
218.96	41.3
219.179	76.12
219.397	-20.14
219.615	92.5
219.833	127.32
220.051	-52.91
220.27	94.55
220.488	26.96
220.706	-13.99
220.924	22.87
221.142	45.4
221.36	18.77
221.578	65.88
221.796	108.88
222.015	-18.09
222.233	8.53
222.451	84.31
222.669	-5.8
222.887	39.25
223.105	-5.8
223.323	-13.99
223.541	26.96
223.759	76.12
223.977	-54.95
224.195	20.82
224.413	57.68
224.631	35.16
224.849	43.35
225.067	-38.57
225.285	-26.28
225.503	51.54
225.721	-61.1
225.939	37.2
226.157	37.2
226.375	119.12
226.592	31.06
226.81	67.92
227.028	78.16
227.246	24.92
227.464	51.54
227.682	47.44
227.9	26.96
228.117	6.49
228.335	10.58
228.553	20.82
228.771	-5.8
228.989	63.83
229.206	-38.57
229.424	-36.52
229.642	0.34
229.86	-38.57
230.077	117.08
230.295	-3.75
230.513	43.35
230.731	53.59
230.948	16.73
231.166	20.82
231.384	14.68
231.601	31.06
231.819	26.96
232.037	31.06
232.254	49.49
232.472	18.77
232.689	20.82
232.907	96.6
233.125	88.4
233.342	61.78
233.56	-11.95
233.777	-13.99
233.995	-26.28
234.213	67.92
234.43	-5.8
234.648	10.58
234.865	18.77
235.083	6.49
235.3	-30.38
235.518	2.39
235.735	10.58
235.953	-13.99
236.17	-13.99
236.388	-5.8
236.605	29.01
236.822	35.16
237.04	80.21
237.257	-48.81
237.475	-42.67
237.692	29.01
237.909	43.35
238.127	-30.38
238.344	94.55
238.562	-3.75
238.779	14.68
238.996	-30.38
239.214	2.39
239.431	137.56
239.648	-22.19
239.865	20.82
240.083	51.54
240.3	55.64
240.517	-69.29
240.735	-36.52
240.952	4.44
241.169	100.69
241.386	-5.8
241.603	-13.99
241.821	-46.76
242.038	-36.52
242.255	12.63
242.472	51.54
242.689	12.63
242.907	84.31
243.124	-1.71
243.341	-5.8
243.558	35.16
243.775	10.58
243.992	51.54
244.209	35.16
244.426	96.6
244.643	65.88
244.86	10.58
245.078	51.54
245.295	20.82
245.512	47.44
245.729	-42.67
245.946	22.87
246.163	22.87
246.38	16.73
246.597	-20.14
246.814	125.27
247.031	0.34
247.248	59.73
247.464	6.49
247.681	59.73
247.898	26.96
248.115	72.02
248.332	10.58
248.549	14.68
248.766	59.73
248.983	65.88
249.2	4.44
249.417	-22.19
249.633	29.01
249.85	12.63
250.067	80.21
250.284	35.16
250.501	-13.99
250.717	57.68
250.934	8.53
251.151	-38.57
251.368	-22.19
251.585	100.69
251.801	8.53
252.018	20.82
252.235	45.4
252.451	67.92
252.668	31.06
252.885	51.54
253.102	37.2
253.318	47.44
253.535	18.77
253.752	-54.95
253.968	51.54
254.185	10.58
254.401	-36.52
254.618	-38.57
254.835	47.44
255.051	129.36
255.268	29.01
255.484	59.73
255.701	43.35
255.917	49.49
256.134	-3.75
256.351	12.63
256.567	10.58
256.784	20.82
257	-77.48
257.217	16.73
257.433	-3.75
257.65	104.79
257.866	18.77
258.082	80.21
258.299	-3.75
258.515	22.87
258.732	-32.43
258.948	67.92
259.165	55.64
259.381	10.58
259.597	-28.33
259.814	-52.91
260.03	-13.99
260.246	-3.75
260.463	18.77
260.679	-38.57
260.895	59.73
261.112	18.77
261.328	18.77
261.544	12.63
261.761	51.54
261.977	-18.09
262.193	10.58
262.409	12.63
262.626	-1.71
262.842	67.92
263.058	18.77
263.274	47.44
263.49	10.58
263.707	104.79
263.923	4.44
264.139	14.68
264.355	4.44
264.571	100.69
264.787	51.54
265.004	67.92
265.22	-44.71
265.436	37.2
265.652	-18.09
265.868	59.73
266.084	-20.14
266.3	4.44
266.516	2.39
266.732	12.63
266.948	26.96
267.164	26.96
267.38	78.16
267.596	92.5
267.812	69.97
268.028	35.16
268.244	53.59
268.46	45.4
268.676	22.87
268.892	37.2
269.108	-11.95
269.324	35.16
269.54	-44.71
269.756	37.2
269.972	-69.29
270.188	-28.33
270.403	-52.91
270.619	43.35
270.835	47.44
271.051	43.35
271.267	-50.86
271.483	41.3
271.698	26.96
271.914	35.16
272.13	-34.47
272.346	84.31
272.562	12.63
272.777	29.01
272.993	2.39
273.209	43.35
273.425	67.92
273.64	-36.52
273.856	51.54
274.072	-67.24
274.287	14.68
274.503	108.88
274.719	12.63
274.934	37.2
275.15	65.88
275.366	37.2
275.581	57.68
275.797	4.44
276.012	67.92
276.228	39.25
276.444	63.83
276.659	10.58
276.875	45.4
277.09	45.4
277.306	10.58
277.521	76.12
277.737	26.96
277.952	49.49
278.168	10.58
278.383	96.6
278.599	63.83
278.814	53.59
279.03	41.3
279.245	39.25
279.461	67.92
279.676	102.74
279.892	57.68
280.107	20.82
280.322	37.2
280.538	74.07
280.753	2.39
280.969	0.34
281.184	-22.19
281.399	117.08
281.615	26.96
281.83	-42.67
282.045	20.82
282.26	2.39
282.476	78.16
282.691	12.63
282.906	31.06
283.122	20.82
283.337	35.16
283.552	-5.8
283.767	2.39
283.983	67.92
284.198	10.58
284.413	76.12
284.628	4.44
284.843	41.3
285.058	35.16
285.274	14.68
285.489	-54.95
285.704	84.31
285.919	37.2
286.134	47.44
286.349	57.68
286.564	2.39
286.779	51.54
286.995	-1.71
287.21	55.64
287.425	2.39
287.64	29.01
287.855	33.11
288.07	-16.04
288.285	86.36
288.5	4.44
288.715	10.58
288.93	14.68
289.145	6.49
289.36	35.16
289.575	43.35
289.79	96.6
290.004	-36.52
290.219	108.88
290.434	22.87
290.649	0.34
290.864	69.97
291.079	-5.8
291.294	12.63
291.509	18.77
291.724	-20.14
291.938	-63.15
292.153	59.73
292.368	10.58
292.583	61.78
292.798	14.68
293.012	96.6
293.227	33.11
293.442	12.63
293.657	55.64
293.871	55.64
294.086	92.5
294.301	80.21
294.516	49.49
294.73	45.4
294.945	2.39
295.16	18.77
295.374	133.46
295.589	102.74
295.804	-28.33
296.018	67.92
296.233	115.03
296.447	37.2
296.662	37.2
296.877	41.3
297.091	-52.91
297.306	92.5
297.52	69.97
297.735	43.35
297.949	-71.34
298.164	26.96
298.378	39.25
298.593	-22.19
298.807	86.36
299.022	-11.95
299.236	96.6
299.451	61.78
299.665	59.73
299.88	-34.47
300.094	57.68
300.309	65.88
300.523	92.5
300.737	-1.71
300.952	80.21
301.166	-28.33
301.381	26.96
301.595	76.12
301.809	29.01
302.024	22.87
302.238	-24.23
302.452	92.5
302.667	39.25
302.881	69.97
303.095	-11.95
303.309	-32.43
303.524	-40.62
303.738	18.77
303.952	-5.8
304.166	18.77
304.381	-34.47
304.595	69.97
304.809	29.01
305.023	110.93
305.237	43.35
305.452	33.11
305.666	92.5
305.88	10.58
306.094	76.12
306.308	104.79
306.522	100.69
306.736	37.2
306.95	51.54
307.164	117.08
307.379	-7.85
307.593	-13.99
307.807	115.03
308.021	4.44
308.235	-22.19
308.449	2.39
308.663	53.59
308.877	76.12
309.091	59.73
309.305	41.3
309.519	18.77
309.733	61.78
309.947	-34.47
310.161	-1.71
310.374	29.01
310.588	76.12
310.802	-9.9
311.016	45.4
311.23	59.73
311.444	-63.15
311.658	35.16
311.872	10.58
312.085	86.36
312.299	-5.8
312.513	43.35
312.727	24.92
312.941	4.44
313.154	59.73
313.368	53.59
313.582	94.55
313.796	26.96
314.009	12.63
314.223	74.07
314.437	43.35
314.651	-18.09
314.864	-5.8
315.078	-63.15
315.292	12.63
315.505	6.49
315.719	80.21
315.933	51.54
316.146	4.44
316.36	26.96
316.573	43.35
316.787	76.12
317.001	61.78
317.214	-16.04
317.428	67.92
317.641	-50.86
317.855	10.58
318.068	31.06
318.282	22.87
318.495	-1.71
318.709	-44.71
318.922	69.97
319.136	-30.38
319.349	82.26
319.563	-50.86
319.776	22.87
319.99	45.4
320.203	6.49
320.417	-36.52
320.63	61.78
320.843	10.58
321.057	2.39
321.27	10.58
321.483	39.25
321.697	149.84
321.91	18.77
322.124	14.68
322.337	-42.67
322.55	-46.76
322.763	-42.67
322.977	26.96
323.19	-46.76
323.403	80.21
323.617	-5.8
323.83	33.11
324.043	39.25
324.256	51.54
324.469	-13.99
324.683	92.5
324.896	0.34
325.109	45.4
325.322	-22.19
325.535	84.31
325.748	61.78
325.962	-1.71
326.175	-13.99
326.388	37.2
326.601	117.08
326.814	67.92
327.027	131.41
327.24	84.31
327.453	4.44
327.666	84.31
327.879	-54.95
328.092	80.21
328.305	-26.28
328.518	86.36
328.731	35.16
328.944	14.68
329.157	-59.05
329.37	106.84
329.583	-18.09
329.796	76.12
330.009	-7.85
330.222	92.5
330.435	-3.75
330.648	26.96
330.861	-22.19
331.073	96.6
331.286	22.87
331.499	14.68
331.712	-9.9
331.925	65.88
332.138	-9.9
332.35	59.73
332.563	-5.8
332.776	59.73
332.989	12.63
333.202	-63.15
333.414	55.64
333.627	-38.57
333.84	43.35
334.053	67.92
334.265	59.73
334.478	-5.8
334.691	-16.04
334.903	35.16
335.116	76.12
335.329	112.98
335.541	47.44
335.754	96.6
335.966	12.63
336.179	49.49
336.392	26.96
336.604	35.16
336.817	26.96
337.029	31.06
337.242	-18.09
337.454	33.11
337.667	12.63
337.88	61.78
338.092	14.68
338.305	76.12
338.517	18.77
338.729	22.87
338.942	106.84
339.154	8.53
339.367	2.39
339.579	67.92
339.792	10.58
340.004	24.92
340.217	4.44
340.429	59.73
340.641	63.83
340.854	0.34
341.066	10.58
341.278	26.96
341.491	43.35
341.703	-20.14
341.915	-48.81
342.128	92.5
342.34	8.53
342.552	20.82
342.764	-30.38
342.977	45.4
343.189	51.54
343.401	-22.19
343.613	16.73
343.826	20.82
344.038	4.44
344.25	117.08
344.462	-16.04
344.674	-44.71
344.886	53.59
345.099	69.97
345.311	-42.67
345.523	4.44
345.735	-13.99
345.947	35.16
346.159	45.4
346.371	41.3
346.583	94.55
346.795	4.44
347.007	-7.85
347.219	20.82
347.431	-3.75
347.643	82.26
347.855	-22.19
348.067	55.64
348.279	41.3
348.491	35.16
348.703	-50.86
348.915	35.16
349.127	-7.85
349.339	22.87
349.551	59.73
349.763	63.83
349.975	43.35
350.187	67.92
350.399	69.97
350.61	43.35
350.822	29.01
351.034	51.54
351.246	29.01
351.458	6.49
351.669	41.3
351.881	47.44
352.093	67.92
352.305	61.78
352.517	47.44
352.728	18.77
352.94	39.25
353.152	37.2
353.363	67.92
353.575	53.59
353.787	12.63
353.999	10.58
354.21	51.54
354.422	14.68
354.633	31.06
354.845	82.26
355.057	-5.8
355.268	63.83
355.48	29.01
355.692	94.55
355.903	67.92
356.115	43.35
356.326	-26.28
356.538	155.99
356.749	76.12
356.961	45.4
357.172	22.87
357.384	67.92
357.595	37.2
357.807	26.96
358.018	69.97
358.23	67.92
358.441	102.74
358.653	35.16
358.864	20.82
359.075	43.35
359.287	67.92
359.498	39.25
359.709	4.44
359.921	51.54
360.132	37.2
360.344	84.31
360.555	10.58
360.766	37.2
360.977	51.54
361.189	57.68
361.4	26.96
361.611	51.54
361.823	51.54
362.034	59.73
362.245	-30.38
362.456	47.44
362.667	22.87
362.879	-11.95
363.09	43.35
363.301	26.96
363.512	59.73
363.723	6.49
363.935	18.77
364.146	24.92
364.357	2.39
364.568	20.82
364.779	22.87
364.99	59.73
365.201	2.39
365.412	117.08
365.623	22.87
365.834	26.96
366.045	14.68
366.256	76.12
366.467	18.77
366.678	80.21
366.889	20.82
367.1	63.83
367.311	14.68
367.522	-5.8
367.733	-13.99
367.944	35.16
368.155	-1.71
368.366	43.35
368.577	129.36
368.788	143.7
368.999	-20.14
369.209	18.77
369.42	43.35
369.631	100.69
369.842	96.6
370.053	69.97
370.264	35.16
370.474	59.73
370.685	35.16
370.896	59.73
371.107	12.63
371.317	0.34
371.528	59.73
371.739	67.92
371.95	8.53
372.16	55.64
372.371	22.87
372.582	67.92
372.792	-3.75
373.003	35.16
373.214	37.2
373.424	18.77
373.635	2.39
373.846	76.12
374.056	55.64
374.267	0.34
374.477	-26.28
374.688	55.64
374.898	26.96
375.109	14.68
375.319	4.44
375.53	100.69
375.74	94.55
375.951	2.39
376.161	-30.38
376.372	76.12
376.582	41.3
376.793	59.73
377.003	-75.43
377.214	20.82
377.424	-5.8
377.635	-9.9
377.845	4.44
378.055	108.88
378.266	-22.19
378.476	-30.38
378.686	-9.9
378.897	59.73
379.107	49.49
379.317	20.82
379.528	37.2
379.738	53.59
379.948	-22.19
380.158	26.96
380.369	-1.71
380.579	47.44
380.789	76.12
380.999	29.01
381.21	127.32
381.42	108.88
381.63	37.2
381.84	125.27
382.05	117.08
382.261	51.54
382.471	-13.99
382.681	35.16
382.891	125.27
383.101	45.4
383.311	8.53
383.521	51.54
383.731	84.31
383.941	26.96
384.151	59.73
384.361	37.2
384.571	10.58
384.781	51.54
384.991	84.31
385.201	55.64
385.411	84.31
385.621	39.25
385.831	51.54
386.041	160.08
386.251	-5.8
386.461	10.58
386.671	14.68
386.881	67.92
387.091	18.77
387.301	158.03
387.511	76.12
387.72	67.92
387.93	63.83
388.14	29.01
388.35	53.59
388.56	31.06
388.769	78.16
388.979	166.23
389.189	33.11
389.399	-5.8
389.609	49.49
389.818	41.3
390.028	94.55
390.238	67.92
390.447	43.35
390.657	133.46
390.867	-26.28
391.076	33.11
391.286	59.73
391.496	43.35
391.705	-30.38
391.915	76.12
392.125	-3.75
392.334	69.97
392.544	67.92
392.753	67.92
392.963	49.49
393.172	18.77
393.382	51.54
393.591	98.64
393.801	112.98
394.01	92.5
394.22	78.16
394.429	143.7
394.639	47.44
394.848	24.92
395.058	127.32
395.267	18.77
395.477	2.39
395.686	100.69
395.895	76.12
396.105	168.27
396.314	129.36
396.524	133.46
396.733	100.69
396.942	143.7
397.152	69.97
397.361	76.12
397.57	14.68
397.78	49.49
397.989	102.74
398.198	119.12
398.407	53.59
398.617	117.08
398.826	47.44
399.035	76.12
399.244	121.17
399.453	74.07
399.663	43.35
399.872	37.2
400.081	4.44
400.29	143.7
400.499	63.83
400.708	149.84
400.917	45.4
401.127	117.08
401.336	115.03
401.545	153.94
401.754	88.4
401.963	39.25
402.172	20.82
402.381	123.22
402.59	92.5
402.799	69.97
403.008	133.46
403.217	102.74
403.426	160.08
403.635	102.74
403.844	61.78
404.053	86.36
404.262	125.27
404.471	139.6
404.68	125.27
404.888	92.5
405.097	106.84
405.306	94.55
405.515	172.37
405.724	172.37
405.933	174.42
406.142	158.03
406.35	61.78
406.559	198.99
406.768	139.6
406.977	164.18
407.185	190.8
407.394	184.66
407.603	168.27
407.812	192.85
408.02	231.76
408.229	248.15
408.438	237.91
408.646	192.85
408.855	166.23
409.064	184.66
409.272	203.09
409.481	362.83
409.69	225.62
409.898	325.97
410.107	319.82
410.315	250.19
410.524	258.39
410.733	334.16
410.941	305.49
411.15	330.06
411.358	411.98
411.567	379.22
411.775	395.6
411.984	469.33
412.192	481.61
412.401	424.27
412.609	454.99
412.818	491.85
413.026	541.01
413.234	461.13
413.443	465.23
413.651	518.48
413.86	569.68
414.068	551.24
414.276	624.97
414.485	575.82
414.693	610.64
414.901	639.31
415.11	618.83
415.318	612.68
415.526	682.31
415.734	739.66
415.943	745.8
416.151	772.43
416.359	624.97
416.567	778.57
416.776	817.48
416.984	913.74
417.192	870.73
417.4	891.21
417.608	887.11
417.817	1020.23
418.025	973.13
418.233	1040.71
418.441	1110.34
418.649	1067.33
418.857	1235.27
419.065	1241.41
419.273	1184.07
419.481	1241.41
419.689	1345.86
419.897	1294.66
420.105	1403.2
420.313	1458.5
420.521	1388.86
420.729	1515.84
420.937	1550.65
421.145	1648.96
421.353	1720.64
421.561	1696.06
421.769	1706.3
421.977	1820.99
422.185	1804.6
422.393	2013.49
422.601	2136.37
422.809	1995.06
423.017	2081.08
423.224	2226.48
423.432	2275.63
423.64	2228.53
423.848	2386.22
424.056	2396.46
424.263	2648.36
424.471	2586.93
424.679	2591.02
424.887	2822.44
425.094	2885.93
425.302	2863.4
425.51	2824.49
425.718	2957.61
425.925	3105.06
426.133	3121.45
426.341	3336.48
426.548	3557.66
426.756	3658.01
426.964	3664.16
427.171	3731.74
427.379	3811.61
427.586	4034.84
427.794	4165.91
428.001	4280.6
428.209	4419.86
428.417	4337.94
428.624	4649.23
428.832	4835.6
429.039	4638.99
429.247	4581.65
429.454	5153.03
429.662	5384.45
429.869	5150.98
430.076	5570.82
430.284	5425.41
430.491	5527.81
430.699	5771.52
430.906	5665.02
431.114	5988.6
431.321	6166.78
431.528	6156.54
431.736	6572.27
431.943	6858.99
432.15	6705.39
432.358	6867.18
432.565	7022.83
432.772	7084.27
432.979	7342.31
433.187	7518.43
433.394	7690.46
433.601	8235.22
433.808	8358.1
434.016	7958.75
434.223	8466.64
434.43	8980.68
434.637	8835.28
434.844	9353.41
435.052	9838.78
435.259	9509.06
435.466	9687.23
435.673	9251.02
435.88	10168.51
436.087	10602.68
436.294	10449.08
436.501	10410.17
436.708	10653.87
436.915	10774.7
437.122	11538.6
437.329	11395.24
437.537	12007.58
437.743	12028.06
437.95	11899.04
438.157	12447.9
438.364	12707.99
438.571	12800.15
438.778	13033.61
438.985	14141.57
439.192	13451.4
439.399	13985.92
439.606	13781.12
439.813	14454.9
440.02	15331.44
440.227	15061.1
440.433	15009.9
440.64	15364.2
440.847	15226.99
441.054	15716.45
441.261	16967.76
441.467	16580.7
441.674	16969.81
441.881	17655.88
442.088	17438.8
442.294	17158.22
442.501	17492.04
442.708	18030.66
442.914	18993.2
443.121	19679.27
443.328	18925.62
443.534	20226.08
443.741	19679.27
443.948	19490.86
444.154	21135.38
444.361	20776.98
444.568	20793.37
444.774	20873.24
444.981	21067.8
445.187	21725.19
445.394	22829.05
445.6	22517.76
445.807	24563.68
446.013	23521.26
446.22	23607.28
446.426	25022.42
446.633	24932.31
446.839	25878.47
447.046	24917.98
447.252	26226.63
447.459	26187.72
447.665	26023.88
447.871	27019.19
448.078	28536.74
448.284	26916.79
448.491	27975.59
448.697	28714.91
448.903	29274.01
449.11	29403.03
449.316	29177.75
449.522	29638.55
449.728	30353.29
449.935	30683.01
450.141	30924.67
450.347	31438.71
450.553	30101.39
450.76	30756.74
450.966	31872.88
451.172	31340.41
451.378	32198.51
451.584	31809.39
451.791	32438.12
451.997	32296.81
452.203	33161.05
452.409	33011.55
452.615	32434.02
452.821	31225.72
453.027	31080.32
453.233	32954.21
453.44	31555.44
453.646	31887.21
453.852	32069.48
454.058	32759.65
454.264	31584.12
454.47	32423.78
454.676	31596.4
454.882	32896.86
455.088	30080.91
455.294	30332.81
455.5	30461.83
455.705	31197.05
455.911	29908.88
456.117	29470.61
456.323	28719.01
456.529	27600.82
456.735	29075.35
456.941	28000.17
457.147	27623.34
457.352	27033.53
457.558	26339.27
457.764	26630.08
457.97	26326.98
458.176	25630.67
458.381	25552.85
458.587	24117.22
458.793	24211.43
458.999	22917.11
459.204	24733.66
459.41	24023.01
459.616	22519.81
459.821	22431.74
460.027	22433.79
460.233	21954.57
460.438	20807.7
460.644	21006.36
460.85	20176.93
461.055	19589.16
461.261	19996.71
461.466	18225.22
461.672	17711.18
461.878	18829.37
462.083	17436.75
462.289	17547.34
462.494	17092.69
462.7	16603.22
462.905	16042.08
463.111	16648.28
463.316	16611.42
463.522	16355.42
463.727	16347.23
463.932	16126.05
464.138	16089.18
464.343	16207.97
464.549	15648.87
464.754	16369.76
464.959	15900.77
465.165	16013.41
465.37	15167.6
465.575	15011.95
465.781	15542.38
465.986	15493.22
466.191	14817.4
466.397	14776.44
466.602	13850.75
466.807	14446.71
467.012	14456.95
467.218	14231.68
467.423	14121.09
