Data from USB4F104151__5__14-42-30-296.txt Node

Date: Thu Mar 13 14:42:30 EDT 2025
User: louis
Spectrometer: USB4F10415
Trigger mode: 4
Integration Time (sec): 2.000000E-2
Scans to average: 1
Electric dark correction enabled: true
Nonlinearity correction enabled: false
Boxcar width: 0
XAxis mode: Wavelengths
Number of Pixels in Spectrum: 3648
>>>>>Begin Spectral Data<<<<<
178.204	-78.85
178.424	-78.85
178.644	-78.85
178.864	-123.9
179.084	-125.95
179.304	1.02
179.524	13.31
179.744	15.36
179.964	74.75
180.184	27.65
180.404	-13.31
180.624	-11.26
180.844	-3.07
181.064	-50.18
181.283	-35.84
181.503	-103.42
181.723	84.99
181.943	-29.7
182.163	68.61
182.383	-31.74
182.602	56.32
182.822	27.65
183.042	52.22
183.262	19.46
183.482	-25.6
183.701	27.65
183.921	35.84
184.141	-7.17
184.361	80.89
184.58	-39.94
184.8	-13.31
185.02	-68.61
185.239	128
185.459	-5.12
185.679	91.13
185.898	-33.79
186.118	60.42
186.338	15.36
186.557	-21.5
186.777	21.5
186.997	-54.27
187.216	-13.31
187.436	19.46
187.655	19.46
187.875	72.7
188.095	27.65
188.314	-3.07
188.534	25.6
188.753	-29.7
188.973	21.5
189.192	72.7
189.412	25.6
189.631	13.31
189.851	93.18
190.07	44.03
190.29	-60.42
190.509	19.46
190.729	-27.65
190.948	52.22
191.168	93.18
191.387	68.61
191.607	52.22
191.826	-13.31
192.045	3.07
192.265	35.84
192.484	54.27
192.704	-33.79
192.923	-70.65
193.142	11.26
193.362	-11.26
193.581	21.5
193.8	37.89
194.02	66.56
194.239	-27.65
194.458	44.03
194.678	44.03
194.897	48.13
195.116	93.18
195.335	37.89
195.555	35.84
195.774	-19.46
195.993	-70.65
196.212	-3.07
196.432	-17.41
196.651	35.84
196.87	-5.12
197.089	46.08
197.308	29.7
197.528	3.07
197.747	-37.89
197.966	-9.22
198.185	62.46
198.404	-1.02
198.623	11.26
198.842	-37.89
199.062	21.5
199.281	-15.36
199.5	-17.41
199.719	21.5
199.938	29.7
200.157	21.5
200.376	-31.74
200.595	27.65
200.814	27.65
201.033	-1.02
201.252	-50.18
201.471	13.31
201.69	29.7
201.909	9.22
202.128	3.07
202.347	68.61
202.566	11.26
202.785	-70.65
203.004	-37.89
203.223	62.46
203.442	-3.07
203.661	-29.7
203.879	95.23
204.098	60.42
204.317	-44.03
204.536	76.8
204.755	29.7
204.974	27.65
205.193	35.84
205.411	103.42
205.63	46.08
205.849	31.74
206.068	44.03
206.287	62.46
206.505	44.03
206.724	78.85
206.943	-27.65
207.162	25.6
207.381	48.13
207.599	31.74
207.818	-31.74
208.037	29.7
208.255	-11.26
208.474	11.26
208.693	11.26
208.911	3.07
209.13	-5.12
209.349	35.84
209.567	-29.7
209.786	80.89
210.005	-11.26
210.223	68.61
210.442	-31.74
210.661	29.7
210.879	62.46
211.098	27.65
211.316	17.41
211.535	48.13
211.753	27.65
211.972	9.22
212.191	25.6
212.409	-15.36
212.628	31.74
212.846	62.46
213.065	13.31
213.283	125.95
213.502	-13.31
213.72	-15.36
213.938	46.08
214.157	-60.42
214.375	68.61
214.594	11.26
214.812	89.09
215.031	-50.18
215.249	-7.17
215.467	19.46
215.686	19.46
215.904	76.8
216.122	39.94
216.341	93.18
216.559	37.89
216.778	44.03
216.996	35.84
217.214	-35.84
217.432	5.12
217.651	66.56
217.869	15.36
218.087	-11.26
218.306	-54.27
218.524	76.8
218.742	11.26
218.96	87.04
219.179	-46.08
219.397	-5.12
219.615	87.04
219.833	-3.07
220.051	-13.31
220.27	105.47
220.488	3.07
220.706	-3.07
220.924	-3.07
221.142	-17.41
221.36	48.13
221.578	93.18
221.796	9.22
222.015	9.22
222.233	107.52
222.451	37.89
222.669	-31.74
222.887	78.85
223.105	-80.89
223.323	21.5
223.541	-19.46
223.759	-3.07
223.977	44.03
224.195	87.04
224.413	31.74
224.631	46.08
224.849	48.13
225.067	80.89
225.285	11.26
225.503	-21.5
225.721	58.37
225.939	27.65
226.157	72.7
226.375	125.95
226.592	-33.79
226.81	15.36
227.028	87.04
227.246	27.65
227.464	21.5
227.682	119.81
227.9	128
228.117	89.09
228.335	3.07
228.553	-25.6
228.771	5.12
228.989	13.31
229.206	-19.46
229.424	3.07
229.642	-84.99
229.86	-27.65
230.077	35.84
230.295	97.28
230.513	25.6
230.731	101.37
230.948	19.46
231.166	99.33
231.384	62.46
231.601	-35.84
231.819	35.84
232.037	-29.7
232.254	-54.27
232.472	62.46
232.689	-41.98
232.907	-29.7
233.125	-46.08
233.342	11.26
233.56	-13.31
233.777	-35.84
233.995	-3.07
234.213	60.42
234.43	29.7
234.648	-25.6
234.865	37.89
235.083	-60.42
235.3	-35.84
235.518	1.02
235.735	37.89
235.953	21.5
236.17	15.36
236.388	19.46
236.605	1.02
236.822	76.8
237.04	46.08
237.257	-9.22
237.475	-78.85
237.692	44.03
237.909	-74.75
238.127	44.03
238.344	-91.13
238.562	-11.26
238.779	-5.12
238.996	39.94
239.214	-17.41
239.431	97.28
239.648	-5.12
239.865	11.26
240.083	27.65
240.3	-39.94
240.517	44.03
240.735	109.57
240.952	5.12
241.169	35.84
241.386	21.5
241.603	-33.79
241.821	-76.8
242.038	35.84
242.255	-27.65
242.472	-37.89
242.689	35.84
242.907	107.52
243.124	52.22
243.341	60.42
243.558	11.26
243.775	-50.18
243.992	-37.89
244.209	60.42
244.426	74.75
244.643	-9.22
244.86	-46.08
245.078	27.65
245.295	-11.26
245.512	-33.79
245.729	-9.22
245.946	23.55
246.163	-13.31
246.38	56.32
246.597	60.42
246.814	17.41
247.031	37.89
247.248	23.55
247.464	23.55
247.681	44.03
247.898	93.18
248.115	-21.5
248.332	-13.31
248.549	7.17
248.766	19.46
248.983	27.65
249.2	29.7
249.417	-46.08
249.633	-5.12
249.85	3.07
250.067	-25.6
250.284	27.65
250.501	-46.08
250.717	56.32
250.934	-33.79
251.151	-1.02
251.368	-21.5
251.585	5.12
251.801	-11.26
252.018	11.26
252.235	70.65
252.451	-7.17
252.668	-41.98
252.885	-46.08
253.102	19.46
253.318	13.31
253.535	-21.5
253.752	-3.07
253.968	-37.89
254.185	39.94
254.401	-50.18
254.618	3.07
254.835	-54.27
255.051	101.37
255.268	-3.07
255.484	19.46
255.701	-5.12
255.917	99.33
256.134	35.84
256.351	21.5
256.567	-5.12
256.784	35.84
257	-17.41
257.217	68.61
257.433	31.74
257.65	-21.5
257.866	52.22
258.082	11.26
258.299	11.26
258.515	95.23
258.732	17.41
258.948	-9.22
259.165	70.65
259.381	-17.41
259.597	-41.98
259.814	48.13
260.03	84.99
260.246	80.89
260.463	3.07
260.679	41.98
260.895	3.07
261.112	23.55
261.328	11.26
261.544	27.65
261.761	132.09
261.977	-117.76
262.193	-17.41
262.409	11.26
262.626	15.36
262.842	21.5
263.058	21.5
263.274	3.07
263.49	56.32
263.707	76.8
263.923	23.55
264.139	-60.42
264.355	5.12
264.571	39.94
264.787	44.03
265.004	29.7
265.22	13.31
265.436	-11.26
265.652	-11.26
265.868	-1.02
266.084	-7.17
266.3	-23.55
266.516	-33.79
266.732	11.26
266.948	84.99
267.164	56.32
267.38	35.84
267.596	-1.02
267.812	93.18
268.028	52.22
268.244	11.26
268.46	-1.02
268.676	35.84
268.892	19.46
269.108	-23.55
269.324	19.46
269.54	-1.02
269.756	44.03
269.972	-41.98
270.188	-19.46
270.403	-70.65
270.619	19.46
270.835	-54.27
271.051	9.22
271.267	-46.08
271.483	-11.26
271.698	-62.46
271.914	19.46
272.13	15.36
272.346	74.75
272.562	-17.41
272.777	68.61
272.993	-44.03
273.209	29.7
273.425	41.98
273.64	-17.41
273.856	1.02
274.072	93.18
274.287	-44.03
274.503	60.42
274.719	19.46
274.934	76.8
275.15	3.07
275.366	5.12
275.581	19.46
275.797	37.89
276.012	29.7
276.228	11.26
276.444	113.66
276.659	-1.02
276.875	3.07
277.09	41.98
277.306	89.09
277.521	52.22
277.737	-46.08
277.952	48.13
278.168	21.5
278.383	89.09
278.599	19.46
278.814	-1.02
279.03	-5.12
279.245	31.74
279.461	50.18
279.676	35.84
279.892	-1.02
280.107	-13.31
280.322	11.26
280.538	-23.55
280.753	15.36
280.969	60.42
281.184	-1.02
281.399	-23.55
281.615	27.65
281.83	21.5
282.045	-27.65
282.26	31.74
282.476	-76.8
282.691	31.74
282.906	19.46
283.122	-9.22
283.337	-5.12
283.552	37.89
283.767	-62.46
283.983	68.61
284.198	48.13
284.413	-27.65
284.628	5.12
284.843	23.55
285.058	27.65
285.274	-21.5
285.489	-99.33
285.704	50.18
285.919	27.65
286.134	-9.22
286.349	21.5
286.564	41.98
286.779	52.22
286.995	35.84
287.21	-111.61
287.425	87.04
287.64	-19.46
287.855	7.17
288.07	21.5
288.285	60.42
288.5	105.47
288.715	84.99
288.93	-13.31
289.145	76.8
289.36	29.7
289.575	-35.84
289.79	15.36
290.004	-39.94
290.219	74.75
290.434	19.46
290.649	-5.12
290.864	13.31
291.079	-19.46
291.294	60.42
291.509	3.07
291.724	54.27
291.938	80.89
292.153	5.12
292.368	-13.31
292.583	44.03
292.798	66.56
293.012	54.27
293.227	19.46
293.442	19.46
293.657	93.18
293.871	101.37
294.086	-35.84
294.301	48.13
294.516	-25.6
294.73	46.08
294.945	-37.89
295.16	11.26
295.374	-21.5
295.589	72.7
295.804	-9.22
296.018	44.03
296.233	111.61
296.447	37.89
296.662	-27.65
296.877	70.65
297.091	-13.31
297.306	-29.7
297.52	27.65
297.735	37.89
297.949	27.65
298.164	11.26
298.378	84.99
298.593	-33.79
298.807	27.65
299.022	-5.12
299.236	37.89
299.451	60.42
299.665	60.42
299.88	-1.02
300.094	48.13
300.309	1.02
300.523	-46.08
300.737	39.94
300.952	3.07
301.166	52.22
301.381	-41.98
301.595	37.89
301.809	37.89
302.024	-5.12
302.238	-21.5
302.452	76.8
302.667	-1.02
302.881	52.22
303.095	39.94
303.309	-5.12
303.524	1.02
303.738	-33.79
303.952	50.18
304.166	29.7
304.381	-46.08
304.595	56.32
304.809	107.52
305.023	68.61
305.237	-19.46
305.452	56.32
305.666	19.46
305.88	5.12
306.094	35.84
306.308	35.84
306.522	11.26
306.736	-78.85
306.95	31.74
307.164	-11.26
307.379	15.36
307.593	64.51
307.807	25.6
308.021	-21.5
308.235	60.42
308.449	1.02
308.663	64.51
308.877	68.61
309.091	-1.02
309.305	19.46
309.519	-25.6
309.733	105.47
309.947	-37.89
310.161	-52.22
310.374	39.94
310.588	48.13
310.802	46.08
311.016	-93.18
311.23	21.5
311.444	27.65
311.658	1.02
311.872	-17.41
312.085	13.31
312.299	11.26
312.513	-25.6
312.727	27.65
312.941	56.32
313.154	-29.7
313.368	54.27
313.582	60.42
313.796	-91.13
314.009	52.22
314.223	15.36
314.437	84.99
314.651	-33.79
314.864	39.94
315.078	46.08
315.292	-58.37
315.505	-9.22
315.719	9.22
315.933	25.6
316.146	-21.5
316.36	-58.37
316.573	44.03
316.787	-1.02
317.001	7.17
317.214	78.85
317.428	-29.7
317.641	-13.31
317.855	-5.12
318.068	35.84
318.282	-17.41
318.495	76.8
318.709	9.22
318.922	-29.7
319.136	19.46
319.349	37.89
319.563	-58.37
319.776	80.89
319.99	-19.46
320.203	-11.26
320.417	62.46
320.63	72.7
320.843	37.89
321.057	7.17
321.27	15.36
321.483	3.07
321.697	44.03
321.91	17.41
322.124	15.36
322.337	101.37
322.55	-31.74
322.763	33.79
322.977	54.27
323.19	21.5
323.403	3.07
323.617	60.42
323.83	35.84
324.043	13.31
324.256	5.12
324.469	11.26
324.683	37.89
324.896	23.55
325.109	52.22
325.322	35.84
325.535	50.18
325.748	-29.7
325.962	56.32
326.175	1.02
326.388	5.12
326.601	82.94
326.814	54.27
327.027	7.17
327.24	39.94
327.453	-54.27
327.666	39.94
327.879	-33.79
328.092	44.03
328.305	-21.5
328.518	27.65
328.731	-35.84
328.944	-17.41
329.157	11.26
329.37	7.17
329.583	44.03
329.796	50.18
330.009	70.65
330.222	-29.7
330.435	19.46
330.648	31.74
330.861	-87.04
331.073	39.94
331.286	41.98
331.499	46.08
331.712	-21.5
331.925	60.42
332.138	17.41
332.35	46.08
332.563	52.22
332.776	9.22
332.989	37.89
333.202	-13.31
333.414	5.12
333.627	19.46
333.84	-11.26
334.053	-15.36
334.265	35.84
334.478	13.31
334.691	-9.22
334.903	-5.12
335.116	-46.08
335.329	35.84
335.541	56.32
335.754	111.61
335.966	27.65
336.179	-11.26
336.392	19.46
336.604	11.26
336.817	15.36
337.029	-13.31
337.242	50.18
337.454	35.84
337.667	-21.5
337.88	19.46
338.092	-29.7
338.305	54.27
338.517	-5.12
338.729	52.22
338.942	11.26
339.154	1.02
339.367	-109.57
339.579	-62.46
339.792	-25.6
340.004	48.13
340.217	-1.02
340.429	35.84
340.641	-15.36
340.854	33.79
341.066	-3.07
341.278	62.46
341.491	58.37
341.703	70.65
341.915	-54.27
342.128	41.98
342.34	52.22
342.552	-19.46
342.764	54.27
342.977	27.65
343.189	-33.79
343.401	19.46
343.613	-19.46
343.826	-35.84
344.038	11.26
344.25	27.65
344.462	-11.26
344.674	-3.07
344.886	27.65
345.099	93.18
345.311	54.27
345.523	-5.12
345.735	-44.03
345.947	-17.41
346.159	95.23
346.371	-17.41
346.583	-13.31
346.795	62.46
347.007	31.74
347.219	13.31
347.431	-1.02
347.643	19.46
347.855	23.55
348.067	-29.7
348.279	-31.74
348.491	68.61
348.703	50.18
348.915	31.74
349.127	-11.26
349.339	37.89
349.551	62.46
349.763	68.61
349.975	-5.12
350.187	35.84
350.399	27.65
350.61	39.94
350.822	3.07
351.034	19.46
351.246	37.89
351.458	-74.75
351.669	37.89
351.881	66.56
352.093	-13.31
352.305	64.51
352.517	60.42
352.728	23.55
352.94	115.71
353.152	27.65
353.363	5.12
353.575	60.42
353.787	19.46
353.999	64.51
354.21	87.04
354.422	19.46
354.633	-68.61
354.845	11.26
355.057	-5.12
355.268	-3.07
355.48	19.46
355.692	-54.27
355.903	-17.41
356.115	11.26
356.326	-17.41
356.538	58.37
356.749	44.03
356.961	80.89
357.172	-78.85
357.384	-5.12
357.595	27.65
357.807	-54.27
358.018	13.31
358.23	64.51
358.441	68.61
358.653	-11.26
358.864	-1.02
359.075	7.17
359.287	46.08
359.498	97.28
359.709	62.46
359.921	80.89
360.132	29.7
360.344	19.46
360.555	29.7
360.766	72.7
360.977	29.7
361.189	60.42
361.4	105.47
361.611	-11.26
361.823	27.65
362.034	39.94
362.245	54.27
362.456	-5.12
362.667	15.36
362.879	-9.22
363.09	-9.22
363.301	-44.03
363.512	33.79
363.723	87.04
363.935	70.65
364.146	-13.31
364.357	37.89
364.568	119.81
364.779	-52.22
364.99	76.8
365.201	-95.23
365.412	-11.26
365.623	27.65
365.834	62.46
366.045	-13.31
366.256	44.03
366.467	21.5
366.678	-27.65
366.889	1.02
367.1	84.99
367.311	91.13
367.522	68.61
367.733	15.36
367.944	13.31
368.155	-7.17
368.366	62.46
368.577	-23.55
368.788	25.6
368.999	27.65
369.209	35.84
369.42	44.03
369.631	171.01
369.842	95.23
370.053	-11.26
370.264	52.22
370.474	5.12
370.685	-31.74
370.896	29.7
371.107	78.85
371.317	19.46
371.528	-1.02
371.739	46.08
371.95	70.65
372.16	66.56
372.371	52.22
372.582	5.12
372.792	3.07
373.003	44.03
373.214	-25.6
373.424	21.5
373.635	17.41
373.846	89.09
374.056	19.46
374.267	19.46
374.477	52.22
374.688	7.17
374.898	56.32
375.109	37.89
375.319	52.22
375.53	107.52
375.74	44.03
375.951	-33.79
376.161	39.94
376.372	66.56
376.582	-5.12
376.793	80.89
377.003	-11.26
377.214	5.12
377.424	-13.31
377.635	23.55
377.845	44.03
378.055	62.46
378.266	-37.89
378.476	60.42
378.686	-25.6
378.897	-33.79
379.107	-19.46
379.317	19.46
379.528	48.13
379.738	76.8
379.948	17.41
380.158	5.12
380.369	54.27
380.579	62.46
380.789	-21.5
380.999	89.09
381.21	35.84
381.42	76.8
381.63	-35.84
381.84	44.03
382.05	44.03
382.261	-21.5
382.471	29.7
382.681	-7.17
382.891	-15.36
383.101	3.07
383.311	-21.5
383.521	-13.31
383.731	17.41
383.941	31.74
384.151	19.46
384.361	-19.46
384.571	35.84
384.781	33.79
384.991	39.94
385.201	68.61
385.411	35.84
385.621	111.61
385.831	11.26
386.041	19.46
386.251	-29.7
386.461	95.23
386.671	35.84
386.881	-5.12
387.091	3.07
387.301	52.22
387.511	11.26
387.72	52.22
387.93	27.65
388.14	15.36
388.35	44.03
388.56	109.57
388.769	19.46
388.979	5.12
389.189	-1.02
389.399	121.85
389.609	37.89
389.818	64.51
390.028	21.5
390.238	21.5
390.447	3.07
390.657	52.22
390.867	48.13
391.076	-13.31
391.286	62.46
391.496	7.17
391.705	-21.5
391.915	144.38
392.125	68.61
392.334	-13.31
392.544	48.13
392.753	-21.5
392.963	11.26
393.172	50.18
393.382	-13.31
393.591	11.26
393.801	11.26
394.01	60.42
394.22	17.41
394.429	23.55
394.639	44.03
394.848	103.42
395.058	39.94
395.267	44.03
395.477	64.51
395.686	11.26
395.895	97.28
396.105	84.99
396.314	113.66
396.524	72.7
396.733	44.03
396.942	62.46
397.152	80.89
397.361	128
397.57	44.03
397.78	31.74
397.989	62.46
398.198	50.18
398.407	64.51
398.617	46.08
398.826	60.42
399.035	80.89
399.244	74.75
399.453	117.76
399.663	84.99
399.872	111.61
400.081	89.09
400.29	142.33
400.499	62.46
400.708	142.33
400.917	23.55
401.127	56.32
401.336	19.46
401.545	142.33
401.754	11.26
401.963	113.66
402.172	31.74
402.381	31.74
402.59	60.42
402.799	87.04
403.008	23.55
403.217	72.7
403.426	44.03
403.635	-27.65
403.844	84.99
404.053	109.57
404.262	76.8
404.471	154.62
404.68	101.37
404.888	144.38
405.097	37.89
405.306	19.46
405.515	166.91
405.724	56.32
405.933	93.18
406.142	97.28
406.35	119.81
406.559	37.89
406.768	101.37
406.977	89.09
407.185	138.24
407.394	142.33
407.603	162.81
407.812	201.72
408.02	115.71
408.229	136.19
408.438	113.66
408.646	138.24
408.855	109.57
409.064	138.24
409.272	183.29
409.481	191.49
409.69	195.58
409.898	226.3
410.107	185.34
410.315	207.87
410.524	175.1
410.733	240.64
410.941	218.11
411.15	191.49
411.358	193.53
411.567	240.64
411.775	269.31
411.984	254.97
412.192	244.73
412.401	224.25
412.609	330.75
412.818	312.32
413.026	400.38
413.234	314.36
413.443	240.64
413.651	343.03
413.86	357.37
414.068	406.52
414.276	349.18
414.485	345.08
414.693	537.59
414.901	453.63
415.11	392.19
415.318	388.09
415.526	429.05
415.734	519.16
415.943	453.63
416.151	502.78
416.359	543.74
416.567	545.78
416.776	549.88
416.984	543.74
417.192	611.32
417.4	654.33
417.608	609.27
417.817	631.8
418.025	683
418.233	756.72
418.441	683
418.649	773.11
418.857	816.12
419.065	859.12
419.273	801.78
419.481	914.42
419.689	957.43
419.897	857.07
420.105	906.23
420.313	949.23
420.521	1047.54
420.729	1076.21
420.937	1006.58
421.145	1084.4
421.353	1137.65
421.561	1256.43
421.769	1289.2
421.977	1356.78
422.185	1336.3
422.393	1305.58
422.601	1471.47
422.809	1455.08
423.017	1485.8
423.224	1545.19
423.432	1582.06
423.64	1715.17
423.848	1731.56
424.056	1633.26
424.263	1752.04
424.471	1723.37
424.679	1823.72
424.887	1911.78
425.094	2034.66
425.302	2036.7
425.51	2128.86
425.718	2100.19
425.925	2255.84
426.133	2247.65
426.341	2399.2
426.548	2436.06
426.756	2415.58
426.964	2419.68
427.171	2556.89
427.379	2741.21
427.586	2669.53
427.794	2866.13
428.001	3021.78
428.209	2980.82
428.417	3079.12
428.624	3353.55
428.832	3304.4
429.039	3220.43
429.247	3371.98
429.454	3511.24
429.662	3752.9
429.869	3621.83
430.076	3836.87
430.284	3713.99
430.491	3943.36
430.699	4074.43
430.906	4201.41
431.114	4301.76
431.321	4180.93
431.528	4254.66
431.736	4711.35
431.943	4746.17
432.15	4647.87
432.358	4797.37
432.565	5030.84
432.772	4910.01
432.979	5327.79
433.187	5460.91
433.394	5356.46
433.601	5768.1
433.808	5741.48
434.016	5698.47
434.223	6067.11
434.43	6228.9
434.637	6304.67
434.844	6491.04
435.052	6638.49
435.259	6837.14
435.466	6722.46
435.673	6636.44
435.88	6996.89
436.087	7680.91
436.294	7420.81
436.501	7326.61
436.708	7412.62
436.915	7660.43
437.122	7922.57
437.329	8055.69
437.537	8172.42
437.743	8563.58
437.95	8475.52
438.157	8795
438.364	9040.76
438.571	9063.29
438.778	9098.1
438.985	9960.3
439.192	9665.39
439.399	9882.47
439.606	9775.98
439.813	10128.23
440.02	10744.67
440.227	10603.36
440.433	10687.32
440.64	10947.42
440.847	10799.96
441.054	11017.05
441.261	11856.72
441.467	11559.76
441.674	11930.44
441.881	12258.12
442.088	12309.32
442.294	12135.24
442.501	12557.12
442.708	12563.26
442.914	13318.96
443.121	13847.34
443.328	13400.88
443.534	14285.61
443.741	14228.26
443.948	13777.71
444.154	14791.45
444.361	14850.85
444.568	14789.41
444.774	14873.37
444.981	15133.47
445.187	15411.99
445.394	16122.63
445.6	15846.16
445.807	17771.25
446.013	16653.06
446.22	16837.38
446.426	17554.16
446.633	17689.33
446.839	18576.1
447.046	17517.3
447.252	18541.29
447.459	18811.62
447.665	18645.73
447.871	19442.39
448.078	20267.72
448.284	19309.27
448.491	19892.94
448.697	20509.38
448.903	20959.94
449.11	20800.19
449.316	20779.71
449.522	21054.14
449.728	21650.1
449.935	22098.61
450.141	21727.92
450.347	22336.17
450.553	21332.67
450.76	22133.42
450.966	22790.82
451.172	22383.27
451.378	23253.66
451.584	22602.41
451.791	23106.21
451.997	23171.74
452.203	23413.4
452.409	23599.77
452.615	23302.81
452.821	22555.3
453.027	22164.14
453.233	23499.42
453.44	22600.36
453.646	23038.62
453.852	23155.36
454.058	23536.28
454.264	22663.85
454.47	23128.74
454.676	22469.29
454.882	23323.29
455.088	21457.59
455.294	21783.22
455.5	21869.23
455.705	22241.96
455.911	21152.45
456.117	20808.39
456.323	20400.84
456.529	19604.18
456.735	20447.94
456.941	19845.84
457.147	19739.35
457.352	19094.24
457.558	18901.73
457.764	18811.62
457.97	18551.52
458.176	18086.64
458.381	18377.45
458.587	17076.99
458.793	17279.74
458.999	16388.87
459.204	17758.96
459.41	16773.89
459.616	15999.76
459.821	16096.01
460.027	16214.79
460.233	15799.05
460.438	14908.19
460.644	15211.29
460.85	14252.84
461.055	14045.99
461.261	14134.06
461.466	13220.66
461.672	12680
461.878	13482.8
462.083	12665.66
462.289	12538.69
462.494	12217.16
462.7	11713.36
462.905	11682.64
463.111	11860.81
463.316	12002.12
463.522	11526.99
463.727	11690.83
463.932	11598.67
464.138	11639.63
464.343	11635.53
464.549	11101.01
464.754	11549.52
464.959	11377.49
465.165	11455.31
465.37	10980.18
465.575	10662.75
465.781	11141.97
465.986	11111.25
466.191	10576.73
466.397	10425.18
466.602	10085.22
466.807	10365.79
467.012	10550.11
467.218	10384.23
467.423	10259.3
