Data from USB4F104151__14__14-42-37-728.txt Node

Date: Thu Mar 13 14:42:37 EDT 2025
User: louis
Spectrometer: USB4F10415
Trigger mode: 4
Integration Time (sec): 2.000000E-2
Scans to average: 1
Electric dark correction enabled: true
Nonlinearity correction enabled: false
Boxcar width: 0
XAxis mode: Wavelengths
Number of Pixels in Spectrum: 3648
>>>>>Begin Spectral Data<<<<<
178.204	-70.31
178.424	-70.31
178.644	-70.31
178.864	-96.94
179.084	-84.65
179.304	19.8
179.524	-2.73
179.744	-55.98
179.964	58.71
180.184	9.56
180.404	-37.55
180.624	-10.92
180.844	21.85
181.064	-47.79
181.283	-6.83
181.503	-37.55
181.723	89.43
181.943	-43.69
182.163	27.99
182.383	-10.92
182.602	71
182.822	-60.07
183.042	-23.21
183.262	1.37
183.482	-39.59
183.701	66.9
183.921	44.37
184.141	-66.22
184.361	83.28
184.58	66.9
184.8	1.37
185.02	40.28
185.239	-47.79
185.459	11.61
185.679	11.61
185.898	-60.07
186.118	-31.4
186.338	46.42
186.557	-15.02
186.777	-62.12
186.997	-76.46
187.216	11.61
187.436	58.71
187.655	13.65
187.875	134.48
188.095	25.94
188.314	93.52
188.534	17.75
188.753	60.76
188.973	13.65
189.192	-70.31
189.412	19.8
189.631	-10.92
189.851	-31.4
190.07	60.76
190.29	-19.11
190.509	25.94
190.729	79.19
190.948	87.38
191.168	107.86
191.387	75.09
191.607	-12.97
191.826	58.71
192.045	58.71
192.265	62.8
192.484	50.52
192.704	103.76
192.923	77.14
193.142	50.52
193.362	21.85
193.581	66.9
193.8	60.76
194.02	50.52
194.239	-15.02
194.458	103.76
194.678	19.8
194.897	-2.73
195.116	25.94
195.335	75.09
195.555	73.04
195.774	9.56
195.993	38.23
196.212	-2.73
196.432	-19.11
196.651	-4.78
196.87	34.13
197.089	58.71
197.308	-4.78
197.528	99.67
197.747	60.76
197.966	19.8
198.185	83.28
198.404	-84.65
198.623	17.75
198.842	13.65
199.062	-37.55
199.281	107.86
199.5	50.52
199.719	73.04
199.938	27.99
200.157	9.56
200.376	44.37
200.595	79.19
200.814	52.56
201.033	-39.59
201.252	50.52
201.471	27.99
201.69	62.8
201.909	50.52
202.128	-39.59
202.347	-62.12
202.566	91.48
202.785	30.04
203.004	-92.84
203.223	58.71
203.442	-8.87
203.661	-39.59
203.879	-31.4
204.098	62.8
204.317	-23.21
204.536	30.04
204.755	17.75
204.974	42.32
205.193	48.47
205.411	85.33
205.63	34.13
205.849	19.8
206.068	19.8
206.287	34.13
206.505	30.04
206.724	-33.45
206.943	17.75
207.162	25.94
207.381	81.24
207.599	52.56
207.818	42.32
208.037	13.65
208.255	19.8
208.474	-19.11
208.693	62.8
208.911	34.13
209.13	50.52
209.349	66.9
209.567	42.32
209.786	17.75
210.005	75.09
210.223	-21.16
210.442	25.94
210.661	46.42
210.879	-35.5
211.098	34.13
211.316	21.85
211.535	34.13
211.753	71
211.972	75.09
212.191	91.48
212.409	-80.55
212.628	-4.78
212.846	11.61
213.065	9.56
213.283	77.14
213.502	19.8
213.72	54.61
213.938	21.85
214.157	64.85
214.375	91.48
214.594	50.52
214.812	38.23
215.031	34.13
215.249	-2.73
215.467	23.89
215.686	-23.21
215.904	34.13
216.122	17.75
216.341	122.2
216.559	-27.31
216.778	9.56
216.996	-15.02
217.214	44.37
217.432	-82.6
217.651	21.85
217.869	17.75
218.087	54.61
218.306	-23.21
218.524	66.9
218.742	13.65
218.96	11.61
219.179	58.71
219.397	-4.78
219.615	107.86
219.833	34.13
220.051	-12.97
220.27	5.46
220.488	62.8
220.706	77.14
220.924	50.52
221.142	5.46
221.36	68.95
221.578	9.56
221.796	62.8
222.015	17.75
222.233	-15.02
222.451	52.56
222.669	3.41
222.887	34.13
223.105	-12.97
223.323	-15.02
223.541	-15.02
223.759	17.75
223.977	-12.97
224.195	83.28
224.413	17.75
224.631	42.32
224.849	42.32
225.067	54.61
225.285	-55.98
225.503	17.75
225.721	42.32
225.939	-55.98
226.157	-2.73
226.375	152.91
226.592	5.46
226.81	3.41
227.028	75.09
227.246	-27.31
227.464	36.18
227.682	120.15
227.9	19.8
228.117	42.32
228.335	-27.31
228.553	46.42
228.771	-35.5
228.989	27.99
229.206	54.61
229.424	40.28
229.642	-23.21
229.86	17.75
230.077	-23.21
230.295	13.65
230.513	-10.92
230.731	132.44
230.948	42.32
231.166	38.23
231.384	19.8
231.601	17.75
231.819	79.19
232.037	21.85
232.254	-53.93
232.472	25.94
232.689	1.37
232.907	-6.83
233.125	21.85
233.342	83.28
233.56	-64.17
233.777	1.37
233.995	25.94
234.213	71
234.43	21.85
234.648	15.7
234.865	-84.65
235.083	19.8
235.3	25.94
235.518	95.57
235.735	66.9
235.953	-4.78
236.17	38.23
236.388	9.56
236.605	17.75
236.822	60.76
237.04	-45.74
237.257	58.71
237.475	34.13
237.692	77.14
237.909	1.37
238.127	34.13
238.344	38.23
238.562	21.85
238.779	46.42
238.996	-15.02
239.214	21.85
239.431	48.47
239.648	-2.73
239.865	23.89
240.083	34.13
240.3	-6.83
240.517	-25.26
240.735	75.09
240.952	36.18
241.169	19.8
241.386	9.56
241.603	-12.97
241.821	-4.78
242.038	32.08
242.255	66.9
242.472	44.37
242.689	66.9
242.907	46.42
243.124	50.52
243.341	42.32
243.558	23.89
243.775	54.61
243.992	32.08
244.209	109.91
244.426	42.32
244.643	77.14
244.86	81.24
245.078	-6.83
245.295	81.24
245.512	68.95
245.729	-15.02
245.946	81.24
246.163	-4.78
246.38	-19.11
246.597	48.47
246.814	-0.68
247.031	-6.83
247.248	21.85
247.464	-6.83
247.681	9.56
247.898	34.13
248.115	89.43
248.332	27.99
248.549	93.52
248.766	38.23
248.983	62.8
249.2	95.57
249.417	58.71
249.633	-37.55
249.85	52.56
250.067	-10.92
250.284	36.18
250.501	89.43
250.717	21.85
250.934	-17.07
251.151	21.85
251.368	21.85
251.585	42.32
251.801	-35.5
252.018	-31.4
252.235	46.42
252.451	11.61
252.668	19.8
252.885	25.94
253.102	5.46
253.318	17.75
253.535	32.08
253.752	13.65
253.968	13.65
254.185	40.28
254.401	91.48
254.618	-10.92
254.835	34.13
255.051	46.42
255.268	23.89
255.484	93.52
255.701	17.75
255.917	54.61
256.134	-12.97
256.351	79.19
256.567	-29.35
256.784	17.75
257	-35.5
257.217	85.33
257.433	7.51
257.65	21.85
257.866	13.65
258.082	46.42
258.299	9.56
258.515	107.86
258.732	46.42
258.948	25.94
259.165	21.85
259.381	34.13
259.597	1.37
259.814	17.75
260.03	30.04
260.246	71
260.463	21.85
260.679	68.95
260.895	-74.41
261.112	17.75
261.328	9.56
261.544	-23.21
261.761	71
261.977	-8.87
262.193	-27.31
262.409	42.32
262.626	17.75
262.842	25.94
263.058	23.89
263.274	71
263.49	3.41
263.707	34.13
263.923	25.94
264.139	-31.4
264.355	-29.35
264.571	34.13
264.787	36.18
265.004	11.61
265.22	-55.98
265.436	73.04
265.652	25.94
265.868	-23.21
266.084	34.13
266.3	30.04
266.516	66.9
266.732	9.56
266.948	54.61
267.164	42.32
267.38	17.75
267.596	58.71
267.812	54.61
268.028	42.32
268.244	9.56
268.46	-43.69
268.676	73.04
268.892	-10.92
269.108	44.37
269.324	-15.02
269.54	9.56
269.756	34.13
269.972	-53.93
270.188	-12.97
270.403	17.75
270.619	21.85
270.835	52.56
271.051	-39.59
271.267	21.85
271.483	60.76
271.698	13.65
271.914	-4.78
272.13	-45.74
272.346	-37.55
272.562	46.42
272.777	122.2
272.993	-31.4
273.209	-45.74
273.425	73.04
273.64	-12.97
273.856	21.85
274.072	-4.78
274.287	-6.83
274.503	58.71
274.719	-2.73
274.934	60.76
275.15	-15.02
275.366	1.37
275.581	-53.93
275.797	-0.68
276.012	34.13
276.228	52.56
276.444	91.48
276.659	93.52
276.875	27.99
277.09	11.61
277.306	-15.02
277.521	27.99
277.737	21.85
277.952	27.99
278.168	-6.83
278.383	66.9
278.599	50.52
278.814	36.18
279.03	42.32
279.245	91.48
279.461	-4.78
279.676	36.18
279.892	-84.65
280.107	46.42
280.322	-23.21
280.538	27.99
280.753	-31.4
280.969	66.9
281.184	34.13
281.399	116.05
281.615	27.99
281.83	36.18
282.045	3.41
282.26	68.95
282.476	-27.31
282.691	68.95
282.906	9.56
283.122	-21.16
283.337	25.94
283.552	38.23
283.767	23.89
283.983	38.23
284.198	50.52
284.413	62.8
284.628	36.18
284.843	132.44
285.058	60.76
285.274	91.48
285.489	42.32
285.704	46.42
285.919	7.51
286.134	-45.74
286.349	58.71
286.564	36.18
286.779	30.04
286.995	-6.83
287.21	9.56
287.425	-31.4
287.64	44.37
287.855	11.61
288.07	-19.11
288.285	91.48
288.5	42.32
288.715	34.13
288.93	1.37
289.145	-4.78
289.36	66.9
289.575	52.56
289.79	54.61
290.004	83.28
290.219	36.18
290.434	21.85
290.649	19.8
290.864	-31.4
291.079	13.65
291.294	58.71
291.509	9.56
291.724	44.37
291.938	66.9
292.153	73.04
292.368	77.14
292.583	52.56
292.798	30.04
293.012	1.37
293.227	1.37
293.442	30.04
293.657	44.37
293.871	52.56
294.086	62.8
294.301	144.72
294.516	54.61
294.73	13.65
294.945	34.13
295.16	62.8
295.374	21.85
295.589	-4.78
295.804	17.75
296.018	58.71
296.233	73.04
296.447	91.48
296.662	21.85
296.877	-27.31
297.091	44.37
297.306	44.37
297.52	3.41
297.735	-19.11
297.949	-6.83
298.164	58.71
298.378	-2.73
298.593	-12.97
298.807	99.67
299.022	54.61
299.236	9.56
299.451	-4.78
299.665	9.56
299.88	34.13
300.094	-6.83
300.309	32.08
300.523	58.71
300.737	-12.97
300.952	13.65
301.166	75.09
301.381	27.99
301.595	77.14
301.809	34.13
302.024	77.14
302.238	-39.59
302.452	85.33
302.667	36.18
302.881	17.75
303.095	60.76
303.309	58.71
303.524	52.56
303.738	38.23
303.952	38.23
304.166	46.42
304.381	38.23
304.595	120.15
304.809	-6.83
305.023	60.76
305.237	73.04
305.452	25.94
305.666	75.09
305.88	30.04
306.094	44.37
306.308	97.62
306.522	66.9
306.736	25.94
306.95	13.65
307.164	107.86
307.379	-23.21
307.593	36.18
307.807	-15.02
308.021	-4.78
308.235	-15.02
308.449	27.99
308.663	5.46
308.877	91.48
309.091	3.41
309.305	48.47
309.519	91.48
309.733	159.06
309.947	71
310.161	-31.4
310.374	9.56
310.588	107.86
310.802	-12.97
311.016	83.28
311.23	60.76
311.444	-10.92
311.658	34.13
311.872	50.52
312.085	83.28
312.299	-2.73
312.513	87.38
312.727	38.23
312.941	21.85
313.154	99.67
313.368	23.89
313.582	66.9
313.796	54.61
314.009	91.48
314.223	58.71
314.437	38.23
314.651	103.76
314.864	44.37
315.078	34.13
315.292	25.94
315.505	46.42
315.719	48.47
315.933	25.94
316.146	52.56
316.36	34.13
316.573	42.32
316.787	52.56
317.001	36.18
317.214	1.37
317.428	50.52
317.641	58.71
317.855	-2.73
318.068	-15.02
318.282	-70.31
318.495	64.85
318.709	132.44
318.922	-6.83
319.136	30.04
319.349	-15.02
319.563	23.89
319.776	52.56
319.99	-2.73
320.203	109.91
320.417	17.75
320.63	54.61
320.843	17.75
321.057	19.8
321.27	27.99
321.483	66.9
321.697	21.85
321.91	60.76
322.124	38.23
322.337	-19.11
322.55	-68.27
322.763	40.28
322.977	9.56
323.19	30.04
323.403	-23.21
323.617	46.42
323.83	116.05
324.043	-23.21
324.256	13.65
324.469	-0.68
324.683	-6.83
324.896	38.23
325.109	30.04
325.322	1.37
325.535	-6.83
325.748	44.37
325.962	-0.68
326.175	142.68
326.388	42.32
326.601	44.37
326.814	66.9
327.027	66.9
327.24	56.66
327.453	-101.03
327.666	75.09
327.879	-8.87
328.092	-15.02
328.305	30.04
328.518	11.61
328.731	-33.45
328.944	50.52
329.157	71
329.37	75.09
329.583	85.33
329.796	34.13
330.009	42.32
330.222	73.04
330.435	50.52
330.648	38.23
330.861	34.13
331.073	58.71
331.286	68.95
331.499	25.94
331.712	25.94
331.925	-10.92
332.138	5.46
332.35	44.37
332.563	21.85
332.776	27.99
332.989	1.37
333.202	77.14
333.414	-12.97
333.627	11.61
333.84	83.28
334.053	-72.36
334.265	-39.59
334.478	30.04
334.691	-15.02
334.903	42.32
335.116	-21.16
335.329	30.04
335.541	34.13
335.754	27.99
335.966	42.32
336.179	5.46
336.392	68.95
336.604	107.86
336.817	44.37
337.029	11.61
337.242	66.9
337.454	75.09
337.667	1.37
337.88	15.7
338.092	62.8
338.305	-2.73
338.517	-76.46
338.729	27.99
338.942	54.61
339.154	3.41
339.367	-39.59
339.579	3.41
339.792	25.94
340.004	17.75
340.217	38.23
340.429	75.09
340.641	11.61
340.854	-39.59
341.066	58.71
341.278	17.75
341.491	148.82
341.703	99.67
341.915	-39.59
342.128	136.53
342.34	50.52
342.552	19.8
342.764	7.51
342.977	42.32
343.189	132.44
343.401	25.94
343.613	1.37
343.826	54.61
344.038	-23.21
344.25	44.37
344.462	1.37
344.674	3.41
344.886	17.75
345.099	60.76
345.311	44.37
345.523	11.61
345.735	-10.92
345.947	77.14
346.159	1.37
346.371	-4.78
346.583	62.8
346.795	58.71
347.007	58.71
347.219	107.86
347.431	75.09
347.643	101.72
347.855	79.19
348.067	17.75
348.279	32.08
348.491	-6.83
348.703	1.37
348.915	-60.07
349.127	13.65
349.339	85.33
349.551	-17.07
349.763	58.71
349.975	13.65
350.187	13.65
350.399	44.37
350.61	-47.79
350.822	124.24
351.034	1.37
351.246	60.76
351.458	25.94
351.669	-17.07
351.881	58.71
352.093	40.28
352.305	93.52
352.517	34.13
352.728	79.19
352.94	19.8
353.152	27.99
353.363	9.56
353.575	97.62
353.787	81.24
353.999	11.61
354.21	25.94
354.422	-47.79
354.633	15.7
354.845	-15.02
355.057	58.71
355.268	58.71
355.48	-37.55
355.692	-15.02
355.903	15.7
356.115	44.37
356.326	-19.11
356.538	118.1
356.749	15.7
356.961	40.28
357.172	21.85
357.384	-37.55
357.595	77.14
357.807	38.23
358.018	19.8
358.23	62.8
358.441	52.56
358.653	58.71
358.864	17.75
359.075	93.52
359.287	9.56
359.498	105.81
359.709	87.38
359.921	-21.16
360.132	9.56
360.344	52.56
360.555	30.04
360.766	52.56
360.977	99.67
361.189	21.85
361.4	-51.88
361.611	93.52
361.823	62.8
362.034	9.56
362.245	-19.11
362.456	-10.92
362.667	42.32
362.879	-15.02
363.09	91.48
363.301	-31.4
363.512	46.42
363.723	17.75
363.935	52.56
364.146	99.67
364.357	54.61
364.568	7.51
364.779	-21.16
364.99	148.82
365.201	-12.97
365.412	132.44
365.623	30.04
365.834	30.04
366.045	68.95
366.256	50.52
366.467	44.37
366.678	66.9
366.889	3.41
367.1	27.99
367.311	95.57
367.522	83.28
367.733	99.67
367.944	-12.97
368.155	5.46
368.366	68.95
368.577	30.04
368.788	118.1
368.999	89.43
369.209	-6.83
369.42	58.71
369.631	148.82
369.842	27.99
370.053	64.85
370.264	75.09
370.474	1.37
370.685	-6.83
370.896	48.47
371.107	68.95
371.317	93.52
371.528	36.18
371.739	60.76
371.95	21.85
372.16	15.7
372.371	-15.02
372.582	21.85
372.792	89.43
373.003	9.56
373.214	-6.83
373.424	99.67
373.635	-8.87
373.846	-4.78
374.056	32.08
374.267	85.33
374.477	21.85
374.688	1.37
374.898	-21.16
375.109	48.47
375.319	89.43
375.53	116.05
375.74	91.48
375.951	-15.02
376.161	66.9
376.372	5.46
376.582	13.65
376.793	34.13
377.003	38.23
377.214	97.62
377.424	5.46
377.635	50.52
377.845	11.61
378.055	83.28
378.266	34.13
378.476	-35.5
378.686	71
378.897	93.52
379.107	50.52
379.317	83.28
379.528	36.18
379.738	32.08
379.948	1.37
380.158	79.19
380.369	60.76
380.579	124.24
380.789	25.94
380.999	75.09
381.21	-25.26
381.42	124.24
381.63	13.65
381.84	128.34
382.05	34.13
382.261	71
382.471	95.57
382.681	83.28
382.891	42.32
383.101	64.85
383.311	34.13
383.521	40.28
383.731	9.56
383.941	36.18
384.151	11.61
384.361	1.37
384.571	52.56
384.781	132.44
384.991	101.72
385.201	118.1
385.411	101.72
385.621	71
385.831	-8.87
386.041	58.71
386.251	15.7
386.461	50.52
386.671	-15.02
386.881	54.61
387.091	-58.03
387.301	50.52
387.511	62.8
387.72	159.06
387.93	-4.78
388.14	3.41
388.35	91.48
388.56	116.05
388.769	165.2
388.979	34.13
389.189	62.8
389.399	75.09
389.609	68.95
389.818	50.52
390.028	9.56
390.238	99.67
390.447	38.23
390.657	60.76
390.867	-15.02
391.076	83.28
391.286	58.71
391.496	11.61
391.705	13.65
391.915	99.67
392.125	111.96
392.334	25.94
392.544	91.48
392.753	99.67
392.963	17.75
393.172	1.37
393.382	60.76
393.591	91.48
393.801	66.9
394.01	93.52
394.22	-27.31
394.429	-21.16
394.639	25.94
394.848	68.95
395.058	97.62
395.267	56.66
395.477	62.8
395.686	68.95
395.895	68.95
396.105	157.01
396.314	71
396.524	34.13
396.733	91.48
396.942	91.48
397.152	116.05
397.361	30.04
397.57	1.37
397.78	34.13
397.989	3.41
398.198	167.25
398.407	97.62
398.617	103.76
398.826	44.37
399.035	66.9
399.244	5.46
399.453	25.94
399.663	79.19
399.872	107.86
400.081	66.9
400.29	87.38
400.499	62.8
400.708	152.91
400.917	144.72
401.127	99.67
401.336	124.24
401.545	130.39
401.754	107.86
401.963	109.91
402.172	138.58
402.381	42.32
402.59	77.14
402.799	62.8
403.008	83.28
403.217	99.67
403.426	116.05
403.635	46.42
403.844	85.33
404.053	111.96
404.262	118.1
404.471	68.95
404.68	185.68
404.888	87.38
405.097	44.37
405.306	54.61
405.515	83.28
405.724	79.19
405.933	206.16
406.142	140.63
406.35	210.26
406.559	85.33
406.768	130.39
406.977	148.82
407.185	169.3
407.394	126.29
407.603	95.57
407.812	189.78
408.02	150.87
408.229	202.07
408.438	271.7
408.646	126.29
408.855	116.05
409.064	175.44
409.272	148.82
409.481	251.22
409.69	109.91
409.898	200.02
410.107	310.61
410.315	251.22
410.524	206.16
410.733	267.6
410.941	296.27
411.15	312.66
411.358	370
411.567	247.12
411.775	298.32
411.984	335.18
412.192	281.94
412.401	331.09
412.609	476.49
412.818	458.06
413.026	386.38
413.234	437.58
413.443	382.29
413.651	341.33
413.86	468.3
414.068	451.92
414.276	507.21
414.485	453.97
414.693	429.39
414.901	593.23
415.11	546.12
415.318	560.46
415.526	582.99
415.734	609.61
415.943	652.62
416.151	677.19
416.359	595.28
416.567	697.67
416.776	662.86
416.984	771.4
417.192	709.96
417.4	806.22
417.608	787.79
417.817	746.83
418.025	857.42
418.233	980.29
418.441	927.05
418.649	976.2
418.857	972.1
419.065	1043.78
419.273	980.29
419.481	1066.31
419.689	1086.79
419.897	1197.38
420.105	1189.19
420.313	1273.15
420.521	1264.96
420.729	1287.49
420.937	1217.86
421.145	1355.07
421.353	1484.09
421.561	1428.8
421.769	1574.21
421.977	1609.02
422.185	1660.22
422.393	1707.32
422.601	1828.15
422.809	1766.71
423.017	1764.67
423.224	1867.06
423.432	1928.5
423.64	1899.83
423.848	2133.3
424.056	2069.81
424.263	2225.46
424.471	2102.58
424.679	2311.47
424.887	2553.13
425.094	2452.78
425.302	2403.63
425.51	2467.12
425.718	2698.54
425.925	2590
426.133	2868.52
426.341	2876.71
426.548	2946.34
426.756	3075.37
426.964	3091.75
427.171	3368.23
427.379	3284.26
427.586	3507.49
427.794	3568.93
428.001	3730.72
428.209	3917.08
428.417	3659.04
428.624	3958.04
428.832	4064.54
429.039	3986.71
429.247	3960.09
429.454	4424.98
429.662	4719.89
429.869	4402.45
430.076	4777.23
430.284	4574.48
430.491	4818.19
430.699	5022.98
430.906	5022.98
431.114	5158.15
431.321	5367.04
431.528	5367.04
431.736	5666.05
431.943	5801.21
432.15	5938.43
432.358	5917.95
432.565	6223.09
432.772	6087.93
432.979	6411.51
433.187	6755.57
433.394	6644.98
433.601	6931.69
433.808	7185.64
434.016	7097.58
434.223	7445.73
434.43	7795.93
434.637	7601.38
434.844	8090.84
435.052	8152.28
435.259	8226.01
435.466	8389.85
435.673	8064.22
435.88	8692.94
436.087	9381.06
436.294	8934.6
436.501	9061.58
436.708	9323.72
436.915	9610.43
437.122	9888.96
437.329	9913.53
437.537	10292.41
437.743	10286.26
437.95	10351.8
438.157	10966.19
438.364	11383.98
438.571	11379.88
438.778	11109.55
438.985	12242.07
439.192	11887.78
439.399	12225.69
439.606	12020.89
439.813	12584.09
440.02	13280.39
440.227	13178
440.433	12965.01
440.64	13466.76
440.847	13290.63
441.054	13712.52
441.261	14472.31
441.467	14318.71
441.674	14709.88
441.881	15279.21
442.088	15307.88
442.294	14943.35
442.501	15529.06
442.708	15916.13
442.914	16602.2
443.121	17122.38
443.328	16444.51
443.534	17937.48
443.741	17204.3
443.948	17116.24
444.154	18261.05
444.361	18082.88
444.568	18543.67
444.774	18533.43
444.981	18742.33
445.187	19174.45
445.394	19997.73
445.6	19803.18
445.807	21556.24
446.013	20786.2
446.22	21003.28
446.426	21888.01
446.633	22258.69
446.839	22805.5
447.046	22031.37
447.252	23247.86
447.459	23491.57
447.665	22887.42
447.871	24505.31
448.078	25111.51
448.284	24056.81
448.491	24826.84
448.697	25697.23
448.903	26180.55
449.11	26301.38
449.316	25951.18
449.522	26475.46
449.728	27001.79
449.935	27304.88
450.141	27460.53
450.347	27941.8
450.553	27190.2
450.76	27464.63
450.966	28685.22
451.172	28218.28
451.378	29086.62
451.584	28261.29
451.791	28994.46
451.997	28926.88
452.203	29498.26
452.409	29651.86
452.615	29178.78
452.821	28062.63
453.027	27997.1
453.233	29944.72
453.44	28302.25
453.646	28732.32
453.852	28789.66
454.058	29447.06
454.264	28224.42
454.47	29037.47
454.676	28386.21
454.882	29135.77
455.088	27046.84
455.294	27210.68
455.5	27491.25
455.705	28292.01
455.911	26938.3
456.117	26180.55
456.323	25908.17
456.529	24548.32
456.735	25822.16
456.941	24941.53
457.147	24677.34
457.352	23860.2
457.558	23854.06
457.764	23669.74
457.97	23315.44
458.176	22899.7
458.381	22733.82
458.587	21478.41
458.793	22043.65
458.999	20714.52
459.204	22078.47
459.41	21328.91
459.616	20073.51
459.821	20270.11
460.027	19848.23
460.233	19967.01
460.438	18490.43
460.644	18801.72
460.85	18121.79
461.055	17867.84
461.261	17736.77
461.466	16614.49
461.672	16012.38
461.878	17169.49
462.083	15887.46
462.289	15729.77
462.494	15662.18
462.7	14769.27
462.905	14775.41
463.111	15168.62
463.316	15070.32
463.522	14933.11
463.727	14920.82
463.932	14787.7
464.138	14584.95
464.343	14830.71
464.549	14062.72
464.754	14759.03
464.959	14799.99
465.165	14464.12
465.37	13921.41
465.575	13468.81
465.781	14378.11
465.986	14406.78
466.191	13630.6
466.397	13542.53
466.602	12760.21
466.807	13374.6
467.012	13317.26
467.218	13132.94
467.423	13243.53
467.628	13155.47
467.833	13624.45
468.038	13204.62
468.244	12895.38
