Data from USB4F104151__209__14-45-24-628.txt Node

Date: Thu Mar 13 14:45:24 EDT 2025
User: louis
Spectrometer: USB4F10415
Trigger mode: 4
Integration Time (sec): 2.000000E-2
Scans to average: 1
Electric dark correction enabled: true
Nonlinearity correction enabled: false
Boxcar width: 0
XAxis mode: Wavelengths
Number of Pixels in Spectrum: 3648
>>>>>Begin Spectral Data<<<<<
178.204	-192
178.424	-192
178.644	-192
178.864	-183.81
179.084	-77.31
179.304	12.8
179.524	-7.68
179.744	8.7
179.964	0.51
180.184	-5.63
180.404	74.24
180.624	2.56
180.844	-34.3
181.064	-36.35
181.283	4.61
181.503	-5.63
181.723	-13.82
181.943	-13.82
182.163	51.71
182.383	0.51
182.602	20.99
182.822	0.51
183.042	80.38
183.262	49.66
183.482	18.94
183.701	66.05
183.921	82.43
184.141	-17.92
184.361	125.44
184.58	49.66
184.8	16.9
185.02	-32.26
185.239	0.51
185.459	-46.59
185.679	57.86
185.898	-32.26
186.118	37.38
186.338	31.23
186.557	49.66
186.777	-7.68
186.997	12.8
187.216	-19.97
187.436	55.81
187.655	16.9
187.875	37.38
188.095	45.57
188.314	66.05
188.534	59.9
188.753	-30.21
188.973	-5.63
189.192	43.52
189.412	70.14
189.631	33.28
189.851	-3.58
190.07	61.95
190.29	-30.21
190.509	-48.64
190.729	2.56
190.948	68.09
191.168	133.63
191.387	25.09
191.607	41.47
191.826	74.24
192.045	29.18
192.265	33.28
192.484	74.24
192.704	16.9
192.923	18.94
193.142	35.33
193.362	59.9
193.581	115.2
193.8	6.66
194.02	49.66
194.239	45.57
194.458	33.28
194.678	-3.58
194.897	43.52
195.116	14.85
195.335	109.05
195.555	51.71
195.774	90.62
195.993	18.94
196.212	35.33
196.432	-22.02
196.651	29.18
196.87	59.9
197.089	107.01
197.308	74.24
197.528	25.09
197.747	37.38
197.966	-13.82
198.185	119.29
198.404	49.66
198.623	25.09
198.842	25.09
199.062	-13.82
199.281	16.9
199.5	20.99
199.719	51.71
199.938	43.52
200.157	43.52
200.376	41.47
200.595	94.72
200.814	41.47
201.033	35.33
201.252	33.28
201.471	23.04
201.69	10.75
201.909	25.09
202.128	35.33
202.347	82.43
202.566	-36.35
202.785	16.9
203.004	25.09
203.223	16.9
203.442	-7.68
203.661	0.51
203.879	35.33
204.098	-7.68
204.317	-50.69
204.536	-15.87
204.755	-19.97
204.974	0.51
205.193	-13.82
205.411	113.15
205.63	12.8
205.849	6.66
206.068	39.42
206.287	-5.63
206.505	31.23
206.724	35.33
206.943	-11.78
207.162	45.57
207.381	49.66
207.599	92.67
207.818	70.14
208.037	-26.11
208.255	0.51
208.474	25.09
208.693	8.7
208.911	23.04
209.13	-50.69
209.349	90.62
209.567	51.71
209.786	61.95
210.005	37.38
210.223	33.28
210.442	-7.68
210.661	27.14
210.879	20.99
211.098	16.9
211.316	88.57
211.535	35.33
211.753	37.38
211.972	51.71
212.191	18.94
212.409	18.94
212.628	41.47
212.846	0.51
213.065	90.62
213.283	61.95
213.502	47.62
213.72	4.61
213.938	45.57
214.157	-40.45
214.375	-32.26
214.594	49.66
214.812	-52.74
215.031	-7.68
215.249	-71.17
215.467	0.51
215.686	53.76
215.904	-40.45
216.122	37.38
216.341	90.62
216.559	86.53
216.778	49.66
216.996	66.05
217.214	18.94
217.432	25.09
217.651	49.66
217.869	57.86
218.087	29.18
218.306	-19.97
218.524	-30.21
218.742	-46.59
218.96	72.19
219.179	25.09
219.397	16.9
219.615	68.09
219.833	25.09
220.051	25.09
220.27	86.53
220.488	23.04
220.706	6.66
220.924	41.47
221.142	57.86
221.36	-24.06
221.578	49.66
221.796	-32.26
222.015	35.33
222.233	20.99
222.451	109.05
222.669	-62.98
222.887	90.62
223.105	-32.26
223.323	31.23
223.541	10.75
223.759	102.91
223.977	55.81
224.195	70.14
224.413	92.67
224.631	27.14
224.849	-22.02
225.067	98.81
225.285	16.9
225.503	-5.63
225.721	-46.59
225.939	16.9
226.157	80.38
226.375	115.2
226.592	29.18
226.81	-1.54
227.028	18.94
227.246	82.43
227.464	61.95
227.682	66.05
227.9	-34.3
228.117	31.23
228.335	31.23
228.553	35.33
228.771	51.71
228.989	86.53
229.206	25.09
229.424	68.09
229.642	33.28
229.86	8.7
230.077	90.62
230.295	64
230.513	41.47
230.731	78.33
230.948	12.8
231.166	4.61
231.384	-46.59
231.601	49.66
231.819	16.9
232.037	-1.54
232.254	49.66
232.472	10.75
232.689	33.28
232.907	86.53
233.125	51.71
233.342	-13.82
233.56	-22.02
233.777	20.99
233.995	10.75
234.213	117.25
234.43	-40.45
234.648	31.23
234.865	41.47
235.083	25.09
235.3	18.94
235.518	-48.64
235.735	59.9
235.953	-5.63
236.17	82.43
236.388	107.01
236.605	12.8
236.822	59.9
237.04	25.09
237.257	98.81
237.475	92.67
237.692	8.7
237.909	8.7
238.127	41.47
238.344	115.2
238.562	49.66
238.779	4.61
238.996	88.57
239.214	27.14
239.431	29.18
239.648	-28.16
239.865	51.71
240.083	115.2
240.3	57.86
240.517	16.9
240.735	68.09
240.952	16.9
241.169	29.18
241.386	61.95
241.603	66.05
241.821	20.99
242.038	12.8
242.255	53.76
242.472	-30.21
242.689	45.57
242.907	29.18
243.124	-32.26
243.341	-48.64
243.558	4.61
243.775	70.14
243.992	-34.3
244.209	64
244.426	27.14
244.643	-22.02
244.86	25.09
245.078	35.33
245.295	20.99
245.512	66.05
245.729	0.51
245.946	33.28
246.163	-48.64
246.38	66.05
246.597	29.18
246.814	12.8
247.031	51.71
247.248	27.14
247.464	-1.54
247.681	82.43
247.898	-30.21
248.115	55.81
248.332	25.09
248.549	49.66
248.766	33.28
248.983	20.99
249.2	-36.35
249.417	49.66
249.633	-7.68
249.85	61.95
250.067	18.94
250.284	25.09
250.501	49.66
250.717	35.33
250.934	0.51
251.151	0.51
251.368	51.71
251.585	33.28
251.801	25.09
252.018	-62.98
252.235	70.14
252.451	51.71
252.668	-65.02
252.885	8.7
253.102	-32.26
253.318	51.71
253.535	-5.63
253.752	37.38
253.968	20.99
254.185	-3.58
254.401	82.43
254.618	96.77
254.835	66.05
255.051	8.7
255.268	8.7
255.484	68.09
255.701	27.14
255.917	39.42
256.134	0.51
256.351	49.66
256.567	35.33
256.784	33.28
257	-56.83
257.217	31.23
257.433	94.72
257.65	-11.78
257.866	35.33
258.082	64
258.299	55.81
258.515	64
258.732	-15.87
258.948	49.66
259.165	39.42
259.381	8.7
259.597	8.7
259.814	76.29
260.03	-7.68
260.246	-5.63
260.463	31.23
260.679	33.28
260.895	57.86
261.112	10.75
261.328	25.09
261.544	-32.26
261.761	111.1
261.977	16.9
262.193	29.18
262.409	74.24
262.626	18.94
262.842	2.56
263.058	57.86
263.274	-40.45
263.49	119.29
263.707	115.2
263.923	18.94
264.139	12.8
264.355	107.01
264.571	35.33
264.787	84.48
265.004	33.28
265.22	-5.63
265.436	10.75
265.652	35.33
265.868	14.85
266.084	0.51
266.3	82.43
266.516	31.23
266.732	-1.54
266.948	82.43
267.164	39.42
267.38	-7.68
267.596	57.86
267.812	119.29
268.028	51.71
268.244	-19.97
268.46	16.9
268.676	12.8
268.892	-81.41
269.108	27.14
269.324	53.76
269.54	-48.64
269.756	127.49
269.972	0.51
270.188	57.86
270.403	39.42
270.619	49.66
270.835	-7.68
271.051	43.52
271.267	33.28
271.483	115.2
271.698	-9.73
271.914	51.71
272.13	25.09
272.346	84.48
272.562	25.09
272.777	41.47
272.993	2.56
273.209	0.51
273.425	61.95
273.64	-32.26
273.856	25.09
274.072	57.86
274.287	-11.78
274.503	37.38
274.719	57.86
274.934	72.19
275.15	-28.16
275.366	-3.58
275.581	-7.68
275.797	98.81
276.012	41.47
276.228	-7.68
276.444	18.94
276.659	45.57
276.875	-38.4
277.09	-7.68
277.306	37.38
277.521	41.47
277.737	49.66
277.952	27.14
278.168	-46.59
278.383	2.56
278.599	-5.63
278.814	86.53
279.03	-3.58
279.245	90.62
279.461	72.19
279.676	-11.78
279.892	37.38
280.107	-3.58
280.322	25.09
280.538	2.56
280.753	-50.69
280.969	-5.63
281.184	-15.87
281.399	100.86
281.615	33.28
281.83	41.47
282.045	-36.35
282.26	6.66
282.476	25.09
282.691	4.61
282.906	25.09
283.122	-9.73
283.337	29.18
283.552	-5.63
283.767	-32.26
283.983	74.24
284.198	-24.06
284.413	37.38
284.628	0.51
284.843	45.57
285.058	57.86
285.274	57.86
285.489	27.14
285.704	41.47
285.919	80.38
286.134	2.56
286.349	37.38
286.564	90.62
286.779	76.29
286.995	10.75
287.21	-11.78
287.425	37.38
287.64	20.99
287.855	37.38
288.07	68.09
288.285	8.7
288.5	115.2
288.715	141.82
288.93	43.52
289.145	70.14
289.36	47.62
289.575	43.52
289.79	16.9
290.004	70.14
290.219	76.29
290.434	31.23
290.649	18.94
290.864	18.94
291.079	70.14
291.294	33.28
291.509	6.66
291.724	45.57
291.938	35.33
292.153	18.94
292.368	-56.83
292.583	74.24
292.798	74.24
293.012	68.09
293.227	35.33
293.442	16.9
293.657	66.05
293.871	74.24
294.086	16.9
294.301	66.05
294.516	57.86
294.73	8.7
294.945	82.43
295.16	72.19
295.374	86.53
295.589	59.9
295.804	-15.87
296.018	-24.06
296.233	107.01
296.447	35.33
296.662	41.47
296.877	90.62
297.091	53.76
297.306	41.47
297.52	-30.21
297.735	35.33
297.949	25.09
298.164	107.01
298.378	66.05
298.593	61.95
298.807	-15.87
299.022	-46.59
299.236	59.9
299.451	78.33
299.665	0.51
299.88	20.99
300.094	74.24
300.309	53.76
300.523	84.48
300.737	51.71
300.952	20.99
301.166	14.85
301.381	94.72
301.595	18.94
301.809	61.95
302.024	25.09
302.238	20.99
302.452	115.2
302.667	18.94
302.881	78.33
303.095	76.29
303.309	25.09
303.524	-13.82
303.738	0.51
303.952	16.9
304.166	-9.73
304.381	-17.92
304.595	37.38
304.809	41.47
305.023	8.7
305.237	-54.78
305.452	59.9
305.666	117.25
305.88	51.71
306.094	45.57
306.308	16.9
306.522	43.52
306.736	57.86
306.95	74.24
307.164	27.14
307.379	70.14
307.593	16.9
307.807	68.09
308.021	80.38
308.235	16.9
308.449	-7.68
308.663	8.7
308.877	100.86
309.091	41.47
309.305	107.01
309.519	33.28
309.733	109.05
309.947	0.51
310.161	76.29
310.374	82.43
310.588	57.86
310.802	66.05
311.016	14.85
311.23	25.09
311.444	-3.58
311.658	43.52
311.872	59.9
312.085	-5.63
312.299	39.42
312.513	51.71
312.727	66.05
312.941	-13.82
313.154	31.23
313.368	23.04
313.582	49.66
313.796	82.43
314.009	33.28
314.223	0.51
314.437	35.33
314.651	10.75
314.864	0.51
315.078	47.62
315.292	74.24
315.505	-3.58
315.719	-9.73
315.933	-7.68
316.146	27.14
316.36	35.33
316.573	41.47
316.787	92.67
317.001	-11.78
317.214	-24.06
317.428	4.61
317.641	4.61
317.855	70.14
318.068	90.62
318.282	4.61
318.495	109.05
318.709	25.09
318.922	12.8
319.136	78.33
319.349	-11.78
319.563	-7.68
319.776	45.57
319.99	10.75
320.203	45.57
320.417	10.75
320.63	18.94
320.843	104.96
321.057	16.9
321.27	35.33
321.483	57.86
321.697	98.81
321.91	8.7
322.124	74.24
322.337	55.81
322.55	80.38
322.763	39.42
322.977	-11.78
323.19	8.7
323.403	57.86
323.617	55.81
323.83	61.95
324.043	86.53
324.256	49.66
324.469	-13.82
324.683	66.05
324.896	-54.78
325.109	68.09
325.322	18.94
325.535	49.66
325.748	23.04
325.962	70.14
326.175	29.18
326.388	16.9
326.601	104.96
326.814	33.28
327.027	20.99
327.24	27.14
327.453	41.47
327.666	41.47
327.879	119.29
328.092	68.09
328.305	-3.58
328.518	16.9
328.731	55.81
328.944	41.47
329.157	16.9
329.37	18.94
329.583	2.56
329.796	57.86
330.009	45.57
330.222	25.09
330.435	20.99
330.648	49.66
330.861	-7.68
331.073	33.28
331.286	-5.63
331.499	-1.54
331.712	-40.45
331.925	-7.68
332.138	53.76
332.35	27.14
332.563	43.52
332.776	55.81
332.989	20.99
333.202	25.09
333.414	31.23
333.627	-22.02
333.84	8.7
334.053	16.9
334.265	74.24
334.478	82.43
334.691	-13.82
334.903	33.28
335.116	16.9
335.329	-38.4
335.541	-28.16
335.754	45.57
335.966	86.53
336.179	35.33
336.392	0.51
336.604	25.09
336.817	-7.68
337.029	94.72
337.242	-22.02
337.454	109.05
337.667	-22.02
337.88	80.38
338.092	0.51
338.305	59.9
338.517	31.23
338.729	20.99
338.942	-60.93
339.154	23.04
339.367	35.33
339.579	31.23
339.792	20.99
340.004	23.04
340.217	-36.35
340.429	86.53
340.641	-32.26
340.854	18.94
341.066	115.2
341.278	92.67
341.491	98.81
341.703	-22.02
341.915	-79.36
342.128	80.38
342.34	41.47
342.552	-93.69
342.764	0.51
342.977	14.85
343.189	20.99
343.401	107.01
343.613	12.8
343.826	-11.78
344.038	39.42
344.25	33.28
344.462	-28.16
344.674	43.52
344.886	111.1
345.099	18.94
345.311	47.62
345.523	66.05
345.735	-56.83
345.947	70.14
346.159	49.66
346.371	8.7
346.583	16.9
346.795	102.91
347.007	49.66
347.219	94.72
347.431	25.09
347.643	74.24
347.855	8.7
348.067	104.96
348.279	8.7
348.491	49.66
348.703	-15.87
348.915	55.81
349.127	33.28
349.339	18.94
349.551	41.47
349.763	45.57
349.975	10.75
350.187	49.66
350.399	111.1
350.61	35.33
350.822	8.7
351.034	-11.78
351.246	41.47
351.458	41.47
351.669	27.14
351.881	43.52
352.093	61.95
352.305	51.71
352.517	23.04
352.728	123.39
352.94	68.09
353.152	43.52
353.363	-28.16
353.575	10.75
353.787	64
353.999	115.2
354.21	109.05
354.422	33.28
354.633	10.75
354.845	20.99
355.057	0.51
355.268	51.71
355.48	23.04
355.692	51.71
355.903	4.61
356.115	78.33
356.326	-7.68
356.538	29.18
356.749	94.72
356.961	49.66
357.172	-40.45
357.384	51.71
357.595	33.28
357.807	-7.68
358.018	33.28
358.23	76.29
358.441	-32.26
358.653	43.52
358.864	-65.02
359.075	-7.68
359.287	27.14
359.498	51.71
359.709	82.43
359.921	70.14
360.132	16.9
360.344	51.71
360.555	49.66
360.766	35.33
360.977	33.28
361.189	45.57
361.4	4.61
361.611	131.58
361.823	66.05
362.034	107.01
362.245	14.85
362.456	41.47
362.667	59.9
362.879	-46.59
363.09	41.47
363.301	-7.68
363.512	16.9
363.723	43.52
363.935	94.72
364.146	41.47
364.357	76.29
364.568	90.62
364.779	4.61
364.99	139.77
365.201	78.33
365.412	33.28
365.623	4.61
365.834	117.25
366.045	41.47
366.256	49.66
366.467	33.28
366.678	78.33
366.889	35.33
367.1	20.99
367.311	-7.68
367.522	-15.87
367.733	41.47
367.944	57.86
368.155	-32.26
368.366	-13.82
368.577	43.52
368.788	57.86
368.999	10.75
369.209	35.33
369.42	82.43
369.631	98.81
369.842	41.47
370.053	59.9
370.264	25.09
370.474	49.66
370.685	-7.68
370.896	57.86
371.107	84.48
371.317	66.05
371.528	61.95
371.739	82.43
371.95	37.38
372.16	107.01
372.371	53.76
372.582	33.28
372.792	66.05
373.003	8.7
373.214	109.05
373.424	27.14
373.635	88.57
373.846	100.86
374.056	76.29
374.267	27.14
374.477	16.9
374.688	16.9
374.898	88.57
375.109	16.9
375.319	74.24
375.53	152.06
375.74	57.86
375.951	16.9
376.161	49.66
376.372	100.86
376.582	-5.63
376.793	35.33
377.003	53.76
377.214	76.29
377.424	2.56
377.635	25.09
377.845	-3.58
378.055	8.7
378.266	49.66
378.476	61.95
378.686	92.67
378.897	20.99
379.107	25.09
379.317	68.09
379.528	16.9
379.738	33.28
379.948	70.14
380.158	94.72
380.369	74.24
380.579	51.71
380.789	41.47
380.999	57.86
381.21	70.14
381.42	74.24
381.63	104.96
381.84	57.86
382.05	55.81
382.261	20.99
382.471	125.44
382.681	104.96
382.891	33.28
383.101	35.33
383.311	49.66
383.521	76.29
383.731	43.52
383.941	98.81
384.151	115.2
384.361	8.7
384.571	51.71
384.781	49.66
384.991	41.47
385.201	135.68
385.411	41.47
385.621	86.53
385.831	35.33
386.041	10.75
386.251	31.23
386.461	131.58
386.671	74.24
386.881	25.09
387.091	35.33
387.301	43.52
387.511	35.33
387.72	25.09
387.93	53.76
388.14	29.18
388.35	82.43
388.56	25.09
388.769	0.51
388.979	47.62
389.189	41.47
389.399	82.43
389.609	80.38
389.818	35.33
390.028	92.67
390.238	51.71
390.447	8.7
390.657	117.25
390.867	53.76
391.076	53.76
391.286	51.71
391.496	78.33
391.705	66.05
391.915	72.19
392.125	18.94
392.334	35.33
392.544	16.9
392.753	47.62
392.963	0.51
393.172	8.7
393.382	25.09
393.591	86.53
393.801	59.9
394.01	115.2
394.22	86.53
394.429	90.62
394.639	135.68
394.848	53.76
395.058	51.71
395.267	145.92
395.477	94.72
395.686	100.86
395.895	111.1
396.105	121.34
396.314	117.25
396.524	-24.06
396.733	82.43
396.942	115.2
397.152	18.94
397.361	107.01
397.57	25.09
397.78	12.8
397.989	94.72
398.198	111.1
398.407	-5.63
398.617	47.62
398.826	49.66
399.035	49.66
399.244	66.05
399.453	127.49
399.663	18.94
399.872	94.72
400.081	20.99
400.29	90.62
400.499	41.47
400.708	117.25
400.917	78.33
401.127	61.95
401.336	98.81
401.545	188.93
401.754	109.05
401.963	109.05
402.172	29.18
402.381	18.94
402.59	78.33
402.799	129.53
403.008	98.81
403.217	109.05
403.426	164.35
403.635	98.81
403.844	74.24
404.053	82.43
404.262	82.43
404.471	139.77
404.68	129.53
404.888	70.14
405.097	39.42
405.306	147.97
405.515	66.05
405.724	123.39
405.933	186.88
406.142	160.25
406.35	88.57
406.559	129.53
406.768	242.17
406.977	229.88
407.185	180.73
407.394	160.25
407.603	104.96
407.812	229.88
408.02	221.69
408.229	264.7
408.438	156.16
408.646	123.39
408.855	229.88
409.064	229.88
409.272	225.79
409.481	262.65
409.69	180.73
409.898	199.16
410.107	229.88
410.315	252.41
410.524	262.65
410.733	254.46
410.941	256.51
411.15	313.85
411.358	299.52
411.567	397.82
411.775	305.66
411.984	352.76
412.192	340.47
412.401	367.1
412.609	406.01
412.818	373.24
413.026	510.46
413.234	442.87
413.443	410.11
413.651	471.54
413.86	408.06
414.068	498.17
414.276	494.07
414.485	543.22
414.693	522.74
414.901	629.24
415.11	547.32
415.318	559.61
415.526	594.42
415.734	643.57
415.943	651.77
416.151	668.15
416.359	655.86
416.567	696.82
416.776	707.06
416.984	729.59
417.192	723.44
417.4	758.26
417.608	786.93
417.817	821.75
418.025	838.13
418.233	967.15
418.441	850.42
418.649	979.44
418.857	1032.69
419.065	1038.83
419.273	1108.46
419.481	1114.61
419.689	1075.7
419.897	1178.09
420.105	1159.66
420.313	1307.12
420.521	1319.4
420.729	1403.37
420.937	1376.75
421.145	1434.09
421.353	1546.73
421.561	1454.57
421.769	1528.3
421.977	1653.22
422.185	1720.81
422.393	1737.19
422.601	1800.68
422.809	1782.24
423.017	1812.96
423.224	1896.93
423.432	2048.48
423.64	1894.88
423.848	2200.03
424.056	2138.59
424.263	2327
424.471	2269.66
424.679	2402.78
424.887	2460.12
425.094	2511.32
425.302	2433.5
425.51	2705.88
425.718	2736.6
425.925	2630.1
426.133	2836.95
426.341	2988.5
426.548	3090.9
426.756	3029.46
426.964	3107.28
427.171	3346.89
427.379	3336.65
427.586	3572.17
427.794	3711.43
428.001	3752.39
428.209	3965.38
428.417	3768.77
428.624	3932.61
428.832	4078.02
429.039	3998.15
429.247	4075.97
429.454	4417.98
429.662	4698.55
429.869	4442.56
430.076	4796.85
430.284	4508.09
430.491	4923.83
430.699	5145.01
430.906	5308.85
431.114	5106.1
431.321	5538.22
431.528	5452.2
431.736	5818.79
431.943	6013.35
432.15	5939.62
432.358	6005.16
432.565	6295.97
432.772	6181.28
432.979	6504.86
433.187	6664.6
433.394	6660.51
433.601	7266.71
433.808	7356.82
434.016	7115.16
434.223	7369.1
434.43	7651.72
434.637	7829.9
434.844	8362.37
435.052	8460.67
435.259	8290.69
435.466	8245.63
435.673	8440.19
435.88	8923.51
436.087	9181.56
436.294	9326.96
436.501	9003.38
436.708	9257.33
436.915	9527.66
437.122	10166.63
437.329	9896.3
437.537	10205.54
437.743	10348.9
437.95	10414.43
438.157	10932.57
438.364	11293.01
438.571	11282.77
438.778	11120.98
438.985	12224.84
439.192	11878.73
439.399	12171.59
439.606	11983.18
439.813	12626.24
440.02	13171
440.227	13123.9
440.433	13101.37
440.64	13601.07
440.847	13281.59
441.054	13828.4
441.261	14616.86
441.467	14324.01
441.674	14598.43
441.881	15233.3
442.088	15165.72
442.294	14858.53
442.501	15530.26
442.708	15706.38
442.914	16488.71
443.121	16851.2
443.328	16519.43
443.534	17660.15
443.741	17195.26
443.948	16967.93
444.154	18391.27
444.361	18428.13
444.568	18309.35
444.774	18141.42
444.981	18745.57
445.187	19108.06
445.394	19927.25
445.6	19402.97
445.807	21592.25
446.013	20316.36
446.22	20728
446.426	21590.2
446.633	21952.69
446.839	22952.1
447.046	21780.66
447.252	22886.56
447.459	22823.08
447.665	22814.88
447.871	23861.4
448.078	24944.77
448.284	23472.28
448.491	24381.58
448.697	25311.36
448.903	25845.88
449.11	25942.13
449.316	25321.6
449.522	25897.08
449.728	26378.35
449.935	26792.04
450.141	26699.88
450.347	27365.47
450.553	26353.77
450.76	26845.29
450.966	27742.3
451.172	27590.75
451.378	28446.8
451.584	27732.06
451.791	28305.49
451.997	28317.78
452.203	28661.83
452.409	28661.83
452.615	28727.37
452.821	27789.4
453.027	27162.72
453.233	28987.46
453.44	27701.34
453.646	27983.96
453.852	28100.69
454.058	28686.41
454.264	27682.91
454.47	28610.64
454.676	27697.24
454.882	28545.1
455.088	26048.63
455.294	26544.23
455.5	26855.53
455.705	27230.3
455.911	26153.07
456.117	25753.72
456.323	25192.58
456.529	24318.09
456.735	25448.57
456.941	24531.08
457.147	24072.34
457.352	23603.35
457.558	23287.96
457.764	23212.19
457.97	22900.9
458.176	22059.18
458.381	22159.53
458.587	21215.42
458.793	21231.8
458.999	20183.24
459.204	21604.53
459.41	21080.25
459.616	19638.48
459.821	19681.49
460.027	19632.34
460.233	19302.62
460.438	18299.11
460.644	18233.58
460.85	17619.19
461.055	17389.81
461.261	17367.29
461.466	16132.36
461.672	15718.67
461.878	16574.72
462.083	15591.7
462.289	15479.06
462.494	15167.77
462.7	14569.76
462.905	13801.77
463.111	14776.61
463.316	14514.47
463.522	14270.76
463.727	14104.87
463.932	14211.37
464.138	14088.49
464.343	14237.99
464.549	13732.14
464.754	14072.11
464.959	14297.38
465.165	13818.16
465.37	13525.3
465.575	12962.11
465.781	13758.77
465.986	13588.78
466.191	13203.77
466.397	12710.21
466.602	12304.71
466.807	12632.38
467.012	12613.95
467.218	12544.32
467.423	12353.86
467.628	12548.42
467.833	13058.36
468.038	12562.75
468.244	12253.51
468.449	12812.6
468.654	12370.24
