Data from USB4F104151__243__14-45-47-923.txt Node

Date: Thu Mar 13 14:45:47 EDT 2025
User: louis
Spectrometer: USB4F10415
Trigger mode: 4
Integration Time (sec): 2.000000E-2
Scans to average: 1
Electric dark correction enabled: true
Nonlinearity correction enabled: false
Boxcar width: 0
XAxis mode: Wavelengths
Number of Pixels in Spectrum: 3648
>>>>>Begin Spectral Data<<<<<
178.204	-139.26
178.424	-139.26
178.644	-139.26
178.864	-124.93
179.084	-161.79
179.304	34.82
179.524	-14.34
179.744	14.34
179.964	2.05
180.184	-71.68
180.404	77.82
180.624	63.49
180.844	8.19
181.064	-51.2
181.283	30.72
181.503	-81.92
181.723	-12.29
181.943	-14.34
182.163	112.64
182.383	51.2
182.602	81.92
182.822	38.91
183.042	34.82
183.262	-10.24
183.482	-2.05
183.701	47.1
183.921	57.34
184.141	36.86
184.361	8.19
184.58	36.86
184.8	38.91
185.02	67.58
185.239	24.58
185.459	30.72
185.679	49.15
185.898	-26.62
186.118	65.53
186.338	-8.19
186.557	112.64
186.777	-57.34
186.997	18.43
187.216	47.1
187.436	94.21
187.655	30.72
187.875	22.53
188.095	106.49
188.314	22.53
188.534	98.3
188.753	16.38
188.973	63.49
189.192	69.63
189.412	2.05
189.631	6.14
189.851	57.34
190.07	47.1
190.29	22.53
190.509	57.34
190.729	30.72
190.948	65.53
191.168	139.26
191.387	38.91
191.607	0
191.826	40.96
192.045	112.64
192.265	118.78
192.484	96.25
192.704	28.67
192.923	-59.39
193.142	96.25
193.362	2.05
193.581	18.43
193.8	51.2
194.02	-2.05
194.239	73.73
194.458	100.35
194.678	51.2
194.897	24.58
195.116	49.15
195.335	45.06
195.555	71.68
195.774	59.39
195.993	4.1
196.212	38.91
196.432	-34.82
196.651	-6.14
196.87	6.14
197.089	63.49
197.308	38.91
197.528	38.91
197.747	8.19
197.966	47.1
198.185	47.1
198.404	2.05
198.623	79.87
198.842	22.53
199.062	135.17
199.281	63.49
199.5	-26.62
199.719	45.06
199.938	126.97
200.157	176.13
200.376	8.19
200.595	88.06
200.814	-26.62
201.033	73.73
201.252	34.82
201.471	83.97
201.69	6.14
201.909	20.48
202.128	104.45
202.347	83.97
202.566	118.78
202.785	-65.54
203.004	57.34
203.223	55.3
203.442	71.68
203.661	32.77
203.879	49.15
204.098	57.34
204.317	28.67
204.536	63.49
204.755	30.72
204.974	30.72
205.193	36.86
205.411	116.73
205.63	24.58
205.849	79.87
206.068	51.2
206.287	14.34
206.505	104.45
206.724	90.11
206.943	-53.25
207.162	-26.62
207.381	49.15
207.599	-6.14
207.818	22.53
208.037	22.53
208.255	-38.91
208.474	-2.05
208.693	28.67
208.911	63.49
209.13	83.97
209.349	71.68
209.567	28.67
209.786	71.68
210.005	77.82
210.223	32.77
210.442	55.3
210.661	88.06
210.879	30.72
211.098	71.68
211.316	71.68
211.535	-22.53
211.753	30.72
211.972	34.82
212.191	-14.34
212.409	102.4
212.628	67.58
212.846	22.53
213.065	100.35
213.283	124.93
213.502	22.53
213.72	-6.14
213.938	71.68
214.157	83.97
214.375	88.06
214.594	51.2
214.812	110.59
215.031	20.48
215.249	45.06
215.467	112.64
215.686	18.43
215.904	86.01
216.122	38.91
216.341	55.3
216.559	-2.05
216.778	81.92
216.996	124.93
217.214	51.2
217.432	18.43
217.651	-26.62
217.869	49.15
218.087	-10.24
218.306	-16.38
218.524	6.14
218.742	-14.34
218.96	-24.58
219.179	36.86
219.397	4.1
219.615	71.68
219.833	30.72
220.051	71.68
220.27	47.1
220.488	65.53
220.706	59.39
220.924	-36.86
221.142	16.38
221.36	26.62
221.578	49.15
221.796	40.96
222.015	-26.62
222.233	22.53
222.451	96.25
222.669	32.77
222.887	-34.82
223.105	-2.05
223.323	20.48
223.541	10.24
223.759	96.25
223.977	-26.62
224.195	63.49
224.413	81.92
224.631	71.68
224.849	18.43
225.067	-2.05
225.285	22.53
225.503	-30.72
225.721	6.14
225.939	30.72
226.157	116.73
226.375	79.87
226.592	-67.58
226.81	-32.77
227.028	6.14
227.246	92.16
227.464	14.34
227.682	63.49
227.9	79.87
228.117	-6.14
228.335	10.24
228.553	96.25
228.771	149.5
228.989	55.3
229.206	51.2
229.424	14.34
229.642	22.53
229.86	51.2
230.077	22.53
230.295	38.91
230.513	-83.97
230.731	49.15
230.948	143.36
231.166	10.24
231.384	55.3
231.601	24.58
231.819	32.77
232.037	-47.1
232.254	-10.24
232.472	10.24
232.689	55.3
232.907	24.58
233.125	67.58
233.342	2.05
233.56	14.34
233.777	47.1
233.995	63.49
234.213	55.3
234.43	63.49
234.648	22.53
234.865	-2.05
235.083	67.58
235.3	61.44
235.518	145.41
235.735	47.1
235.953	69.63
236.17	47.1
236.388	24.58
236.605	53.25
236.822	24.58
237.04	65.53
237.257	10.24
237.475	-20.48
237.692	49.15
237.909	32.77
238.127	-55.3
238.344	96.25
238.562	129.02
238.779	79.87
238.996	36.86
239.214	36.86
239.431	100.35
239.648	34.82
239.865	55.3
240.083	53.25
240.3	40.96
240.517	-26.62
240.735	67.58
240.952	71.68
241.169	94.21
241.386	51.2
241.603	26.62
241.821	16.38
242.038	92.16
242.255	-34.82
242.472	77.82
242.689	30.72
242.907	-2.05
243.124	2.05
243.341	65.53
243.558	26.62
243.775	38.91
243.992	-45.06
244.209	55.3
244.426	88.06
244.643	-34.82
244.86	-24.58
245.078	59.39
245.295	30.72
245.512	-24.58
245.729	18.43
245.946	63.49
246.163	49.15
246.38	-53.25
246.597	55.3
246.814	16.38
247.031	88.06
247.248	30.72
247.464	40.96
247.681	69.63
247.898	22.53
248.115	16.38
248.332	28.67
248.549	14.34
248.766	90.11
248.983	129.02
249.2	-2.05
249.417	63.49
249.633	30.72
249.85	47.1
250.067	32.77
250.284	18.43
250.501	63.49
250.717	51.2
250.934	-30.72
251.151	63.49
251.368	57.34
251.585	65.53
251.801	57.34
252.018	139.26
252.235	90.11
252.451	30.72
252.668	94.21
252.885	63.49
253.102	2.05
253.318	65.53
253.535	30.72
253.752	59.39
253.968	47.1
254.185	-59.39
254.401	73.73
254.618	47.1
254.835	71.68
255.051	47.1
255.268	-10.24
255.484	49.15
255.701	51.2
255.917	32.77
256.134	-38.91
256.351	63.49
256.567	51.2
256.784	-24.58
257	49.15
257.217	77.82
257.433	116.73
257.65	88.06
257.866	49.15
258.082	-8.19
258.299	63.49
258.515	55.3
258.732	40.96
258.948	34.82
259.165	6.14
259.381	-22.53
259.597	-34.82
259.814	24.58
260.03	6.14
260.246	53.25
260.463	30.72
260.679	88.06
260.895	63.49
261.112	47.1
261.328	6.14
261.544	14.34
261.761	139.26
261.977	22.53
262.193	-12.29
262.409	47.1
262.626	22.53
262.842	59.39
263.058	18.43
263.274	73.73
263.49	51.2
263.707	40.96
263.923	53.25
264.139	8.19
264.355	38.91
264.571	120.83
264.787	18.43
265.004	98.3
265.22	40.96
265.436	71.68
265.652	8.19
265.868	26.62
266.084	47.1
266.3	63.49
266.516	-18.43
266.732	143.36
266.948	18.43
267.164	47.1
267.38	10.24
267.596	-16.38
267.812	-2.05
268.028	12.29
268.244	22.53
268.46	22.53
268.676	67.58
268.892	79.87
269.108	-2.05
269.324	14.34
269.54	-24.58
269.756	137.21
269.972	32.77
270.188	63.49
270.403	30.72
270.619	34.82
270.835	49.15
271.051	55.3
271.267	-34.82
271.483	86.01
271.698	73.73
271.914	88.06
272.13	34.82
272.346	22.53
272.562	45.06
272.777	55.3
272.993	43.01
273.209	47.1
273.425	88.06
273.64	32.77
273.856	26.62
274.072	75.77
274.287	28.67
274.503	63.49
274.719	73.73
274.934	22.53
275.15	32.77
275.366	73.73
275.581	-16.38
275.797	6.14
276.012	47.1
276.228	83.97
276.444	-24.58
276.659	34.82
276.875	-6.14
277.09	59.39
277.306	47.1
277.521	36.86
277.737	6.14
277.952	47.1
278.168	10.24
278.383	-43.01
278.599	47.1
278.814	26.62
279.03	63.49
279.245	79.87
279.461	32.77
279.676	129.02
279.892	-34.82
280.107	43.01
280.322	16.38
280.538	-10.24
280.753	40.96
280.969	86.01
281.184	38.91
281.399	57.34
281.615	53.25
281.83	81.92
282.045	-26.62
282.26	88.06
282.476	8.19
282.691	30.72
282.906	16.38
283.122	26.62
283.337	2.05
283.552	10.24
283.767	24.58
283.983	65.53
284.198	38.91
284.413	30.72
284.628	16.38
284.843	28.67
285.058	14.34
285.274	6.14
285.489	4.1
285.704	59.39
285.919	-2.05
286.134	20.48
286.349	59.39
286.564	61.44
286.779	143.36
286.995	47.1
287.21	45.06
287.425	43.01
287.64	-69.63
287.855	6.14
288.07	-40.96
288.285	51.2
288.5	65.53
288.715	10.24
288.93	10.24
289.145	-2.05
289.36	112.64
289.575	55.3
289.79	57.34
290.004	86.01
290.219	112.64
290.434	18.43
290.649	75.77
290.864	-22.53
291.079	40.96
291.294	34.82
291.509	22.53
291.724	51.2
291.938	-2.05
292.153	16.38
292.368	8.19
292.583	116.73
292.798	40.96
293.012	92.16
293.227	47.1
293.442	18.43
293.657	43.01
293.871	114.69
294.086	10.24
294.301	73.73
294.516	141.31
294.73	73.73
294.945	51.2
295.16	-18.43
295.374	83.97
295.589	120.83
295.804	18.43
296.018	34.82
296.233	47.1
296.447	-2.05
296.662	45.06
296.877	57.34
297.091	34.82
297.306	79.87
297.52	26.62
297.735	73.73
297.949	88.06
298.164	53.25
298.378	-30.72
298.593	30.72
298.807	67.58
299.022	145.41
299.236	-26.62
299.451	51.2
299.665	63.49
299.88	90.11
300.094	30.72
300.309	43.01
300.523	55.3
300.737	112.64
300.952	73.73
301.166	51.2
301.381	18.43
301.595	38.91
301.809	96.25
302.024	-16.38
302.238	81.92
302.452	81.92
302.667	34.82
302.881	145.41
303.095	92.16
303.309	18.43
303.524	53.25
303.738	88.06
303.952	-10.24
304.166	22.53
304.381	4.1
304.595	79.87
304.809	-45.06
305.023	79.87
305.237	30.72
305.452	92.16
305.666	129.02
305.88	55.3
306.094	53.25
306.308	124.93
306.522	38.91
306.736	92.16
306.95	159.74
307.164	-18.43
307.379	14.34
307.593	47.1
307.807	90.11
308.021	12.29
308.235	34.82
308.449	47.1
308.663	32.77
308.877	96.25
309.091	-40.96
309.305	67.58
309.519	10.24
309.733	73.73
309.947	14.34
310.161	16.38
310.374	20.48
310.588	63.49
310.802	24.58
311.016	-14.34
311.23	38.91
311.444	8.19
311.658	36.86
311.872	14.34
312.085	55.3
312.299	47.1
312.513	61.44
312.727	18.43
312.941	63.49
313.154	34.82
313.368	69.63
313.582	28.67
313.796	-18.43
314.009	24.58
314.223	79.87
314.437	73.73
314.651	67.58
314.864	100.35
315.078	24.58
315.292	67.58
315.505	-22.53
315.719	18.43
315.933	88.06
316.146	-22.53
316.36	-18.43
316.573	129.02
316.787	51.2
317.001	55.3
317.214	16.38
317.428	67.58
317.641	67.58
317.855	-6.14
318.068	71.68
318.282	57.34
318.495	120.83
318.709	104.45
318.922	30.72
319.136	90.11
319.349	104.45
319.563	28.67
319.776	79.87
319.99	-100.35
320.203	104.45
320.417	71.68
320.63	51.2
320.843	145.41
321.057	51.2
321.27	67.58
321.483	63.49
321.697	14.34
321.91	24.58
322.124	88.06
322.337	55.3
322.55	6.14
322.763	32.77
322.977	22.53
323.19	-22.53
323.403	55.3
323.617	40.96
323.83	-10.24
324.043	20.48
324.256	24.58
324.469	51.2
324.683	47.1
324.896	79.87
325.109	65.53
325.322	24.58
325.535	88.06
325.748	36.86
325.962	-26.62
326.175	55.3
326.388	-30.72
326.601	49.15
326.814	-10.24
327.027	-40.96
327.24	67.58
327.453	38.91
327.666	-43.01
327.879	90.11
328.092	59.39
328.305	129.02
328.518	143.36
328.731	71.68
328.944	2.05
329.157	18.43
329.37	59.39
329.583	137.21
329.796	73.73
330.009	-14.34
330.222	65.53
330.435	102.4
330.648	55.3
330.861	20.48
331.073	90.11
331.286	67.58
331.499	47.1
331.712	77.82
331.925	38.91
332.138	53.25
332.35	47.1
332.563	-10.24
332.776	18.43
332.989	47.1
333.202	112.64
333.414	18.43
333.627	88.06
333.84	0
334.053	51.2
334.265	14.34
334.478	-10.24
334.691	83.97
334.903	28.67
335.116	-28.67
335.329	10.24
335.541	-6.14
335.754	8.19
335.966	24.58
336.179	-32.77
336.392	34.82
336.604	55.3
336.817	88.06
337.029	55.3
337.242	-2.05
337.454	-10.24
337.667	43.01
337.88	22.53
338.092	63.49
338.305	65.53
338.517	77.82
338.729	-18.43
338.942	51.2
339.154	-18.43
339.367	88.06
339.579	81.92
339.792	-43.01
340.004	108.54
340.217	63.49
340.429	38.91
340.641	96.25
340.854	36.86
341.066	22.53
341.278	100.35
341.491	88.06
341.703	47.1
341.915	-55.3
342.128	51.2
342.34	16.38
342.552	73.73
342.764	38.91
342.977	-16.38
343.189	20.48
343.401	0
343.613	61.44
343.826	16.38
344.038	38.91
344.25	34.82
344.462	6.14
344.674	38.91
344.886	-2.05
345.099	38.91
345.311	73.73
345.523	-12.29
345.735	-61.44
345.947	16.38
346.159	61.44
346.371	-2.05
346.583	51.2
346.795	71.68
347.007	14.34
347.219	77.82
347.431	63.49
347.643	24.58
347.855	61.44
348.067	59.39
348.279	-24.58
348.491	0
348.703	106.49
348.915	120.83
349.127	34.82
349.339	73.73
349.551	38.91
349.763	49.15
349.975	-30.72
350.187	96.25
350.399	20.48
350.61	73.73
350.822	26.62
351.034	55.3
351.246	88.06
351.458	88.06
351.669	30.72
351.881	79.87
352.093	40.96
352.305	96.25
352.517	51.2
352.728	104.45
352.94	-38.91
353.152	38.91
353.363	55.3
353.575	129.02
353.787	51.2
353.999	14.34
354.21	104.45
354.422	49.15
354.633	47.1
354.845	92.16
355.057	-6.14
355.268	53.25
355.48	75.77
355.692	83.97
355.903	30.72
356.115	-28.67
356.326	-51.2
356.538	8.19
356.749	104.45
356.961	55.3
357.172	-12.29
357.384	73.73
357.595	96.25
357.807	112.64
358.018	-38.91
358.23	26.62
358.441	104.45
358.653	32.77
358.864	-12.29
359.075	55.3
359.287	79.87
359.498	49.15
359.709	36.86
359.921	38.91
360.132	34.82
360.344	57.34
360.555	63.49
360.766	96.25
360.977	59.39
361.189	145.41
361.4	32.77
361.611	63.49
361.823	88.06
362.034	55.3
362.245	0
362.456	26.62
362.667	40.96
362.879	88.06
363.09	67.58
363.301	98.3
363.512	43.01
363.723	81.92
363.935	8.19
364.146	88.06
364.357	10.24
364.568	4.1
364.779	-6.14
364.99	88.06
365.201	26.62
365.412	112.64
365.623	57.34
365.834	65.53
366.045	81.92
366.256	-2.05
366.467	81.92
366.678	32.77
366.889	79.87
367.1	14.34
367.311	75.77
367.522	86.01
367.733	104.45
367.944	108.54
368.155	-22.53
368.366	65.53
368.577	32.77
368.788	71.68
368.999	-12.29
369.209	98.3
369.42	2.05
369.631	77.82
369.842	63.49
370.053	67.58
370.264	96.25
370.474	83.97
370.685	26.62
370.896	32.77
371.107	120.83
371.317	36.86
371.528	55.3
371.739	96.25
371.95	63.49
372.16	24.58
372.371	-6.14
372.582	-26.62
372.792	94.21
373.003	145.41
373.214	98.3
373.424	79.87
373.635	-4.1
373.846	67.58
374.056	71.68
374.267	63.49
374.477	30.72
374.688	79.87
374.898	2.05
375.109	22.53
375.319	63.49
375.53	104.45
375.74	47.1
375.951	81.92
376.161	40.96
376.372	6.14
376.582	34.82
376.793	75.77
377.003	-2.05
377.214	32.77
377.424	88.06
377.635	6.14
377.845	-18.43
378.055	104.45
378.266	0
378.476	45.06
378.686	112.64
378.897	8.19
379.107	129.02
379.317	47.1
379.528	69.63
379.738	112.64
379.948	71.68
380.158	71.68
380.369	24.58
380.579	75.77
380.789	8.19
380.999	65.53
381.21	32.77
381.42	129.02
381.63	30.72
381.84	32.77
382.05	90.11
382.261	98.3
382.471	63.49
382.681	75.77
382.891	108.54
383.101	43.01
383.311	-43.01
383.521	71.68
383.731	100.35
383.941	112.64
384.151	75.77
384.361	26.62
384.571	-2.05
384.781	141.31
384.991	71.68
385.201	81.92
385.411	38.91
385.621	104.45
385.831	65.53
386.041	71.68
386.251	30.72
386.461	83.97
386.671	4.1
386.881	43.01
387.091	8.19
387.301	24.58
387.511	51.2
387.72	49.15
387.93	71.68
388.14	20.48
388.35	75.77
388.56	14.34
388.769	43.01
388.979	71.68
389.189	-10.24
389.399	71.68
389.609	51.2
389.818	75.77
390.028	55.3
390.238	40.96
390.447	38.91
390.657	96.25
390.867	49.15
391.076	57.34
391.286	38.91
391.496	30.72
391.705	67.58
391.915	22.53
392.125	63.49
392.334	147.45
392.544	108.54
392.753	116.73
392.963	-2.05
393.172	96.25
393.382	38.91
393.591	90.11
393.801	73.73
394.01	147.45
394.22	129.02
394.429	116.73
394.639	102.4
394.848	55.3
395.058	108.54
395.267	40.96
395.477	63.49
395.686	6.14
395.895	63.49
396.105	98.3
396.314	12.29
396.524	63.49
396.733	118.78
396.942	104.45
397.152	161.79
397.361	133.12
397.57	71.68
397.78	112.64
397.989	88.06
398.198	139.26
398.407	28.67
398.617	32.77
398.826	65.53
399.035	67.58
399.244	172.03
399.453	65.53
399.663	65.53
399.872	96.25
400.081	6.14
400.29	163.84
400.499	174.08
400.708	133.12
400.917	104.45
401.127	106.49
401.336	149.5
401.545	137.21
401.754	65.53
401.963	155.65
402.172	45.06
402.381	98.3
402.59	151.55
402.799	18.43
403.008	126.97
403.217	161.79
403.426	141.31
403.635	24.58
403.844	114.69
404.053	135.17
404.262	92.16
404.471	137.21
404.68	147.45
404.888	59.39
405.097	104.45
405.306	112.64
405.515	122.88
405.724	151.55
405.933	161.79
406.142	165.89
406.35	219.13
406.559	180.22
406.768	153.6
406.977	92.16
407.185	215.04
407.394	212.99
407.603	151.55
407.812	212.99
408.02	122.88
408.229	129.02
408.438	251.9
408.646	212.99
408.855	229.37
409.064	260.09
409.272	219.13
409.481	268.28
409.69	163.84
409.898	217.08
410.107	311.29
410.315	206.84
410.524	215.04
410.733	210.94
410.941	219.13
411.15	260.09
411.358	276.48
411.567	286.72
411.775	342.01
411.984	366.59
412.192	333.82
412.401	370.68
412.609	350.2
412.818	352.25
413.026	342.01
413.234	362.49
413.443	327.67
413.651	407.55
413.86	399.35
414.068	448.51
414.276	530.42
414.485	393.21
414.693	585.72
414.901	489.46
415.11	450.55
415.318	522.23
415.526	481.27
415.734	532.47
415.943	557.05
416.151	595.96
416.359	589.81
416.567	702.45
416.776	630.77
416.984	714.74
417.192	679.93
417.4	815.09
417.608	686.07
417.817	770.04
418.025	804.85
418.233	849.91
418.441	739.32
418.649	913.39
418.857	948.21
419.065	956.4
419.273	882.67
419.481	987.12
419.689	985.07
419.897	1089.52
420.105	1042.42
420.313	1107.95
420.521	1224.69
420.729	1189.87
420.937	1206.25
421.145	1255.4
421.353	1370.09
421.561	1433.58
421.769	1478.63
421.977	1464.3
422.185	1460.2
422.393	1562.6
422.601	1558.5
422.809	1710.05
423.017	1679.33
423.224	1791.97
423.432	1861.6
423.64	1742.82
423.848	1892.32
424.056	1988.58
424.263	2029.54
424.471	1961.95
424.679	2185.18
424.887	2156.51
425.094	2291.68
425.302	2226.14
425.51	2340.83
425.718	2418.65
425.925	2392.03
426.133	2496.47
426.341	2613.21
426.548	2744.28
426.756	2709.46
426.964	2768.85
427.171	2932.69
427.379	3016.66
427.586	3178.45
427.794	3160.02
428.001	3301.33
428.209	3530.7
428.417	3434.44
428.624	3639.24
428.832	3790.79
429.039	3620.81
429.247	3749.83
429.454	3997.63
429.662	4276.16
429.869	3981.25
430.076	4265.92
430.284	4179.9
430.491	4184
430.699	4472.76
430.906	4480.96
431.114	4577.21
431.321	4700.09
431.528	5035.96
431.736	5361.58
431.943	5425.07
432.15	5150.64
432.358	5402.54
432.565	5699.5
432.772	5519.28
432.979	5941.16
433.187	6129.57
433.394	6055.84
433.601	6619.03
433.808	6379.42
434.016	6442.91
434.223	6606.75
434.43	7198.61
434.637	6987.67
434.844	7423.89
435.052	7534.48
435.259	7317.39
435.466	7665.55
435.673	7421.84
435.88	7792.52
436.087	8361.86
436.294	8353.66
436.501	8085.38
436.708	8406.91
436.915	8667
437.122	9031.54
437.329	8755.07
437.537	9291.63
437.743	9336.69
437.95	9060.21
438.157	9697.13
438.364	9926.5
438.571	9987.94
438.778	9924.46
438.985	11257.68
439.192	10594.14
439.399	10837.85
439.606	10524.51
439.813	11462.48
440.02	12011.34
440.227	11732.81
440.433	11698
440.64	11925.32
440.847	12025.67
441.054	12273.48
441.261	12916.54
441.467	13004.6
441.674	13317.94
441.881	13539.12
442.088	13604.66
442.294	13358.9
442.501	13801.26
442.708	14028.59
442.914	14544.67
443.121	15472.4
443.328	14919.45
443.534	15955.72
443.741	15394.58
443.948	15261.46
444.154	16527.11
444.361	16283.4
444.568	16410.37
444.774	16181
444.981	16541.44
445.187	16856.83
445.394	17686.26
445.6	17475.32
445.807	19402.46
446.013	18384.62
446.22	18583.27
446.426	19433.18
446.633	19502.81
446.839	20453.06
447.046	19478.23
447.252	20520.65
447.459	20264.65
447.665	20352.71
447.871	21706.42
448.078	22116.01
448.284	21014.21
448.491	21665.46
448.697	22765.22
448.903	23152.29
449.11	23178.91
449.316	22832.8
449.522	23205.53
449.728	23705.24
449.935	23991.95
450.141	24184.46
450.347	24360.59
450.553	23840.4
450.76	23907.99
450.966	24878.72
451.172	24745.61
451.378	25482.88
451.584	24792.71
451.791	25542.27
451.997	25437.82
452.203	25597.56
452.409	26019.44
452.615	25593.47
452.821	25005.7
453.027	24544.91
453.233	25683.58
453.44	24993.41
453.646	25200.26
453.852	25464.44
454.058	26189.42
454.264	25153.15
454.47	25126.53
454.676	24733.32
454.882	25460.35
455.088	23549.59
455.294	23905.94
455.5	24340.11
455.705	24405.64
455.911	23297.69
456.117	23074.46
456.323	23043.74
456.529	21878.45
456.735	22423.21
456.941	22003.38
457.147	21804.72
457.352	20956.86
457.558	20985.54
457.764	20811.46
457.97	20496.07
458.176	20184.78
458.381	20164.3
458.587	19089.12
458.793	19011.29
458.999	18032.36
459.204	19488.47
459.41	18859.74
459.616	17825.52
459.821	17657.59
460.027	17696.5
460.233	17321.72
460.438	16373.51
460.644	16445.19
460.85	15898.38
461.055	15771.41
461.261	15603.47
461.466	14475.04
461.672	13913.9
461.878	14888.73
462.083	14176.04
462.289	13776.69
462.494	13768.49
462.7	13121.34
462.905	12769.09
463.111	13285.17
463.316	13324.08
463.522	12846.91
463.727	13016.89
463.932	12859.2
464.138	12621.63
464.343	12947.26
464.549	12343.11
464.754	12719.93
464.959	12496.71
465.165	12672.83
465.37	12226.37
465.575	11673.42
465.781	12195.65
465.986	12271.43
466.191	11784.01
466.397	11442
466.602	10983.26
466.807	11366.23
467.012	11509.58
467.218	11554.64
467.423	11134.81
467.628	11374.42
467.833	11865.93
468.038	11327.32
468.244	11104.09
