Data from USB4F104151__191__14-45-13-111.txt Node

Date: Thu Mar 13 14:45:13 EDT 2025
User: louis
Spectrometer: USB4F10415
Trigger mode: 4
Integration Time (sec): 2.000000E-2
Scans to average: 1
Electric dark correction enabled: true
Nonlinearity correction enabled: false
Boxcar width: 0
XAxis mode: Wavelengths
Number of Pixels in Spectrum: 3648
>>>>>Begin Spectral Data<<<<<
178.204	-107.86
178.424	-107.86
178.644	-107.86
178.864	-87.38
179.084	-120.15
179.304	-25.94
179.524	-42.32
179.744	-40.28
179.964	27.31
180.184	-62.8
180.404	4.78
180.624	55.98
180.844	84.65
181.064	6.83
181.283	29.35
181.503	-27.99
181.723	-9.56
181.943	-5.46
182.163	55.98
182.383	62.12
182.602	51.88
182.822	92.84
183.042	101.03
183.262	-1.37
183.482	-58.71
183.701	-5.46
183.921	84.65
184.141	-71
184.361	94.89
184.58	-7.51
184.8	8.87
185.02	29.35
185.239	41.64
185.459	70.31
185.679	51.88
185.898	-32.08
186.118	135.85
186.338	131.75
186.557	51.88
186.777	41.64
186.997	53.93
187.216	-3.41
187.436	68.27
187.655	10.92
187.875	12.97
188.095	51.88
188.314	-38.23
188.534	117.42
188.753	-52.56
188.973	37.55
189.192	68.27
189.412	-11.61
189.631	141.99
189.851	68.27
190.07	105.13
190.29	-46.42
190.509	-38.23
190.729	51.88
190.948	47.79
191.168	152.23
191.387	76.46
191.607	-42.32
191.826	60.07
192.045	64.17
192.265	-5.46
192.484	49.83
192.704	19.11
192.923	-15.7
193.142	29.35
193.362	101.03
193.581	37.55
193.8	-21.85
194.02	80.55
194.239	55.98
194.458	23.21
194.678	64.17
194.897	64.17
195.116	21.16
195.335	-13.65
195.555	49.83
195.774	125.61
195.993	35.5
196.212	76.46
196.432	-21.85
196.651	8.87
196.87	39.59
197.089	127.66
197.308	68.27
197.528	-9.56
197.747	-50.52
197.966	-48.47
198.185	62.12
198.404	21.16
198.623	94.89
198.842	125.61
199.062	35.5
199.281	84.65
199.5	-5.46
199.719	43.69
199.938	121.51
200.157	53.93
200.376	94.89
200.595	51.88
200.814	23.21
201.033	43.69
201.252	111.27
201.471	60.07
201.69	45.74
201.909	86.7
202.128	31.4
202.347	35.5
202.566	12.97
202.785	43.69
203.004	31.4
203.223	162.47
203.442	51.88
203.661	43.69
203.879	76.46
204.098	43.69
204.317	19.11
204.536	80.55
204.755	109.22
204.974	-1.37
205.193	6.83
205.411	80.55
205.63	4.78
205.849	51.88
206.068	70.31
206.287	-71
206.505	88.75
206.724	-36.18
206.943	15.02
207.162	6.83
207.381	27.31
207.599	-19.8
207.818	2.73
208.037	-36.18
208.255	12.97
208.474	29.35
208.693	51.88
208.911	35.5
209.13	53.93
209.349	101.03
209.567	84.65
209.786	2.73
210.005	8.87
210.223	27.31
210.442	39.59
210.661	35.5
210.879	-1.37
211.098	-1.37
211.316	-103.76
211.535	64.17
211.753	10.92
211.972	53.93
212.191	27.31
212.409	60.07
212.628	41.64
212.846	35.5
213.065	58.03
213.283	103.08
213.502	55.98
213.72	-40.28
213.938	43.69
214.157	88.75
214.375	17.07
214.594	-27.99
214.812	68.27
215.031	55.98
215.249	-7.51
215.467	92.84
215.686	6.83
215.904	86.7
216.122	51.88
216.341	82.6
216.559	45.74
216.778	84.65
216.996	109.22
217.214	-21.85
217.432	25.26
217.651	-34.13
217.869	113.32
218.087	10.92
218.306	2.73
218.524	19.11
218.742	23.21
218.96	109.22
219.179	-27.99
219.397	39.59
219.615	133.8
219.833	51.88
220.051	2.73
220.27	78.51
220.488	64.17
220.706	129.7
220.924	-21.85
221.142	21.16
221.36	35.5
221.578	121.51
221.796	45.74
222.015	-21.85
222.233	78.51
222.451	-5.46
222.669	33.45
222.887	72.36
223.105	62.12
223.323	2.73
223.541	15.02
223.759	51.88
223.977	12.97
224.195	111.27
224.413	76.46
224.631	68.27
224.849	64.17
225.067	47.79
225.285	35.5
225.503	70.31
225.721	29.35
225.939	12.97
226.157	51.88
226.375	148.14
226.592	-27.99
226.81	27.31
227.028	92.84
227.246	21.16
227.464	27.31
227.682	39.59
227.9	86.7
228.117	62.12
228.335	51.88
228.553	76.46
228.771	31.4
228.989	94.89
229.206	15.02
229.424	62.12
229.642	19.11
229.86	21.16
230.077	19.11
230.295	152.23
230.513	84.65
230.731	109.22
230.948	68.27
231.166	119.46
231.384	31.4
231.601	10.92
231.819	-17.75
232.037	29.35
232.254	-21.85
232.472	27.31
232.689	-87.38
232.907	119.46
233.125	51.88
233.342	70.31
233.56	41.64
233.777	10.92
233.995	-27.99
234.213	94.89
234.43	12.97
234.648	35.5
234.865	27.31
235.083	15.02
235.3	117.42
235.518	27.31
235.735	35.5
235.953	41.64
236.17	23.21
236.388	78.51
236.605	78.51
236.822	33.45
237.04	53.93
237.257	72.36
237.475	-3.41
237.692	84.65
237.909	35.5
238.127	158.38
238.344	70.31
238.562	43.69
238.779	-11.61
238.996	6.83
239.214	68.27
239.431	43.69
239.648	39.59
239.865	10.92
240.083	117.42
240.3	8.87
240.517	51.88
240.735	96.94
240.952	58.03
241.169	47.79
241.386	6.83
241.603	86.7
241.821	92.84
242.038	64.17
242.255	6.83
242.472	-17.75
242.689	25.26
242.907	70.31
243.124	29.35
243.341	2.73
243.558	29.35
243.775	-60.76
243.992	2.73
244.209	92.84
244.426	119.46
244.643	37.55
244.86	-3.41
245.078	27.31
245.295	27.31
245.512	29.35
245.729	21.16
245.946	51.88
246.163	25.26
246.38	80.55
246.597	37.55
246.814	4.78
247.031	43.69
247.248	47.79
247.464	60.07
247.681	39.59
247.898	64.17
248.115	62.12
248.332	-19.8
248.549	76.46
248.766	51.88
248.983	35.5
249.2	2.73
249.417	47.79
249.633	2.73
249.85	-5.46
250.067	43.69
250.284	-21.85
250.501	84.65
250.717	82.6
250.934	31.4
251.151	-1.37
251.368	47.79
251.585	2.73
251.801	29.35
252.018	19.11
252.235	15.02
252.451	19.11
252.668	31.4
252.885	60.07
253.102	15.02
253.318	64.17
253.535	53.93
253.752	47.79
253.968	68.27
254.185	-44.37
254.401	37.55
254.618	84.65
254.835	-13.65
255.051	37.55
255.268	105.13
255.484	51.88
255.701	37.55
255.917	-44.37
256.134	31.4
256.351	-19.8
256.567	27.31
256.784	66.22
257	-36.18
257.217	53.93
257.433	43.69
257.65	55.98
257.866	84.65
258.082	-21.85
258.299	2.73
258.515	90.79
258.732	35.5
258.948	10.92
259.165	51.88
259.381	60.07
259.597	129.7
259.814	19.11
260.03	6.83
260.246	68.27
260.463	12.97
260.679	84.65
260.895	-30.04
261.112	10.92
261.328	68.27
261.544	37.55
261.761	103.08
261.977	70.31
262.193	80.55
262.409	70.31
262.626	27.31
262.842	15.02
263.058	-42.32
263.274	60.07
263.49	-25.94
263.707	31.4
263.923	10.92
264.139	2.73
264.355	76.46
264.571	-17.75
264.787	21.16
265.004	111.27
265.22	37.55
265.436	55.98
265.652	47.79
265.868	4.78
266.084	-5.46
266.3	21.16
266.516	39.59
266.732	35.5
266.948	101.03
267.164	68.27
267.38	15.02
267.596	84.65
267.812	78.51
268.028	12.97
268.244	86.7
268.46	84.65
268.676	80.55
268.892	90.79
269.108	45.74
269.324	19.11
269.54	-44.37
269.756	101.03
269.972	74.41
270.188	-38.23
270.403	25.26
270.619	111.27
270.835	33.45
271.051	31.4
271.267	-17.75
271.483	-25.94
271.698	35.5
271.914	144.04
272.13	0.68
272.346	27.31
272.562	72.36
272.777	-3.41
272.993	35.5
273.209	-13.65
273.425	2.73
273.64	-23.89
273.856	51.88
274.072	12.97
274.287	62.12
274.503	21.16
274.719	76.46
274.934	43.69
275.15	84.65
275.366	51.88
275.581	21.16
275.797	-3.41
276.012	68.27
276.228	62.12
276.444	31.4
276.659	68.27
276.875	-11.61
277.09	2.73
277.306	64.17
277.521	144.04
277.737	15.02
277.952	115.37
278.168	27.31
278.383	68.27
278.599	35.5
278.814	94.89
279.03	70.31
279.245	45.74
279.461	101.03
279.676	94.89
279.892	60.07
280.107	105.13
280.322	21.16
280.538	105.13
280.753	19.11
280.969	62.12
281.184	27.31
281.399	101.03
281.615	-11.61
281.83	43.69
282.045	29.35
282.26	43.69
282.476	15.02
282.691	88.75
282.906	6.83
283.122	51.88
283.337	37.55
283.552	17.07
283.767	19.11
283.983	76.46
284.198	10.92
284.413	51.88
284.628	43.69
284.843	31.4
285.058	76.46
285.274	60.07
285.489	-3.41
285.704	2.73
285.919	35.5
286.134	64.17
286.349	58.03
286.564	27.31
286.779	174.76
286.995	2.73
287.21	-7.51
287.425	51.88
287.64	-23.89
287.855	68.27
288.07	15.02
288.285	101.03
288.5	68.27
288.715	117.42
288.93	37.55
289.145	10.92
289.36	92.84
289.575	51.88
289.79	33.45
290.004	43.69
290.219	98.99
290.434	27.31
290.649	27.31
290.864	98.99
291.079	-27.99
291.294	74.41
291.509	37.55
291.724	31.4
291.938	39.59
292.153	8.87
292.368	-17.75
292.583	68.27
292.798	96.94
293.012	39.59
293.227	68.27
293.442	31.4
293.657	-15.7
293.871	68.27
294.086	-27.99
294.301	45.74
294.516	80.55
294.73	21.16
294.945	21.16
295.16	19.11
295.374	55.98
295.589	23.21
295.804	-17.75
296.018	33.45
296.233	62.12
296.447	-21.85
296.662	43.69
296.877	23.21
297.091	51.88
297.306	43.69
297.52	27.31
297.735	109.22
297.949	33.45
298.164	12.97
298.378	6.83
298.593	12.97
298.807	84.65
299.022	60.07
299.236	90.79
299.451	6.83
299.665	10.92
299.88	4.78
300.094	-30.04
300.309	2.73
300.523	51.88
300.737	121.51
300.952	-21.85
301.166	19.11
301.381	-3.41
301.595	-21.85
301.809	39.59
302.024	96.94
302.238	60.07
302.452	35.5
302.667	-5.46
302.881	27.31
303.095	64.17
303.309	53.93
303.524	19.11
303.738	53.93
303.952	29.35
304.166	62.12
304.381	4.78
304.595	92.84
304.809	15.02
305.023	64.17
305.237	39.59
305.452	37.55
305.666	-17.75
305.88	84.65
306.094	53.93
306.308	72.36
306.522	15.02
306.736	84.65
306.95	103.08
307.164	-52.56
307.379	-34.13
307.593	19.11
307.807	68.27
308.021	10.92
308.235	8.87
308.449	19.11
308.663	27.31
308.877	53.93
309.091	51.88
309.305	68.27
309.519	25.26
309.733	133.8
309.947	-34.13
310.161	117.42
310.374	68.27
310.588	55.98
310.802	15.02
311.016	19.11
311.23	35.5
311.444	-17.75
311.658	10.92
311.872	109.22
312.085	72.36
312.299	86.7
312.513	129.7
312.727	47.79
312.941	53.93
313.154	-5.46
313.368	15.02
313.582	27.31
313.796	45.74
314.009	72.36
314.223	23.21
314.437	45.74
314.651	2.73
314.864	86.7
315.078	53.93
315.292	47.79
315.505	51.88
315.719	80.55
315.933	45.74
316.146	12.97
316.36	4.78
316.573	103.08
316.787	109.22
317.001	43.69
317.214	53.93
317.428	60.07
317.641	4.78
317.855	15.02
318.068	101.03
318.282	37.55
318.495	72.36
318.709	43.69
318.922	-13.65
319.136	133.8
319.349	27.31
319.563	53.93
319.776	84.65
319.99	27.31
320.203	-13.65
320.417	12.97
320.63	68.27
320.843	19.11
321.057	27.31
321.27	64.17
321.483	51.88
321.697	51.88
321.91	37.55
322.124	-5.46
322.337	80.55
322.55	-9.56
322.763	80.55
322.977	80.55
323.19	68.27
323.403	60.07
323.617	27.31
323.83	12.97
324.043	96.94
324.256	21.16
324.469	35.5
324.683	129.7
324.896	29.35
325.109	-1.37
325.322	23.21
325.535	101.03
325.748	19.11
325.962	103.08
326.175	31.4
326.388	86.7
326.601	92.84
326.814	80.55
327.027	51.88
327.24	84.65
327.453	-21.85
327.666	101.03
327.879	84.65
328.092	-9.56
328.305	101.03
328.518	84.65
328.731	-7.51
328.944	33.45
329.157	84.65
329.37	-17.75
329.583	76.46
329.796	76.46
330.009	60.07
330.222	109.22
330.435	64.17
330.648	60.07
330.861	43.69
331.073	68.27
331.286	53.93
331.499	35.5
331.712	62.12
331.925	84.65
332.138	29.35
332.35	19.11
332.563	111.27
332.776	2.73
332.989	80.55
333.202	60.07
333.414	31.4
333.627	12.97
333.84	27.31
334.053	82.6
334.265	-60.76
334.478	80.55
334.691	10.92
334.903	6.83
335.116	-11.61
335.329	21.16
335.541	66.22
335.754	45.74
335.966	-30.04
336.179	45.74
336.392	64.17
336.604	-3.41
336.817	64.17
337.029	62.12
337.242	4.78
337.454	86.7
337.667	68.27
337.88	35.5
338.092	49.83
338.305	62.12
338.517	27.31
338.729	68.27
338.942	55.98
339.154	39.59
339.367	-13.65
339.579	135.85
339.792	109.22
340.004	27.31
340.217	-23.89
340.429	64.17
340.641	17.07
340.854	21.16
341.066	-13.65
341.278	43.69
341.491	133.8
341.703	139.94
341.915	10.92
342.128	92.84
342.34	51.88
342.552	60.07
342.764	29.35
342.977	19.11
343.189	23.21
343.401	64.17
343.613	-1.37
343.826	35.5
344.038	10.92
344.25	37.55
344.462	43.69
344.674	47.79
344.886	51.88
345.099	86.7
345.311	53.93
345.523	31.4
345.735	49.83
345.947	64.17
346.159	-23.89
346.371	-5.46
346.583	-5.46
346.795	92.84
347.007	-3.41
347.219	-13.65
347.431	55.98
347.643	127.66
347.855	45.74
348.067	2.73
348.279	-60.76
348.491	35.5
348.703	43.69
348.915	10.92
349.127	35.5
349.339	37.55
349.551	21.16
349.763	72.36
349.975	60.07
350.187	15.02
350.399	137.9
350.61	27.31
350.822	53.93
351.034	90.79
351.246	43.69
351.458	15.02
351.669	62.12
351.881	15.02
352.093	135.85
352.305	74.41
352.517	29.35
352.728	53.93
352.94	10.92
353.152	80.55
353.363	68.27
353.575	39.59
353.787	141.99
353.999	17.07
354.21	19.11
354.422	98.99
354.633	113.32
354.845	72.36
355.057	-3.41
355.268	82.6
355.48	27.31
355.692	10.92
355.903	-3.41
356.115	58.03
356.326	-1.37
356.538	60.07
356.749	-17.75
356.961	86.7
357.172	41.64
357.384	12.97
357.595	133.8
357.807	21.16
358.018	53.93
358.23	4.78
358.441	51.88
358.653	43.69
358.864	101.03
359.075	109.22
359.287	6.83
359.498	21.16
359.709	121.51
359.921	51.88
360.132	98.99
360.344	41.64
360.555	10.92
360.766	6.83
360.977	125.61
361.189	64.17
361.4	2.73
361.611	88.75
361.823	70.31
362.034	109.22
362.245	6.83
362.456	86.7
362.667	51.88
362.879	84.65
363.09	31.4
363.301	55.98
363.512	64.17
363.723	68.27
363.935	37.55
364.146	84.65
364.357	-13.65
364.568	86.7
364.779	-30.04
364.99	19.11
365.201	35.5
365.412	94.89
365.623	-9.56
365.834	53.93
366.045	15.02
366.256	51.88
366.467	66.22
366.678	19.11
366.889	51.88
367.1	4.78
367.311	62.12
367.522	84.65
367.733	47.79
367.944	96.94
368.155	70.31
368.366	62.12
368.577	80.55
368.788	29.35
368.999	6.83
369.209	129.7
369.42	92.84
369.631	117.42
369.842	51.88
370.053	90.79
370.264	64.17
370.474	80.55
370.685	17.07
370.896	62.12
371.107	125.61
371.317	74.41
371.528	92.84
371.739	88.75
371.95	27.31
372.16	70.31
372.371	21.16
372.582	96.94
372.792	55.98
373.003	70.31
373.214	94.89
373.424	27.31
373.635	84.65
373.846	47.79
374.056	64.17
374.267	29.35
374.477	27.31
374.688	76.46
374.898	41.64
375.109	62.12
375.319	27.31
375.53	60.07
375.74	27.31
375.951	27.31
376.161	51.88
376.372	113.32
376.582	33.45
376.793	43.69
377.003	92.84
377.214	12.97
377.424	43.69
377.635	2.73
377.845	84.65
378.055	125.61
378.266	47.79
378.476	80.55
378.686	35.5
378.897	51.88
379.107	70.31
379.317	37.55
379.528	76.46
379.738	76.46
379.948	10.92
380.158	74.41
380.369	21.16
380.579	45.74
380.789	96.94
380.999	146.09
381.21	105.13
381.42	90.79
381.63	101.03
381.84	76.46
382.05	96.94
382.261	51.88
382.471	4.78
382.681	31.4
382.891	103.08
383.101	64.17
383.311	125.61
383.521	-52.56
383.731	27.31
383.941	62.12
384.151	47.79
384.361	-7.51
384.571	62.12
384.781	74.41
384.991	-40.28
385.201	131.75
385.411	29.35
385.621	152.23
385.831	33.45
386.041	15.02
386.251	53.93
386.461	84.65
386.671	78.51
386.881	82.6
387.091	68.27
387.301	43.69
387.511	37.55
387.72	68.27
387.93	19.11
388.14	19.11
388.35	53.93
388.56	101.03
388.769	53.93
388.979	74.41
389.189	58.03
389.399	76.46
389.609	58.03
389.818	-5.46
390.028	70.31
390.238	96.94
390.447	49.83
390.657	115.37
390.867	-17.75
391.076	-27.99
391.286	-1.37
391.496	111.27
391.705	76.46
391.915	111.27
392.125	66.22
392.334	19.11
392.544	17.07
392.753	80.55
392.963	41.64
393.172	23.21
393.382	10.92
393.591	139.94
393.801	47.79
394.01	90.79
394.22	55.98
394.429	64.17
394.639	68.27
394.848	72.36
395.058	55.98
395.267	27.31
395.477	111.27
395.686	72.36
395.895	152.23
396.105	135.85
396.314	78.51
396.524	43.69
396.733	60.07
396.942	60.07
397.152	37.55
397.361	45.74
397.57	60.07
397.78	119.46
397.989	76.46
398.198	166.57
398.407	72.36
398.617	92.84
398.826	101.03
399.035	103.08
399.244	45.74
399.453	109.22
399.663	148.14
399.872	172.71
400.081	62.12
400.29	86.7
400.499	10.92
400.708	72.36
400.917	82.6
401.127	60.07
401.336	101.03
401.545	133.8
401.754	76.46
401.963	101.03
402.172	123.56
402.381	37.55
402.59	64.17
402.799	82.6
403.008	121.51
403.217	92.84
403.426	197.29
403.635	80.55
403.844	121.51
404.053	90.79
404.262	137.9
404.471	209.58
404.68	148.14
404.888	84.65
405.097	158.38
405.306	121.51
405.515	156.33
405.724	152.23
405.933	178.86
406.142	150.18
406.35	170.66
406.559	150.18
406.768	107.18
406.977	217.77
407.185	158.38
407.394	191.14
407.603	189.1
407.812	123.56
408.02	182.95
408.229	158.38
408.438	209.58
408.646	141.99
408.855	252.58
409.064	217.77
409.272	182.95
409.481	285.35
409.69	238.25
409.898	141.99
410.107	252.58
410.315	187.05
410.524	244.39
410.733	268.97
410.941	266.92
411.15	268.97
411.358	264.87
411.567	291.49
411.775	330.41
411.984	268.97
412.192	363.17
412.401	365.22
412.609	389.8
412.818	363.17
413.026	426.66
413.234	322.21
413.443	408.23
413.651	395.94
413.86	420.52
414.068	426.66
414.276	457.38
414.485	428.71
414.693	531.11
414.901	543.39
415.11	498.34
415.318	375.46
415.526	610.98
415.734	615.07
415.943	502.43
416.151	664.22
416.359	561.83
416.567	643.74
416.776	676.51
416.984	725.66
417.192	703.14
417.4	674.46
417.608	723.62
417.817	701.09
418.025	762.53
418.233	885.41
418.441	858.78
418.649	875.17
418.857	858.78
419.065	1014.43
419.273	926.36
419.481	1026.71
419.689	1059.48
419.897	1077.91
420.105	1131.16
420.313	1194.65
420.521	1182.36
420.729	1110.68
420.937	1233.56
421.145	1215.13
421.353	1264.28
421.561	1493.65
421.769	1387.16
421.977	1477.27
422.185	1411.73
422.393	1561.23
422.601	1657.49
422.809	1557.14
423.017	1624.72
423.224	1596.05
423.432	1860.24
423.64	1815.18
423.848	1956.49
424.056	1886.86
424.263	2026.12
424.471	2046.6
424.679	2026.12
424.887	2183.82
425.094	2380.42
425.302	2255.5
425.51	2296.46
425.718	2534.02
425.925	2437.77
426.133	2460.29
426.341	2779.78
426.548	2771.58
426.756	2835.07
426.964	2878.08
427.171	3025.53
427.379	3027.58
427.586	3066.49
427.794	3230.33
428.001	3349.11
428.209	3558
428.417	3347.06
428.624	3646.07
428.832	3615.35
429.039	3617.4
429.247	3598.96
429.454	4084.33
429.662	4274.79
429.869	4196.97
430.076	4248.17
430.284	4143.72
430.491	4407.91
430.699	4405.86
430.906	4592.23
431.114	4555.37
431.321	4846.18
431.528	4833.89
431.736	5089.88
431.943	5233.24
432.15	5405.27
432.358	5399.13
432.565	5638.74
432.772	5616.21
432.979	5941.84
433.187	6195.79
433.394	6097.49
433.601	6404.68
433.808	6457.93
434.016	6302.28
434.223	6734.4
434.43	7074.37
434.637	7012.93
434.844	7334.46
435.052	7490.1
435.259	7492.15
435.466	7506.49
435.673	7377.47
435.88	8182.32
436.087	8174.13
436.294	8403.5
436.501	8124.97
436.708	8145.45
436.915	8841.76
437.122	9036.32
437.329	8862.24
437.537	9194.01
437.743	9304.6
437.95	9271.84
438.157	9800.21
438.364	10138.13
438.571	9964.05
438.778	10144.27
438.985	10928.64
439.192	10545.67
439.399	10742.28
439.606	10711.56
439.813	11375.1
440.02	12075.51
440.227	11749.88
440.433	11741.69
440.64	12077.55
440.847	12065.27
441.054	12294.64
441.261	13238.75
441.467	12872.17
441.674	12954.08
441.881	14080.47
442.088	13777.37
442.294	13552.09
442.501	13918.68
442.708	14035.41
442.914	14582.22
443.121	15235.52
443.328	14827.98
443.534	16026.04
443.741	15610.3
443.948	15124.93
444.154	16431.54
444.361	16290.23
444.568	16136.63
444.774	16335.28
444.981	16296.37
445.187	17045.93
445.394	17729.95
445.6	17783.2
445.807	19243.4
446.013	18348.43
446.22	18526.61
446.426	19319.17
446.633	19622.27
446.839	20259.19
447.046	19405.19
447.252	20709.74
447.459	20550
447.665	20283.77
447.871	21272.93
448.078	22206.81
448.284	20988.27
448.491	21997.91
448.697	22495.57
448.903	23296.33
449.11	22991.18
449.316	22827.34
449.522	23157.07
449.728	23621.95
449.935	23890.24
450.141	23701.82
450.347	24357.17
450.553	24115.51
450.76	24080.7
450.966	24817.97
451.172	24742.19
451.378	25297.19
451.584	24719.67
451.791	25375.02
451.997	25360.68
452.203	26048.8
452.409	25993.5
452.615	26112.28
452.821	24832.3
453.027	24705.33
453.233	25667.87
453.44	24711.47
453.646	24938.8
453.852	24916.27
454.058	25504.04
454.264	24754.48
454.47	25803.04
454.676	24797.49
454.882	25426.21
455.088	23451.97
455.294	23521.6
455.5	24037.69
455.705	24457.53
455.911	23327.05
456.117	22978.89
456.323	22491.48
456.529	21547.36
456.735	22499.67
456.941	22184.28
457.147	21180.78
457.352	20851.05
457.558	20521.33
457.764	20738.41
457.97	20654.45
458.176	20068.73
458.381	19884.41
458.587	19257.73
458.793	18897.29
458.999	18039.19
459.204	19319.17
459.41	18592.14
459.616	17695.13
459.821	17451.42
460.027	17385.89
460.233	17152.42
460.438	16601.52
460.644	16652.72
460.85	15626.68
461.055	15415.74
461.261	15417.79
461.466	14139.86
461.672	13812.18
461.878	14862.79
462.083	13871.57
462.289	13855.19
462.494	13566.43
462.7	12827.11
462.905	12440.04
463.111	13042.15
463.316	13093.35
463.522	12720.62
463.727	12843.49
463.932	12782.06
464.138	12683.75
464.343	12882.41
464.549	11878.9
464.754	12577.26
464.959	12456.43
465.165	12382.7
465.37	12028.4
465.575	11614.71
465.781	12046.83
465.986	12089.84
466.191	11571.71
466.397	11702.78
466.602	11020.8
466.807	11282.94
467.012	11086.34
467.218	11028.99
467.423	11160.06
467.628	11143.68
