Data from USB4F104151__47__14-43-01-502.txt Node

Date: Thu Mar 13 14:43:01 EDT 2025
User: louis
Spectrometer: USB4F10415
Trigger mode: 4
Integration Time (sec): 2.000000E-2
Scans to average: 1
Electric dark correction enabled: true
Nonlinearity correction enabled: false
Boxcar width: 0
XAxis mode: Wavelengths
Number of Pixels in Spectrum: 3648
>>>>>Begin Spectral Data<<<<<
178.204	-186.37
178.424	-186.37
178.644	-186.37
178.864	-102.4
179.084	-151.55
179.304	-63.49
179.524	14.34
179.744	-30.72
179.964	20.48
180.184	45.06
180.404	14.34
180.624	-6.14
180.844	18.43
181.064	-51.2
181.283	83.97
181.503	-14.34
181.723	-30.72
181.943	-94.21
182.163	104.45
182.383	86.01
182.602	-34.82
182.822	69.63
183.042	67.58
183.262	-10.24
183.482	55.3
183.701	-6.14
183.921	69.63
184.141	-18.43
184.361	102.4
184.58	75.77
184.8	18.43
185.02	47.1
185.239	92.16
185.459	59.39
185.679	53.25
185.898	43.01
186.118	-18.43
186.338	30.72
186.557	100.35
186.777	-12.29
186.997	2.05
187.216	126.97
187.436	4.1
187.655	20.48
187.875	32.77
188.095	-12.29
188.314	36.86
188.534	34.82
188.753	26.62
188.973	18.43
189.192	26.62
189.412	67.58
189.631	98.3
189.851	-28.67
190.07	67.58
190.29	-32.77
190.509	34.82
190.729	55.3
190.948	86.01
191.168	79.87
191.387	51.2
191.607	-22.53
191.826	75.77
192.045	59.39
192.265	-51.2
192.484	18.43
192.704	36.86
192.923	18.43
193.142	92.16
193.362	2.05
193.581	26.62
193.8	36.86
194.02	14.34
194.239	143.36
194.458	43.01
194.678	43.01
194.897	63.49
195.116	-8.19
195.335	10.24
195.555	36.86
195.774	-47.1
195.993	34.82
196.212	2.05
196.432	-2.05
196.651	-20.48
196.87	28.67
197.089	71.68
197.308	122.88
197.528	-14.34
197.747	-12.29
197.966	47.1
198.185	83.97
198.404	59.39
198.623	-2.05
198.842	10.24
199.062	-2.05
199.281	53.25
199.5	26.62
199.719	96.25
199.938	71.68
200.157	77.82
200.376	59.39
200.595	61.44
200.814	26.62
201.033	20.48
201.252	14.34
201.471	26.62
201.69	67.58
201.909	47.1
202.128	45.06
202.347	79.87
202.566	10.24
202.785	-6.14
203.004	6.14
203.223	71.68
203.442	10.24
203.661	-12.29
203.879	26.62
204.098	79.87
204.317	14.34
204.536	100.35
204.755	61.44
204.974	-0
205.193	102.4
205.411	51.2
205.63	88.06
205.849	-6.14
206.068	53.25
206.287	14.34
206.505	75.77
206.724	-43.01
206.943	63.49
207.162	53.25
207.381	12.29
207.599	92.16
207.818	51.2
208.037	59.39
208.255	96.25
208.474	28.67
208.693	-22.53
208.911	-14.34
209.13	55.3
209.349	83.97
209.567	45.06
209.786	51.2
210.005	12.29
210.223	86.01
210.442	34.82
210.661	67.58
210.879	18.43
211.098	36.86
211.316	28.67
211.535	51.2
211.753	63.49
211.972	88.06
212.191	83.97
212.409	-6.14
212.628	34.82
212.846	38.91
213.065	96.25
213.283	12.29
213.502	-43.01
213.72	-16.38
213.938	-12.29
214.157	20.48
214.375	69.63
214.594	26.62
214.812	36.86
215.031	2.05
215.249	10.24
215.467	-22.53
215.686	34.82
215.904	108.54
216.122	20.48
216.341	-14.34
216.559	36.86
216.778	53.25
216.996	18.43
217.214	-4.1
217.432	-36.86
217.651	-4.1
217.869	-20.48
218.087	4.1
218.306	-16.38
218.524	34.82
218.742	65.53
218.96	51.2
219.179	12.29
219.397	-18.43
219.615	51.2
219.833	-0
220.051	2.05
220.27	20.48
220.488	55.3
220.706	43.01
220.924	-38.91
221.142	-30.72
221.36	12.29
221.578	59.39
221.796	38.91
222.015	38.91
222.233	8.19
222.451	69.63
222.669	45.06
222.887	38.91
223.105	26.62
223.323	-26.62
223.541	26.62
223.759	61.44
223.977	-0
224.195	57.34
224.413	14.34
224.631	108.54
224.849	-6.14
225.067	45.06
225.285	-6.14
225.503	24.58
225.721	-83.97
225.939	-38.91
226.157	-36.86
226.375	149.5
226.592	-20.48
226.81	-34.82
227.028	114.69
227.246	75.77
227.464	30.72
227.682	108.54
227.9	69.63
228.117	-12.29
228.335	43.01
228.553	55.3
228.771	45.06
228.989	-2.05
229.206	20.48
229.424	38.91
229.642	61.44
229.86	45.06
230.077	124.93
230.295	51.2
230.513	94.21
230.731	108.54
230.948	81.92
231.166	47.1
231.384	40.96
231.601	67.58
231.819	53.25
232.037	4.1
232.254	18.43
232.472	36.86
232.689	61.44
232.907	86.01
233.125	-4.1
233.342	18.43
233.56	-30.72
233.777	59.39
233.995	61.44
234.213	59.39
234.43	-6.14
234.648	88.06
234.865	45.06
235.083	61.44
235.3	34.82
235.518	104.45
235.735	30.72
235.953	34.82
236.17	26.62
236.388	18.43
236.605	18.43
236.822	30.72
237.04	59.39
237.257	59.39
237.475	-65.54
237.692	94.21
237.909	10.24
238.127	-10.24
238.344	-43.01
238.562	88.06
238.779	30.72
238.996	-43.01
239.214	71.68
239.431	14.34
239.648	4.1
239.865	49.15
240.083	86.01
240.3	59.39
240.517	-96.25
240.735	16.38
240.952	40.96
241.169	10.24
241.386	79.87
241.603	43.01
241.821	28.67
242.038	34.82
242.255	12.29
242.472	-45.06
242.689	126.97
242.907	83.97
243.124	36.86
243.341	45.06
243.558	-20.48
243.775	59.39
243.992	36.86
244.209	20.48
244.426	47.1
244.643	-47.1
244.86	14.34
245.078	4.1
245.295	12.29
245.512	30.72
245.729	-12.29
245.946	69.63
246.163	98.3
246.38	34.82
246.597	30.72
246.814	55.3
247.031	-28.67
247.248	16.38
247.464	47.1
247.681	43.01
247.898	65.53
248.115	28.67
248.332	-38.91
248.549	18.43
248.766	51.2
248.983	2.05
249.2	-8.19
249.417	88.06
249.633	47.1
249.85	45.06
250.067	43.01
250.284	77.82
250.501	18.43
250.717	71.68
250.934	45.06
251.151	-12.29
251.368	-4.1
251.585	38.91
251.801	28.67
252.018	-12.29
252.235	-18.43
252.451	51.2
252.668	-10.24
252.885	28.67
253.102	-47.1
253.318	92.16
253.535	-22.53
253.752	18.43
253.968	86.01
254.185	28.67
254.401	-14.34
254.618	135.17
254.835	4.1
255.051	77.82
255.268	59.39
255.484	14.34
255.701	-24.58
255.917	92.16
256.134	-55.3
256.351	51.2
256.567	-22.53
256.784	53.25
257	-88.06
257.217	43.01
257.433	-8.19
257.65	36.86
257.866	24.58
258.082	-18.43
258.299	18.43
258.515	69.63
258.732	61.44
258.948	34.82
259.165	20.48
259.381	69.63
259.597	28.67
259.814	51.2
260.03	10.24
260.246	24.58
260.463	34.82
260.679	51.2
260.895	2.05
261.112	36.86
261.328	75.77
261.544	-2.05
261.761	120.83
261.977	-63.49
262.193	10.24
262.409	55.3
262.626	-36.86
262.842	43.01
263.058	47.1
263.274	30.72
263.49	45.06
263.707	69.63
263.923	114.69
264.139	-2.05
264.355	18.43
264.571	112.64
264.787	55.3
265.004	-55.3
265.22	-12.29
265.436	-36.86
265.652	18.43
265.868	118.78
266.084	-4.1
266.3	94.21
266.516	4.1
266.732	45.06
266.948	43.01
267.164	67.58
267.38	4.1
267.596	34.82
267.812	38.91
268.028	124.93
268.244	51.2
268.46	36.86
268.676	28.67
268.892	43.01
269.108	75.77
269.324	10.24
269.54	-14.34
269.756	67.58
269.972	12.29
270.188	36.86
270.403	45.06
270.619	2.05
270.835	26.62
271.051	-26.62
271.267	-36.86
271.483	16.38
271.698	4.1
271.914	151.55
272.13	88.06
272.346	-10.24
272.562	-45.06
272.777	92.16
272.993	86.01
273.209	-4.1
273.425	51.2
273.64	-12.29
273.856	-28.67
274.072	-55.3
274.287	-14.34
274.503	-55.3
274.719	-16.38
274.934	59.39
275.15	-2.05
275.366	20.48
275.581	-81.92
275.797	75.77
276.012	34.82
276.228	59.39
276.444	-6.14
276.659	34.82
276.875	-38.91
277.09	26.62
277.306	14.34
277.521	83.97
277.737	14.34
277.952	75.77
278.168	18.43
278.383	34.82
278.599	16.38
278.814	51.2
279.03	16.38
279.245	24.58
279.461	69.63
279.676	67.58
279.892	43.01
280.107	53.25
280.322	47.1
280.538	18.43
280.753	4.1
280.969	10.24
281.184	36.86
281.399	110.59
281.615	53.25
281.83	51.2
282.045	10.24
282.26	45.06
282.476	-10.24
282.691	26.62
282.906	-38.91
283.122	30.72
283.337	-63.49
283.552	-0
283.767	69.63
283.983	92.16
284.198	28.67
284.413	53.25
284.628	-14.34
284.843	86.01
285.058	61.44
285.274	51.2
285.489	110.59
285.704	51.2
285.919	-12.29
286.134	2.05
286.349	18.43
286.564	-22.53
286.779	43.01
286.995	124.93
287.21	-49.15
287.425	61.44
287.64	2.05
287.855	-22.53
288.07	67.58
288.285	-28.67
288.5	14.34
288.715	30.72
288.93	-30.72
289.145	26.62
289.36	38.91
289.575	10.24
289.79	55.3
290.004	63.49
290.219	169.98
290.434	43.01
290.649	-28.67
290.864	30.72
291.079	-20.48
291.294	26.62
291.509	36.86
291.724	10.24
291.938	2.05
292.153	-6.14
292.368	12.29
292.583	79.87
292.798	43.01
293.012	4.1
293.227	88.06
293.442	-55.3
293.657	-22.53
293.871	59.39
294.086	43.01
294.301	69.63
294.516	59.39
294.73	51.2
294.945	96.25
295.16	-2.05
295.374	63.49
295.589	22.53
295.804	88.06
296.018	10.24
296.233	-14.34
296.447	61.44
296.662	-57.34
296.877	26.62
297.091	8.19
297.306	63.49
297.52	43.01
297.735	-14.34
297.949	16.38
298.164	12.29
298.378	10.24
298.593	47.1
298.807	43.01
299.022	10.24
299.236	63.49
299.451	4.1
299.665	-10.24
299.88	30.72
300.094	-14.34
300.309	51.2
300.523	73.73
300.737	4.1
300.952	30.72
301.166	94.21
301.381	-2.05
301.595	75.77
301.809	12.29
302.024	88.06
302.238	26.62
302.452	30.72
302.667	-28.67
302.881	116.73
303.095	-6.14
303.309	102.4
303.524	16.38
303.738	-16.38
303.952	-16.38
304.166	143.36
304.381	14.34
304.595	59.39
304.809	26.62
305.023	6.14
305.237	-4.1
305.452	51.2
305.666	-2.05
305.88	30.72
306.094	6.14
306.308	55.3
306.522	63.49
306.736	55.3
306.95	4.1
307.164	10.24
307.379	120.83
307.593	88.06
307.807	45.06
308.021	43.01
308.235	102.4
308.449	-22.53
308.663	63.49
308.877	53.25
309.091	59.39
309.305	36.86
309.519	-30.72
309.733	-20.48
309.947	-92.16
310.161	69.63
310.374	18.43
310.588	-6.14
310.802	86.01
311.016	30.72
311.23	36.86
311.444	43.01
311.658	63.49
311.872	67.58
312.085	51.2
312.299	67.58
312.513	65.53
312.727	51.2
312.941	34.82
313.154	75.77
313.368	14.34
313.582	77.82
313.796	-2.05
314.009	10.24
314.223	102.4
314.437	67.58
314.651	30.72
314.864	30.72
315.078	-30.72
315.292	69.63
315.505	43.01
315.719	4.1
315.933	32.77
316.146	12.29
316.36	26.62
316.573	102.4
316.787	8.19
317.001	51.2
317.214	-40.96
317.428	12.29
317.641	59.39
317.855	-20.48
318.068	-4.1
318.282	51.2
318.495	114.69
318.709	69.63
318.922	28.67
319.136	145.41
319.349	67.58
319.563	47.1
319.776	69.63
319.99	92.16
320.203	51.2
320.417	51.2
320.63	36.86
320.843	51.2
321.057	120.83
321.27	26.62
321.483	-6.14
321.697	12.29
321.91	51.2
322.124	10.24
322.337	43.01
322.55	18.43
322.763	26.62
322.977	-12.29
323.19	26.62
323.403	38.91
323.617	30.72
323.83	67.58
324.043	-6.14
324.256	86.01
324.469	61.44
324.683	59.39
324.896	-24.58
325.109	-6.14
325.322	4.1
325.535	139.26
325.748	92.16
325.962	2.05
326.175	57.34
326.388	102.4
326.601	36.86
326.814	10.24
327.027	69.63
327.24	106.49
327.453	26.62
327.666	133.12
327.879	75.77
328.092	47.1
328.305	8.19
328.518	30.72
328.731	4.1
328.944	92.16
329.157	59.39
329.37	36.86
329.583	126.97
329.796	86.01
330.009	45.06
330.222	98.3
330.435	26.62
330.648	47.1
330.861	26.62
331.073	34.82
331.286	22.53
331.499	75.77
331.712	38.91
331.925	51.2
332.138	28.67
332.35	86.01
332.563	-6.14
332.776	55.3
332.989	-40.96
333.202	14.34
333.414	-6.14
333.627	18.43
333.84	36.86
334.053	10.24
334.265	24.58
334.478	59.39
334.691	110.59
334.903	28.67
335.116	30.72
335.329	92.16
335.541	53.25
335.754	61.44
335.966	2.05
336.179	118.78
336.392	-2.05
336.604	75.77
336.817	30.72
337.029	53.25
337.242	-14.34
337.454	26.62
337.667	-28.67
337.88	75.77
338.092	112.64
338.305	77.82
338.517	43.01
338.729	26.62
338.942	75.77
339.154	-2.05
339.367	-4.1
339.579	73.73
339.792	-6.14
340.004	133.12
340.217	4.1
340.429	28.67
340.641	108.54
340.854	-38.91
341.066	10.24
341.278	116.73
341.491	100.35
341.703	55.3
341.915	59.39
342.128	51.2
342.34	-18.43
342.552	63.49
342.764	20.48
342.977	94.21
343.189	45.06
343.401	10.24
343.613	18.43
343.826	38.91
344.038	102.4
344.25	26.62
344.462	43.01
344.674	69.63
344.886	22.53
345.099	-34.82
345.311	104.45
345.523	51.2
345.735	10.24
345.947	28.67
346.159	110.59
346.371	-12.29
346.583	14.34
346.795	51.2
347.007	-30.72
347.219	18.43
347.431	-14.34
347.643	92.16
347.855	2.05
348.067	124.93
348.279	36.86
348.491	26.62
348.703	-18.43
348.915	63.49
349.127	-4.1
349.339	47.1
349.551	86.01
349.763	118.78
349.975	10.24
350.187	12.29
350.399	-18.43
350.61	118.78
350.822	67.58
351.034	63.49
351.246	112.64
351.458	151.55
351.669	34.82
351.881	51.2
352.093	110.59
352.305	26.62
352.517	-22.53
352.728	26.62
352.94	34.82
353.152	53.25
353.363	6.14
353.575	36.86
353.787	53.25
353.999	77.82
354.21	4.1
354.422	14.34
354.633	90.11
354.845	86.01
355.057	133.12
355.268	-51.2
355.48	55.3
355.692	20.48
355.903	86.01
356.115	57.34
356.326	20.48
356.538	61.44
356.749	49.15
356.961	81.92
357.172	32.77
357.384	49.15
357.595	118.78
357.807	51.2
358.018	10.24
358.23	90.11
358.441	63.49
358.653	45.06
358.864	34.82
359.075	36.86
359.287	59.39
359.498	67.58
359.709	24.58
359.921	26.62
360.132	-6.14
360.344	116.73
360.555	2.05
360.766	30.72
360.977	53.25
361.189	92.16
361.4	14.34
361.611	-10.24
361.823	133.12
362.034	-4.1
362.245	53.25
362.456	-0
362.667	24.58
362.879	30.72
363.09	59.39
363.301	14.34
363.512	45.06
363.723	-26.62
363.935	30.72
364.146	49.15
364.357	55.3
364.568	141.31
364.779	34.82
364.99	96.25
365.201	124.93
365.412	-14.34
365.623	67.58
365.834	38.91
366.045	8.19
366.256	53.25
366.467	18.43
366.678	73.73
366.889	18.43
367.1	4.1
367.311	61.44
367.522	18.43
367.733	51.2
367.944	28.67
368.155	100.35
368.366	96.25
368.577	-40.96
368.788	86.01
368.999	-6.14
369.209	20.48
369.42	55.3
369.631	18.43
369.842	26.62
370.053	2.05
370.264	73.73
370.474	-12.29
370.685	45.06
370.896	34.82
371.107	4.1
371.317	122.88
371.528	67.58
371.739	67.58
371.95	26.62
372.16	100.35
372.371	-30.72
372.582	98.3
372.792	26.62
373.003	63.49
373.214	122.88
373.424	28.67
373.635	36.86
373.846	30.72
374.056	22.53
374.267	83.97
374.477	57.34
374.688	26.62
374.898	61.44
375.109	51.2
375.319	2.05
375.53	112.64
375.74	86.01
375.951	36.86
376.161	38.91
376.372	67.58
376.582	63.49
376.793	81.92
377.003	71.68
377.214	-10.24
377.424	110.59
377.635	98.3
377.845	30.72
378.055	92.16
378.266	-28.67
378.476	61.44
378.686	81.92
378.897	43.01
379.107	10.24
379.317	45.06
379.528	18.43
379.738	10.24
379.948	-6.14
380.158	34.82
380.369	63.49
380.579	65.53
380.789	43.01
380.999	10.24
381.21	114.69
381.42	96.25
381.63	12.29
381.84	34.82
382.05	61.44
382.261	81.92
382.471	45.06
382.681	40.96
382.891	49.15
383.101	59.39
383.311	-14.34
383.521	67.58
383.731	34.82
383.941	43.01
384.151	20.48
384.361	36.86
384.571	47.1
384.781	4.1
384.991	118.78
385.201	114.69
385.411	51.2
385.621	73.73
385.831	75.77
386.041	83.97
386.251	116.73
386.461	75.77
386.671	-20.48
386.881	96.25
387.091	77.82
387.301	55.3
387.511	65.53
387.72	12.29
387.93	120.83
388.14	53.25
388.35	51.2
388.56	92.16
388.769	47.1
388.979	67.58
389.189	59.39
389.399	110.59
389.609	96.25
389.818	69.63
390.028	36.86
390.238	92.16
390.447	6.14
390.657	-4.1
390.867	38.91
391.076	28.67
391.286	10.24
391.496	53.25
391.705	36.86
391.915	92.16
392.125	126.97
392.334	92.16
392.544	96.25
392.753	-6.14
392.963	51.2
393.172	114.69
393.382	98.3
393.591	108.54
393.801	12.29
394.01	116.73
394.22	77.82
394.429	36.86
394.639	100.35
394.848	112.64
395.058	67.58
395.267	67.58
395.477	71.68
395.686	43.01
395.895	67.58
396.105	86.01
396.314	151.55
396.524	14.34
396.733	18.43
396.942	43.01
397.152	139.26
397.361	90.11
397.57	96.25
397.78	116.73
397.989	108.54
398.198	81.92
398.407	157.69
398.617	108.54
398.826	122.88
399.035	147.45
399.244	124.93
399.453	94.21
399.663	92.16
399.872	161.79
400.081	75.77
400.29	210.94
400.499	92.16
400.708	155.65
400.917	133.12
401.127	135.17
401.336	73.73
401.545	57.34
401.754	40.96
401.963	174.08
402.172	118.78
402.381	108.54
402.59	92.16
402.799	126.97
403.008	192.51
403.217	118.78
403.426	102.4
403.635	51.2
403.844	96.25
404.053	147.45
404.262	163.84
404.471	184.32
404.68	114.69
404.888	161.79
405.097	86.01
405.306	145.41
405.515	96.25
405.724	135.17
405.933	290.81
406.142	190.46
406.35	75.77
406.559	190.46
406.768	192.51
406.977	174.08
407.185	243.71
407.394	190.46
407.603	157.69
407.812	258.04
408.02	249.85
408.229	247.8
408.438	229.37
408.646	215.04
408.855	239.61
409.064	169.98
409.272	231.42
409.481	272.38
409.69	282.62
409.898	321.53
410.107	321.53
410.315	258.04
410.524	294.91
410.733	342.01
410.941	382.97
411.15	284.67
411.358	387.07
411.567	387.07
411.775	288.76
411.984	411.64
412.192	305.15
412.401	342.01
412.609	415.74
412.818	434.17
413.026	411.64
413.234	473.08
413.443	450.55
413.651	468.98
413.86	542.71
414.068	575.48
414.276	542.71
414.485	565.24
414.693	602.1
414.901	643.06
415.11	628.73
415.318	591.86
415.526	712.69
415.734	669.69
415.943	643.06
416.151	724.98
416.359	792.56
416.567	731.12
416.776	780.28
416.984	919.54
417.192	888.82
417.4	954.35
417.608	919.54
417.817	1017.84
418.025	962.55
418.233	1001.46
418.441	1023.98
418.649	1019.89
418.857	1144.81
419.065	1120.24
419.273	1144.81
419.481	1177.58
419.689	1189.87
419.897	1263.6
420.105	1222.64
420.313	1445.87
420.521	1560.55
420.729	1433.58
420.937	1505.26
421.145	1576.94
421.353	1599.46
421.561	1740.77
421.769	1789.92
421.977	1855.46
422.185	1798.12
422.393	1886.18
422.601	2156.51
422.809	2027.49
423.017	2056.16
423.224	2125.79
423.432	2224.09
423.64	2336.73
423.848	2459.61
424.056	2406.36
424.263	2598.87
424.471	2635.74
424.679	2672.6
424.887	2824.15
425.094	2893.78
425.302	2854.87
425.51	3016.66
425.718	3059.67
425.925	3076.05
426.133	3121.1
426.341	3426.25
426.548	3553.23
426.756	3540.94
426.964	3485.64
427.171	3655.62
427.379	3788.74
427.586	3872.71
427.794	3950.53
428.001	4192.19
428.209	4360.13
428.417	4335.55
428.624	4730.81
428.832	4585.4
429.039	4599.74
429.247	4515.77
429.454	5023.67
429.662	5351.34
429.869	5085.11
430.076	5236.66
430.284	5259.18
430.491	5308.33
430.699	5875.62
430.906	5695.4
431.114	5885.86
431.321	6131.62
431.528	6320.03
431.736	6444.96
431.943	6811.54
432.15	6752.15
432.358	6725.53
432.565	7049.11
432.772	7055.25
432.979	7464.85
433.187	7524.24
433.394	7473.04
433.601	8095.62
433.808	8005.51
434.016	7950.21
434.223	8347.52
434.43	8882.04
434.637	8605.56
434.844	9127.8
435.052	9375.6
435.259	9326.45
435.466	9391.98
435.673	9371.5
435.88	9992.04
436.087	10506.08
436.294	10628.96
436.501	10338.15
436.708	10467.17
436.915	10835.8
437.122	11218.77
437.329	11220.82
437.537	11626.32
437.743	11714.38
437.95	11626.32
438.157	12152.65
438.364	12676.93
438.571	12560.19
438.778	12728.13
438.985	13989.67
439.192	13387.57
439.399	13731.63
439.606	13502.26
439.813	14163.75
440.02	14984.99
440.227	14784.29
440.433	14677.79
440.64	15484.69
440.847	14982.94
441.054	15453.97
441.261	16498.44
441.467	16283.4
441.674	16523.01
441.881	17276.66
442.088	17141.5
442.294	16799.49
442.501	17356.54
442.708	17667.83
442.914	18351.85
443.121	19406.55
443.328	18730.72
443.534	20190.92
443.741	19312.35
443.948	19193.56
444.154	20565.7
444.361	20410.06
444.568	20754.12
444.774	20735.68
444.981	20680.39
445.187	21431.99
445.394	22220.46
445.6	22132.4
445.807	23996.05
446.013	23082.66
446.22	23533.21
446.426	24534.67
446.633	24673.93
446.839	25337.47
447.046	24532.62
447.252	25835.13
447.459	25988.72
447.665	25970.29
447.871	26850.92
448.078	28102.23
448.284	26361.45
448.491	27573.85
448.697	28481.1
448.903	29163.07
449.11	29439.55
449.316	28749.39
449.522	29285.95
449.728	30117.43
449.935	30008.89
450.141	30191.16
450.347	31112.74
450.553	29990.45
450.76	30391.86
450.966	31340.07
451.172	31194.66
451.378	31903.26
451.584	31391.26
451.791	31858.2
451.997	31911.45
452.203	32482.83
452.409	32574.99
452.615	32515.6
452.821	30862.89
453.027	30762.54
453.233	32595.47
453.44	30875.18
453.646	31571.49
453.852	32011.8
454.058	31909.4
454.264	31176.23
454.47	32060.95
454.676	30996.01
454.882	32128.53
455.088	29445.69
455.294	29449.79
455.5	30787.11
455.705	30381.62
455.911	29201.99
456.117	28919.37
456.323	28237.39
456.529	26773.1
456.735	28243.54
456.941	27709.02
457.147	26928.74
457.352	26144.37
457.558	26195.57
457.764	25724.54
457.97	25511.55
458.176	25028.23
458.381	25083.52
458.587	23703.19
458.793	23756.44
458.999	22351.53
459.204	24045.2
459.41	23625.37
459.616	22269.61
459.821	22005.42
460.027	21962.42
460.233	21477.05
460.438	20731.59
460.644	20692.68
460.85	19810
461.055	19592.92
461.261	19629.78
461.466	17884.91
461.672	17450.74
461.878	18654.95
462.083	17510.13
462.289	16987.9
462.494	17096.44
462.7	16226.06
462.905	15898.38
463.111	16303.88
463.316	16250.63
463.522	16008.97
463.727	15963.92
463.932	15849.23
464.138	16103.18
464.343	15992.59
464.549	15427.35
464.754	15722.26
464.959	15574.8
465.165	15398.68
465.37	14831.39
465.575	14673.7
465.781	15122.2
465.986	14968.6
466.191	14651.17
466.397	14446.37
466.602	13612.85
466.807	14235.43
467.012	14348.07
467.218	14067.5
467.423	13842.22
467.628	14092.07
