Data from USB4F104151__106__14-43-44-312.txt Node

Date: Thu Mar 13 14:43:44 EDT 2025
User: louis
Spectrometer: USB4F10415
Trigger mode: 4
Integration Time (sec): 2.000000E-2
Scans to average: 1
Electric dark correction enabled: true
Nonlinearity correction enabled: false
Boxcar width: 0
XAxis mode: Wavelengths
Number of Pixels in Spectrum: 3648
>>>>>Begin Spectral Data<<<<<
178.204	-116.05
178.424	-116.05
178.644	-116.05
178.864	-179.54
179.084	-66.9
179.304	-46.42
179.524	-11.61
179.744	-15.7
179.964	-36.18
180.184	-11.61
180.404	51.88
180.624	2.73
180.844	66.22
181.064	2.73
181.283	-58.71
181.503	-17.75
181.723	74.41
181.943	-44.37
182.163	72.36
182.383	-56.66
182.602	31.4
182.822	27.31
183.042	-11.61
183.262	60.07
183.482	-21.85
183.701	-23.89
183.921	21.16
184.141	33.45
184.361	0.68
184.58	-23.89
184.8	72.36
185.02	6.83
185.239	88.75
185.459	-11.61
185.679	47.79
185.898	-3.41
186.118	55.98
186.338	-19.8
186.557	113.32
186.777	-5.46
186.997	43.69
187.216	-17.75
187.436	39.59
187.655	62.12
187.875	66.22
188.095	21.16
188.314	33.45
188.534	37.55
188.753	-58.71
188.973	6.83
189.192	37.55
189.412	47.79
189.631	33.45
189.851	31.4
190.07	-1.37
190.29	-30.04
190.509	25.26
190.729	-42.32
190.948	103.08
191.168	74.41
191.387	25.26
191.607	6.83
191.826	8.87
192.045	43.69
192.265	-15.7
192.484	33.45
192.704	41.64
192.923	39.59
193.142	41.64
193.362	21.16
193.581	115.37
193.8	70.31
194.02	43.69
194.239	-42.32
194.458	10.92
194.678	15.02
194.897	101.03
195.116	4.78
195.335	49.83
195.555	64.17
195.774	39.59
195.993	-13.65
196.212	17.07
196.432	47.79
196.651	64.17
196.87	41.64
197.089	23.21
197.308	12.97
197.528	10.92
197.747	29.35
197.966	88.75
198.185	72.36
198.404	60.07
198.623	96.94
198.842	39.59
199.062	72.36
199.281	70.31
199.5	98.99
199.719	15.02
199.938	107.18
200.157	55.98
200.376	-30.04
200.595	23.21
200.814	39.59
201.033	17.07
201.252	23.21
201.471	58.03
201.69	72.36
201.909	31.4
202.128	72.36
202.347	-25.94
202.566	17.07
202.785	15.02
203.004	-124.24
203.223	58.03
203.442	-21.85
203.661	78.51
203.879	-1.37
204.098	-44.37
204.317	60.07
204.536	80.55
204.755	64.17
204.974	6.83
205.193	15.02
205.411	107.18
205.63	72.36
205.849	60.07
206.068	8.87
206.287	39.59
206.505	72.36
206.724	39.59
206.943	31.4
207.162	-7.51
207.381	-13.65
207.599	25.26
207.818	98.99
208.037	55.98
208.255	47.79
208.474	39.59
208.693	-7.51
208.911	39.59
209.13	88.75
209.349	49.83
209.567	-1.37
209.786	109.22
210.005	43.69
210.223	70.31
210.442	-11.61
210.661	66.22
210.879	101.03
211.098	2.73
211.316	-48.47
211.535	23.21
211.753	72.36
211.972	47.79
212.191	-21.85
212.409	-21.85
212.628	-1.37
212.846	17.07
213.065	84.65
213.283	8.87
213.502	43.69
213.72	47.79
213.938	62.12
214.157	23.21
214.375	-15.7
214.594	15.02
214.812	43.69
215.031	29.35
215.249	60.07
215.467	68.27
215.686	15.02
215.904	2.73
216.122	41.64
216.341	121.51
216.559	72.36
216.778	49.83
216.996	64.17
217.214	-23.89
217.432	-23.89
217.651	41.64
217.869	-77.14
218.087	-15.7
218.306	82.6
218.524	39.59
218.742	43.69
218.96	-7.51
219.179	27.31
219.397	45.74
219.615	19.11
219.833	64.17
220.051	43.69
220.27	27.31
220.488	80.55
220.706	41.64
220.924	60.07
221.142	-1.37
221.36	6.83
221.578	-9.56
221.796	-7.51
222.015	39.59
222.233	-34.13
222.451	64.17
222.669	25.26
222.887	10.92
223.105	-38.23
223.323	-1.37
223.541	58.03
223.759	23.21
223.977	15.02
224.195	-17.75
224.413	74.41
224.631	68.27
224.849	31.4
225.067	78.51
225.285	19.11
225.503	82.6
225.721	-157.01
225.939	68.27
226.157	15.02
226.375	88.75
226.592	-42.32
226.81	72.36
227.028	78.51
227.246	64.17
227.464	92.84
227.682	25.26
227.9	41.64
228.117	27.31
228.335	-34.13
228.553	27.31
228.771	39.59
228.989	21.16
229.206	66.22
229.424	-13.65
229.642	-1.37
229.86	64.17
230.077	64.17
230.295	117.42
230.513	21.16
230.731	98.99
230.948	92.84
231.166	80.55
231.384	-32.08
231.601	8.87
231.819	84.65
232.037	15.02
232.254	-38.23
232.472	-19.8
232.689	-58.71
232.907	19.11
233.125	25.26
233.342	27.31
233.56	33.45
233.777	31.4
233.995	-1.37
234.213	43.69
234.43	31.4
234.648	45.74
234.865	47.79
235.083	35.5
235.3	-9.56
235.518	51.88
235.735	41.64
235.953	64.17
236.17	68.27
236.388	6.83
236.605	15.02
236.822	43.69
237.04	6.83
237.257	31.4
237.475	25.26
237.692	23.21
237.909	88.75
238.127	58.03
238.344	19.11
238.562	15.02
238.779	60.07
238.996	10.92
239.214	29.35
239.431	82.6
239.648	37.55
239.865	23.21
240.083	-5.46
240.3	15.02
240.517	17.07
240.735	15.02
240.952	94.89
241.169	10.92
241.386	2.73
241.603	55.98
241.821	55.98
242.038	-9.56
242.255	-15.7
242.472	31.4
242.689	43.69
242.907	88.75
243.124	31.4
243.341	15.02
243.558	-30.04
243.775	-1.37
243.992	-34.13
244.209	96.94
244.426	72.36
244.643	88.75
244.86	8.87
245.078	60.07
245.295	109.22
245.512	-40.28
245.729	8.87
245.946	39.59
246.163	58.03
246.38	25.26
246.597	-5.46
246.814	39.59
247.031	31.4
247.248	33.45
247.464	29.35
247.681	-7.51
247.898	80.55
248.115	107.18
248.332	-42.32
248.549	39.59
248.766	86.7
248.983	58.03
249.2	64.17
249.417	-3.41
249.633	-30.04
249.85	15.02
250.067	113.32
250.284	21.16
250.501	96.94
250.717	31.4
250.934	31.4
251.151	-7.51
251.368	47.79
251.585	51.88
251.801	51.88
252.018	-48.47
252.235	10.92
252.451	-25.94
252.668	76.46
252.885	6.83
253.102	27.31
253.318	39.59
253.535	-32.08
253.752	15.02
253.968	88.75
254.185	86.7
254.401	-25.94
254.618	23.21
254.835	-5.46
255.051	111.27
255.268	60.07
255.484	68.27
255.701	-7.51
255.917	60.07
256.134	51.88
256.351	80.55
256.567	68.27
256.784	12.97
257	8.87
257.217	82.6
257.433	-32.08
257.65	-44.37
257.866	111.27
258.082	17.07
258.299	8.87
258.515	33.45
258.732	-1.37
258.948	23.21
259.165	15.02
259.381	49.83
259.597	88.75
259.814	-23.89
260.03	6.83
260.246	74.41
260.463	15.02
260.679	78.51
260.895	66.22
261.112	39.59
261.328	35.5
261.544	76.46
261.761	137.9
261.977	-5.46
262.193	-3.41
262.409	55.98
262.626	82.6
262.842	80.55
263.058	-46.42
263.274	98.99
263.49	8.87
263.707	-58.71
263.923	-38.23
264.139	47.79
264.355	17.07
264.571	160.42
264.787	21.16
265.004	39.59
265.22	17.07
265.436	76.46
265.652	21.16
265.868	31.4
266.084	-5.46
266.3	49.83
266.516	-17.75
266.732	17.07
266.948	96.94
267.164	39.59
267.38	41.64
267.596	15.02
267.812	41.64
268.028	33.45
268.244	-30.04
268.46	27.31
268.676	-17.75
268.892	35.5
269.108	31.4
269.324	0.68
269.54	-15.7
269.756	55.98
269.972	80.55
270.188	-7.51
270.403	37.55
270.619	51.88
270.835	72.36
271.051	17.07
271.267	10.92
271.483	2.73
271.698	-17.75
271.914	-21.85
272.13	49.83
272.346	6.83
272.562	19.11
272.777	47.79
272.993	8.87
273.209	-71
273.425	80.55
273.64	25.26
273.856	64.17
274.072	-1.37
274.287	-15.7
274.503	6.83
274.719	58.03
274.934	58.03
275.15	12.97
275.366	-30.04
275.581	-40.28
275.797	49.83
276.012	10.92
276.228	62.12
276.444	-75.09
276.659	51.88
276.875	72.36
277.09	-21.85
277.306	55.98
277.521	88.75
277.737	15.02
277.952	-19.8
278.168	-21.85
278.383	25.26
278.599	45.74
278.814	39.59
279.03	2.73
279.245	74.41
279.461	39.59
279.676	80.55
279.892	6.83
280.107	60.07
280.322	23.21
280.538	121.51
280.753	-21.85
280.969	-23.89
281.184	-5.46
281.399	74.41
281.615	29.35
281.83	84.65
282.045	31.4
282.26	6.83
282.476	-7.51
282.691	84.65
282.906	64.17
283.122	84.65
283.337	6.83
283.552	92.84
283.767	-40.28
283.983	90.79
284.198	6.83
284.413	23.21
284.628	58.03
284.843	23.21
285.058	10.92
285.274	6.83
285.489	0.68
285.704	107.18
285.919	-9.56
286.134	90.79
286.349	49.83
286.564	64.17
286.779	90.79
286.995	27.31
287.21	51.88
287.425	27.31
287.64	72.36
287.855	105.13
288.07	88.75
288.285	82.6
288.5	107.18
288.715	107.18
288.93	55.98
289.145	-17.75
289.36	-13.65
289.575	6.83
289.79	31.4
290.004	41.64
290.219	2.73
290.434	-15.7
290.649	19.11
290.864	88.75
291.079	-25.94
291.294	35.5
291.509	78.51
291.724	-83.28
291.938	4.78
292.153	64.17
292.368	74.41
292.583	51.88
292.798	70.31
293.012	53.93
293.227	21.16
293.442	23.21
293.657	55.98
293.871	41.64
294.086	27.31
294.301	84.65
294.516	-19.8
294.73	66.22
294.945	-1.37
295.16	27.31
295.374	82.6
295.589	17.07
295.804	43.69
296.018	88.75
296.233	17.07
296.447	55.98
296.662	123.56
296.877	68.27
297.091	45.74
297.306	-73.04
297.52	80.55
297.735	72.36
297.949	10.92
298.164	19.11
298.378	84.65
298.593	-40.28
298.807	10.92
299.022	76.46
299.236	15.02
299.451	19.11
299.665	-46.42
299.88	55.98
300.094	60.07
300.309	53.93
300.523	92.84
300.737	31.4
300.952	31.4
301.166	-5.46
301.381	-7.51
301.595	-15.7
301.809	39.59
302.024	88.75
302.238	-17.75
302.452	37.55
302.667	80.55
302.881	39.59
303.095	101.03
303.309	19.11
303.524	25.26
303.738	39.59
303.952	6.83
304.166	15.02
304.381	-27.99
304.595	58.03
304.809	35.5
305.023	-42.32
305.237	25.26
305.452	-9.56
305.666	-1.37
305.88	64.17
306.094	125.61
306.308	6.83
306.522	84.65
306.736	78.51
306.95	70.31
307.164	-34.13
307.379	15.02
307.593	154.28
307.807	10.92
308.021	43.69
308.235	41.64
308.449	-17.75
308.663	53.93
308.877	43.69
309.091	53.93
309.305	33.45
309.519	17.07
309.733	72.36
309.947	15.02
310.161	90.79
310.374	25.26
310.588	31.4
310.802	66.22
311.016	-21.85
311.23	39.59
311.444	90.79
311.658	19.11
311.872	66.22
312.085	80.55
312.299	2.73
312.513	150.18
312.727	92.84
312.941	31.4
313.154	33.45
313.368	80.55
313.582	92.84
313.796	23.21
314.009	96.94
314.223	43.69
314.437	92.84
314.651	19.11
314.864	55.98
315.078	88.75
315.292	31.4
315.505	39.59
315.719	90.79
315.933	98.99
316.146	23.21
316.36	10.92
316.573	15.02
316.787	86.7
317.001	-5.46
317.214	76.46
317.428	-21.85
317.641	-30.04
317.855	31.4
318.068	55.98
318.282	49.83
318.495	72.36
318.709	-21.85
318.922	31.4
319.136	-1.37
319.349	-21.85
319.563	51.88
319.776	39.59
319.99	47.79
320.203	45.74
320.417	88.75
320.63	8.87
320.843	29.35
321.057	80.55
321.27	88.75
321.483	37.55
321.697	41.64
321.91	58.03
322.124	88.75
322.337	-7.51
322.55	23.21
322.763	23.21
322.977	88.75
323.19	39.59
323.403	19.11
323.617	64.17
323.83	154.28
324.043	-34.13
324.256	72.36
324.469	23.21
324.683	82.6
324.896	55.98
325.109	23.21
325.322	74.41
325.535	58.03
325.748	64.17
325.962	23.21
326.175	21.16
326.388	105.13
326.601	74.41
326.814	25.26
327.027	49.83
327.24	55.98
327.453	-81.24
327.666	80.55
327.879	58.03
328.092	115.37
328.305	64.17
328.518	55.98
328.731	76.46
328.944	-11.61
329.157	90.79
329.37	2.73
329.583	96.94
329.796	82.6
330.009	-1.37
330.222	74.41
330.435	55.98
330.648	74.41
330.861	-1.37
331.073	74.41
331.286	15.02
331.499	27.31
331.712	64.17
331.925	55.98
332.138	29.35
332.35	127.66
332.563	15.02
332.776	80.55
332.989	-36.18
333.202	55.98
333.414	10.92
333.627	2.73
333.84	-9.56
334.053	64.17
334.265	12.97
334.478	17.07
334.691	76.46
334.903	17.07
335.116	39.59
335.329	64.17
335.541	80.55
335.754	121.51
335.966	23.21
336.179	-7.51
336.392	-7.51
336.604	55.98
336.817	39.59
337.029	115.37
337.242	66.22
337.454	90.79
337.667	43.69
337.88	80.55
338.092	58.03
338.305	41.64
338.517	51.88
338.729	96.94
338.942	51.88
339.154	49.83
339.367	31.4
339.579	49.83
339.792	-5.46
340.004	64.17
340.217	15.02
340.429	-15.7
340.641	2.73
340.854	-54.61
341.066	68.27
341.278	68.27
341.491	107.18
341.703	55.98
341.915	84.65
342.128	55.98
342.34	74.41
342.552	27.31
342.764	43.69
342.977	55.98
343.189	121.51
343.401	17.07
343.613	-36.18
343.826	4.78
344.038	-13.65
344.25	68.27
344.462	23.21
344.674	68.27
344.886	-1.37
345.099	51.88
345.311	41.64
345.523	4.78
345.735	6.83
345.947	37.55
346.159	2.73
346.371	43.69
346.583	2.73
346.795	37.55
347.007	94.89
347.219	17.07
347.431	33.45
347.643	68.27
347.855	-13.65
348.067	66.22
348.279	33.45
348.491	66.22
348.703	72.36
348.915	27.31
349.127	37.55
349.339	8.87
349.551	35.5
349.763	41.64
349.975	31.4
350.187	113.32
350.399	-9.56
350.61	31.4
350.822	17.07
351.034	17.07
351.246	-1.37
351.458	27.31
351.669	31.4
351.881	-15.7
352.093	101.03
352.305	133.8
352.517	-32.08
352.728	55.98
352.94	51.88
353.152	12.97
353.363	15.02
353.575	43.69
353.787	55.98
353.999	41.64
354.21	76.46
354.422	17.07
354.633	55.98
354.845	72.36
355.057	-7.51
355.268	117.42
355.48	82.6
355.692	90.79
355.903	21.16
356.115	96.94
356.326	39.59
356.538	88.75
356.749	64.17
356.961	101.03
357.172	41.64
357.384	47.79
357.595	78.51
357.807	-21.85
358.018	43.69
358.23	45.74
358.441	17.07
358.653	131.75
358.864	39.59
359.075	-68.95
359.287	121.51
359.498	66.22
359.709	64.17
359.921	47.79
360.132	23.21
360.344	23.21
360.555	23.21
360.766	19.11
360.977	31.4
361.189	47.79
361.4	47.79
361.611	80.55
361.823	43.69
362.034	80.55
362.245	8.87
362.456	66.22
362.667	29.35
362.879	64.17
363.09	80.55
363.301	76.46
363.512	41.64
363.723	25.26
363.935	64.17
364.146	80.55
364.357	49.83
364.568	17.07
364.779	-54.61
364.99	101.03
365.201	39.59
365.412	82.6
365.623	6.83
365.834	15.02
366.045	39.59
366.256	84.65
366.467	43.69
366.678	135.85
366.889	76.46
367.1	82.6
367.311	27.31
367.522	25.26
367.733	80.55
367.944	19.11
368.155	68.27
368.366	82.6
368.577	76.46
368.788	2.73
368.999	39.59
369.209	74.41
369.42	15.02
369.631	88.75
369.842	80.55
370.053	27.31
370.264	-17.75
370.474	80.55
370.685	74.41
370.896	31.4
371.107	88.75
371.317	2.73
371.528	15.02
371.739	64.17
371.95	86.7
372.16	88.75
372.371	-1.37
372.582	-7.51
372.792	23.21
373.003	-30.04
373.214	25.26
373.424	31.4
373.635	15.02
373.846	80.55
374.056	33.45
374.267	111.27
374.477	15.02
374.688	98.99
374.898	84.65
375.109	47.79
375.319	62.12
375.53	49.83
375.74	96.94
375.951	35.5
376.161	-25.94
376.372	129.7
376.582	-1.37
376.793	21.16
377.003	19.11
377.214	-9.56
377.424	80.55
377.635	23.21
377.845	66.22
378.055	74.41
378.266	47.79
378.476	41.64
378.686	4.78
378.897	51.88
379.107	113.32
379.317	45.74
379.528	25.26
379.738	51.88
379.948	-32.08
380.158	96.94
380.369	-17.75
380.579	141.99
380.789	41.64
380.999	113.32
381.21	21.16
381.42	121.51
381.63	6.83
381.84	39.59
382.05	76.46
382.261	156.33
382.471	51.88
382.681	64.17
382.891	64.17
383.101	-17.75
383.311	-9.56
383.521	15.02
383.731	88.75
383.941	-7.51
384.151	58.03
384.361	31.4
384.571	80.55
384.781	72.36
384.991	117.42
385.201	96.94
385.411	35.5
385.621	21.16
385.831	21.16
386.041	-9.56
386.251	6.83
386.461	78.51
386.671	27.31
386.881	-25.94
387.091	-34.13
387.301	88.75
387.511	10.92
387.72	146.09
387.93	72.36
388.14	10.92
388.35	76.46
388.56	123.56
388.769	60.07
388.979	80.55
389.189	43.69
389.399	27.31
389.609	23.21
389.818	33.45
390.028	74.41
390.238	82.6
390.447	80.55
390.657	133.8
390.867	43.69
391.076	17.07
391.286	68.27
391.496	62.12
391.705	55.98
391.915	55.98
392.125	74.41
392.334	37.55
392.544	80.55
392.753	8.87
392.963	-7.51
393.172	43.69
393.382	10.92
393.591	37.55
393.801	2.73
394.01	109.22
394.22	146.09
394.429	39.59
394.639	43.69
394.848	82.6
395.058	62.12
395.267	15.02
395.477	37.55
395.686	64.17
395.895	92.84
396.105	137.9
396.314	31.4
396.524	109.22
396.733	72.36
396.942	103.08
397.152	115.37
397.361	41.64
397.57	72.36
397.78	103.08
397.989	31.4
398.198	68.27
398.407	47.79
398.617	64.17
398.826	96.94
399.035	105.13
399.244	98.99
399.453	101.03
399.663	174.76
399.872	74.41
400.081	105.13
400.29	162.47
400.499	27.31
400.708	180.9
400.917	76.46
401.127	105.13
401.336	98.99
401.545	139.94
401.754	156.33
401.963	94.89
402.172	64.17
402.381	64.17
402.59	141.99
402.799	201.38
403.008	74.41
403.217	90.79
403.426	101.03
403.635	6.83
403.844	98.99
404.053	68.27
404.262	39.59
404.471	123.56
404.68	129.7
404.888	53.93
405.097	133.8
405.306	178.86
405.515	213.67
405.724	139.94
405.933	96.94
406.142	117.42
406.35	166.57
406.559	137.9
406.768	150.18
406.977	170.66
407.185	156.33
407.394	166.57
407.603	125.61
407.812	178.86
408.02	260.77
408.229	164.52
408.438	176.81
408.646	158.38
408.855	133.8
409.064	219.82
409.272	133.8
409.481	248.49
409.69	160.42
409.898	264.87
410.107	236.2
410.315	301.73
410.524	156.33
410.733	240.3
410.941	309.93
411.15	236.2
411.358	303.78
411.567	219.82
411.775	375.46
411.984	309.93
412.192	287.4
412.401	311.97
412.609	371.37
412.818	412.32
413.026	453.28
413.234	379.56
413.443	391.84
413.651	328.36
413.86	381.6
414.068	492.2
414.276	449.19
414.485	412.32
414.693	506.53
414.901	504.48
415.11	459.43
415.318	504.48
415.526	610.98
415.734	680.61
415.943	543.39
416.151	588.45
416.359	549.54
416.567	647.84
416.776	621.22
416.984	768.67
417.192	692.9
417.4	662.18
417.608	727.71
417.817	719.52
418.025	866.97
418.233	850.59
418.441	789.15
418.649	899.74
418.857	838.3
419.065	1018.52
419.273	928.41
419.481	1000.09
419.689	981.66
419.897	1129.11
420.105	1071.77
420.313	1014.43
420.521	1096.35
420.729	1202.84
420.937	1194.65
421.145	1272.47
421.353	1311.38
421.561	1458.84
421.769	1432.21
421.977	1610.39
422.185	1479.32
422.393	1661.59
422.601	1661.59
422.809	1696.4
423.017	1727.12
423.224	1757.84
423.432	1800.85
423.64	1850
423.848	1991.31
424.056	1890.96
424.263	1997.45
424.471	2065.04
424.679	2099.85
424.887	2130.57
425.094	2288.26
425.302	2259.59
425.51	2333.32
425.718	2329.22
425.925	2425.48
426.133	2593.41
426.341	2697.86
426.548	2914.94
426.756	2898.56
426.964	2919.04
427.171	3078.78
427.379	3136.12
427.586	3170.94
427.794	3254.9
428.001	3375.74
428.209	3445.37
428.417	3492.47
428.624	3773.04
428.832	3703.41
429.039	3785.33
429.247	3744.37
429.454	4000.37
429.662	4393.58
429.869	4029.04
430.076	4180.59
430.284	4291.18
430.491	4452.97
430.699	4627.04
430.906	4821.6
431.114	4625
431.321	4758.11
431.528	4858.46
431.736	5304.92
431.943	5476.95
432.15	5380.7
432.358	5376.6
432.565	5786.19
432.772	5724.76
432.979	6085.2
433.187	6093.39
433.394	6160.97
433.601	6447.69
433.808	6459.98
434.016	6400.58
434.223	6699.59
434.43	7363.13
434.637	7049.79
434.844	7479.86
435.052	7760.44
435.259	7776.82
435.466	7637.56
435.673	7596.6
435.88	8096.3
436.087	8538.66
436.294	8501.8
436.501	8329.77
436.708	8294.96
436.915	8698.41
437.122	9052.7
437.329	9099.81
437.537	9435.67
437.743	9501.21
437.95	9587.22
438.157	10119.7
438.364	10207.76
438.571	10000.91
438.778	10230.29
438.985	11371.01
439.192	10750.47
439.399	11004.42
439.606	10830.34
439.813	11463.16
440.02	12268.02
440.227	12038.64
440.433	11913.72
440.64	12001.78
440.847	12177.9
441.054	12407.28
441.261	13384.16
441.467	13122.02
441.674	13558.24
441.881	13840.86
442.088	13930.97
442.294	13652.44
442.501	14383.57
442.708	14498.25
442.914	15094.21
443.121	15450.56
443.328	15147.46
443.534	16132.53
443.741	15505.85
443.948	15630.78
444.154	16996.78
444.361	16538.03
444.568	16943.53
444.774	16787.88
444.981	16933.29
445.187	17344.93
445.394	18317.72
445.6	18049.43
445.807	19878.27
446.013	18741.64
446.22	19143.05
446.426	20060.54
446.633	20261.24
446.839	20789.61
447.046	20117.88
447.252	20930.92
447.459	21156.2
447.665	21139.82
447.871	21920.09
448.078	22899.02
448.284	21649.76
448.491	22301.01
448.697	23535.94
448.903	24107.32
449.11	23990.59
449.316	23478.6
449.522	23976.25
449.728	24643.89
449.935	24690.99
450.141	24578.36
450.347	25221.42
450.553	24766.77
450.76	24981.81
450.966	25694.5
451.172	25512.23
451.378	26415.38
451.584	25757.99
451.791	26249.5
451.997	26611.99
452.203	26603.8
452.409	26779.92
452.615	26642.71
452.821	25850.14
453.027	25422.12
453.233	26792.21
453.44	25596.2
453.646	26517.78
453.852	26274.07
454.058	26775.83
454.264	26022.17
454.47	26628.37
454.676	26016.03
454.882	26806.55
455.088	24375.61
455.294	24781.1
455.5	25313.58
455.705	25407.78
455.911	24711.47
456.117	24172.86
456.323	23955.77
456.529	22802.77
456.735	23509.32
456.941	23046.47
457.147	22913.36
457.352	22311.25
457.558	21829.98
457.764	21582.18
457.97	21320.04
458.176	21004.65
458.381	21168.49
458.587	19814.78
458.793	19986.81
458.999	19143.05
459.204	20486.51
459.41	19759.49
459.616	18354.58
459.821	18579.86
460.027	18301.33
460.233	18264.47
460.438	17437.09
460.644	17396.13
460.85	16685.48
461.055	16409.01
461.261	16202.16
461.466	15192.51
461.672	14531.02
461.878	15585.72
462.083	14911.94
462.289	14326.22
462.494	14352.85
462.7	13783.51
462.905	13335.01
463.111	13677.02
463.316	14027.22
463.522	13449.69
463.727	13343.2
463.932	13695.45
464.138	13228.51
464.343	13425.12
464.549	12882.41
464.754	13339.1
464.959	13375.97
465.165	13259.23
465.37	12624.36
465.575	12558.83
465.781	12792.3
465.986	12810.73
466.191	12247.54
466.397	12095.99
466.602	11469.31
466.807	12063.22
467.012	12171.76
467.218	12118.51
467.423	11868.66
467.628	12093.94
467.833	12325.36
