Data from USB4F104151__164__14-44-46-657.txt Node

Date: Thu Mar 13 14:44:46 EDT 2025
User: louis
Spectrometer: USB4F10415
Trigger mode: 4
Integration Time (sec): 2.000000E-2
Scans to average: 1
Electric dark correction enabled: true
Nonlinearity correction enabled: false
Boxcar width: 0
XAxis mode: Wavelengths
Number of Pixels in Spectrum: 3648
>>>>>Begin Spectral Data<<<<<
178.204	-116.05
178.424	-116.05
178.644	-116.05
178.864	-120.15
179.084	-159.06
179.304	-32.08
179.524	-32.08
179.744	37.55
179.964	45.74
180.184	15.02
180.404	66.22
180.624	-21.85
180.844	-91.48
181.064	-85.33
181.283	47.79
181.503	12.97
181.723	37.55
181.943	45.74
182.163	96.94
182.383	-36.18
182.602	55.98
182.822	17.07
183.042	10.92
183.262	-11.61
183.482	31.4
183.701	-36.18
183.921	-15.7
184.141	-23.89
184.361	15.02
184.58	70.31
184.8	21.16
185.02	-58.71
185.239	19.11
185.459	21.16
185.679	33.45
185.898	-25.94
186.118	72.36
186.338	-42.32
186.557	12.97
186.777	-64.85
186.997	-36.18
187.216	-27.99
187.436	53.93
187.655	-32.08
187.875	15.02
188.095	21.16
188.314	-23.89
188.534	-21.85
188.753	-11.61
188.973	-1.37
189.192	31.4
189.412	41.64
189.631	12.97
189.851	-1.37
190.07	76.46
190.29	-48.47
190.509	15.02
190.729	37.55
190.948	74.41
191.168	70.31
191.387	47.79
191.607	-3.41
191.826	25.26
192.045	37.55
192.265	58.03
192.484	-3.41
192.704	21.16
192.923	-15.7
193.142	103.08
193.362	-64.85
193.581	45.74
193.8	111.27
194.02	62.12
194.239	-11.61
194.458	45.74
194.678	55.98
194.897	-7.51
195.116	45.74
195.335	12.97
195.555	33.45
195.774	12.97
195.993	-7.51
196.212	-9.56
196.432	21.16
196.651	62.12
196.87	-44.37
197.089	49.83
197.308	21.16
197.528	-3.41
197.747	0.68
197.966	-11.61
198.185	39.59
198.404	21.16
198.623	131.75
198.842	-46.42
199.062	-19.8
199.281	39.59
199.5	-15.7
199.719	29.35
199.938	10.92
200.157	-7.51
200.376	-3.41
200.595	8.87
200.814	17.07
201.033	21.16
201.252	43.69
201.471	33.45
201.69	17.07
201.909	33.45
202.128	66.22
202.347	49.83
202.566	6.83
202.785	37.55
203.004	-40.28
203.223	39.59
203.442	-11.61
203.661	2.73
203.879	-23.89
204.098	86.7
204.317	-9.56
204.536	53.93
204.755	23.21
204.974	45.74
205.193	4.78
205.411	66.22
205.63	37.55
205.849	62.12
206.068	60.07
206.287	-40.28
206.505	70.31
206.724	15.02
206.943	49.83
207.162	-11.61
207.381	-11.61
207.599	23.21
207.818	-27.99
208.037	88.75
208.255	-19.8
208.474	-17.75
208.693	60.07
208.911	47.79
209.13	58.03
209.349	43.69
209.567	-27.99
209.786	-5.46
210.005	74.41
210.223	86.7
210.442	-81.24
210.661	-15.7
210.879	23.21
211.098	45.74
211.316	62.12
211.535	35.5
211.753	-27.99
211.972	49.83
212.191	-7.51
212.409	37.55
212.628	45.74
212.846	-9.56
213.065	119.46
213.283	55.98
213.502	-32.08
213.72	29.35
213.938	70.31
214.157	25.26
214.375	37.55
214.594	21.16
214.812	21.16
215.031	31.4
215.249	-15.7
215.467	49.83
215.686	15.02
215.904	70.31
216.122	12.97
216.341	74.41
216.559	74.41
216.778	39.59
216.996	78.51
217.214	6.83
217.432	-15.7
217.651	-40.28
217.869	12.97
218.087	-42.32
218.306	-23.89
218.524	23.21
218.742	-40.28
218.96	-36.18
219.179	4.78
219.397	-5.46
219.615	31.4
219.833	70.31
220.051	47.79
220.27	92.84
220.488	45.74
220.706	-36.18
220.924	55.98
221.142	21.16
221.36	2.73
221.578	12.97
221.796	70.31
222.015	-11.61
222.233	58.03
222.451	45.74
222.669	19.11
222.887	47.79
223.105	-52.56
223.323	-11.61
223.541	-7.51
223.759	144.04
223.977	35.5
224.195	45.74
224.413	58.03
224.631	31.4
224.849	121.51
225.067	45.74
225.285	-58.71
225.503	62.12
225.721	33.45
225.939	-7.51
226.157	74.41
226.375	96.94
226.592	27.31
226.81	-17.75
227.028	74.41
227.246	96.94
227.464	12.97
227.682	4.78
227.9	15.02
228.117	-1.37
228.335	55.98
228.553	23.21
228.771	-87.38
228.989	53.93
229.206	53.93
229.424	-3.41
229.642	-25.94
229.86	21.16
230.077	105.13
230.295	-19.8
230.513	-3.41
230.731	4.78
230.948	70.31
231.166	-11.61
231.384	33.45
231.601	-5.46
231.819	35.5
232.037	4.78
232.254	39.59
232.472	-25.94
232.689	-32.08
232.907	-50.52
233.125	17.07
233.342	45.74
233.56	53.93
233.777	-1.37
233.995	29.35
234.213	41.64
234.43	-7.51
234.648	53.93
234.865	35.5
235.083	94.89
235.3	-7.51
235.518	70.31
235.735	12.97
235.953	60.07
236.17	53.93
236.388	-23.89
236.605	70.31
236.822	47.79
237.04	4.78
237.257	39.59
237.475	45.74
237.692	88.75
237.909	49.83
238.127	8.87
238.344	-11.61
238.562	21.16
238.779	53.93
238.996	21.16
239.214	37.55
239.431	12.97
239.648	60.07
239.865	29.35
240.083	121.51
240.3	45.74
240.517	-19.8
240.735	119.46
240.952	111.27
241.169	45.74
241.386	37.55
241.603	68.27
241.821	-3.41
242.038	82.6
242.255	29.35
242.472	17.07
242.689	72.36
242.907	45.74
243.124	90.79
243.341	37.55
243.558	-7.51
243.775	-77.14
243.992	-27.99
244.209	62.12
244.426	55.98
244.643	-11.61
244.86	-17.75
245.078	70.31
245.295	39.59
245.512	64.17
245.729	-36.18
245.946	-17.75
246.163	-25.94
246.38	-66.9
246.597	-9.56
246.814	60.07
247.031	-68.95
247.248	47.79
247.464	-15.7
247.681	23.21
247.898	-3.41
248.115	29.35
248.332	-52.56
248.549	6.83
248.766	86.7
248.983	37.55
249.2	62.12
249.417	72.36
249.633	12.97
249.85	53.93
250.067	51.88
250.284	6.83
250.501	66.22
250.717	4.78
250.934	47.79
251.151	37.55
251.368	10.92
251.585	-25.94
251.801	70.31
252.018	78.51
252.235	15.02
252.451	29.35
252.668	12.97
252.885	4.78
253.102	-42.32
253.318	-71
253.535	27.31
253.752	-52.56
253.968	-52.56
254.185	45.74
254.401	53.93
254.618	41.64
254.835	-36.18
255.051	86.7
255.268	66.22
255.484	-40.28
255.701	23.21
255.917	86.7
256.134	-23.89
256.351	37.55
256.567	-66.9
256.784	-15.7
257	-9.56
257.217	-21.85
257.433	39.59
257.65	21.16
257.866	2.73
258.082	-34.13
258.299	49.83
258.515	33.45
258.732	45.74
258.948	39.59
259.165	-48.47
259.381	-101.72
259.597	29.35
259.814	-21.85
260.03	0.68
260.246	6.83
260.463	12.97
260.679	78.51
260.895	-7.51
261.112	53.93
261.328	12.97
261.544	21.16
261.761	37.55
261.977	-7.51
262.193	-68.95
262.409	21.16
262.626	31.4
262.842	105.13
263.058	37.55
263.274	25.26
263.49	-3.41
263.707	94.89
263.923	12.97
264.139	21.16
264.355	107.18
264.571	58.03
264.787	53.93
265.004	-1.37
265.22	41.64
265.436	6.83
265.652	105.13
265.868	-17.75
266.084	-5.46
266.3	21.16
266.516	-1.37
266.732	53.93
266.948	74.41
267.164	62.12
267.38	-81.24
267.596	8.87
267.812	86.7
268.028	-17.75
268.244	17.07
268.46	41.64
268.676	21.16
268.892	-19.8
269.108	47.79
269.324	29.35
269.54	66.22
269.756	98.99
269.972	0.68
270.188	12.97
270.403	-30.04
270.619	41.64
270.835	31.4
271.051	31.4
271.267	-46.42
271.483	19.11
271.698	76.46
271.914	12.97
272.13	70.31
272.346	101.03
272.562	49.83
272.777	-23.89
272.993	45.74
273.209	6.83
273.425	29.35
273.64	-5.46
273.856	53.93
274.072	-11.61
274.287	37.55
274.503	45.74
274.719	-34.13
274.934	31.4
275.15	-30.04
275.366	25.26
275.581	4.78
275.797	21.16
276.012	45.74
276.228	8.87
276.444	-19.8
276.659	15.02
276.875	-40.28
277.09	-19.8
277.306	6.83
277.521	80.55
277.737	29.35
277.952	8.87
278.168	15.02
278.383	21.16
278.599	37.55
278.814	84.65
279.03	47.79
279.245	66.22
279.461	-50.52
279.676	-5.46
279.892	-7.51
280.107	37.55
280.322	-52.56
280.538	45.74
280.753	-66.9
280.969	2.73
281.184	-1.37
281.399	82.6
281.615	15.02
281.83	37.55
282.045	-3.41
282.26	-17.75
282.476	70.31
282.691	115.37
282.906	-23.89
283.122	23.21
283.337	64.17
283.552	-15.7
283.767	-7.51
283.983	21.16
284.198	-11.61
284.413	23.21
284.628	45.74
284.843	74.41
285.058	66.22
285.274	-40.28
285.489	-60.76
285.704	-7.51
285.919	-7.51
286.134	19.11
286.349	45.74
286.564	-15.7
286.779	80.55
286.995	-64.85
287.21	12.97
287.425	-36.18
287.64	64.17
287.855	-52.56
288.07	-105.81
288.285	23.21
288.5	80.55
288.715	21.16
288.93	-23.89
289.145	31.4
289.36	58.03
289.575	-3.41
289.79	55.98
290.004	6.83
290.219	10.92
290.434	-25.94
290.649	-58.71
290.864	6.83
291.079	45.74
291.294	-1.37
291.509	-62.8
291.724	45.74
291.938	47.79
292.153	62.12
292.368	-40.28
292.583	-21.85
292.798	113.32
293.012	-11.61
293.227	45.74
293.442	12.97
293.657	0.68
293.871	15.02
294.086	58.03
294.301	51.88
294.516	103.08
294.73	47.79
294.945	-23.89
295.16	15.02
295.374	-46.42
295.589	64.17
295.804	8.87
296.018	-42.32
296.233	0.68
296.447	74.41
296.662	29.35
296.877	-3.41
297.091	31.4
297.306	12.97
297.52	33.45
297.735	70.31
297.949	45.74
298.164	111.27
298.378	53.93
298.593	-9.56
298.807	-25.94
299.022	72.36
299.236	21.16
299.451	-25.94
299.665	53.93
299.88	47.79
300.094	53.93
300.309	-27.99
300.523	4.78
300.737	-3.41
300.952	-27.99
301.166	2.73
301.381	12.97
301.595	15.02
301.809	-15.7
302.024	60.07
302.238	-1.37
302.452	70.31
302.667	60.07
302.881	62.12
303.095	21.16
303.309	96.94
303.524	29.35
303.738	33.45
303.952	-25.94
304.166	29.35
304.381	-17.75
304.595	15.02
304.809	-3.41
305.023	-32.08
305.237	62.12
305.452	-36.18
305.666	78.51
305.88	154.28
306.094	2.73
306.308	105.13
306.522	53.93
306.736	53.93
306.95	-7.51
307.164	45.74
307.379	-7.51
307.593	53.93
307.807	-36.18
308.021	94.89
308.235	51.88
308.449	-75.09
308.663	107.18
308.877	45.74
309.091	-32.08
309.305	86.7
309.519	-30.04
309.733	37.55
309.947	29.35
310.161	45.74
310.374	4.78
310.588	45.74
310.802	-3.41
311.016	27.31
311.23	49.83
311.444	21.16
311.658	47.79
311.872	74.41
312.085	125.61
312.299	12.97
312.513	88.75
312.727	-1.37
312.941	29.35
313.154	4.78
313.368	33.45
313.582	0.68
313.796	-73.04
314.009	-36.18
314.223	12.97
314.437	-13.65
314.651	78.51
314.864	-23.89
315.078	37.55
315.292	-1.37
315.505	-15.7
315.719	105.13
315.933	-3.41
316.146	94.89
316.36	-44.37
316.573	37.55
316.787	82.6
317.001	31.4
317.214	23.21
317.428	76.46
317.641	33.45
317.855	-23.89
318.068	-9.56
318.282	111.27
318.495	82.6
318.709	29.35
318.922	-17.75
319.136	154.28
319.349	-21.85
319.563	15.02
319.776	45.74
319.99	-34.13
320.203	78.51
320.417	12.97
320.63	-58.71
320.843	107.18
321.057	55.98
321.27	70.31
321.483	45.74
321.697	41.64
321.91	41.64
322.124	-7.51
322.337	90.79
322.55	4.78
322.763	55.98
322.977	29.35
323.19	12.97
323.403	-52.56
323.617	49.83
323.83	15.02
324.043	64.17
324.256	-73.04
324.469	0.68
324.683	-30.04
324.896	-19.8
325.109	37.55
325.322	-71
325.535	37.55
325.748	66.22
325.962	-3.41
326.175	84.65
326.388	92.84
326.601	45.74
326.814	-17.75
327.027	12.97
327.24	86.7
327.453	49.83
327.666	12.97
327.879	-15.7
328.092	31.4
328.305	70.31
328.518	-1.37
328.731	39.59
328.944	-3.41
329.157	80.55
329.37	-15.7
329.583	96.94
329.796	23.21
330.009	39.59
330.222	94.89
330.435	6.83
330.648	21.16
330.861	4.78
331.073	62.12
331.286	29.35
331.499	31.4
331.712	4.78
331.925	37.55
332.138	23.21
332.35	8.87
332.563	12.97
332.776	55.98
332.989	55.98
333.202	45.74
333.414	41.64
333.627	10.92
333.84	8.87
334.053	45.74
334.265	-1.37
334.478	17.07
334.691	-34.13
334.903	-3.41
335.116	21.16
335.329	23.21
335.541	64.17
335.754	70.31
335.966	-3.41
336.179	-44.37
336.392	10.92
336.604	-3.41
336.817	43.69
337.029	12.97
337.242	-68.95
337.454	39.59
337.667	58.03
337.88	21.16
338.092	27.31
338.305	-7.51
338.517	29.35
338.729	53.93
338.942	41.64
339.154	17.07
339.367	60.07
339.579	86.7
339.792	25.26
340.004	41.64
340.217	23.21
340.429	-27.99
340.641	21.16
340.854	-60.76
341.066	-1.37
341.278	62.12
341.491	141.99
341.703	4.78
341.915	-11.61
342.128	-40.28
342.34	-1.37
342.552	6.83
342.764	78.51
342.977	21.16
343.189	64.17
343.401	113.32
343.613	45.74
343.826	33.45
344.038	-42.32
344.25	25.26
344.462	-11.61
344.674	88.75
344.886	0.68
345.099	-11.61
345.311	-36.18
345.523	31.4
345.735	68.27
345.947	45.74
346.159	-40.28
346.371	37.55
346.583	25.26
346.795	78.51
347.007	27.31
347.219	80.55
347.431	-15.7
347.643	29.35
347.855	45.74
348.067	8.87
348.279	2.73
348.491	12.97
348.703	-1.37
348.915	17.07
349.127	-27.99
349.339	33.45
349.551	-68.95
349.763	55.98
349.975	17.07
350.187	74.41
350.399	74.41
350.61	17.07
350.822	15.02
351.034	8.87
351.246	23.21
351.458	127.66
351.669	103.08
351.881	64.17
352.093	47.79
352.305	103.08
352.517	86.7
352.728	80.55
352.94	4.78
353.152	37.55
353.363	-34.13
353.575	-19.8
353.787	12.97
353.999	53.93
354.21	144.04
354.422	55.98
354.633	-48.47
354.845	-3.41
355.057	88.75
355.268	72.36
355.48	37.55
355.692	-77.14
355.903	53.93
356.115	-19.8
356.326	29.35
356.538	96.94
356.749	55.98
356.961	39.59
357.172	-13.65
357.384	62.12
357.595	76.46
357.807	29.35
358.018	29.35
358.23	41.64
358.441	62.12
358.653	39.59
358.864	-9.56
359.075	23.21
359.287	33.45
359.498	105.13
359.709	45.74
359.921	105.13
360.132	80.55
360.344	55.98
360.555	23.21
360.766	0.68
360.977	-50.52
361.189	115.37
361.4	39.59
361.611	70.31
361.823	-3.41
362.034	4.78
362.245	-11.61
362.456	41.64
362.667	66.22
362.879	23.21
363.09	168.62
363.301	64.17
363.512	45.74
363.723	23.21
363.935	-1.37
364.146	62.12
364.357	35.5
364.568	4.78
364.779	-101.72
364.99	37.55
365.201	4.78
365.412	47.79
365.623	-44.37
365.834	6.83
366.045	47.79
366.256	103.08
366.467	78.51
366.678	53.93
366.889	19.11
367.1	-64.85
367.311	-23.89
367.522	25.26
367.733	66.22
367.944	74.41
368.155	-3.41
368.366	-40.28
368.577	-3.41
368.788	45.74
368.999	23.21
369.209	12.97
369.42	131.75
369.631	111.27
369.842	-9.56
370.053	86.7
370.264	80.55
370.474	-1.37
370.685	111.27
370.896	-11.61
371.107	78.51
371.317	53.93
371.528	-11.61
371.739	53.93
371.95	21.16
372.16	-5.46
372.371	-60.76
372.582	78.51
372.792	31.4
373.003	21.16
373.214	31.4
373.424	70.31
373.635	12.97
373.846	41.64
374.056	113.32
374.267	148.14
374.477	53.93
374.688	8.87
374.898	31.4
375.109	-3.41
375.319	113.32
375.53	103.08
375.74	68.27
375.951	-13.65
376.161	23.21
376.372	15.02
376.582	68.27
376.793	21.16
377.003	4.78
377.214	37.55
377.424	33.45
377.635	17.07
377.845	33.45
378.055	47.79
378.266	4.78
378.476	72.36
378.686	-7.51
378.897	-17.75
379.107	37.55
379.317	-15.7
379.528	-19.8
379.738	62.12
379.948	-15.7
380.158	53.93
380.369	53.93
380.579	29.35
380.789	0.68
380.999	23.21
381.21	80.55
381.42	135.85
381.63	94.89
381.84	88.75
382.05	74.41
382.261	39.59
382.471	53.93
382.681	45.74
382.891	64.17
383.101	53.93
383.311	62.12
383.521	35.5
383.731	21.16
383.941	60.07
384.151	55.98
384.361	17.07
384.571	-3.41
384.781	58.03
384.991	35.5
385.201	70.31
385.411	103.08
385.621	37.55
385.831	-19.8
386.041	-3.41
386.251	62.12
386.461	94.89
386.671	39.59
386.881	47.79
387.091	10.92
387.301	45.74
387.511	70.31
387.72	8.87
387.93	33.45
388.14	-3.41
388.35	55.98
388.56	37.55
388.769	82.6
388.979	25.26
389.189	35.5
389.399	58.03
389.609	146.09
389.818	111.27
390.028	88.75
390.238	29.35
390.447	-13.65
390.657	62.12
390.867	51.88
391.076	70.31
391.286	94.89
391.496	86.7
391.705	78.51
391.915	70.31
392.125	58.03
392.334	21.16
392.544	72.36
392.753	39.59
392.963	31.4
393.172	41.64
393.382	15.02
393.591	92.84
393.801	86.7
394.01	80.55
394.22	141.99
394.429	37.55
394.639	47.79
394.848	29.35
395.058	58.03
395.267	-13.65
395.477	17.07
395.686	135.85
395.895	119.46
396.105	162.47
396.314	64.17
396.524	41.64
396.733	-32.08
396.942	90.79
397.152	58.03
397.361	172.71
397.57	39.59
397.78	119.46
397.989	168.62
398.198	90.79
398.407	86.7
398.617	-60.76
398.826	156.33
399.035	107.18
399.244	45.74
399.453	98.99
399.663	64.17
399.872	78.51
400.081	53.93
400.29	121.51
400.499	53.93
400.708	129.7
400.917	74.41
401.127	68.27
401.336	49.83
401.545	94.89
401.754	74.41
401.963	101.03
402.172	96.94
402.381	21.16
402.59	90.79
402.799	60.07
403.008	152.23
403.217	-1.37
403.426	135.85
403.635	141.99
403.844	31.4
404.053	27.31
404.262	49.83
404.471	238.25
404.68	53.93
404.888	129.7
405.097	144.04
405.306	150.18
405.515	135.85
405.724	101.03
405.933	121.51
406.142	96.94
406.35	154.28
406.559	209.58
406.768	98.99
406.977	125.61
407.185	160.42
407.394	168.62
407.603	70.31
407.812	209.58
408.02	217.77
408.229	201.38
408.438	228.01
408.646	119.46
408.855	158.38
409.064	250.53
409.272	217.77
409.481	201.38
409.69	219.82
409.898	201.38
410.107	162.47
410.315	299.69
410.524	301.73
410.733	283.3
410.941	209.58
411.15	324.26
411.358	340.65
411.567	283.3
411.775	369.32
411.984	326.31
412.192	416.42
412.401	375.46
412.609	455.33
412.818	391.84
413.026	336.55
413.234	389.8
413.443	471.72
413.651	457.38
413.86	406.18
414.068	445.09
414.276	522.91
414.485	524.96
414.693	590.5
414.901	631.46
415.11	539.3
415.318	586.4
415.526	623.27
415.734	586.4
415.943	684.7
416.151	733.86
416.359	692.9
416.567	709.28
416.776	789.15
416.984	766.62
417.192	789.15
417.4	713.38
417.608	832.16
417.817	905.88
418.025	889.5
418.233	938.65
418.441	1055.39
418.649	924.32
418.857	1061.53
419.065	1057.43
419.273	1036.95
419.481	1141.4
419.689	1161.88
419.897	1241.75
420.105	1268.38
420.313	1206.94
420.521	1288.85
420.729	1331.86
420.937	1340.05
421.145	1495.7
421.353	1430.16
421.561	1647.25
421.769	1522.32
421.977	1610.39
422.185	1577.62
422.393	1630.87
422.601	1833.61
422.809	1741.46
423.017	1897.1
423.224	1852.05
423.432	2013.84
423.64	2126.47
423.848	2210.44
424.056	2046.6
424.263	2185.87
424.471	2327.18
424.679	2314.89
424.887	2382.47
425.094	2503.3
425.302	2622.08
425.51	2757.25
425.718	2685.57
425.925	2724.48
426.133	2822.78
426.341	3015.29
426.548	3119.74
426.756	3078.78
426.964	3275.38
427.171	3248.76
427.379	3517.05
427.586	3543.67
427.794	3654.26
428.001	3797.62
428.209	3961.45
428.417	3889.78
428.624	4223.59
428.832	4096.62
429.039	4045.42
429.247	4127.34
429.454	4457.06
429.662	4731.49
429.869	4571.75
430.076	4784.74
430.284	4647.52
430.491	4981.34
430.699	5141.08
430.906	5110.36
431.114	5356.12
431.321	5483.1
431.528	5638.74
431.736	5935.7
431.943	6257.23
432.15	6163.02
432.358	6103.63
432.565	6451.78
432.772	6357.58
432.979	6685.25
433.187	6810.18
433.394	6908.48
433.601	7381.56
433.808	7459.38
434.016	7291.45
434.223	7631.41
434.43	8077.87
434.637	7832.12
434.844	8372.78
435.052	8600.1
435.259	8507.94
435.466	8520.23
435.673	8262.19
435.88	9001.51
436.087	9581.08
436.294	9507.35
436.501	9175.58
436.708	9447.96
436.915	10025.49
437.122	10261.01
437.329	10269.2
437.537	10396.17
437.743	10629.64
437.95	10717.7
438.157	11031.04
438.364	11448.83
438.571	11362.81
438.778	11569.66
438.985	12769.77
439.192	12184.05
439.399	12587.5
439.606	12161.52
439.813	12993
440.02	13693.4
440.227	13597.15
440.433	13423.07
440.64	13853.14
440.847	13769.18
441.054	14068.18
441.261	14891.46
441.467	14887.37
441.674	15081.92
441.881	15491.52
442.088	15464.89
442.294	15503.81
442.501	15671.74
442.708	16273.84
442.914	16818.6
443.121	17443.23
443.328	16970.15
443.534	18090.39
443.741	17879.45
443.948	17340.83
444.154	18573.71
444.361	18448.79
444.568	18762.12
444.774	18899.34
444.981	19052.94
445.187	19454.34
445.394	20328.82
445.6	20085.11
445.807	21815.65
446.013	21188.97
446.22	21393.76
446.426	22151.51
446.633	22892.88
446.839	23300.42
447.046	22237.53
447.252	23308.61
447.459	23597.38
447.665	23523.65
447.871	24820.02
448.078	25700.64
448.284	24361.27
448.491	25090.35
448.697	26100
448.903	26378.52
449.11	26556.69
449.316	25870.62
449.522	26501.4
449.728	27146.51
449.935	27492.62
450.141	27670.79
450.347	28254.46
450.553	27205.9
450.76	27900.16
450.966	28551.41
451.172	28049.66
451.378	28963.06
451.584	28481.78
451.791	29237.48
451.997	29229.29
452.203	29712.61
452.409	29706.47
452.615	29559.02
452.821	28397.82
453.027	28066.05
453.233	29665.51
453.44	28590.33
453.646	28901.62
453.852	29174
454.058	29575.4
454.264	28692.72
454.47	29083.89
454.676	28463.35
454.882	29565.16
455.088	27154.7
455.294	27627.78
455.5	27867.39
455.705	27926.78
455.911	26915.09
456.117	26659.09
456.323	25880.86
456.529	24922.41
456.735	25944.35
456.941	25198.89
457.147	25071.92
457.352	24291.64
457.558	24080.7
457.764	23880
457.97	23615.81
458.176	23097.67
458.381	23304.52
458.587	22057.31
458.793	21848.41
458.999	20797.81
459.204	22501.72
459.41	21846.37
459.616	20203.89
459.821	20347.25
460.027	20298.1
460.233	19782.01
460.438	18925.96
460.644	18997.64
460.85	18182.55
461.055	18022.81
461.261	17807.77
461.466	16581.04
461.672	16040.37
461.878	17160.61
462.083	16150.96
462.289	15698.36
462.494	15395.26
462.7	14825.93
462.905	14580.17
463.111	15122.88
463.316	15088.07
463.522	14840.26
463.727	14531.02
463.932	14762.44
464.138	14563.79
464.343	14705.1
464.549	14135.76
464.754	14580.17
464.959	14633.42
465.165	14397.9
465.37	13959.64
465.575	13324.77
465.781	13984.21
465.986	14086.61
466.191	13394.4
466.397	13320.67
466.602	12792.3
466.807	13122.02
467.012	13326.82
