Data from USB4F104151__165__14-44-47-037.txt Node

Date: Thu Mar 13 14:44:47 EDT 2025
User: louis
Spectrometer: USB4F10415
Trigger mode: 4
Integration Time (sec): 2.000000E-2
Scans to average: 1
Electric dark correction enabled: true
Nonlinearity correction enabled: false
Boxcar width: 0
XAxis mode: Wavelengths
Number of Pixels in Spectrum: 3648
>>>>>Begin Spectral Data<<<<<
178.204	-75.6
178.424	-75.6
178.644	-75.6
178.864	-112.47
179.084	-112.47
179.304	51.37
179.524	-67.41
179.744	-34.64
179.964	32.94
180.184	12.46
180.404	22.7
180.624	18.6
180.844	8.36
181.064	-12.12
181.283	45.23
181.503	-18.26
181.723	-59.22
181.943	-51.03
182.163	24.75
182.383	63.66
182.602	39.08
182.822	34.99
183.042	22.7
183.262	30.89
183.482	26.79
183.701	41.13
183.921	-10.07
184.141	16.55
184.361	51.37
184.58	22.7
184.8	39.08
185.02	55.47
185.239	2.22
185.459	47.27
185.679	-24.4
185.898	-40.79
186.118	6.31
186.338	10.41
186.557	47.27
186.777	34.99
186.997	55.47
187.216	-1.88
187.436	14.51
187.655	37.03
187.875	49.32
188.095	14.51
188.314	0.17
188.534	131.24
188.753	16.55
188.973	24.75
189.192	22.7
189.412	47.27
189.631	20.65
189.851	6.31
190.07	57.51
190.29	-22.36
190.509	32.94
190.729	14.51
190.948	104.62
191.168	6.31
191.387	26.79
191.607	-42.84
191.826	18.6
192.045	-10.07
192.265	0.17
192.484	-38.74
192.704	98.47
192.923	10.41
193.142	96.43
193.362	41.13
193.581	-26.45
193.8	-1.88
194.02	43.18
194.239	-20.31
194.458	18.6
194.678	59.56
194.897	41.13
195.116	82.09
195.335	6.31
195.555	-53.08
195.774	116.9
195.993	55.47
196.212	-3.93
196.432	39.08
196.651	65.71
196.87	10.41
197.089	22.7
197.308	2.22
197.528	18.6
197.747	-16.21
197.966	80.04
198.185	41.13
198.404	-53.08
198.623	123.05
198.842	123.05
199.062	45.23
199.281	96.43
199.5	139.43
199.719	-1.88
199.938	14.51
200.157	-1.88
200.376	57.51
200.595	16.55
200.814	30.89
201.033	-1.88
201.252	-8.02
201.471	37.03
201.69	71.85
201.909	129.19
202.128	67.75
202.347	55.47
202.566	80.04
202.785	6.31
203.004	-16.21
203.223	116.9
203.442	34.99
203.661	-75.6
203.879	18.6
204.098	71.85
204.317	-3.93
204.536	37.03
204.755	59.56
204.974	59.56
205.193	-1.88
205.411	96.43
205.63	-8.02
205.849	-8.02
206.068	49.32
206.287	22.7
206.505	73.9
206.724	6.31
206.943	28.84
207.162	45.23
207.381	-18.26
207.599	55.47
207.818	28.84
208.037	114.86
208.255	14.51
208.474	30.89
208.693	32.94
208.911	30.89
209.13	39.08
209.349	34.99
209.567	57.51
209.786	116.9
210.005	63.66
210.223	88.23
210.442	10.41
210.661	26.79
210.879	41.13
211.098	16.55
211.316	24.75
211.535	34.99
211.753	24.75
211.972	-8.02
212.191	22.7
212.409	84.14
212.628	100.52
212.846	0.17
213.065	26.79
213.283	39.08
213.502	71.85
213.72	6.31
213.938	112.81
214.157	-1.88
214.375	88.23
214.594	12.46
214.812	47.27
215.031	-8.02
215.249	8.36
215.467	80.04
215.686	-26.45
215.904	55.47
216.122	82.09
216.341	55.47
216.559	-5.97
216.778	63.66
216.996	32.94
217.214	24.75
217.432	8.36
217.651	-16.21
217.869	8.36
218.087	63.66
218.306	10.41
218.524	37.03
218.742	34.99
218.96	-5.97
219.179	34.99
219.397	22.7
219.615	100.52
219.833	12.46
220.051	57.51
220.27	30.89
220.488	6.31
220.706	28.84
220.924	-16.21
221.142	16.55
221.36	82.09
221.578	45.23
221.796	41.13
222.015	-51.03
222.233	84.14
222.451	73.9
222.669	34.99
222.887	20.65
223.105	-85.84
223.323	75.95
223.541	14.51
223.759	71.85
223.977	-26.45
224.195	71.85
224.413	26.79
224.631	67.75
224.849	32.94
225.067	123.05
225.285	-26.45
225.503	-22.36
225.721	0.17
225.939	-14.17
226.157	-42.84
226.375	98.47
226.592	-10.07
226.81	37.03
227.028	51.37
227.246	112.81
227.464	34.99
227.682	67.75
227.9	-1.88
228.117	53.42
228.335	137.38
228.553	6.31
228.771	55.47
228.989	-5.97
229.206	-8.02
229.424	-12.12
229.642	71.85
229.86	2.22
230.077	80.04
230.295	22.7
230.513	75.95
230.731	22.7
230.948	63.66
231.166	86.19
231.384	47.27
231.601	-1.88
231.819	102.57
232.037	-10.07
232.254	-14.17
232.472	43.18
232.689	34.99
232.907	47.27
233.125	96.43
233.342	51.37
233.56	-8.02
233.777	6.31
233.995	51.37
234.213	88.23
234.43	73.9
234.648	41.13
234.865	-14.17
235.083	26.79
235.3	47.27
235.518	30.89
235.735	55.47
235.953	24.75
236.17	69.8
236.388	-30.55
236.605	-10.07
236.822	80.04
237.04	26.79
237.257	43.18
237.475	-1.88
237.692	-3.93
237.909	-34.64
238.127	121
238.344	6.31
238.562	88.23
238.779	34.99
238.996	-36.69
239.214	100.52
239.431	67.75
239.648	-34.64
239.865	49.32
240.083	102.57
240.3	80.04
240.517	-1.88
240.735	37.03
240.952	100.52
241.169	28.84
241.386	96.43
241.603	32.94
241.821	6.31
242.038	32.94
242.255	63.66
242.472	-48.98
242.689	73.9
242.907	6.31
243.124	-18.26
243.341	-1.88
243.558	-18.26
243.775	-22.36
243.992	49.32
244.209	55.47
244.426	51.37
244.643	55.47
244.86	-10.07
245.078	59.56
245.295	39.08
245.512	-8.02
245.729	-8.02
245.946	32.94
246.163	8.36
246.38	75.95
246.597	10.41
246.814	41.13
247.031	55.47
247.248	-10.07
247.464	92.33
247.681	73.9
247.898	98.47
248.115	-34.64
248.332	-3.93
248.549	28.84
248.766	8.36
248.983	96.43
249.2	-22.36
249.417	41.13
249.633	-40.79
249.85	-1.88
250.067	-14.17
250.284	20.65
250.501	34.99
250.717	71.85
250.934	14.51
251.151	80.04
251.368	84.14
251.585	43.18
251.801	53.42
252.018	-28.5
252.235	61.61
252.451	47.27
252.668	18.6
252.885	49.32
253.102	53.42
253.318	10.41
253.535	6.31
253.752	63.66
253.968	-5.97
254.185	2.22
254.401	71.85
254.618	43.18
254.835	-40.79
255.051	63.66
255.268	43.18
255.484	-8.02
255.701	77.99
255.917	75.95
256.134	-10.07
256.351	39.08
256.567	14.51
256.784	14.51
257	6.31
257.217	59.56
257.433	67.75
257.65	24.75
257.866	104.62
258.082	30.89
258.299	-24.4
258.515	24.75
258.732	-40.79
258.948	6.31
259.165	32.94
259.381	63.66
259.597	-42.84
259.814	34.99
260.03	73.9
260.246	10.41
260.463	55.47
260.679	65.71
260.895	65.71
261.112	39.08
261.328	-38.74
261.544	88.23
261.761	59.56
261.977	12.46
262.193	-63.32
262.409	77.99
262.626	32.94
262.842	6.31
263.058	-32.6
263.274	41.13
263.49	43.18
263.707	71.85
263.923	32.94
264.139	6.31
264.355	24.75
264.571	49.32
264.787	-46.93
265.004	0.17
265.22	6.31
265.436	51.37
265.652	57.51
265.868	47.27
266.084	49.32
266.3	6.31
266.516	80.04
266.732	24.75
266.948	-10.07
267.164	14.51
267.38	6.31
267.596	20.65
267.812	80.04
268.028	131.24
268.244	-34.64
268.46	39.08
268.676	-24.4
268.892	14.51
269.108	71.85
269.324	47.27
269.54	-16.21
269.756	0.17
269.972	49.32
270.188	-1.88
270.403	-1.88
270.619	55.47
270.835	6.31
271.051	77.99
271.267	63.66
271.483	65.71
271.698	30.89
271.914	32.94
272.13	30.89
272.346	55.47
272.562	-34.64
272.777	65.71
272.993	-1.88
273.209	39.08
273.425	0.17
273.64	63.66
273.856	100.52
274.072	22.7
274.287	-42.84
274.503	-1.88
274.719	49.32
274.934	39.08
275.15	8.36
275.366	6.31
275.581	47.27
275.797	69.8
276.012	-16.21
276.228	22.7
276.444	10.41
276.659	32.94
276.875	-34.64
277.09	67.75
277.306	39.08
277.521	67.75
277.737	-26.45
277.952	8.36
278.168	6.31
278.383	-8.02
278.599	47.27
278.814	92.33
279.03	45.23
279.245	80.04
279.461	-24.4
279.676	104.62
279.892	69.8
280.107	47.27
280.322	22.7
280.538	47.27
280.753	2.22
280.969	55.47
281.184	39.08
281.399	65.71
281.615	24.75
281.83	75.95
282.045	-10.07
282.26	-8.02
282.476	43.18
282.691	39.08
282.906	-12.12
283.122	6.31
283.337	30.89
283.552	24.75
283.767	18.6
283.983	55.47
284.198	32.94
284.413	55.47
284.628	71.85
284.843	0.17
285.058	28.84
285.274	-26.45
285.489	-26.45
285.704	0.17
285.919	-16.21
286.134	73.9
286.349	18.6
286.564	43.18
286.779	10.41
286.995	-34.64
287.21	-42.84
287.425	69.8
287.64	-1.88
287.855	88.23
288.07	20.65
288.285	49.32
288.5	71.85
288.715	26.79
288.93	28.84
289.145	80.04
289.36	39.08
289.575	18.6
289.79	92.33
290.004	10.41
290.219	161.96
290.434	8.36
290.649	-34.64
290.864	30.89
291.079	-22.36
291.294	-18.26
291.509	34.99
291.724	63.66
291.938	32.94
292.153	82.09
292.368	22.7
292.583	2.22
292.798	47.27
293.012	-5.97
293.227	2.22
293.442	10.41
293.657	43.18
293.871	51.37
294.086	80.04
294.301	47.27
294.516	55.47
294.73	0.17
294.945	-30.55
295.16	32.94
295.374	98.47
295.589	14.51
295.804	-16.21
296.018	0.17
296.233	12.46
296.447	32.94
296.662	-10.07
296.877	39.08
297.091	10.41
297.306	24.75
297.52	2.22
297.735	32.94
297.949	43.18
298.164	71.85
298.378	-5.97
298.593	41.13
298.807	-5.97
299.022	114.86
299.236	77.99
299.451	65.71
299.665	100.52
299.88	43.18
300.094	65.71
300.309	43.18
300.523	-40.79
300.737	88.23
300.952	-59.22
301.166	45.23
301.381	41.13
301.595	47.27
301.809	10.41
302.024	6.31
302.238	30.89
302.452	96.43
302.667	100.52
302.881	139.43
303.095	-16.21
303.309	26.79
303.524	14.51
303.738	37.03
303.952	2.22
304.166	53.42
304.381	10.41
304.595	-26.45
304.809	32.94
305.023	-28.5
305.237	32.94
305.452	24.75
305.666	47.27
305.88	90.28
306.094	106.67
306.308	49.32
306.522	90.28
306.736	149.67
306.95	88.23
307.164	-34.64
307.379	61.61
307.593	127.14
307.807	24.75
308.021	30.89
308.235	-24.4
308.449	-14.17
308.663	-8.02
308.877	82.09
309.091	-14.17
309.305	45.23
309.519	-59.22
309.733	49.32
309.947	-18.26
310.161	80.04
310.374	49.32
310.588	80.04
310.802	-48.98
311.016	0.17
311.23	26.79
311.444	18.6
311.658	-18.26
311.872	14.51
312.085	65.71
312.299	30.89
312.513	96.43
312.727	65.71
312.941	57.51
313.154	121
313.368	14.51
313.582	77.99
313.796	30.89
314.009	22.7
314.223	98.47
314.437	22.7
314.651	53.42
314.864	30.89
315.078	16.55
315.292	6.31
315.505	47.27
315.719	59.56
315.933	22.7
316.146	12.46
316.36	16.55
316.573	82.09
316.787	34.99
317.001	86.19
317.214	24.75
317.428	-1.88
317.641	0.17
317.855	55.47
318.068	71.85
318.282	10.41
318.495	139.43
318.709	55.47
318.922	2.22
319.136	121
319.349	73.9
319.563	41.13
319.776	57.51
319.99	-42.84
320.203	63.66
320.417	8.36
320.63	6.31
320.843	30.89
321.057	59.56
321.27	0.17
321.483	63.66
321.697	16.55
321.91	6.31
322.124	63.66
322.337	65.71
322.55	80.04
322.763	63.66
322.977	6.31
323.19	-67.41
323.403	71.85
323.617	39.08
323.83	-1.88
324.043	92.33
324.256	32.94
324.469	-40.79
324.683	51.37
324.896	65.71
325.109	71.85
325.322	34.99
325.535	100.52
325.748	39.08
325.962	49.32
326.175	20.65
326.388	57.51
326.601	28.84
326.814	-10.07
327.027	-81.75
327.24	88.23
327.453	-65.36
327.666	8.36
327.879	47.27
328.092	41.13
328.305	96.43
328.518	4.27
328.731	-26.45
328.944	43.18
329.157	47.27
329.37	30.89
329.583	71.85
329.796	82.09
330.009	80.04
330.222	39.08
330.435	22.7
330.648	39.08
330.861	65.71
331.073	55.47
331.286	6.31
331.499	55.47
331.712	80.04
331.925	8.36
332.138	-34.64
332.35	63.66
332.563	22.7
332.776	106.67
332.989	-16.21
333.202	57.51
333.414	49.32
333.627	18.6
333.84	96.43
334.053	82.09
334.265	28.84
334.478	16.55
334.691	71.85
334.903	-5.97
335.116	6.31
335.329	32.94
335.541	96.43
335.754	114.86
335.966	32.94
336.179	43.18
336.392	0.17
336.604	37.03
336.817	26.79
337.029	63.66
337.242	30.89
337.454	84.14
337.667	43.18
337.88	41.13
338.092	69.8
338.305	67.75
338.517	-16.21
338.729	90.28
338.942	49.32
339.154	24.75
339.367	14.51
339.579	149.67
339.792	8.36
340.004	98.47
340.217	59.56
340.429	43.18
340.641	77.99
340.854	43.18
341.066	14.51
341.278	6.31
341.491	63.66
341.703	20.65
341.915	71.85
342.128	82.09
342.34	22.7
342.552	30.89
342.764	63.66
342.977	57.51
343.189	30.89
343.401	14.51
343.613	6.31
343.826	16.55
344.038	39.08
344.25	71.85
344.462	92.33
344.674	20.65
344.886	8.36
345.099	39.08
345.311	43.18
345.523	34.99
345.735	57.51
345.947	32.94
346.159	39.08
346.371	14.51
346.583	16.55
346.795	116.9
347.007	-3.93
347.219	8.36
347.431	30.89
347.643	80.04
347.855	-69.46
348.067	6.31
348.279	-71.51
348.491	26.79
348.703	82.09
348.915	18.6
349.127	26.79
349.339	41.13
349.551	39.08
349.763	63.66
349.975	-16.21
350.187	139.43
350.399	-1.88
350.61	123.05
350.822	24.75
351.034	88.23
351.246	34.99
351.458	71.85
351.669	18.6
351.881	82.09
352.093	104.62
352.305	100.52
352.517	57.51
352.728	112.81
352.94	-10.07
353.152	2.22
353.363	-22.36
353.575	98.47
353.787	84.14
353.999	75.95
354.21	63.66
354.422	55.47
354.633	2.22
354.845	96.43
355.057	73.9
355.268	24.75
355.48	80.04
355.692	2.22
355.903	20.65
356.115	26.79
356.326	-18.26
356.538	86.19
356.749	-5.97
356.961	32.94
357.172	8.36
357.384	20.65
357.595	104.62
357.807	2.22
358.018	55.47
358.23	129.19
358.441	41.13
358.653	51.37
358.864	22.7
359.075	41.13
359.287	94.38
359.498	71.85
359.709	82.09
359.921	30.89
360.132	75.95
360.344	6.31
360.555	16.55
360.766	63.66
360.977	12.46
361.189	73.9
361.4	-3.93
361.611	30.89
361.823	98.47
362.034	-1.88
362.245	0.17
362.456	39.08
362.667	71.85
362.879	47.27
363.09	80.04
363.301	-1.88
363.512	71.85
363.723	47.27
363.935	-10.07
364.146	2.22
364.357	32.94
364.568	80.04
364.779	32.94
364.99	63.66
365.201	34.99
365.412	32.94
365.623	22.7
365.834	59.56
366.045	14.51
366.256	135.34
366.467	55.47
366.678	-8.02
366.889	8.36
367.1	16.55
367.311	8.36
367.522	-32.6
367.733	8.36
367.944	26.79
368.155	26.79
368.366	34.99
368.577	88.23
368.788	67.75
368.999	0.17
369.209	-26.45
369.42	47.27
369.631	75.95
369.842	88.23
370.053	30.89
370.264	98.47
370.474	-26.45
370.685	39.08
370.896	24.75
371.107	22.7
371.317	-8.02
371.528	8.36
371.739	55.47
371.95	-5.97
372.16	63.66
372.371	22.7
372.582	63.66
372.792	80.04
373.003	80.04
373.214	49.32
373.424	86.19
373.635	-5.97
373.846	125.1
374.056	-1.88
374.267	30.89
374.477	24.75
374.688	-8.02
374.898	63.66
375.109	71.85
375.319	6.31
375.53	96.43
375.74	22.7
375.951	92.33
376.161	39.08
376.372	104.62
376.582	77.99
376.793	32.94
377.003	49.32
377.214	57.51
377.424	63.66
377.635	37.03
377.845	59.56
378.055	96.43
378.266	16.55
378.476	112.81
378.686	47.27
378.897	47.27
379.107	92.33
379.317	41.13
379.528	-24.4
379.738	-1.88
379.948	6.31
380.158	47.27
380.369	49.32
380.579	57.51
380.789	65.71
380.999	55.47
381.21	18.6
381.42	71.85
381.63	90.28
381.84	0.17
382.05	63.66
382.261	110.76
382.471	45.23
382.681	-1.88
382.891	96.43
383.101	-3.93
383.311	20.65
383.521	10.41
383.731	39.08
383.941	18.6
384.151	112.81
384.361	-5.97
384.571	-24.4
384.781	67.75
384.991	16.55
385.201	96.43
385.411	71.85
385.621	37.03
385.831	18.6
386.041	65.71
386.251	96.43
386.461	96.43
386.671	26.79
386.881	131.24
387.091	71.85
387.301	55.47
387.511	39.08
387.72	63.66
387.93	67.75
388.14	-1.88
388.35	75.95
388.56	106.67
388.769	73.9
388.979	34.99
389.189	-20.31
389.399	26.79
389.609	92.33
389.818	43.18
390.028	71.85
390.238	34.99
390.447	98.47
390.657	155.82
390.867	51.37
391.076	14.51
391.286	96.43
391.496	102.57
391.705	80.04
391.915	151.72
392.125	57.51
392.334	88.23
392.544	116.9
392.753	43.18
392.963	24.75
393.172	100.52
393.382	63.66
393.591	114.86
393.801	55.47
394.01	149.67
394.22	143.53
394.429	59.56
394.639	116.9
394.848	59.56
395.058	8.36
395.267	88.23
395.477	32.94
395.686	4.27
395.895	51.37
396.105	26.79
396.314	71.85
396.524	108.71
396.733	8.36
396.942	106.67
397.152	118.95
397.361	106.67
397.57	98.47
397.78	6.31
397.989	84.14
398.198	127.14
398.407	39.08
398.617	129.19
398.826	118.95
399.035	98.47
399.244	108.71
399.453	82.09
399.663	6.31
399.872	67.75
400.081	104.62
400.29	168.1
400.499	55.47
400.708	106.67
400.917	59.56
401.127	57.51
401.336	131.24
401.545	98.47
401.754	149.67
401.963	59.56
402.172	71.85
402.381	125.1
402.59	98.47
402.799	129.19
403.008	166.06
403.217	182.44
403.426	63.66
403.635	22.7
403.844	155.82
404.053	88.23
404.262	108.71
404.471	145.58
404.68	86.19
404.888	161.96
405.097	59.56
405.306	121
405.515	157.86
405.724	149.67
405.933	194.73
406.142	178.34
406.35	182.44
406.559	161.96
406.768	164.01
406.977	221.35
407.185	129.19
407.394	272.55
407.603	213.16
407.812	176.3
408.02	198.82
408.229	141.48
408.438	149.67
408.646	190.63
408.855	174.25
409.064	252.07
409.272	262.31
409.481	262.31
409.69	198.82
409.898	153.77
410.107	231.59
410.315	252.07
410.524	280.74
410.733	313.51
410.941	268.45
411.15	383.14
411.358	309.41
411.567	383.14
411.775	327.85
411.984	377
412.192	331.94
412.401	360.61
412.609	393.38
412.818	415.91
413.026	381.09
413.234	368.81
413.443	401.57
413.651	442.53
413.86	508.07
414.068	501.92
414.276	483.49
414.485	469.16
414.693	503.97
414.901	628.9
415.11	610.47
415.318	549.03
415.526	645.28
415.734	669.86
415.943	751.78
416.151	678.05
416.359	723.1
416.567	727.2
416.776	751.78
416.984	800.93
417.192	817.31
417.4	788.64
417.608	800.93
417.817	809.12
418.025	833.69
418.233	925.85
418.441	884.89
418.649	907.42
418.857	981.15
419.065	1118.36
419.273	1104.03
419.481	1087.64
419.689	1079.45
419.897	1157.27
420.105	1259.67
420.313	1237.14
420.521	1353.88
420.729	1353.88
420.937	1312.92
421.145	1362.07
421.353	1521.81
421.561	1603.73
421.769	1665.17
421.977	1693.84
422.185	1611.92
422.393	1736.85
422.601	1777.81
422.809	1898.64
423.017	1761.42
423.224	1843.34
423.432	2023.56
423.64	2031.76
423.848	2222.22
424.056	2269.32
424.263	2392.2
424.471	2324.62
424.679	2463.88
424.887	2414.73
425.094	2572.42
425.302	2556.04
425.51	2533.51
425.718	2965.63
425.925	2633.86
426.133	2918.53
426.341	3020.92
426.548	3119.23
426.756	3377.27
426.964	3135.61
427.171	3561.59
427.379	3487.86
427.586	3422.33
427.794	3678.32
428.001	3793.01
428.209	4012.14
428.417	3874.93
428.624	4028.53
428.832	4210.79
429.039	4044.91
429.247	4149.36
429.454	4474.98
429.662	4728.93
429.869	4511.85
430.076	4913.25
430.284	4741.22
430.491	4986.97
430.699	5316.7
430.906	5275.74
431.114	5253.21
431.321	5541.97
431.528	5517.4
431.736	6021.2
431.943	6207.56
432.15	6010.96
432.358	6094.93
432.565	6469.7
432.772	6312.01
432.979	6748.23
433.187	6748.23
433.394	6819.91
433.601	7424.06
433.808	7309.37
434.016	7358.52
434.223	7690.29
434.43	8235.05
434.637	8097.84
434.844	8417.32
435.052	8536.1
435.259	8618.02
435.466	8601.64
435.673	8499.24
435.88	8931.36
436.087	9445.4
436.294	9441.31
436.501	9361.44
436.708	9502.75
436.915	9721.88
437.122	10315.79
437.329	10283.02
437.537	10528.78
437.743	10887.17
437.95	10702.86
438.157	10983.43
438.364	11501.56
438.571	11644.92
438.778	11667.45
438.985	12892.13
439.192	12216.3
439.399	12517.36
439.606	12150.77
439.813	12963.81
440.02	14006.23
440.227	13383.65
440.433	13486.04
440.64	13676.51
440.847	13780.95
441.054	14030.8
441.261	14923.72
441.467	14735.31
441.674	14968.77
441.881	15622.08
442.088	15464.38
442.294	15376.32
442.501	16009.14
442.708	16111.54
442.914	16768.94
443.121	17405.86
443.328	16842.67
443.534	18347.92
443.741	17690.52
443.948	17684.38
444.154	18515.86
444.361	18902.92
444.568	18964.36
444.774	18683.79
444.981	18933.64
445.187	19687.29
445.394	20359.03
445.6	20486
445.807	21858.14
446.013	21208.94
446.22	21241.7
446.426	22103.9
446.633	22372.18
446.839	23320.39
447.046	22288.21
447.252	23637.83
447.459	23457.6
447.665	23226.18
447.871	24391.48
448.078	25534.25
448.284	24426.29
448.491	25181.99
448.697	26330.9
448.903	26629.91
449.11	26375.96
449.316	26283.8
449.522	26591
449.728	27461.38
449.935	27348.75
450.141	27692.8
450.347	28182.27
450.553	27326.22
450.76	27569.93
450.966	28858.1
451.172	28663.54
451.378	29249.26
451.584	28382.97
451.791	29224.68
451.997	29077.23
452.203	29949.67
452.409	29490.92
452.615	29503.21
452.821	28489.46
453.027	28151.55
453.233	29681.38
453.44	28567.29
453.646	28931.83
453.852	28741.36
454.058	29138.67
454.264	28622.58
454.47	29738.72
454.676	28743.41
454.882	29464.3
455.088	26887.95
455.294	27344.65
455.5	27793.15
455.705	28028.67
455.911	27146
456.117	26287.9
456.323	26244.89
456.529	24827.7
456.735	26005.28
456.941	25354.02
457.147	24962.86
457.352	24487.73
457.558	23899.97
457.764	24246.07
457.97	23664.45
458.176	23308.1
458.381	23197.51
458.587	22128.47
458.793	21882.72
458.999	20846.44
459.204	22269.78
459.41	21808.99
459.616	20223.86
459.821	20498.29
460.027	20088.7
460.233	19873.66
460.438	18915.21
460.644	18937.74
460.85	18063.26
461.055	18155.41
461.261	17844.12
461.466	16721.84
461.672	16109.49
461.878	16945.06
462.083	16017.33
462.289	15951.8
462.494	15574.97
462.7	15058.88
462.905	14503.89
463.111	15077.32
463.316	15040.45
463.522	14923.72
463.727	14692.3
463.932	14544.84
464.138	14561.23
464.343	14616.52
464.549	14401.49
464.754	14610.38
464.959	14645.2
465.165	14524.37
465.37	13791.19
465.575	13365.21
465.781	13828.06
465.986	14143.44
466.191	13479.9
466.397	13287.39
466.602	12812.26
466.807	13146.08
467.012	13303.78
467.218	13078.5
467.423	12924.9
467.628	13051.88
467.833	13502.43
468.038	13053.92
468.244	12543.98
