Data from USB4F104151__97__14-43-37-654.txt Node

Date: Thu Mar 13 14:43:37 EDT 2025
User: louis
Spectrometer: USB4F10415
Trigger mode: 4
Integration Time (sec): 2.000000E-2
Scans to average: 1
Electric dark correction enabled: true
Nonlinearity correction enabled: false
Boxcar width: 0
XAxis mode: Wavelengths
Number of Pixels in Spectrum: 3648
>>>>>Begin Spectral Data<<<<<
178.204	-101.03
178.424	-101.03
178.644	-101.03
178.864	-107.18
179.084	-127.66
179.304	-0.68
179.524	-35.5
179.744	60.76
179.964	9.56
180.184	-49.83
180.404	15.7
180.624	40.28
180.844	15.7
181.064	-29.35
181.283	1.37
181.503	-17.07
181.723	-10.92
181.943	-53.93
182.163	42.32
182.383	54.61
182.602	40.28
182.822	56.66
183.042	114
183.262	7.51
183.482	-29.35
183.701	32.08
183.921	25.94
184.141	9.56
184.361	66.9
184.58	-45.74
184.8	91.48
185.02	15.7
185.239	7.51
185.459	52.56
185.679	73.04
185.898	32.08
186.118	64.85
186.338	44.37
186.557	77.14
186.777	-23.21
186.997	27.99
187.216	54.61
187.436	56.66
187.655	56.66
187.875	75.09
188.095	75.09
188.314	64.85
188.534	32.08
188.753	-33.45
188.973	-6.83
189.192	75.09
189.412	87.38
189.631	32.08
189.851	126.29
190.07	73.04
190.29	27.99
190.509	40.28
190.729	40.28
190.948	114
191.168	105.81
191.387	56.66
191.607	-6.83
191.826	44.37
192.045	21.84
192.265	56.66
192.484	-0.68
192.704	40.28
192.923	5.46
193.142	124.24
193.362	68.95
193.581	56.66
193.8	83.28
194.02	52.56
194.239	50.52
194.458	32.08
194.678	71
194.897	56.66
195.116	23.89
195.335	19.8
195.555	-12.97
195.774	27.99
195.993	-12.97
196.212	60.76
196.432	23.89
196.651	58.71
196.87	-82.6
197.089	58.71
197.308	48.47
197.528	81.24
197.747	-35.5
197.966	56.66
198.185	-0.68
198.404	34.13
198.623	-6.83
198.842	40.28
199.062	85.33
199.281	73.04
199.5	-4.78
199.719	34.13
199.938	71
200.157	64.85
200.376	56.66
200.595	64.85
200.814	27.99
201.033	34.13
201.252	15.7
201.471	-17.07
201.69	44.37
201.909	7.51
202.128	21.84
202.347	-43.69
202.566	-37.55
202.785	17.75
203.004	3.41
203.223	154.96
203.442	48.47
203.661	19.8
203.879	50.52
204.098	85.33
204.317	27.99
204.536	73.04
204.755	7.51
204.974	58.71
205.193	38.23
205.411	89.43
205.63	3.41
205.849	60.76
206.068	68.95
206.287	85.33
206.505	77.14
206.724	7.51
206.943	23.89
207.162	1.37
207.381	64.85
207.599	34.13
207.818	42.32
208.037	42.32
208.255	40.28
208.474	150.87
208.693	30.04
208.911	56.66
209.13	62.8
209.349	48.47
209.567	-74.41
209.786	44.37
210.005	103.76
210.223	64.85
210.442	-0.68
210.661	97.62
210.879	95.57
211.098	30.04
211.316	15.7
211.535	81.24
211.753	109.91
211.972	-8.87
212.191	27.99
212.409	25.94
212.628	32.08
212.846	23.89
213.065	58.71
213.283	21.84
213.502	-4.78
213.72	64.85
213.938	56.66
214.157	64.85
214.375	36.18
214.594	25.94
214.812	-23.21
215.031	89.43
215.249	30.04
215.467	114
215.686	3.41
215.904	-6.83
216.122	-6.83
216.341	116.05
216.559	50.52
216.778	56.66
216.996	60.76
217.214	48.47
217.432	-15.02
217.651	11.61
217.869	-12.97
218.087	-6.83
218.306	60.76
218.524	13.65
218.742	73.04
218.96	48.47
219.179	42.32
219.397	19.8
219.615	81.24
219.833	42.32
220.051	-33.45
220.27	81.24
220.488	50.52
220.706	52.56
220.924	-74.41
221.142	56.66
221.36	11.61
221.578	-8.87
221.796	77.14
222.015	15.7
222.233	36.18
222.451	50.52
222.669	77.14
222.887	21.84
223.105	1.37
223.323	11.61
223.541	-17.07
223.759	95.57
223.977	97.62
224.195	93.52
224.413	101.72
224.631	48.47
224.849	58.71
225.067	66.9
225.285	68.95
225.503	124.24
225.721	36.18
225.939	-37.55
226.157	-17.07
226.375	50.52
226.592	15.7
226.81	-12.97
227.028	93.52
227.246	89.43
227.464	5.46
227.682	89.43
227.9	48.47
228.117	99.67
228.335	48.47
228.553	97.62
228.771	23.89
228.989	66.9
229.206	11.61
229.424	81.24
229.642	1.37
229.86	50.52
230.077	40.28
230.295	124.24
230.513	107.86
230.731	48.47
230.948	40.28
231.166	27.99
231.384	81.24
231.601	5.46
231.819	62.8
232.037	11.61
232.254	-25.26
232.472	-4.78
232.689	73.04
232.907	68.95
233.125	-84.65
233.342	44.37
233.56	32.08
233.777	7.51
233.995	-6.83
234.213	97.62
234.43	9.56
234.648	77.14
234.865	-8.87
235.083	56.66
235.3	32.08
235.518	15.7
235.735	91.48
235.953	38.23
236.17	40.28
236.388	40.28
236.605	3.41
236.822	-0.68
237.04	-27.31
237.257	42.32
237.475	-10.92
237.692	40.28
237.909	-31.4
238.127	23.89
238.344	56.66
238.562	23.89
238.779	17.75
238.996	-33.45
239.214	9.56
239.431	81.24
239.648	15.7
239.865	48.47
240.083	7.51
240.3	27.99
240.517	30.04
240.735	23.89
240.952	75.09
241.169	23.89
241.386	36.18
241.603	77.14
241.821	-12.97
242.038	46.42
242.255	-17.07
242.472	46.42
242.689	64.85
242.907	23.89
243.124	-27.31
243.341	56.66
243.558	7.51
243.775	52.56
243.992	56.66
244.209	60.76
244.426	52.56
244.643	73.04
244.86	-43.69
245.078	107.86
245.295	60.76
245.512	64.85
245.729	23.89
245.946	56.66
246.163	58.71
246.38	-27.31
246.597	42.32
246.814	36.18
247.031	-29.35
247.248	75.09
247.464	-33.45
247.681	25.94
247.898	46.42
248.115	23.89
248.332	-45.74
248.549	99.67
248.766	105.81
248.983	21.84
249.2	-25.26
249.417	-10.92
249.633	9.56
249.85	68.95
250.067	-0.68
250.284	64.85
250.501	7.51
250.717	27.99
250.934	-12.97
251.151	44.37
251.368	23.89
251.585	58.71
251.801	21.84
252.018	-0.68
252.235	60.76
252.451	-49.83
252.668	50.52
252.885	87.38
253.102	7.51
253.318	7.51
253.535	-0.68
253.752	23.89
253.968	44.37
254.185	87.38
254.401	-21.16
254.618	36.18
254.835	48.47
255.051	97.62
255.268	60.76
255.484	83.28
255.701	75.09
255.917	42.32
256.134	19.8
256.351	-29.35
256.567	50.52
256.784	11.61
257	32.08
257.217	1.37
257.433	77.14
257.65	64.85
257.866	89.43
258.082	7.51
258.299	15.7
258.515	-6.83
258.732	32.08
258.948	27.99
259.165	-6.83
259.381	-23.21
259.597	79.19
259.814	25.94
260.03	34.13
260.246	27.99
260.463	101.72
260.679	34.13
260.895	27.99
261.112	118.1
261.328	48.47
261.544	44.37
261.761	73.04
261.977	64.85
262.193	17.75
262.409	38.23
262.626	58.71
262.842	75.09
263.058	-4.78
263.274	73.04
263.49	-12.97
263.707	81.24
263.923	17.75
264.139	-4.78
264.355	32.08
264.571	140.63
264.787	23.89
265.004	97.62
265.22	-23.21
265.436	27.99
265.652	34.13
265.868	-8.87
266.084	23.89
266.3	52.56
266.516	17.75
266.732	75.09
266.948	-17.07
267.164	75.09
267.38	40.28
267.596	58.71
267.812	124.24
268.028	50.52
268.244	77.14
268.46	64.85
268.676	7.51
268.892	95.57
269.108	23.89
269.324	11.61
269.54	-17.07
269.756	-25.26
269.972	23.89
270.188	107.86
270.403	7.51
270.619	7.51
270.835	23.89
271.051	66.9
271.267	32.08
271.483	9.56
271.698	50.52
271.914	46.42
272.13	38.23
272.346	81.24
272.562	15.7
272.777	15.7
272.993	-23.21
273.209	-17.07
273.425	-21.16
273.64	-21.16
273.856	25.94
274.072	56.66
274.287	11.61
274.503	56.66
274.719	32.08
274.934	-27.31
275.15	-55.98
275.366	-31.4
275.581	50.52
275.797	1.37
276.012	-8.87
276.228	101.72
276.444	77.14
276.659	91.48
276.875	101.72
277.09	134.48
277.306	11.61
277.521	85.33
277.737	-12.97
277.952	124.24
278.168	93.52
278.383	52.56
278.599	46.42
278.814	85.33
279.03	7.51
279.245	85.33
279.461	99.67
279.676	34.13
279.892	19.8
280.107	32.08
280.322	7.51
280.538	62.8
280.753	73.04
280.969	34.13
281.184	97.62
281.399	114
281.615	3.41
281.83	-12.97
282.045	-41.64
282.26	-0.68
282.476	-33.45
282.691	-0.68
282.906	30.04
283.122	64.85
283.337	19.8
283.552	52.56
283.767	50.52
283.983	48.47
284.198	44.37
284.413	85.33
284.628	-39.59
284.843	5.46
285.058	32.08
285.274	-4.78
285.489	-6.83
285.704	64.85
285.919	25.94
286.134	77.14
286.349	44.37
286.564	27.99
286.779	-45.74
286.995	68.95
287.21	27.99
287.425	58.71
287.64	25.94
287.855	19.8
288.07	-41.64
288.285	154.96
288.5	11.61
288.715	73.04
288.93	124.24
289.145	-25.26
289.36	7.51
289.575	40.28
289.79	40.28
290.004	34.13
290.219	62.8
290.434	52.56
290.649	15.7
290.864	40.28
291.079	50.52
291.294	30.04
291.509	64.85
291.724	50.52
291.938	-62.12
292.153	15.7
292.368	-39.59
292.583	19.8
292.798	138.58
293.012	23.89
293.227	11.61
293.442	77.14
293.657	-8.87
293.871	138.58
294.086	40.28
294.301	75.09
294.516	81.24
294.73	21.84
294.945	9.56
295.16	64.85
295.374	73.04
295.589	105.81
295.804	-10.92
296.018	25.94
296.233	114
296.447	36.18
296.662	-17.07
296.877	107.86
297.091	93.52
297.306	32.08
297.52	3.41
297.735	23.89
297.949	44.37
298.164	56.66
298.378	32.08
298.593	-0.68
298.807	66.9
299.022	42.32
299.236	56.66
299.451	25.94
299.665	40.28
299.88	42.32
300.094	56.66
300.309	50.52
300.523	42.32
300.737	60.76
300.952	48.47
301.166	75.09
301.381	-6.83
301.595	44.37
301.809	50.52
302.024	19.8
302.238	77.14
302.452	99.67
302.667	19.8
302.881	73.04
303.095	11.61
303.309	11.61
303.524	68.95
303.738	9.56
303.952	56.66
304.166	89.43
304.381	-43.69
304.595	91.48
304.809	19.8
305.023	52.56
305.237	19.8
305.452	62.8
305.666	83.28
305.88	25.94
306.094	40.28
306.308	15.7
306.522	107.86
306.736	11.61
306.95	3.41
307.164	83.28
307.379	30.04
307.593	77.14
307.807	23.89
308.021	15.7
308.235	136.53
308.449	21.84
308.663	56.66
308.877	81.24
309.091	146.77
309.305	-6.83
309.519	-49.83
309.733	42.32
309.947	25.94
310.161	109.91
310.374	85.33
310.588	114
310.802	-8.87
311.016	64.85
311.23	60.76
311.444	34.13
311.658	23.89
311.872	97.62
312.085	36.18
312.299	81.24
312.513	116.05
312.727	-10.92
312.941	34.13
313.154	107.86
313.368	91.48
313.582	64.85
313.796	27.99
314.009	73.04
314.223	95.57
314.437	25.94
314.651	99.67
314.864	34.13
315.078	-35.5
315.292	15.7
315.505	9.56
315.719	11.61
315.933	42.32
316.146	32.08
316.36	34.13
316.573	64.85
316.787	27.99
317.001	-0.68
317.214	109.91
317.428	64.85
317.641	25.94
317.855	66.9
318.068	48.47
318.282	19.8
318.495	114
318.709	109.91
318.922	73.04
319.136	75.09
319.349	150.87
319.563	64.85
319.776	66.9
319.99	-25.26
320.203	7.51
320.417	91.48
320.63	17.75
320.843	157.01
321.057	19.8
321.27	17.75
321.483	27.99
321.697	52.56
321.91	77.14
322.124	73.04
322.337	44.37
322.55	89.43
322.763	23.89
322.977	56.66
323.19	15.7
323.403	40.28
323.617	38.23
323.83	-39.59
324.043	9.56
324.256	23.89
324.469	-6.83
324.683	42.32
324.896	60.76
325.109	97.62
325.322	56.66
325.535	122.2
325.748	68.95
325.962	40.28
326.175	130.39
326.388	60.76
326.601	32.08
326.814	42.32
327.027	27.99
327.24	120.15
327.453	7.51
327.666	15.7
327.879	7.51
328.092	114
328.305	42.32
328.518	68.95
328.731	17.75
328.944	23.89
329.157	25.94
329.37	3.41
329.583	118.1
329.796	60.76
330.009	60.76
330.222	40.28
330.435	-21.16
330.648	38.23
330.861	130.39
331.073	23.89
331.286	81.24
331.499	27.99
331.712	-53.93
331.925	56.66
332.138	52.56
332.35	91.48
332.563	11.61
332.776	111.96
332.989	25.94
333.202	-15.02
333.414	11.61
333.627	56.66
333.84	19.8
334.053	48.47
334.265	11.61
334.478	-4.78
334.691	-4.78
334.903	32.08
335.116	3.41
335.329	-21.16
335.541	68.95
335.754	34.13
335.966	1.37
336.179	19.8
336.392	19.8
336.604	25.94
336.817	52.56
337.029	40.28
337.242	3.41
337.454	7.51
337.667	93.52
337.88	48.47
338.092	-0.68
338.305	25.94
338.517	32.08
338.729	32.08
338.942	52.56
339.154	81.24
339.367	-8.87
339.579	23.89
339.792	32.08
340.004	46.42
340.217	-25.26
340.429	48.47
340.641	34.13
340.854	40.28
341.066	-8.87
341.278	66.9
341.491	95.57
341.703	40.28
341.915	-15.02
342.128	1.37
342.34	30.04
342.552	122.2
342.764	81.24
342.977	-4.78
343.189	23.89
343.401	58.71
343.613	34.13
343.826	23.89
344.038	34.13
344.25	73.04
344.462	19.8
344.674	79.19
344.886	34.13
345.099	122.2
345.311	17.75
345.523	15.7
345.735	-4.78
345.947	64.85
346.159	-25.26
346.371	58.71
346.583	-17.07
346.795	99.67
347.007	-15.02
347.219	109.91
347.431	66.9
347.643	66.9
347.855	44.37
348.067	48.47
348.279	83.28
348.491	101.72
348.703	68.95
348.915	44.37
349.127	36.18
349.339	32.08
349.551	-21.16
349.763	-17.07
349.975	44.37
350.187	44.37
350.399	32.08
350.61	7.51
350.822	21.84
351.034	93.52
351.246	23.89
351.458	52.56
351.669	81.24
351.881	48.47
352.093	68.95
352.305	7.51
352.517	36.18
352.728	83.28
352.94	48.47
353.152	-0.68
353.363	44.37
353.575	52.56
353.787	75.09
353.999	-17.07
354.21	23.89
354.422	36.18
354.633	-15.02
354.845	93.52
355.057	30.04
355.268	42.32
355.48	11.61
355.692	48.47
355.903	48.47
356.115	-31.4
356.326	3.41
356.538	97.62
356.749	48.47
356.961	120.15
357.172	17.75
357.384	-47.79
357.595	105.81
357.807	64.85
358.018	48.47
358.23	23.89
358.441	77.14
358.653	64.85
358.864	85.33
359.075	48.47
359.287	23.89
359.498	68.95
359.709	50.52
359.921	-25.26
360.132	60.76
360.344	66.9
360.555	40.28
360.766	36.18
360.977	83.28
361.189	83.28
361.4	-43.69
361.611	58.71
361.823	81.24
362.034	15.7
362.245	50.52
362.456	15.7
362.667	56.66
362.879	15.7
363.09	73.04
363.301	34.13
363.512	91.48
363.723	36.18
363.935	40.28
364.146	89.43
364.357	17.75
364.568	93.52
364.779	-35.5
364.99	40.28
365.201	15.7
365.412	81.24
365.623	15.7
365.834	85.33
366.045	93.52
366.256	38.23
366.467	64.85
366.678	-21.16
366.889	62.8
367.1	38.23
367.311	50.52
367.522	52.56
367.733	27.99
367.944	126.29
368.155	9.56
368.366	-17.07
368.577	85.33
368.788	81.24
368.999	73.04
369.209	48.47
369.42	107.86
369.631	142.68
369.842	122.2
370.053	-39.59
370.264	109.91
370.474	42.32
370.685	42.32
370.896	122.2
371.107	81.24
371.317	73.04
371.528	126.29
371.739	-0.68
371.95	122.2
372.16	75.09
372.371	81.24
372.582	101.72
372.792	83.28
373.003	89.43
373.214	93.52
373.424	-0.68
373.635	15.7
373.846	177.49
374.056	60.76
374.267	58.71
374.477	-15.02
374.688	32.08
374.898	83.28
375.109	34.13
375.319	83.28
375.53	93.52
375.74	107.86
375.951	105.81
376.161	107.86
376.372	23.89
376.582	-60.07
376.793	73.04
377.003	15.7
377.214	48.47
377.424	-8.87
377.635	77.14
377.845	83.28
378.055	93.52
378.266	5.46
378.476	91.48
378.686	13.65
378.897	111.96
379.107	23.89
379.317	48.47
379.528	-4.78
379.738	77.14
379.948	40.28
380.158	105.81
380.369	99.67
380.579	122.2
380.789	60.76
380.999	93.52
381.21	114
381.42	111.96
381.63	42.32
381.84	54.61
382.05	91.48
382.261	-0.68
382.471	40.28
382.681	38.23
382.891	81.24
383.101	81.24
383.311	15.7
383.521	58.71
383.731	107.86
383.941	87.38
384.151	62.8
384.361	19.8
384.571	44.37
384.781	66.9
384.991	116.05
385.201	68.95
385.411	40.28
385.621	56.66
385.831	93.52
386.041	107.86
386.251	81.24
386.461	66.9
386.671	-33.45
386.881	64.85
387.091	19.8
387.301	73.04
387.511	36.18
387.72	140.63
387.93	-15.02
388.14	17.75
388.35	48.47
388.56	73.04
388.769	64.85
388.979	75.09
389.189	73.04
389.399	79.19
389.609	83.28
389.818	130.39
390.028	64.85
390.238	36.18
390.447	83.28
390.657	64.85
390.867	56.66
391.076	25.94
391.286	91.48
391.496	60.76
391.705	97.62
391.915	46.42
392.125	32.08
392.334	-0.68
392.544	114
392.753	48.47
392.963	23.89
393.172	48.47
393.382	68.95
393.591	97.62
393.801	64.85
394.01	114
394.22	103.76
394.429	126.29
394.639	81.24
394.848	73.04
395.058	23.89
395.267	91.48
395.477	103.76
395.686	105.81
395.895	122.2
396.105	146.77
396.314	56.66
396.524	81.24
396.733	142.68
396.942	48.47
397.152	11.61
397.361	50.52
397.57	71
397.78	146.77
397.989	111.96
398.198	171.35
398.407	91.48
398.617	116.05
398.826	128.34
399.035	89.43
399.244	107.86
399.453	77.14
399.663	23.89
399.872	52.56
400.081	124.24
400.29	152.91
400.499	89.43
400.708	107.86
400.917	54.61
401.127	118.1
401.336	44.37
401.545	214.35
401.754	222.55
401.963	99.67
402.172	189.78
402.381	50.52
402.59	99.67
402.799	44.37
403.008	157.01
403.217	171.35
403.426	114
403.635	154.96
403.844	134.48
404.053	95.57
404.262	64.85
404.471	157.01
404.68	122.2
404.888	169.3
405.097	122.2
405.306	181.59
405.515	179.54
405.724	81.24
405.933	142.68
406.142	169.3
406.35	243.03
406.559	126.29
406.768	195.92
406.977	204.11
407.185	167.25
407.394	228.69
407.603	195.92
407.812	222.55
408.02	167.25
408.229	167.25
408.438	269.65
408.646	148.82
408.855	195.92
409.064	195.92
409.272	245.07
409.481	206.16
409.69	247.12
409.898	216.4
410.107	214.35
410.315	386.38
410.524	286.03
410.733	335.18
410.941	372.05
411.15	339.28
411.358	312.66
411.567	370
411.775	392.53
411.984	435.53
412.192	392.53
412.401	421.2
412.609	490.83
412.818	478.54
413.026	433.49
413.234	468.3
413.443	425.29
413.651	392.53
413.86	474.45
414.068	539.98
414.276	609.61
414.485	501.07
414.693	580.94
414.901	630.09
415.11	621.9
415.318	597.32
415.526	640.33
415.734	695.63
415.943	695.63
416.151	724.3
416.359	748.87
416.567	728.39
416.776	806.22
416.984	755.02
417.192	929.1
417.4	806.22
417.608	933.19
417.817	953.67
418.025	982.34
418.233	1080.64
418.441	1015.11
418.649	1023.3
418.857	1135.94
419.065	1254.72
419.273	1064.26
419.481	1219.91
419.689	1154.37
419.897	1424.7
420.105	1420.61
420.313	1359.17
420.521	1432.9
420.729	1484.09
420.937	1473.85
421.145	1537.34
421.353	1692.99
421.561	1680.7
421.769	1705.28
421.977	1797.43
422.185	1711.42
422.393	1793.34
422.601	1912.12
422.809	1844.54
423.017	2018.61
423.224	2000.18
423.432	2129.2
423.64	2106.68
423.848	2434.35
424.056	2235.7
424.263	2508.08
424.471	2530.61
424.679	2563.37
424.887	2645.29
425.094	2649.39
425.302	2719.02
425.51	2755.88
425.718	2954.54
425.925	3050.79
426.133	3112.23
426.341	3220.77
426.548	3515.68
426.756	3439.9
426.964	3593.5
427.171	3599.65
427.379	3921.18
427.586	3792.16
427.794	3869.98
428.001	4070.68
428.209	4201.75
428.417	4097.3
428.624	4545.81
428.832	4533.52
429.039	4525.33
429.247	4384.02
429.454	4916.49
429.662	5215.49
429.869	4865.29
430.076	5221.64
430.284	5055.75
430.491	5287.17
430.699	5485.83
430.906	5547.26
431.114	5758.21
431.321	5866.75
431.528	5973.24
431.736	6186.23
431.943	6771.95
432.15	6386.93
432.358	6388.98
432.565	6941.93
432.772	6866.16
432.979	7212.26
433.187	7152.87
433.394	7224.55
433.601	7920.86
433.808	7896.28
434.016	7808.22
434.223	8101.08
434.43	8707.28
434.637	8332.5
434.844	8920.27
435.052	9235.66
435.259	8981.71
435.466	9131.21
435.673	9108.68
435.88	9628.87
436.087	10083.52
436.294	10183.87
436.501	9870.53
436.708	10177.72
436.915	10462.39
437.122	11035.82
437.329	10945.71
437.537	11328.68
437.743	11625.64
437.95	11293.86
438.157	11861.15
438.364	12188.83
438.571	12188.83
438.778	12426.39
438.985	13608.07
439.192	12926.1
439.399	13339.79
439.606	12881.04
439.813	14058.62
440.02	14693.49
440.227	14371.96
440.433	14427.26
440.64	14574.71
440.847	14691.45
441.054	14859.38
441.261	15848.55
441.467	15815.78
441.674	16088.16
441.881	16637.02
442.088	16600.15
442.294	16444.51
442.501	17026.13
442.708	17128.53
442.914	17509.45
443.121	18584.63
443.328	18119.74
443.534	19328.05
443.741	18641.98
443.948	18308.16
444.154	20020.26
444.361	19500.08
444.568	19739.69
444.774	19911.72
444.981	20141.09
445.187	20790.3
445.394	21601.29
445.6	21408.78
445.807	23862.25
446.013	22389.76
446.22	22612.99
446.426	23557.1
446.633	23972.84
446.839	24806.36
447.046	23610.35
447.252	25005.02
447.459	24927.19
447.665	24792.03
447.871	26037.19
448.078	27059.13
448.284	25832.4
448.491	26723.26
448.697	27431.86
448.903	28154.79
449.11	28246.95
449.316	27661.23
449.522	28189.61
449.728	28824.48
449.935	29465.49
450.141	29098.91
450.347	30032.78
450.553	29146.01
450.76	29086.62
450.966	30538.63
451.172	30024.59
451.378	30718.85
451.584	30028.68
451.791	30636.93
451.997	31081.34
452.203	31560.56
452.409	31660.91
452.615	31359.86
452.821	30077.83
453.027	30155.66
453.233	31454.07
453.44	30270.34
453.646	30669.7
453.852	30782.34
454.058	31243.13
454.264	30043.02
454.47	30958.46
454.676	30167.94
454.882	31294.33
455.088	28615.58
455.294	28814.24
455.5	29545.36
455.705	29633.43
455.911	28531.62
456.117	28203.94
456.323	28087.21
456.529	26272.71
456.735	27782.06
456.941	26868.67
457.147	26504.13
457.352	25455.57
457.558	25453.52
457.764	25496.53
457.97	24929.24
458.176	24673.24
458.381	24622.05
458.587	23276.53
458.793	23559.15
458.999	22445.05
459.204	23763.95
459.41	23143.41
459.616	21535.76
459.821	21918.73
460.027	21691.4
460.233	21242.9
460.438	19897.38
460.644	19977.25
460.85	19119.15
461.055	18953.27
461.261	19186.74
461.466	17499.21
461.672	17046.61
461.878	18232.38
462.083	17062.99
462.289	16997.46
462.494	16551
462.7	15975.52
462.905	15393.9
463.111	16096.35
463.316	16059.49
463.522	15492.2
463.727	15783.01
463.932	15770.72
464.138	15664.23
464.343	15508.58
464.549	15213.68
464.754	15717.48
464.959	15498.34
465.165	15371.37
465.37	14765.17
465.575	14349.43
465.781	14699.64
465.986	14838.9
466.191	14498.94
466.397	14122.11
466.602	13446.28
466.807	14091.39
467.012	13943.94
467.218	13665.41
467.423	13778.05
467.628	13735.04
467.833	14605.43
468.038	13939.84
