Data from USB4F104151__89__14-43-33-555.txt Node

Date: Thu Mar 13 14:43:33 EDT 2025
User: louis
Spectrometer: USB4F10415
Trigger mode: 4
Integration Time (sec): 2.000000E-2
Scans to average: 1
Electric dark correction enabled: true
Nonlinearity correction enabled: false
Boxcar width: 0
XAxis mode: Wavelengths
Number of Pixels in Spectrum: 3648
>>>>>Begin Spectral Data<<<<<
178.204	-132.95
178.424	-132.95
178.644	-132.95
178.864	-42.84
179.084	-48.98
179.304	-18.26
179.524	-12.12
179.744	-26.45
179.964	14.51
180.184	34.99
180.404	16.55
180.624	-24.4
180.844	-14.17
181.064	-10.07
181.283	-26.45
181.503	41.13
181.723	24.75
181.943	10.41
182.163	57.51
182.383	22.7
182.602	47.27
182.822	110.76
183.042	94.38
183.262	-5.97
183.482	57.51
183.701	2.22
183.921	30.89
184.141	88.23
184.361	131.24
184.58	14.51
184.8	71.85
185.02	-10.07
185.239	131.24
185.459	86.19
185.679	63.66
185.898	34.99
186.118	112.81
186.338	-26.45
186.557	34.99
186.777	-40.79
186.997	55.47
187.216	26.79
187.436	49.32
187.655	153.77
187.875	8.36
188.095	12.46
188.314	63.66
188.534	71.85
188.753	-32.6
188.973	65.71
189.192	16.55
189.412	-24.4
189.631	0.17
189.851	129.19
190.07	24.75
190.29	-3.93
190.509	-1.88
190.729	123.05
190.948	82.09
191.168	164.01
191.387	-1.88
191.607	71.85
191.826	0.17
192.045	55.47
192.265	84.14
192.484	24.75
192.704	-38.74
192.923	-57.17
193.142	139.43
193.362	49.32
193.581	47.27
193.8	-8.02
194.02	6.31
194.239	-30.55
194.458	22.7
194.678	-3.93
194.897	112.81
195.116	39.08
195.335	47.27
195.555	34.99
195.774	18.6
195.993	133.29
196.212	8.36
196.432	65.71
196.651	43.18
196.87	-16.21
197.089	88.23
197.308	88.23
197.528	71.85
197.747	16.55
197.966	16.55
198.185	82.09
198.404	30.89
198.623	82.09
198.842	32.94
199.062	129.19
199.281	67.75
199.5	26.79
199.719	-34.64
199.938	61.61
200.157	43.18
200.376	-10.07
200.595	61.61
200.814	30.89
201.033	-38.74
201.252	39.08
201.471	88.23
201.69	22.7
201.909	92.33
202.128	80.04
202.347	49.32
202.566	63.66
202.785	63.66
203.004	51.37
203.223	92.33
203.442	10.41
203.661	67.75
203.879	69.8
204.098	104.62
204.317	-55.12
204.536	92.33
204.755	-5.97
204.974	49.32
205.193	-10.07
205.411	80.04
205.63	80.04
205.849	22.7
206.068	6.31
206.287	55.47
206.505	90.28
206.724	24.75
206.943	-77.65
207.162	123.05
207.381	22.7
207.599	30.89
207.818	-8.02
208.037	34.99
208.255	-3.93
208.474	55.47
208.693	98.47
208.911	59.56
209.13	26.79
209.349	65.71
209.567	30.89
209.786	57.51
210.005	71.85
210.223	88.23
210.442	-42.84
210.661	63.66
210.879	22.7
211.098	49.32
211.316	-8.02
211.535	55.47
211.753	20.65
211.972	55.47
212.191	133.29
212.409	55.47
212.628	12.46
212.846	14.51
213.065	45.23
213.283	82.09
213.502	-8.02
213.72	-24.4
213.938	80.04
214.157	-20.31
214.375	123.05
214.594	37.03
214.812	8.36
215.031	-10.07
215.249	100.52
215.467	51.37
215.686	6.31
215.904	24.75
216.122	55.47
216.341	18.6
216.559	73.9
216.778	112.81
216.996	104.62
217.214	24.75
217.432	-22.36
217.651	20.65
217.869	24.75
218.087	-3.93
218.306	102.57
218.524	53.42
218.742	47.27
218.96	59.56
219.179	55.47
219.397	75.95
219.615	49.32
219.833	82.09
220.051	-10.07
220.27	51.37
220.488	6.31
220.706	55.47
220.924	39.08
221.142	26.79
221.36	-22.36
221.578	49.32
221.796	26.79
222.015	47.27
222.233	30.89
222.451	63.66
222.669	22.7
222.887	65.71
223.105	-10.07
223.323	-10.07
223.541	39.08
223.759	116.9
223.977	80.04
224.195	63.66
224.413	65.71
224.631	88.23
224.849	10.41
225.067	88.23
225.285	30.89
225.503	28.84
225.721	-18.26
225.939	22.7
226.157	65.71
226.375	178.34
226.592	28.84
226.81	-14.17
227.028	57.51
227.246	22.7
227.464	2.22
227.682	106.67
227.9	65.71
228.117	6.31
228.335	-14.17
228.553	45.23
228.771	63.66
228.989	71.85
229.206	51.37
229.424	63.66
229.642	16.55
229.86	43.18
230.077	39.08
230.295	96.43
230.513	116.9
230.731	100.52
230.948	75.95
231.166	75.95
231.384	28.84
231.601	75.95
231.819	55.47
232.037	6.31
232.254	16.55
232.472	47.27
232.689	32.94
232.907	80.04
233.125	34.99
233.342	-16.21
233.56	-8.02
233.777	51.37
233.995	18.6
234.213	100.52
234.43	114.86
234.648	71.85
234.865	22.7
235.083	63.66
235.3	96.43
235.518	32.94
235.735	32.94
235.953	47.27
236.17	-24.4
236.388	55.47
236.605	32.94
236.822	96.43
237.04	32.94
237.257	24.75
237.475	49.32
237.692	59.56
237.909	10.41
238.127	49.32
238.344	47.27
238.562	4.27
238.779	55.47
238.996	24.75
239.214	8.36
239.431	96.43
239.648	-34.64
239.865	34.99
240.083	18.6
240.3	92.33
240.517	102.57
240.735	-1.88
240.952	114.86
241.169	82.09
241.386	59.56
241.603	69.8
241.821	-40.79
242.038	67.75
242.255	24.75
242.472	-8.02
242.689	26.79
242.907	49.32
243.124	10.41
243.341	6.31
243.558	26.79
243.775	67.75
243.992	-10.07
244.209	108.71
244.426	45.23
244.643	88.23
244.86	55.47
245.078	22.7
245.295	14.51
245.512	32.94
245.729	22.7
245.946	32.94
246.163	63.66
246.38	18.6
246.597	26.79
246.814	63.66
247.031	53.42
247.248	82.09
247.464	39.08
247.681	43.18
247.898	108.71
248.115	47.27
248.332	34.99
248.549	39.08
248.766	100.52
248.983	57.51
249.2	37.03
249.417	84.14
249.633	39.08
249.85	63.66
250.067	-18.26
250.284	-3.93
250.501	51.37
250.717	141.48
250.934	26.79
251.151	39.08
251.368	18.6
251.585	61.61
251.801	67.75
252.018	55.47
252.235	-14.17
252.451	-30.55
252.668	55.47
252.885	34.99
253.102	-1.88
253.318	77.99
253.535	84.14
253.752	-5.97
253.968	-18.26
254.185	26.79
254.401	59.56
254.618	26.79
254.835	18.6
255.051	26.79
255.268	14.51
255.484	86.19
255.701	14.51
255.917	82.09
256.134	32.94
256.351	-1.88
256.567	47.27
256.784	53.42
257	88.23
257.217	88.23
257.433	59.56
257.65	59.56
257.866	30.89
258.082	-26.45
258.299	-34.64
258.515	98.47
258.732	6.31
258.948	-8.02
259.165	98.47
259.381	90.28
259.597	-14.17
259.814	14.51
260.03	12.46
260.246	26.79
260.463	96.43
260.679	92.33
260.895	26.79
261.112	116.9
261.328	26.79
261.544	-14.17
261.761	96.43
261.977	47.27
262.193	2.22
262.409	63.66
262.626	41.13
262.842	114.86
263.058	0.17
263.274	6.31
263.49	-81.75
263.707	92.33
263.923	43.18
264.139	90.28
264.355	47.27
264.571	98.47
264.787	94.38
265.004	47.27
265.22	8.36
265.436	-22.36
265.652	57.51
265.868	10.41
266.084	26.79
266.3	86.19
266.516	57.51
266.732	20.65
266.948	108.71
267.164	84.14
267.38	141.48
267.596	139.43
267.812	69.8
268.028	-1.88
268.244	24.75
268.46	34.99
268.676	88.23
268.892	96.43
269.108	8.36
269.324	-16.21
269.54	-14.17
269.756	104.62
269.972	49.32
270.188	14.51
270.403	-3.93
270.619	51.37
270.835	53.42
271.051	16.55
271.267	55.47
271.483	-22.36
271.698	30.89
271.914	14.51
272.13	-51.03
272.346	32.94
272.562	84.14
272.777	39.08
272.993	32.94
273.209	24.75
273.425	-38.74
273.64	43.18
273.856	84.14
274.072	55.47
274.287	51.37
274.503	47.27
274.719	55.47
274.934	8.36
275.15	16.55
275.366	-1.88
275.581	-1.88
275.797	55.47
276.012	92.33
276.228	-1.88
276.444	34.99
276.659	77.99
276.875	-10.07
277.09	41.13
277.306	43.18
277.521	14.51
277.737	32.94
277.952	71.85
278.168	88.23
278.383	98.47
278.599	49.32
278.814	86.19
279.03	43.18
279.245	41.13
279.461	67.75
279.676	63.66
279.892	39.08
280.107	59.56
280.322	-36.69
280.538	-40.79
280.753	-5.97
280.969	139.43
281.184	59.56
281.399	123.05
281.615	6.31
281.83	22.7
282.045	41.13
282.26	22.7
282.476	-10.07
282.691	65.71
282.906	22.7
283.122	55.47
283.337	8.36
283.552	106.67
283.767	106.67
283.983	-1.88
284.198	18.6
284.413	32.94
284.628	34.99
284.843	123.05
285.058	57.51
285.274	-3.93
285.489	45.23
285.704	133.29
285.919	57.51
286.134	18.6
286.349	-1.88
286.564	59.56
286.779	80.04
286.995	49.32
287.21	-8.02
287.425	22.7
287.64	4.27
287.855	41.13
288.07	18.6
288.285	39.08
288.5	22.7
288.715	30.89
288.93	30.89
289.145	82.09
289.36	53.42
289.575	57.51
289.79	10.41
290.004	16.55
290.219	82.09
290.434	77.99
290.649	-1.88
290.864	80.04
291.079	92.33
291.294	96.43
291.509	-34.64
291.724	6.31
291.938	10.41
292.153	-1.88
292.368	8.36
292.583	30.89
292.798	104.62
293.012	24.75
293.227	39.08
293.442	47.27
293.657	8.36
293.871	82.09
294.086	57.51
294.301	10.41
294.516	84.14
294.73	71.85
294.945	14.51
295.16	75.95
295.374	55.47
295.589	108.71
295.804	65.71
296.018	-24.4
296.233	80.04
296.447	30.89
296.662	16.55
296.877	125.1
297.091	55.47
297.306	55.47
297.52	-10.07
297.735	86.19
297.949	71.85
298.164	47.27
298.378	16.55
298.593	14.51
298.807	82.09
299.022	96.43
299.236	49.32
299.451	104.62
299.665	34.99
299.88	59.56
300.094	84.14
300.309	71.85
300.523	121
300.737	43.18
300.952	18.6
301.166	71.85
301.381	102.57
301.595	-12.12
301.809	6.31
302.024	98.47
302.238	57.51
302.452	-10.07
302.667	92.33
302.881	-48.98
303.095	121
303.309	82.09
303.524	51.37
303.738	59.56
303.952	-20.31
304.166	84.14
304.381	-40.79
304.595	59.56
304.809	39.08
305.023	61.61
305.237	-10.07
305.452	6.31
305.666	77.99
305.88	114.86
306.094	30.89
306.308	110.76
306.522	75.95
306.736	41.13
306.95	0.17
307.164	129.19
307.379	8.36
307.593	63.66
307.807	47.27
308.021	73.9
308.235	10.41
308.449	43.18
308.663	135.34
308.877	14.51
309.091	84.14
309.305	14.51
309.519	-32.6
309.733	49.32
309.947	41.13
310.161	71.85
310.374	24.75
310.588	114.86
310.802	2.22
311.016	108.71
311.23	65.71
311.444	18.6
311.658	-5.97
311.872	63.66
312.085	57.51
312.299	75.95
312.513	63.66
312.727	131.24
312.941	0.17
313.154	-18.26
313.368	-34.64
313.582	106.67
313.796	47.27
314.009	-32.6
314.223	63.66
314.437	6.31
314.651	51.37
314.864	39.08
315.078	55.47
315.292	69.8
315.505	47.27
315.719	104.62
315.933	112.81
316.146	43.18
316.36	-69.46
316.573	96.43
316.787	-1.88
317.001	121
317.214	59.56
317.428	98.47
317.641	-22.36
317.855	41.13
318.068	51.37
318.282	30.89
318.495	92.33
318.709	43.18
318.922	-42.84
319.136	51.37
319.349	4.27
319.563	-32.6
319.776	104.62
319.99	-34.64
320.203	98.47
320.417	96.43
320.63	63.66
320.843	75.95
321.057	55.47
321.27	34.99
321.483	63.66
321.697	106.67
321.91	55.47
322.124	41.13
322.337	30.89
322.55	49.32
322.763	16.55
322.977	49.32
323.19	0.17
323.403	24.75
323.617	26.79
323.83	112.81
324.043	75.95
324.256	106.67
324.469	6.31
324.683	57.51
324.896	22.7
325.109	55.47
325.322	-1.88
325.535	0.17
325.748	123.05
325.962	10.41
326.175	2.22
326.388	116.9
326.601	153.77
326.814	26.79
327.027	16.55
327.24	178.34
327.453	22.7
327.666	88.23
327.879	47.27
328.092	-24.4
328.305	26.79
328.518	18.6
328.731	-30.55
328.944	106.67
329.157	67.75
329.37	75.95
329.583	112.81
329.796	37.03
330.009	-22.36
330.222	80.04
330.435	8.36
330.648	55.47
330.861	59.56
331.073	14.51
331.286	65.71
331.499	22.7
331.712	4.27
331.925	51.37
332.138	51.37
332.35	112.81
332.563	-44.88
332.776	100.52
332.989	49.32
333.202	61.61
333.414	24.75
333.627	71.85
333.84	43.18
334.053	61.61
334.265	57.51
334.478	37.03
334.691	49.32
334.903	16.55
335.116	67.75
335.329	6.31
335.541	49.32
335.754	55.47
335.966	55.47
336.179	57.51
336.392	104.62
336.604	100.52
336.817	90.28
337.029	73.9
337.242	41.13
337.454	114.86
337.667	73.9
337.88	75.95
338.092	84.14
338.305	-14.17
338.517	108.71
338.729	88.23
338.942	34.99
339.154	104.62
339.367	30.89
339.579	121
339.792	55.47
340.004	133.29
340.217	24.75
340.429	47.27
340.641	6.31
340.854	71.85
341.066	45.23
341.278	92.33
341.491	164.01
341.703	65.71
341.915	67.75
342.128	10.41
342.34	63.66
342.552	22.7
342.764	43.18
342.977	49.32
343.189	45.23
343.401	16.55
343.613	28.84
343.826	71.85
344.038	131.24
344.25	92.33
344.462	30.89
344.674	55.47
344.886	-5.97
345.099	112.81
345.311	67.75
345.523	123.05
345.735	-5.97
345.947	116.9
346.159	22.7
346.371	65.71
346.583	84.14
346.795	63.66
347.007	86.19
347.219	143.53
347.431	32.94
347.643	43.18
347.855	53.42
348.067	186.54
348.279	-40.79
348.491	71.85
348.703	49.32
348.915	34.99
349.127	-16.21
349.339	22.7
349.551	80.04
349.763	98.47
349.975	106.67
350.187	98.47
350.399	153.77
350.61	30.89
350.822	-18.26
351.034	30.89
351.246	32.94
351.458	6.31
351.669	39.08
351.881	123.05
352.093	155.82
352.305	63.66
352.517	53.42
352.728	114.86
352.94	125.1
353.152	73.9
353.363	84.14
353.575	75.95
353.787	47.27
353.999	71.85
354.21	73.9
354.422	39.08
354.633	22.7
354.845	59.56
355.057	71.85
355.268	16.55
355.48	45.23
355.692	32.94
355.903	67.75
356.115	-18.26
356.326	0.17
356.538	92.33
356.749	-26.45
356.961	80.04
357.172	88.23
357.384	-30.55
357.595	90.28
357.807	39.08
358.018	22.7
358.23	47.27
358.441	104.62
358.653	137.38
358.864	-51.03
359.075	12.46
359.287	43.18
359.498	114.86
359.709	30.89
359.921	24.75
360.132	-10.07
360.344	12.46
360.555	-1.88
360.766	47.27
360.977	41.13
361.189	57.51
361.4	71.85
361.611	55.47
361.823	41.13
362.034	65.71
362.245	-32.6
362.456	34.99
362.667	96.43
362.879	10.41
363.09	80.04
363.301	39.08
363.512	55.47
363.723	96.43
363.935	43.18
364.146	100.52
364.357	86.19
364.568	84.14
364.779	57.51
364.99	55.47
365.201	-14.17
365.412	49.32
365.623	57.51
365.834	82.09
366.045	22.7
366.256	71.85
366.467	96.43
366.678	49.32
366.889	88.23
367.1	8.36
367.311	96.43
367.522	34.99
367.733	43.18
367.944	43.18
368.155	159.91
368.366	55.47
368.577	102.57
368.788	6.31
368.999	49.32
369.209	104.62
369.42	143.53
369.631	65.71
369.842	127.14
370.053	32.94
370.264	30.89
370.474	24.75
370.685	-14.17
370.896	116.9
371.107	80.04
371.317	147.62
371.528	75.95
371.739	106.67
371.95	123.05
372.16	59.56
372.371	90.28
372.582	61.61
372.792	82.09
373.003	55.47
373.214	-10.07
373.424	-1.88
373.635	47.27
373.846	28.84
374.056	90.28
374.267	49.32
374.477	80.04
374.688	51.37
374.898	86.19
375.109	63.66
375.319	39.08
375.53	63.66
375.74	57.51
375.951	65.71
376.161	88.23
376.372	98.47
376.582	100.52
376.793	131.24
377.003	30.89
377.214	57.51
377.424	8.36
377.635	51.37
377.845	-18.26
378.055	102.57
378.266	30.89
378.476	59.56
378.686	47.27
378.897	14.51
379.107	51.37
379.317	96.43
379.528	22.7
379.738	34.99
379.948	84.14
380.158	71.85
380.369	-1.88
380.579	96.43
380.789	104.62
380.999	98.47
381.21	92.33
381.42	84.14
381.63	73.9
381.84	41.13
382.05	90.28
382.261	145.58
382.471	49.32
382.681	86.19
382.891	137.38
383.101	47.27
383.311	57.51
383.521	43.18
383.731	30.89
383.941	63.66
384.151	65.71
384.361	26.79
384.571	96.43
384.781	100.52
384.991	88.23
385.201	94.38
385.411	75.95
385.621	39.08
385.831	133.29
386.041	-10.07
386.251	67.75
386.461	161.96
386.671	14.51
386.881	39.08
387.091	-8.02
387.301	157.86
387.511	69.8
387.72	65.71
387.93	71.85
388.14	57.51
388.35	14.51
388.56	127.14
388.769	104.62
388.979	22.7
389.189	16.55
389.399	69.8
389.609	63.66
389.818	80.04
390.028	34.99
390.238	108.71
390.447	37.03
390.657	49.32
390.867	16.55
391.076	18.6
391.286	80.04
391.496	137.38
391.705	65.71
391.915	59.56
392.125	77.99
392.334	55.47
392.544	59.56
392.753	55.47
392.963	47.27
393.172	47.27
393.382	53.42
393.591	69.8
393.801	57.51
394.01	141.48
394.22	30.89
394.429	63.66
394.639	90.28
394.848	65.71
395.058	30.89
395.267	80.04
395.477	96.43
395.686	108.71
395.895	88.23
396.105	106.67
396.314	159.91
396.524	112.81
396.733	147.62
396.942	100.52
397.152	75.95
397.361	80.04
397.57	30.89
397.78	121
397.989	100.52
398.198	231.59
398.407	59.56
398.617	80.04
398.826	77.99
399.035	123.05
399.244	112.81
399.453	67.75
399.663	104.62
399.872	131.24
400.081	121
400.29	131.24
400.499	88.23
400.708	155.82
400.917	114.86
401.127	51.37
401.336	18.6
401.545	153.77
401.754	145.58
401.963	141.48
402.172	63.66
402.381	135.34
402.59	75.95
402.799	82.09
403.008	90.28
403.217	92.33
403.426	147.62
403.635	159.91
403.844	82.09
404.053	170.15
404.262	123.05
404.471	196.78
404.68	166.06
404.888	106.67
405.097	133.29
405.306	153.77
405.515	198.82
405.724	125.1
405.933	207.02
406.142	67.75
406.35	121
406.559	227.5
406.768	223.4
406.977	239.78
407.185	180.39
407.394	235.69
407.603	192.68
407.812	227.5
408.02	237.74
408.229	178.34
408.438	164.01
408.646	325.8
408.855	184.49
409.064	262.31
409.272	256.17
409.481	227.5
409.69	233.64
409.898	293.03
410.107	329.89
410.315	276.65
410.524	260.26
410.733	327.85
410.941	293.03
411.15	315.56
411.358	354.47
411.567	362.66
411.775	356.52
411.984	346.28
412.192	362.66
412.401	385.19
412.609	377
412.818	438.44
413.026	413.86
413.234	522.4
413.443	532.64
413.651	479.4
413.86	516.26
414.068	499.88
414.276	538.79
414.485	641.18
414.693	530.59
414.901	673.95
415.11	655.52
415.318	622.75
415.526	596.13
415.734	714.91
415.943	686.24
416.151	776.35
416.359	661.66
416.567	829.6
416.776	837.79
416.984	907.42
417.192	927.9
417.4	860.32
417.608	874.65
417.817	960.67
418.025	1038.49
418.233	1063.07
418.441	1104.03
418.649	1056.92
418.857	1106.07
419.065	1140.89
419.273	1149.08
419.481	1112.22
419.689	1218.71
419.897	1341.59
420.105	1294.49
420.313	1392.79
420.521	1405.08
420.729	1398.93
420.937	1472.66
421.145	1542.29
421.353	1595.54
421.561	1632.4
421.769	1689.74
421.977	1861.77
422.185	1792.14
422.393	1931.41
422.601	1931.41
422.809	1966.22
423.017	1947.79
423.224	2109.58
423.432	2156.68
423.64	2189.45
423.848	2345.09
424.056	2269.32
424.263	2451.59
424.471	2500.74
424.679	2547.84
424.887	2721.92
425.094	2670.72
425.302	2726.02
425.51	2867.33
425.718	2914.43
425.925	2934.91
426.133	2979.97
426.341	3291.26
426.548	3383.42
426.756	3393.65
426.964	3356.79
427.171	3588.21
427.379	3717.23
427.586	3725.43
427.794	3965.04
428.001	4036.72
428.209	4167.79
428.417	4157.55
428.624	4397.16
428.832	4411.5
429.039	4372.58
429.247	4423.78
429.454	4896.86
429.662	5144.67
429.869	4741.22
430.076	5169.24
430.284	4966.49
430.491	5249.11
430.699	5488.73
430.906	5597.27
431.114	5656.66
431.321	5908.56
431.528	5929.04
431.736	6357.07
431.943	6510.66
432.15	6348.87
432.358	6449.22
432.565	6799.43
432.772	6891.59
432.979	7247.93
433.187	7323.71
433.394	7333.95
433.601	7608.37
433.808	7839.8
434.016	7718.96
434.223	8071.22
434.43	8548.39
434.637	8239.15
434.844	8593.45
435.052	9039.9
435.259	9078.82
435.466	9166.88
435.673	8855.59
435.88	9472.03
436.087	10059.79
436.294	10051.6
436.501	9687.06
436.708	9898
436.915	10235.92
437.122	10999.81
437.329	10792.97
437.537	11032.58
437.743	11251.71
437.95	11286.53
438.157	11831.29
438.364	12292.08
438.571	11880.44
438.778	12394.48
438.985	13314.02
439.192	12687.34
439.399	13254.62
439.606	12904.42
439.813	13836.25
440.02	14612.43
440.227	14114.77
440.433	14239.7
440.64	14532.56
440.847	14553.04
441.054	14942.15
441.261	15572.93
441.467	15685.56
441.674	15747
441.881	16453.55
442.088	16527.28
442.294	16283.57
442.501	16811.95
442.708	16959.4
442.914	17807.26
443.121	18728.84
443.328	17979.29
443.534	19083.14
443.741	18503.57
443.948	18200.47
444.154	19703.68
444.361	19756.93
444.568	19404.67
444.774	19591.04
444.981	19797.88
445.187	20479.86
445.394	21450.6
445.6	21204.84
445.807	23168.84
446.013	22271.83
446.22	22464.34
446.426	23312.2
446.633	23625.54
446.839	24344.38
447.046	23603.01
447.252	24788.78
447.459	24885.04
447.665	24624.95
447.871	25757.47
448.078	26773.27
448.284	25503.53
448.491	26507.03
448.697	27356.94
448.903	27692.8
449.11	27782.91
449.316	27535.11
449.522	28288.76
449.728	28557.05
449.935	29132.53
450.141	28776.18
450.347	29607.65
450.553	28915.44
450.76	29058.8
450.966	30351.07
451.172	29798.12
451.378	30326.49
451.584	29947.62
451.791	30617.3
451.997	30349.02
452.203	31137.49
452.409	31100.62
452.615	31028.95
452.821	30088.93
453.027	29818.6
453.233	31153.87
453.44	30004.96
453.646	30289.63
453.852	30574.3
454.058	30963.41
454.264	29920.99
454.47	30727.89
454.676	29628.13
454.882	30842.58
455.088	28299
455.294	28679.93
455.5	29034.22
455.705	29746.92
455.911	28268.28
456.117	27897.6
456.323	27537.16
456.529	25943.84
456.735	27445
456.941	26521.37
457.147	26332.95
457.352	25403.18
457.558	25190.19
457.764	25323.3
457.97	24915.76
458.176	24203.07
458.381	24270.65
458.587	23123.79
458.793	22976.33
458.999	21301.09
459.204	23904.06
459.41	22816.59
459.616	21096.3
459.821	21464.93
460.027	21415.78
460.233	20901.74
460.438	20008.83
460.644	20215.67
460.85	19292.04
461.055	18538.38
461.261	18769.8
461.466	17581.98
461.672	16840.62
461.878	18057.11
462.083	16977.83
462.289	16433.07
462.494	16349.11
462.7	15742.91
462.905	15302.59
463.111	15757.24
463.316	15749.05
463.522	15376.32
463.727	15622.08
463.932	15605.69
464.138	15321.02
464.343	15574.97
464.549	15046.6
464.754	15286.21
464.959	15159.24
465.165	15175.62
465.37	14424.01
465.575	14075.86
465.781	14628.81
465.986	14563.28
466.191	14268.37
466.397	13957.08
466.602	13424.61
466.807	13678.55
467.012	13907.93
467.218	13543.39
