Data from USB4F104151__34__14-42-52-124.txt Node

Date: Thu Mar 13 14:42:52 EDT 2025
User: louis
Spectrometer: USB4F10415
Trigger mode: 4
Integration Time (sec): 2.000000E-2
Scans to average: 1
Electric dark correction enabled: true
Nonlinearity correction enabled: false
Boxcar width: 0
XAxis mode: Wavelengths
Number of Pixels in Spectrum: 3648
>>>>>Begin Spectral Data<<<<<
178.204	-15.87
178.424	-15.87
178.644	-15.87
178.864	-40.45
179.084	-81.41
179.304	0.51
179.524	-34.3
179.744	10.75
179.964	41.47
180.184	-26.11
180.404	-24.06
180.624	55.81
180.844	8.7
181.064	-22.02
181.283	-32.26
181.503	-7.68
181.723	29.18
181.943	-54.78
182.163	74.24
182.383	59.9
182.602	57.86
182.822	160.25
183.042	35.33
183.262	-1.54
183.482	51.71
183.701	20.99
183.921	10.75
184.141	35.33
184.361	96.77
184.58	39.42
184.8	64
185.02	76.29
185.239	51.71
185.459	45.57
185.679	57.86
185.898	49.66
186.118	88.57
186.338	23.04
186.557	121.34
186.777	6.66
186.997	8.7
187.216	39.42
187.436	139.77
187.655	43.52
187.875	23.04
188.095	8.7
188.314	82.43
188.534	39.42
188.753	98.81
188.973	14.85
189.192	94.72
189.412	8.7
189.631	8.7
189.851	23.04
190.07	102.91
190.29	-71.17
190.509	-60.93
190.729	33.28
190.948	135.68
191.168	68.09
191.387	104.96
191.607	-26.11
191.826	47.62
192.045	23.04
192.265	39.42
192.484	49.66
192.704	-15.87
192.923	-71.17
193.142	115.2
193.362	49.66
193.581	100.86
193.8	78.33
194.02	80.38
194.239	72.19
194.458	86.53
194.678	74.24
194.897	14.85
195.116	61.95
195.335	51.71
195.555	64
195.774	80.38
195.993	47.62
196.212	43.52
196.432	39.42
196.651	66.05
196.87	-13.82
197.089	154.11
197.308	59.9
197.528	35.33
197.747	47.62
197.966	190.97
198.185	59.9
198.404	-26.11
198.623	100.86
198.842	47.62
199.062	16.9
199.281	104.96
199.5	0.51
199.719	82.43
199.938	68.09
200.157	66.05
200.376	68.09
200.595	55.81
200.814	84.48
201.033	82.43
201.252	47.62
201.471	88.57
201.69	154.11
201.909	109.05
202.128	88.57
202.347	-15.87
202.566	4.61
202.785	-13.82
203.004	2.56
203.223	125.44
203.442	100.86
203.661	66.05
203.879	16.9
204.098	129.53
204.317	33.28
204.536	27.14
204.755	92.67
204.974	39.42
205.193	41.47
205.411	133.63
205.63	10.75
205.849	43.52
206.068	55.81
206.287	-9.73
206.505	68.09
206.724	31.23
206.943	4.61
207.162	90.62
207.381	100.86
207.599	31.23
207.818	25.09
208.037	47.62
208.255	49.66
208.474	39.42
208.693	18.94
208.911	-48.64
209.13	-26.11
209.349	51.71
209.567	43.52
209.786	90.62
210.005	129.53
210.223	84.48
210.442	-9.73
210.661	113.15
210.879	-1.54
211.098	88.57
211.316	66.05
211.535	31.23
211.753	43.52
211.972	76.29
212.191	0.51
212.409	23.04
212.628	104.96
212.846	115.2
213.065	47.62
213.283	66.05
213.502	66.05
213.72	125.44
213.938	18.94
214.157	-9.73
214.375	23.04
214.594	51.71
214.812	18.94
215.031	2.56
215.249	55.81
215.467	88.57
215.686	14.85
215.904	43.52
216.122	39.42
216.341	35.33
216.559	64
216.778	100.86
216.996	31.23
217.214	23.04
217.432	-19.97
217.651	2.56
217.869	4.61
218.087	90.62
218.306	80.38
218.524	12.8
218.742	35.33
218.96	14.85
219.179	29.18
219.397	55.81
219.615	131.58
219.833	107.01
220.051	55.81
220.27	2.56
220.488	27.14
220.706	88.57
220.924	14.85
221.142	16.9
221.36	0.51
221.578	72.19
221.796	39.42
222.015	88.57
222.233	27.14
222.451	125.44
222.669	2.56
222.887	51.71
223.105	51.71
223.323	8.7
223.541	8.7
223.759	49.66
223.977	39.42
224.195	158.21
224.413	74.24
224.631	57.86
224.849	14.85
225.067	115.2
225.285	16.9
225.503	-36.35
225.721	-24.06
225.939	-5.63
226.157	64
226.375	68.09
226.592	35.33
226.81	29.18
227.028	92.67
227.246	64
227.464	39.42
227.682	66.05
227.9	18.94
228.117	70.14
228.335	6.66
228.553	88.57
228.771	-42.5
228.989	12.8
229.206	47.62
229.424	74.24
229.642	31.23
229.86	-1.54
230.077	92.67
230.295	23.04
230.513	96.77
230.731	115.2
230.948	98.81
231.166	27.14
231.384	41.47
231.601	25.09
231.819	25.09
232.037	74.24
232.254	27.14
232.472	-7.68
232.689	35.33
232.907	64
233.125	45.57
233.342	-48.64
233.56	-5.63
233.777	-24.06
233.995	72.19
234.213	104.96
234.43	72.19
234.648	25.09
234.865	53.76
235.083	88.57
235.3	0.51
235.518	98.81
235.735	27.14
235.953	137.73
236.17	-38.4
236.388	64
236.605	-26.11
236.822	27.14
237.04	72.19
237.257	-26.11
237.475	23.04
237.692	16.9
237.909	109.05
238.127	84.48
238.344	-1.54
238.562	107.01
238.779	43.52
238.996	-67.07
239.214	16.9
239.431	141.82
239.648	-52.74
239.865	33.28
240.083	88.57
240.3	23.04
240.517	35.33
240.735	47.62
240.952	57.86
241.169	121.34
241.386	43.52
241.603	31.23
241.821	104.96
242.038	31.23
242.255	31.23
242.472	31.23
242.689	6.66
242.907	59.9
243.124	31.23
243.341	49.66
243.558	80.38
243.775	-1.54
243.992	-7.68
244.209	107.01
244.426	117.25
244.643	-5.63
244.86	33.28
245.078	51.71
245.295	84.48
245.512	-15.87
245.729	12.8
245.946	23.04
246.163	78.33
246.38	53.76
246.597	100.86
246.814	6.66
247.031	39.42
247.248	35.33
247.464	35.33
247.681	49.66
247.898	47.62
248.115	57.86
248.332	29.18
248.549	113.15
248.766	100.86
248.983	0.51
249.2	94.72
249.417	68.09
249.633	66.05
249.85	14.85
250.067	57.86
250.284	25.09
250.501	68.09
250.717	72.19
250.934	14.85
251.151	104.96
251.368	88.57
251.585	37.38
251.801	45.57
252.018	59.9
252.235	117.25
252.451	31.23
252.668	6.66
252.885	64
253.102	-26.11
253.318	59.9
253.535	80.38
253.752	72.19
253.968	68.09
254.185	31.23
254.401	64
254.618	55.81
254.835	35.33
255.051	98.81
255.268	84.48
255.484	45.57
255.701	0.51
255.917	-9.73
256.134	2.56
256.351	25.09
256.567	57.86
256.784	96.77
257	14.85
257.217	-56.83
257.433	39.42
257.65	90.62
257.866	23.04
258.082	-52.74
258.299	-87.55
258.515	107.01
258.732	31.23
258.948	25.09
259.165	96.77
259.381	74.24
259.597	51.71
259.814	57.86
260.03	2.56
260.246	64
260.463	64
260.679	47.62
260.895	-13.82
261.112	8.7
261.328	51.71
261.544	16.9
261.761	135.68
261.977	61.95
262.193	80.38
262.409	47.62
262.626	80.38
262.842	12.8
263.058	49.66
263.274	6.66
263.49	66.05
263.707	96.77
263.923	45.57
264.139	-34.3
264.355	47.62
264.571	72.19
264.787	49.66
265.004	94.72
265.22	115.2
265.436	74.24
265.652	96.77
265.868	66.05
266.084	78.33
266.3	102.91
266.516	18.94
266.732	64
266.948	6.66
267.164	31.23
267.38	43.52
267.596	49.66
267.812	92.67
268.028	64
268.244	2.56
268.46	57.86
268.676	2.56
268.892	6.66
269.108	8.7
269.324	-34.3
269.54	25.09
269.756	115.2
269.972	47.62
270.188	94.72
270.403	14.85
270.619	51.71
270.835	51.71
271.051	39.42
271.267	-17.92
271.483	18.94
271.698	80.38
271.914	6.66
272.13	66.05
272.346	88.57
272.562	49.66
272.777	64
272.993	-1.54
273.209	39.42
273.425	72.19
273.64	23.04
273.856	80.38
274.072	47.62
274.287	27.14
274.503	-42.5
274.719	61.95
274.934	-30.21
275.15	8.7
275.366	88.57
275.581	47.62
275.797	16.9
276.012	18.94
276.228	25.09
276.444	6.66
276.659	-9.73
276.875	90.62
277.09	25.09
277.306	31.23
277.521	20.99
277.737	90.62
277.952	53.76
278.168	14.85
278.383	23.04
278.599	53.76
278.814	72.19
279.03	104.96
279.245	59.9
279.461	43.52
279.676	66.05
279.892	43.52
280.107	14.85
280.322	55.81
280.538	-58.88
280.753	18.94
280.969	88.57
281.184	41.47
281.399	72.19
281.615	59.9
281.83	39.42
282.045	-24.06
282.26	33.28
282.476	8.7
282.691	10.75
282.906	47.62
283.122	53.76
283.337	6.66
283.552	127.49
283.767	31.23
283.983	80.38
284.198	35.33
284.413	90.62
284.628	10.75
284.843	125.44
285.058	121.34
285.274	-1.54
285.489	10.75
285.704	55.81
285.919	20.99
286.134	-5.63
286.349	64
286.564	55.81
286.779	47.62
286.995	29.18
287.21	-22.02
287.425	100.86
287.64	-32.26
287.855	25.09
288.07	55.81
288.285	43.52
288.5	94.72
288.715	47.62
288.93	49.66
289.145	41.47
289.36	6.66
289.575	47.62
289.79	139.77
290.004	14.85
290.219	27.14
290.434	-26.11
290.649	-54.78
290.864	39.42
291.079	6.66
291.294	25.09
291.509	76.29
291.724	78.33
291.938	35.33
292.153	72.19
292.368	64
292.583	6.66
292.798	88.57
293.012	113.15
293.227	74.24
293.442	-40.45
293.657	14.85
293.871	33.28
294.086	25.09
294.301	82.43
294.516	94.72
294.73	96.77
294.945	55.81
295.16	96.77
295.374	111.1
295.589	27.14
295.804	14.85
296.018	64
296.233	0.51
296.447	88.57
296.662	23.04
296.877	125.44
297.091	16.9
297.306	27.14
297.52	47.62
297.735	25.09
297.949	39.42
298.164	104.96
298.378	76.29
298.593	51.71
298.807	29.18
299.022	72.19
299.236	100.86
299.451	66.05
299.665	27.14
299.88	68.09
300.094	100.86
300.309	74.24
300.523	-7.68
300.737	6.66
300.952	51.71
301.166	72.19
301.381	25.09
301.595	78.33
301.809	23.04
302.024	14.85
302.238	23.04
302.452	6.66
302.667	16.9
302.881	88.57
303.095	12.8
303.309	14.85
303.524	-38.4
303.738	27.14
303.952	31.23
304.166	55.81
304.381	96.77
304.595	129.53
304.809	53.76
305.023	96.77
305.237	6.66
305.452	55.81
305.666	76.29
305.88	64
306.094	47.62
306.308	39.42
306.522	59.9
306.736	43.52
306.95	14.85
307.164	55.81
307.379	96.77
307.593	166.4
307.807	35.33
308.021	39.42
308.235	86.53
308.449	-1.54
308.663	64
308.877	88.57
309.091	27.14
309.305	23.04
309.519	-22.02
309.733	37.38
309.947	25.09
310.161	107.01
310.374	72.19
310.588	72.19
310.802	-11.78
311.016	45.57
311.23	2.56
311.444	41.47
311.658	31.23
311.872	70.14
312.085	117.25
312.299	80.38
312.513	6.66
312.727	-38.4
312.941	-11.78
313.154	133.63
313.368	82.43
313.582	27.14
313.796	133.63
314.009	0.51
314.223	68.09
314.437	43.52
314.651	12.8
314.864	14.85
315.078	55.81
315.292	-22.02
315.505	14.85
315.719	80.38
315.933	80.38
316.146	-17.92
316.36	18.94
316.573	131.58
316.787	57.86
317.001	23.04
317.214	78.33
317.428	29.18
317.641	20.99
317.855	-9.73
318.068	10.75
318.282	84.48
318.495	88.57
318.709	96.77
318.922	55.81
319.136	98.81
319.349	23.04
319.563	14.85
319.776	104.96
319.99	14.85
320.203	18.94
320.417	6.66
320.63	90.62
320.843	125.44
321.057	125.44
321.27	115.2
321.483	53.76
321.697	74.24
321.91	47.62
322.124	72.19
322.337	49.66
322.55	80.38
322.763	96.77
322.977	27.14
323.19	72.19
323.403	113.15
323.617	92.67
323.83	96.77
324.043	55.81
324.256	47.62
324.469	-91.65
324.683	49.66
324.896	72.19
325.109	55.81
325.322	-42.5
325.535	66.05
325.748	55.81
325.962	129.53
326.175	74.24
326.388	57.86
326.601	119.29
326.814	33.28
327.027	76.29
327.24	135.68
327.453	-30.21
327.666	47.62
327.879	64
328.092	31.23
328.305	29.18
328.518	33.28
328.731	27.14
328.944	41.47
329.157	72.19
329.37	23.04
329.583	55.81
329.796	84.48
330.009	37.38
330.222	23.04
330.435	66.05
330.648	39.42
330.861	57.86
331.073	82.43
331.286	35.33
331.499	154.11
331.712	43.52
331.925	72.19
332.138	43.52
332.35	92.67
332.563	66.05
332.776	57.86
332.989	14.85
333.202	152.06
333.414	70.14
333.627	35.33
333.84	64
334.053	162.3
334.265	51.71
334.478	88.57
334.691	55.81
334.903	2.56
335.116	55.81
335.329	55.81
335.541	57.86
335.754	92.67
335.966	-5.63
336.179	84.48
336.392	18.94
336.604	55.81
336.817	39.42
337.029	47.62
337.242	41.47
337.454	43.52
337.667	72.19
337.88	25.09
338.092	27.14
338.305	39.42
338.517	-24.06
338.729	96.77
338.942	109.05
339.154	47.62
339.367	35.33
339.579	-15.87
339.792	53.76
340.004	64
340.217	45.57
340.429	0.51
340.641	59.9
340.854	92.67
341.066	31.23
341.278	113.15
341.491	104.96
341.703	16.9
341.915	-32.26
342.128	43.52
342.34	72.19
342.552	84.48
342.764	49.66
342.977	35.33
343.189	137.73
343.401	20.99
343.613	14.85
343.826	68.09
344.038	-34.3
344.25	10.75
344.462	6.66
344.674	16.9
344.886	6.66
345.099	104.96
345.311	53.76
345.523	39.42
345.735	55.81
345.947	66.05
346.159	135.68
346.371	72.19
346.583	-15.87
346.795	88.57
347.007	64
347.219	37.38
347.431	39.42
347.643	66.05
347.855	64
348.067	82.43
348.279	31.23
348.491	14.85
348.703	47.62
348.915	14.85
349.127	27.14
349.339	80.38
349.551	14.85
349.763	64
349.975	2.56
350.187	96.77
350.399	61.95
350.61	94.72
350.822	37.38
351.034	57.86
351.246	59.9
351.458	43.52
351.669	-5.63
351.881	147.97
352.093	76.29
352.305	111.1
352.517	98.81
352.728	125.44
352.94	164.35
353.152	88.57
353.363	59.9
353.575	76.29
353.787	121.34
353.999	23.04
354.21	59.9
354.422	-1.54
354.633	18.94
354.845	76.29
355.057	137.73
355.268	8.7
355.48	92.67
355.692	64
355.903	55.81
356.115	14.85
356.326	35.33
356.538	154.11
356.749	6.66
356.961	104.96
357.172	55.81
357.384	39.42
357.595	129.53
357.807	16.9
358.018	68.09
358.23	-28.16
358.441	123.39
358.653	121.34
358.864	80.38
359.075	82.43
359.287	-9.73
359.498	47.62
359.709	51.71
359.921	100.86
360.132	23.04
360.344	104.96
360.555	16.9
360.766	64
360.977	12.8
361.189	35.33
361.4	-13.82
361.611	92.67
361.823	94.72
362.034	80.38
362.245	25.09
362.456	41.47
362.667	104.96
362.879	59.9
363.09	45.57
363.301	33.28
363.512	41.47
363.723	-54.78
363.935	90.62
364.146	100.86
364.357	18.94
364.568	47.62
364.779	14.85
364.99	64
365.201	47.62
365.412	121.34
365.623	-7.68
365.834	92.67
366.045	70.14
366.256	70.14
366.467	82.43
366.678	100.86
366.889	23.04
367.1	43.52
367.311	64
367.522	23.04
367.733	129.53
367.944	96.77
368.155	84.48
368.366	154.11
368.577	72.19
368.788	137.73
368.999	-26.11
369.209	72.19
369.42	154.11
369.631	94.72
369.842	119.29
370.053	10.75
370.264	100.86
370.474	18.94
370.685	27.14
370.896	90.62
371.107	84.48
371.317	80.38
371.528	37.38
371.739	82.43
371.95	6.66
372.16	66.05
372.371	104.96
372.582	61.95
372.792	41.47
373.003	64
373.214	33.28
373.424	133.63
373.635	78.33
373.846	23.04
374.056	82.43
374.267	37.38
374.477	53.76
374.688	18.94
374.898	18.94
375.109	125.44
375.319	55.81
375.53	107.01
375.74	104.96
375.951	10.75
376.161	41.47
376.372	82.43
376.582	51.71
376.793	80.38
377.003	84.48
377.214	111.1
377.424	113.15
377.635	143.87
377.845	47.62
378.055	51.71
378.266	-60.93
378.476	39.42
378.686	27.14
378.897	41.47
379.107	82.43
379.317	6.66
379.528	43.52
379.738	125.44
379.948	100.86
380.158	80.38
380.369	70.14
380.579	55.81
380.789	14.85
380.999	104.96
381.21	25.09
381.42	104.96
381.63	107.01
381.84	78.33
382.05	39.42
382.261	113.15
382.471	117.25
382.681	14.85
382.891	113.15
383.101	119.29
383.311	-52.74
383.521	53.76
383.731	100.86
383.941	80.38
384.151	80.38
384.361	78.33
384.571	39.42
384.781	96.77
384.991	111.1
385.201	115.2
385.411	109.05
385.621	84.48
385.831	39.42
386.041	55.81
386.251	-1.54
386.461	111.1
386.671	25.09
386.881	98.81
387.091	-28.16
387.301	66.05
387.511	90.62
387.72	141.82
387.93	123.39
388.14	-11.78
388.35	92.67
388.56	160.25
388.769	-1.54
388.979	14.85
389.189	16.9
389.399	70.14
389.609	145.92
389.818	82.43
390.028	90.62
390.238	64
390.447	57.86
390.657	57.86
390.867	78.33
391.076	-32.26
391.286	80.38
391.496	104.96
391.705	119.29
391.915	72.19
392.125	92.67
392.334	41.47
392.544	82.43
392.753	72.19
392.963	35.33
393.172	76.29
393.382	8.7
393.591	117.25
393.801	143.87
394.01	123.39
394.22	55.81
394.429	33.28
394.639	39.42
394.848	88.57
395.058	113.15
395.267	80.38
395.477	64
395.686	121.34
395.895	133.63
396.105	178.69
396.314	43.52
396.524	133.63
396.733	23.04
396.942	154.11
397.152	154.11
397.361	150.01
397.57	113.15
397.78	57.86
397.989	57.86
398.198	121.34
398.407	80.38
398.617	139.77
398.826	0.51
399.035	129.53
399.244	84.48
399.453	156.16
399.663	61.95
399.872	84.48
400.081	107.01
400.29	172.54
400.499	39.42
400.708	133.63
400.917	119.29
401.127	190.97
401.336	39.42
401.545	96.77
401.754	129.53
401.963	131.58
402.172	143.87
402.381	156.16
402.59	109.05
402.799	115.2
403.008	219.64
403.217	117.25
403.426	164.35
403.635	64
403.844	123.39
404.053	131.58
404.262	84.48
404.471	268.8
404.68	145.92
404.888	107.01
405.097	143.87
405.306	80.38
405.515	162.3
405.724	166.4
405.933	113.15
406.142	168.45
406.35	195.07
406.559	180.73
406.768	160.25
406.977	203.26
407.185	227.84
407.394	246.27
407.603	154.11
407.812	233.98
408.02	166.4
408.229	162.3
408.438	186.88
408.646	193.02
408.855	258.56
409.064	270.84
409.272	236.03
409.481	195.07
409.69	236.03
409.898	242.17
410.107	229.88
410.315	373.24
410.524	317.95
410.733	383.48
410.941	205.31
411.15	326.14
411.358	324.09
411.567	326.14
411.775	363
411.984	408.06
412.192	399.87
412.401	356.86
412.609	428.54
412.818	467.45
413.026	401.91
413.234	442.87
413.443	506.36
413.651	440.83
413.86	543.22
414.068	606.71
414.276	614.9
414.485	496.12
414.693	522.74
414.901	653.81
415.11	705.01
415.318	719.35
415.526	711.16
415.734	655.86
415.943	793.08
416.151	737.78
416.359	748.02
416.567	799.22
416.776	819.7
416.984	936.43
417.192	834.04
417.4	928.24
417.608	836.08
417.817	879.09
418.025	989.68
418.233	1071.6
418.441	1014.26
418.649	981.49
418.857	1065.46
419.065	1153.52
419.273	1161.71
419.481	1243.63
419.689	1300.97
419.897	1372.65
420.105	1360.36
420.313	1368.56
420.521	1464.81
420.729	1495.53
420.937	1505.77
421.145	1530.34
421.353	1573.35
421.561	1722.85
421.769	1769.96
421.977	1735.14
422.185	1599.98
422.393	1898.98
422.601	1876.45
422.809	2015.71
423.017	2089.44
423.224	2064.86
423.432	2101.73
423.64	2171.36
423.848	2318.81
424.056	2259.42
424.263	2537.95
424.471	2521.56
424.679	2640.34
424.887	2707.93
425.094	2793.94
425.302	2851.28
425.51	2959.83
425.718	2976.21
425.925	3054.03
426.133	3174.86
426.341	3193.3
426.548	3334.61
426.756	3369.42
426.964	3471.82
427.171	3678.66
427.379	3723.72
427.586	3926.47
427.794	3797.45
428.001	4198.85
428.209	4252.1
428.417	4309.44
428.624	4471.23
428.832	4602.3
429.039	4417.98
429.247	4549.05
429.454	4964.79
429.662	5185.97
429.869	4886.97
430.076	5159.35
430.284	5058.99
430.491	5333.42
430.699	5597.61
430.906	5540.27
431.114	5657
431.321	5921.19
431.528	5988.77
431.736	6195.62
431.943	6789.53
432.15	6576.54
432.358	6652.31
432.565	6898.07
432.772	6871.45
432.979	7166.35
433.187	7453.07
433.394	7313.81
433.601	7856.52
433.808	8020.36
434.016	7858.57
434.223	8235.39
434.43	8708.48
434.637	8358.27
434.844	9126.26
435.052	9214.32
435.259	9044.34
435.466	9279.86
435.673	9273.71
435.88	9701.74
436.087	10135.91
436.294	10396
436.501	10084.71
436.708	10246.5
436.915	10578.27
437.122	11065.69
437.329	10981.72
437.537	11282.77
437.743	11469.14
437.95	11348.31
438.157	12050.76
438.364	12239.17
438.571	12468.55
438.778	12411.2
438.985	13281.59
439.192	13285.69
439.399	13379.89
439.606	13080.89
439.813	14004.52
440.02	14727.46
440.227	14276.9
440.433	14410.02
440.64	14764.32
440.847	14762.27
441.054	15071.51
441.261	15870.22
441.467	15878.41
441.674	16279.82
441.881	16855.29
442.088	16761.09
442.294	16556.29
442.501	17025.28
442.708	17273.08
442.914	17907.95
443.121	18933.98
443.328	18114.8
443.534	19163.36
443.741	19007.71
443.948	18612.45
444.154	20289.74
444.361	19683.54
444.568	20091.09
444.774	20193.48
444.981	20318.41
445.187	20820.16
445.394	21627.06
445.6	21461.18
445.807	23361.69
446.013	22474.92
446.22	22806.69
446.426	23636.12
446.633	23902.36
446.839	25092.23
447.046	24133.78
447.252	25030.79
447.459	25168
447.665	25151.62
447.871	26024.05
448.078	27281.5
448.284	26267.76
448.491	26589.29
448.697	27949.14
448.903	28227.67
449.11	28334.16
449.316	27844.7
449.522	28233.81
449.728	29179.97
449.935	29745.21
450.141	29300.8
450.347	30163
450.553	29143.11
450.76	29276.23
450.966	30253.11
451.172	30365.74
451.378	31156.26
451.584	30595.12
451.791	31002.66
451.997	31242.28
452.203	31221.8
452.409	31512.61
452.615	31543.33
452.821	30220.34
453.027	29962.29
453.233	31658.01
453.44	30453.81
453.646	30455.86
453.852	30734.38
454.058	31649.82
454.264	30517.29
454.47	31254.56
454.676	30326.83
454.882	31500.32
455.088	28782.66
455.294	29077.57
455.5	29818.94
455.705	30033.97
455.911	28590.16
456.117	28256.34
456.323	27617.37
456.529	26529.9
456.735	27244.64
456.941	26855.53
457.147	26599.53
457.352	25776.25
457.558	25440.38
457.764	25776.25
457.97	25383.04
458.176	24639.62
458.381	24889.48
458.587	23173.28
458.793	23390.36
458.999	22233.26
459.204	23879.83
459.41	22999.2
459.616	21553.34
459.821	21622.97
460.027	21577.91
460.233	21000.38
460.438	20181.2
460.644	20439.24
460.85	19339.48
461.055	18841.82
461.261	18966.75
461.466	17588.47
461.672	17373.43
461.878	18077.93
462.083	17244.41
462.289	16668.93
462.494	16730.37
462.7	15894.8
462.905	15421.72
463.111	15862.03
463.316	16101.64
463.522	15739.15
463.727	15681.81
463.932	15782.16
464.138	15325.46
464.343	15440.15
464.549	15280.41
464.754	15710.48
464.959	15354.13
465.165	15393.05
465.37	14500.13
465.575	14158.12
465.781	14879
465.986	14649.63
466.191	14364.96
466.397	14047.53
466.602	13166.9
466.807	13986.09
467.012	13938.99
467.218	14057.77
467.423	13553.97
467.628	13814.06
467.833	14326.05
468.038	13850.92
468.244	13343.03
468.449	13959.47
