Data from USB4F104151__70__14-43-21-318.txt Node

Date: Thu Mar 13 14:43:21 EDT 2025
User: louis
Spectrometer: USB4F10415
Trigger mode: 4
Integration Time (sec): 2.000000E-2
Scans to average: 1
Electric dark correction enabled: true
Nonlinearity correction enabled: false
Boxcar width: 0
XAxis mode: Wavelengths
Number of Pixels in Spectrum: 3648
>>>>>Begin Spectral Data<<<<<
178.204	-102.23
178.424	-102.23
178.644	-102.23
178.864	-112.47
179.084	-114.52
179.304	18.6
179.524	-38.74
179.744	45.23
179.964	0.17
180.184	-44.88
180.404	-3.93
180.624	12.46
180.844	-3.93
181.064	34.99
181.283	-16.21
181.503	-12.12
181.723	8.36
181.943	8.36
182.163	-1.88
182.383	-44.88
182.602	0.17
182.822	24.75
183.042	57.51
183.262	-16.21
183.482	-8.02
183.701	-32.6
183.921	-24.4
184.141	-24.4
184.361	20.65
184.58	-46.93
184.8	26.79
185.02	-22.36
185.239	57.51
185.459	53.42
185.679	16.55
185.898	20.65
186.118	32.94
186.338	82.09
186.557	77.99
186.777	16.55
186.997	43.18
187.216	53.42
187.436	-3.93
187.655	0.17
187.875	34.99
188.095	12.46
188.314	82.09
188.534	28.84
188.753	86.19
188.973	6.31
189.192	30.89
189.412	127.14
189.631	57.51
189.851	-18.26
190.07	65.71
190.29	-5.97
190.509	63.66
190.729	24.75
190.948	37.03
191.168	100.52
191.387	59.56
191.607	-32.6
191.826	-5.97
192.045	73.9
192.265	-22.36
192.484	32.94
192.704	-14.17
192.923	8.36
193.142	116.9
193.362	69.8
193.581	32.94
193.8	26.79
194.02	94.38
194.239	24.75
194.458	57.51
194.678	82.09
194.897	2.22
195.116	34.99
195.335	49.32
195.555	24.75
195.774	41.13
195.993	69.8
196.212	-48.98
196.432	34.99
196.651	32.94
196.87	-30.55
197.089	16.55
197.308	104.62
197.528	37.03
197.747	-1.88
197.966	-22.36
198.185	96.43
198.404	-3.93
198.623	16.55
198.842	32.94
199.062	-5.97
199.281	110.76
199.5	6.31
199.719	49.32
199.938	8.36
200.157	47.27
200.376	10.41
200.595	92.33
200.814	2.22
201.033	-8.02
201.252	41.13
201.471	2.22
201.69	34.99
201.909	28.84
202.128	59.56
202.347	-32.6
202.566	6.31
202.785	4.27
203.004	-14.17
203.223	-16.21
203.442	-26.45
203.661	-32.6
203.879	8.36
204.098	51.37
204.317	41.13
204.536	55.47
204.755	82.09
204.974	90.28
205.193	-5.97
205.411	139.43
205.63	67.75
205.849	49.32
206.068	53.42
206.287	26.79
206.505	-8.02
206.724	28.84
206.943	2.22
207.162	41.13
207.381	45.23
207.599	26.79
207.818	37.03
208.037	43.18
208.255	16.55
208.474	-22.36
208.693	14.51
208.911	53.42
209.13	26.79
209.349	-14.17
209.567	90.28
209.786	53.42
210.005	4.27
210.223	-20.31
210.442	-26.45
210.661	-8.02
210.879	-8.02
211.098	22.7
211.316	73.9
211.535	45.23
211.753	18.6
211.972	30.89
212.191	34.99
212.409	18.6
212.628	4.27
212.846	0.17
213.065	43.18
213.283	28.84
213.502	65.71
213.72	24.75
213.938	53.42
214.157	43.18
214.375	65.71
214.594	-14.17
214.812	28.84
215.031	86.19
215.249	-28.5
215.467	59.56
215.686	2.22
215.904	24.75
216.122	-16.21
216.341	32.94
216.559	57.51
216.778	37.03
216.996	82.09
217.214	-104.28
217.432	-61.27
217.651	65.71
217.869	22.7
218.087	24.75
218.306	98.47
218.524	12.46
218.742	37.03
218.96	34.99
219.179	37.03
219.397	-24.4
219.615	20.65
219.833	49.32
220.051	-38.74
220.27	28.84
220.488	24.75
220.706	55.47
220.924	34.99
221.142	24.75
221.36	69.8
221.578	104.62
221.796	41.13
222.015	49.32
222.233	8.36
222.451	41.13
222.669	-16.21
222.887	57.51
223.105	10.41
223.323	0.17
223.541	-16.21
223.759	73.9
223.977	24.75
224.195	110.76
224.413	12.46
224.631	61.61
224.849	-24.4
225.067	106.67
225.285	-24.4
225.503	10.41
225.721	8.36
225.939	26.79
226.157	28.84
226.375	77.99
226.592	14.51
226.81	-8.02
227.028	-30.55
227.246	94.38
227.464	43.18
227.682	53.42
227.9	6.31
228.117	-12.12
228.335	10.41
228.553	41.13
228.771	82.09
228.989	61.61
229.206	-24.4
229.424	-3.93
229.642	10.41
229.86	-12.12
230.077	43.18
230.295	20.65
230.513	90.28
230.731	-42.84
230.948	43.18
231.166	26.79
231.384	49.32
231.601	8.36
231.819	16.55
232.037	16.55
232.254	-30.55
232.472	-8.02
232.689	-71.51
232.907	39.08
233.125	61.61
233.342	8.36
233.56	-5.97
233.777	-24.4
233.995	8.36
234.213	108.71
234.43	69.8
234.648	10.41
234.865	12.46
235.083	34.99
235.3	45.23
235.518	77.99
235.735	41.13
235.953	24.75
236.17	28.84
236.388	45.23
236.605	43.18
236.822	84.14
237.04	73.9
237.257	0.17
237.475	-18.26
237.692	24.75
237.909	41.13
238.127	-14.17
238.344	37.03
238.562	69.8
238.779	-14.17
238.996	16.55
239.214	34.99
239.431	82.09
239.648	16.55
239.865	71.85
240.083	65.71
240.3	-5.97
240.517	0.17
240.735	45.23
240.952	69.8
241.169	98.47
241.386	75.95
241.603	26.79
241.821	-30.55
242.038	-14.17
242.255	20.65
242.472	-8.02
242.689	18.6
242.907	6.31
243.124	47.27
243.341	28.84
243.558	-46.93
243.775	45.23
243.992	14.51
244.209	14.51
244.426	61.61
244.643	-14.17
244.86	94.38
245.078	12.46
245.295	34.99
245.512	-16.21
245.729	-5.97
245.946	37.03
246.163	63.66
246.38	8.36
246.597	57.51
246.814	4.27
247.031	18.6
247.248	49.32
247.464	77.99
247.681	10.41
247.898	84.14
248.115	24.75
248.332	-32.6
248.549	77.99
248.766	63.66
248.983	67.75
249.2	32.94
249.417	-16.21
249.633	41.13
249.85	98.47
250.067	32.94
250.284	8.36
250.501	34.99
250.717	77.99
250.934	-12.12
251.151	-40.79
251.368	49.32
251.585	32.94
251.801	73.9
252.018	0.17
252.235	16.55
252.451	86.19
252.668	4.27
252.885	49.32
253.102	55.47
253.318	41.13
253.535	63.66
253.752	24.75
253.968	-8.02
254.185	10.41
254.401	10.41
254.618	24.75
254.835	-30.55
255.051	57.51
255.268	92.33
255.484	49.32
255.701	16.55
255.917	-30.55
256.134	-40.79
256.351	32.94
256.567	10.41
256.784	67.75
257	-75.6
257.217	51.37
257.433	123.05
257.65	-12.12
257.866	90.28
258.082	0.17
258.299	28.84
258.515	49.32
258.732	20.65
258.948	69.8
259.165	131.24
259.381	57.51
259.597	53.42
259.814	-16.21
260.03	12.46
260.246	-38.74
260.463	118.95
260.679	18.6
260.895	61.61
261.112	114.86
261.328	2.22
261.544	-65.36
261.761	34.99
261.977	-12.12
262.193	-3.93
262.409	118.95
262.626	86.19
262.842	139.43
263.058	-59.22
263.274	32.94
263.49	-14.17
263.707	69.8
263.923	57.51
264.139	26.79
264.355	2.22
264.571	22.7
264.787	10.41
265.004	49.32
265.22	6.31
265.436	-28.5
265.652	-77.65
265.868	2.22
266.084	2.22
266.3	-14.17
266.516	20.65
266.732	82.09
266.948	0.17
267.164	16.55
267.38	-16.21
267.596	2.22
267.812	45.23
268.028	12.46
268.244	63.66
268.46	90.28
268.676	28.84
268.892	0.17
269.108	41.13
269.324	32.94
269.54	-16.21
269.756	65.71
269.972	16.55
270.188	-48.98
270.403	43.18
270.619	98.47
270.835	20.65
271.051	51.37
271.267	39.08
271.483	-16.21
271.698	59.56
271.914	18.6
272.13	8.36
272.346	-20.31
272.562	2.22
272.777	88.23
272.993	-24.4
273.209	-14.17
273.425	-12.12
273.64	-57.17
273.856	32.94
274.072	51.37
274.287	-14.17
274.503	73.9
274.719	69.8
274.934	-30.55
275.15	0.17
275.366	8.36
275.581	8.36
275.797	18.6
276.012	69.8
276.228	-12.12
276.444	57.51
276.659	67.75
276.875	-12.12
277.09	-57.17
277.306	-40.79
277.521	90.28
277.737	53.42
277.952	8.36
278.168	12.46
278.383	26.79
278.599	-40.79
278.814	57.51
279.03	61.61
279.245	82.09
279.461	28.84
279.676	73.9
279.892	-1.88
280.107	-24.4
280.322	67.75
280.538	34.99
280.753	4.27
280.969	2.22
281.184	51.37
281.399	16.55
281.615	57.51
281.83	90.28
282.045	-24.4
282.26	4.27
282.476	-48.98
282.691	-40.79
282.906	61.61
283.122	53.42
283.337	28.84
283.552	37.03
283.767	10.41
283.983	37.03
284.198	-5.97
284.413	2.22
284.628	-22.36
284.843	-18.26
285.058	94.38
285.274	18.6
285.489	10.41
285.704	94.38
285.919	51.37
286.134	39.08
286.349	34.99
286.564	10.41
286.779	59.56
286.995	26.79
287.21	-3.93
287.425	-14.17
287.64	37.03
287.855	24.75
288.07	8.36
288.285	-55.12
288.5	6.31
288.715	2.22
288.93	49.32
289.145	32.94
289.36	49.32
289.575	24.75
289.79	14.51
290.004	-77.65
290.219	59.56
290.434	2.22
290.649	-14.17
290.864	28.84
291.079	49.32
291.294	-3.93
291.509	18.6
291.724	108.71
291.938	-24.4
292.153	92.33
292.368	0.17
292.583	88.23
292.798	4.27
293.012	84.14
293.227	49.32
293.442	24.75
293.657	-8.02
293.871	24.75
294.086	26.79
294.301	8.36
294.516	84.14
294.73	-16.21
294.945	-46.93
295.16	-36.69
295.374	18.6
295.589	96.43
295.804	51.37
296.018	-44.88
296.233	90.28
296.447	-30.55
296.662	-20.31
296.877	41.13
297.091	55.47
297.306	73.9
297.52	-3.93
297.735	18.6
297.949	-14.17
298.164	59.56
298.378	73.9
298.593	-8.02
298.807	69.8
299.022	28.84
299.236	39.08
299.451	0.17
299.665	28.84
299.88	43.18
300.094	90.28
300.309	-1.88
300.523	28.84
300.737	57.51
300.952	53.42
301.166	-12.12
301.381	57.51
301.595	-30.55
301.809	69.8
302.024	-20.31
302.238	32.94
302.452	98.47
302.667	24.75
302.881	69.8
303.095	75.95
303.309	59.56
303.524	51.37
303.738	-14.17
303.952	-12.12
304.166	0.17
304.381	8.36
304.595	55.47
304.809	20.65
305.023	53.42
305.237	37.03
305.452	-24.4
305.666	43.18
305.88	147.62
306.094	2.22
306.308	106.67
306.522	-16.21
306.736	67.75
306.95	43.18
307.164	34.99
307.379	-12.12
307.593	-8.02
307.807	43.18
308.021	28.84
308.235	37.03
308.449	65.71
308.663	37.03
308.877	51.37
309.091	65.71
309.305	24.75
309.519	53.42
309.733	100.52
309.947	26.79
310.161	-14.17
310.374	-12.12
310.588	0.17
310.802	32.94
311.016	61.61
311.23	-26.45
311.444	28.84
311.658	28.84
311.872	37.03
312.085	65.71
312.299	16.55
312.513	16.55
312.727	4.27
312.941	24.75
313.154	2.22
313.368	8.36
313.582	59.56
313.796	84.14
314.009	-24.4
314.223	65.71
314.437	106.67
314.651	69.8
314.864	26.79
315.078	-24.4
315.292	43.18
315.505	16.55
315.719	82.09
315.933	-44.88
316.146	-24.4
316.36	-5.97
316.573	53.42
316.787	51.37
317.001	45.23
317.214	-44.88
317.428	73.9
317.641	49.32
317.855	114.86
318.068	16.55
318.282	41.13
318.495	121
318.709	71.85
318.922	75.95
319.136	102.57
319.349	75.95
319.563	26.79
319.776	-8.02
319.99	12.46
320.203	49.32
320.417	34.99
320.63	2.22
320.843	92.33
321.057	24.75
321.27	-18.26
321.483	100.52
321.697	59.56
321.91	49.32
322.124	41.13
322.337	73.9
322.55	8.36
322.763	30.89
322.977	53.42
323.19	30.89
323.403	-16.21
323.617	49.32
323.83	73.9
324.043	49.32
324.256	32.94
324.469	0.17
324.683	49.32
324.896	16.55
325.109	37.03
325.322	20.65
325.535	41.13
325.748	82.09
325.962	32.94
326.175	24.75
326.388	2.22
326.601	16.55
326.814	53.42
327.027	49.32
327.24	127.14
327.453	-48.98
327.666	12.46
327.879	34.99
328.092	45.23
328.305	24.75
328.518	16.55
328.731	32.94
328.944	65.71
329.157	16.55
329.37	-147.28
329.583	90.28
329.796	131.24
330.009	-44.88
330.222	75.95
330.435	32.94
330.648	45.23
330.861	24.75
331.073	18.6
331.286	49.32
331.499	24.75
331.712	6.31
331.925	10.41
332.138	28.84
332.35	75.95
332.563	-34.64
332.776	53.42
332.989	20.65
333.202	90.28
333.414	55.47
333.627	-22.36
333.84	32.94
334.053	-14.17
334.265	6.31
334.478	24.75
334.691	49.32
334.903	0.17
335.116	0.17
335.329	43.18
335.541	-10.07
335.754	92.33
335.966	108.71
336.179	10.41
336.392	14.51
336.604	-8.02
336.817	12.46
337.029	123.05
337.242	0.17
337.454	75.95
337.667	-28.5
337.88	57.51
338.092	94.38
338.305	8.36
338.517	41.13
338.729	102.57
338.942	24.75
339.154	-32.6
339.367	-3.93
339.579	-5.97
339.792	0.17
340.004	22.7
340.217	-12.12
340.429	10.41
340.641	-3.93
340.854	-57.17
341.066	37.03
341.278	34.99
341.491	82.09
341.703	75.95
341.915	24.75
342.128	80.04
342.34	34.99
342.552	-5.97
342.764	20.65
342.977	73.9
343.189	26.79
343.401	90.28
343.613	-24.4
343.826	32.94
344.038	-14.17
344.25	75.95
344.462	49.32
344.674	37.03
344.886	-57.17
345.099	30.89
345.311	47.27
345.523	16.55
345.735	71.85
345.947	24.75
346.159	53.42
346.371	108.71
346.583	0.17
346.795	59.56
347.007	6.31
347.219	20.65
347.431	39.08
347.643	73.9
347.855	-34.64
348.067	49.32
348.279	18.6
348.491	41.13
348.703	45.23
348.915	53.42
349.127	-22.36
349.339	24.75
349.551	18.6
349.763	-5.97
349.975	41.13
350.187	75.95
350.399	45.23
350.61	100.52
350.822	61.61
351.034	26.79
351.246	84.14
351.458	90.28
351.669	10.41
351.881	82.09
352.093	-16.21
352.305	82.09
352.517	65.71
352.728	86.19
352.94	73.9
353.152	65.71
353.363	-8.02
353.575	41.13
353.787	51.37
353.999	32.94
354.21	92.33
354.422	18.6
354.633	-14.17
354.845	-24.4
355.057	16.55
355.268	41.13
355.48	16.55
355.692	2.22
355.903	41.13
356.115	14.51
356.326	-12.12
356.538	28.84
356.749	73.9
356.961	133.29
357.172	57.51
357.384	82.09
357.595	22.7
357.807	94.38
358.018	18.6
358.23	53.42
358.441	49.32
358.653	28.84
358.864	2.22
359.075	67.75
359.287	45.23
359.498	77.99
359.709	2.22
359.921	65.71
360.132	77.99
360.344	110.76
360.555	82.09
360.766	82.09
360.977	71.85
361.189	98.47
361.4	0.17
361.611	37.03
361.823	67.75
362.034	90.28
362.245	-22.36
362.456	84.14
362.667	-1.88
362.879	45.23
363.09	41.13
363.301	51.37
363.512	88.23
363.723	57.51
363.935	-22.36
364.146	59.56
364.357	92.33
364.568	37.03
364.779	4.27
364.99	-5.97
365.201	2.22
365.412	37.03
365.623	16.55
365.834	43.18
366.045	45.23
366.256	18.6
366.467	49.32
366.678	32.94
366.889	59.56
367.1	34.99
367.311	61.61
367.522	77.99
367.733	43.18
367.944	123.05
368.155	34.99
368.366	71.85
368.577	67.75
368.788	139.43
368.999	-20.31
369.209	114.86
369.42	108.71
369.631	147.62
369.842	30.89
370.053	61.61
370.264	22.7
370.474	-48.98
370.685	86.19
370.896	69.8
371.107	65.71
371.317	84.14
371.528	-22.36
371.739	20.65
371.95	69.8
372.16	24.75
372.371	0.17
372.582	65.71
372.792	49.32
373.003	24.75
373.214	88.23
373.424	92.33
373.635	65.71
373.846	90.28
374.056	39.08
374.267	67.75
374.477	47.27
374.688	28.84
374.898	8.36
375.109	53.42
375.319	-10.07
375.53	114.86
375.74	-20.31
375.951	61.61
376.161	57.51
376.372	116.9
376.582	2.22
376.793	-24.4
377.003	0.17
377.214	-32.6
377.424	51.37
377.635	77.99
377.845	45.23
378.055	57.51
378.266	32.94
378.476	12.46
378.686	34.99
378.897	26.79
379.107	-30.55
379.317	28.84
379.528	10.41
379.738	102.57
379.948	-34.64
380.158	53.42
380.369	2.22
380.579	100.52
380.789	59.56
380.999	45.23
381.21	65.71
381.42	67.75
381.63	28.84
381.84	-24.4
382.05	24.75
382.261	18.6
382.471	37.03
382.681	-38.74
382.891	-22.36
383.101	96.43
383.311	43.18
383.521	61.61
383.731	65.71
383.941	-24.4
384.151	8.36
384.361	92.33
384.571	10.41
384.781	63.66
384.991	98.47
385.201	65.71
385.411	108.71
385.621	51.37
385.831	-32.6
386.041	114.86
386.251	69.8
386.461	34.99
386.671	73.9
386.881	30.89
387.091	45.23
387.301	67.75
387.511	24.75
387.72	-20.31
387.93	41.13
388.14	16.55
388.35	45.23
388.56	118.95
388.769	75.95
388.979	57.51
389.189	43.18
389.399	102.57
389.609	114.86
389.818	69.8
390.028	18.6
390.238	82.09
390.447	41.13
390.657	43.18
390.867	24.75
391.076	84.14
391.286	63.66
391.496	26.79
391.705	63.66
391.915	65.71
392.125	26.79
392.334	-32.6
392.544	94.38
392.753	80.04
392.963	49.32
393.172	53.42
393.382	32.94
393.591	67.75
393.801	84.14
394.01	143.53
394.22	26.79
394.429	49.32
394.639	43.18
394.848	155.82
395.058	0.17
395.267	114.86
395.477	57.51
395.686	0.17
395.895	112.81
396.105	164.01
396.314	67.75
396.524	108.71
396.733	114.86
396.942	37.03
397.152	112.81
397.361	82.09
397.57	63.66
397.78	75.95
397.989	30.89
398.198	133.29
398.407	108.71
398.617	108.71
398.826	90.28
399.035	26.79
399.244	135.34
399.453	94.38
399.663	53.42
399.872	168.1
400.081	45.23
400.29	106.67
400.499	57.51
400.708	90.28
400.917	51.37
401.127	104.62
401.336	18.6
401.545	129.19
401.754	90.28
401.963	98.47
402.172	82.09
402.381	90.28
402.59	8.36
402.799	118.95
403.008	166.06
403.217	127.14
403.426	135.34
403.635	26.79
403.844	92.33
404.053	155.82
404.262	129.19
404.471	75.95
404.68	133.29
404.888	73.9
405.097	65.71
405.306	112.81
405.515	96.43
405.724	166.06
405.933	147.62
406.142	90.28
406.35	100.52
406.559	155.82
406.768	147.62
406.977	135.34
407.185	164.01
407.394	131.24
407.603	155.82
407.812	198.82
408.02	174.25
408.229	213.16
408.438	170.15
408.646	157.86
408.855	219.3
409.064	174.25
409.272	282.79
409.481	264.36
409.69	190.63
409.898	256.17
410.107	268.45
410.315	250.02
410.524	264.36
410.733	270.5
410.941	217.26
411.15	254.12
411.358	247.97
411.567	266.41
411.775	286.89
411.984	278.69
412.192	319.65
412.401	313.51
412.609	411.81
412.818	450.72
413.026	377
413.234	387.24
413.443	426.15
413.651	387.24
413.86	383.14
414.068	450.72
414.276	471.2
414.485	524.45
414.693	491.68
414.901	520.35
415.11	503.97
415.318	544.93
415.526	624.8
415.734	589.99
415.943	540.83
416.151	639.14
416.359	499.88
416.567	639.14
416.776	778.4
416.984	714.91
417.192	721.06
417.4	704.67
417.608	778.4
417.817	778.4
418.025	813.21
418.233	862.37
418.441	788.64
418.649	872.61
418.857	876.7
419.065	929.95
419.273	1001.63
419.481	1032.35
419.689	1056.92
419.897	1065.11
420.105	1185.94
420.313	1239.19
420.521	1208.47
420.729	1237.14
420.937	1286.3
421.145	1253.53
421.353	1314.97
421.561	1542.29
421.769	1376.41
421.977	1585.3
422.185	1507.48
422.393	1585.3
422.601	1687.7
422.809	1640.59
423.017	1755.28
423.224	1755.28
423.432	1796.24
423.64	1863.82
423.848	1992.84
424.056	2011.28
424.263	1998.99
424.471	2019.47
424.679	2132.11
424.887	2171.02
425.094	2291.85
425.302	2404.49
425.51	2427.01
425.718	2510.98
425.925	2547.84
426.133	2711.68
426.341	2644.1
426.548	2891.9
426.756	2760.83
426.964	2838.66
427.171	3057.79
427.379	3164.28
427.586	3246.2
427.794	3432.57
428.001	3518.58
428.209	3614.84
428.417	3602.55
428.624	3942.51
428.832	3846.26
429.039	3842.16
429.247	3856.5
429.454	4202.6
429.662	4573.28
429.869	3999.85
430.076	4415.59
430.284	4370.54
430.491	4485.22
430.699	4714.59
430.906	4880.48
431.114	4728.93
431.321	5070.94
431.528	5136.48
431.736	5478.49
431.943	5746.77
432.15	5582.93
432.358	5685.33
432.565	6017.1
432.772	5689.43
432.979	6201.42
433.187	6260.81
433.394	6410.31
433.601	6867.01
433.808	6889.54
434.016	6758.47
434.223	7114.81
434.43	7315.52
434.637	7178.3
434.844	7702.58
435.052	7837.75
435.259	7901.23
435.466	7772.21
435.673	7729.2
435.88	8085.55
436.087	8833.06
436.294	8908.83
436.501	8511.53
436.708	8710.18
436.915	8783.91
437.122	9224.22
437.329	9314.33
437.537	9787.41
437.743	9838.61
437.95	9707.54
438.157	10389.52
438.364	10709
438.571	10489.87
438.778	10711.05
438.985	11745.27
439.192	11055.11
439.399	11427.84
439.606	11118.59
439.813	12019.7
440.02	12597.23
440.227	12212.21
440.433	12310.51
440.64	12838.89
440.847	12568.55
441.054	12877.8
441.261	13717.47
441.467	13527
441.674	14002.13
441.881	14354.38
442.088	14354.38
442.294	14266.32
442.501	14530.51
442.708	14827.46
442.914	15302.59
443.121	15998.9
443.328	15445.95
443.534	16859.05
443.741	16297.91
443.948	15785.91
444.154	17432.48
444.361	17340.32
444.568	17340.32
444.774	17080.23
444.981	17530.78
445.187	17971.1
445.394	18694.03
445.6	18358.16
445.807	19974.01
446.013	19431.3
446.22	19668.86
446.426	20449.14
446.633	20619.12
446.839	21415.78
447.046	20453.23
447.252	21708.64
447.459	21460.84
447.665	21636.96
447.871	22654.8
448.078	23521.09
448.284	22165.34
448.491	23238.47
448.697	24039.23
448.903	24280.89
449.11	24160.06
449.316	23834.43
449.522	24717.11
449.728	25087.79
449.935	25552.68
450.141	25292.58
450.347	25800.48
450.553	24977.2
450.76	25405.22
450.966	26070.81
451.172	26056.48
451.378	26603.28
451.584	26052.38
451.791	27053.84
451.997	27109.13
452.203	27229.96
452.409	27406.09
452.615	27389.7
452.821	26410.78
453.027	26009.37
453.233	27373.32
453.44	26441.5
453.646	26820.37
453.852	26763.03
454.058	27320.07
454.264	26040.09
454.47	27090.7
454.676	26640.15
454.882	27297.55
455.088	24905.52
455.294	25329.45
455.5	25640.74
455.705	26236.7
455.911	25001.77
456.117	24825.65
456.323	24180.54
456.529	23064.39
456.735	24151.87
456.941	23584.58
457.147	23408.45
457.352	22366.04
457.558	22249.3
457.764	22241.11
457.97	21825.37
458.176	21514.08
458.381	21426.02
458.587	20463.47
458.793	20313.97
458.999	19380.1
459.204	20733.81
459.41	19926.91
459.616	18796.43
459.821	19163.01
460.027	19056.52
460.233	18569.1
460.438	17645.47
460.644	17416.1
460.85	16793.51
461.055	16713.64
461.261	16639.92
461.466	15534.01
461.672	14870.47
461.878	16105.4
462.083	14866.38
462.289	14714.83
462.494	14323.66
462.7	13901.78
462.905	13588.44
463.111	14172.11
463.316	14024.66
463.522	13617.11
463.727	13678.55
463.932	13715.42
464.138	13602.78
464.343	13539.29
464.549	13248.48
464.754	13498.33
464.959	13598.68
465.165	13166.56
465.37	12845.03
465.575	12451.82
465.781	12914.66
465.986	13017.06
466.191	12613.61
466.397	12273.65
466.602	11702.26
466.807	12025.84
467.012	12009.46
467.218	12124.15
467.423	11978.74
467.628	12103.67
467.833	12406.77
468.038	11851.77
468.244	11911.16
