Data from USB4F104151__163__14-44-46-338.txt Node

Date: Thu Mar 13 14:44:46 EDT 2025
User: louis
Spectrometer: USB4F10415
Trigger mode: 4
Integration Time (sec): 2.000000E-2
Scans to average: 1
Electric dark correction enabled: true
Nonlinearity correction enabled: false
Boxcar width: 0
XAxis mode: Wavelengths
Number of Pixels in Spectrum: 3648
>>>>>Begin Spectral Data<<<<<
178.204	-127.14
178.424	-127.14
178.644	-127.14
178.864	-127.14
179.084	-104.62
179.304	51.03
179.524	67.41
179.744	-47.27
179.964	24.4
180.184	1.88
180.404	83.8
180.624	8.02
180.844	-8.36
181.064	-100.52
181.283	-22.7
181.503	-16.55
181.723	-41.13
181.943	-16.55
182.163	48.98
182.383	20.31
182.602	40.79
182.822	114.52
183.042	-32.94
183.262	10.07
183.482	53.08
183.701	67.41
183.921	65.36
184.141	-16.55
184.361	30.55
184.58	61.27
184.8	-8.36
185.02	-14.51
185.239	24.4
185.459	44.88
185.679	63.32
185.898	30.55
186.118	-26.79
186.338	-14.51
186.557	94.04
186.777	-39.08
186.997	-0.17
187.216	12.12
187.436	67.41
187.655	91.99
187.875	40.79
188.095	44.88
188.314	59.22
188.534	59.22
188.753	3.93
188.973	67.41
189.192	36.69
189.412	79.7
189.631	51.03
189.851	8.02
190.07	18.26
190.29	-55.47
190.509	40.79
190.729	-8.36
190.948	34.64
191.168	89.94
191.387	-2.22
191.607	3.93
191.826	42.84
192.045	71.51
192.265	3.93
192.484	36.69
192.704	44.88
192.923	1.88
193.142	53.08
193.362	16.21
193.581	32.6
193.8	61.27
194.02	55.12
194.239	-20.65
194.458	57.17
194.678	-12.46
194.897	120.66
195.116	81.75
195.335	24.4
195.555	1.88
195.774	69.46
195.993	32.6
196.212	10.07
196.432	-53.42
196.651	-6.31
196.87	61.27
197.089	-24.75
197.308	18.26
197.528	77.65
197.747	-30.89
197.966	8.02
198.185	32.6
198.404	18.26
198.623	53.08
198.842	112.47
199.062	36.69
199.281	12.12
199.5	-12.46
199.719	28.5
199.938	-4.27
200.157	38.74
200.376	44.88
200.595	24.4
200.814	53.08
201.033	48.98
201.252	85.84
201.471	67.41
201.69	36.69
201.909	28.5
202.128	57.17
202.347	16.21
202.566	36.69
202.785	-4.27
203.004	38.74
203.223	139.09
203.442	36.69
203.661	18.26
203.879	-0.17
204.098	-8.36
204.317	3.93
204.536	87.89
204.755	32.6
204.974	81.75
205.193	12.12
205.411	165.71
205.63	-30.89
205.849	65.36
206.068	73.56
206.287	16.21
206.505	67.41
206.724	1.88
206.943	26.45
207.162	26.45
207.381	22.36
207.599	40.79
207.818	59.22
208.037	16.21
208.255	-32.94
208.474	42.84
208.693	55.12
208.911	-6.31
209.13	-53.42
209.349	57.17
209.567	34.64
209.786	26.45
210.005	40.79
210.223	-16.55
210.442	26.45
210.661	16.21
210.879	20.31
211.098	75.6
211.316	61.27
211.535	24.4
211.753	28.5
211.972	20.31
212.191	8.02
212.409	69.46
212.628	55.12
212.846	-49.32
213.065	-8.36
213.283	65.36
213.502	-73.9
213.72	26.45
213.938	36.69
214.157	-12.46
214.375	112.47
214.594	57.17
214.812	81.75
215.031	67.41
215.249	-53.42
215.467	28.5
215.686	96.08
215.904	87.89
216.122	10.07
216.341	98.13
216.559	65.36
216.778	67.41
216.996	18.26
217.214	-43.18
217.432	8.02
217.651	24.4
217.869	34.64
218.087	-0.17
218.306	-53.42
218.524	77.65
218.742	38.74
218.96	44.88
219.179	-59.56
219.397	73.56
219.615	34.64
219.833	57.17
220.051	36.69
220.27	77.65
220.488	3.93
220.706	100.18
220.924	48.98
221.142	-8.36
221.36	57.17
221.578	34.64
221.796	-14.51
222.015	-80.04
222.233	48.98
222.451	55.12
222.669	-0.17
222.887	-0.17
223.105	24.4
223.323	53.08
223.541	-6.31
223.759	16.21
223.977	-20.65
224.195	81.75
224.413	110.42
224.631	24.4
224.849	24.4
225.067	44.88
225.285	24.4
225.503	44.88
225.721	-82.09
225.939	85.84
226.157	-12.46
226.375	48.98
226.592	40.79
226.81	8.02
227.028	85.84
227.246	42.84
227.464	-0.17
227.682	34.64
227.9	59.22
228.117	61.27
228.335	51.03
228.553	18.26
228.771	81.75
228.989	14.17
229.206	91.99
229.424	36.69
229.642	30.55
229.86	-16.55
230.077	57.17
230.295	44.88
230.513	75.6
230.731	79.7
230.948	83.8
231.166	79.7
231.384	59.22
231.601	-24.75
231.819	61.27
232.037	32.6
232.254	10.07
232.472	16.21
232.689	16.21
232.907	98.13
233.125	24.4
233.342	48.98
233.56	20.31
233.777	89.94
233.995	-8.36
234.213	32.6
234.43	26.45
234.648	-6.31
234.865	-8.36
235.083	98.13
235.3	42.84
235.518	102.23
235.735	44.88
235.953	132.95
236.17	42.84
236.388	16.21
236.605	18.26
236.822	51.03
237.04	57.17
237.257	65.36
237.475	16.21
237.692	10.07
237.909	-0.17
238.127	40.79
238.344	48.98
238.562	-18.6
238.779	-61.61
238.996	-24.75
239.214	18.26
239.431	114.52
239.648	40.79
239.865	12.12
240.083	67.41
240.3	59.22
240.517	36.69
240.735	85.84
240.952	63.32
241.169	28.5
241.386	18.26
241.603	26.45
241.821	20.31
242.038	91.99
242.255	73.56
242.472	34.64
242.689	89.94
242.907	75.6
243.124	55.12
243.341	-0.17
243.558	20.31
243.775	48.98
243.992	-26.79
244.209	81.75
244.426	75.6
244.643	79.7
244.86	55.12
245.078	65.36
245.295	75.6
245.512	44.88
245.729	-39.08
245.946	124.76
246.163	71.51
246.38	20.31
246.597	10.07
246.814	73.56
247.031	20.31
247.248	51.03
247.464	-0.17
247.681	24.4
247.898	28.5
248.115	106.32
248.332	-0.17
248.549	81.75
248.766	73.56
248.983	114.52
249.2	-8.36
249.417	1.88
249.633	48.98
249.85	-0.17
250.067	40.79
250.284	104.28
250.501	61.27
250.717	42.84
250.934	36.69
251.151	16.21
251.368	-26.79
251.585	24.4
251.801	36.69
252.018	48.98
252.235	46.93
252.451	73.56
252.668	36.69
252.885	81.75
253.102	40.79
253.318	-12.46
253.535	1.88
253.752	81.75
253.968	-32.94
254.185	-53.42
254.401	94.04
254.618	16.21
254.835	-24.75
255.051	75.6
255.268	-0.17
255.484	12.12
255.701	69.46
255.917	36.69
256.134	-77.99
256.351	22.36
256.567	-61.61
256.784	65.36
257	-65.71
257.217	22.36
257.433	77.65
257.65	-24.75
257.866	36.69
258.082	-16.55
258.299	-0.17
258.515	102.23
258.732	42.84
258.948	-4.27
259.165	-0.17
259.381	-0.17
259.597	10.07
259.814	57.17
260.03	57.17
260.246	98.13
260.463	1.88
260.679	32.6
260.895	-16.55
261.112	83.8
261.328	14.17
261.544	-39.08
261.761	73.56
261.977	20.31
262.193	-30.89
262.409	-30.89
262.626	28.5
262.842	57.17
263.058	65.36
263.274	-6.31
263.49	48.98
263.707	32.6
263.923	-45.23
264.139	-14.51
264.355	34.64
264.571	120.66
264.787	51.03
265.004	79.7
265.22	16.21
265.436	48.98
265.652	-8.36
265.868	114.52
266.084	14.17
266.3	28.5
266.516	18.26
266.732	8.02
266.948	26.45
267.164	-37.03
267.38	36.69
267.596	-14.51
267.812	-0.17
268.028	48.98
268.244	104.28
268.46	-24.75
268.676	-41.13
268.892	16.21
269.108	61.27
269.324	24.4
269.54	-47.27
269.756	42.84
269.972	-8.36
270.188	53.08
270.403	16.21
270.619	16.21
270.835	-4.27
271.051	40.79
271.267	8.02
271.483	-12.46
271.698	57.17
271.914	89.94
272.13	61.27
272.346	-24.75
272.562	-0.17
272.777	40.79
272.993	10.07
273.209	24.4
273.425	34.64
273.64	-16.55
273.856	34.64
274.072	46.93
274.287	-24.75
274.503	28.5
274.719	12.12
274.934	81.75
275.15	-4.27
275.366	57.17
275.581	38.74
275.797	32.6
276.012	63.32
276.228	59.22
276.444	51.03
276.659	40.79
276.875	44.88
277.09	98.13
277.306	12.12
277.521	34.64
277.737	32.6
277.952	98.13
278.168	44.88
278.383	-4.27
278.599	48.98
278.814	42.84
279.03	71.51
279.245	77.65
279.461	5.97
279.676	32.6
279.892	53.08
280.107	73.56
280.322	16.21
280.538	48.98
280.753	16.21
280.969	73.56
281.184	65.36
281.399	-8.36
281.615	-24.75
281.83	61.27
282.045	51.03
282.26	18.26
282.476	20.31
282.691	48.98
282.906	-0.17
283.122	81.75
283.337	100.18
283.552	48.98
283.767	18.26
283.983	18.26
284.198	16.21
284.413	-0.17
284.628	1.88
284.843	65.36
285.058	63.32
285.274	69.46
285.489	-24.75
285.704	63.32
285.919	-22.7
286.134	30.55
286.349	-22.7
286.564	18.26
286.779	81.75
286.995	53.08
287.21	46.93
287.425	40.79
287.64	-2.22
287.855	73.56
288.07	24.4
288.285	87.89
288.5	34.64
288.715	-6.31
288.93	46.93
289.145	42.84
289.36	16.21
289.575	26.45
289.79	-41.13
290.004	26.45
290.219	57.17
290.434	10.07
290.649	48.98
290.864	40.79
291.079	-12.46
291.294	40.79
291.509	48.98
291.724	-14.51
291.938	3.93
292.153	55.12
292.368	81.75
292.583	-2.22
292.798	65.36
293.012	-37.03
293.227	81.75
293.442	81.75
293.657	94.04
293.871	75.6
294.086	63.32
294.301	69.46
294.516	59.22
294.73	22.36
294.945	-61.61
295.16	16.21
295.374	40.79
295.589	44.88
295.804	38.74
296.018	24.4
296.233	10.07
296.447	69.46
296.662	16.21
296.877	8.02
297.091	32.6
297.306	73.56
297.52	51.03
297.735	-0.17
297.949	-18.6
298.164	81.75
298.378	51.03
298.593	-18.6
298.807	91.99
299.022	24.4
299.236	73.56
299.451	22.36
299.665	3.93
299.88	-4.27
300.094	-4.27
300.309	-4.27
300.523	65.36
300.737	-37.03
300.952	18.26
301.166	75.6
301.381	-12.46
301.595	-4.27
301.809	-8.36
302.024	-49.32
302.238	-10.41
302.452	63.32
302.667	79.7
302.881	159.57
303.095	-14.51
303.309	16.21
303.524	-55.47
303.738	65.36
303.952	36.69
304.166	-0.17
304.381	-6.31
304.595	67.41
304.809	30.55
305.023	69.46
305.237	8.02
305.452	24.4
305.666	22.36
305.88	38.74
306.094	-20.65
306.308	65.36
306.522	48.98
306.736	3.93
306.95	16.21
307.164	-2.22
307.379	-0.17
307.593	61.27
307.807	91.99
308.021	12.12
308.235	-18.6
308.449	3.93
308.663	55.12
308.877	34.64
309.091	-8.36
309.305	48.98
309.519	-20.65
309.733	69.46
309.947	26.45
310.161	53.08
310.374	83.8
310.588	83.8
310.802	-24.75
311.016	81.75
311.23	38.74
311.444	34.64
311.658	1.88
311.872	1.88
312.085	71.51
312.299	73.56
312.513	57.17
312.727	34.64
312.941	-8.36
313.154	73.56
313.368	-4.27
313.582	-6.31
313.796	24.4
314.009	40.79
314.223	34.64
314.437	-8.36
314.651	81.75
314.864	5.97
315.078	8.02
315.292	40.79
315.505	-32.94
315.719	-16.55
315.933	3.93
316.146	53.08
316.36	24.4
316.573	108.37
316.787	20.31
317.001	55.12
317.214	-41.13
317.428	-2.22
317.641	-41.13
317.855	65.36
318.068	87.89
318.282	-30.89
318.495	85.84
318.709	20.31
318.922	10.07
319.136	85.84
319.349	28.5
319.563	51.03
319.776	73.56
319.99	12.12
320.203	-2.22
320.417	-14.51
320.63	55.12
320.843	53.08
321.057	8.02
321.27	40.79
321.483	-22.7
321.697	12.12
321.91	1.88
322.124	69.46
322.337	67.41
322.55	26.45
322.763	3.93
322.977	53.08
323.19	57.17
323.403	24.4
323.617	32.6
323.83	24.4
324.043	26.45
324.256	55.12
324.469	-24.75
324.683	40.79
324.896	40.79
325.109	34.64
325.322	28.5
325.535	57.17
325.748	75.6
325.962	38.74
326.175	24.4
326.388	106.32
326.601	53.08
326.814	71.51
327.027	-0.17
327.24	57.17
327.453	-22.7
327.666	16.21
327.879	110.42
328.092	118.61
328.305	57.17
328.518	98.13
328.731	-16.55
328.944	77.65
329.157	36.69
329.37	16.21
329.583	180.05
329.796	40.79
330.009	24.4
330.222	40.79
330.435	20.31
330.648	67.41
330.861	8.02
331.073	40.79
331.286	63.32
331.499	40.79
331.712	18.26
331.925	20.31
332.138	65.36
332.35	46.93
332.563	24.4
332.776	51.03
332.989	12.12
333.202	124.76
333.414	-24.75
333.627	34.64
333.84	55.12
334.053	16.21
334.265	46.93
334.478	40.79
334.691	48.98
334.903	44.88
335.116	-41.13
335.329	10.07
335.541	100.18
335.754	75.6
335.966	-8.36
336.179	53.08
336.392	32.6
336.604	57.17
336.817	77.65
337.029	57.17
337.242	8.02
337.454	104.28
337.667	44.88
337.88	91.99
338.092	-10.41
338.305	-22.7
338.517	59.22
338.729	81.75
338.942	89.94
339.154	59.22
339.367	8.02
339.579	53.08
339.792	-65.71
340.004	22.36
340.217	3.93
340.429	3.93
340.641	8.02
340.854	18.26
341.066	40.79
341.278	91.99
341.491	10.07
341.703	-0.17
341.915	10.07
342.128	75.6
342.34	40.79
342.552	1.88
342.764	42.84
342.977	46.93
343.189	65.36
343.401	53.08
343.613	73.56
343.826	16.21
344.038	89.94
344.25	75.6
344.462	8.02
344.674	114.52
344.886	8.02
345.099	100.18
345.311	26.45
345.523	114.52
345.735	53.08
345.947	16.21
346.159	53.08
346.371	8.02
346.583	32.6
346.795	69.46
347.007	-41.13
347.219	57.17
347.431	89.94
347.643	126.8
347.855	40.79
348.067	139.09
348.279	8.02
348.491	26.45
348.703	-18.6
348.915	1.88
349.127	18.26
349.339	-37.03
349.551	51.03
349.763	65.36
349.975	30.55
350.187	26.45
350.399	34.64
350.61	40.79
350.822	40.79
351.034	67.41
351.246	3.93
351.458	75.6
351.669	40.79
351.881	91.99
352.093	26.45
352.305	106.32
352.517	24.4
352.728	46.93
352.94	83.8
353.152	26.45
353.363	16.21
353.575	73.56
353.787	42.84
353.999	46.93
354.21	100.18
354.422	16.21
354.633	-37.03
354.845	14.17
355.057	-6.31
355.268	5.97
355.48	85.84
355.692	3.93
355.903	-24.75
356.115	32.6
356.326	30.55
356.538	98.13
356.749	46.93
356.961	10.07
357.172	36.69
357.384	8.02
357.595	139.09
357.807	26.45
358.018	-8.36
358.23	61.27
358.441	87.89
358.653	1.88
358.864	32.6
359.075	-22.7
359.287	65.36
359.498	59.22
359.709	32.6
359.921	-0.17
360.132	87.89
360.344	38.74
360.555	-8.36
360.766	10.07
360.977	36.69
361.189	57.17
361.4	87.89
361.611	81.75
361.823	51.03
362.034	10.07
362.245	-49.32
362.456	-20.65
362.667	10.07
362.879	48.98
363.09	10.07
363.301	8.02
363.512	-12.46
363.723	8.02
363.935	65.36
364.146	83.8
364.357	-16.55
364.568	24.4
364.779	-14.51
364.99	106.32
365.201	24.4
365.412	40.79
365.623	-0.17
365.834	65.36
366.045	-26.79
366.256	48.98
366.467	128.85
366.678	-8.36
366.889	-8.36
367.1	36.69
367.311	-0.17
367.522	32.6
367.733	81.75
367.944	48.98
368.155	-24.75
368.366	122.71
368.577	69.46
368.788	30.55
368.999	-22.7
369.209	48.98
369.42	94.04
369.631	73.56
369.842	12.12
370.053	24.4
370.264	83.8
370.474	59.22
370.685	53.08
370.896	14.17
371.107	65.36
371.317	116.56
371.528	16.21
371.739	40.79
371.95	106.32
372.16	32.6
372.371	-32.94
372.582	67.41
372.792	34.64
373.003	34.64
373.214	1.88
373.424	81.75
373.635	40.79
373.846	75.6
374.056	36.69
374.267	-4.27
374.477	51.03
374.688	-86.19
374.898	-8.36
375.109	59.22
375.319	106.32
375.53	73.56
375.74	120.66
375.951	-0.17
376.161	65.36
376.372	42.84
376.582	16.21
376.793	57.17
377.003	-8.36
377.214	57.17
377.424	81.75
377.635	40.79
377.845	8.02
378.055	122.71
378.266	-0.17
378.476	71.51
378.686	94.04
378.897	48.98
379.107	48.98
379.317	-16.55
379.528	-4.27
379.738	10.07
379.948	-6.31
380.158	91.99
380.369	28.5
380.579	-16.55
380.789	65.36
380.999	81.75
381.21	22.36
381.42	30.55
381.63	16.21
381.84	73.56
382.05	-28.84
382.261	8.02
382.471	81.75
382.681	85.84
382.891	114.52
383.101	116.56
383.311	-14.51
383.521	40.79
383.731	61.27
383.941	106.32
384.151	98.13
384.361	16.21
384.571	57.17
384.781	130.9
384.991	44.88
385.201	81.75
385.411	108.37
385.621	-4.27
385.831	16.21
386.041	32.6
386.251	24.4
386.461	51.03
386.671	-8.36
386.881	8.02
387.091	83.8
387.301	65.36
387.511	57.17
387.72	40.79
387.93	77.65
388.14	28.5
388.35	53.08
388.56	44.88
388.769	135
388.979	139.09
389.189	32.6
389.399	22.36
389.609	42.84
389.818	85.84
390.028	98.13
390.238	32.6
390.447	42.84
390.657	94.04
390.867	83.8
391.076	71.51
391.286	83.8
391.496	51.03
391.705	-8.36
391.915	75.6
392.125	75.6
392.334	108.37
392.544	85.84
392.753	42.84
392.963	36.69
393.172	91.99
393.382	57.17
393.591	48.98
393.801	-6.31
394.01	94.04
394.22	83.8
394.429	16.21
394.639	106.32
394.848	34.64
395.058	98.13
395.267	149.33
395.477	182.1
395.686	153.43
395.895	57.17
396.105	73.56
396.314	12.12
396.524	71.51
396.733	48.98
396.942	118.61
397.152	83.8
397.361	83.8
397.57	104.28
397.78	98.13
397.989	79.7
398.198	155.47
398.407	61.27
398.617	124.76
398.826	126.8
399.035	51.03
399.244	89.94
399.453	132.95
399.663	124.76
399.872	157.52
400.081	106.32
400.29	130.9
400.499	83.8
400.708	147.28
400.917	116.56
401.127	81.75
401.336	126.8
401.545	118.61
401.754	114.52
401.963	151.38
402.172	108.37
402.381	81.75
402.59	26.45
402.799	102.23
403.008	100.18
403.217	81.75
403.426	106.32
403.635	122.71
403.844	157.52
404.053	108.37
404.262	102.23
404.471	147.28
404.68	81.75
404.888	73.56
405.097	128.85
405.306	151.38
405.515	163.67
405.724	198.48
405.933	159.57
406.142	157.52
406.35	139.09
406.559	100.18
406.768	167.76
406.977	229.2
407.185	159.57
407.394	126.8
407.603	114.52
407.812	282.45
408.02	249.68
408.229	223.06
408.438	118.61
408.646	178
408.855	255.83
409.064	163.67
409.272	270.16
409.481	216.91
409.69	233.3
409.898	282.45
410.107	261.97
410.315	229.2
410.524	227.15
410.733	296.78
410.941	266.07
411.15	331.6
411.358	352.08
411.567	354.13
411.775	302.93
411.984	339.79
412.192	360.27
412.401	309.07
412.609	491.34
412.818	395.09
413.026	419.66
413.234	417.61
413.443	401.23
413.651	499.53
413.86	474.96
414.068	565.07
414.276	538.45
414.485	483.15
414.693	556.88
414.901	638.8
415.11	462.67
415.318	573.26
415.526	550.73
415.734	657.23
415.943	689.99
416.151	628.56
416.359	704.33
416.567	692.04
416.776	730.95
416.984	737.1
417.192	849.74
417.4	782.15
417.608	888.65
417.817	866.12
418.025	933.7
418.233	1050.44
418.441	943.94
418.649	919.37
418.857	1075.01
419.065	1054.53
419.273	1095.49
419.481	1015.62
419.689	1093.44
419.897	1179.46
420.105	1187.65
420.313	1355.58
420.521	1269.57
420.729	1331.01
420.937	1417.02
421.145	1558.33
421.353	1507.13
421.561	1589.05
421.769	1533.76
421.977	1642.3
422.185	1642.3
422.393	1681.21
422.601	1908.54
422.809	1822.52
423.017	1795.9
423.224	2088.76
423.432	1984.31
423.64	2055.99
423.848	2232.12
424.056	2109.24
424.263	2283.31
424.471	2260.79
424.679	2330.42
424.887	2350.9
425.094	2592.56
425.302	2535.21
425.51	2717.48
425.718	2723.63
425.925	2842.41
426.133	2875.18
426.341	2918.18
426.548	3206.95
426.756	3159.85
426.964	3254.05
427.171	3338.02
427.379	3426.08
427.586	3620.64
427.794	3653.41
428.001	3782.43
428.209	4073.24
428.417	3952.41
428.624	4202.26
428.832	4243.22
429.039	4095.77
429.247	4171.54
429.454	4755.21
429.662	4751.12
429.869	4525.84
430.076	4849.42
430.284	4665.1
430.491	4980.49
430.699	5209.86
430.906	5111.56
431.114	5261.06
431.321	5437.19
431.528	5723.9
431.736	6070.01
431.943	6055.67
432.15	6020.86
432.358	6012.67
432.565	6549.23
432.772	6383.35
432.979	6776.56
433.187	6852.33
433.394	6954.73
433.601	7290.6
433.808	7347.94
434.016	7268.07
434.223	7702.24
434.43	7806.69
434.637	7986.91
434.844	8564.43
435.052	8613.59
435.259	8406.74
435.466	8632.02
435.673	8357.59
435.88	9078.47
436.087	9535.17
436.294	9545.41
436.501	9322.18
436.708	9453.25
436.915	9715.39
437.122	10235.58
437.329	10292.92
437.537	10596.02
437.743	10741.43
437.95	10671.79
438.157	11239.08
438.364	11546.28
438.571	11435.69
438.778	11722.4
438.985	12615.32
439.192	12156.57
439.399	12508.82
439.606	12207.77
439.813	12856.98
440.02	13969.02
440.227	13315.72
440.433	13315.72
440.64	13952.64
440.847	13528.71
441.054	14280.32
441.261	15095.41
441.467	14777.97
441.674	14960.24
441.881	15400.55
442.088	15447.66
442.294	15437.42
442.501	15953.51
442.708	16254.56
442.914	16682.58
443.121	17532.49
443.328	17190.48
443.534	18349.63
443.741	17661.51
443.948	17690.18
444.154	18980.4
444.361	18611.77
444.568	18763.32
444.774	18738.74
444.981	19058.23
445.187	19512.88
445.394	20309.54
445.6	20069.92
445.807	22156.8
446.013	21315.09
446.22	21552.65
446.426	22513.15
446.633	22541.82
446.839	23326.19
447.046	22341.12
447.252	23793.13
447.459	23494.13
447.665	23533.04
447.871	24399.33
448.078	25437.65
448.284	24409.57
448.491	25314.77
448.697	26144.2
448.903	26437.06
449.11	26406.34
449.316	25955.79
449.522	26748.35
449.728	27567.54
449.935	27389.36
450.141	27536.82
450.347	28423.59
450.553	27395.51
450.76	27688.37
450.966	28343.72
451.172	28376.48
451.378	28958.11
451.584	28536.23
451.791	29298.07
451.997	29113.75
452.203	29654.42
452.409	29707.66
452.615	29752.72
452.821	28497.31
453.027	28304.81
453.233	30059.91
453.44	28810.65
453.646	29003.16
453.852	28843.42
454.058	29658.51
454.264	28446.12
454.47	29425.04
454.676	28380.58
454.882	29541.78
455.088	27303.35
455.294	27350.45
455.5	27907.5
455.705	28132.78
455.911	27293.11
456.117	26670.53
456.323	26267.08
456.529	24595.93
456.735	25710.03
456.941	24944.09
457.147	25005.53
457.352	24313.31
457.558	23938.54
457.764	23993.83
457.97	23717.36
458.176	23172.6
458.381	23098.87
458.587	21902.86
458.793	22015.49
458.999	20882.97
459.204	22179.33
459.41	21552.65
459.616	20196.9
459.821	20274.72
460.027	20424.22
460.233	19748.39
460.438	18910.77
460.644	19041.84
460.85	18443.84
461.055	17770.05
461.261	17878.6
461.466	16522.84
461.672	15947.36
461.878	17309.26
462.083	16211.55
462.289	15988.32
462.494	15699.56
462.7	15083.12
462.905	14487.16
463.111	15101.55
463.316	14997.1
463.522	14610.04
463.727	15048.3
463.932	14704.24
464.138	14536.31
464.343	14827.12
464.549	14276.22
464.754	14804.6
464.959	14646.9
465.165	14270.08
465.37	13796.99
465.575	13584.01
465.781	13913.73
465.986	13909.63
466.191	13549.19
466.397	13368.97
466.602	12564.12
466.807	13190.8
467.012	13141.64
467.218	13164.17
467.423	12879.5
467.628	12938.9
467.833	13532.81
468.038	13233.8
