Data from USB4F104151__16__14-42-38-628.txt Node

Date: Thu Mar 13 14:42:38 EDT 2025
User: louis
Spectrometer: USB4F10415
Trigger mode: 4
Integration Time (sec): 2.000000E-2
Scans to average: 1
Electric dark correction enabled: true
Nonlinearity correction enabled: false
Boxcar width: 0
XAxis mode: Wavelengths
Number of Pixels in Spectrum: 3648
>>>>>Begin Spectral Data<<<<<
178.204	-82.43
178.424	-82.43
178.644	-82.43
178.864	-125.44
179.084	-113.15
179.304	-6.66
179.524	15.87
179.744	-80.38
179.964	19.97
180.184	26.11
180.404	62.98
180.624	-45.57
180.844	91.65
181.064	-41.47
181.283	-20.99
181.503	-31.23
181.723	9.73
181.943	-4.61
182.163	112.13
182.383	93.69
182.602	38.4
182.822	75.26
183.042	42.5
183.262	75.26
183.482	126.46
183.701	46.59
183.921	36.35
184.141	5.63
184.361	24.06
184.58	50.69
184.8	-6.66
185.02	69.12
185.239	79.36
185.459	19.97
185.679	34.3
185.898	-0.51
186.118	-4.61
186.338	19.97
186.557	34.3
186.777	-2.56
186.997	67.07
187.216	30.21
187.436	181.76
187.655	151.04
187.875	67.07
188.095	62.98
188.314	99.84
188.534	136.7
188.753	40.45
188.973	5.63
189.192	58.88
189.412	85.5
189.631	48.64
189.851	9.73
190.07	134.65
190.29	-2.56
190.509	77.31
190.729	67.07
190.948	-0.51
191.168	99.84
191.387	148.99
191.607	77.31
191.826	103.93
192.045	34.3
192.265	-35.33
192.484	-31.23
192.704	58.88
192.923	69.12
193.142	103.93
193.362	28.16
193.581	87.55
193.8	71.17
194.02	136.7
194.239	22.02
194.458	67.07
194.678	13.82
194.897	46.59
195.116	-16.9
195.335	124.41
195.555	87.55
195.774	52.74
195.993	83.45
196.212	19.97
196.432	36.35
196.651	42.5
196.87	58.88
197.089	95.74
197.308	32.26
197.528	62.98
197.747	73.21
197.966	58.88
198.185	99.84
198.404	52.74
198.623	9.73
198.842	67.07
199.062	153.09
199.281	-12.8
199.5	75.26
199.719	58.88
199.938	75.26
200.157	48.64
200.376	50.69
200.595	17.92
200.814	65.02
201.033	95.74
201.252	105.98
201.471	22.02
201.69	36.35
201.909	58.88
202.128	71.17
202.347	101.89
202.566	62.98
202.785	54.78
203.004	-35.33
203.223	108.03
203.442	69.12
203.661	-16.9
203.879	44.54
204.098	52.74
204.317	52.74
204.536	116.22
204.755	50.69
204.974	58.88
205.193	110.08
205.411	132.61
205.63	44.54
205.849	75.26
206.068	91.65
206.287	9.73
206.505	42.5
206.724	75.26
206.943	11.78
207.162	28.16
207.381	60.93
207.599	58.88
207.818	81.41
208.037	-6.66
208.255	101.89
208.474	38.4
208.693	62.98
208.911	32.26
209.13	9.73
209.349	62.98
209.567	87.55
209.786	101.89
210.005	157.18
210.223	34.3
210.442	30.21
210.661	69.12
210.879	28.16
211.098	34.3
211.316	71.17
211.535	136.7
211.753	58.88
211.972	77.31
212.191	99.84
212.409	79.36
212.628	144.89
212.846	-27.14
213.065	69.12
213.283	77.31
213.502	34.3
213.72	99.84
213.938	30.21
214.157	110.08
214.375	54.78
214.594	-27.14
214.812	144.89
215.031	142.85
215.249	60.93
215.467	38.4
215.686	46.59
215.904	83.45
216.122	56.83
216.341	189.95
216.559	46.59
216.778	85.5
216.996	77.31
217.214	44.54
217.432	-6.66
217.651	28.16
217.869	46.59
218.087	-2.56
218.306	1.54
218.524	83.45
218.742	36.35
218.96	75.26
219.179	50.69
219.397	13.82
219.615	42.5
219.833	54.78
220.051	85.5
220.27	91.65
220.488	103.93
220.706	34.3
220.924	38.4
221.142	85.5
221.36	54.78
221.578	79.36
221.796	42.5
222.015	110.08
222.233	67.07
222.451	128.51
222.669	128.51
222.887	22.02
223.105	56.83
223.323	38.4
223.541	28.16
223.759	91.65
223.977	-6.66
224.195	42.5
224.413	58.88
224.631	13.82
224.849	62.98
225.067	79.36
225.285	91.65
225.503	116.22
225.721	17.92
225.939	126.46
226.157	120.32
226.375	118.27
226.592	19.97
226.81	-6.66
227.028	79.36
227.246	42.5
227.464	26.11
227.682	52.74
227.9	167.42
228.117	52.74
228.335	54.78
228.553	50.69
228.771	77.31
228.989	50.69
229.206	75.26
229.424	81.41
229.642	58.88
229.86	116.22
230.077	116.22
230.295	67.07
230.513	36.35
230.731	46.59
230.948	75.26
231.166	75.26
231.384	101.89
231.601	91.65
231.819	148.99
232.037	69.12
232.254	91.65
232.472	28.16
232.689	19.97
232.907	58.88
233.125	62.98
233.342	108.03
233.56	-4.61
233.777	28.16
233.995	60.93
234.213	155.13
234.43	118.27
234.648	17.92
234.865	34.3
235.083	60.93
235.3	60.93
235.518	50.69
235.735	50.69
235.953	126.46
236.17	13.82
236.388	95.74
236.605	42.5
236.822	157.18
237.04	69.12
237.257	30.21
237.475	46.59
237.692	69.12
237.909	44.54
238.127	128.51
238.344	40.45
238.562	71.17
238.779	79.36
238.996	62.98
239.214	134.65
239.431	62.98
239.648	42.5
239.865	87.55
240.083	75.26
240.3	60.93
240.517	54.78
240.735	79.36
240.952	157.18
241.169	110.08
241.386	75.26
241.603	17.92
241.821	69.12
242.038	26.11
242.255	5.63
242.472	19.97
242.689	54.78
242.907	75.26
243.124	46.59
243.341	-31.23
243.558	19.97
243.775	46.59
243.992	5.63
244.209	38.4
244.426	101.89
244.643	28.16
244.86	91.65
245.078	108.03
245.295	93.69
245.512	91.65
245.729	60.93
245.946	46.59
246.163	44.54
246.38	60.93
246.597	126.46
246.814	56.83
247.031	13.82
247.248	42.5
247.464	77.31
247.681	83.45
247.898	38.4
248.115	48.64
248.332	54.78
248.549	93.69
248.766	42.5
248.983	91.65
249.2	99.84
249.417	44.54
249.633	28.16
249.85	120.32
250.067	87.55
250.284	67.07
250.501	-23.04
250.717	99.84
250.934	71.17
251.151	67.07
251.368	36.35
251.585	89.6
251.801	11.78
252.018	42.5
252.235	28.16
252.451	28.16
252.668	42.5
252.885	93.69
253.102	26.11
253.318	60.93
253.535	103.93
253.752	11.78
253.968	48.64
254.185	38.4
254.401	148.99
254.618	62.98
254.835	13.82
255.051	83.45
255.268	87.55
255.484	62.98
255.701	67.07
255.917	54.78
256.134	22.02
256.351	69.12
256.567	56.83
256.784	71.17
257	5.63
257.217	85.5
257.433	1.54
257.65	79.36
257.866	32.26
258.082	26.11
258.299	50.69
258.515	50.69
258.732	30.21
258.948	24.06
259.165	9.73
259.381	36.35
259.597	30.21
259.814	110.08
260.03	85.5
260.246	17.92
260.463	118.27
260.679	54.78
260.895	13.82
261.112	62.98
261.328	42.5
261.544	58.88
261.761	93.69
261.977	9.73
262.193	30.21
262.409	26.11
262.626	58.88
262.842	83.45
263.058	50.69
263.274	93.69
263.49	112.13
263.707	13.82
263.923	50.69
264.139	-18.94
264.355	44.54
264.571	126.46
264.787	60.93
265.004	181.76
265.22	22.02
265.436	36.35
265.652	46.59
265.868	75.26
266.084	3.58
266.3	69.12
266.516	-14.85
266.732	34.3
266.948	52.74
267.164	65.02
267.38	114.17
267.596	101.89
267.812	112.13
268.028	62.98
268.244	71.17
268.46	91.65
268.676	50.69
268.892	52.74
269.108	77.31
269.324	9.73
269.54	13.82
269.756	101.89
269.972	44.54
270.188	118.27
270.403	28.16
270.619	91.65
270.835	40.45
271.051	22.02
271.267	19.97
271.483	65.02
271.698	110.08
271.914	112.13
272.13	-10.75
272.346	99.84
272.562	91.65
272.777	110.08
272.993	75.26
273.209	26.11
273.425	1.54
273.64	75.26
273.856	79.36
274.072	36.35
274.287	108.03
274.503	87.55
274.719	75.26
274.934	60.93
275.15	69.12
275.366	69.12
275.581	58.88
275.797	19.97
276.012	65.02
276.228	24.06
276.444	67.07
276.659	103.93
276.875	17.92
277.09	60.93
277.306	60.93
277.521	-53.76
277.737	67.07
277.952	67.07
278.168	95.74
278.383	26.11
278.599	-14.85
278.814	83.45
279.03	-14.85
279.245	34.3
279.461	50.69
279.676	69.12
279.892	50.69
280.107	67.07
280.322	75.26
280.538	99.84
280.753	50.69
280.969	148.99
281.184	91.65
281.399	42.5
281.615	95.74
281.83	54.78
282.045	-59.9
282.26	17.92
282.476	58.88
282.691	138.75
282.906	17.92
283.122	54.78
283.337	-0.51
283.552	83.45
283.767	28.16
283.983	140.8
284.198	112.13
284.413	75.26
284.628	17.92
284.843	42.5
285.058	99.84
285.274	54.78
285.489	62.98
285.704	87.55
285.919	58.88
286.134	87.55
286.349	42.5
286.564	44.54
286.779	128.51
286.995	99.84
287.21	-66.05
287.425	110.08
287.64	79.36
287.855	132.61
288.07	26.11
288.285	42.5
288.5	17.92
288.715	132.61
288.93	75.26
289.145	28.16
289.36	28.16
289.575	15.87
289.79	36.35
290.004	30.21
290.219	85.5
290.434	40.45
290.649	22.02
290.864	52.74
291.079	26.11
291.294	69.12
291.509	19.97
291.724	108.03
291.938	44.54
292.153	1.54
292.368	40.45
292.583	128.51
292.798	136.7
293.012	58.88
293.227	67.07
293.442	75.26
293.657	83.45
293.871	142.85
294.086	9.73
294.301	99.84
294.516	103.93
294.73	120.32
294.945	24.06
295.16	83.45
295.374	126.46
295.589	42.5
295.804	56.83
296.018	46.59
296.233	52.74
296.447	110.08
296.662	60.93
296.877	60.93
297.091	54.78
297.306	-16.9
297.52	-10.75
297.735	65.02
297.949	73.21
298.164	46.59
298.378	114.17
298.593	42.5
298.807	34.3
299.022	110.08
299.236	54.78
299.451	67.07
299.665	44.54
299.88	44.54
300.094	17.92
300.309	79.36
300.523	34.3
300.737	75.26
300.952	42.5
301.166	110.08
301.381	-4.61
301.595	50.69
301.809	46.59
302.024	71.17
302.238	101.89
302.452	85.5
302.667	54.78
302.881	60.93
303.095	30.21
303.309	42.5
303.524	34.3
303.738	38.4
303.952	99.84
304.166	124.41
304.381	62.98
304.595	112.13
304.809	75.26
305.023	34.3
305.237	99.84
305.452	26.11
305.666	103.93
305.88	134.65
306.094	112.13
306.308	67.07
306.522	110.08
306.736	36.35
306.95	79.36
307.164	112.13
307.379	-31.23
307.593	105.98
307.807	75.26
308.021	1.54
308.235	1.54
308.449	-4.61
308.663	28.16
308.877	42.5
309.091	159.23
309.305	67.07
309.519	-6.66
309.733	108.03
309.947	19.97
310.161	91.65
310.374	19.97
310.588	132.61
310.802	75.26
311.016	34.3
311.23	83.45
311.444	38.4
311.658	124.41
311.872	50.69
312.085	58.88
312.299	132.61
312.513	134.65
312.727	19.97
312.941	38.4
313.154	30.21
313.368	81.41
313.582	79.36
313.796	26.11
314.009	62.98
314.223	62.98
314.437	91.65
314.651	54.78
314.864	54.78
315.078	46.59
315.292	62.98
315.505	50.69
315.719	-14.85
315.933	91.65
316.146	42.5
316.36	126.46
316.573	99.84
316.787	75.26
317.001	52.74
317.214	62.98
317.428	44.54
317.641	60.93
317.855	151.04
318.068	-23.04
318.282	108.03
318.495	91.65
318.709	-39.42
318.922	110.08
319.136	91.65
319.349	134.65
319.563	52.74
319.776	93.69
319.99	103.93
320.203	155.13
320.417	36.35
320.63	17.92
320.843	101.89
321.057	79.36
321.27	36.35
321.483	-6.66
321.697	62.98
321.91	116.22
322.124	87.55
322.337	30.21
322.55	91.65
322.763	44.54
322.977	105.98
323.19	44.54
323.403	69.12
323.617	42.5
323.83	118.27
324.043	40.45
324.256	67.07
324.469	79.36
324.683	132.61
324.896	62.98
325.109	93.69
325.322	62.98
325.535	46.59
325.748	99.84
325.962	34.3
326.175	101.89
326.388	97.79
326.601	93.69
326.814	79.36
327.027	75.26
327.24	151.04
327.453	5.63
327.666	79.36
327.879	60.93
328.092	58.88
328.305	34.3
328.518	11.78
328.731	40.45
328.944	58.88
329.157	97.79
329.37	42.5
329.583	132.61
329.796	67.07
330.009	44.54
330.222	108.03
330.435	34.3
330.648	140.8
330.861	83.45
331.073	108.03
331.286	19.97
331.499	108.03
331.712	-18.94
331.925	67.07
332.138	77.31
332.35	54.78
332.563	67.07
332.776	99.84
332.989	36.35
333.202	67.07
333.414	99.84
333.627	28.16
333.84	48.64
334.053	69.12
334.265	58.88
334.478	-4.61
334.691	83.45
334.903	54.78
335.116	85.5
335.329	44.54
335.541	44.54
335.754	175.61
335.966	9.73
336.179	192
336.392	11.78
336.604	93.69
336.817	34.3
337.029	97.79
337.242	140.8
337.454	83.45
337.667	71.17
337.88	81.41
338.092	3.58
338.305	83.45
338.517	11.78
338.729	108.03
338.942	67.07
339.154	36.35
339.367	13.82
339.579	38.4
339.792	62.98
340.004	144.89
340.217	77.31
340.429	34.3
340.641	36.35
340.854	81.41
341.066	118.27
341.278	62.98
341.491	146.94
341.703	71.17
341.915	69.12
342.128	32.26
342.34	26.11
342.552	9.73
342.764	73.21
342.977	28.16
343.189	85.5
343.401	60.93
343.613	1.54
343.826	48.64
344.038	-14.85
344.25	67.07
344.462	108.03
344.674	-12.8
344.886	-2.56
345.099	128.51
345.311	44.54
345.523	67.07
345.735	52.74
345.947	198.14
346.159	112.13
346.371	93.69
346.583	93.69
346.795	124.41
347.007	67.07
347.219	44.54
347.431	50.69
347.643	173.57
347.855	42.5
348.067	173.57
348.279	60.93
348.491	75.26
348.703	32.26
348.915	38.4
349.127	71.17
349.339	38.4
349.551	75.26
349.763	62.98
349.975	42.5
350.187	87.55
350.399	54.78
350.61	108.03
350.822	34.3
351.034	75.26
351.246	134.65
351.458	83.45
351.669	50.69
351.881	75.26
352.093	118.27
352.305	112.13
352.517	17.92
352.728	60.93
352.94	65.02
353.152	-4.61
353.363	-47.62
353.575	42.5
353.787	108.03
353.999	101.89
354.21	128.51
354.422	9.73
354.633	83.45
354.845	46.59
355.057	138.75
355.268	83.45
355.48	22.02
355.692	73.21
355.903	69.12
356.115	17.92
356.326	101.89
356.538	58.88
356.749	32.26
356.961	122.37
357.172	99.84
357.384	-2.56
357.595	198.14
357.807	11.78
358.018	24.06
358.23	83.45
358.441	153.09
358.653	46.59
358.864	-8.7
359.075	46.59
359.287	77.31
359.498	91.65
359.709	60.93
359.921	30.21
360.132	87.55
360.344	103.93
360.555	54.78
360.766	75.26
360.977	67.07
361.189	79.36
361.4	26.11
361.611	126.46
361.823	36.35
362.034	85.5
362.245	28.16
362.456	79.36
362.667	50.69
362.879	114.17
363.09	67.07
363.301	83.45
363.512	93.69
363.723	62.98
363.935	50.69
364.146	71.17
364.357	42.5
364.568	89.6
364.779	15.87
364.99	34.3
365.201	26.11
365.412	132.61
365.623	38.4
365.834	148.99
366.045	-18.94
366.256	60.93
366.467	114.17
366.678	-14.85
366.889	19.97
367.1	42.5
367.311	144.89
367.522	126.46
367.733	89.6
367.944	75.26
368.155	81.41
368.366	165.37
368.577	99.84
368.788	50.69
368.999	77.31
369.209	126.46
369.42	89.6
369.631	91.65
369.842	54.78
370.053	153.09
370.264	38.4
370.474	38.4
370.685	50.69
370.896	85.5
371.107	46.59
371.317	120.32
371.528	38.4
371.739	38.4
371.95	67.07
372.16	50.69
372.371	120.32
372.582	54.78
372.792	19.97
373.003	22.02
373.214	89.6
373.424	103.93
373.635	116.22
373.846	30.21
374.056	46.59
374.267	65.02
374.477	83.45
374.688	-20.99
374.898	108.03
375.109	60.93
375.319	140.8
375.53	48.64
375.74	60.93
375.951	52.74
376.161	91.65
376.372	108.03
376.582	28.16
376.793	69.12
377.003	87.55
377.214	69.12
377.424	50.69
377.635	112.13
377.845	50.69
378.055	75.26
378.266	71.17
378.476	87.55
378.686	75.26
378.897	118.27
379.107	89.6
379.317	130.56
379.528	17.92
379.738	26.11
379.948	48.64
380.158	79.36
380.369	128.51
380.579	93.69
380.789	40.45
380.999	46.59
381.21	65.02
381.42	181.76
381.63	69.12
381.84	138.75
382.05	83.45
382.261	99.84
382.471	110.08
382.681	-33.28
382.891	159.23
383.101	126.46
383.311	58.88
383.521	67.07
383.731	108.03
383.941	28.16
384.151	83.45
384.361	28.16
384.571	77.31
384.781	93.69
384.991	120.32
385.201	42.5
385.411	189.95
385.621	54.78
385.831	42.5
386.041	38.4
386.251	148.99
386.461	99.84
386.671	34.3
386.881	114.17
387.091	58.88
387.301	103.93
387.511	46.59
387.72	128.51
387.93	124.41
388.14	69.12
388.35	140.8
388.56	99.84
388.769	146.94
388.979	140.8
389.189	48.64
389.399	73.21
389.609	99.84
389.818	120.32
390.028	85.5
390.238	108.03
390.447	128.51
390.657	67.07
390.867	118.27
391.076	32.26
391.286	108.03
391.496	91.65
391.705	58.88
391.915	105.98
392.125	50.69
392.334	30.21
392.544	77.31
392.753	77.31
392.963	83.45
393.172	69.12
393.382	52.74
393.591	69.12
393.801	46.59
394.01	128.51
394.22	60.93
394.429	32.26
394.639	69.12
394.848	99.84
395.058	99.84
395.267	83.45
395.477	26.11
395.686	58.88
395.895	136.7
396.105	65.02
396.314	140.8
396.524	112.13
396.733	120.32
396.942	124.41
397.152	134.65
397.361	136.7
397.57	42.5
397.78	126.46
397.989	75.26
398.198	165.37
398.407	26.11
398.617	67.07
398.826	157.18
399.035	83.45
399.244	97.79
399.453	67.07
399.663	148.99
399.872	58.88
400.081	97.79
400.29	89.6
400.499	69.12
400.708	116.22
400.917	116.22
401.127	110.08
401.336	69.12
401.545	189.95
401.754	140.8
401.963	181.76
402.172	128.51
402.381	110.08
402.59	103.93
402.799	75.26
403.008	181.76
403.217	116.22
403.426	153.09
403.635	136.7
403.844	163.33
404.053	208.38
404.262	142.85
404.471	224.76
404.68	99.84
404.888	108.03
405.097	177.66
405.306	202.24
405.515	153.09
405.724	128.51
405.933	216.57
406.142	200.19
406.35	128.51
406.559	206.33
406.768	173.57
406.977	257.53
407.185	181.76
407.394	120.32
407.603	148.99
407.812	333.31
408.02	222.72
408.229	239.1
408.438	204.28
408.646	216.57
408.855	206.33
409.064	177.66
409.272	282.11
409.481	261.63
409.69	275.96
409.898	247.29
410.107	230.91
410.315	265.72
410.524	329.21
410.733	353.79
410.941	290.3
411.15	222.72
411.358	357.88
411.567	378.36
411.775	361.98
411.984	341.5
412.192	355.83
412.401	339.45
412.609	423.42
412.818	421.37
413.026	443.9
413.234	476.66
413.443	372.22
413.651	493.05
413.86	390.65
414.068	452.09
414.276	546.3
414.485	462.33
414.693	513.53
414.901	542.2
415.11	603.64
415.318	583.16
415.526	544.25
415.734	703.99
415.943	681.46
416.151	722.42
416.359	636.41
416.567	708.09
416.776	757.24
416.984	806.39
417.192	800.24
417.4	755.19
417.608	787.96
417.817	837.11
418.025	888.31
418.233	894.45
418.441	916.98
418.649	865.78
418.857	939.51
419.065	1019.38
419.273	982.51
419.481	1084.91
419.689	1091.06
419.897	1148.4
420.105	1207.79
420.313	1226.22
420.521	1205.74
420.729	1379.82
420.937	1385.96
421.145	1480.17
421.353	1533.42
421.561	1525.22
421.769	1492.46
421.977	1582.57
422.185	1508.84
422.393	1672.68
422.601	1828.32
422.809	1766.89
423.017	1852.9
423.224	1983.97
423.432	1887.72
423.64	1957.35
423.848	2139.62
424.056	2172.38
424.263	2231.77
424.471	2131.42
424.679	2356.7
424.887	2491.87
425.094	2428.38
425.302	2483.67
425.51	2557.4
425.718	2663.9
425.925	2678.23
426.133	2815.45
426.341	2948.56
426.548	2995.67
426.756	3063.25
426.964	3057.11
427.171	3337.68
427.379	3319.25
427.586	3395.02
427.794	3565
428.001	3548.62
428.209	3861.96
428.417	3802.57
428.624	4021.7
428.832	4156.86
429.039	4072.9
429.247	3902.92
429.454	4445.63
429.662	4654.52
429.869	4416.96
430.076	4621.75
430.284	4513.21
430.491	4756.92
430.699	4990.39
430.906	5137.84
431.114	4965.81
431.321	5137.84
431.528	5537.2
431.736	5598.63
431.943	5924.26
432.15	5772.71
432.358	5911.97
432.565	6317.47
432.772	6034.85
432.979	6487.45
433.187	6483.36
433.394	6393.25
433.601	6999.45
433.808	7030.16
434.016	7083.41
434.223	7265.68
434.43	7574.92
434.637	7382.42
434.844	8043.91
435.052	8523.13
435.259	8242.56
435.466	8191.36
435.673	8310.15
435.88	8623.48
436.087	9119.09
436.294	9067.89
436.501	9012.6
436.708	9127.28
436.915	9561.45
437.122	9899.37
437.329	9885.03
437.537	10151.27
437.743	10331.49
437.95	10276.2
438.157	10786.14
438.364	11134.29
438.571	11044.18
438.778	11230.55
438.985	12121.42
439.192	11625.81
439.399	12141.89
439.606	11838.8
439.813	12387.65
440.02	13034.81
440.227	13247.8
440.433	12973.37
440.64	13149.5
440.847	13333.81
441.054	13413.68
441.261	14525.73
441.467	14271.78
441.674	14720.29
441.881	15131.93
442.088	15090.97
442.294	14675.23
442.501	15412.5
442.708	15459.6
442.914	16262.41
443.121	16760.06
443.328	16534.79
443.534	17949.93
443.741	17233.15
443.948	17132.79
444.154	18271.47
444.361	18193.64
444.568	18216.17
444.774	18271.47
444.981	18347.24
445.187	19023.07
445.394	19997.9
445.6	19428.57
445.807	21425.34
446.013	20559.05
446.22	21040.32
446.426	21654.71
446.633	21642.42
446.839	22613.16
447.046	21603.51
447.252	23139.49
447.459	23235.74
447.665	23055.52
447.871	23778.45
448.078	24847.49
448.284	23895.19
448.491	24667.27
448.697	25601.15
448.903	26100.85
449.11	25914.48
449.316	25717.88
449.522	26125.43
449.728	26725.48
449.935	27120.74
450.141	27038.82
450.347	27874.39
450.553	26956.9
450.76	27538.52
450.966	27722.84
451.172	27894.87
451.378	28470.35
451.584	27989.08
451.791	28785.74
451.997	28134.48
452.203	29281.35
452.409	29350.98
452.615	28974.15
452.821	28236.88
453.027	27800.66
453.233	28965.96
453.44	28013.65
453.646	28626
453.852	28367.95
454.058	28892.23
454.264	28308.56
454.47	28589.13
454.676	27937.88
454.882	28738.63
455.088	26164.34
455.294	27030.63
455.5	26950.76
455.705	27761.75
455.911	26440.81
456.117	26213.49
456.323	25748.6
456.529	24472.71
456.735	25396.35
456.941	24478.86
457.147	24470.67
457.352	23620.76
457.558	23555.22
457.764	23571.61
457.97	23086.24
458.176	22695.08
458.381	22731.94
458.587	21691.57
458.793	21634.23
458.999	20403.4
459.204	21943.47
459.41	21417.15
459.616	19801.3
459.821	20061.39
460.027	20235.47
460.233	19586.26
460.438	18650.34
460.644	18740.45
460.85	17843.44
461.055	17810.67
461.261	17769.71
461.466	16571.65
461.672	15879.44
461.878	16844.03
462.083	15961.36
462.289	15617.3
462.494	15410.45
462.7	14920.99
462.905	14370.08
463.111	15009.05
463.316	15035.67
463.522	14503.2
463.727	14849.31
463.932	14843.17
464.138	14648.61
464.343	14755.1
464.549	14132.52
464.754	14546.21
464.959	14558.5
465.165	14456.1
465.37	13784.37
465.575	13401.4
465.781	14116.14
465.986	13968.68
466.191	13675.82
466.397	13518.13
466.602	12637.5
466.807	13159.74
467.012	13241.65
467.218	12926.27
