Data from USB4F104151__202__14-45-20-249.txt Node

Date: Thu Mar 13 14:45:20 EDT 2025
User: louis
Spectrometer: USB4F10415
Trigger mode: 4
Integration Time (sec): 2.000000E-2
Scans to average: 1
Electric dark correction enabled: true
Nonlinearity correction enabled: false
Boxcar width: 0
XAxis mode: Wavelengths
Number of Pixels in Spectrum: 3648
>>>>>Begin Spectral Data<<<<<
178.204	-151.55
178.424	-151.55
178.644	-151.55
178.864	-196.61
179.084	-196.61
179.304	36.86
179.524	8.19
179.744	-59.39
179.964	59.39
180.184	57.34
180.404	-79.87
180.624	-30.72
180.844	-14.34
181.064	24.58
181.283	-16.38
181.503	-28.67
181.723	43.01
181.943	-65.53
182.163	65.54
182.383	-12.29
182.602	40.96
182.822	65.54
183.042	92.16
183.262	6.14
183.482	26.62
183.701	-22.53
183.921	-12.29
184.141	-16.38
184.361	34.82
184.58	57.34
184.8	45.06
185.02	-32.77
185.239	32.77
185.459	16.38
185.679	118.78
185.898	-55.3
186.118	36.86
186.338	0
186.557	-4.1
186.777	26.62
186.997	28.67
187.216	57.34
187.436	81.92
187.655	26.62
187.875	77.82
188.095	-8.19
188.314	45.06
188.534	65.54
188.753	-8.19
188.973	10.24
189.192	16.38
189.412	43.01
189.631	40.96
189.851	12.29
190.07	112.64
190.29	-30.72
190.509	-6.14
190.729	-22.53
190.948	98.3
191.168	165.89
191.387	81.92
191.607	32.77
191.826	-38.91
192.045	49.15
192.265	43.01
192.484	2.05
192.704	-14.34
192.923	45.06
193.142	90.11
193.362	108.54
193.581	100.35
193.8	57.34
194.02	12.29
194.239	47.1
194.458	40.96
194.678	18.43
194.897	-8.19
195.116	26.62
195.335	-14.34
195.555	92.16
195.774	-12.29
195.993	-47.1
196.212	61.44
196.432	-10.24
196.651	57.34
196.87	0
197.089	118.78
197.308	-10.24
197.528	28.67
197.747	8.19
197.966	40.96
198.185	110.59
198.404	24.58
198.623	59.39
198.842	96.25
199.062	20.48
199.281	81.92
199.5	67.58
199.719	57.34
199.938	61.44
200.157	81.92
200.376	22.53
200.595	43.01
200.814	18.43
201.033	-8.19
201.252	126.97
201.471	73.73
201.69	49.15
201.909	-28.67
202.128	40.96
202.347	18.43
202.566	8.19
202.785	67.58
203.004	32.77
203.223	49.15
203.442	106.49
203.661	-8.19
203.879	-49.15
204.098	110.59
204.317	49.15
204.536	-8.19
204.755	10.24
204.974	-6.14
205.193	53.25
205.411	45.06
205.63	-45.06
205.849	18.43
206.068	81.92
206.287	-26.62
206.505	0
206.724	69.63
206.943	49.15
207.162	40.96
207.381	88.06
207.599	73.73
207.818	36.86
208.037	49.15
208.255	139.26
208.474	26.62
208.693	30.72
208.911	-28.67
209.13	28.67
209.349	51.2
209.567	32.77
209.786	40.96
210.005	-12.29
210.223	-32.77
210.442	18.43
210.661	53.25
210.879	12.29
211.098	24.58
211.316	40.96
211.535	98.3
211.753	51.2
211.972	36.86
212.191	-22.53
212.409	12.29
212.628	2.05
212.846	43.01
213.065	16.38
213.283	90.11
213.502	4.1
213.72	67.58
213.938	-4.1
214.157	16.38
214.375	73.73
214.594	69.63
214.812	69.63
215.031	-6.14
215.249	16.38
215.467	43.01
215.686	53.25
215.904	18.43
216.122	28.67
216.341	57.34
216.559	32.77
216.778	-6.14
216.996	67.58
217.214	53.25
217.432	-30.72
217.651	57.34
217.869	12.29
218.087	81.92
218.306	61.44
218.524	30.72
218.742	2.05
218.96	71.68
219.179	6.14
219.397	45.06
219.615	102.4
219.833	120.83
220.051	92.16
220.27	86.01
220.488	110.59
220.706	26.62
220.924	98.3
221.142	40.96
221.36	38.91
221.578	-8.19
221.796	120.83
222.015	45.06
222.233	59.39
222.451	102.4
222.669	-16.38
222.887	40.96
223.105	40.96
223.323	16.38
223.541	16.38
223.759	-24.58
223.977	-10.24
224.195	67.58
224.413	88.06
224.631	28.67
224.849	69.63
225.067	135.17
225.285	20.48
225.503	-2.05
225.721	24.58
225.939	0
226.157	51.2
226.375	114.69
226.592	32.77
226.81	8.19
227.028	92.16
227.246	38.91
227.464	0
227.682	26.62
227.9	63.49
228.117	51.2
228.335	2.05
228.553	67.58
228.771	32.77
228.989	81.92
229.206	77.82
229.424	4.1
229.642	-24.58
229.86	38.91
230.077	-12.29
230.295	32.77
230.513	94.21
230.731	57.34
230.948	59.39
231.166	77.82
231.384	22.53
231.601	20.48
231.819	98.3
232.037	16.38
232.254	34.82
232.472	-22.53
232.689	-69.63
232.907	-32.77
233.125	40.96
233.342	24.58
233.56	-49.15
233.777	16.38
233.995	98.3
234.213	81.92
234.43	-4.1
234.648	32.77
234.865	18.43
235.083	36.86
235.3	12.29
235.518	57.34
235.735	92.16
235.953	18.43
236.17	0
236.388	0
236.605	83.97
236.822	81.92
237.04	40.96
237.257	43.01
237.475	8.19
237.692	67.58
237.909	69.63
238.127	75.77
238.344	24.58
238.562	71.68
238.779	51.2
238.996	36.86
239.214	-14.34
239.431	20.48
239.648	-4.1
239.865	22.53
240.083	88.06
240.3	36.86
240.517	-8.19
240.735	24.58
240.952	149.5
241.169	83.97
241.386	94.21
241.603	45.06
241.821	40.96
242.038	32.77
242.255	49.15
242.472	-92.16
242.689	0
242.907	61.44
243.124	59.39
243.341	4.1
243.558	18.43
243.775	-24.58
243.992	-24.58
244.209	26.62
244.426	94.21
244.643	94.21
244.86	-4.1
245.078	32.77
245.295	26.62
245.512	-55.3
245.729	-20.48
245.946	98.3
246.163	-4.1
246.38	12.29
246.597	65.54
246.814	40.96
247.031	18.43
247.248	49.15
247.464	67.58
247.681	47.1
247.898	34.82
248.115	4.1
248.332	32.77
248.549	90.11
248.766	143.36
248.983	0
249.2	6.14
249.417	43.01
249.633	45.06
249.85	40.96
250.067	14.34
250.284	36.86
250.501	65.54
250.717	122.88
250.934	32.77
251.151	2.05
251.368	45.06
251.585	20.48
251.801	77.82
252.018	12.29
252.235	90.11
252.451	10.24
252.668	53.25
252.885	57.34
253.102	36.86
253.318	-34.82
253.535	57.34
253.752	69.63
253.968	0
254.185	34.82
254.401	65.54
254.618	22.53
254.835	32.77
255.051	81.92
255.268	16.38
255.484	83.97
255.701	98.3
255.917	43.01
256.134	53.25
256.351	57.34
256.567	49.15
256.784	-16.38
257	51.2
257.217	83.97
257.433	26.62
257.65	22.53
257.866	104.45
258.082	-4.1
258.299	77.82
258.515	83.97
258.732	57.34
258.948	49.15
259.165	71.68
259.381	26.62
259.597	73.73
259.814	104.45
260.03	-16.38
260.246	12.29
260.463	77.82
260.679	81.92
260.895	73.73
261.112	40.96
261.328	36.86
261.544	45.06
261.761	112.64
261.977	43.01
262.193	26.62
262.409	45.06
262.626	34.82
262.842	65.54
263.058	-4.1
263.274	26.62
263.49	51.2
263.707	100.35
263.923	57.34
264.139	38.91
264.355	28.67
264.571	18.43
264.787	-26.62
265.004	94.21
265.22	24.58
265.436	57.34
265.652	49.15
265.868	32.77
266.084	-8.19
266.3	8.19
266.516	73.73
266.732	26.62
266.948	83.97
267.164	34.82
267.38	34.82
267.596	12.29
267.812	67.58
268.028	49.15
268.244	57.34
268.46	77.82
268.676	63.49
268.892	57.34
269.108	43.01
269.324	2.05
269.54	-6.14
269.756	61.44
269.972	16.38
270.188	36.86
270.403	-51.2
270.619	26.62
270.835	16.38
271.051	57.34
271.267	-34.82
271.483	59.39
271.698	8.19
271.914	49.15
272.13	22.53
272.346	-32.77
272.562	79.87
272.777	73.73
272.993	-10.24
273.209	-32.77
273.425	34.82
273.64	43.01
273.856	88.06
274.072	-6.14
274.287	81.92
274.503	61.44
274.719	38.91
274.934	38.91
275.15	-71.68
275.366	40.96
275.581	2.05
275.797	28.67
276.012	69.63
276.228	-22.53
276.444	8.19
276.659	75.77
276.875	-53.25
277.09	65.54
277.306	16.38
277.521	16.38
277.737	10.24
277.952	24.58
278.168	38.91
278.383	14.34
278.599	69.63
278.814	26.62
279.03	63.49
279.245	102.4
279.461	-8.19
279.676	40.96
279.892	-71.68
280.107	73.73
280.322	26.62
280.538	57.34
280.753	34.82
280.969	139.26
281.184	67.58
281.399	49.15
281.615	0
281.83	57.34
282.045	65.54
282.26	22.53
282.476	73.73
282.691	59.39
282.906	24.58
283.122	-8.19
283.337	34.82
283.552	77.82
283.767	-55.3
283.983	83.97
284.198	10.24
284.413	-14.34
284.628	67.58
284.843	51.2
285.058	32.77
285.274	12.29
285.489	57.34
285.704	92.16
285.919	-2.05
286.134	10.24
286.349	28.67
286.564	6.14
286.779	124.93
286.995	8.19
287.21	90.11
287.425	10.24
287.64	-16.38
287.855	83.97
288.07	-32.77
288.285	24.58
288.5	81.92
288.715	4.1
288.93	34.82
289.145	2.05
289.36	43.01
289.575	47.1
289.79	65.54
290.004	98.3
290.219	83.97
290.434	2.05
290.649	63.49
290.864	49.15
291.079	28.67
291.294	86.01
291.509	-57.34
291.724	2.05
291.938	-16.38
292.153	57.34
292.368	-20.48
292.583	12.29
292.798	-16.38
293.012	28.67
293.227	0
293.442	67.58
293.657	43.01
293.871	73.73
294.086	-24.58
294.301	114.69
294.516	92.16
294.73	32.77
294.945	32.77
295.16	28.67
295.374	49.15
295.589	40.96
295.804	20.48
296.018	26.62
296.233	73.73
296.447	51.2
296.662	14.34
296.877	122.88
297.091	102.4
297.306	49.15
297.52	-12.29
297.735	16.38
297.949	49.15
298.164	67.58
298.378	43.01
298.593	94.21
298.807	53.25
299.022	92.16
299.236	86.01
299.451	26.62
299.665	69.63
299.88	-81.92
300.094	-30.72
300.309	36.86
300.523	-6.14
300.737	135.17
300.952	51.2
301.166	10.24
301.381	18.43
301.595	79.87
301.809	-32.77
302.024	34.82
302.238	40.96
302.452	59.39
302.667	-2.05
302.881	36.86
303.095	59.39
303.309	114.69
303.524	-20.48
303.738	59.39
303.952	-16.38
304.166	-32.77
304.381	-8.19
304.595	147.45
304.809	-4.1
305.023	-6.14
305.237	6.14
305.452	100.35
305.666	20.48
305.88	77.82
306.094	102.4
306.308	67.58
306.522	122.88
306.736	86.01
306.95	49.15
307.164	10.24
307.379	43.01
307.593	73.73
307.807	135.17
308.021	83.97
308.235	55.3
308.449	59.39
308.663	59.39
308.877	133.12
309.091	26.62
309.305	57.34
309.519	-28.67
309.733	18.43
309.947	-26.62
310.161	32.77
310.374	36.86
310.588	67.58
310.802	45.06
311.016	40.96
311.23	40.96
311.444	34.82
311.658	69.63
311.872	100.35
312.085	51.2
312.299	40.96
312.513	141.31
312.727	59.39
312.941	-8.19
313.154	10.24
313.368	-47.1
313.582	98.3
313.796	24.58
314.009	57.34
314.223	122.88
314.437	10.24
314.651	83.97
314.864	88.06
315.078	51.2
315.292	0
315.505	34.82
315.719	40.96
315.933	77.82
316.146	49.15
316.36	-22.53
316.573	49.15
316.787	36.86
317.001	88.06
317.214	32.77
317.428	34.82
317.641	51.2
317.855	86.01
318.068	34.82
318.282	81.92
318.495	81.92
318.709	98.3
318.922	83.97
319.136	34.82
319.349	61.44
319.563	16.38
319.776	28.67
319.99	40.96
320.203	61.44
320.417	96.25
320.63	51.2
320.843	124.93
321.057	4.1
321.27	40.96
321.483	102.4
321.697	108.54
321.91	69.63
322.124	18.43
322.337	81.92
322.55	-24.58
322.763	100.35
322.977	40.96
323.19	59.39
323.403	75.77
323.617	45.06
323.83	67.58
324.043	18.43
324.256	100.35
324.469	32.77
324.683	75.77
324.896	38.91
325.109	16.38
325.322	-28.67
325.535	81.92
325.748	65.54
325.962	106.49
326.175	67.58
326.388	163.84
326.601	98.3
326.814	12.29
327.027	57.34
327.24	73.73
327.453	-18.43
327.666	92.16
327.879	16.38
328.092	20.48
328.305	59.39
328.518	0
328.731	10.24
328.944	90.11
329.157	71.68
329.37	16.38
329.583	114.69
329.796	98.3
330.009	24.58
330.222	34.82
330.435	28.67
330.648	53.25
330.861	65.54
331.073	-8.19
331.286	28.67
331.499	40.96
331.712	-32.77
331.925	65.54
332.138	26.62
332.35	12.29
332.563	-8.19
332.776	30.72
332.989	0
333.202	108.54
333.414	30.72
333.627	47.1
333.84	98.3
334.053	69.63
334.265	16.38
334.478	-24.58
334.691	-53.25
334.903	20.48
335.116	-57.34
335.329	45.06
335.541	79.87
335.754	8.19
335.966	-6.14
336.179	40.96
336.392	-8.19
336.604	73.73
336.817	122.88
337.029	98.3
337.242	4.1
337.454	49.15
337.667	69.63
337.88	61.44
338.092	8.19
338.305	106.49
338.517	8.19
338.729	94.21
338.942	145.41
339.154	24.58
339.367	-8.19
339.579	57.34
339.792	0
340.004	73.73
340.217	18.43
340.429	94.21
340.641	-40.96
340.854	8.19
341.066	-28.67
341.278	34.82
341.491	106.49
341.703	-8.19
341.915	59.39
342.128	20.48
342.34	114.69
342.552	-8.19
342.764	69.63
342.977	40.96
343.189	53.25
343.401	49.15
343.613	65.54
343.826	43.01
344.038	0
344.25	32.77
344.462	36.86
344.674	94.21
344.886	83.97
345.099	77.82
345.311	77.82
345.523	-8.19
345.735	-57.34
345.947	51.2
346.159	67.58
346.371	73.73
346.583	67.58
346.795	65.54
347.007	16.38
347.219	69.63
347.431	-14.34
347.643	16.38
347.855	24.58
348.067	32.77
348.279	-69.63
348.491	49.15
348.703	161.79
348.915	8.19
349.127	-32.77
349.339	106.49
349.551	63.49
349.763	32.77
349.975	40.96
350.187	73.73
350.399	75.77
350.61	67.58
350.822	34.82
351.034	86.01
351.246	-16.38
351.458	135.17
351.669	40.96
351.881	67.58
352.093	51.2
352.305	98.3
352.517	79.87
352.728	131.07
352.94	73.73
353.152	73.73
353.363	12.29
353.575	92.16
353.787	75.77
353.999	110.59
354.21	55.3
354.422	-32.77
354.633	65.54
354.845	53.25
355.057	0
355.268	63.49
355.48	126.97
355.692	32.77
355.903	10.24
356.115	26.62
356.326	-40.96
356.538	61.44
356.749	4.1
356.961	77.82
357.172	149.5
357.384	81.92
357.595	73.73
357.807	118.78
358.018	-16.38
358.23	100.35
358.441	43.01
358.653	145.41
358.864	57.34
359.075	28.67
359.287	45.06
359.498	100.35
359.709	61.44
359.921	51.2
360.132	57.34
360.344	122.88
360.555	73.73
360.766	73.73
360.977	6.14
361.189	88.06
361.4	0
361.611	49.15
361.823	-24.58
362.034	102.4
362.245	-53.25
362.456	65.54
362.667	49.15
362.879	-32.77
363.09	-26.62
363.301	43.01
363.512	32.77
363.723	98.3
363.935	32.77
364.146	32.77
364.357	94.21
364.568	124.93
364.779	59.39
364.99	135.17
365.201	-12.29
365.412	34.82
365.623	-6.14
365.834	28.67
366.045	-12.29
366.256	83.97
366.467	36.86
366.678	-32.77
366.889	0
367.1	73.73
367.311	28.67
367.522	81.92
367.733	96.25
367.944	40.96
368.155	10.24
368.366	73.73
368.577	38.91
368.788	100.35
368.999	-40.96
369.209	73.73
369.42	163.84
369.631	106.49
369.842	112.64
370.053	16.38
370.264	61.44
370.474	16.38
370.685	108.54
370.896	110.59
371.107	114.69
371.317	90.11
371.528	69.63
371.739	55.3
371.95	77.82
372.16	151.55
372.371	-10.24
372.582	67.58
372.792	-30.72
373.003	18.43
373.214	106.49
373.424	0
373.635	34.82
373.846	155.65
374.056	65.54
374.267	75.77
374.477	67.58
374.688	92.16
374.898	83.97
375.109	75.77
375.319	65.54
375.53	16.38
375.74	83.97
375.951	57.34
376.161	28.67
376.372	90.11
376.582	57.34
376.793	8.19
377.003	10.24
377.214	40.96
377.424	90.11
377.635	77.82
377.845	86.01
378.055	86.01
378.266	2.05
378.476	47.1
378.686	69.63
378.897	-4.1
379.107	86.01
379.317	40.96
379.528	40.96
379.738	94.21
379.948	14.34
380.158	59.39
380.369	38.91
380.579	26.62
380.789	79.87
380.999	90.11
381.21	8.19
381.42	90.11
381.63	180.22
381.84	14.34
382.05	-22.53
382.261	180.22
382.471	81.92
382.681	40.96
382.891	137.21
383.101	12.29
383.311	53.25
383.521	10.24
383.731	96.25
383.941	59.39
384.151	30.72
384.361	24.58
384.571	38.91
384.781	83.97
384.991	79.87
385.201	90.11
385.411	131.07
385.621	81.92
385.831	10.24
386.041	75.77
386.251	110.59
386.461	98.3
386.671	28.67
386.881	106.49
387.091	40.96
387.301	106.49
387.511	-8.19
387.72	69.63
387.93	10.24
388.14	12.29
388.35	18.43
388.56	157.69
388.769	49.15
388.979	124.93
389.189	40.96
389.399	147.45
389.609	69.63
389.818	106.49
390.028	94.21
390.238	49.15
390.447	94.21
390.657	88.06
390.867	57.34
391.076	24.58
391.286	57.34
391.496	0
391.705	75.77
391.915	131.07
392.125	71.68
392.334	63.49
392.544	114.69
392.753	65.54
392.963	6.14
393.172	83.97
393.382	59.39
393.591	100.35
393.801	45.06
394.01	98.3
394.22	114.69
394.429	38.91
394.639	77.82
394.848	124.93
395.058	106.49
395.267	139.26
395.477	98.3
395.686	114.69
395.895	133.12
396.105	141.31
396.314	131.07
396.524	28.67
396.733	90.11
396.942	151.55
397.152	53.25
397.361	106.49
397.57	40.96
397.78	51.2
397.989	147.45
398.198	143.36
398.407	139.26
398.617	131.07
398.826	112.64
399.035	77.82
399.244	57.34
399.453	83.97
399.663	12.29
399.872	172.03
400.081	112.64
400.29	73.73
400.499	100.35
400.708	114.69
400.917	110.59
401.127	163.84
401.336	75.77
401.545	215.04
401.754	159.74
401.963	161.79
402.172	131.07
402.381	45.06
402.59	133.12
402.799	139.26
403.008	124.93
403.217	188.41
403.426	102.4
403.635	147.45
403.844	106.49
404.053	94.21
404.262	102.4
404.471	176.13
404.68	118.78
404.888	143.36
405.097	83.97
405.306	212.99
405.515	131.07
405.724	114.69
405.933	169.98
406.142	262.14
406.35	241.66
406.559	217.08
406.768	151.55
406.977	278.52
407.185	204.8
407.394	233.47
407.603	190.46
407.812	163.84
408.02	217.08
408.229	278.52
408.438	239.61
408.646	229.37
408.855	294.91
409.064	270.33
409.272	321.53
409.481	256
409.69	270.33
409.898	346.11
410.107	331.77
410.315	428.03
410.524	319.48
410.733	337.91
410.941	296.96
411.15	346.11
411.358	339.96
411.567	370.68
411.775	385.02
411.984	409.59
412.192	385.02
412.401	520.18
412.609	471.03
412.818	450.55
413.026	532.47
413.234	548.86
413.443	526.33
413.651	552.95
413.86	569.34
414.068	634.87
414.276	712.69
414.485	684.02
414.693	665.59
414.901	747.51
415.11	667.64
415.318	749.56
415.526	700.41
415.734	835.57
415.943	794.61
416.151	919.54
416.359	860.15
416.567	886.77
416.776	905.2
416.984	1017.84
417.192	1056.75
417.4	1003.5
417.608	1110
417.817	1064.94
418.025	1187.82
418.233	1224.69
418.441	1212.4
418.649	1124.33
418.857	1327.08
419.065	1425.39
419.273	1331.18
419.481	1419.24
419.689	1470.44
419.897	1531.88
420.105	1542.12
420.313	1540.07
420.521	1665
420.729	1679.33
420.937	1714.15
421.145	1810.4
421.353	1929.19
421.561	2011.11
421.769	1992.67
421.977	2107.36
422.185	2136.03
422.393	2207.71
422.601	2400.22
422.809	2265.05
423.017	2486.23
423.224	2408.41
423.432	2531.29
423.64	2613.21
423.848	2789.33
424.056	2779.09
424.263	2852.82
424.471	2858.96
424.679	3059.67
424.887	3213.26
425.094	3160.02
425.302	3280.85
425.51	3407.82
425.718	3489.74
425.925	3454.92
426.133	3635.14
426.341	3723.21
426.548	4202.43
426.756	4122.56
426.964	4005.83
427.171	4358.08
427.379	4315.07
427.586	4327.36
427.794	4544.44
428.001	4878.26
428.209	5003.19
428.417	4904.89
428.624	5302.19
428.832	5246.9
429.039	5253.04
429.247	5496.75
429.454	5767.08
429.662	6180.77
429.869	5754.79
430.076	6123.43
430.284	5926.82
430.491	6162.34
430.699	6760.34
430.906	6631.32
431.114	6592.41
431.321	6979.48
431.528	7085.97
431.736	7477.13
431.943	7989.13
432.15	7696.27
432.358	7677.83
432.565	8077.19
432.772	8136.58
432.979	8589.18
433.187	8642.43
433.394	8724.35
433.601	9473.9
433.808	9236.34
434.016	9449.33
434.223	9703.28
434.43	10196.84
434.637	10094.44
434.844	10528.61
435.052	10946.39
435.259	10852.19
435.466	10780.51
435.673	10977.11
435.88	11587.41
436.087	12195.65
436.294	11927.37
436.501	11853.64
436.708	12150.6
436.915	12517.18
437.122	13078.33
437.329	12906.3
437.537	13647.66
437.743	13821.74
437.95	13557.55
438.157	14163.75
438.364	14616.35
438.571	14737.18
438.778	14577.44
438.985	16162.57
439.192	15376.15
439.399	15949.58
439.606	15605.52
439.813	16586.5
440.02	17432.31
440.227	17319.67
440.433	16981.76
440.64	17698.55
440.847	17288.95
441.054	17860.34
441.261	19015.39
441.467	18607.84
441.674	19257.05
441.881	19777.23
442.088	20063.95
442.294	19750.61
442.501	20149.96
442.708	20711.11
442.914	21501.62
443.121	22503.08
443.328	21704.37
443.534	23297.69
443.741	22822.56
443.948	22585
444.154	23967.38
444.361	23926.42
444.568	23991.95
444.774	24149.65
444.981	24290.96
445.187	24950.4
445.394	26044.02
445.6	25947.76
445.807	28298.83
446.013	26943.08
446.22	27727.45
446.426	28649.03
446.633	28896.84
446.839	29953.59
447.046	28792.39
447.252	30139.96
447.459	30377.52
447.665	30838.31
447.871	31557.15
448.078	32509.46
448.284	31313.44
448.491	32294.42
448.697	33373.7
448.903	34016.76
449.11	34287.09
449.316	33744.38
449.522	34457.07
449.728	35212.77
449.935	36017.63
450.141	35274.21
450.347	35993.05
450.553	35319.27
450.76	36068.83
450.966	36834.77
451.172	36597.2
451.378	37332.42
451.584	36728.27
451.791	37635.52
451.997	37608.9
452.203	38055.36
452.409	38221.24
452.615	38254.01
452.821	36660.69
453.027	36687.31
453.233	38286.78
453.44	36959.69
453.646	37256.65
453.852	37205.45
454.058	37832.13
454.264	36623.83
454.47	38020.54
454.676	37297.61
454.882	38264.25
455.088	35280.36
455.294	35503.59
455.5	36146.65
455.705	36290.01
455.911	35026.41
456.117	34344.44
456.323	33983.99
456.529	32050.71
456.735	33574.4
456.941	32732.68
457.147	32097.81
457.352	31395.36
457.558	31049.25
457.764	31118.89
457.97	30422.58
458.176	29849.14
458.381	29986.36
458.587	28304.98
458.793	28266.06
458.999	27194.98
459.204	29161.03
459.41	28270.16
459.616	26293.87
459.821	26605.16
460.027	26039.92
460.233	25878.13
460.438	24678.02
460.644	24823.43
460.85	23623.32
461.055	23258.78
461.261	23336.6
461.466	21522.1
461.672	20944.58
461.878	22392.49
462.083	21006.02
462.289	20883.14
462.494	20676.29
462.7	19341.02
462.905	19027.68
463.111	19525.33
463.316	19777.23
463.522	19375.83
463.727	19259.1
463.932	19287.77
464.138	19244.76
464.343	19238.62
464.549	18458.34
464.754	19087.07
464.959	19148.51
465.165	18886.37
465.37	18165.48
465.575	17784.56
465.781	18583.27
465.986	18640.61
466.191	17686.26
466.397	17409.78
466.602	16684.8
466.807	17159.93
467.012	17473.27
467.218	17489.65
467.423	17096.44
467.628	17071.87
