Data from USB4F104151__269__14-46-06-519.txt Node

Date: Thu Mar 13 14:46:06 EDT 2025
User: louis
Spectrometer: USB4F10415
Trigger mode: 4
Integration Time (sec): 2.000000E-2
Scans to average: 1
Electric dark correction enabled: true
Nonlinearity correction enabled: false
Boxcar width: 0
XAxis mode: Wavelengths
Number of Pixels in Spectrum: 3648
>>>>>Begin Spectral Data<<<<<
178.204	-206.33
178.424	-206.33
178.644	-206.33
178.864	-140.8
179.084	-105.98
179.304	0.51
179.524	-1.54
179.744	-36.35
179.964	12.8
180.184	61.95
180.404	47.62
180.624	14.85
180.844	-26.11
181.064	0.51
181.283	-30.21
181.503	-44.54
181.723	0.51
181.943	-62.98
182.163	49.66
182.383	-44.54
182.602	45.57
182.822	53.76
183.042	12.8
183.262	16.9
183.482	49.66
183.701	-11.78
183.921	66.05
184.141	119.29
184.361	107.01
184.58	4.61
184.8	29.18
185.02	59.9
185.239	-17.92
185.459	0.51
185.679	76.29
185.898	0.51
186.118	-62.98
186.338	20.99
186.557	72.19
186.777	-44.54
186.997	-7.68
187.216	-22.02
187.436	125.44
187.655	4.61
187.875	111.1
188.095	51.71
188.314	57.86
188.534	41.47
188.753	33.28
188.973	33.28
189.192	6.66
189.412	92.67
189.631	8.7
189.851	37.38
190.07	10.75
190.29	45.57
190.509	-65.02
190.729	39.42
190.948	115.2
191.168	86.53
191.387	94.72
191.607	-48.64
191.826	59.9
192.045	10.75
192.265	25.09
192.484	57.86
192.704	78.33
192.923	-79.36
193.142	139.77
193.362	-1.54
193.581	20.99
193.8	12.8
194.02	102.91
194.239	12.8
194.458	-3.58
194.678	78.33
194.897	4.61
195.116	33.28
195.335	53.76
195.555	-19.97
195.774	-1.54
195.993	55.81
196.212	43.52
196.432	0.51
196.651	23.04
196.87	41.47
197.089	72.19
197.308	61.95
197.528	20.99
197.747	-46.59
197.966	41.47
198.185	4.61
198.404	-19.97
198.623	70.14
198.842	33.28
199.062	43.52
199.281	131.58
199.5	41.47
199.719	41.47
199.938	35.33
200.157	80.38
200.376	-11.78
200.595	31.23
200.814	27.14
201.033	-19.97
201.252	0.51
201.471	-34.3
201.69	53.76
201.909	74.24
202.128	0.51
202.347	-11.78
202.566	-3.58
202.785	47.62
203.004	-17.92
203.223	-13.82
203.442	6.66
203.661	16.9
203.879	16.9
204.098	-28.16
204.317	-5.63
204.536	78.33
204.755	37.38
204.974	72.19
205.193	6.66
205.411	-1.54
205.63	53.76
205.849	-50.69
206.068	-7.68
206.287	-26.11
206.505	70.14
206.724	39.42
206.943	29.18
207.162	57.86
207.381	31.23
207.599	25.09
207.818	-9.73
208.037	31.23
208.255	6.66
208.474	-3.58
208.693	33.28
208.911	8.7
209.13	47.62
209.349	37.38
209.567	74.24
209.786	4.61
210.005	109.05
210.223	70.14
210.442	-42.5
210.661	37.38
210.879	-67.07
211.098	-40.45
211.316	35.33
211.535	82.43
211.753	14.85
211.972	29.18
212.191	119.29
212.409	78.33
212.628	23.04
212.846	57.86
213.065	0.51
213.283	39.42
213.502	-13.82
213.72	6.66
213.938	41.47
214.157	94.72
214.375	94.72
214.594	61.95
214.812	4.61
215.031	-24.06
215.249	80.38
215.467	49.66
215.686	-11.78
215.904	25.09
216.122	33.28
216.341	37.38
216.559	59.9
216.778	27.14
216.996	37.38
217.214	12.8
217.432	12.8
217.651	37.38
217.869	25.09
218.087	33.28
218.306	-22.02
218.524	31.23
218.742	29.18
218.96	59.9
219.179	37.38
219.397	-7.68
219.615	10.75
219.833	66.05
220.051	29.18
220.27	39.42
220.488	78.33
220.706	82.43
220.924	-60.93
221.142	94.72
221.36	49.66
221.578	41.47
221.796	53.76
222.015	16.9
222.233	-46.59
222.451	53.76
222.669	-60.93
222.887	43.52
223.105	-36.35
223.323	27.14
223.541	39.42
223.759	31.23
223.977	25.09
224.195	80.38
224.413	51.71
224.631	-15.87
224.849	-1.54
225.067	49.66
225.285	-19.97
225.503	-42.5
225.721	12.8
225.939	-9.73
226.157	45.57
226.375	70.14
226.592	-19.97
226.81	35.33
227.028	29.18
227.246	70.14
227.464	-11.78
227.682	37.38
227.9	8.7
228.117	-7.68
228.335	20.99
228.553	23.04
228.771	-3.58
228.989	96.77
229.206	61.95
229.424	-36.35
229.642	51.71
229.86	41.47
230.077	53.76
230.295	-1.54
230.513	14.85
230.731	86.53
230.948	53.76
231.166	96.77
231.384	2.56
231.601	12.8
231.819	23.04
232.037	33.28
232.254	41.47
232.472	12.8
232.689	14.85
232.907	90.62
233.125	39.42
233.342	27.14
233.56	78.33
233.777	12.8
233.995	-11.78
234.213	59.9
234.43	43.52
234.648	-44.54
234.865	117.25
235.083	53.76
235.3	12.8
235.518	4.61
235.735	14.85
235.953	61.95
236.17	12.8
236.388	8.7
236.605	39.42
236.822	72.19
237.04	64
237.257	45.57
237.475	-17.92
237.692	72.19
237.909	88.57
238.127	-15.87
238.344	12.8
238.562	18.94
238.779	29.18
238.996	33.28
239.214	64
239.431	61.95
239.648	-52.74
239.865	20.99
240.083	8.7
240.3	-11.78
240.517	25.09
240.735	4.61
240.952	-3.58
241.169	115.2
241.386	-44.54
241.603	-7.68
241.821	4.61
242.038	-1.54
242.255	70.14
242.472	74.24
242.689	8.7
242.907	-19.97
243.124	61.95
243.341	-3.58
243.558	-60.93
243.775	49.66
243.992	43.52
244.209	37.38
244.426	25.09
244.643	25.09
244.86	39.42
245.078	2.56
245.295	8.7
245.512	39.42
245.729	18.94
245.946	6.66
246.163	-13.82
246.38	-32.26
246.597	37.38
246.814	20.99
247.031	-7.68
247.248	104.96
247.464	37.38
247.681	37.38
247.898	4.61
248.115	12.8
248.332	-30.21
248.549	35.33
248.766	90.62
248.983	59.9
249.2	20.99
249.417	61.95
249.633	12.8
249.85	14.85
250.067	-44.54
250.284	23.04
250.501	6.66
250.717	53.76
250.934	45.57
251.151	86.53
251.368	-60.93
251.585	-1.54
251.801	4.61
252.018	-75.26
252.235	47.62
252.451	-44.54
252.668	-38.4
252.885	14.85
253.102	6.66
253.318	-36.35
253.535	-77.31
253.752	-24.06
253.968	-19.97
254.185	61.95
254.401	55.81
254.618	25.09
254.835	10.75
255.051	74.24
255.268	-38.4
255.484	53.76
255.701	33.28
255.917	31.23
256.134	18.94
256.351	-19.97
256.567	-28.16
256.784	37.38
257	6.66
257.217	-48.64
257.433	29.18
257.65	31.23
257.866	31.23
258.082	31.23
258.299	-67.07
258.515	-28.16
258.732	14.85
258.948	-26.11
259.165	33.28
259.381	64
259.597	78.33
259.814	107.01
260.03	25.09
260.246	20.99
260.463	64
260.679	14.85
260.895	0.51
261.112	6.66
261.328	6.66
261.544	-26.11
261.761	88.57
261.977	14.85
262.193	-11.78
262.409	-7.68
262.626	61.95
262.842	14.85
263.058	6.66
263.274	49.66
263.49	-11.78
263.707	61.95
263.923	78.33
264.139	4.61
264.355	49.66
264.571	23.04
264.787	37.38
265.004	49.66
265.22	-11.78
265.436	8.7
265.652	-11.78
265.868	41.47
266.084	68.09
266.3	-1.54
266.516	12.8
266.732	41.47
266.948	-7.68
267.164	16.9
267.38	20.99
267.596	-1.54
267.812	47.62
268.028	12.8
268.244	45.57
268.46	16.9
268.676	-28.16
268.892	47.62
269.108	-19.97
269.324	8.7
269.54	-38.4
269.756	61.95
269.972	8.7
270.188	80.38
270.403	-19.97
270.619	12.8
270.835	27.14
271.051	-7.68
271.267	-38.4
271.483	4.61
271.698	-42.5
271.914	80.38
272.13	74.24
272.346	-26.11
272.562	74.24
272.777	61.95
272.993	0.51
273.209	41.47
273.425	23.04
273.64	12.8
273.856	72.19
274.072	33.28
274.287	16.9
274.503	12.8
274.719	61.95
274.934	-19.97
275.15	-17.92
275.366	-17.92
275.581	-3.58
275.797	-3.58
276.012	61.95
276.228	-7.68
276.444	14.85
276.659	29.18
276.875	-40.45
277.09	6.66
277.306	4.61
277.521	29.18
277.737	-58.88
277.952	74.24
278.168	20.99
278.383	74.24
278.599	20.99
278.814	53.76
279.03	-11.78
279.245	45.57
279.461	23.04
279.676	-15.87
279.892	-19.97
280.107	57.86
280.322	-50.69
280.538	-56.83
280.753	80.38
280.969	23.04
281.184	-9.73
281.399	16.9
281.615	6.66
281.83	98.81
282.045	-1.54
282.26	-89.6
282.476	37.38
282.691	129.53
282.906	-7.68
283.122	-26.11
283.337	-34.3
283.552	64
283.767	20.99
283.983	98.81
284.198	-19.97
284.413	70.14
284.628	-11.78
284.843	10.75
285.058	14.85
285.274	-38.4
285.489	29.18
285.704	47.62
285.919	-73.21
286.134	6.66
286.349	6.66
286.564	84.48
286.779	61.95
286.995	23.04
287.21	-65.02
287.425	111.1
287.64	29.18
287.855	49.66
288.07	-48.64
288.285	31.23
288.5	-3.58
288.715	6.66
288.93	47.62
289.145	86.53
289.36	72.19
289.575	12.8
289.79	0.51
290.004	82.43
290.219	43.52
290.434	-3.58
290.649	20.99
290.864	-42.5
291.079	37.38
291.294	49.66
291.509	53.76
291.724	53.76
291.938	-58.88
292.153	107.01
292.368	-22.02
292.583	70.14
292.798	47.62
293.012	31.23
293.227	-44.54
293.442	-19.97
293.657	29.18
293.871	78.33
294.086	-11.78
294.301	86.53
294.516	53.76
294.73	-19.97
294.945	-50.69
295.16	20.99
295.374	29.18
295.589	78.33
295.804	-28.16
296.018	4.61
296.233	102.91
296.447	45.57
296.662	29.18
296.877	53.76
297.091	37.38
297.306	43.52
297.52	25.09
297.735	8.7
297.949	78.33
298.164	37.38
298.378	-11.78
298.593	35.33
298.807	-34.3
299.022	45.57
299.236	86.53
299.451	12.8
299.665	-17.92
299.88	29.18
300.094	-28.16
300.309	45.57
300.523	70.14
300.737	4.61
300.952	-17.92
301.166	47.62
301.381	-3.58
301.595	12.8
301.809	14.85
302.024	-24.06
302.238	57.86
302.452	-32.26
302.667	4.61
302.881	47.62
303.095	41.47
303.309	53.76
303.524	-32.26
303.738	96.77
303.952	-32.26
304.166	-26.11
304.381	29.18
304.595	133.63
304.809	-26.11
305.023	-24.06
305.237	12.8
305.452	-11.78
305.666	47.62
305.88	57.86
306.094	66.05
306.308	14.85
306.522	57.86
306.736	-11.78
306.95	-3.58
307.164	0.51
307.379	8.7
307.593	57.86
307.807	25.09
308.021	20.99
308.235	-11.78
308.449	37.38
308.663	74.24
308.877	94.72
309.091	57.86
309.305	33.28
309.519	-17.92
309.733	25.09
309.947	-24.06
310.161	2.56
310.374	66.05
310.588	64
310.802	-3.58
311.016	-5.63
311.23	55.81
311.444	4.61
311.658	45.57
311.872	33.28
312.085	37.38
312.299	107.01
312.513	68.09
312.727	-3.58
312.941	-60.93
313.154	53.76
313.368	23.04
313.582	-32.26
313.796	4.61
314.009	-3.58
314.223	123.39
314.437	14.85
314.651	33.28
314.864	29.18
315.078	-3.58
315.292	-19.97
315.505	-77.31
315.719	43.52
315.933	2.56
316.146	-7.68
316.36	37.38
316.573	86.53
316.787	20.99
317.001	78.33
317.214	23.04
317.428	-5.63
317.641	16.9
317.855	23.04
318.068	2.56
318.282	41.47
318.495	12.8
318.709	82.43
318.922	53.76
319.136	72.19
319.349	39.42
319.563	-3.58
319.776	45.57
319.99	64
320.203	-32.26
320.417	23.04
320.63	41.47
320.843	53.76
321.057	0.51
321.27	68.09
321.483	12.8
321.697	64
321.91	57.86
322.124	23.04
322.337	25.09
322.55	-48.64
322.763	25.09
322.977	-58.88
323.19	12.8
323.403	55.81
323.617	33.28
323.83	45.57
324.043	12.8
324.256	-11.78
324.469	55.81
324.683	70.14
324.896	-30.21
325.109	20.99
325.322	-19.97
325.535	33.28
325.748	-19.97
325.962	-60.93
326.175	-28.16
326.388	29.18
326.601	-7.68
326.814	-5.63
327.027	20.99
327.24	102.91
327.453	-95.74
327.666	29.18
327.879	-15.87
328.092	-17.92
328.305	31.23
328.518	-11.78
328.731	-7.68
328.944	-42.5
329.157	27.14
329.37	92.67
329.583	45.57
329.796	72.19
330.009	-89.6
330.222	6.66
330.435	0.51
330.648	57.86
330.861	-1.54
331.073	66.05
331.286	82.43
331.499	37.38
331.712	16.9
331.925	53.76
332.138	-26.11
332.35	80.38
332.563	16.9
332.776	45.57
332.989	23.04
333.202	41.47
333.414	25.09
333.627	-40.45
333.84	64
334.053	18.94
334.265	12.8
334.478	23.04
334.691	-38.4
334.903	-58.88
335.116	47.62
335.329	37.38
335.541	12.8
335.754	61.95
335.966	4.61
336.179	94.72
336.392	55.81
336.604	88.57
336.817	61.95
337.029	23.04
337.242	-42.5
337.454	66.05
337.667	16.9
337.88	61.95
338.092	51.71
338.305	82.43
338.517	-1.54
338.729	33.28
338.942	104.96
339.154	10.75
339.367	-40.45
339.579	74.24
339.792	61.95
340.004	-1.54
340.217	25.09
340.429	29.18
340.641	39.42
340.854	6.66
341.066	27.14
341.278	31.23
341.491	76.29
341.703	16.9
341.915	-44.54
342.128	100.86
342.34	20.99
342.552	-32.26
342.764	-26.11
342.977	-32.26
343.189	98.81
343.401	-13.82
343.613	-15.87
343.826	53.76
344.038	0.51
344.25	59.9
344.462	-19.97
344.674	6.66
344.886	47.62
345.099	59.9
345.311	-15.87
345.523	-36.35
345.735	-26.11
345.947	29.18
346.159	-7.68
346.371	12.8
346.583	23.04
346.795	61.95
347.007	-22.02
347.219	-19.97
347.431	-19.97
347.643	-5.63
347.855	-7.68
348.067	64
348.279	-42.5
348.491	-40.45
348.703	-11.78
348.915	20.99
349.127	-52.74
349.339	12.8
349.551	45.57
349.763	4.61
349.975	-7.68
350.187	-17.92
350.399	35.33
350.61	113.15
350.822	23.04
351.034	-7.68
351.246	-36.35
351.458	98.81
351.669	41.47
351.881	20.99
352.093	35.33
352.305	94.72
352.517	-7.68
352.728	6.66
352.94	80.38
353.152	70.14
353.363	96.77
353.575	84.48
353.787	55.81
353.999	53.76
354.21	123.39
354.422	-11.78
354.633	-1.54
354.845	80.38
355.057	16.9
355.268	-11.78
355.48	86.53
355.692	-19.97
355.903	4.61
356.115	-3.58
356.326	10.75
356.538	80.38
356.749	43.52
356.961	100.86
357.172	23.04
357.384	-9.73
357.595	76.29
357.807	-77.31
358.018	-26.11
358.23	39.42
358.441	115.2
358.653	31.23
358.864	-3.58
359.075	45.57
359.287	33.28
359.498	80.38
359.709	90.62
359.921	37.38
360.132	76.29
360.344	86.53
360.555	-3.58
360.766	27.14
360.977	-19.97
361.189	35.33
361.4	-5.63
361.611	8.7
361.823	4.61
362.034	-7.68
362.245	29.18
362.456	111.1
362.667	33.28
362.879	61.95
363.09	12.8
363.301	6.66
363.512	-15.87
363.723	20.99
363.935	16.9
364.146	78.33
364.357	20.99
364.568	-11.78
364.779	-36.35
364.99	70.14
365.201	0.51
365.412	86.53
365.623	-7.68
365.834	115.2
366.045	-5.63
366.256	121.34
366.467	70.14
366.678	-9.73
366.889	-11.78
367.1	-19.97
367.311	45.57
367.522	-50.69
367.733	37.38
367.944	57.86
368.155	55.81
368.366	64
368.577	53.76
368.788	25.09
368.999	6.66
369.209	6.66
369.42	25.09
369.631	107.01
369.842	43.52
370.053	-7.68
370.264	43.52
370.474	14.85
370.685	29.18
370.896	31.23
371.107	29.18
371.317	94.72
371.528	-28.16
371.739	119.29
371.95	29.18
372.16	66.05
372.371	29.18
372.582	37.38
372.792	98.81
373.003	37.38
373.214	45.57
373.424	33.28
373.635	31.23
373.846	45.57
374.056	-11.78
374.267	8.7
374.477	31.23
374.688	-48.64
374.898	59.9
375.109	68.09
375.319	72.19
375.53	86.53
375.74	-1.54
375.951	-11.78
376.161	33.28
376.372	39.42
376.582	96.77
376.793	49.66
377.003	-17.92
377.214	-26.11
377.424	27.14
377.635	82.43
377.845	-19.97
378.055	84.48
378.266	98.81
378.476	92.67
378.686	100.86
378.897	64
379.107	18.94
379.317	53.76
379.528	43.52
379.738	49.66
379.948	14.85
380.158	23.04
380.369	14.85
380.579	-1.54
380.789	29.18
380.999	47.62
381.21	39.42
381.42	111.1
381.63	76.29
381.84	4.61
382.05	-9.73
382.261	78.33
382.471	104.96
382.681	88.57
382.891	131.58
383.101	-9.73
383.311	35.33
383.521	12.8
383.731	53.76
383.941	94.72
384.151	45.57
384.361	57.86
384.571	8.7
384.781	119.29
384.991	158.21
385.201	70.14
385.411	84.48
385.621	4.61
385.831	53.76
386.041	64
386.251	53.76
386.461	25.09
386.671	94.72
386.881	68.09
387.091	-75.26
387.301	76.29
387.511	20.99
387.72	47.62
387.93	-7.68
388.14	29.18
388.35	-19.97
388.56	64
388.769	119.29
388.979	53.76
389.189	72.19
389.399	20.99
389.609	102.91
389.818	70.14
390.028	37.38
390.238	25.09
390.447	-17.92
390.657	49.66
390.867	37.38
391.076	-3.58
391.286	14.85
391.496	57.86
391.705	-34.3
391.915	64
392.125	-7.68
392.334	47.62
392.544	23.04
392.753	68.09
392.963	37.38
393.172	88.57
393.382	20.99
393.591	152.06
393.801	23.04
394.01	37.38
394.22	59.9
394.429	53.76
394.639	33.28
394.848	64
395.058	-26.11
395.267	66.05
395.477	90.62
395.686	61.95
395.895	133.63
396.105	111.1
396.314	55.81
396.524	78.33
396.733	37.38
396.942	174.59
397.152	59.9
397.361	72.19
397.57	61.95
397.78	-36.35
397.989	98.81
398.198	135.68
398.407	33.28
398.617	104.96
398.826	0.51
399.035	45.57
399.244	43.52
399.453	61.95
399.663	143.87
399.872	61.95
400.081	64
400.29	98.81
400.499	61.95
400.708	104.96
400.917	98.81
401.127	-15.87
401.336	23.04
401.545	115.2
401.754	117.25
401.963	186.88
402.172	96.77
402.381	78.33
402.59	78.33
402.799	150.01
403.008	160.25
403.217	162.3
403.426	129.53
403.635	16.9
403.844	70.14
404.053	12.8
404.262	86.53
404.471	201.21
404.68	133.63
404.888	104.96
405.097	78.33
405.306	111.1
405.515	152.06
405.724	168.45
405.933	82.43
406.142	147.97
406.35	147.97
406.559	113.15
406.768	190.97
406.977	176.64
407.185	131.58
407.394	201.21
407.603	131.58
407.812	152.06
408.02	215.55
408.229	143.87
408.438	233.98
408.646	154.11
408.855	195.07
409.064	170.49
409.272	156.16
409.481	258.56
409.69	164.35
409.898	217.6
410.107	217.6
410.315	270.84
410.524	215.55
410.733	266.75
410.941	186.88
411.15	266.75
411.358	256.51
411.567	387.58
411.775	324.09
411.984	334.33
412.192	328.19
412.401	346.62
412.609	420.35
412.818	397.82
413.026	457.21
413.234	408.06
413.443	473.59
413.651	373.24
413.86	406.01
414.068	483.83
414.276	455.16
414.485	471.54
414.693	561.66
414.901	524.79
415.11	549.37
415.318	625.14
415.526	565.75
415.734	545.27
415.943	559.61
416.151	731.64
416.359	676.34
416.567	627.19
416.776	610.81
416.984	719.35
417.192	721.4
417.4	829.94
417.608	727.54
417.817	881.14
418.025	821.75
418.233	864.75
418.441	860.66
418.649	897.52
418.857	932.34
419.065	1090.03
419.273	934.39
419.481	999.92
419.689	1071.6
419.897	1079.79
420.105	1217.01
420.313	1204.72
420.521	1243.63
420.729	1257.96
420.937	1366.51
421.145	1327.6
421.353	1434.09
421.561	1528.3
421.769	1462.76
421.977	1546.73
422.185	1604.07
422.393	1632.74
422.601	1835.49
422.809	1726.95
423.017	1726.95
423.224	1831.4
423.432	1987.04
423.64	1835.49
423.848	2218.46
424.056	1987.04
424.263	2068.96
424.471	2167.26
424.679	2269.66
424.887	2331.1
425.094	2380.25
425.302	2439.64
425.51	2544.09
425.718	2568.66
425.925	2693.59
426.133	2597.34
426.341	2927.06
426.548	3051.99
426.756	3101.14
426.964	3043.79
427.171	3293.65
427.379	3250.64
427.586	3244.49
427.794	3273.17
428.001	3518.92
428.209	3727.82
428.417	3539.4
428.624	4047.3
428.832	3932.61
429.039	3897.8
429.247	3844.55
429.454	4243.9
429.662	4583.87
429.869	4166.08
430.076	4518.33
430.284	4487.61
430.491	4680.12
430.699	4827.57
430.906	4792.76
431.114	5065.14
431.321	5222.83
431.528	5241.26
431.736	5632.43
431.943	5779.88
432.15	5575.08
432.358	5609.9
432.565	5951.91
432.772	5915.05
432.979	6099.36
433.187	6418.85
433.394	6242.72
433.601	6685.08
433.808	6930.84
434.016	6926.74
434.223	7219.6
434.43	7473.55
434.637	7371.15
434.844	7999.88
435.052	7868.81
435.259	8051.08
435.466	8124.8
435.673	8083.84
435.88	8446.34
436.087	8860.02
436.294	8960.38
436.501	8524.16
436.708	8896.89
436.915	9322.87
437.122	9613.68
437.329	9542
437.537	9849.19
437.743	10105.19
437.95	10008.94
438.157	10400.1
438.364	10824.03
438.571	10826.07
438.778	10705.24
438.985	11899.21
439.192	11391.31
439.399	11749.71
439.606	11657.55
439.813	12032.33
440.02	12917.05
440.227	12552.51
440.433	12441.92
440.64	12777.79
440.847	12853.56
441.054	13127.99
441.261	13902.12
441.467	13969.71
441.674	14078.25
441.881	14561.57
442.088	14377.25
442.294	14356.77
442.501	14866.72
442.708	15057.18
442.914	15626.51
443.121	16277.77
443.328	15999.24
443.534	17109.24
443.741	16580.87
443.948	16113.93
444.154	17707.25
444.361	17314.04
444.568	17801.46
444.774	17395.96
444.981	17885.42
445.187	18325.74
445.394	18933.98
445.6	18872.54
445.807	20441.29
446.013	19656.92
446.22	20224.2
446.426	20719.81
446.633	20834.5
446.839	21735.6
447.046	20994.24
447.252	22143.15
447.459	22198.45
447.665	22061.23
447.871	22984.87
448.078	23931.03
448.284	22935.71
448.491	23394.46
448.697	24451.21
448.903	24891.52
449.11	24875.14
449.316	24729.73
449.522	25274.49
449.728	25849.97
449.935	25780.34
450.141	25856.12
450.347	26390.64
450.553	25827.45
450.76	25919.6
450.966	27121.76
451.172	26607.72
451.378	27496.54
451.584	26726.5
451.791	27758.68
451.997	27277.41
452.203	27799.64
452.409	27893.85
452.615	27908.18
452.821	26724.46
453.027	26611.82
453.233	28104.79
453.44	26892.39
453.646	27265.12
453.852	27359.33
454.058	27775.06
454.264	27013.22
454.47	27469.92
454.676	26802.28
454.882	28112.98
455.088	25120.9
455.294	25731.19
455.5	26402.93
455.705	26773.61
455.911	25309.31
456.117	25333.89
456.323	24971.39
456.529	23042.21
456.735	24522.89
456.941	23824.53
457.147	23392.41
457.352	22870.18
457.558	22610.09
457.764	22522.02
457.97	22024.37
458.176	21901.49
458.381	21668.02
458.587	20480.2
458.793	20730.05
458.999	19476.69
459.204	21233.85
459.41	20558.02
459.616	19319
459.821	19290.33
460.027	19206.36
460.233	18608.36
460.438	18004.21
460.644	18073.84
460.85	17252.6
461.055	17002.75
461.261	17213.69
461.466	15640.85
461.672	15008.03
461.878	16529.67
462.083	15427.86
462.289	14922.01
462.494	14852.38
462.7	13957.42
462.905	13685.04
463.111	14235.94
463.316	14090.54
463.522	13932.84
463.727	14108.97
463.932	14119.21
464.138	13642.03
464.343	13861.16
464.549	13635.89
464.754	13922.6
464.959	13748.53
465.165	13685.04
465.37	13103.42
465.575	12884.28
465.781	13297.97
465.986	13361.46
466.191	12822.84
466.397	12640.58
466.602	11958.6
466.807	12460.35
467.012	12400.96
467.218	12460.35
467.423	12362.05
467.628	12525.89
467.833	12851.52
468.038	12263.75
468.244	12208.45
