Data from USB4F104151__196__14-45-16-430.txt Node

Date: Thu Mar 13 14:45:16 EDT 2025
User: louis
Spectrometer: USB4F10415
Trigger mode: 4
Integration Time (sec): 2.000000E-2
Scans to average: 1
Electric dark correction enabled: true
Nonlinearity correction enabled: false
Boxcar width: 0
XAxis mode: Wavelengths
Number of Pixels in Spectrum: 3648
>>>>>Begin Spectral Data<<<<<
178.204	-98.13
178.424	-98.13
178.644	-98.13
178.864	-94.04
179.084	-108.37
179.304	-3.93
179.524	-10.07
179.744	-8.02
179.964	-3.93
180.184	14.51
180.404	14.51
180.624	-61.27
180.844	-28.5
181.064	41.13
181.283	-28.5
181.503	-40.79
181.723	114.86
181.943	-36.69
182.163	155.82
182.383	30.89
182.602	61.61
182.822	4.27
183.042	80.04
183.262	-14.17
183.482	24.75
183.701	59.56
183.921	61.61
184.141	6.31
184.361	63.66
184.58	63.66
184.8	53.42
185.02	-10.07
185.239	84.14
185.459	28.84
185.679	20.65
185.898	-3.93
186.118	30.89
186.338	86.19
186.557	110.76
186.777	39.08
186.997	53.42
187.216	8.36
187.436	47.27
187.655	110.76
187.875	53.42
188.095	45.23
188.314	75.95
188.534	69.8
188.753	53.42
188.973	-26.45
189.192	92.33
189.412	28.84
189.631	77.99
189.851	61.61
190.07	80.04
190.29	-94.04
190.509	28.84
190.729	-8.02
190.948	71.85
191.168	137.38
191.387	49.32
191.607	47.27
191.826	22.7
192.045	16.55
192.265	-28.5
192.484	-1.88
192.704	39.08
192.923	37.03
193.142	100.52
193.362	53.42
193.581	45.23
193.8	24.75
194.02	24.75
194.239	41.13
194.458	24.75
194.678	39.08
194.897	69.8
195.116	-3.93
195.335	61.61
195.555	37.03
195.774	-32.6
195.993	63.66
196.212	-12.12
196.432	-1.88
196.651	49.32
196.87	6.31
197.089	112.81
197.308	16.55
197.528	55.47
197.747	-3.93
197.966	45.23
198.185	65.71
198.404	86.19
198.623	-59.22
198.842	77.99
199.062	69.8
199.281	0.17
199.5	37.03
199.719	18.6
199.938	59.56
200.157	34.99
200.376	98.47
200.595	69.8
200.814	94.38
201.033	53.42
201.252	98.47
201.471	30.89
201.69	69.8
201.909	73.9
202.128	22.7
202.347	39.08
202.566	61.61
202.785	10.41
203.004	-24.4
203.223	102.57
203.442	98.47
203.661	24.75
203.879	14.51
204.098	-18.26
204.317	57.51
204.536	47.27
204.755	-28.5
204.974	49.32
205.193	-20.31
205.411	90.28
205.63	24.75
205.849	71.85
206.068	86.19
206.287	24.75
206.505	53.42
206.724	-22.36
206.943	-18.26
207.162	14.51
207.381	4.27
207.599	-28.5
207.818	45.23
208.037	8.36
208.255	30.89
208.474	47.27
208.693	45.23
208.911	37.03
209.13	10.41
209.349	14.51
209.567	-20.31
209.786	53.42
210.005	30.89
210.223	-26.45
210.442	12.46
210.661	114.86
210.879	49.32
211.098	-1.88
211.316	39.08
211.535	110.76
211.753	-8.02
211.972	18.6
212.191	77.99
212.409	10.41
212.628	4.27
212.846	32.94
213.065	4.27
213.283	90.28
213.502	-30.55
213.72	2.22
213.938	41.13
214.157	-34.64
214.375	-1.88
214.594	86.19
214.812	53.42
215.031	-1.88
215.249	-16.21
215.467	-22.36
215.686	65.71
215.904	88.23
216.122	-1.88
216.341	174.25
216.559	14.51
216.778	53.42
216.996	28.84
217.214	-10.07
217.432	53.42
217.651	-51.03
217.869	2.22
218.087	12.46
218.306	-18.26
218.524	37.03
218.742	-14.17
218.96	102.57
219.179	-51.03
219.397	118.95
219.615	-48.98
219.833	24.75
220.051	-34.64
220.27	82.09
220.488	53.42
220.706	61.61
220.924	-3.93
221.142	4.27
221.36	20.65
221.578	6.31
221.796	37.03
222.015	41.13
222.233	45.23
222.451	61.61
222.669	4.27
222.887	102.57
223.105	-16.21
223.323	-44.88
223.541	-18.26
223.759	-3.93
223.977	24.75
224.195	30.89
224.413	71.85
224.631	69.8
224.849	147.62
225.067	82.09
225.285	39.08
225.503	-18.26
225.721	-3.93
225.939	14.51
226.157	61.61
226.375	88.23
226.592	-36.69
226.81	57.51
227.028	22.7
227.246	14.51
227.464	-42.84
227.682	92.33
227.9	30.89
228.117	8.36
228.335	30.89
228.553	-28.5
228.771	32.94
228.989	53.42
229.206	32.94
229.424	49.32
229.642	4.27
229.86	28.84
230.077	118.95
230.295	73.9
230.513	80.04
230.731	123.05
230.948	61.61
231.166	55.47
231.384	-77.65
231.601	30.89
231.819	75.95
232.037	-20.31
232.254	63.66
232.472	47.27
232.689	16.55
232.907	-10.07
233.125	28.84
233.342	53.42
233.56	94.38
233.777	32.94
233.995	-42.84
234.213	20.65
234.43	53.42
234.648	4.27
234.865	20.65
235.083	34.99
235.3	30.89
235.518	16.55
235.735	39.08
235.953	94.38
236.17	45.23
236.388	53.42
236.605	28.84
236.822	57.51
237.04	96.43
237.257	20.65
237.475	84.14
237.692	0.17
237.909	80.04
238.127	-18.26
238.344	63.66
238.562	14.51
238.779	67.75
238.996	-81.75
239.214	-28.5
239.431	75.95
239.648	-32.6
239.865	61.61
240.083	-1.88
240.3	57.51
240.517	69.8
240.735	57.51
240.952	49.32
241.169	80.04
241.386	86.19
241.603	67.75
241.821	16.55
242.038	127.14
242.255	141.48
242.472	-48.98
242.689	12.46
242.907	12.46
243.124	61.61
243.341	26.79
243.558	-24.4
243.775	53.42
243.992	45.23
244.209	41.13
244.426	172.2
244.643	10.41
244.86	20.65
245.078	61.61
245.295	65.71
245.512	28.84
245.729	20.65
245.946	45.23
246.163	65.71
246.38	4.27
246.597	4.27
246.814	61.61
247.031	12.46
247.248	-1.88
247.464	-8.02
247.681	47.27
247.898	49.32
248.115	24.75
248.332	84.14
248.549	110.76
248.766	45.23
248.983	39.08
249.2	73.9
249.417	20.65
249.633	30.89
249.85	6.31
250.067	118.95
250.284	37.03
250.501	63.66
250.717	37.03
250.934	32.94
251.151	73.9
251.368	49.32
251.585	12.46
251.801	26.79
252.018	-61.27
252.235	90.28
252.451	12.46
252.668	69.8
252.885	51.37
253.102	-16.21
253.318	4.27
253.535	37.03
253.752	32.94
253.968	32.94
254.185	-44.88
254.401	94.38
254.618	71.85
254.835	53.42
255.051	61.61
255.268	-10.07
255.484	-28.5
255.701	-20.31
255.917	24.75
256.134	32.94
256.351	-3.93
256.567	-12.12
256.784	53.42
257	4.27
257.217	88.23
257.433	80.04
257.65	61.61
257.866	0.17
258.082	-3.93
258.299	45.23
258.515	51.37
258.732	-18.26
258.948	39.08
259.165	71.85
259.381	37.03
259.597	20.65
259.814	96.43
260.03	57.51
260.246	4.27
260.463	-12.12
260.679	112.81
260.895	135.34
261.112	55.47
261.328	14.51
261.544	-10.07
261.761	71.85
261.977	-3.93
262.193	-16.21
262.409	102.57
262.626	45.23
262.842	-8.02
263.058	12.46
263.274	96.43
263.49	4.27
263.707	77.99
263.923	96.43
264.139	39.08
264.355	-20.31
264.571	94.38
264.787	20.65
265.004	8.36
265.22	8.36
265.436	2.22
265.652	4.27
265.868	61.61
266.084	-1.88
266.3	110.76
266.516	6.31
266.732	123.05
266.948	45.23
267.164	37.03
267.38	4.27
267.596	73.9
267.812	41.13
268.028	12.46
268.244	39.08
268.46	53.42
268.676	57.51
268.892	108.71
269.108	53.42
269.324	-44.88
269.54	61.61
269.756	110.76
269.972	8.36
270.188	37.03
270.403	-46.93
270.619	47.27
270.835	86.19
271.051	69.8
271.267	-20.31
271.483	14.51
271.698	53.42
271.914	71.85
272.13	41.13
272.346	24.75
272.562	57.51
272.777	47.27
272.993	-20.31
273.209	45.23
273.425	18.6
273.64	22.7
273.856	90.28
274.072	24.75
274.287	20.65
274.503	12.46
274.719	12.46
274.934	37.03
275.15	-44.88
275.366	63.66
275.581	24.75
275.797	10.41
276.012	53.42
276.228	73.9
276.444	59.56
276.659	41.13
276.875	-14.17
277.09	12.46
277.306	-44.88
277.521	39.08
277.737	28.84
277.952	61.61
278.168	39.08
278.383	20.65
278.599	45.23
278.814	32.94
279.03	12.46
279.245	77.99
279.461	73.9
279.676	69.8
279.892	-22.36
280.107	4.27
280.322	32.94
280.538	88.23
280.753	-24.4
280.969	4.27
281.184	53.42
281.399	98.47
281.615	20.65
281.83	41.13
282.045	45.23
282.26	-18.26
282.476	41.13
282.691	77.99
282.906	30.89
283.122	-28.5
283.337	77.99
283.552	41.13
283.767	69.8
283.983	24.75
284.198	-12.12
284.413	77.99
284.628	8.36
284.843	6.31
285.058	65.71
285.274	49.32
285.489	-24.4
285.704	49.32
285.919	-59.22
286.134	39.08
286.349	106.67
286.564	71.85
286.779	45.23
286.995	47.27
287.21	6.31
287.425	73.9
287.64	86.19
287.855	37.03
288.07	-36.69
288.285	16.55
288.5	77.99
288.715	28.84
288.93	57.51
289.145	106.67
289.36	41.13
289.575	22.7
289.79	37.03
290.004	-20.31
290.219	92.33
290.434	49.32
290.649	71.85
290.864	67.75
291.079	-3.93
291.294	77.99
291.509	-20.31
291.724	0.17
291.938	22.7
292.153	24.75
292.368	41.13
292.583	-18.26
292.798	22.7
293.012	47.27
293.227	100.52
293.442	73.9
293.657	-36.69
293.871	45.23
294.086	24.75
294.301	51.37
294.516	49.32
294.73	47.27
294.945	14.51
295.16	53.42
295.374	77.99
295.589	24.75
295.804	-36.69
296.018	37.03
296.233	55.47
296.447	37.03
296.662	20.65
296.877	61.61
297.091	57.51
297.306	37.03
297.52	37.03
297.735	41.13
297.949	57.51
298.164	61.61
298.378	-34.64
298.593	63.66
298.807	110.76
299.022	80.04
299.236	49.32
299.451	57.51
299.665	24.75
299.88	82.09
300.094	32.94
300.309	53.42
300.523	80.04
300.737	12.46
300.952	71.85
301.166	49.32
301.381	26.79
301.595	0.17
301.809	8.36
302.024	69.8
302.238	67.75
302.452	61.61
302.667	53.42
302.881	6.31
303.095	55.47
303.309	65.71
303.524	55.47
303.738	20.65
303.952	59.56
304.166	69.8
304.381	16.55
304.595	88.23
304.809	20.65
305.023	104.62
305.237	-48.98
305.452	37.03
305.666	28.84
305.88	37.03
306.094	77.99
306.308	55.47
306.522	57.51
306.736	71.85
306.95	22.7
307.164	63.66
307.379	104.62
307.593	2.22
307.807	63.66
308.021	80.04
308.235	-10.07
308.449	-51.03
308.663	20.65
308.877	77.99
309.091	20.65
309.305	55.47
309.519	-20.31
309.733	159.91
309.947	20.65
310.161	24.75
310.374	28.84
310.588	61.61
310.802	-1.88
311.016	-44.88
311.23	4.27
311.444	80.04
311.658	37.03
311.872	28.84
312.085	90.28
312.299	61.61
312.513	32.94
312.727	39.08
312.941	10.41
313.154	10.41
313.368	41.13
313.582	45.23
313.796	12.46
314.009	55.47
314.223	61.61
314.437	53.42
314.651	14.51
314.864	30.89
315.078	26.79
315.292	28.84
315.505	-77.65
315.719	0.17
315.933	20.65
316.146	55.47
316.36	80.04
316.573	69.8
316.787	69.8
317.001	65.71
317.214	82.09
317.428	94.38
317.641	41.13
317.855	-3.93
318.068	47.27
318.282	57.51
318.495	20.65
318.709	4.27
318.922	-14.17
319.136	102.57
319.349	10.41
319.563	4.27
319.776	84.14
319.99	55.47
320.203	84.14
320.417	14.51
320.63	45.23
320.843	125.1
321.057	34.99
321.27	16.55
321.483	-10.07
321.697	106.67
321.91	80.04
322.124	18.6
322.337	63.66
322.55	6.31
322.763	4.27
322.977	65.71
323.19	73.9
323.403	49.32
323.617	102.57
323.83	86.19
324.043	22.7
324.256	26.79
324.469	24.75
324.683	39.08
324.896	51.37
325.109	53.42
325.322	39.08
325.535	8.36
325.748	110.76
325.962	34.99
326.175	112.81
326.388	82.09
326.601	20.65
326.814	53.42
327.027	96.43
327.24	90.28
327.453	-16.21
327.666	112.81
327.879	-3.93
328.092	61.61
328.305	30.89
328.518	114.86
328.731	-16.21
328.944	53.42
329.157	41.13
329.37	43.18
329.583	159.91
329.796	90.28
330.009	14.51
330.222	30.89
330.435	16.55
330.648	88.23
330.861	49.32
331.073	32.94
331.286	32.94
331.499	61.61
331.712	-3.93
331.925	53.42
332.138	63.66
332.35	110.76
332.563	30.89
332.776	147.62
332.989	20.65
333.202	47.27
333.414	16.55
333.627	22.7
333.84	73.9
334.053	102.57
334.265	41.13
334.478	22.7
334.691	20.65
334.903	-10.07
335.116	65.71
335.329	82.09
335.541	61.61
335.754	53.42
335.966	28.84
336.179	47.27
336.392	73.9
336.604	53.42
336.817	47.27
337.029	-3.93
337.242	55.47
337.454	20.65
337.667	22.7
337.88	37.03
338.092	92.33
338.305	28.84
338.517	-44.88
338.729	112.81
338.942	135.34
339.154	-12.12
339.367	34.99
339.579	77.99
339.792	2.22
340.004	75.95
340.217	26.79
340.429	53.42
340.641	-51.03
340.854	28.84
341.066	41.13
341.278	49.32
341.491	47.27
341.703	63.66
341.915	51.37
342.128	39.08
342.34	96.43
342.552	49.32
342.764	57.51
342.977	55.47
343.189	39.08
343.401	59.56
343.613	-51.03
343.826	45.23
344.038	118.95
344.25	80.04
344.462	57.51
344.674	86.19
344.886	82.09
345.099	57.51
345.311	57.51
345.523	30.89
345.735	-8.02
345.947	45.23
346.159	73.9
346.371	57.51
346.583	-34.64
346.795	92.33
347.007	-3.93
347.219	157.86
347.431	34.99
347.643	69.8
347.855	10.41
348.067	90.28
348.279	53.42
348.491	69.8
348.703	10.41
348.915	6.31
349.127	49.32
349.339	86.19
349.551	53.42
349.763	55.47
349.975	14.51
350.187	24.75
350.399	116.9
350.61	53.42
350.822	55.47
351.034	86.19
351.246	-10.07
351.458	24.75
351.669	47.27
351.881	92.33
352.093	26.79
352.305	77.99
352.517	80.04
352.728	47.27
352.94	12.46
353.152	-12.12
353.363	61.61
353.575	10.41
353.787	102.57
353.999	12.46
354.21	73.9
354.422	-3.93
354.633	-10.07
354.845	28.84
355.057	102.57
355.268	102.57
355.48	47.27
355.692	41.13
355.903	88.23
356.115	53.42
356.326	98.47
356.538	94.38
356.749	37.03
356.961	143.53
357.172	61.61
357.384	20.65
357.595	30.89
357.807	108.71
358.018	8.36
358.23	37.03
358.441	55.47
358.653	55.47
358.864	69.8
359.075	2.22
359.287	37.03
359.498	90.28
359.709	106.67
359.921	53.42
360.132	96.43
360.344	45.23
360.555	63.66
360.766	61.61
360.977	6.31
361.189	114.86
361.4	71.85
361.611	135.34
361.823	73.9
362.034	102.57
362.245	-20.31
362.456	14.51
362.667	18.6
362.879	12.46
363.09	30.89
363.301	151.72
363.512	84.14
363.723	94.38
363.935	69.8
364.146	20.65
364.357	65.71
364.568	71.85
364.779	20.65
364.99	104.62
365.201	82.09
365.412	26.79
365.623	6.31
365.834	61.61
366.045	30.89
366.256	45.23
366.467	61.61
366.678	96.43
366.889	22.7
367.1	24.75
367.311	0.17
367.522	-3.93
367.733	45.23
367.944	4.27
368.155	37.03
368.366	37.03
368.577	57.51
368.788	39.08
368.999	61.61
369.209	30.89
369.42	131.24
369.631	112.81
369.842	86.19
370.053	92.33
370.264	98.47
370.474	73.9
370.685	90.28
370.896	39.08
371.107	69.8
371.317	82.09
371.528	69.8
371.739	106.67
371.95	12.46
372.16	-44.88
372.371	-44.88
372.582	30.89
372.792	73.9
373.003	67.75
373.214	61.61
373.424	6.31
373.635	-53.08
373.846	39.08
374.056	12.46
374.267	61.61
374.477	14.51
374.688	14.51
374.898	94.38
375.109	55.47
375.319	14.51
375.53	94.38
375.74	37.03
375.951	-1.88
376.161	63.66
376.372	51.37
376.582	55.47
376.793	43.18
377.003	55.47
377.214	47.27
377.424	88.23
377.635	112.81
377.845	47.27
378.055	139.43
378.266	63.66
378.476	143.53
378.686	65.71
378.897	10.41
379.107	102.57
379.317	135.34
379.528	6.31
379.738	161.96
379.948	73.9
380.158	53.42
380.369	53.42
380.579	82.09
380.789	16.55
380.999	57.51
381.21	116.9
381.42	69.8
381.63	39.08
381.84	28.84
382.05	14.51
382.261	57.51
382.471	32.94
382.681	-53.08
382.891	90.28
383.101	41.13
383.311	22.7
383.521	69.8
383.731	0.17
383.941	41.13
384.151	86.19
384.361	69.8
384.571	69.8
384.781	125.1
384.991	98.47
385.201	18.6
385.411	106.67
385.621	0.17
385.831	49.32
386.041	57.51
386.251	45.23
386.461	110.76
386.671	100.52
386.881	96.43
387.091	94.38
387.301	98.47
387.511	125.1
387.72	141.48
387.93	28.84
388.14	-26.45
388.35	82.09
388.56	98.47
388.769	47.27
388.979	110.76
389.189	69.8
389.399	77.99
389.609	53.42
389.818	57.51
390.028	57.51
390.238	14.51
390.447	55.47
390.657	118.95
390.867	39.08
391.076	43.18
391.286	88.23
391.496	12.46
391.705	61.61
391.915	102.57
392.125	45.23
392.334	108.71
392.544	20.65
392.753	47.27
392.963	135.34
393.172	80.04
393.382	6.31
393.591	129.19
393.801	28.84
394.01	127.14
394.22	129.19
394.429	49.32
394.639	94.38
394.848	45.23
395.058	141.48
395.267	92.33
395.477	88.23
395.686	102.57
395.895	155.82
396.105	135.34
396.314	98.47
396.524	4.27
396.733	47.27
396.942	135.34
397.152	127.14
397.361	86.19
397.57	61.61
397.78	86.19
397.989	110.76
398.198	110.76
398.407	45.23
398.617	151.72
398.826	104.62
399.035	102.57
399.244	139.43
399.453	88.23
399.663	77.99
399.872	118.95
400.081	32.94
400.29	118.95
400.499	121
400.708	65.71
400.917	112.81
401.127	45.23
401.336	104.62
401.545	188.58
401.754	77.99
401.963	118.95
402.172	92.33
402.381	96.43
402.59	102.57
402.799	108.71
403.008	94.38
403.217	135.34
403.426	157.86
403.635	176.3
403.844	123.05
404.053	77.99
404.262	159.91
404.471	166.06
404.68	178.34
404.888	121
405.097	69.8
405.306	145.58
405.515	143.53
405.724	159.91
405.933	178.34
406.142	235.69
406.35	219.3
406.559	151.72
406.768	159.91
406.977	194.73
407.185	188.58
407.394	172.2
407.603	204.97
407.812	241.83
408.02	241.83
408.229	209.06
408.438	227.5
408.646	180.39
408.855	274.6
409.064	323.75
409.272	233.64
409.481	309.41
409.69	282.79
409.898	200.87
410.107	245.93
410.315	381.09
410.524	290.98
410.733	340.13
410.941	364.71
411.15	348.33
411.358	405.67
411.567	381.09
411.775	438.44
411.984	358.57
412.192	446.63
412.401	422.05
412.609	467.11
412.818	481.44
413.026	397.48
413.234	487.59
413.443	426.15
413.651	534.69
413.86	520.35
414.068	581.79
414.276	620.71
414.485	575.65
414.693	669.86
414.901	757.92
415.11	688.29
415.318	635.04
415.526	643.23
415.734	782.49
415.943	790.69
416.151	794.78
416.359	823.45
416.567	956.57
416.776	854.17
416.984	917.66
417.192	958.62
417.4	954.52
417.608	946.33
417.817	1106.07
418.025	1095.83
418.233	1120.41
418.441	1128.6
418.649	1163.42
418.857	1294.49
419.065	1339.54
419.273	1319.06
419.481	1366.17
419.689	1446.04
419.897	1491.09
420.105	1441.94
420.313	1577.11
420.521	1601.68
420.729	1667.22
420.937	1650.83
421.145	1732.75
421.353	1855.63
421.561	1929.36
421.769	1962.12
421.977	1925.26
422.185	2072.72
422.393	2101.39
422.601	2183.31
422.809	2308.23
423.017	2226.31
423.224	2375.81
423.432	2525.32
423.64	2519.17
423.848	2685.06
424.056	2502.79
424.263	2887.81
424.471	2816.13
424.679	2842.75
424.887	3051.64
425.094	3178.62
425.302	3088.51
425.51	3276.92
425.718	3391.61
425.925	3352.7
426.133	3524.72
426.341	3686.51
426.548	3858.54
426.756	3813.49
426.964	3887.22
427.171	4055.15
427.379	4309.1
427.586	4266.09
427.794	4438.12
428.001	4587.62
428.209	4679.78
428.417	4741.22
428.624	4997.21
428.832	5048.41
429.039	5234.78
429.247	5052.51
429.454	5580.89
429.662	5820.5
429.869	5529.69
430.076	5916.75
430.284	5986.38
430.491	6152.27
430.699	6303.82
430.906	6387.79
431.114	6412.36
431.321	6690.88
431.528	6731.84
431.736	7209.02
431.943	7739.44
432.15	7223.36
432.358	7360.57
432.565	7987.25
432.772	7798.84
432.979	8144.94
433.187	8337.45
433.394	8433.71
433.601	9105.44
433.808	9072.67
434.016	9019.43
434.223	9324.57
434.43	10022.93
434.637	9699.35
434.844	10553.35
435.052	10420.24
435.259	10205.2
435.466	10584.07
435.673	10502.15
435.88	11094.02
436.087	11841.53
436.294	11753.46
436.501	11563
436.708	11810.81
436.915	12265.46
437.122	12589.03
437.329	12523.5
437.537	12914.66
437.743	13201.38
437.95	12931.05
438.157	13930.45
438.364	14477.26
438.571	14200.79
438.778	14540.75
438.985	15732.67
439.192	15247.3
439.399	15497.15
439.606	15032.26
439.813	15919.03
440.02	17035.17
440.227	16652.2
440.433	16699.31
440.64	17233.83
440.847	16908.2
441.054	17522.59
441.261	18810.76
441.467	18567.06
441.674	18583.44
441.881	19310.47
442.088	19365.76
442.294	19447.68
442.501	19558.27
442.708	20090.74
442.914	20807.53
443.121	21735.26
443.328	21223.27
443.534	22703.95
443.741	22116.19
443.948	21798.75
444.154	23494.47
444.361	23269.19
444.568	23510.85
444.774	23142.22
444.981	23629.63
445.187	24428.34
445.394	25216.81
445.6	25130.8
445.807	27385.61
446.013	26271.51
446.22	26566.42
446.426	28036.86
446.633	27950.85
446.839	29040.37
447.046	27549.45
447.252	29480.68
447.459	29398.76
447.665	29216.49
447.871	30713.56
448.078	32057.03
448.284	30545.62
448.491	31356.62
448.697	32186.05
448.903	33191.6
449.11	32951.99
449.316	32528.06
449.522	33644.2
449.728	34041.51
449.935	34516.64
450.141	34352.8
450.347	35210.9
450.553	34104.99
450.76	34490.01
450.966	35661.45
451.172	35200.66
451.378	36644.48
451.584	35219.09
451.791	36437.63
451.997	36361.86
452.203	36853.37
452.409	37068.41
452.615	36832.89
452.821	35456.65
453.027	35268.24
453.233	37062.26
453.44	35368.59
453.646	35999.37
453.852	36142.72
454.058	36646.52
454.264	35853.96
454.47	36427.39
454.676	35223.19
454.882	36742.78
455.088	33584.81
455.294	34492.06
455.5	34670.23
455.705	34926.23
455.911	33367.73
456.117	33263.28
456.323	32624.31
456.529	31104.72
456.735	32593.59
456.941	31790.79
457.147	30658.26
457.352	30320.35
457.558	29927.14
457.764	30062.3
457.97	29607.65
458.176	28704.5
458.381	28888.82
458.587	27406.09
458.793	27414.28
458.999	26126.11
459.204	27997.95
459.41	27430.66
459.616	25546.53
459.821	25536.29
460.027	25362.22
460.233	24536.88
460.438	23682.88
460.644	23854.91
460.85	22859.6
461.055	22447.96
461.261	22572.88
461.466	20883.31
461.672	20281.21
461.878	21569.38
462.083	20363.12
462.289	19838.84
462.494	20014.97
462.7	18847.63
462.905	18321.3
463.111	19175.3
463.316	19038.09
463.522	18538.38
463.727	18722.7
463.932	18714.51
464.138	18427.79
464.343	18487.18
464.549	17860.51
464.754	18411.41
464.959	18263.96
465.165	18290.58
465.37	17551.26
465.575	17004.46
465.781	17686.43
465.986	17999.77
466.191	17364.9
466.397	16736.17
466.602	16056.25
466.807	16707.5
467.012	16797.61
467.218	16668.59
