Data from USB4F104151__121__14-43-57-089.txt Node

Date: Thu Mar 13 14:43:57 EDT 2025
User: louis
Spectrometer: USB4F10415
Trigger mode: 4
Integration Time (sec): 2.000000E-2
Scans to average: 1
Electric dark correction enabled: true
Nonlinearity correction enabled: false
Boxcar width: 0
XAxis mode: Wavelengths
Number of Pixels in Spectrum: 3648
>>>>>Begin Spectral Data<<<<<
178.204	-145.41
178.424	-145.41
178.644	-145.41
178.864	-124.93
179.084	-129.02
179.304	-55.3
179.524	-26.62
179.744	14.34
179.964	12.29
180.184	14.34
180.404	12.29
180.624	-6.14
180.844	38.91
181.064	24.58
181.283	-30.72
181.503	24.58
181.723	-22.53
181.943	-30.72
182.163	18.43
182.383	71.68
182.602	4.1
182.822	51.2
183.042	55.3
183.262	-36.86
183.482	86.01
183.701	-45.06
183.921	83.97
184.141	-10.24
184.361	-14.34
184.58	32.77
184.8	28.67
185.02	34.82
185.239	75.77
185.459	43.01
185.679	53.25
185.898	-10.24
186.118	61.44
186.338	34.82
186.557	10.24
186.777	-34.82
186.997	92.16
187.216	38.91
187.436	26.62
187.655	67.58
187.875	57.34
188.095	-30.72
188.314	-10.24
188.534	124.93
188.753	-6.14
188.973	108.54
189.192	57.34
189.412	-22.53
189.631	55.3
189.851	55.3
190.07	83.97
190.29	0
190.509	43.01
190.729	10.24
190.948	112.64
191.168	165.89
191.387	88.06
191.607	63.49
191.826	53.25
192.045	-63.49
192.265	75.77
192.484	38.91
192.704	12.29
192.923	-51.2
193.142	133.12
193.362	38.91
193.581	75.77
193.8	71.68
194.02	18.43
194.239	-57.34
194.458	18.43
194.678	-26.62
194.897	2.05
195.116	12.29
195.335	18.43
195.555	10.24
195.774	92.16
195.993	14.34
196.212	36.86
196.432	-6.14
196.651	36.86
196.87	51.2
197.089	112.64
197.308	-8.19
197.528	67.58
197.747	-12.29
197.966	43.01
198.185	-36.86
198.404	55.3
198.623	8.19
198.842	59.39
199.062	43.01
199.281	32.77
199.5	16.38
199.719	100.35
199.938	8.19
200.157	90.11
200.376	-14.34
200.595	92.16
200.814	51.2
201.033	47.1
201.252	-6.14
201.471	-38.91
201.69	67.58
201.909	36.86
202.128	110.59
202.347	10.24
202.566	30.72
202.785	4.1
203.004	34.82
203.223	86.01
203.442	30.72
203.661	28.67
203.879	28.67
204.098	108.54
204.317	10.24
204.536	79.87
204.755	28.67
204.974	-2.05
205.193	73.73
205.411	124.93
205.63	88.06
205.849	55.3
206.068	49.15
206.287	67.58
206.505	-28.67
206.724	51.2
206.943	-34.82
207.162	51.2
207.381	45.06
207.599	28.67
207.818	77.82
208.037	-67.58
208.255	104.45
208.474	22.53
208.693	-12.29
208.911	26.62
209.13	61.44
209.349	-14.34
209.567	67.58
209.786	108.54
210.005	108.54
210.223	59.39
210.442	24.58
210.661	71.68
210.879	69.63
211.098	20.48
211.316	92.16
211.535	24.58
211.753	28.67
211.972	51.2
212.191	-32.77
212.409	51.2
212.628	-6.14
212.846	30.72
213.065	90.11
213.283	20.48
213.502	-2.05
213.72	34.82
213.938	6.14
214.157	108.54
214.375	20.48
214.594	2.05
214.812	-2.05
215.031	49.15
215.249	18.43
215.467	10.24
215.686	30.72
215.904	2.05
216.122	-4.1
216.341	49.15
216.559	83.97
216.778	75.77
216.996	32.77
217.214	43.01
217.432	-26.62
217.651	18.43
217.869	32.77
218.087	-12.29
218.306	53.25
218.524	43.01
218.742	79.87
218.96	10.24
219.179	10.24
219.397	79.87
219.615	81.92
219.833	26.62
220.051	-22.53
220.27	67.58
220.488	77.82
220.706	4.1
220.924	-45.06
221.142	47.1
221.36	32.77
221.578	83.97
221.796	18.43
222.015	69.63
222.233	59.39
222.451	102.4
222.669	22.53
222.887	28.67
223.105	-34.82
223.323	-104.45
223.541	22.53
223.759	83.97
223.977	4.1
224.195	98.3
224.413	75.77
224.631	61.44
224.849	-4.1
225.067	96.25
225.285	-49.15
225.503	10.24
225.721	-14.34
225.939	4.1
226.157	43.01
226.375	92.16
226.592	10.24
226.81	4.1
227.028	90.11
227.246	51.2
227.464	22.53
227.682	16.38
227.9	67.58
228.117	61.44
228.335	-40.96
228.553	59.39
228.771	36.86
228.989	77.82
229.206	75.77
229.424	36.86
229.642	86.01
229.86	22.53
230.077	110.59
230.295	43.01
230.513	-8.19
230.731	12.29
230.948	43.01
231.166	120.83
231.384	18.43
231.601	8.19
231.819	71.68
232.037	67.58
232.254	65.54
232.472	18.43
232.689	-6.14
232.907	30.72
233.125	49.15
233.342	36.86
233.56	-55.3
233.777	-2.05
233.995	-14.34
234.213	69.63
234.43	22.53
234.648	2.05
234.865	6.14
235.083	14.34
235.3	69.63
235.518	34.82
235.735	51.2
235.953	49.15
236.17	-6.14
236.388	2.05
236.605	-38.91
236.822	47.1
237.04	12.29
237.257	10.24
237.475	38.91
237.692	65.54
237.909	45.06
238.127	71.68
238.344	22.53
238.562	43.01
238.779	69.63
238.996	18.43
239.214	110.59
239.431	102.4
239.648	-4.1
239.865	8.19
240.083	69.63
240.3	104.45
240.517	43.01
240.735	6.14
240.952	67.58
241.169	83.97
241.386	55.3
241.603	108.54
241.821	-18.43
242.038	120.83
242.255	110.59
242.472	28.67
242.689	28.67
242.907	-20.48
243.124	51.2
243.341	-71.68
243.558	18.43
243.775	43.01
243.992	-22.53
244.209	-2.05
244.426	43.01
244.643	63.49
244.86	18.43
245.078	2.05
245.295	77.82
245.512	92.16
245.729	57.34
245.946	12.29
246.163	16.38
246.38	61.44
246.597	-49.15
246.814	2.05
247.031	26.62
247.248	-26.62
247.464	18.43
247.681	51.2
247.898	96.25
248.115	12.29
248.332	-47.1
248.549	32.77
248.766	61.44
248.983	124.93
249.2	2.05
249.417	55.3
249.633	16.38
249.85	32.77
250.067	-2.05
250.284	51.2
250.501	2.05
250.717	118.78
250.934	18.43
251.151	92.16
251.368	12.29
251.585	67.58
251.801	14.34
252.018	-92.16
252.235	36.86
252.451	22.53
252.668	-20.48
252.885	133.12
253.102	59.39
253.318	106.49
253.535	28.67
253.752	34.82
253.968	-38.91
254.185	-2.05
254.401	-43.01
254.618	61.44
254.835	34.82
255.051	59.39
255.268	57.34
255.484	26.62
255.701	12.29
255.917	36.86
256.134	12.29
256.351	24.58
256.567	-2.05
256.784	69.63
257	30.72
257.217	47.1
257.433	-12.29
257.65	55.3
257.866	55.3
258.082	18.43
258.299	-10.24
258.515	51.2
258.732	-28.67
258.948	-22.53
259.165	-28.67
259.381	83.97
259.597	22.53
259.814	71.68
260.03	28.67
260.246	22.53
260.463	6.14
260.679	59.39
260.895	43.01
261.112	34.82
261.328	-28.67
261.544	71.68
261.761	69.63
261.977	71.68
262.193	-40.96
262.409	81.92
262.626	135.17
262.842	-12.29
263.058	4.1
263.274	30.72
263.49	75.77
263.707	49.15
263.923	4.1
264.139	2.05
264.355	59.39
264.571	73.73
264.787	63.49
265.004	55.3
265.22	67.58
265.436	98.3
265.652	16.38
265.868	145.41
266.084	-24.58
266.3	36.86
266.516	53.25
266.732	2.05
266.948	63.49
267.164	49.15
267.38	43.01
267.596	18.43
267.812	135.17
268.028	69.63
268.244	45.06
268.46	69.63
268.676	-4.1
268.892	40.96
269.108	0
269.324	18.43
269.54	-24.58
269.756	26.62
269.972	18.43
270.188	-14.34
270.403	-57.34
270.619	45.06
270.835	26.62
271.051	-6.14
271.267	32.77
271.483	-53.25
271.698	-18.43
271.914	53.25
272.13	28.67
272.346	49.15
272.562	75.77
272.777	6.14
272.993	22.53
273.209	2.05
273.425	-30.72
273.64	22.53
273.856	28.67
274.072	-4.1
274.287	26.62
274.503	59.39
274.719	86.01
274.934	-32.77
275.15	-6.14
275.366	36.86
275.581	14.34
275.797	-6.14
276.012	22.53
276.228	-79.87
276.444	18.43
276.659	45.06
276.875	-28.67
277.09	8.19
277.306	0
277.521	24.58
277.737	2.05
277.952	75.77
278.168	22.53
278.383	43.01
278.599	38.91
278.814	59.39
279.03	51.2
279.245	67.58
279.461	12.29
279.676	90.11
279.892	43.01
280.107	-22.53
280.322	18.43
280.538	-4.1
280.753	-30.72
280.969	63.49
281.184	18.43
281.399	67.58
281.615	51.2
281.83	-22.53
282.045	12.29
282.26	63.49
282.476	8.19
282.691	59.39
282.906	47.1
283.122	10.24
283.337	6.14
283.552	57.34
283.767	-2.05
283.983	75.77
284.198	75.77
284.413	20.48
284.628	18.43
284.843	34.82
285.058	22.53
285.274	-14.34
285.489	22.53
285.704	12.29
285.919	88.06
286.134	-26.62
286.349	43.01
286.564	73.73
286.779	4.1
286.995	12.29
287.21	-45.06
287.425	53.25
287.64	71.68
287.855	77.82
288.07	-28.67
288.285	38.91
288.5	-12.29
288.715	124.93
288.93	51.2
289.145	26.62
289.36	141.31
289.575	38.91
289.79	34.82
290.004	-34.82
290.219	-10.24
290.434	-28.67
290.649	0
290.864	124.93
291.079	30.72
291.294	77.82
291.509	47.1
291.724	69.63
291.938	-34.82
292.153	110.59
292.368	92.16
292.583	20.48
292.798	51.2
293.012	43.01
293.227	20.48
293.442	-28.67
293.657	108.54
293.871	86.01
294.086	94.21
294.301	71.68
294.516	-14.34
294.73	116.73
294.945	10.24
295.16	14.34
295.374	43.01
295.589	49.15
295.804	36.86
296.018	-6.14
296.233	-6.14
296.447	4.1
296.662	4.1
296.877	28.67
297.091	24.58
297.306	51.2
297.52	2.05
297.735	112.64
297.949	51.2
298.164	28.67
298.378	36.86
298.593	102.4
298.807	-6.14
299.022	-38.91
299.236	34.82
299.451	22.53
299.665	20.48
299.88	86.01
300.094	71.68
300.309	51.2
300.523	24.58
300.737	-4.1
300.952	75.77
301.166	59.39
301.381	20.48
301.595	22.53
301.809	16.38
302.024	-28.67
302.238	-6.14
302.452	61.44
302.667	65.54
302.881	129.02
303.095	-18.43
303.309	4.1
303.524	-14.34
303.738	77.82
303.952	-6.14
304.166	114.69
304.381	-18.43
304.595	116.73
304.809	59.39
305.023	96.25
305.237	38.91
305.452	47.1
305.666	53.25
305.88	24.58
306.094	14.34
306.308	83.97
306.522	-6.14
306.736	77.82
306.95	20.48
307.164	86.01
307.379	36.86
307.593	96.25
307.807	45.06
308.021	75.77
308.235	-12.29
308.449	0
308.663	0
308.877	32.77
309.091	40.96
309.305	34.82
309.519	34.82
309.733	67.58
309.947	-16.38
310.161	133.12
310.374	79.87
310.588	28.67
310.802	4.1
311.016	-24.58
311.23	57.34
311.444	-28.67
311.658	43.01
311.872	116.73
312.085	24.58
312.299	61.44
312.513	18.43
312.727	77.82
312.941	34.82
313.154	22.53
313.368	43.01
313.582	18.43
313.796	34.82
314.009	53.25
314.223	6.14
314.437	59.39
314.651	43.01
314.864	18.43
315.078	10.24
315.292	53.25
315.505	-6.14
315.719	88.06
315.933	55.3
316.146	-77.82
316.36	20.48
316.573	126.97
316.787	75.77
317.001	100.35
317.214	30.72
317.428	2.05
317.641	-16.38
317.855	63.49
318.068	43.01
318.282	75.77
318.495	102.4
318.709	83.97
318.922	36.86
319.136	86.01
319.349	51.2
319.563	61.44
319.776	34.82
319.99	-30.72
320.203	28.67
320.417	57.34
320.63	14.34
320.843	135.17
321.057	49.15
321.27	24.58
321.483	-4.1
321.697	108.54
321.91	34.82
322.124	51.2
322.337	51.2
322.55	-10.24
322.763	-43.01
322.977	-4.1
323.19	26.62
323.403	47.1
323.617	43.01
323.83	75.77
324.043	-4.1
324.256	20.48
324.469	-22.53
324.683	20.48
324.896	2.05
325.109	61.44
325.322	43.01
325.535	43.01
325.748	92.16
325.962	36.86
326.175	51.2
326.388	30.72
326.601	26.62
326.814	4.1
327.027	49.15
327.24	71.68
327.453	12.29
327.666	38.91
327.879	75.77
328.092	83.97
328.305	43.01
328.518	67.58
328.731	47.1
328.944	75.77
329.157	77.82
329.37	22.53
329.583	94.21
329.796	69.63
330.009	-6.14
330.222	55.3
330.435	118.78
330.648	43.01
330.861	75.77
331.073	-12.29
331.286	63.49
331.499	30.72
331.712	32.77
331.925	45.06
332.138	38.91
332.35	67.58
332.563	59.39
332.776	90.11
332.989	-47.1
333.202	-45.06
333.414	-14.34
333.627	38.91
333.84	102.4
334.053	36.86
334.265	-30.72
334.478	12.29
334.691	77.82
334.903	34.82
335.116	-4.1
335.329	75.77
335.541	129.02
335.754	100.35
335.966	16.38
336.179	61.44
336.392	92.16
336.604	10.24
336.817	30.72
337.029	55.3
337.242	18.43
337.454	28.67
337.667	110.59
337.88	102.4
338.092	26.62
338.305	28.67
338.517	26.62
338.729	75.77
338.942	67.58
339.154	47.1
339.367	-14.34
339.579	4.1
339.792	79.87
340.004	67.58
340.217	51.2
340.429	69.63
340.641	-28.67
340.854	51.2
341.066	51.2
341.278	47.1
341.491	55.3
341.703	94.21
341.915	30.72
342.128	57.34
342.34	-6.14
342.552	-6.14
342.764	30.72
342.977	-22.53
343.189	116.73
343.401	83.97
343.613	-22.53
343.826	75.77
344.038	47.1
344.25	36.86
344.462	75.77
344.674	45.06
344.886	38.91
345.099	133.12
345.311	14.34
345.523	45.06
345.735	55.3
345.947	36.86
346.159	26.62
346.371	47.1
346.583	34.82
346.795	88.06
347.007	18.43
347.219	-12.29
347.431	38.91
347.643	63.49
347.855	55.3
348.067	92.16
348.279	-53.25
348.491	75.77
348.703	20.48
348.915	26.62
349.127	6.14
349.339	61.44
349.551	28.67
349.763	81.92
349.975	-6.14
350.187	18.43
350.399	55.3
350.61	77.82
350.822	26.62
351.034	83.97
351.246	34.82
351.458	34.82
351.669	83.97
351.881	116.73
352.093	20.48
352.305	-28.67
352.517	51.2
352.728	116.73
352.94	22.53
353.152	51.2
353.363	12.29
353.575	30.72
353.787	86.01
353.999	96.25
354.21	92.16
354.422	40.96
354.633	55.3
354.845	49.15
355.057	94.21
355.268	28.67
355.48	57.34
355.692	61.44
355.903	-26.62
356.115	18.43
356.326	-38.91
356.538	104.45
356.749	92.16
356.961	83.97
357.172	61.44
357.384	43.01
357.595	161.79
357.807	34.82
358.018	18.43
358.23	57.34
358.441	133.12
358.653	45.06
358.864	-18.43
359.075	10.24
359.287	83.97
359.498	83.97
359.709	53.25
359.921	55.3
360.132	6.14
360.344	-47.1
360.555	59.39
360.766	38.91
360.977	28.67
361.189	88.06
361.4	6.14
361.611	67.58
361.823	59.39
362.034	92.16
362.245	2.05
362.456	55.3
362.667	4.1
362.879	92.16
363.09	45.06
363.301	-8.19
363.512	24.58
363.723	28.67
363.935	18.43
364.146	96.25
364.357	51.2
364.568	65.54
364.779	51.2
364.99	59.39
365.201	71.68
365.412	36.86
365.623	-6.14
365.834	8.19
366.045	102.4
366.256	81.92
366.467	38.91
366.678	18.43
366.889	88.06
367.1	20.48
367.311	102.4
367.522	55.3
367.733	30.72
367.944	92.16
368.155	0
368.366	43.01
368.577	108.54
368.788	83.97
368.999	30.72
369.209	71.68
369.42	108.54
369.631	145.41
369.842	59.39
370.053	79.87
370.264	75.77
370.474	12.29
370.685	34.82
370.896	59.39
371.107	129.02
371.317	45.06
371.528	36.86
371.739	104.45
371.95	34.82
372.16	45.06
372.371	10.24
372.582	94.21
372.792	61.44
373.003	65.54
373.214	61.44
373.424	116.73
373.635	61.44
373.846	51.2
374.056	94.21
374.267	75.77
374.477	53.25
374.688	26.62
374.898	47.1
375.109	28.67
375.319	108.54
375.53	102.4
375.74	-18.43
375.951	63.49
376.161	16.38
376.372	108.54
376.582	83.97
376.793	126.97
377.003	47.1
377.214	112.64
377.424	38.91
377.635	10.24
377.845	18.43
378.055	90.11
378.266	43.01
378.476	32.77
378.686	96.25
378.897	45.06
379.107	104.45
379.317	104.45
379.528	92.16
379.738	67.58
379.948	45.06
380.158	94.21
380.369	47.1
380.579	73.73
380.789	10.24
380.999	83.97
381.21	126.97
381.42	92.16
381.63	104.45
381.84	86.01
382.05	63.49
382.261	18.43
382.471	18.43
382.681	-4.1
382.891	96.25
383.101	133.12
383.311	94.21
383.521	131.07
383.731	149.5
383.941	135.17
384.151	96.25
384.361	36.86
384.571	43.01
384.781	2.05
384.991	157.69
385.201	176.13
385.411	79.87
385.621	92.16
385.831	61.44
386.041	104.45
386.251	75.77
386.461	53.25
386.671	94.21
386.881	38.91
387.091	6.14
387.301	129.02
387.511	71.68
387.72	96.25
387.93	61.44
388.14	92.16
388.35	118.78
388.56	63.49
388.769	159.74
388.979	45.06
389.189	34.82
389.399	186.37
389.609	2.05
389.818	32.77
390.028	55.3
390.238	51.2
390.447	69.63
390.657	59.39
390.867	24.58
391.076	77.82
391.286	124.93
391.496	55.3
391.705	38.91
391.915	47.1
392.125	45.06
392.334	100.35
392.544	139.26
392.753	124.93
392.963	100.35
393.172	57.34
393.382	30.72
393.591	116.73
393.801	-14.34
394.01	141.31
394.22	143.36
394.429	108.54
394.639	167.93
394.848	133.12
395.058	65.54
395.267	53.25
395.477	59.39
395.686	18.43
395.895	126.97
396.105	145.41
396.314	71.68
396.524	108.54
396.733	100.35
396.942	63.49
397.152	102.4
397.361	169.98
397.57	63.49
397.78	102.4
397.989	151.55
398.198	122.88
398.407	53.25
398.617	77.82
398.826	83.97
399.035	114.69
399.244	151.55
399.453	165.89
399.663	30.72
399.872	118.78
400.081	86.01
400.29	190.46
400.499	69.63
400.708	151.55
400.917	83.97
401.127	110.59
401.336	106.49
401.545	120.83
401.754	174.08
401.963	98.3
402.172	75.77
402.381	120.83
402.59	126.97
402.799	75.77
403.008	178.17
403.217	73.73
403.426	100.35
403.635	108.54
403.844	124.93
404.053	88.06
404.262	98.3
404.471	81.92
404.68	151.55
404.888	243.71
405.097	96.25
405.306	153.6
405.515	172.03
405.724	71.68
405.933	256
406.142	190.46
406.35	124.93
406.559	75.77
406.768	239.61
406.977	215.04
407.185	204.8
407.394	217.08
407.603	165.89
407.812	198.65
408.02	159.74
408.229	157.69
408.438	182.27
408.646	190.46
408.855	221.18
409.064	215.04
409.272	256
409.481	221.18
409.69	198.65
409.898	268.28
410.107	276.48
410.315	299
410.524	260.09
410.733	296.96
410.941	264.19
411.15	321.53
411.358	268.28
411.567	411.64
411.775	337.91
411.984	378.87
412.192	313.34
412.401	421.88
412.609	370.68
412.818	378.87
413.026	415.74
413.234	487.42
413.443	462.84
413.651	485.37
413.86	505.85
414.068	544.76
414.276	573.43
414.485	450.55
414.693	501.75
414.901	616.44
415.11	681.97
415.318	589.82
415.526	567.29
415.734	661.49
415.943	638.97
416.151	675.83
416.359	688.12
416.567	733.17
416.776	821.24
416.984	821.24
417.192	821.24
417.4	833.52
417.608	829.43
417.817	829.43
418.025	897.01
418.233	980.98
418.441	1032.18
418.649	978.93
418.857	1028.08
419.065	1114.1
419.273	1050.61
419.481	1222.64
419.689	1159.15
419.897	1251.31
420.105	1271.79
420.313	1341.42
420.521	1345.52
420.729	1320.94
420.937	1382.38
421.145	1548.26
421.353	1535.98
421.561	1632.23
421.769	1585.13
421.977	1765.35
422.185	1669.09
422.393	1748.97
422.601	1984.48
422.809	1863.65
423.017	1904.61
423.224	1988.58
423.432	2074.59
423.64	2076.64
423.848	2222.05
424.056	2156.51
424.263	2316.25
424.471	2328.54
424.679	2410.46
424.887	2527.19
425.094	2631.64
425.302	2750.42
425.51	2680.79
425.718	2758.61
425.925	2840.53
426.133	3026.9
426.341	3164.11
426.548	3205.07
426.756	3196.88
426.964	3319.76
427.171	3426.25
427.379	3651.53
427.586	3598.28
427.794	3835.85
428.001	3768.26
428.209	4003.78
428.417	4040.64
428.624	4329.41
428.832	4319.17
429.039	4327.36
429.247	4161.47
429.454	4671.42
429.662	5031.86
429.869	4655.03
430.076	4911.03
430.284	4753.34
430.491	4982.71
430.699	5371.82
430.906	5230.51
431.114	5363.63
431.321	5552.04
431.528	5562.28
431.736	6117.28
431.943	6246.3
432.15	6166.43
432.358	6309.79
432.565	6502.3
432.772	6449.05
432.979	6809.5
433.187	7057.3
433.394	7047.06
433.601	7516.05
433.808	7499.66
434.016	7526.29
434.223	7634.83
434.43	8159.11
434.637	8001.41
434.844	8585.09
435.052	8591.23
435.259	8656.76
435.466	8660.86
435.673	8693.63
435.88	9209.72
436.087	9807.72
436.294	9527.15
436.501	9684.84
436.708	9459.57
436.915	9899.88
437.122	10356.58
437.329	10555.23
437.537	10696.54
437.743	10852.19
437.95	10831.71
438.157	11241.3
438.364	11781.96
438.571	12033.86
438.778	11822.92
438.985	12842.81
439.192	12404.55
439.399	13010.75
439.606	12431.17
439.813	13313.84
440.02	14065.45
440.227	13752.11
440.433	13580.08
440.64	14020.39
440.847	13999.91
441.054	14370.6
441.261	15107.87
441.467	14898.97
441.674	15531.8
441.881	16062.22
442.088	15910.67
442.294	15494.93
442.501	16045.84
442.708	16426.76
442.914	17157.88
443.121	17905.39
443.328	17434.36
443.534	18613.99
443.741	18001.65
443.948	17751.79
444.154	19293.91
444.361	19064.54
444.568	19056.35
444.774	19138.27
444.981	19285.72
445.187	19787.47
445.394	20670.15
445.6	20334.28
445.807	22386.35
446.013	21544.63
446.22	21726.9
446.426	22769.32
446.633	23316.12
446.839	23535.26
447.046	22986.4
447.252	23832.21
447.459	24186.51
447.665	23864.98
447.871	25161.34
448.078	25943.67
448.284	24843.91
448.491	25400.96
448.697	26517.1
448.903	26863.21
449.11	26979.94
449.316	26613.35
449.522	27129.44
449.728	27745.88
449.935	28155.47
450.141	28100.18
450.347	28477.01
450.553	28051.03
450.76	28085.84
450.966	29476.41
451.172	28794.44
451.378	29353.54
451.584	28722.76
451.791	29877.82
451.997	29795.9
452.203	30115.38
452.409	30051.89
452.615	30311.99
452.821	28804.68
453.027	28497.49
453.233	30352.94
453.44	28915.27
453.646	29429.31
453.852	29476.41
454.058	30010.93
454.264	29351.49
454.47	30156.34
454.676	28759.63
454.882	29906.49
455.088	27557.47
455.294	27549.28
455.5	28261.97
455.705	28591.69
455.911	27471.45
456.117	27143.78
456.323	26867.3
456.529	25398.91
456.735	26549.87
456.941	25726.58
457.147	25585.27
457.352	24684.17
457.558	24405.64
457.764	24524.43
457.97	24170.13
458.176	23369.37
458.381	23365.28
458.587	22134.45
458.793	21995.18
458.999	21182.14
459.204	22580.9
459.41	21941.94
459.616	20637.38
459.821	20915.9
460.027	20559.56
460.233	20225.74
460.438	19271.39
460.644	19597.01
460.85	18605.8
461.055	18411.24
461.261	18169.58
461.466	16793.34
461.672	16320.26
461.878	17440.5
462.083	16506.63
462.289	16049.93
462.494	15765.26
462.7	15318.81
462.905	14808.86
463.111	15511.32
463.316	15429.4
463.522	15001.37
463.727	14849.82
463.932	15062.81
464.138	14778.14
464.343	14962.46
464.549	14513.95
464.754	14923.55
464.959	14903.07
465.165	14436.13
465.37	14044.97
465.575	13725.49
465.781	14489.38
465.986	14477.09
466.191	13928.24
466.397	13901.61
466.602	13063.99
466.807	13530.93
467.012	13401.91
467.218	13332.28
467.423	13295.41
467.628	13315.89
467.833	13569.84
