Data from USB4F104151__18__14-42-41-327.txt Node

Date: Thu Mar 13 14:42:41 EDT 2025
User: louis
Spectrometer: USB4F10415
Trigger mode: 4
Integration Time (sec): 2.000000E-2
Scans to average: 1
Electric dark correction enabled: true
Nonlinearity correction enabled: false
Boxcar width: 0
XAxis mode: Wavelengths
Number of Pixels in Spectrum: 3648
>>>>>Begin Spectral Data<<<<<
178.204	-44.88
178.424	-44.88
178.644	-44.88
178.864	-147.28
179.084	-91.99
179.304	28.84
179.524	14.51
179.744	0.17
179.964	-61.27
180.184	28.84
180.404	28.84
180.624	-16.21
180.844	16.55
181.064	-36.69
181.283	-51.03
181.503	24.75
181.723	22.7
181.943	-63.32
182.163	59.56
182.383	39.08
182.602	71.85
182.822	57.51
183.042	73.9
183.262	4.27
183.482	16.55
183.701	12.46
183.921	0.17
184.141	61.61
184.361	47.27
184.58	12.46
184.8	12.46
185.02	41.13
185.239	61.61
185.459	47.27
185.679	63.66
185.898	-40.79
186.118	94.38
186.338	8.36
186.557	16.55
186.777	69.8
186.997	71.85
187.216	-42.84
187.436	135.34
187.655	39.08
187.875	6.31
188.095	20.65
188.314	118.95
188.534	106.67
188.753	94.38
188.973	-5.97
189.192	69.8
189.412	86.19
189.631	61.61
189.851	110.76
190.07	102.57
190.29	61.61
190.509	-44.88
190.729	-20.31
190.948	43.18
191.168	149.67
191.387	110.76
191.607	14.51
191.826	55.47
192.045	96.43
192.265	-5.97
192.484	12.46
192.704	39.08
192.923	-20.31
193.142	133.29
193.362	114.86
193.581	45.23
193.8	61.61
194.02	4.27
194.239	-12.12
194.458	-34.64
194.678	0.17
194.897	-26.45
195.116	86.19
195.335	20.65
195.555	84.14
195.774	53.42
195.993	102.57
196.212	-5.97
196.432	47.27
196.651	-1.88
196.87	28.84
197.089	176.3
197.308	-36.69
197.528	69.8
197.747	28.84
197.966	-28.5
198.185	82.09
198.404	77.99
198.623	77.99
198.842	133.29
199.062	77.99
199.281	77.99
199.5	69.8
199.719	41.13
199.938	84.14
200.157	-3.93
200.376	20.65
200.595	61.61
200.814	20.65
201.033	20.65
201.252	22.7
201.471	43.18
201.69	80.04
201.909	86.19
202.128	63.66
202.347	-28.5
202.566	57.51
202.785	37.03
203.004	0.17
203.223	90.28
203.442	28.84
203.661	110.76
203.879	12.46
204.098	61.61
204.317	-18.26
204.536	6.31
204.755	47.27
204.974	34.99
205.193	84.14
205.411	147.62
205.63	47.27
205.849	-12.12
206.068	-16.21
206.287	-20.31
206.505	114.86
206.724	49.32
206.943	86.19
207.162	45.23
207.381	12.46
207.599	53.42
207.818	98.47
208.037	37.03
208.255	45.23
208.474	39.08
208.693	41.13
208.911	61.61
209.13	77.99
209.349	-10.07
209.567	53.42
209.786	80.04
210.005	116.9
210.223	10.41
210.442	-26.45
210.661	96.43
210.879	-12.12
211.098	47.27
211.316	80.04
211.535	92.33
211.753	-20.31
211.972	20.65
212.191	80.04
212.409	86.19
212.628	47.27
212.846	26.79
213.065	57.51
213.283	98.47
213.502	28.84
213.72	37.03
213.938	84.14
214.157	82.09
214.375	110.76
214.594	14.51
214.812	32.94
215.031	82.09
215.249	-12.12
215.467	12.46
215.686	-16.21
215.904	4.27
216.122	28.84
216.341	20.65
216.559	82.09
216.778	61.61
216.996	51.37
217.214	104.62
217.432	73.9
217.651	61.61
217.869	30.89
218.087	94.38
218.306	-16.21
218.524	0.17
218.742	143.53
218.96	22.7
219.179	53.42
219.397	45.23
219.615	88.23
219.833	12.46
220.051	-24.4
220.27	102.57
220.488	86.19
220.706	-24.4
220.924	86.19
221.142	47.27
221.36	94.38
221.578	28.84
221.796	0.17
222.015	69.8
222.233	14.51
222.451	75.95
222.669	73.9
222.887	53.42
223.105	16.55
223.323	45.23
223.541	65.71
223.759	77.99
223.977	51.37
224.195	32.94
224.413	49.32
224.631	-3.93
224.849	28.84
225.067	102.57
225.285	18.6
225.503	84.14
225.721	41.13
225.939	47.27
226.157	-8.02
226.375	53.42
226.592	49.32
226.81	125.1
227.028	4.27
227.246	123.05
227.464	49.32
227.682	65.71
227.9	-8.02
228.117	61.61
228.335	45.23
228.553	-32.6
228.771	18.6
228.989	55.47
229.206	143.53
229.424	59.56
229.642	71.85
229.86	16.55
230.077	55.47
230.295	172.2
230.513	49.32
230.731	90.28
230.948	69.8
231.166	110.76
231.384	65.71
231.601	-26.45
231.819	73.9
232.037	-24.4
232.254	10.41
232.472	41.13
232.689	57.51
232.907	65.71
233.125	41.13
233.342	77.99
233.56	14.51
233.777	82.09
233.995	49.32
234.213	39.08
234.43	34.99
234.648	67.75
234.865	6.31
235.083	45.23
235.3	32.94
235.518	71.85
235.735	73.9
235.953	139.43
236.17	37.03
236.388	61.61
236.605	22.7
236.822	28.84
237.04	77.99
237.257	28.84
237.475	14.51
237.692	41.13
237.909	49.32
238.127	80.04
238.344	12.46
238.562	71.85
238.779	20.65
238.996	-20.31
239.214	73.9
239.431	96.43
239.648	55.47
239.865	112.81
240.083	102.57
240.3	37.03
240.517	34.99
240.735	102.57
240.952	61.61
241.169	116.9
241.386	24.75
241.603	-8.02
241.821	-18.26
242.038	84.14
242.255	-12.12
242.472	28.84
242.689	108.71
242.907	69.8
243.124	53.42
243.341	106.67
243.558	53.42
243.775	39.08
243.992	-61.27
244.209	37.03
244.426	127.14
244.643	20.65
244.86	28.84
245.078	112.81
245.295	12.46
245.512	51.37
245.729	-8.02
245.946	32.94
246.163	18.6
246.38	-1.88
246.597	41.13
246.814	49.32
247.031	53.42
247.248	86.19
247.464	20.65
247.681	34.99
247.898	90.28
248.115	4.27
248.332	16.55
248.549	65.71
248.766	110.76
248.983	145.58
249.2	10.41
249.417	69.8
249.633	28.84
249.85	47.27
250.067	114.86
250.284	53.42
250.501	65.71
250.717	22.7
250.934	-12.12
251.151	-32.6
251.368	114.86
251.585	28.84
251.801	-34.64
252.018	-42.84
252.235	96.43
252.451	-18.26
252.668	55.47
252.885	30.89
253.102	80.04
253.318	28.84
253.535	53.42
253.752	57.51
253.968	77.99
254.185	-44.88
254.401	71.85
254.618	176.3
254.835	84.14
255.051	94.38
255.268	57.51
255.484	4.27
255.701	43.18
255.917	71.85
256.134	24.75
256.351	16.55
256.567	-1.88
256.784	26.79
257	-20.31
257.217	-3.93
257.433	59.56
257.65	71.85
257.866	37.03
258.082	4.27
258.299	-20.31
258.515	110.76
258.732	45.23
258.948	61.61
259.165	47.27
259.381	80.04
259.597	61.61
259.814	53.42
260.03	53.42
260.246	112.81
260.463	77.99
260.679	143.53
260.895	24.75
261.112	57.51
261.328	-20.31
261.544	37.03
261.761	84.14
261.977	6.31
262.193	32.94
262.409	16.55
262.626	67.75
262.842	90.28
263.058	24.75
263.274	45.23
263.49	18.6
263.707	69.8
263.923	28.84
264.139	55.47
264.355	41.13
264.571	53.42
264.787	28.84
265.004	-5.97
265.22	41.13
265.436	63.66
265.652	-10.07
265.868	127.14
266.084	55.47
266.3	53.42
266.516	45.23
266.732	41.13
266.948	8.36
267.164	114.86
267.38	45.23
267.596	55.47
267.812	77.99
268.028	65.71
268.244	55.47
268.46	12.46
268.676	86.19
268.892	71.85
269.108	71.85
269.324	20.65
269.54	39.08
269.756	112.81
269.972	-26.45
270.188	94.38
270.403	8.36
270.619	41.13
270.835	94.38
271.051	26.79
271.267	-16.21
271.483	43.18
271.698	71.85
271.914	-20.31
272.13	26.79
272.346	63.66
272.562	22.7
272.777	53.42
272.993	-42.84
273.209	4.27
273.425	39.08
273.64	41.13
273.856	84.14
274.072	2.22
274.287	49.32
274.503	30.89
274.719	22.7
274.934	32.94
275.15	12.46
275.366	108.71
275.581	-20.31
275.797	45.23
276.012	34.99
276.228	12.46
276.444	41.13
276.659	-12.12
276.875	-1.88
277.09	28.84
277.306	28.84
277.521	71.85
277.737	30.89
277.952	61.61
278.168	39.08
278.383	28.84
278.599	22.7
278.814	30.89
279.03	-26.45
279.245	135.34
279.461	-28.5
279.676	139.43
279.892	4.27
280.107	55.47
280.322	47.27
280.538	65.71
280.753	30.89
280.969	55.47
281.184	71.85
281.399	53.42
281.615	-18.26
281.83	53.42
282.045	12.46
282.26	28.84
282.476	14.51
282.691	-98.13
282.906	45.23
283.122	77.99
283.337	51.37
283.552	37.03
283.767	51.37
283.983	123.05
284.198	0.17
284.413	71.85
284.628	71.85
284.843	77.99
285.058	55.47
285.274	67.75
285.489	-24.4
285.704	61.61
285.919	-44.88
286.134	98.47
286.349	55.47
286.564	77.99
286.779	110.76
286.995	53.42
287.21	-59.22
287.425	104.62
287.64	55.47
287.855	20.65
288.07	39.08
288.285	102.57
288.5	39.08
288.715	73.9
288.93	28.84
289.145	73.9
289.36	53.42
289.575	34.99
289.79	121
290.004	86.19
290.219	94.38
290.434	71.85
290.649	-16.21
290.864	30.89
291.079	84.14
291.294	63.66
291.509	-59.22
291.724	20.65
291.938	86.19
292.153	110.76
292.368	94.38
292.583	49.32
292.798	45.23
293.012	88.23
293.227	135.34
293.442	86.19
293.657	4.27
293.871	110.76
294.086	73.9
294.301	86.19
294.516	43.18
294.73	12.46
294.945	20.65
295.16	61.61
295.374	86.19
295.589	55.47
295.804	43.18
296.018	53.42
296.233	94.38
296.447	102.57
296.662	-59.22
296.877	104.62
297.091	100.52
297.306	30.89
297.52	-1.88
297.735	55.47
297.949	28.84
298.164	24.75
298.378	82.09
298.593	135.34
298.807	45.23
299.022	37.03
299.236	57.51
299.451	43.18
299.665	55.47
299.88	-12.12
300.094	53.42
300.309	24.75
300.523	98.47
300.737	4.27
300.952	34.99
301.166	90.28
301.381	30.89
301.595	86.19
301.809	102.57
302.024	37.03
302.238	14.51
302.452	45.23
302.667	69.8
302.881	53.42
303.095	43.18
303.309	86.19
303.524	61.61
303.738	16.55
303.952	32.94
304.166	118.95
304.381	22.7
304.595	104.62
304.809	30.89
305.023	98.47
305.237	53.42
305.452	71.85
305.666	96.43
305.88	121
306.094	86.19
306.308	67.75
306.522	49.32
306.736	86.19
306.95	77.99
307.164	12.46
307.379	69.8
307.593	178.34
307.807	86.19
308.021	153.77
308.235	45.23
308.449	-53.08
308.663	47.27
308.877	118.95
309.091	-12.12
309.305	18.6
309.519	-26.45
309.733	67.75
309.947	0.17
310.161	77.99
310.374	26.79
310.588	71.85
310.802	47.27
311.016	47.27
311.23	24.75
311.444	37.03
311.658	-20.31
311.872	69.8
312.085	65.71
312.299	102.57
312.513	151.72
312.727	49.32
312.941	-8.02
313.154	-20.31
313.368	22.7
313.582	-14.17
313.796	61.61
314.009	69.8
314.223	32.94
314.437	82.09
314.651	-8.02
314.864	86.19
315.078	127.14
315.292	61.61
315.505	6.31
315.719	71.85
315.933	39.08
316.146	28.84
316.36	2.22
316.573	69.8
316.787	110.76
317.001	45.23
317.214	8.36
317.428	102.57
317.641	30.89
317.855	-3.93
318.068	32.94
318.282	4.27
318.495	57.51
318.709	73.9
318.922	30.89
319.136	94.38
319.349	55.47
319.563	-32.6
319.776	51.37
319.99	18.6
320.203	69.8
320.417	110.76
320.63	20.65
320.843	84.14
321.057	90.28
321.27	37.03
321.483	49.32
321.697	121
321.91	45.23
322.124	12.46
322.337	94.38
322.55	51.37
322.763	53.42
322.977	77.99
323.19	28.84
323.403	22.7
323.617	82.09
323.83	49.32
324.043	20.65
324.256	53.42
324.469	-32.6
324.683	94.38
324.896	69.8
325.109	90.28
325.322	-3.93
325.535	45.23
325.748	26.79
325.962	-20.31
326.175	20.65
326.388	61.61
326.601	37.03
326.814	51.37
327.027	-10.07
327.24	118.95
327.453	73.9
327.666	98.47
327.879	65.71
328.092	102.57
328.305	12.46
328.518	-10.07
328.731	102.57
328.944	129.19
329.157	80.04
329.37	80.04
329.583	147.62
329.796	121
330.009	6.31
330.222	137.38
330.435	47.27
330.648	84.14
330.861	86.19
331.073	39.08
331.286	168.1
331.499	92.33
331.712	-5.97
331.925	47.27
332.138	37.03
332.35	69.8
332.563	20.65
332.776	47.27
332.989	37.03
333.202	77.99
333.414	-30.55
333.627	88.23
333.84	37.03
334.053	-12.12
334.265	77.99
334.478	0.17
334.691	20.65
334.903	30.89
335.116	41.13
335.329	90.28
335.541	127.14
335.754	121
335.966	49.32
336.179	84.14
336.392	90.28
336.604	32.94
336.817	71.85
337.029	16.55
337.242	20.65
337.454	135.34
337.667	18.6
337.88	108.71
338.092	28.84
338.305	121
338.517	32.94
338.729	80.04
338.942	65.71
339.154	82.09
339.367	20.65
339.579	104.62
339.792	20.65
340.004	100.52
340.217	39.08
340.429	20.65
340.641	65.71
340.854	30.89
341.066	4.27
341.278	41.13
341.491	77.99
341.703	92.33
341.915	39.08
342.128	20.65
342.34	80.04
342.552	-32.6
342.764	-16.21
342.977	20.65
343.189	71.85
343.401	30.89
343.613	10.41
343.826	20.65
344.038	32.94
344.25	86.19
344.462	-12.12
344.674	110.76
344.886	55.47
345.099	30.89
345.311	143.53
345.523	73.9
345.735	57.51
345.947	45.23
346.159	49.32
346.371	28.84
346.583	-8.02
346.795	45.23
347.007	6.31
347.219	71.85
347.431	43.18
347.643	61.61
347.855	22.7
348.067	47.27
348.279	-42.84
348.491	110.76
348.703	-36.69
348.915	30.89
349.127	-16.21
349.339	94.38
349.551	77.99
349.763	86.19
349.975	53.42
350.187	77.99
350.399	84.14
350.61	77.99
350.822	43.18
351.034	143.53
351.246	69.8
351.458	12.46
351.669	37.03
351.881	121
352.093	32.94
352.305	151.72
352.517	55.47
352.728	176.3
352.94	-40.79
353.152	6.31
353.363	12.46
353.575	106.67
353.787	37.03
353.999	16.55
354.21	61.61
354.422	37.03
354.633	28.84
354.845	86.19
355.057	90.28
355.268	28.84
355.48	77.99
355.692	0.17
355.903	20.65
356.115	28.84
356.326	-59.22
356.538	94.38
356.749	59.56
356.961	94.38
357.172	90.28
357.384	16.55
357.595	100.52
357.807	39.08
358.018	20.65
358.23	37.03
358.441	106.67
358.653	63.66
358.864	28.84
359.075	-32.6
359.287	41.13
359.498	102.57
359.709	61.61
359.921	14.51
360.132	108.71
360.344	51.37
360.555	88.23
360.766	28.84
360.977	82.09
361.189	41.13
361.4	82.09
361.611	53.42
361.823	82.09
362.034	61.61
362.245	-53.08
362.456	55.47
362.667	22.7
362.879	30.89
363.09	69.8
363.301	63.66
363.512	-36.69
363.723	55.47
363.935	63.66
364.146	82.09
364.357	45.23
364.568	69.8
364.779	16.55
364.99	69.8
365.201	49.32
365.412	24.75
365.623	30.89
365.834	45.23
366.045	77.99
366.256	112.81
366.467	71.85
366.678	90.28
366.889	30.89
367.1	14.51
367.311	77.99
367.522	71.85
367.733	61.61
367.944	104.62
368.155	20.65
368.366	164.01
368.577	77.99
368.788	71.85
368.999	61.61
369.209	28.84
369.42	96.43
369.631	133.29
369.842	39.08
370.053	77.99
370.264	94.38
370.474	43.18
370.685	59.56
370.896	53.42
371.107	143.53
371.317	2.22
371.528	94.38
371.739	147.62
371.95	57.51
372.16	57.51
372.371	-12.12
372.582	84.14
372.792	14.51
373.003	34.99
373.214	98.47
373.424	151.72
373.635	45.23
373.846	133.29
374.056	49.32
374.267	106.67
374.477	71.85
374.688	39.08
374.898	-59.22
375.109	110.76
375.319	53.42
375.53	84.14
375.74	37.03
375.951	108.71
376.161	41.13
376.372	57.51
376.582	57.51
376.793	28.84
377.003	12.46
377.214	82.09
377.424	121
377.635	12.46
377.845	-14.17
378.055	88.23
378.266	-16.21
378.476	16.55
378.686	127.14
378.897	77.99
379.107	127.14
379.317	100.52
379.528	18.6
379.738	80.04
379.948	45.23
380.158	6.31
380.369	12.46
380.579	63.66
380.789	4.27
380.999	37.03
381.21	53.42
381.42	88.23
381.63	59.56
381.84	55.47
382.05	61.61
382.261	82.09
382.471	67.75
382.681	14.51
382.891	90.28
383.101	67.75
383.311	37.03
383.521	43.18
383.731	49.32
383.941	55.47
384.151	67.75
384.361	10.41
384.571	-5.97
384.781	96.43
384.991	47.27
385.201	135.34
385.411	43.18
385.621	77.99
385.831	14.51
386.041	86.19
386.251	65.71
386.461	102.57
386.671	61.61
386.881	86.19
387.091	104.62
387.301	137.38
387.511	16.55
387.72	110.76
387.93	77.99
388.14	34.99
388.35	45.23
388.56	49.32
388.769	37.03
388.979	59.56
389.189	106.67
389.399	65.71
389.609	-55.12
389.818	28.84
390.028	-24.4
390.238	39.08
390.447	141.48
390.657	114.86
390.867	116.9
391.076	18.6
391.286	102.57
391.496	20.65
391.705	82.09
391.915	24.75
392.125	45.23
392.334	-5.97
392.544	41.13
392.753	61.61
392.963	84.14
393.172	57.51
393.382	127.14
393.591	143.53
393.801	53.42
394.01	112.81
394.22	108.71
394.429	110.76
394.639	57.51
394.848	112.81
395.058	77.99
395.267	41.13
395.477	53.42
395.686	73.9
395.895	131.24
396.105	219.3
396.314	39.08
396.524	110.76
396.733	90.28
396.942	32.94
397.152	102.57
397.361	114.86
397.57	39.08
397.78	61.61
397.989	170.15
398.198	241.83
398.407	116.9
398.617	39.08
398.826	77.99
399.035	116.9
399.244	104.62
399.453	110.76
399.663	65.71
399.872	37.03
400.081	-8.02
400.29	45.23
400.499	61.61
400.708	94.38
400.917	71.85
401.127	57.51
401.336	63.66
401.545	186.54
401.754	178.34
401.963	51.37
402.172	71.85
402.381	82.09
402.59	51.37
402.799	118.95
403.008	67.75
403.217	61.61
403.426	145.58
403.635	96.43
403.844	123.05
404.053	123.05
404.262	65.71
404.471	131.24
404.68	170.15
404.888	92.33
405.097	131.24
405.306	94.38
405.515	131.24
405.724	127.14
405.933	106.67
406.142	159.91
406.35	168.1
406.559	184.49
406.768	118.95
406.977	200.87
407.185	123.05
407.394	178.34
407.603	86.19
407.812	88.23
408.02	217.26
408.229	145.58
408.438	145.58
408.646	98.47
408.855	147.62
409.064	245.93
409.272	168.1
409.481	221.35
409.69	219.3
409.898	184.49
410.107	180.39
410.315	245.93
410.524	194.73
410.733	217.26
410.941	284.84
411.15	256.17
411.358	268.45
411.567	309.41
411.775	200.87
411.984	276.65
412.192	348.33
412.401	311.46
412.609	358.57
412.818	350.37
413.026	325.8
413.234	303.27
413.443	331.94
413.651	368.81
413.86	327.85
414.068	340.13
414.276	356.52
414.485	366.76
414.693	450.72
414.901	458.92
415.11	471.2
415.318	428.2
415.526	503.97
415.734	516.26
415.943	530.59
416.151	481.44
416.359	473.25
416.567	571.55
416.776	544.93
416.984	624.8
417.192	620.71
417.4	669.86
417.608	596.13
417.817	549.03
418.025	643.23
418.233	696.48
418.441	643.23
418.649	719.01
418.857	741.54
419.065	858.27
419.273	749.73
419.481	790.69
419.689	864.41
419.897	962.72
420.105	856.22
420.313	975
420.521	1054.87
420.729	938.14
420.937	1077.4
421.145	1093.79
421.353	1085.59
421.561	1239.19
421.769	1151.13
421.977	1208.47
422.185	1231
422.393	1308.82
422.601	1405.08
422.809	1276.06
423.017	1446.04
423.224	1400.98
423.432	1421.46
423.64	1448.08
423.848	1595.54
424.056	1579.15
424.263	1634.45
424.471	1738.9
424.679	1710.22
424.887	1826.96
425.094	1900.69
425.302	1906.83
425.51	1876.11
425.718	1978.51
425.925	2101.39
426.133	2021.52
426.341	2259.08
426.548	2306.18
426.756	2304.14
426.964	2318.47
427.171	2373.77
427.379	2617.47
427.586	2549.89
427.794	2666.63
428.001	2816.13
428.209	2805.89
428.417	2936.96
428.624	3072.12
428.832	2977.92
429.039	3043.45
429.247	3147.9
429.454	3354.74
429.662	3565.68
429.869	3424.37
430.076	3534.96
430.284	3494.01
430.491	3623.03
430.699	3879.02
430.906	3864.69
431.114	3952.75
431.321	4010.09
431.528	4214.89
431.736	4444.26
431.943	4579.43
432.15	4395.11
432.358	4366.44
432.565	4761.7
432.772	4669.54
432.979	4919.39
433.187	4995.17
433.394	5052.51
433.601	5281.88
433.808	5404.76
434.016	5238.87
434.223	5357.66
434.43	5951.57
434.637	5716.05
434.844	6180.94
435.052	6207.56
435.259	6193.23
435.466	6226
435.673	6193.23
435.88	6525
436.087	6850.63
436.294	6944.83
436.501	6819.91
436.708	6889.54
436.915	7307.32
437.122	7428.15
437.329	7630.9
437.537	7721.01
437.743	7659.57
437.95	7680.05
438.157	8138.8
438.364	8267.82
438.571	8435.75
438.778	8353.84
438.985	9289.76
439.192	8878.12
439.399	9228.32
439.606	8863.78
439.813	9465.88
440.02	10119.18
440.227	10022.93
440.433	9746.45
440.64	10094.61
440.847	9760.79
441.054	10289.17
441.261	10965
441.467	10680.33
441.674	11020.29
441.881	11595.77
442.088	11419.64
442.294	11311.1
442.501	11778.04
442.708	11767.8
442.914	12277.74
443.121	12922.85
443.328	12480.49
443.534	13324.26
443.741	12965.86
443.948	12892.13
444.154	13651.93
444.361	13686.75
444.568	13764.57
444.774	13889.49
444.981	14006.23
445.187	14385.1
445.394	15028.17
445.6	14725.07
445.807	16345.01
446.013	15415.23
446.22	15916.98
446.426	16615.34
446.633	16822.19
446.839	17311.65
447.046	16572.33
447.252	17393.57
447.459	17508.26
447.665	17325.99
447.871	18200.47
448.078	19007.37
448.284	17921.95
448.491	18642.83
448.697	19218.31
448.903	20008.83
449.11	19863.42
449.316	19447.68
449.522	19943.29
449.728	20662.13
449.935	20512.63
450.141	20524.91
450.347	21147.5
450.553	20672.37
450.76	20375.41
450.966	21352.29
451.172	21077.87
451.378	21645.15
451.584	21321.57
451.791	22019.93
451.997	21997.4
452.203	22353.75
452.409	21940.06
452.615	22335.32
452.821	21208.94
453.027	20954.99
453.233	22173.53
453.44	21454.69
453.646	21520.23
453.852	21966.68
454.058	22269.78
454.264	21333.86
454.47	21862.24
454.676	21247.85
454.882	21938.01
455.088	20238.2
455.294	20709.23
455.5	21059.43
455.705	21505.89
455.911	20365.17
456.117	19597.18
456.323	19832.7
456.529	18931.59
456.735	19451.78
456.941	18999.18
457.147	18835.34
457.352	18274.2
457.558	18083.73
457.764	18096.02
457.97	17684.38
458.176	17536.93
458.381	17491.87
458.587	16258.99
458.793	16449.46
458.999	15845.3
459.204	16881.58
459.41	16302
459.616	15343.55
459.821	15409.09
460.027	15306.69
460.233	14968.77
460.438	14184.4
460.644	14405.58
460.85	13901.78
461.055	13613.02
461.261	13391.84
461.466	12369.9
461.672	12249.07
461.878	13031.4
462.083	12302.32
462.289	11859.96
462.494	12038.13
462.7	11247.62
462.905	11061.25
463.111	11403.26
463.316	11493.37
463.522	11243.52
463.727	11304.96
463.932	11464.7
464.138	11194.37
464.343	11108.35
464.549	10706.95
464.754	11177.98
464.959	11102.21
465.165	11175.94
465.37	10496.01
465.575	10231.82
465.781	10625.03
465.986	10803.21
466.191	10596.36
466.397	10108.94
466.602	9746.45
466.807	10293.26
467.012	10002.45
467.218	9936.92
467.423	9992.21
467.628	9855
467.833	10547.21
