Data from USB4F104151__40__14-42-56-063.txt Node

Date: Thu Mar 13 14:42:56 EDT 2025
User: louis
Spectrometer: USB4F10415
Trigger mode: 4
Integration Time (sec): 2.000000E-2
Scans to average: 1
Electric dark correction enabled: true
Nonlinearity correction enabled: false
Boxcar width: 0
XAxis mode: Wavelengths
Number of Pixels in Spectrum: 3648
>>>>>Begin Spectral Data<<<<<
178.204	-168.27
178.424	-168.27
178.644	-168.27
178.864	-149.84
179.084	-217.43
179.304	-2.39
179.524	-63.83
179.744	52.91
179.964	-31.06
180.184	22.19
180.404	9.9
180.624	-26.96
180.844	-12.63
181.064	11.95
181.283	67.24
181.503	-39.25
181.723	11.95
181.943	-45.4
182.163	65.19
182.383	26.28
182.602	26.28
182.822	73.39
183.042	38.57
183.262	67.24
183.482	-0.34
183.701	30.38
183.921	36.52
184.141	-47.44
184.361	50.86
184.58	30.38
184.8	52.91
185.02	5.8
185.239	67.24
185.459	30.38
185.679	46.76
185.898	-31.06
186.118	5.8
186.338	9.9
186.557	20.14
186.777	-6.49
186.997	36.52
187.216	22.19
187.436	34.47
187.655	46.76
187.875	44.71
188.095	-4.44
188.314	46.76
188.534	3.75
188.753	1.71
188.973	69.29
189.192	106.15
189.412	38.57
189.631	3.75
189.851	83.63
190.07	63.15
190.29	42.67
190.509	-29.01
190.729	85.67
190.948	151.21
191.168	116.39
191.387	91.82
191.607	1.71
191.826	16.04
192.045	-10.58
192.265	44.71
192.484	20.14
192.704	-14.68
192.923	38.57
193.142	114.34
193.362	59.05
193.581	46.76
193.8	63.15
194.02	87.72
194.239	-31.06
194.458	48.81
194.678	-53.59
194.897	-102.74
195.116	77.48
195.335	63.15
195.555	-4.44
195.774	63.15
195.993	11.95
196.212	59.05
196.432	-10.58
196.651	46.76
196.87	-18.77
197.089	67.24
197.308	67.24
197.528	61.1
197.747	-31.06
197.966	83.63
198.185	91.82
198.404	-61.78
198.623	30.38
198.842	69.29
199.062	138.92
199.281	75.43
199.5	46.76
199.719	13.99
199.938	38.57
200.157	102.06
200.376	61.1
200.595	171.69
200.814	65.19
201.033	30.38
201.252	143.02
201.471	67.24
201.69	91.82
201.909	36.52
202.128	85.67
202.347	22.19
202.566	44.71
202.785	-6.49
203.004	63.15
203.223	83.63
203.442	22.19
203.661	16.04
203.879	-2.39
204.098	-22.87
204.317	26.28
204.536	34.47
204.755	77.48
204.974	11.95
205.193	30.38
205.411	69.29
205.63	-20.82
205.849	26.28
206.068	100.01
206.287	79.53
206.505	112.3
206.724	24.23
206.943	9.9
207.162	-69.97
207.381	20.14
207.599	83.63
207.818	46.76
208.037	-26.96
208.255	-39.25
208.474	-4.44
208.693	26.28
208.911	38.57
209.13	83.63
209.349	11.95
209.567	79.53
209.786	81.58
210.005	50.86
210.223	26.28
210.442	-45.4
210.661	54.95
210.879	73.39
211.098	20.14
211.316	26.28
211.535	85.67
211.753	18.09
211.972	67.24
212.191	57
212.409	59.05
212.628	42.67
212.846	-39.25
213.065	30.38
213.283	153.26
213.502	-20.82
213.72	9.9
213.938	83.63
214.157	38.57
214.375	7.85
214.594	36.52
214.812	36.52
215.031	22.19
215.249	-22.87
215.467	100.01
215.686	-10.58
215.904	26.28
216.122	73.39
216.341	93.87
216.559	-24.92
216.778	36.52
216.996	16.04
217.214	59.05
217.432	9.9
217.651	83.63
217.869	-6.49
218.087	11.95
218.306	30.38
218.524	61.1
218.742	-22.87
218.96	59.05
219.179	-4.44
219.397	26.28
219.615	134.82
219.833	91.82
220.051	-4.44
220.27	83.63
220.488	52.91
220.706	91.82
220.924	24.23
221.142	18.09
221.36	44.71
221.578	50.86
221.796	-24.92
222.015	46.76
222.233	50.86
222.451	46.76
222.669	42.67
222.887	13.99
223.105	-26.96
223.323	77.48
223.541	11.95
223.759	36.52
223.977	26.28
224.195	95.91
224.413	112.3
224.631	9.9
224.849	54.95
225.067	120.49
225.285	50.86
225.503	-14.68
225.721	-72.02
225.939	-29.01
226.157	18.09
226.375	157.35
226.592	-2.39
226.81	63.15
227.028	59.05
227.246	36.52
227.464	-6.49
227.682	-20.82
227.9	44.71
228.117	18.09
228.335	83.63
228.553	11.95
228.771	32.43
228.989	-4.44
229.206	-67.92
229.424	50.86
229.642	83.63
229.86	-4.44
230.077	61.1
230.295	69.29
230.513	9.9
230.731	36.52
230.948	89.77
231.166	75.43
231.384	-8.53
231.601	-24.92
231.819	50.86
232.037	-22.87
232.254	1.71
232.472	-14.68
232.689	11.95
232.907	112.3
233.125	-2.39
233.342	85.67
233.56	18.09
233.777	1.71
233.995	36.52
234.213	151.21
234.43	69.29
234.648	3.75
234.865	57
235.083	77.48
235.3	-22.87
235.518	69.29
235.735	85.67
235.953	3.75
236.17	110.25
236.388	118.44
236.605	11.95
236.822	30.38
237.04	110.25
237.257	73.39
237.475	-39.25
237.692	59.05
237.909	50.86
238.127	20.14
238.344	-0.34
238.562	46.76
238.779	3.75
238.996	28.33
239.214	22.19
239.431	50.86
239.648	9.9
239.865	11.95
240.083	22.19
240.3	36.52
240.517	50.86
240.735	75.43
240.952	100.01
241.169	79.53
241.386	87.72
241.603	61.1
241.821	-20.82
242.038	85.67
242.255	42.67
242.472	32.43
242.689	22.19
242.907	46.76
243.124	120.49
243.341	-26.96
243.558	13.99
243.775	57
243.992	-26.96
244.209	22.19
244.426	26.28
244.643	38.57
244.86	-18.77
245.078	126.63
245.295	18.09
245.512	1.71
245.729	40.62
245.946	32.43
246.163	-20.82
246.38	63.15
246.597	42.67
246.814	20.14
247.031	-31.06
247.248	95.91
247.464	71.34
247.681	46.76
247.898	22.19
248.115	61.1
248.332	100.01
248.549	120.49
248.766	140.97
248.983	38.57
249.2	1.71
249.417	91.82
249.633	20.14
249.85	36.52
250.067	-59.73
250.284	-8.53
250.501	-14.68
250.717	-24.92
250.934	34.47
251.151	95.91
251.368	9.9
251.585	42.67
251.801	46.76
252.018	1.71
252.235	52.91
252.451	-39.25
252.668	28.33
252.885	93.87
253.102	63.15
253.318	26.28
253.535	48.81
253.752	61.1
253.968	13.99
254.185	-14.68
254.401	42.67
254.618	132.78
254.835	-31.06
255.051	-39.25
255.268	71.34
255.484	67.24
255.701	75.43
255.917	136.87
256.134	38.57
256.351	38.57
256.567	61.1
256.784	16.04
257	-39.25
257.217	83.63
257.433	26.28
257.65	61.1
257.866	42.67
258.082	20.14
258.299	-67.92
258.515	93.87
258.732	20.14
258.948	48.81
259.165	-57.68
259.381	83.63
259.597	38.57
259.814	-67.92
260.03	38.57
260.246	52.91
260.463	42.67
260.679	50.86
260.895	100.01
261.112	75.43
261.328	87.72
261.544	67.24
261.761	124.58
261.977	42.67
262.193	22.19
262.409	124.58
262.626	91.82
262.842	83.63
263.058	1.71
263.274	42.67
263.49	85.67
263.707	79.53
263.923	-8.53
264.139	-35.16
264.355	42.67
264.571	83.63
264.787	59.05
265.004	38.57
265.22	13.99
265.436	48.81
265.652	30.38
265.868	132.78
266.084	1.71
266.3	46.76
266.516	38.57
266.732	108.2
266.948	9.9
267.164	28.33
267.38	20.14
267.596	50.86
267.812	126.63
268.028	36.52
268.244	5.8
268.46	38.57
268.676	11.95
268.892	52.91
269.108	30.38
269.324	-6.49
269.54	-35.16
269.756	36.52
269.972	34.47
270.188	34.47
270.403	1.71
270.619	54.95
270.835	67.24
271.051	34.47
271.267	42.67
271.483	71.34
271.698	97.96
271.914	22.19
272.13	50.86
272.346	75.43
272.562	22.19
272.777	75.43
272.993	9.9
273.209	-6.49
273.425	69.29
273.64	5.8
273.856	-14.68
274.072	-45.4
274.287	79.53
274.503	108.2
274.719	54.95
274.934	-18.77
275.15	-6.49
275.366	52.91
275.581	34.47
275.797	77.48
276.012	71.34
276.228	36.52
276.444	42.67
276.659	22.19
276.875	30.38
277.09	75.43
277.306	87.72
277.521	91.82
277.737	-2.39
277.952	5.8
278.168	79.53
278.383	11.95
278.599	34.47
278.814	57
279.03	9.9
279.245	140.97
279.461	-14.68
279.676	42.67
279.892	28.33
280.107	16.04
280.322	20.14
280.538	-18.77
280.753	24.23
280.969	77.48
281.184	-12.63
281.399	50.86
281.615	97.96
281.83	24.23
282.045	30.38
282.26	5.8
282.476	9.9
282.691	-4.44
282.906	57
283.122	52.91
283.337	93.87
283.552	50.86
283.767	59.05
283.983	165.54
284.198	116.39
284.413	93.87
284.628	26.28
284.843	102.06
285.058	5.8
285.274	-16.73
285.489	-20.82
285.704	87.72
285.919	36.52
286.134	13.99
286.349	83.63
286.564	-22.87
286.779	71.34
286.995	50.86
287.21	-10.58
287.425	81.58
287.64	-14.68
287.855	42.67
288.07	1.71
288.285	67.24
288.5	104.11
288.715	42.67
288.93	18.09
289.145	-18.77
289.36	32.43
289.575	42.67
289.79	26.28
290.004	-29.01
290.219	67.24
290.434	34.47
290.649	50.86
290.864	71.34
291.079	57
291.294	89.77
291.509	116.39
291.724	85.67
291.938	11.95
292.153	100.01
292.368	1.71
292.583	61.1
292.798	-6.49
293.012	83.63
293.227	-2.39
293.442	44.71
293.657	69.29
293.871	34.47
294.086	-4.44
294.301	20.14
294.516	22.19
294.73	79.53
294.945	13.99
295.16	5.8
295.374	54.95
295.589	44.71
295.804	-31.06
296.018	34.47
296.233	91.82
296.447	100.01
296.662	3.75
296.877	9.9
297.091	34.47
297.306	102.06
297.52	-10.58
297.735	79.53
297.949	44.71
298.164	54.95
298.378	34.47
298.593	-10.58
298.807	-29.01
299.022	-74.07
299.236	102.06
299.451	26.28
299.665	59.05
299.88	75.43
300.094	85.67
300.309	26.28
300.523	52.91
300.737	22.19
300.952	34.47
301.166	38.57
301.381	-4.44
301.595	24.23
301.809	18.09
302.024	36.52
302.238	-14.68
302.452	61.1
302.667	18.09
302.881	46.76
303.095	42.67
303.309	140.97
303.524	54.95
303.738	52.91
303.952	42.67
304.166	24.23
304.381	26.28
304.595	22.19
304.809	34.47
305.023	18.09
305.237	22.19
305.452	87.72
305.666	102.06
305.88	30.38
306.094	34.47
306.308	40.62
306.522	54.95
306.736	50.86
306.95	34.47
307.164	11.95
307.379	9.9
307.593	38.57
307.807	59.05
308.021	59.05
308.235	42.67
308.449	79.53
308.663	42.67
308.877	69.29
309.091	63.15
309.305	9.9
309.519	24.23
309.733	102.06
309.947	-18.77
310.161	44.71
310.374	-18.77
310.588	61.1
310.802	97.96
311.016	46.76
311.23	38.57
311.444	-24.92
311.658	-47.44
311.872	65.19
312.085	69.29
312.299	91.82
312.513	26.28
312.727	61.1
312.941	9.9
313.154	91.82
313.368	-31.06
313.582	26.28
313.796	32.43
314.009	63.15
314.223	36.52
314.437	46.76
314.651	91.82
314.864	9.9
315.078	83.63
315.292	-6.49
315.505	50.86
315.719	65.19
315.933	13.99
316.146	11.95
316.36	20.14
316.573	112.3
316.787	75.43
317.001	59.05
317.214	36.52
317.428	48.81
317.641	-20.82
317.855	83.63
318.068	83.63
318.282	9.9
318.495	52.91
318.709	30.38
318.922	54.95
319.136	108.2
319.349	93.87
319.563	-14.68
319.776	134.82
319.99	59.05
320.203	50.86
320.417	50.86
320.63	9.9
320.843	75.43
321.057	112.3
321.27	69.29
321.483	13.99
321.697	132.78
321.91	140.97
322.124	46.76
322.337	83.63
322.55	-6.49
322.763	-31.06
322.977	71.34
323.19	-31.06
323.403	54.95
323.617	-6.49
323.83	69.29
324.043	38.57
324.256	-29.01
324.469	75.43
324.683	38.57
324.896	-76.12
325.109	1.71
325.322	95.91
325.535	57
325.748	9.9
325.962	93.87
326.175	9.9
326.388	100.01
326.601	18.09
326.814	91.82
327.027	-26.96
327.24	71.34
327.453	1.71
327.666	34.47
327.879	34.47
328.092	-6.49
328.305	93.87
328.518	-37.2
328.731	9.9
328.944	16.04
329.157	69.29
329.37	89.77
329.583	75.43
329.796	69.29
330.009	59.05
330.222	100.01
330.435	52.91
330.648	3.75
330.861	67.24
331.073	36.52
331.286	63.15
331.499	63.15
331.712	-6.49
331.925	75.43
332.138	-6.49
332.35	9.9
332.563	30.38
332.776	104.11
332.989	30.38
333.202	85.67
333.414	11.95
333.627	11.95
333.84	50.86
334.053	24.23
334.265	30.38
334.478	22.19
334.691	30.38
334.903	46.76
335.116	52.91
335.329	106.15
335.541	93.87
335.754	153.26
335.966	-67.92
336.179	77.48
336.392	26.28
336.604	-18.77
336.817	46.76
337.029	42.67
337.242	63.15
337.454	89.77
337.667	-39.25
337.88	75.43
338.092	118.44
338.305	20.14
338.517	9.9
338.729	-14.68
338.942	79.53
339.154	1.71
339.367	83.63
339.579	-6.49
339.792	77.48
340.004	83.63
340.217	-14.68
340.429	22.19
340.641	65.19
340.854	24.23
341.066	91.82
341.278	108.2
341.491	151.21
341.703	-20.82
341.915	20.14
342.128	67.24
342.34	48.81
342.552	77.48
342.764	65.19
342.977	18.09
343.189	77.48
343.401	18.09
343.613	11.95
343.826	128.68
344.038	140.97
344.25	20.14
344.462	26.28
344.674	9.9
344.886	-53.59
345.099	69.29
345.311	13.99
345.523	42.67
345.735	44.71
345.947	-22.87
346.159	79.53
346.371	50.86
346.583	57
346.795	110.25
347.007	95.91
347.219	67.24
347.431	102.06
347.643	143.02
347.855	36.52
348.067	81.58
348.279	1.71
348.491	65.19
348.703	59.05
348.915	77.48
349.127	79.53
349.339	118.44
349.551	69.29
349.763	87.72
349.975	7.85
350.187	77.48
350.399	54.95
350.61	-0.34
350.822	50.86
351.034	22.19
351.246	42.67
351.458	95.91
351.669	124.58
351.881	79.53
352.093	112.3
352.305	87.72
352.517	-35.16
352.728	108.2
352.94	91.82
353.152	-20.82
353.363	42.67
353.575	50.86
353.787	77.48
353.999	83.63
354.21	75.43
354.422	18.09
354.633	75.43
354.845	85.67
355.057	38.57
355.268	28.33
355.48	34.47
355.692	-14.68
355.903	-31.06
356.115	18.09
356.326	42.67
356.538	77.48
356.749	100.01
356.961	140.97
357.172	54.95
357.384	-6.49
357.595	95.91
357.807	54.95
358.018	22.19
358.23	38.57
358.441	77.48
358.653	106.15
358.864	42.67
359.075	50.86
359.287	1.71
359.498	85.67
359.709	36.52
359.921	44.71
360.132	77.48
360.344	30.38
360.555	30.38
360.766	52.91
360.977	28.33
361.189	104.11
361.4	28.33
361.611	97.96
361.823	65.19
362.034	71.34
362.245	59.05
362.456	67.24
362.667	79.53
362.879	-2.39
363.09	3.75
363.301	102.06
363.512	18.09
363.723	38.57
363.935	1.71
364.146	11.95
364.357	24.23
364.568	100.01
364.779	59.05
364.99	75.43
365.201	-78.16
365.412	116.39
365.623	26.28
365.834	26.28
366.045	18.09
366.256	61.1
366.467	124.58
366.678	36.52
366.889	48.81
367.1	48.81
367.311	108.2
367.522	52.91
367.733	7.85
367.944	18.09
368.155	67.24
368.366	40.62
368.577	79.53
368.788	63.15
368.999	77.48
369.209	85.67
369.42	112.3
369.631	102.06
369.842	75.43
370.053	9.9
370.264	50.86
370.474	71.34
370.685	59.05
370.896	9.9
371.107	116.39
371.317	28.33
371.528	71.34
371.739	93.87
371.95	75.43
372.16	-2.39
372.371	11.95
372.582	59.05
372.792	42.67
373.003	50.86
373.214	83.63
373.424	77.48
373.635	52.91
373.846	83.63
374.056	50.86
374.267	75.43
374.477	87.72
374.688	77.48
374.898	79.53
375.109	50.86
375.319	40.62
375.53	116.39
375.74	118.44
375.951	95.91
376.161	89.77
376.372	59.05
376.582	77.48
376.793	22.19
377.003	61.1
377.214	42.67
377.424	79.53
377.635	95.91
377.845	67.24
378.055	116.39
378.266	-22.87
378.476	46.76
378.686	161.45
378.897	61.1
379.107	114.34
379.317	114.34
379.528	9.9
379.738	128.68
379.948	26.28
380.158	54.95
380.369	57
380.579	87.72
380.789	108.2
380.999	112.3
381.21	75.43
381.42	44.71
381.63	46.76
381.84	91.82
382.05	108.2
382.261	110.25
382.471	22.19
382.681	63.15
382.891	110.25
383.101	102.06
383.311	22.19
383.521	79.53
383.731	128.68
383.941	61.1
384.151	143.02
384.361	59.05
384.571	93.87
384.781	26.28
384.991	54.95
385.201	149.16
385.411	85.67
385.621	110.25
385.831	93.87
386.041	75.43
386.251	77.48
386.461	93.87
386.671	50.86
386.881	75.43
387.091	124.58
387.301	118.44
387.511	11.95
387.72	112.3
387.93	118.44
388.14	59.05
388.35	34.47
388.56	79.53
388.769	118.44
388.979	67.24
389.189	3.75
389.399	40.62
389.609	100.01
389.818	59.05
390.028	91.82
390.238	63.15
390.447	40.62
390.657	9.9
390.867	20.14
391.076	9.9
391.286	50.86
391.496	124.58
391.705	48.81
391.915	153.26
392.125	122.54
392.334	22.19
392.544	149.16
392.753	73.39
392.963	85.67
393.172	50.86
393.382	59.05
393.591	132.78
393.801	1.71
394.01	143.02
394.22	95.91
394.429	100.01
394.639	77.48
394.848	95.91
395.058	26.28
395.267	87.72
395.477	140.97
395.686	140.97
395.895	112.3
396.105	143.02
396.314	69.29
396.524	120.49
396.733	77.48
396.942	132.78
397.152	132.78
397.361	128.68
397.57	85.67
397.78	134.82
397.989	116.39
398.198	155.3
398.407	153.26
398.617	93.87
398.826	79.53
399.035	93.87
399.244	136.87
399.453	77.48
399.663	79.53
399.872	118.44
400.081	85.67
400.29	167.59
400.499	85.67
400.708	190.12
400.917	153.26
401.127	108.2
401.336	91.82
401.545	202.41
401.754	138.92
401.963	157.35
402.172	116.39
402.381	165.54
402.59	124.58
402.799	206.5
403.008	95.91
403.217	116.39
403.426	149.16
403.635	93.87
403.844	192.17
404.053	112.3
404.262	116.39
404.471	233.13
404.68	89.77
404.888	143.02
405.097	183.98
405.306	157.35
405.515	165.54
405.724	155.3
405.933	165.54
406.142	235.18
406.35	214.7
406.559	237.22
406.768	231.08
406.977	249.51
407.185	161.45
407.394	206.5
407.603	255.65
407.812	177.83
408.02	237.22
408.229	274.09
408.438	263.85
408.646	157.35
408.855	253.61
409.064	329.38
409.272	339.62
409.481	300.71
409.69	308.9
409.898	290.47
410.107	284.33
410.315	308.9
410.524	329.38
410.733	310.95
410.941	333.48
411.15	353.96
411.358	444.07
411.567	429.73
411.775	388.77
411.984	470.69
412.192	433.83
412.401	489.12
412.609	509.6
412.818	601.76
413.026	556.71
413.234	575.14
413.443	501.41
413.651	583.33
413.86	595.62
414.068	550.56
414.276	657.06
414.485	626.34
414.693	681.63
414.901	788.13
415.11	771.74
415.318	738.98
415.526	718.5
415.734	816.8
415.943	861.85
416.151	822.94
416.359	841.37
416.567	888.48
416.776	886.43
416.984	994.97
417.192	1019.55
417.4	954.01
417.608	1029.79
417.817	1119.9
418.025	1207.96
418.233	1248.92
418.441	1167
418.649	1238.68
418.857	1300.12
419.065	1414.81
419.273	1271.45
419.481	1476.24
419.689	1410.71
419.897	1533.59
420.105	1582.74
420.313	1615.51
420.521	1730.19
420.729	1797.78
420.937	1838.73
421.145	1828.49
421.353	1959.56
421.561	1965.71
421.769	2033.29
421.977	2115.21
422.185	2086.54
422.393	2307.72
422.601	2328.2
422.809	2346.63
423.017	2352.77
423.224	2471.56
423.432	2559.62
423.64	2594.44
423.848	2760.32
424.056	2778.75
424.263	2946.69
424.471	3108.48
424.679	2967.17
424.887	3298.94
425.094	3524.21
425.302	3378.81
425.51	3477.11
425.718	3507.83
425.925	3567.22
426.133	3638.9
426.341	3896.94
426.548	4122.22
426.756	4046.44
426.964	4253.29
427.171	4343.4
427.379	4388.46
427.586	4441.7
427.794	4712.03
428.001	4982.37
428.209	5125.72
428.417	4965.98
428.624	5424.73
428.832	5535.32
429.039	5371.48
429.247	5574.23
429.454	5926.48
429.662	6327.88
429.869	5928.53
430.076	6397.51
430.284	6063.69
430.491	6471.24
430.699	6710.85
430.906	6743.62
431.114	6708.8
431.321	7034.43
431.528	7220.8
431.736	7816.76
431.943	8025.65
432.15	7730.74
432.358	7804.47
432.565	8185.39
432.772	7980.59
432.979	8791.59
433.187	8779.3
433.394	8883.75
433.601	9295.39
433.808	9367.07
434.016	9422.36
434.223	9741.85
434.43	10378.76
434.637	10178.06
434.844	10792.45
435.052	10954.24
435.259	10921.48
435.466	11197.95
435.673	10995.2
435.88	11601.4
436.087	12183.02
436.294	12439.02
436.501	11994.61
436.708	12217.84
436.915	12881.38
437.122	13196.77
437.329	13231.58
437.537	13557.21
437.743	13794.78
437.95	13759.96
438.157	14745.03
438.364	14777.8
438.571	15044.04
438.778	15095.24
438.985	16635.31
439.192	15703.48
439.399	16256.43
439.606	16014.77
439.813	16674.22
440.02	17833.37
440.227	17712.54
440.433	17192.36
440.64	17894.81
440.847	17794.46
441.054	18171.29
441.261	19496.32
441.467	19248.52
441.674	19719.55
441.881	20383.09
442.088	20534.64
442.294	20067.7
442.501	20639.09
442.708	20850.03
442.914	22031.71
443.121	22781.26
443.328	22205.78
443.534	23745.86
443.741	22799.69
443.948	22873.42
444.154	24401.21
444.361	24333.62
444.568	24560.95
444.774	24438.07
444.981	25070.89
445.187	25668.9
445.394	26826
445.6	26297.63
445.807	28611.83
446.013	27436.3
446.22	28079.36
446.426	29017.33
446.633	29402.35
446.839	30647.51
447.046	29170.93
447.252	30958.8
447.459	31067.34
447.665	30780.63
447.871	32226.49
448.078	33352.88
448.284	32220.35
448.491	32724.15
448.697	33987.75
448.903	34827.42
449.11	35026.07
449.316	34249.89
449.522	35036.31
449.728	35800.2
449.935	36408.45
450.141	36418.69
450.347	37184.63
450.553	35925.13
450.76	36121.73
450.966	37493.87
451.172	37241.97
451.378	38138.98
451.584	37309.55
451.791	38308.96
451.997	38106.21
452.203	38550.62
452.409	39201.88
452.615	38925.4
452.821	37504.11
453.027	37053.56
453.233	38771.8
453.44	37725.29
453.646	37794.92
453.852	37928.04
454.058	38431.84
454.264	37850.22
454.47	38474.85
454.676	37469.29
454.882	38984.79
455.088	35212.43
455.294	35853.45
455.5	36834.42
455.705	36772.99
455.911	35515.53
456.117	34952.34
456.323	34540.7
456.529	32437.44
456.735	33989.8
456.941	33170.61
457.147	32824.5
457.352	31945.92
457.558	31612.1
457.764	31501.51
457.97	31050.96
458.176	30512.35
458.381	30504.15
458.587	29191.41
458.793	29043.95
458.999	27503.88
459.204	29388.01
459.41	28738.8
459.616	26998.03
459.821	27020.56
460.027	27090.19
460.233	26205.47
460.438	24878.38
460.644	25330.98
460.85	24378.68
461.055	23653.7
461.261	23649.6
461.466	21919.07
461.672	21476.71
461.878	22756.69
462.083	21622.11
462.289	21222.76
462.494	20856.17
462.7	20059.51
462.905	19443.07
463.111	20106.62
463.316	20088.18
463.522	19486.08
463.727	19860.86
463.932	19836.28
464.138	19533.18
464.343	19451.27
464.549	18912.65
464.754	19604.86
464.959	19195.27
465.165	19287.43
465.37	18574.74
465.575	18023.83
465.781	18525.58
465.986	18902.41
466.191	18210.2
466.397	17880.47
466.602	16946.6
466.807	17712.54
467.012	17767.84
467.218	17544.61
