Data from USB4F104151__80__14-43-27-396.txt Node

Date: Thu Mar 13 14:43:27 EDT 2025
User: louis
Spectrometer: USB4F10415
Trigger mode: 4
Integration Time (sec): 2.000000E-2
Scans to average: 1
Electric dark correction enabled: true
Nonlinearity correction enabled: false
Boxcar width: 0
XAxis mode: Wavelengths
Number of Pixels in Spectrum: 3648
>>>>>Begin Spectral Data<<<<<
178.204	-135
178.424	-135
178.644	-135
178.864	-145.24
179.084	-118.61
179.304	0.17
179.524	-3.93
179.744	-5.97
179.964	-8.02
180.184	57.51
180.404	-10.07
180.624	14.51
180.844	43.18
181.064	-44.88
181.283	-30.55
181.503	-38.74
181.723	26.79
181.943	43.18
182.163	47.27
182.383	96.43
182.602	100.52
182.822	133.29
183.042	34.99
183.262	-10.07
183.482	32.94
183.701	53.42
183.921	106.67
184.141	2.22
184.361	22.7
184.58	18.6
184.8	20.65
185.02	12.46
185.239	100.52
185.459	10.41
185.679	92.33
185.898	-14.17
186.118	59.56
186.338	61.61
186.557	51.37
186.777	45.23
186.997	34.99
187.216	100.52
187.436	55.47
187.655	137.38
187.875	26.79
188.095	10.41
188.314	34.99
188.534	75.95
188.753	-10.07
188.973	73.9
189.192	108.71
189.412	75.95
189.631	121
189.851	43.18
190.07	98.47
190.29	22.7
190.509	67.75
190.729	-8.02
190.948	18.6
191.168	145.58
191.387	92.33
191.607	10.41
191.826	30.89
192.045	51.37
192.265	-22.36
192.484	28.84
192.704	73.9
192.923	47.27
193.142	43.18
193.362	39.08
193.581	47.27
193.8	26.79
194.02	55.47
194.239	-5.97
194.458	10.41
194.678	45.23
194.897	-3.93
195.116	30.89
195.335	121
195.555	34.99
195.774	67.75
195.993	24.75
196.212	26.79
196.432	28.84
196.651	43.18
196.87	22.7
197.089	71.85
197.308	94.38
197.528	69.8
197.747	39.08
197.966	53.42
198.185	67.75
198.404	14.51
198.623	100.52
198.842	-55.12
199.062	51.37
199.281	86.19
199.5	8.36
199.719	45.23
199.938	49.32
200.157	108.71
200.376	37.03
200.595	30.89
200.814	14.51
201.033	59.56
201.252	67.75
201.471	18.6
201.69	45.23
201.909	32.94
202.128	41.13
202.347	30.89
202.566	37.03
202.785	80.04
203.004	-5.97
203.223	135.34
203.442	2.22
203.661	4.27
203.879	20.65
204.098	53.42
204.317	22.7
204.536	51.37
204.755	55.47
204.974	61.61
205.193	-5.97
205.411	116.9
205.63	75.95
205.849	16.55
206.068	12.46
206.287	69.8
206.505	20.65
206.724	37.03
206.943	-14.17
207.162	34.99
207.381	-28.5
207.599	-5.97
207.818	-8.02
208.037	-12.12
208.255	32.94
208.474	-8.02
208.693	34.99
208.911	45.23
209.13	8.36
209.349	45.23
209.567	37.03
209.786	94.38
210.005	110.76
210.223	53.42
210.442	10.41
210.661	-30.55
210.879	51.37
211.098	-30.55
211.316	28.84
211.535	34.99
211.753	22.7
211.972	51.37
212.191	-22.36
212.409	84.14
212.628	61.61
212.846	-53.08
213.065	71.85
213.283	18.6
213.502	57.51
213.72	67.75
213.938	47.27
214.157	39.08
214.375	67.75
214.594	34.99
214.812	45.23
215.031	-16.21
215.249	-14.17
215.467	6.31
215.686	94.38
215.904	-14.17
216.122	0.17
216.341	84.14
216.559	30.89
216.778	55.47
216.996	-5.97
217.214	55.47
217.432	51.37
217.651	6.31
217.869	43.18
218.087	18.6
218.306	24.75
218.524	-1.88
218.742	-38.74
218.96	86.19
219.179	-1.88
219.397	0.17
219.615	92.33
219.833	-12.12
220.051	4.27
220.27	75.95
220.488	108.71
220.706	77.99
220.924	41.13
221.142	18.6
221.36	43.18
221.578	61.61
221.796	51.37
222.015	47.27
222.233	67.75
222.451	59.56
222.669	2.22
222.887	67.75
223.105	47.27
223.323	104.62
223.541	-36.69
223.759	0.17
223.977	57.51
224.195	166.06
224.413	71.85
224.631	37.03
224.849	26.79
225.067	92.33
225.285	57.51
225.503	-5.97
225.721	-14.17
225.939	2.22
226.157	71.85
226.375	135.34
226.592	-22.36
226.81	59.56
227.028	53.42
227.246	86.19
227.464	67.75
227.682	118.95
227.9	63.66
228.117	-22.36
228.335	-38.74
228.553	53.42
228.771	26.79
228.989	80.04
229.206	39.08
229.424	-10.07
229.642	-5.97
229.86	75.95
230.077	67.75
230.295	22.7
230.513	88.23
230.731	69.8
230.948	43.18
231.166	67.75
231.384	-14.17
231.601	34.99
231.819	59.56
232.037	-5.97
232.254	-3.93
232.472	18.6
232.689	14.51
232.907	22.7
233.125	-3.93
233.342	51.37
233.56	-26.45
233.777	26.79
233.995	65.71
234.213	14.51
234.43	100.52
234.648	16.55
234.865	39.08
235.083	67.75
235.3	53.42
235.518	59.56
235.735	77.99
235.953	96.43
236.17	34.99
236.388	47.27
236.605	55.47
236.822	114.86
237.04	88.23
237.257	-5.97
237.475	18.6
237.692	63.66
237.909	10.41
238.127	53.42
238.344	96.43
238.562	-14.17
238.779	-38.74
238.996	43.18
239.214	-14.17
239.431	59.56
239.648	28.84
239.865	55.47
240.083	106.67
240.3	37.03
240.517	53.42
240.735	6.31
240.952	73.9
241.169	92.33
241.386	14.51
241.603	-22.36
241.821	4.27
242.038	30.89
242.255	2.22
242.472	-34.64
242.689	26.79
242.907	110.76
243.124	26.79
243.341	10.41
243.558	-24.4
243.775	53.42
243.992	-26.45
244.209	20.65
244.426	67.75
244.643	43.18
244.86	18.6
245.078	18.6
245.295	20.65
245.512	51.37
245.729	43.18
245.946	-5.97
246.163	75.95
246.38	-28.5
246.597	39.08
246.814	59.56
247.031	10.41
247.248	32.94
247.464	104.62
247.681	65.71
247.898	61.61
248.115	43.18
248.332	28.84
248.549	26.79
248.766	121
248.983	-1.88
249.2	45.23
249.417	84.14
249.633	39.08
249.85	43.18
250.067	75.95
250.284	69.8
250.501	20.65
250.717	28.84
250.934	125.1
251.151	69.8
251.368	34.99
251.585	88.23
251.801	47.27
252.018	37.03
252.235	18.6
252.451	20.65
252.668	59.56
252.885	30.89
253.102	137.38
253.318	-42.84
253.535	67.75
253.752	49.32
253.968	26.79
254.185	14.51
254.401	28.84
254.618	92.33
254.835	-10.07
255.051	53.42
255.268	67.75
255.484	14.51
255.701	51.37
255.917	45.23
256.134	-24.4
256.351	51.37
256.567	43.18
256.784	-14.17
257	-5.97
257.217	51.37
257.433	59.56
257.65	10.41
257.866	51.37
258.082	34.99
258.299	4.27
258.515	67.75
258.732	30.89
258.948	4.27
259.165	20.65
259.381	26.79
259.597	8.36
259.814	-14.17
260.03	-14.17
260.246	80.04
260.463	67.75
260.679	53.42
260.895	22.7
261.112	2.22
261.328	39.08
261.544	4.27
261.761	84.14
261.977	71.85
262.193	2.22
262.409	2.22
262.626	24.75
262.842	22.7
263.058	59.56
263.274	4.27
263.49	43.18
263.707	20.65
263.923	57.51
264.139	-5.97
264.355	84.14
264.571	26.79
264.787	45.23
265.004	73.9
265.22	26.79
265.436	92.33
265.652	86.19
265.868	43.18
266.084	37.03
266.3	112.81
266.516	39.08
266.732	69.8
266.948	26.79
267.164	45.23
267.38	12.46
267.596	26.79
267.812	100.52
268.028	55.47
268.244	32.94
268.46	34.99
268.676	47.27
268.892	28.84
269.108	30.89
269.324	-26.45
269.54	28.84
269.756	67.75
269.972	-53.08
270.188	24.75
270.403	24.75
270.619	-5.97
270.835	-10.07
271.051	59.56
271.267	43.18
271.483	75.95
271.698	53.42
271.914	47.27
272.13	-12.12
272.346	-5.97
272.562	-12.12
272.777	77.99
272.993	51.37
273.209	71.85
273.425	26.79
273.64	-20.31
273.856	63.66
274.072	67.75
274.287	-22.36
274.503	80.04
274.719	92.33
274.934	12.46
275.15	18.6
275.366	-5.97
275.581	45.23
275.797	57.51
276.012	12.46
276.228	-12.12
276.444	92.33
276.659	22.7
276.875	-38.74
277.09	10.41
277.306	28.84
277.521	75.95
277.737	84.14
277.952	100.52
278.168	37.03
278.383	77.99
278.599	-1.88
278.814	145.58
279.03	22.7
279.245	123.05
279.461	10.41
279.676	108.71
279.892	14.51
280.107	92.33
280.322	-20.31
280.538	100.52
280.753	10.41
280.969	26.79
281.184	67.75
281.399	90.28
281.615	47.27
281.83	86.19
282.045	59.56
282.26	2.22
282.476	45.23
282.691	118.95
282.906	34.99
283.122	59.56
283.337	55.47
283.552	43.18
283.767	34.99
283.983	71.85
284.198	49.32
284.413	30.89
284.628	-30.55
284.843	-3.93
285.058	100.52
285.274	-22.36
285.489	14.51
285.704	47.27
285.919	84.14
286.134	92.33
286.349	94.38
286.564	28.84
286.779	71.85
286.995	24.75
287.21	-3.93
287.425	116.9
287.64	2.22
287.855	55.47
288.07	12.46
288.285	18.6
288.5	77.99
288.715	67.75
288.93	-8.02
289.145	34.99
289.36	135.34
289.575	-22.36
289.79	71.85
290.004	77.99
290.219	80.04
290.434	34.99
290.649	10.41
290.864	59.56
291.079	86.19
291.294	67.75
291.509	8.36
291.724	-34.64
291.938	75.95
292.153	10.41
292.368	32.94
292.583	32.94
292.798	59.56
293.012	65.71
293.227	39.08
293.442	30.89
293.657	26.79
293.871	6.31
294.086	98.47
294.301	61.61
294.516	102.57
294.73	6.31
294.945	37.03
295.16	51.37
295.374	2.22
295.589	16.55
295.804	37.03
296.018	67.75
296.233	67.75
296.447	12.46
296.662	-32.6
296.877	69.8
297.091	61.61
297.306	34.99
297.52	59.56
297.735	80.04
297.949	116.9
298.164	53.42
298.378	16.55
298.593	45.23
298.807	-71.51
299.022	86.19
299.236	102.57
299.451	18.6
299.665	20.65
299.88	45.23
300.094	75.95
300.309	43.18
300.523	63.66
300.737	65.71
300.952	4.27
301.166	41.13
301.381	-12.12
301.595	47.27
301.809	75.95
302.024	-8.02
302.238	-3.93
302.452	96.43
302.667	53.42
302.881	75.95
303.095	67.75
303.309	67.75
303.524	82.09
303.738	82.09
303.952	30.89
304.166	100.52
304.381	2.22
304.595	67.75
304.809	-18.26
305.023	47.27
305.237	51.37
305.452	59.56
305.666	75.95
305.88	57.51
306.094	63.66
306.308	102.57
306.522	73.9
306.736	43.18
306.95	39.08
307.164	94.38
307.379	10.41
307.593	86.19
307.807	84.14
308.021	12.46
308.235	45.23
308.449	-1.88
308.663	18.6
308.877	67.75
309.091	20.65
309.305	43.18
309.519	43.18
309.733	61.61
309.947	-36.69
310.161	30.89
310.374	-3.93
310.588	80.04
310.802	-44.88
311.016	-20.31
311.23	59.56
311.444	12.46
311.658	63.66
311.872	59.56
312.085	53.42
312.299	88.23
312.513	92.33
312.727	43.18
312.941	43.18
313.154	37.03
313.368	63.66
313.582	20.65
313.796	51.37
314.009	-10.07
314.223	141.48
314.437	80.04
314.651	37.03
314.864	67.75
315.078	-5.97
315.292	28.84
315.505	20.65
315.719	108.71
315.933	125.1
316.146	-30.55
316.36	82.09
316.573	59.56
316.787	-5.97
317.001	80.04
317.214	10.41
317.428	12.46
317.641	22.7
317.855	112.81
318.068	92.33
318.282	26.79
318.495	100.52
318.709	96.43
318.922	45.23
319.136	69.8
319.349	77.99
319.563	112.81
319.776	37.03
319.99	61.61
320.203	16.55
320.417	12.46
320.63	108.71
320.843	37.03
321.057	55.47
321.27	-3.93
321.483	88.23
321.697	32.94
321.91	-48.98
322.124	45.23
322.337	77.99
322.55	20.65
322.763	114.86
322.977	88.23
323.19	104.62
323.403	116.9
323.617	88.23
323.83	67.75
324.043	-1.88
324.256	-20.31
324.469	34.99
324.683	22.7
324.896	32.94
325.109	43.18
325.322	-40.79
325.535	12.46
325.748	0.17
325.962	45.23
326.175	47.27
326.388	55.47
326.601	59.56
326.814	84.14
327.027	43.18
327.24	90.28
327.453	14.51
327.666	26.79
327.879	61.61
328.092	59.56
328.305	51.37
328.518	100.52
328.731	84.14
328.944	61.61
329.157	28.84
329.37	4.27
329.583	37.03
329.796	71.85
330.009	18.6
330.222	-1.88
330.435	82.09
330.648	34.99
330.861	53.42
331.073	10.41
331.286	-14.17
331.499	16.55
331.712	53.42
331.925	32.94
332.138	59.56
332.35	108.71
332.563	34.99
332.776	137.38
332.989	-8.02
333.202	92.33
333.414	67.75
333.627	71.85
333.84	43.18
334.053	53.42
334.265	20.65
334.478	24.75
334.691	8.36
334.903	51.37
335.116	18.6
335.329	20.65
335.541	28.84
335.754	71.85
335.966	59.56
336.179	59.56
336.392	47.27
336.604	18.6
336.817	6.31
337.029	18.6
337.242	135.34
337.454	137.38
337.667	-20.31
337.88	116.9
338.092	26.79
338.305	92.33
338.517	-65.36
338.729	100.52
338.942	77.99
339.154	-14.17
339.367	22.7
339.579	80.04
339.792	41.13
340.004	55.47
340.217	49.32
340.429	59.56
340.641	100.52
340.854	67.75
341.066	45.23
341.278	10.41
341.491	59.56
341.703	108.71
341.915	-30.55
342.128	34.99
342.34	51.37
342.552	10.41
342.764	59.56
342.977	125.1
343.189	45.23
343.401	43.18
343.613	4.27
343.826	100.52
344.038	59.56
344.25	102.57
344.462	100.52
344.674	67.75
344.886	92.33
345.099	100.52
345.311	116.9
345.523	18.6
345.735	20.65
345.947	92.33
346.159	39.08
346.371	39.08
346.583	-32.6
346.795	80.04
347.007	69.8
347.219	77.99
347.431	37.03
347.643	51.37
347.855	34.99
348.067	57.51
348.279	39.08
348.491	10.41
348.703	98.47
348.915	51.37
349.127	12.46
349.339	141.48
349.551	26.79
349.763	45.23
349.975	139.43
350.187	149.67
350.399	47.27
350.61	75.95
350.822	47.27
351.034	92.33
351.246	96.43
351.458	45.23
351.669	51.37
351.881	59.56
352.093	129.19
352.305	34.99
352.517	18.6
352.728	94.38
352.94	55.47
353.152	39.08
353.363	57.51
353.575	51.37
353.787	77.99
353.999	47.27
354.21	92.33
354.422	-14.17
354.633	26.79
354.845	84.14
355.057	61.61
355.268	51.37
355.48	2.22
355.692	51.37
355.903	39.08
356.115	-14.17
356.326	22.7
356.538	75.95
356.749	32.94
356.961	67.75
357.172	20.65
357.384	69.8
357.595	88.23
357.807	16.55
358.018	145.58
358.23	-14.17
358.441	61.61
358.653	92.33
358.864	28.84
359.075	34.99
359.287	34.99
359.498	67.75
359.709	53.42
359.921	67.75
360.132	22.7
360.344	59.56
360.555	6.31
360.766	88.23
360.977	80.04
361.189	77.99
361.4	67.75
361.611	84.14
361.823	80.04
362.034	84.14
362.245	4.27
362.456	45.23
362.667	59.56
362.879	45.23
363.09	47.27
363.301	14.51
363.512	63.66
363.723	116.9
363.935	63.66
364.146	65.71
364.357	108.71
364.568	34.99
364.779	18.6
364.99	94.38
365.201	-1.88
365.412	59.56
365.623	43.18
365.834	67.75
366.045	106.67
366.256	133.29
366.467	73.9
366.678	37.03
366.889	26.79
367.1	59.56
367.311	-16.21
367.522	55.47
367.733	43.18
367.944	86.19
368.155	26.79
368.366	67.75
368.577	20.65
368.788	92.33
368.999	39.08
369.209	39.08
369.42	14.51
369.631	116.9
369.842	92.33
370.053	10.41
370.264	67.75
370.474	34.99
370.685	67.75
370.896	61.61
371.107	34.99
371.317	67.75
371.528	28.84
371.739	182.44
371.95	18.6
372.16	67.75
372.371	53.42
372.582	26.79
372.792	73.9
373.003	77.99
373.214	14.51
373.424	22.7
373.635	43.18
373.846	75.95
374.056	92.33
374.267	49.32
374.477	86.19
374.688	30.89
374.898	-5.97
375.109	43.18
375.319	106.67
375.53	53.42
375.74	94.38
375.951	37.03
376.161	67.75
376.372	86.19
376.582	-10.07
376.793	67.75
377.003	57.51
377.214	53.42
377.424	114.86
377.635	106.67
377.845	-20.31
378.055	94.38
378.266	26.79
378.476	92.33
378.686	43.18
378.897	77.99
379.107	182.44
379.317	77.99
379.528	45.23
379.738	159.91
379.948	18.6
380.158	127.14
380.369	-22.36
380.579	55.47
380.789	80.04
380.999	-30.55
381.21	69.8
381.42	98.47
381.63	59.56
381.84	80.04
382.05	39.08
382.261	-1.88
382.471	77.99
382.681	84.14
382.891	30.89
383.101	100.52
383.311	51.37
383.521	12.46
383.731	129.19
383.941	90.28
384.151	-5.97
384.361	51.37
384.571	114.86
384.781	28.84
384.991	96.43
385.201	34.99
385.411	118.95
385.621	92.33
385.831	73.9
386.041	123.05
386.251	47.27
386.461	82.09
386.671	39.08
386.881	65.71
387.091	53.42
387.301	75.95
387.511	14.51
387.72	86.19
387.93	118.95
388.14	51.37
388.35	69.8
388.56	77.99
388.769	80.04
388.979	14.51
389.189	18.6
389.399	24.75
389.609	166.06
389.818	69.8
390.028	92.33
390.238	100.52
390.447	39.08
390.657	100.52
390.867	86.19
391.076	71.85
391.286	59.56
391.496	45.23
391.705	53.42
391.915	34.99
392.125	96.43
392.334	108.71
392.544	34.99
392.753	84.14
392.963	61.61
393.172	77.99
393.382	4.27
393.591	127.14
393.801	45.23
394.01	77.99
394.22	125.1
394.429	39.08
394.639	86.19
394.848	67.75
395.058	59.56
395.267	112.81
395.477	127.14
395.686	61.61
395.895	133.29
396.105	141.48
396.314	186.54
396.524	73.9
396.733	155.82
396.942	159.91
397.152	92.33
397.361	104.62
397.57	84.14
397.78	80.04
397.989	116.9
398.198	116.9
398.407	104.62
398.617	100.52
398.826	116.9
399.035	77.99
399.244	108.71
399.453	86.19
399.663	71.85
399.872	133.29
400.081	102.57
400.29	116.9
400.499	-3.93
400.708	108.71
400.917	49.32
401.127	108.71
401.336	133.29
401.545	196.78
401.754	96.43
401.963	116.9
402.172	157.86
402.381	116.9
402.59	106.67
402.799	133.29
403.008	125.1
403.217	69.8
403.426	102.57
403.635	92.33
403.844	135.34
404.053	108.71
404.262	143.53
404.471	168.1
404.68	102.57
404.888	157.86
405.097	108.71
405.306	102.57
405.515	159.91
405.724	143.53
405.933	209.06
406.142	223.4
406.35	202.92
406.559	170.15
406.768	190.63
406.977	225.45
407.185	219.3
407.394	170.15
407.603	231.59
407.812	243.88
408.02	241.83
408.229	321.7
408.438	227.5
408.646	149.67
408.855	239.78
409.064	280.74
409.272	278.69
409.481	280.74
409.69	272.55
409.898	231.59
410.107	280.74
410.315	333.99
410.524	284.84
410.733	284.84
410.941	338.09
411.15	329.89
411.358	327.85
411.567	424.1
411.775	424.1
411.984	387.24
412.192	469.16
412.401	387.24
412.609	458.92
412.818	612.51
413.026	487.59
413.234	530.59
413.443	411.81
413.651	452.77
413.86	508.07
414.068	600.23
414.276	671.9
414.485	575.65
414.693	571.55
414.901	596.13
415.11	706.72
415.318	577.7
415.526	649.38
415.734	716.96
415.943	698.53
416.151	807.07
416.359	780.45
416.567	757.92
416.776	897.18
416.984	899.23
417.192	979.1
417.4	948.38
417.608	1001.63
417.817	1024.16
418.025	1075.35
418.233	1075.35
418.441	1030.3
418.649	1218.71
418.857	1159.32
419.065	1288.34
419.273	1286.3
419.481	1337.49
419.689	1329.3
419.897	1405.08
420.105	1396.89
420.313	1403.03
420.521	1556.63
420.729	1527.96
420.937	1540.24
421.145	1607.83
421.353	1781.9
421.561	1720.46
421.769	1831.05
421.977	1919.12
422.185	1990.8
422.393	1925.26
422.601	2314.38
422.809	2115.72
423.017	2197.64
423.224	2181.26
423.432	2312.33
423.64	2324.62
423.848	2525.32
424.056	2490.5
424.263	2590.85
424.471	2627.71
424.679	2746.5
424.887	2838.66
425.094	2912.38
425.302	2965.63
425.51	3029.12
425.718	3106.94
425.925	3133.56
426.133	3250.3
426.341	3559.54
426.548	3616.88
426.756	3715.19
426.964	3635.32
427.171	4003.95
427.379	3950.7
427.586	4089.96
427.794	4094.06
428.001	4366.44
428.209	4587.62
428.417	4548.71
428.624	4823.14
428.832	4827.23
429.039	4778.08
429.247	4739.17
429.454	5261.4
429.662	5498.97
429.869	5261.4
430.076	5550.17
430.284	5337.18
430.491	5838.93
430.699	5926.99
430.906	5957.71
431.114	6017.1
431.321	6170.7
431.528	6295.63
431.736	6830.15
431.943	7080
432.15	6944.83
432.358	7071.81
432.565	7319.61
432.772	7260.22
432.979	7639.09
433.187	7890.99
433.394	7960.63
433.601	8380.46
433.808	8288.3
434.016	8310.83
434.223	8810.53
434.43	9244.7
434.637	9191.45
434.844	9480.22
435.052	9932.82
435.259	9666.58
435.466	10096.66
435.673	9795.61
435.88	10498.06
436.087	10913.8
436.294	10993.67
436.501	10573.83
436.708	10635.27
436.915	11307.01
437.122	11882.49
437.329	11720.7
437.537	11819
437.743	12376.05
437.95	12021.75
438.157	12791.78
438.364	13311.97
438.571	13279.2
438.778	13193.19
438.985	14501.84
439.192	13961.17
439.399	14278.61
439.606	14043.09
439.813	14749.64
440.02	15566.78
440.227	15488.96
440.433	15271.87
440.64	15914.94
440.847	15681.47
441.054	15957.94
441.261	17237.92
441.467	16967.59
441.674	17168.29
441.881	17919.9
442.088	17584.03
442.294	17612.7
442.501	17942.42
442.708	18276.24
442.914	19257.22
443.121	20004.73
443.328	19634.05
443.534	20744.05
443.741	20539.25
443.948	19675.01
444.154	21583.71
444.361	21243.75
444.568	21317.48
444.774	21579.62
444.981	21501.79
445.187	22153.05
445.394	23385.93
445.6	22830.93
445.807	25321.26
446.013	23967.55
446.22	24518.45
446.426	25481
446.633	25585.44
446.839	26279.71
447.046	25450.28
447.252	26947.34
447.459	27031.31
447.665	26822.42
447.871	27985.66
448.078	29003.5
448.284	27707.14
448.491	28614.39
448.697	29562.6
448.903	30168.8
449.11	30643.93
449.316	29687.53
449.522	30056.16
449.728	30930.64
449.935	31377.1
450.141	31579.85
450.347	31952.58
450.553	31176.4
450.76	31678.15
450.966	32097.98
451.172	32296.64
451.378	32970.42
451.584	32544.44
451.791	33664.68
451.997	33246.9
452.203	33681.06
452.409	33674.92
452.615	33404.59
452.821	32300.73
453.027	31719.11
453.233	33861.29
453.44	32429.76
453.646	33040.05
453.852	32878.26
454.058	33558.19
454.264	32513.72
454.47	33451.69
454.676	32501.43
454.882	33404.59
455.088	30564.06
455.294	30979.79
455.5	31620.81
455.705	31919.81
455.911	30629.59
456.117	30086.88
456.323	30056.16
456.529	28141.31
456.735	29699.81
456.941	29114.09
457.147	28540.66
457.352	27569.93
457.558	27475.72
457.764	27481.86
457.97	26763.03
458.176	26169.12
458.381	26201.88
458.587	24987.44
458.793	25081.64
458.999	23666.5
459.204	25470.76
459.41	24653.62
459.616	23052.11
459.821	22880.08
460.027	22910.8
460.233	22554.45
460.438	21311.33
460.644	21612.38
460.85	20688.75
461.055	20463.47
461.261	20414.32
461.466	18610.06
461.672	18022.3
461.878	19287.94
462.083	18513.81
462.289	17942.42
462.494	17524.64
462.7	17239.97
462.905	16584.62
463.111	17209.25
463.316	16943.02
463.522	16846.76
463.727	16598.96
463.932	16648.11
464.138	16803.75
464.343	16725.93
464.549	16361.39
464.754	16652.2
464.959	16541.61
465.165	16256.95
465.37	15542.21
465.575	15288.26
465.781	15998.9
465.986	15978.42
466.191	15394.75
466.397	15163.33
466.602	14221.27
466.807	14800.84
467.012	14858.18
467.218	14772.17
467.423	14792.65
467.628	14673.87
