Data from USB4F104151__88__14-43-31-615.txt Node

Date: Thu Mar 13 14:43:31 EDT 2025
User: louis
Spectrometer: USB4F10415
Trigger mode: 4
Integration Time (sec): 2.000000E-2
Scans to average: 1
Electric dark correction enabled: true
Nonlinearity correction enabled: false
Boxcar width: 0
XAxis mode: Wavelengths
Number of Pixels in Spectrum: 3648
>>>>>Begin Spectral Data<<<<<
178.204	-121.34
178.424	-121.34
178.644	-121.34
178.864	-78.33
179.084	-154.11
179.304	-98.81
179.524	-14.85
179.744	22.02
179.964	101.89
180.184	13.82
180.404	-29.18
180.624	-20.99
180.844	17.92
181.064	-12.8
181.283	19.97
181.503	-23.04
181.723	24.06
181.943	-72.19
182.163	34.3
182.383	-31.23
182.602	17.92
182.822	-45.57
183.042	28.16
183.262	-27.14
183.482	17.92
183.701	77.31
183.921	-14.85
184.141	24.06
184.361	19.97
184.58	-55.81
184.8	52.74
185.02	-23.04
185.239	67.07
185.459	-35.33
185.679	62.98
185.898	-10.75
186.118	54.78
186.338	24.06
186.557	58.88
186.777	-31.23
186.997	13.82
187.216	-14.85
187.436	54.78
187.655	13.82
187.875	34.3
188.095	22.02
188.314	36.35
188.534	97.79
188.753	-6.66
188.973	-0.51
189.192	34.3
189.412	-29.18
189.631	-12.8
189.851	-25.09
190.07	26.11
190.29	26.11
190.509	26.11
190.729	-20.99
190.948	60.93
191.168	132.61
191.387	56.83
191.607	-76.29
191.826	-10.75
192.045	17.92
192.265	-25.09
192.484	52.74
192.704	34.3
192.923	-12.8
193.142	46.59
193.362	-72.19
193.581	19.97
193.8	75.26
194.02	-6.66
194.239	17.92
194.458	9.73
194.678	-49.66
194.897	36.35
195.116	15.87
195.335	-6.66
195.555	42.5
195.774	60.93
195.993	36.35
196.212	15.87
196.432	34.3
196.651	-20.99
196.87	26.11
197.089	91.65
197.308	112.13
197.528	44.54
197.747	71.17
197.966	85.5
198.185	108.03
198.404	-31.23
198.623	34.3
198.842	85.5
199.062	26.11
199.281	79.36
199.5	42.5
199.719	28.16
199.938	42.5
200.157	148.99
200.376	42.5
200.595	30.21
200.814	50.69
201.033	-31.23
201.252	34.3
201.471	65.02
201.69	157.18
201.909	62.98
202.128	89.6
202.347	132.61
202.566	46.59
202.785	77.31
203.004	7.68
203.223	112.13
203.442	60.93
203.661	-2.56
203.879	-8.7
204.098	34.3
204.317	50.69
204.536	3.58
204.755	85.5
204.974	69.12
205.193	-29.18
205.411	71.17
205.63	40.45
205.849	42.5
206.068	9.73
206.287	1.54
206.505	69.12
206.724	-59.9
206.943	-18.94
207.162	-12.8
207.381	19.97
207.599	15.87
207.818	11.78
208.037	81.41
208.255	52.74
208.474	42.5
208.693	34.3
208.911	-16.9
209.13	36.35
209.349	120.32
209.567	17.92
209.786	157.18
210.005	75.26
210.223	42.5
210.442	-14.85
210.661	-31.23
210.879	28.16
211.098	9.73
211.316	19.97
211.535	120.32
211.753	-6.66
211.972	34.3
212.191	9.73
212.409	-2.56
212.628	9.73
212.846	-59.9
213.065	26.11
213.283	28.16
213.502	9.73
213.72	58.88
213.938	11.78
214.157	91.65
214.375	28.16
214.594	42.5
214.812	52.74
215.031	-23.04
215.249	-20.99
215.467	105.98
215.686	17.92
215.904	28.16
216.122	42.5
216.341	34.3
216.559	30.21
216.778	73.21
216.996	67.07
217.214	-6.66
217.432	36.35
217.651	93.69
217.869	95.74
218.087	9.73
218.306	50.69
218.524	97.79
218.742	-20.99
218.96	95.74
219.179	75.26
219.397	36.35
219.615	32.26
219.833	44.54
220.051	13.82
220.27	60.93
220.488	81.41
220.706	116.22
220.924	67.07
221.142	-41.47
221.36	-14.85
221.578	34.3
221.796	34.3
222.015	-66.05
222.233	13.82
222.451	9.73
222.669	44.54
222.887	97.79
223.105	1.54
223.323	44.54
223.541	93.69
223.759	75.26
223.977	38.4
224.195	71.17
224.413	46.59
224.631	22.02
224.849	85.5
225.067	58.88
225.285	-37.38
225.503	1.54
225.721	-23.04
225.939	22.02
226.157	81.41
226.375	95.74
226.592	50.69
226.81	-25.09
227.028	62.98
227.246	67.07
227.464	42.5
227.682	60.93
227.9	52.74
228.117	124.41
228.335	-6.66
228.553	99.84
228.771	-0.51
228.989	44.54
229.206	60.93
229.424	85.5
229.642	67.07
229.86	-16.9
230.077	44.54
230.295	75.26
230.513	36.35
230.731	54.78
230.948	60.93
231.166	17.92
231.384	-14.85
231.601	-43.52
231.819	77.31
232.037	38.4
232.254	-64
232.472	-31.23
232.689	-45.57
232.907	36.35
233.125	-61.95
233.342	42.5
233.56	13.82
233.777	17.92
233.995	77.31
234.213	15.87
234.43	1.54
234.648	30.21
234.865	26.11
235.083	22.02
235.3	108.03
235.518	24.06
235.735	50.69
235.953	108.03
236.17	-47.62
236.388	19.97
236.605	32.26
236.822	34.3
237.04	17.92
237.257	36.35
237.475	13.82
237.692	71.17
237.909	-6.66
238.127	42.5
238.344	-45.57
238.562	-4.61
238.779	48.64
238.996	-2.56
239.214	15.87
239.431	71.17
239.648	36.35
239.865	50.69
240.083	105.98
240.3	15.87
240.517	50.69
240.735	71.17
240.952	67.07
241.169	73.21
241.386	22.02
241.603	42.5
241.821	-6.66
242.038	83.45
242.255	67.07
242.472	-0.51
242.689	108.03
242.907	58.88
243.124	105.98
243.341	75.26
243.558	9.73
243.775	60.93
243.992	9.73
244.209	24.06
244.426	130.56
244.643	79.36
244.86	1.54
245.078	-12.8
245.295	83.45
245.512	75.26
245.729	-45.57
245.946	30.21
246.163	130.56
246.38	-6.66
246.597	91.65
246.814	-39.42
247.031	5.63
247.248	62.98
247.464	5.63
247.681	-31.23
247.898	67.07
248.115	67.07
248.332	-12.8
248.549	62.98
248.766	32.26
248.983	30.21
249.2	-33.28
249.417	83.45
249.633	19.97
249.85	71.17
250.067	9.73
250.284	67.07
250.501	93.69
250.717	17.92
250.934	77.31
251.151	26.11
251.368	-23.04
251.585	19.97
251.801	58.88
252.018	9.73
252.235	1.54
252.451	71.17
252.668	-51.71
252.885	116.22
253.102	67.07
253.318	120.32
253.535	9.73
253.752	42.5
253.968	22.02
254.185	83.45
254.401	67.07
254.618	-2.56
254.835	58.88
255.051	108.03
255.268	5.63
255.484	75.26
255.701	71.17
255.917	42.5
256.134	-43.52
256.351	26.11
256.567	-27.14
256.784	44.54
257	60.93
257.217	-10.75
257.433	77.31
257.65	-43.52
257.866	126.46
258.082	26.11
258.299	56.83
258.515	42.5
258.732	42.5
258.948	54.78
259.165	69.12
259.381	13.82
259.597	52.74
259.814	28.16
260.03	19.97
260.246	-8.7
260.463	13.82
260.679	42.5
260.895	69.12
261.112	67.07
261.328	17.92
261.544	34.3
261.761	58.88
261.977	91.65
262.193	24.06
262.409	91.65
262.626	42.5
262.842	67.07
263.058	-25.09
263.274	99.84
263.49	83.45
263.707	101.89
263.923	54.78
264.139	-41.47
264.355	1.54
264.571	69.12
264.787	-6.66
265.004	56.83
265.22	30.21
265.436	-29.18
265.652	26.11
265.868	95.74
266.084	-8.7
266.3	5.63
266.516	17.92
266.732	56.83
266.948	30.21
267.164	1.54
267.38	42.5
267.596	67.07
267.812	17.92
268.028	34.3
268.244	44.54
268.46	87.55
268.676	75.26
268.892	69.12
269.108	52.74
269.324	42.5
269.54	-27.14
269.756	30.21
269.972	17.92
270.188	54.78
270.403	34.3
270.619	52.74
270.835	-2.56
271.051	30.21
271.267	50.69
271.483	-6.66
271.698	67.07
271.914	26.11
272.13	-2.56
272.346	95.74
272.562	5.63
272.777	62.98
272.993	-49.66
273.209	13.82
273.425	26.11
273.64	1.54
273.856	124.41
274.072	77.31
274.287	-4.61
274.503	-27.14
274.719	136.7
274.934	30.21
275.15	-16.9
275.366	-31.23
275.581	-2.56
275.797	-55.81
276.012	-37.38
276.228	-10.75
276.444	77.31
276.659	50.69
276.875	42.5
277.09	17.92
277.306	5.63
277.521	34.3
277.737	22.02
277.952	32.26
278.168	19.97
278.383	60.93
278.599	44.54
278.814	99.84
279.03	5.63
279.245	11.78
279.461	42.5
279.676	87.55
279.892	3.58
280.107	52.74
280.322	-33.28
280.538	30.21
280.753	79.36
280.969	67.07
281.184	42.5
281.399	44.54
281.615	-37.38
281.83	9.73
282.045	-59.9
282.26	9.73
282.476	22.02
282.691	-14.85
282.906	-0.51
283.122	9.73
283.337	-6.66
283.552	11.78
283.767	-45.57
283.983	108.03
284.198	95.74
284.413	32.26
284.628	75.26
284.843	28.16
285.058	24.06
285.274	-12.8
285.489	75.26
285.704	118.27
285.919	48.64
286.134	50.69
286.349	40.45
286.564	24.06
286.779	54.78
286.995	67.07
287.21	-59.9
287.425	17.92
287.64	3.58
287.855	19.97
288.07	-29.18
288.285	67.07
288.5	9.73
288.715	112.13
288.93	9.73
289.145	75.26
289.36	28.16
289.575	67.07
289.79	54.78
290.004	38.4
290.219	89.6
290.434	-53.76
290.649	-10.75
290.864	91.65
291.079	19.97
291.294	28.16
291.509	71.17
291.724	58.88
291.938	-20.99
292.153	-45.57
292.368	48.64
292.583	85.5
292.798	34.3
293.012	138.75
293.227	9.73
293.442	-35.33
293.657	128.51
293.871	17.92
294.086	11.78
294.301	71.17
294.516	9.73
294.73	26.11
294.945	1.54
295.16	-51.71
295.374	28.16
295.589	26.11
295.804	-37.38
296.018	91.65
296.233	-2.56
296.447	36.35
296.662	44.54
296.877	52.74
297.091	99.84
297.306	22.02
297.52	50.69
297.735	19.97
297.949	26.11
298.164	5.63
298.378	38.4
298.593	-29.18
298.807	60.93
299.022	42.5
299.236	91.65
299.451	34.3
299.665	38.4
299.88	71.17
300.094	30.21
300.309	-20.99
300.523	19.97
300.737	24.06
300.952	15.87
301.166	58.88
301.381	-23.04
301.595	101.89
301.809	44.54
302.024	42.5
302.238	26.11
302.452	46.59
302.667	36.35
302.881	99.84
303.095	75.26
303.309	75.26
303.524	62.98
303.738	5.63
303.952	58.88
304.166	44.54
304.381	9.73
304.595	89.6
304.809	44.54
305.023	34.3
305.237	-14.85
305.452	83.45
305.666	60.93
305.88	-27.14
306.094	87.55
306.308	93.69
306.522	26.11
306.736	9.73
306.95	40.45
307.164	1.54
307.379	-12.8
307.593	54.78
307.807	-27.14
308.021	58.88
308.235	9.73
308.449	9.73
308.663	50.69
308.877	144.89
309.091	40.45
309.305	1.54
309.519	11.78
309.733	99.84
309.947	-64
310.161	22.02
310.374	60.93
310.588	112.13
310.802	-18.94
311.016	58.88
311.23	28.16
311.444	67.07
311.658	58.88
311.872	22.02
312.085	-27.14
312.299	58.88
312.513	36.35
312.727	36.35
312.941	17.92
313.154	-4.61
313.368	60.93
313.582	28.16
313.796	95.74
314.009	1.54
314.223	71.17
314.437	26.11
314.651	28.16
314.864	-10.75
315.078	36.35
315.292	28.16
315.505	3.58
315.719	28.16
315.933	50.69
316.146	40.45
316.36	-29.18
316.573	134.65
316.787	-4.61
317.001	36.35
317.214	46.59
317.428	-14.85
317.641	142.85
317.855	17.92
318.068	81.41
318.282	9.73
318.495	13.82
318.709	9.73
318.922	-0.51
319.136	3.58
319.349	114.17
319.563	28.16
319.776	42.5
319.99	13.82
320.203	46.59
320.417	44.54
320.63	118.27
320.843	75.26
321.057	73.21
321.27	50.69
321.483	75.26
321.697	114.17
321.91	93.69
322.124	71.17
322.337	11.78
322.55	38.4
322.763	58.88
322.977	69.12
323.19	17.92
323.403	9.73
323.617	15.87
323.83	17.92
324.043	26.11
324.256	60.93
324.469	9.73
324.683	118.27
324.896	60.93
325.109	77.31
325.322	60.93
325.535	17.92
325.748	17.92
325.962	19.97
326.175	67.07
326.388	28.16
326.601	81.41
326.814	44.54
327.027	50.69
327.24	77.31
327.453	-2.56
327.666	134.65
327.879	50.69
328.092	108.03
328.305	54.78
328.518	75.26
328.731	30.21
328.944	1.54
329.157	67.07
329.37	30.21
329.583	132.61
329.796	75.26
330.009	52.74
330.222	13.82
330.435	-16.9
330.648	19.97
330.861	52.74
331.073	50.69
331.286	60.93
331.499	81.41
331.712	-51.71
331.925	60.93
332.138	58.88
332.35	75.26
332.563	62.98
332.776	75.26
332.989	-4.61
333.202	3.58
333.414	50.69
333.627	58.88
333.84	85.5
334.053	26.11
334.265	19.97
334.478	71.17
334.691	71.17
334.903	42.5
335.116	9.73
335.329	103.93
335.541	-20.99
335.754	126.46
335.966	38.4
336.179	124.41
336.392	75.26
336.604	99.84
336.817	42.5
337.029	69.12
337.242	19.97
337.454	85.5
337.667	-23.04
337.88	75.26
338.092	110.08
338.305	99.84
338.517	-6.66
338.729	42.5
338.942	-35.33
339.154	34.3
339.367	30.21
339.579	22.02
339.792	34.3
340.004	22.02
340.217	48.64
340.429	77.31
340.641	26.11
340.854	19.97
341.066	19.97
341.278	71.17
341.491	132.61
341.703	17.92
341.915	38.4
342.128	60.93
342.34	28.16
342.552	32.26
342.764	71.17
342.977	17.92
343.189	91.65
343.401	-25.09
343.613	58.88
343.826	28.16
344.038	11.78
344.25	-6.66
344.462	17.92
344.674	34.3
344.886	38.4
345.099	26.11
345.311	58.88
345.523	-55.81
345.735	7.68
345.947	17.92
346.159	3.58
346.371	79.36
346.583	75.26
346.795	58.88
347.007	15.87
347.219	3.58
347.431	-51.71
347.643	28.16
347.855	58.88
348.067	62.98
348.279	9.73
348.491	7.68
348.703	58.88
348.915	15.87
349.127	42.5
349.339	17.92
349.551	1.54
349.763	110.08
349.975	71.17
350.187	67.07
350.399	62.98
350.61	7.68
350.822	9.73
351.034	62.98
351.246	-20.99
351.458	-12.8
351.669	73.21
351.881	32.26
352.093	124.41
352.305	108.03
352.517	91.65
352.728	52.74
352.94	67.07
353.152	134.65
353.363	40.45
353.575	9.73
353.787	32.26
353.999	-4.61
354.21	132.61
354.422	67.07
354.633	1.54
354.845	97.79
355.057	124.41
355.268	50.69
355.48	24.06
355.692	75.26
355.903	30.21
356.115	91.65
356.326	-2.56
356.538	85.5
356.749	1.54
356.961	52.74
357.172	38.4
357.384	69.12
357.595	124.41
357.807	124.41
358.018	-27.14
358.23	34.3
358.441	19.97
358.653	11.78
358.864	7.68
359.075	-6.66
359.287	65.02
359.498	22.02
359.709	75.26
359.921	11.78
360.132	3.58
360.344	50.69
360.555	19.97
360.766	67.07
360.977	77.31
361.189	46.59
361.4	36.35
361.611	91.65
361.823	-2.56
362.034	-51.71
362.245	3.58
362.456	95.74
362.667	50.69
362.879	108.03
363.09	9.73
363.301	85.5
363.512	3.58
363.723	89.6
363.935	83.45
364.146	46.59
364.357	19.97
364.568	85.5
364.779	32.26
364.99	75.26
365.201	30.21
365.412	62.98
365.623	52.74
365.834	60.93
366.045	77.31
366.256	58.88
366.467	38.4
366.678	81.41
366.889	7.68
367.1	-23.04
367.311	34.3
367.522	62.98
367.733	36.35
367.944	108.03
368.155	-12.8
368.366	71.17
368.577	75.26
368.788	42.5
368.999	54.78
369.209	13.82
369.42	67.07
369.631	85.5
369.842	52.74
370.053	60.93
370.264	128.51
370.474	-47.62
370.685	122.37
370.896	22.02
371.107	108.03
371.317	36.35
371.528	-29.18
371.739	108.03
371.95	42.5
372.16	87.55
372.371	50.69
372.582	52.74
372.792	54.78
373.003	1.54
373.214	69.12
373.424	75.26
373.635	40.45
373.846	108.03
374.056	17.92
374.267	75.26
374.477	-6.66
374.688	46.59
374.898	24.06
375.109	42.5
375.319	17.92
375.53	95.74
375.74	11.78
375.951	-57.86
376.161	81.41
376.372	161.28
376.582	-23.04
376.793	34.3
377.003	30.21
377.214	13.82
377.424	17.92
377.635	67.07
377.845	67.07
378.055	36.35
378.266	83.45
378.476	62.98
378.686	22.02
378.897	-23.04
379.107	67.07
379.317	93.69
379.528	42.5
379.738	75.26
379.948	11.78
380.158	36.35
380.369	34.3
380.579	34.3
380.789	19.97
380.999	22.02
381.21	19.97
381.42	44.54
381.63	110.08
381.84	52.74
382.05	5.63
382.261	75.26
382.471	71.17
382.681	-27.14
382.891	26.11
383.101	62.98
383.311	-39.42
383.521	60.93
383.731	75.26
383.941	62.98
384.151	36.35
384.361	26.11
384.571	69.12
384.781	101.89
384.991	50.69
385.201	69.12
385.411	62.98
385.621	85.5
385.831	34.3
386.041	38.4
386.251	13.82
386.461	97.79
386.671	79.36
386.881	83.45
387.091	75.26
387.301	38.4
387.511	17.92
387.72	22.02
387.93	110.08
388.14	60.93
388.35	13.82
388.56	75.26
388.769	101.89
388.979	40.45
389.189	26.11
389.399	75.26
389.609	30.21
389.818	73.21
390.028	-2.56
390.238	75.26
390.447	79.36
390.657	159.23
390.867	42.5
391.076	13.82
391.286	58.88
391.496	85.5
391.705	38.4
391.915	91.65
392.125	83.45
392.334	17.92
392.544	67.07
392.753	44.54
392.963	60.93
393.172	54.78
393.382	69.12
393.591	99.84
393.801	60.93
394.01	95.74
394.22	1.54
394.429	112.13
394.639	13.82
394.848	83.45
395.058	128.51
395.267	28.16
395.477	108.03
395.686	91.65
395.895	128.51
396.105	134.65
396.314	83.45
396.524	99.84
396.733	56.83
396.942	83.45
397.152	69.12
397.361	108.03
397.57	124.41
397.78	67.07
397.989	130.56
398.198	153.09
398.407	132.61
398.617	110.08
398.826	101.89
399.035	58.88
399.244	116.22
399.453	140.8
399.663	99.84
399.872	198.14
400.081	71.17
400.29	169.47
400.499	71.17
400.708	87.55
400.917	144.89
401.127	83.45
401.336	171.52
401.545	173.57
401.754	134.65
401.963	183.81
402.172	132.61
402.381	-6.66
402.59	159.23
402.799	126.46
403.008	155.13
403.217	157.18
403.426	153.09
403.635	167.42
403.844	136.7
404.053	83.45
404.262	91.65
404.471	173.57
404.68	204.28
404.888	105.98
405.097	138.75
405.306	165.37
405.515	257.53
405.724	206.33
405.933	200.19
406.142	173.57
406.35	134.65
406.559	208.38
406.768	173.57
406.977	222.72
407.185	126.46
407.394	249.34
407.603	206.33
407.812	206.33
408.02	230.91
408.229	192
408.438	194.05
408.646	206.33
408.855	189.95
409.064	314.88
409.272	263.68
409.481	304.64
409.69	275.96
409.898	278.01
410.107	288.25
410.315	249.34
410.524	263.68
410.733	333.31
410.941	323.07
411.15	329.21
411.358	388.6
411.567	419.32
411.775	409.08
411.984	394.75
412.192	429.56
412.401	460.28
412.609	503.29
412.818	525.82
413.026	493.05
413.234	527.86
413.443	517.62
413.651	550.39
413.86	570.87
414.068	615.93
414.276	673.27
414.485	609.78
414.693	724.47
414.901	716.28
415.11	677.37
415.318	685.56
415.526	730.61
415.734	693.75
415.943	781.81
416.151	820.72
416.359	792.05
416.567	880.11
416.776	833.01
416.984	937.46
417.192	992.75
417.4	939.51
417.608	972.27
417.817	937.46
418.025	1017.33
418.233	1162.73
418.441	1193.45
418.649	1125.87
418.857	1195.5
419.065	1328.62
419.273	1218.03
419.481	1365.48
419.689	1388.01
419.897	1508.84
420.105	1435.11
420.313	1533.42
420.521	1631.72
420.729	1660.39
420.937	1609.19
421.145	1633.77
421.353	1844.71
421.561	1889.76
421.769	1828.32
421.977	2192.86
422.185	2102.75
422.393	2172.38
422.601	2270.69
422.809	2231.77
423.017	2205.15
423.224	2250.21
423.432	2483.67
423.64	2362.84
423.848	2661.85
424.056	2524.63
424.263	2887.12
424.471	2829.78
424.679	2885.08
424.887	3007.95
425.094	3177.94
425.302	3098.06
425.51	3302.86
425.718	3286.48
425.925	3329.49
426.133	3442.12
426.341	3745.22
426.548	3716.55
426.756	3761.61
426.964	3853.77
427.171	4097.47
427.379	4140.48
427.586	4281.79
427.794	4449.72
428.001	4523.45
428.209	4892.09
428.417	4728.25
428.624	5121.46
428.832	5051.83
429.039	5088.69
429.247	5109.17
429.454	5524.91
429.662	5997.99
429.869	5596.59
430.076	5928.36
430.284	5803.43
430.491	6055.33
430.699	6417.82
430.906	6325.66
431.114	6319.52
431.321	6489.5
431.528	6856.09
431.736	7052.69
431.943	7533.97
432.15	7255.44
432.358	7398.8
432.565	7880.07
432.772	7712.14
432.979	8107.4
433.187	8347.01
433.394	8318.34
433.601	8979.83
433.808	8697.21
434.016	8899.96
434.223	9256.31
434.43	9751.92
434.637	9676.14
434.844	10239.33
435.052	10472.8
435.259	10440.03
435.466	10427.74
435.673	10423.65
435.88	11068.76
436.087	11535.7
436.294	11425.11
436.501	11087.19
436.708	11521.36
436.915	11889.99
437.122	12465.47
437.329	12401.99
437.537	12789.05
437.743	13002.04
437.95	12686.65
438.157	13436.21
438.364	13983.02
438.571	13995.31
438.778	14038.31
438.985	15252.76
439.192	14716.19
439.399	15306.01
439.606	14673.18
439.813	15953.16
440.02	16766.21
440.227	16168.2
440.433	16420.1
440.64	16643.33
440.847	16426.25
441.054	16968.96
441.261	18167.02
441.467	17769.71
441.674	18132.2
441.881	18846.94
442.088	19014.88
442.294	18461.93
442.501	19453.14
442.708	19354.84
442.914	20378.83
443.121	21040.32
443.328	20317.39
443.534	21970.1
443.741	21474.49
443.948	20946.11
444.154	22678.69
444.361	22150.32
444.568	22701.22
444.774	22588.58
444.981	22910.11
445.187	23487.64
445.394	24450.19
445.6	24147.09
445.807	26668.14
446.013	25355.39
446.22	25777.27
446.426	27047.01
446.633	27008.1
446.839	28003.41
447.046	26643.56
447.252	28427.34
447.459	28615.76
447.665	28296.27
447.871	29359.17
448.078	30704.68
448.284	29457.47
448.491	30153.78
448.697	31560.73
448.903	31681.56
449.11	31736.86
449.316	31710.24
449.522	32062.49
449.728	32920.59
449.935	33180.68
450.141	33053.7
450.347	34124.79
450.553	32654.35
450.76	33377.28
450.966	34403.32
451.172	34008.06
451.378	35015.66
451.584	34329.59
451.791	35253.22
451.997	34903.02
452.203	35634.14
452.409	35650.53
452.615	35634.14
452.821	34096.12
453.027	33903.61
453.233	35648.48
453.44	34081.78
453.646	34513.91
453.852	35001.32
454.058	35011.56
454.264	34628.59
454.47	34993.13
454.676	34126.84
454.882	35374.05
455.088	32179.22
455.294	32992.26
455.5	33360.9
455.705	33881.08
455.911	32289.81
456.117	32023.58
456.323	31417.38
456.529	29989.94
456.735	31325.22
456.941	30141.49
457.147	29662.27
457.352	28986.44
457.558	28529.74
457.764	28728.39
457.97	28210.26
458.176	27763.8
458.381	27716.7
458.587	26309.74
458.793	26360.94
458.999	25056.39
459.204	27159.65
459.41	26158.19
459.616	24714.37
459.821	24179.86
460.027	24433.8
460.233	24181.9
460.438	22650.02
460.644	23110.82
460.85	21777.59
461.055	21505.21
461.261	21466.3
461.466	19885.26
461.672	19172.57
461.878	20741.32
462.083	19227.87
462.289	18920.67
462.494	18945.25
462.7	17943.79
462.905	17566.96
463.111	18027.76
463.316	17755.38
463.522	17605.88
463.727	17718.51
463.932	17859.82
464.138	17360.12
464.343	17607.92
464.549	16839.94
464.754	17616.12
464.959	17470.71
465.165	17396.98
465.37	16835.84
465.575	16069.9
465.781	16983.29
465.986	16786.69
466.191	16239.88
466.397	15881.49
466.602	14978.33
466.807	15754.51
467.012	15996.17
467.218	15721.74
467.423	15482.13
467.628	15676.69
467.833	16254.22
