Data from USB4F104151__49__14-43-05-542.txt Node

Date: Thu Mar 13 14:43:05 EDT 2025
User: louis
Spectrometer: USB4F10415
Trigger mode: 4
Integration Time (sec): 2.000000E-2
Scans to average: 1
Electric dark correction enabled: true
Nonlinearity correction enabled: false
Boxcar width: 0
XAxis mode: Wavelengths
Number of Pixels in Spectrum: 3648
>>>>>Begin Spectral Data<<<<<
178.204	-100.18
178.424	-100.18
178.644	-100.18
178.864	-141.14
179.084	-67.41
179.304	6.31
179.524	-65.36
179.744	-26.45
179.964	-22.36
180.184	-22.36
180.404	49.32
180.624	2.22
180.844	39.08
181.064	-5.97
181.283	61.61
181.503	-63.32
181.723	47.27
181.943	-16.21
182.163	47.27
182.383	14.51
182.602	57.51
182.822	77.99
183.042	104.62
183.262	63.66
183.482	20.65
183.701	16.55
183.921	34.99
184.141	-51.03
184.361	41.13
184.58	104.62
184.8	63.66
185.02	-16.21
185.239	98.47
185.459	18.6
185.679	82.09
185.898	34.99
186.118	106.67
186.338	-20.31
186.557	63.66
186.777	22.7
186.997	-38.74
187.216	28.84
187.436	24.75
187.655	82.09
187.875	65.71
188.095	41.13
188.314	-16.21
188.534	75.95
188.753	-63.32
188.973	88.23
189.192	63.66
189.412	-20.31
189.631	-8.02
189.851	-10.07
190.07	121
190.29	24.75
190.509	63.66
190.729	-34.64
190.948	51.37
191.168	137.38
191.387	32.94
191.607	18.6
191.826	71.85
192.045	75.95
192.265	-18.26
192.484	14.51
192.704	51.37
192.923	43.18
193.142	123.05
193.362	30.89
193.581	-5.97
193.8	10.41
194.02	80.04
194.239	100.52
194.458	94.38
194.678	51.37
194.897	32.94
195.116	75.95
195.335	51.37
195.555	2.22
195.774	34.99
195.993	47.27
196.212	22.7
196.432	-63.32
196.651	55.47
196.87	-22.36
197.089	129.19
197.308	6.31
197.528	-32.6
197.747	18.6
197.966	47.27
198.185	59.56
198.404	75.95
198.623	28.84
198.842	57.51
199.062	86.19
199.281	26.79
199.5	-59.22
199.719	14.51
199.938	51.37
200.157	98.47
200.376	30.89
200.595	73.9
200.814	-42.84
201.033	-51.03
201.252	112.81
201.471	-16.21
201.69	14.51
201.909	26.79
202.128	88.23
202.347	18.6
202.566	-16.21
202.785	12.46
203.004	0.17
203.223	75.95
203.442	32.94
203.661	65.71
203.879	6.31
204.098	-18.26
204.317	10.41
204.536	-10.07
204.755	43.18
204.974	73.9
205.193	73.9
205.411	155.82
205.63	26.79
205.849	51.37
206.068	80.04
206.287	-5.97
206.505	63.66
206.724	34.99
206.943	8.36
207.162	-8.02
207.381	43.18
207.599	-1.88
207.818	4.27
208.037	30.89
208.255	10.41
208.474	84.14
208.693	63.66
208.911	65.71
209.13	43.18
209.349	69.8
209.567	110.76
209.786	34.99
210.005	26.79
210.223	106.67
210.442	-14.17
210.661	145.58
210.879	-26.45
211.098	55.47
211.316	8.36
211.535	61.61
211.753	88.23
211.972	51.37
212.191	-26.45
212.409	-28.5
212.628	41.13
212.846	41.13
213.065	-5.97
213.283	39.08
213.502	10.41
213.72	121
213.938	4.27
214.157	-1.88
214.375	49.32
214.594	32.94
214.812	112.81
215.031	-46.93
215.249	86.19
215.467	123.05
215.686	92.33
215.904	-32.6
216.122	-14.17
216.341	96.43
216.559	39.08
216.778	86.19
216.996	-10.07
217.214	41.13
217.432	63.66
217.651	-24.4
217.869	-48.98
218.087	98.47
218.306	-14.17
218.524	14.51
218.742	10.41
218.96	-12.12
219.179	12.46
219.397	-1.88
219.615	51.37
219.833	-40.79
220.051	-16.21
220.27	32.94
220.488	18.6
220.706	18.6
220.924	16.55
221.142	-3.93
221.36	37.03
221.578	-24.4
221.796	-10.07
222.015	47.27
222.233	18.6
222.451	39.08
222.669	30.89
222.887	88.23
223.105	34.99
223.323	2.22
223.541	133.29
223.759	106.67
223.977	59.56
224.195	71.85
224.413	55.47
224.631	-5.97
224.849	71.85
225.067	114.86
225.285	30.89
225.503	47.27
225.721	-36.69
225.939	0.17
226.157	24.75
226.375	141.48
226.592	47.27
226.81	-8.02
227.028	73.9
227.246	59.56
227.464	18.6
227.682	-1.88
227.9	-34.64
228.117	22.7
228.335	98.47
228.553	28.84
228.771	-20.31
228.989	59.56
229.206	59.56
229.424	98.47
229.642	-10.07
229.86	-24.4
230.077	24.75
230.295	71.85
230.513	18.6
230.731	47.27
230.948	71.85
231.166	88.23
231.384	-1.88
231.601	71.85
231.819	57.51
232.037	10.41
232.254	-18.26
232.472	24.75
232.689	10.41
232.907	121
233.125	-18.26
233.342	82.09
233.56	30.89
233.777	37.03
233.995	96.43
234.213	30.89
234.43	47.27
234.648	57.51
234.865	4.27
235.083	80.04
235.3	39.08
235.518	112.81
235.735	16.55
235.953	26.79
236.17	-51.03
236.388	82.09
236.605	-18.26
236.822	57.51
237.04	41.13
237.257	34.99
237.475	22.7
237.692	90.28
237.909	-10.07
238.127	47.27
238.344	-16.21
238.562	34.99
238.779	30.89
238.996	6.31
239.214	49.32
239.431	170.15
239.648	-1.88
239.865	73.9
240.083	63.66
240.3	-14.17
240.517	-26.45
240.735	45.23
240.952	61.61
241.169	49.32
241.386	14.51
241.603	73.9
241.821	51.37
242.038	61.61
242.255	161.96
242.472	8.36
242.689	69.8
242.907	123.05
243.124	121
243.341	-51.03
243.558	61.61
243.775	20.65
243.992	59.56
244.209	59.56
244.426	96.43
244.643	39.08
244.86	96.43
245.078	14.51
245.295	8.36
245.512	49.32
245.729	55.47
245.946	121
246.163	49.32
246.38	125.1
246.597	0.17
246.814	49.32
247.031	47.27
247.248	2.22
247.464	90.28
247.681	71.85
247.898	55.47
248.115	112.81
248.332	47.27
248.549	100.52
248.766	57.51
248.983	71.85
249.2	16.55
249.417	96.43
249.633	14.51
249.85	98.47
250.067	73.9
250.284	129.19
250.501	127.14
250.717	18.6
250.934	-18.26
251.151	43.18
251.368	-14.17
251.585	57.51
251.801	2.22
252.018	43.18
252.235	49.32
252.451	-14.17
252.668	-5.97
252.885	37.03
253.102	32.94
253.318	10.41
253.535	30.89
253.752	34.99
253.968	65.71
254.185	12.46
254.401	-26.45
254.618	114.86
254.835	-28.5
255.051	112.81
255.268	16.55
255.484	12.46
255.701	47.27
255.917	116.9
256.134	14.51
256.351	100.52
256.567	-1.88
256.784	55.47
257	26.79
257.217	53.42
257.433	92.33
257.65	86.19
257.866	84.14
258.082	30.89
258.299	4.27
258.515	65.71
258.732	32.94
258.948	88.23
259.165	39.08
259.381	-18.26
259.597	20.65
259.814	90.28
260.03	22.7
260.246	41.13
260.463	24.75
260.679	26.79
260.895	63.66
261.112	98.47
261.328	6.31
261.544	16.55
261.761	121
261.977	-10.07
262.193	63.66
262.409	67.75
262.626	14.51
262.842	51.37
263.058	16.55
263.274	104.62
263.49	22.7
263.707	137.38
263.923	30.89
264.139	-8.02
264.355	4.27
264.571	94.38
264.787	55.47
265.004	34.99
265.22	-14.17
265.436	16.55
265.652	34.99
265.868	39.08
266.084	65.71
266.3	94.38
266.516	34.99
266.732	63.66
266.948	59.56
267.164	-18.26
267.38	43.18
267.596	63.66
267.812	67.75
268.028	-30.55
268.244	32.94
268.46	47.27
268.676	41.13
268.892	55.47
269.108	16.55
269.324	47.27
269.54	-63.32
269.756	43.18
269.972	71.85
270.188	14.51
270.403	26.79
270.619	32.94
270.835	98.47
271.051	8.36
271.267	37.03
271.483	30.89
271.698	73.9
271.914	39.08
272.13	53.42
272.346	49.32
272.562	-26.45
272.777	49.32
272.993	18.6
273.209	-63.32
273.425	59.56
273.64	-10.07
273.856	55.47
274.072	10.41
274.287	2.22
274.503	39.08
274.719	18.6
274.934	90.28
275.15	14.51
275.366	73.9
275.581	-22.36
275.797	73.9
276.012	-30.55
276.228	30.89
276.444	41.13
276.659	67.75
276.875	-24.4
277.09	63.66
277.306	-28.5
277.521	67.75
277.737	39.08
277.952	80.04
278.168	55.47
278.383	22.7
278.599	96.43
278.814	67.75
279.03	41.13
279.245	45.23
279.461	47.27
279.676	16.55
279.892	-42.84
280.107	-8.02
280.322	-38.74
280.538	106.67
280.753	-30.55
280.969	28.84
281.184	137.38
281.399	90.28
281.615	112.81
281.83	65.71
282.045	22.7
282.26	51.37
282.476	16.55
282.691	30.89
282.906	-28.5
283.122	80.04
283.337	16.55
283.552	59.56
283.767	-1.88
283.983	100.52
284.198	18.6
284.413	-34.64
284.628	-20.31
284.843	6.31
285.058	6.31
285.274	96.43
285.489	-5.97
285.704	49.32
285.919	51.37
286.134	47.27
286.349	2.22
286.564	8.36
286.779	32.94
286.995	47.27
287.21	65.71
287.425	71.85
287.64	16.55
287.855	2.22
288.07	-10.07
288.285	-1.88
288.5	14.51
288.715	32.94
288.93	-5.97
289.145	32.94
289.36	30.89
289.575	-1.88
289.79	10.41
290.004	82.09
290.219	30.89
290.434	39.08
290.649	6.31
290.864	-42.84
291.079	14.51
291.294	75.95
291.509	63.66
291.724	63.66
291.938	2.22
292.153	43.18
292.368	67.75
292.583	47.27
292.798	-3.93
293.012	39.08
293.227	39.08
293.442	-8.02
293.657	67.75
293.871	121
294.086	80.04
294.301	88.23
294.516	41.13
294.73	43.18
294.945	18.6
295.16	39.08
295.374	57.51
295.589	-34.64
295.804	43.18
296.018	18.6
296.233	59.56
296.447	55.47
296.662	-1.88
296.877	24.75
297.091	2.22
297.306	22.7
297.52	-16.21
297.735	59.56
297.949	77.99
298.164	47.27
298.378	14.51
298.593	2.22
298.807	-14.17
299.022	-32.6
299.236	45.23
299.451	-1.88
299.665	2.22
299.88	116.9
300.094	39.08
300.309	18.6
300.523	71.85
300.737	129.19
300.952	34.99
301.166	53.42
301.381	-42.84
301.595	82.09
301.809	32.94
302.024	22.7
302.238	67.75
302.452	14.51
302.667	37.03
302.881	145.58
303.095	2.22
303.309	112.81
303.524	-51.03
303.738	80.04
303.952	41.13
304.166	84.14
304.381	49.32
304.595	96.43
304.809	37.03
305.023	92.33
305.237	16.55
305.452	90.28
305.666	30.89
305.88	125.1
306.094	59.56
306.308	67.75
306.522	84.14
306.736	10.41
306.95	16.55
307.164	-10.07
307.379	22.7
307.593	114.86
307.807	84.14
308.021	73.9
308.235	22.7
308.449	-42.84
308.663	86.19
308.877	145.58
309.091	16.55
309.305	-8.02
309.519	-24.4
309.733	-10.07
309.947	32.94
310.161	-24.4
310.374	22.7
310.588	34.99
310.802	14.51
311.016	55.47
311.23	39.08
311.444	67.75
311.658	6.31
311.872	55.47
312.085	16.55
312.299	8.36
312.513	39.08
312.727	55.47
312.941	-51.03
313.154	30.89
313.368	39.08
313.582	-32.6
313.796	22.7
314.009	-14.17
314.223	96.43
314.437	59.56
314.651	14.51
314.864	-8.02
315.078	6.31
315.292	84.14
315.505	10.41
315.719	67.75
315.933	121
316.146	65.71
316.36	-46.93
316.573	69.8
316.787	90.28
317.001	71.85
317.214	12.46
317.428	153.77
317.641	8.36
317.855	41.13
318.068	57.51
318.282	24.75
318.495	137.38
318.709	63.66
318.922	8.36
319.136	100.52
319.349	59.56
319.563	55.47
319.776	59.56
319.99	59.56
320.203	80.04
320.417	22.7
320.63	18.6
320.843	43.18
321.057	80.04
321.27	-1.88
321.483	86.19
321.697	65.71
321.91	63.66
322.124	55.47
322.337	84.14
322.55	-16.21
322.763	-10.07
322.977	-30.55
323.19	39.08
323.403	53.42
323.617	18.6
323.83	24.75
324.043	14.51
324.256	112.81
324.469	22.7
324.683	39.08
324.896	0.17
325.109	24.75
325.322	-40.79
325.535	47.27
325.748	80.04
325.962	-10.07
326.175	39.08
326.388	86.19
326.601	20.65
326.814	14.51
327.027	51.37
327.24	96.43
327.453	47.27
327.666	86.19
327.879	82.09
328.092	104.62
328.305	77.99
328.518	80.04
328.731	63.66
328.944	43.18
329.157	88.23
329.37	39.08
329.583	51.37
329.796	88.23
330.009	49.32
330.222	-24.4
330.435	112.81
330.648	10.41
330.861	32.94
331.073	51.37
331.286	-22.36
331.499	51.37
331.712	75.95
331.925	18.6
332.138	47.27
332.35	104.62
332.563	8.36
332.776	26.79
332.989	55.47
333.202	-55.12
333.414	26.79
333.627	82.09
333.84	16.55
334.053	39.08
334.265	100.52
334.478	-34.64
334.691	51.37
334.903	116.9
335.116	41.13
335.329	22.7
335.541	88.23
335.754	80.04
335.966	2.22
336.179	121
336.392	96.43
336.604	26.79
336.817	137.38
337.029	77.99
337.242	34.99
337.454	84.14
337.667	71.85
337.88	24.75
338.092	55.47
338.305	98.47
338.517	-5.97
338.729	6.31
338.942	47.27
339.154	-14.17
339.367	14.51
339.579	110.76
339.792	-5.97
340.004	80.04
340.217	41.13
340.429	49.32
340.641	75.95
340.854	-71.51
341.066	-40.79
341.278	86.19
341.491	39.08
341.703	88.23
341.915	26.79
342.128	39.08
342.34	26.79
342.552	2.22
342.764	-8.02
342.977	84.14
343.189	39.08
343.401	59.56
343.613	22.7
343.826	104.62
344.038	47.27
344.25	26.79
344.462	32.94
344.674	47.27
344.886	0.17
345.099	63.66
345.311	30.89
345.523	39.08
345.735	-32.6
345.947	63.66
346.159	28.84
346.371	90.28
346.583	88.23
346.795	59.56
347.007	73.9
347.219	59.56
347.431	49.32
347.643	80.04
347.855	12.46
348.067	106.67
348.279	51.37
348.491	34.99
348.703	67.75
348.915	88.23
349.127	96.43
349.339	63.66
349.551	32.94
349.763	0.17
349.975	51.37
350.187	141.48
350.399	102.57
350.61	6.31
350.822	-26.45
351.034	39.08
351.246	100.52
351.458	16.55
351.669	92.33
351.881	24.75
352.093	88.23
352.305	80.04
352.517	71.85
352.728	135.34
352.94	18.6
353.152	24.75
353.363	59.56
353.575	121
353.787	112.81
353.999	63.66
354.21	116.9
354.422	14.51
354.633	59.56
354.845	82.09
355.057	49.32
355.268	145.58
355.48	88.23
355.692	-24.4
355.903	63.66
356.115	16.55
356.326	69.8
356.538	30.89
356.749	-20.31
356.961	96.43
357.172	96.43
357.384	32.94
357.595	108.71
357.807	43.18
358.018	82.09
358.23	63.66
358.441	96.43
358.653	57.51
358.864	59.56
359.075	-32.6
359.287	24.75
359.498	30.89
359.709	84.14
359.921	127.14
360.132	34.99
360.344	16.55
360.555	24.75
360.766	49.32
360.977	16.55
361.189	108.71
361.4	34.99
361.611	32.94
361.823	39.08
362.034	39.08
362.245	-1.88
362.456	45.23
362.667	96.43
362.879	-32.6
363.09	55.47
363.301	82.09
363.512	6.31
363.723	-1.88
363.935	30.89
364.146	116.9
364.357	22.7
364.568	-16.21
364.779	77.99
364.99	159.91
365.201	-24.4
365.412	96.43
365.623	32.94
365.834	34.99
366.045	49.32
366.256	67.75
366.467	-26.45
366.678	18.6
366.889	41.13
367.1	88.23
367.311	47.27
367.522	30.89
367.733	90.28
367.944	28.84
368.155	-22.36
368.366	24.75
368.577	30.89
368.788	55.47
368.999	71.85
369.209	104.62
369.42	125.1
369.631	67.75
369.842	73.9
370.053	63.66
370.264	49.32
370.474	16.55
370.685	30.89
370.896	80.04
371.107	51.37
371.317	112.81
371.528	88.23
371.739	47.27
371.95	73.9
372.16	75.95
372.371	2.22
372.582	94.38
372.792	63.66
373.003	43.18
373.214	100.52
373.424	92.33
373.635	49.32
373.846	100.52
374.056	43.18
374.267	153.77
374.477	104.62
374.688	55.47
374.898	39.08
375.109	57.51
375.319	24.75
375.53	106.67
375.74	100.52
375.951	65.71
376.161	26.79
376.372	71.85
376.582	49.32
376.793	73.9
377.003	47.27
377.214	55.47
377.424	92.33
377.635	116.9
377.845	28.84
378.055	90.28
378.266	45.23
378.476	75.95
378.686	49.32
378.897	30.89
379.107	61.61
379.317	131.24
379.528	75.95
379.738	110.76
379.948	104.62
380.158	6.31
380.369	57.51
380.579	84.14
380.789	-26.45
380.999	63.66
381.21	51.37
381.42	61.61
381.63	32.94
381.84	88.23
382.05	55.47
382.261	57.51
382.471	106.67
382.681	49.32
382.891	139.43
383.101	65.71
383.311	57.51
383.521	55.47
383.731	57.51
383.941	129.19
384.151	108.71
384.361	-1.88
384.571	43.18
384.781	90.28
384.991	149.67
385.201	106.67
385.411	34.99
385.621	59.56
385.831	112.81
386.041	41.13
386.251	84.14
386.461	53.42
386.671	73.9
386.881	71.85
387.091	24.75
387.301	73.9
387.511	65.71
387.72	49.32
387.93	14.51
388.14	47.27
388.35	129.19
388.56	77.99
388.769	131.24
388.979	30.89
389.189	65.71
389.399	123.05
389.609	121
389.818	90.28
390.028	37.03
390.238	106.67
390.447	14.51
390.657	80.04
390.867	106.67
391.076	51.37
391.286	88.23
391.496	67.75
391.705	71.85
391.915	47.27
392.125	123.05
392.334	41.13
392.544	98.47
392.753	88.23
392.963	-18.26
393.172	123.05
393.382	32.94
393.591	145.58
393.801	129.19
394.01	153.77
394.22	43.18
394.429	129.19
394.639	59.56
394.848	96.43
395.058	112.81
395.267	137.38
395.477	94.38
395.686	63.66
395.895	73.9
396.105	172.2
396.314	47.27
396.524	22.7
396.733	92.33
396.942	137.38
397.152	104.62
397.361	170.15
397.57	116.9
397.78	75.95
397.989	104.62
398.198	161.96
398.407	182.44
398.617	92.33
398.826	106.67
399.035	147.62
399.244	131.24
399.453	-1.88
399.663	80.04
399.872	114.86
400.081	-24.4
400.29	71.85
400.499	6.31
400.708	51.37
400.917	106.67
401.127	88.23
401.336	141.48
401.545	118.95
401.754	149.67
401.963	133.29
402.172	55.47
402.381	114.86
402.59	108.71
402.799	69.8
403.008	153.77
403.217	67.75
403.426	157.86
403.635	108.71
403.844	170.15
404.053	182.44
404.262	161.96
404.471	166.06
404.68	178.34
404.888	155.82
405.097	4.27
405.306	245.93
405.515	184.49
405.724	219.3
405.933	159.91
406.142	159.91
406.35	188.58
406.559	194.73
406.768	174.25
406.977	172.2
407.185	202.92
407.394	174.25
407.603	170.15
407.812	293.03
408.02	219.3
408.229	247.97
408.438	202.92
408.646	116.9
408.855	274.6
409.064	227.5
409.272	235.69
409.481	256.17
409.69	237.74
409.898	252.07
410.107	258.21
410.315	252.07
410.524	270.5
410.733	331.94
410.941	338.09
411.15	309.41
411.358	385.19
411.567	485.54
411.775	428.2
411.984	403.62
412.192	454.82
412.401	448.68
412.609	442.53
412.818	471.2
413.026	467.11
413.234	495.78
413.443	393.38
413.651	460.96
413.86	518.31
414.068	647.33
414.276	637.09
414.485	571.55
414.693	778.4
414.901	673.95
415.11	647.33
415.318	673.95
415.526	768.16
415.734	843.93
415.943	805.02
416.151	858.27
416.359	805.02
416.567	878.75
416.776	919.71
416.984	983.2
417.192	950.43
417.4	1020.06
417.608	960.67
417.817	972.96
418.025	1134.75
418.233	1198.23
418.441	1083.55
418.649	1196.18
418.857	1153.18
419.065	1269.91
419.273	1194.14
419.481	1310.87
419.689	1427.6
419.897	1431.7
420.105	1513.62
420.313	1534.1
420.521	1640.59
420.729	1620.11
420.937	1595.54
421.145	1710.22
421.353	1806.48
421.561	1812.62
421.769	1980.56
421.977	2056.33
422.185	1906.83
422.393	2078.86
422.601	2207.88
422.809	2283.66
423.017	2236.55
423.224	2273.42
423.432	2351.24
423.64	2463.88
423.848	2758.78
424.056	2564.23
424.263	2656.39
424.471	2795.65
424.679	2726.02
424.887	2949.25
425.094	3051.64
425.302	3000.44
425.51	3080.32
425.718	3281.02
425.925	3250.3
426.133	3487.86
426.341	3696.75
426.548	3733.62
426.756	3766.39
426.964	3817.58
427.171	4028.53
427.379	4063.34
427.586	4130.92
427.794	4239.47
428.001	4548.71
428.209	4747.36
428.417	4710.5
428.624	5103.71
428.832	4868.19
429.039	4925.54
429.247	4841.57
429.454	5503.06
429.662	5857.36
429.869	5406.81
430.076	5711.96
430.284	5695.57
430.491	5763.15
430.699	6060.11
430.906	6180.94
431.114	6322.25
431.321	6357.07
431.528	6604.87
431.736	7127.1
431.943	7235.64
432.15	7073.85
432.358	7301.18
432.565	7635
432.772	7520.31
432.979	7970.87
433.187	8216.62
433.394	8149.04
433.601	8675.37
433.808	8730.66
434.016	8689.7
434.223	9275.42
434.43	9689.11
434.637	9365.53
434.844	9908.24
435.052	10088.46
435.259	10098.7
435.466	10098.7
435.673	10287.12
435.88	10676.23
436.087	11292.67
436.294	11237.38
436.501	11022.34
436.708	11403.26
436.915	11780.09
437.122	12138.48
437.329	12142.58
437.537	12550.12
437.743	12730.34
437.95	12531.69
438.157	13318.11
438.364	13615.07
438.571	13524.96
438.778	13514.72
438.985	15132.61
439.192	14288.85
439.399	14979.01
439.606	14643.15
439.813	15448
440.02	16465.84
440.227	16197.56
440.433	16127.92
440.64	16250.8
440.847	16185.27
441.054	16783.27
441.261	17971.1
441.467	17557.41
441.674	17991.58
441.881	18597.77
442.088	18657.17
442.294	18233.24
442.501	18933.64
442.708	19400.58
442.914	19777.4
443.121	20844.4
443.328	20139.9
443.534	21657.44
443.741	21100.39
443.948	20719.47
444.154	22355.8
444.361	21919.58
444.568	22355.8
444.774	22447.96
444.981	22484.82
445.187	22933.32
445.394	24221.5
445.6	24078.14
445.807	26263.32
446.013	24743.73
446.22	25177.9
446.426	26181.4
446.633	26724.11
446.839	27629.32
447.046	26560.28
447.252	27965.18
447.459	27985.66
447.665	27866.88
447.871	29284.08
448.078	30349.02
448.284	28983.02
448.491	29916.9
448.697	30818
448.903	31686.34
449.11	31401.68
449.316	30754.52
449.522	31368.91
449.728	32220.86
449.935	32628.41
450.141	32657.08
450.347	33300.14
450.553	32466.62
450.76	32673.46
450.966	33855.14
451.172	33429.16
451.378	34375.33
451.584	33715.88
451.791	34631.32
451.997	34416.29
452.203	34930.33
452.409	35108.5
452.615	34836.12
452.821	33812.13
453.027	33158.83
453.233	35182.23
453.44	33603.24
453.646	33789.61
453.852	34490.01
454.058	34850.45
454.264	33703.59
454.47	34279.07
454.676	33478.32
454.882	34412.19
455.088	31409.87
455.294	32513.72
455.5	32870.07
455.705	33212.08
455.911	31889.09
456.117	31293.13
456.323	30953.17
456.529	29363.95
456.735	30353.12
456.941	29859.56
457.147	29288.17
457.352	28536.57
457.558	28210.94
457.764	28391.16
457.97	27795.2
458.176	27096.85
458.381	27469.58
458.587	25583.4
458.793	25837.34
458.999	24622.9
459.204	26396.44
459.41	25642.79
459.616	23893.82
459.821	23832.38
460.027	23998.27
460.233	23261
460.438	22257.5
460.644	22495.06
460.85	21479.27
461.055	21002.09
461.261	20813.68
461.466	19435.39
461.672	18874.25
461.878	20141.94
462.083	18868.11
462.289	18782.09
462.494	18290.58
462.7	17610.65
462.905	17168.29
463.111	17610.65
463.316	17956.76
463.522	17430.43
463.727	17313.7
463.932	17375.14
464.138	17002.41
464.343	17180.58
464.549	16742.32
464.754	17242.02
464.959	17080.23
465.165	16963.5
465.37	16375.73
465.575	15620.03
465.781	16525.23
465.986	16748.46
466.191	15728.57
466.397	15613.88
466.602	14950.34
466.807	15275.97
467.012	15554.49
467.218	15296.45
467.423	15142.85
