Data from USB4F104151__152__14-44-37-280.txt Node

Date: Thu Mar 13 14:44:37 EDT 2025
User: louis
Spectrometer: USB4F10415
Trigger mode: 4
Integration Time (sec): 2.000000E-2
Scans to average: 1
Electric dark correction enabled: true
Nonlinearity correction enabled: false
Boxcar width: 0
XAxis mode: Wavelengths
Number of Pixels in Spectrum: 3648
>>>>>Begin Spectral Data<<<<<
178.204	-112.13
178.424	-112.13
178.644	-112.13
178.864	-185.85
179.084	-167.42
179.304	-50.69
179.524	2.56
179.744	-1.54
179.964	25.09
180.184	-62.98
180.404	27.14
180.624	4.61
180.844	23.04
181.064	-50.69
181.283	27.14
181.503	18.94
181.723	37.38
181.943	-34.3
182.163	53.76
182.383	-13.82
182.602	-5.63
182.822	12.8
183.042	14.85
183.262	-34.3
183.482	-36.35
183.701	18.94
183.921	84.48
184.141	20.99
184.361	14.85
184.58	31.23
184.8	31.23
185.02	109.05
185.239	61.95
185.459	2.56
185.679	49.66
185.898	-32.26
186.118	43.52
186.338	-46.59
186.557	57.86
186.777	4.61
186.997	29.18
187.216	29.18
187.436	72.19
187.655	43.52
187.875	80.38
188.095	14.85
188.314	94.72
188.534	27.14
188.753	29.18
188.973	27.14
189.192	59.9
189.412	45.57
189.631	37.38
189.851	43.52
190.07	59.9
190.29	-54.78
190.509	68.09
190.729	102.91
190.948	25.09
191.168	107.01
191.387	51.71
191.607	27.14
191.826	43.52
192.045	25.09
192.265	29.18
192.484	6.66
192.704	-34.3
192.923	37.38
193.142	88.57
193.362	-26.11
193.581	-13.82
193.8	51.71
194.02	43.52
194.239	-62.98
194.458	59.9
194.678	20.99
194.897	12.8
195.116	-9.73
195.335	86.53
195.555	53.76
195.774	27.14
195.993	-5.63
196.212	16.9
196.432	-3.58
196.651	27.14
196.87	37.38
197.089	43.52
197.308	76.29
197.528	49.66
197.747	27.14
197.966	94.72
198.185	72.19
198.404	68.09
198.623	-3.58
198.842	2.56
199.062	96.77
199.281	47.62
199.5	-1.54
199.719	31.23
199.938	31.23
200.157	55.81
200.376	55.81
200.595	6.66
200.814	31.23
201.033	4.61
201.252	-9.73
201.471	12.8
201.69	72.19
201.909	31.23
202.128	84.48
202.347	59.9
202.566	16.9
202.785	-34.3
203.004	23.04
203.223	98.81
203.442	-48.64
203.661	51.71
203.879	49.66
204.098	88.57
204.317	-71.17
204.536	109.05
204.755	-44.54
204.974	-5.63
205.193	37.38
205.411	80.38
205.63	37.38
205.849	20.99
206.068	10.75
206.287	18.94
206.505	35.33
206.724	2.56
206.943	-5.63
207.162	72.19
207.381	100.86
207.599	-46.59
207.818	4.61
208.037	-5.63
208.255	-42.5
208.474	18.94
208.693	-13.82
208.911	-58.88
209.13	10.75
209.349	78.33
209.567	84.48
209.786	4.61
210.005	84.48
210.223	51.71
210.442	47.62
210.661	-1.54
210.879	0.51
211.098	80.38
211.316	-44.54
211.535	150.01
211.753	2.56
211.972	53.76
212.191	88.57
212.409	18.94
212.628	68.09
212.846	12.8
213.065	16.9
213.283	70.14
213.502	27.14
213.72	55.81
213.938	68.09
214.157	29.18
214.375	109.05
214.594	37.38
214.812	92.67
215.031	23.04
215.249	-26.11
215.467	-13.82
215.686	-1.54
215.904	43.52
216.122	10.75
216.341	47.62
216.559	27.14
216.778	68.09
216.996	27.14
217.214	12.8
217.432	64
217.651	-11.78
217.869	-9.73
218.087	-28.16
218.306	29.18
218.524	61.95
218.742	35.33
218.96	43.52
219.179	-19.97
219.397	115.2
219.615	152.06
219.833	43.52
220.051	31.23
220.27	45.57
220.488	20.99
220.706	6.66
220.924	12.8
221.142	-5.63
221.36	2.56
221.578	45.57
221.796	29.18
222.015	59.9
222.233	51.71
222.451	76.29
222.669	-36.35
222.887	76.29
223.105	-9.73
223.323	20.99
223.541	14.85
223.759	-24.06
223.977	-13.82
224.195	111.1
224.413	68.09
224.631	66.05
224.849	39.42
225.067	96.77
225.285	31.23
225.503	135.68
225.721	-71.17
225.939	33.28
226.157	-22.02
226.375	109.05
226.592	-67.07
226.81	-38.4
227.028	-11.78
227.246	123.39
227.464	45.57
227.682	68.09
227.9	23.04
228.117	10.75
228.335	18.94
228.553	29.18
228.771	80.38
228.989	2.56
229.206	4.61
229.424	-30.21
229.642	10.75
229.86	-5.63
230.077	82.43
230.295	49.66
230.513	51.71
230.731	70.14
230.948	25.09
231.166	51.71
231.384	27.14
231.601	-9.73
231.819	76.29
232.037	20.99
232.254	18.94
232.472	-13.82
232.689	-5.63
232.907	51.71
233.125	2.56
233.342	59.9
233.56	37.38
233.777	14.85
233.995	8.7
234.213	-5.63
234.43	35.33
234.648	20.99
234.865	51.71
235.083	39.42
235.3	53.76
235.518	119.29
235.735	43.52
235.953	37.38
236.17	-1.54
236.388	61.95
236.605	45.57
236.822	35.33
237.04	55.81
237.257	29.18
237.475	29.18
237.692	80.38
237.909	84.48
238.127	70.14
238.344	-34.3
238.562	78.33
238.779	31.23
238.996	-11.78
239.214	-5.63
239.431	43.52
239.648	31.23
239.865	84.48
240.083	45.57
240.3	-5.63
240.517	-54.78
240.735	51.71
240.952	49.66
241.169	57.86
241.386	-13.82
241.603	61.95
241.821	10.75
242.038	68.09
242.255	37.38
242.472	-30.21
242.689	45.57
242.907	64
243.124	-3.58
243.341	18.94
243.558	29.18
243.775	53.76
243.992	-9.73
244.209	16.9
244.426	76.29
244.643	-54.78
244.86	47.62
245.078	39.42
245.295	4.61
245.512	23.04
245.729	6.66
245.946	-13.82
246.163	-3.58
246.38	-13.82
246.597	51.71
246.814	-5.63
247.031	12.8
247.248	39.42
247.464	14.85
247.681	-3.58
247.898	68.09
248.115	45.57
248.332	102.91
248.549	-13.82
248.766	51.71
248.983	-9.73
249.2	51.71
249.417	84.48
249.633	-7.68
249.85	18.94
250.067	37.38
250.284	49.66
250.501	66.05
250.717	59.9
250.934	10.75
251.151	2.56
251.368	-22.02
251.585	31.23
251.801	37.38
252.018	68.09
252.235	117.25
252.451	14.85
252.668	27.14
252.885	76.29
253.102	23.04
253.318	66.05
253.535	20.99
253.752	59.9
253.968	78.33
254.185	49.66
254.401	55.81
254.618	43.52
254.835	-13.82
255.051	51.71
255.268	23.04
255.484	-9.73
255.701	23.04
255.917	158.21
256.134	-26.11
256.351	96.77
256.567	47.62
256.784	10.75
257	-71.17
257.217	14.85
257.433	53.76
257.65	-1.54
257.866	45.57
258.082	2.56
258.299	-13.82
258.515	-13.82
258.732	-32.26
258.948	78.33
259.165	20.99
259.381	-50.69
259.597	33.28
259.814	-5.63
260.03	-13.82
260.246	-9.73
260.463	18.94
260.679	43.52
260.895	12.8
261.112	59.9
261.328	-15.87
261.544	45.57
261.761	39.42
261.977	45.57
262.193	59.9
262.409	94.72
262.626	-13.82
262.842	-5.63
263.058	29.18
263.274	27.14
263.49	-34.3
263.707	43.52
263.923	72.19
264.139	18.94
264.355	12.8
264.571	18.94
264.787	20.99
265.004	68.09
265.22	-11.78
265.436	61.95
265.652	18.94
265.868	-32.26
266.084	27.14
266.3	31.23
266.516	-11.78
266.732	-13.82
266.948	51.71
267.164	-42.5
267.38	43.52
267.596	-28.16
267.812	92.67
268.028	43.52
268.244	72.19
268.46	18.94
268.676	-60.93
268.892	59.9
269.108	23.04
269.324	-3.58
269.54	-38.4
269.756	18.94
269.972	68.09
270.188	61.95
270.403	-56.83
270.619	25.09
270.835	-38.4
271.051	27.14
271.267	10.75
271.483	20.99
271.698	66.05
271.914	-36.35
272.13	64
272.346	-34.3
272.562	14.85
272.777	16.9
272.993	-36.35
273.209	43.52
273.425	16.9
273.64	43.52
273.856	51.71
274.072	-1.54
274.287	-38.4
274.503	78.33
274.719	43.52
274.934	92.67
275.15	35.33
275.366	59.9
275.581	2.56
275.797	31.23
276.012	-3.58
276.228	0.51
276.444	14.85
276.659	23.04
276.875	-13.82
277.09	0.51
277.306	2.56
277.521	4.61
277.737	37.38
277.952	-13.82
278.168	117.25
278.383	88.57
278.599	-13.82
278.814	20.99
279.03	18.94
279.245	20.99
279.461	39.42
279.676	31.23
279.892	-9.73
280.107	27.14
280.322	-87.55
280.538	70.14
280.753	37.38
280.969	45.57
281.184	-42.5
281.399	-13.82
281.615	2.56
281.83	-44.54
282.045	-46.59
282.26	78.33
282.476	53.76
282.691	12.8
282.906	-58.88
283.122	53.76
283.337	-50.69
283.552	10.75
283.767	25.09
283.983	70.14
284.198	39.42
284.413	70.14
284.628	43.52
284.843	27.14
285.058	10.75
285.274	86.53
285.489	31.23
285.704	-5.63
285.919	18.94
286.134	2.56
286.349	-13.82
286.564	-44.54
286.779	31.23
286.995	37.38
287.21	86.53
287.425	37.38
287.64	10.75
287.855	-1.54
288.07	-65.02
288.285	47.62
288.5	27.14
288.715	109.05
288.93	-9.73
289.145	-3.58
289.36	35.33
289.575	43.52
289.79	104.96
290.004	-65.02
290.219	10.75
290.434	4.61
290.649	33.28
290.864	-5.63
291.079	33.28
291.294	61.95
291.509	27.14
291.724	18.94
291.938	4.61
292.153	39.42
292.368	59.9
292.583	-3.58
292.798	-5.63
293.012	117.25
293.227	66.05
293.442	2.56
293.657	27.14
293.871	51.71
294.086	23.04
294.301	23.04
294.516	-32.26
294.73	84.48
294.945	-22.02
295.16	72.19
295.374	14.85
295.589	27.14
295.804	23.04
296.018	27.14
296.233	18.94
296.447	55.81
296.662	-5.63
296.877	80.38
297.091	88.57
297.306	37.38
297.52	37.38
297.735	45.57
297.949	131.58
298.164	-3.58
298.378	-13.82
298.593	51.71
298.807	57.86
299.022	35.33
299.236	18.94
299.451	-30.21
299.665	12.8
299.88	10.75
300.094	23.04
300.309	31.23
300.523	92.67
300.737	31.23
300.952	59.9
301.166	64
301.381	-1.54
301.595	18.94
301.809	70.14
302.024	16.9
302.238	-34.3
302.452	143.87
302.667	2.56
302.881	-30.21
303.095	66.05
303.309	59.9
303.524	37.38
303.738	76.29
303.952	-1.54
304.166	12.8
304.381	-46.59
304.595	70.14
304.809	29.18
305.023	53.76
305.237	-28.16
305.452	-13.82
305.666	39.42
305.88	45.57
306.094	4.61
306.308	64
306.522	43.52
306.736	-13.82
306.95	27.14
307.164	27.14
307.379	-11.78
307.593	117.25
307.807	-54.78
308.021	-46.59
308.235	92.67
308.449	-15.87
308.663	-13.82
308.877	86.53
309.091	16.9
309.305	35.33
309.519	-22.02
309.733	100.86
309.947	27.14
310.161	82.43
310.374	51.71
310.588	72.19
310.802	-13.82
311.016	43.52
311.23	39.42
311.444	23.04
311.658	2.56
311.872	51.71
312.085	74.24
312.299	35.33
312.513	18.94
312.727	37.38
312.941	45.57
313.154	66.05
313.368	47.62
313.582	2.56
313.796	64
314.009	0.51
314.223	25.09
314.437	-5.63
314.651	53.76
314.864	-22.02
315.078	10.75
315.292	10.75
315.505	14.85
315.719	59.9
315.933	100.86
316.146	-28.16
316.36	18.94
316.573	59.9
316.787	-26.11
317.001	25.09
317.214	-58.88
317.428	-44.54
317.641	8.7
317.855	35.33
318.068	-34.3
318.282	68.09
318.495	43.52
318.709	-30.21
318.922	-28.16
319.136	135.68
319.349	88.57
319.563	-1.54
319.776	-5.63
319.99	-13.82
320.203	18.94
320.417	68.09
320.63	39.42
320.843	51.71
321.057	-5.63
321.27	43.52
321.483	55.81
321.697	96.77
321.91	20.99
322.124	18.94
322.337	47.62
322.55	72.19
322.763	-26.11
322.977	29.18
323.19	8.7
323.403	-5.63
323.617	66.05
323.83	72.19
324.043	-46.59
324.256	43.52
324.469	-46.59
324.683	2.56
324.896	-52.74
325.109	27.14
325.322	-3.58
325.535	43.52
325.748	2.56
325.962	68.09
326.175	29.18
326.388	64
326.601	-3.58
326.814	-3.58
327.027	-9.73
327.24	70.14
327.453	2.56
327.666	45.57
327.879	66.05
328.092	20.99
328.305	51.71
328.518	41.47
328.731	14.85
328.944	12.8
329.157	-11.78
329.37	35.33
329.583	137.73
329.796	68.09
330.009	-36.35
330.222	113.15
330.435	35.33
330.648	-73.21
330.861	10.75
331.073	10.75
331.286	47.62
331.499	78.33
331.712	-22.02
331.925	61.95
332.138	59.9
332.35	27.14
332.563	59.9
332.776	49.66
332.989	-17.92
333.202	-44.54
333.414	35.33
333.627	55.81
333.84	37.38
334.053	45.57
334.265	80.38
334.478	111.1
334.691	25.09
334.903	4.61
335.116	2.56
335.329	-1.54
335.541	121.34
335.754	8.7
335.966	-1.54
336.179	39.42
336.392	51.71
336.604	-30.21
336.817	16.9
337.029	51.71
337.242	39.42
337.454	94.72
337.667	18.94
337.88	115.2
338.092	18.94
338.305	76.29
338.517	47.62
338.729	2.56
338.942	100.86
339.154	2.56
339.367	-13.82
339.579	20.99
339.792	2.56
340.004	6.66
340.217	27.14
340.429	98.81
340.641	53.76
340.854	-11.78
341.066	10.75
341.278	47.62
341.491	78.33
341.703	20.99
341.915	29.18
342.128	80.38
342.34	20.99
342.552	18.94
342.764	43.52
342.977	43.52
343.189	59.9
343.401	-36.35
343.613	-11.78
343.826	137.73
344.038	18.94
344.25	10.75
344.462	-17.92
344.674	6.66
344.886	70.14
345.099	100.86
345.311	27.14
345.523	49.66
345.735	84.48
345.947	92.67
346.159	88.57
346.371	133.63
346.583	-11.78
346.795	150.01
347.007	-44.54
347.219	43.52
347.431	29.18
347.643	53.76
347.855	10.75
348.067	121.34
348.279	88.57
348.491	-5.63
348.703	33.28
348.915	29.18
349.127	6.66
349.339	12.8
349.551	4.61
349.763	82.43
349.975	35.33
350.187	2.56
350.399	82.43
350.61	111.1
350.822	18.94
351.034	51.71
351.246	-22.02
351.458	84.48
351.669	35.33
351.881	35.33
352.093	-9.73
352.305	-40.45
352.517	18.94
352.728	2.56
352.94	14.85
353.152	45.57
353.363	39.42
353.575	35.33
353.787	92.67
353.999	31.23
354.21	68.09
354.422	43.52
354.633	53.76
354.845	4.61
355.057	92.67
355.268	45.57
355.48	84.48
355.692	39.42
355.903	51.71
356.115	90.62
356.326	43.52
356.538	100.86
356.749	-19.97
356.961	12.8
357.172	107.01
357.384	12.8
357.595	92.67
357.807	-30.21
358.018	-19.97
358.23	59.9
358.441	127.49
358.653	35.33
358.864	84.48
359.075	76.29
359.287	78.33
359.498	61.95
359.709	59.9
359.921	27.14
360.132	31.23
360.344	35.33
360.555	18.94
360.766	43.52
360.977	18.94
361.189	129.53
361.4	104.96
361.611	109.05
361.823	76.29
362.034	68.09
362.245	-5.63
362.456	35.33
362.667	51.71
362.879	14.85
363.09	14.85
363.301	59.9
363.512	76.29
363.723	59.9
363.935	-13.82
364.146	61.95
364.357	109.05
364.568	68.09
364.779	23.04
364.99	102.91
365.201	-50.69
365.412	68.09
365.623	-60.93
365.834	53.76
366.045	14.85
366.256	39.42
366.467	76.29
366.678	49.66
366.889	-22.02
367.1	51.71
367.311	90.62
367.522	25.09
367.733	45.57
367.944	80.38
368.155	-30.21
368.366	41.47
368.577	59.9
368.788	104.96
368.999	-11.78
369.209	27.14
369.42	88.57
369.631	23.04
369.842	92.67
370.053	-11.78
370.264	64
370.474	68.09
370.685	-7.68
370.896	-5.63
371.107	51.71
371.317	131.58
371.528	-26.11
371.739	119.29
371.95	74.24
372.16	78.33
372.371	-42.5
372.582	-42.5
372.792	59.9
373.003	20.99
373.214	61.95
373.424	20.99
373.635	45.57
373.846	74.24
374.056	12.8
374.267	76.29
374.477	-1.54
374.688	12.8
374.898	39.42
375.109	45.57
375.319	-40.45
375.53	80.38
375.74	66.05
375.951	43.52
376.161	16.9
376.372	86.53
376.582	100.86
376.793	61.95
377.003	74.24
377.214	6.66
377.424	45.57
377.635	25.09
377.845	72.19
378.055	49.66
378.266	14.85
378.476	92.67
378.686	64
378.897	20.99
379.107	-9.73
379.317	61.95
379.528	-1.54
379.738	111.1
379.948	6.66
380.158	31.23
380.369	59.9
380.579	59.9
380.789	76.29
380.999	133.63
381.21	39.42
381.42	117.25
381.63	59.9
381.84	70.14
382.05	43.52
382.261	76.29
382.471	84.48
382.681	20.99
382.891	57.86
383.101	35.33
383.311	72.19
383.521	-32.26
383.731	39.42
383.941	86.53
384.151	2.56
384.361	-11.78
384.571	70.14
384.781	70.14
384.991	145.92
385.201	139.77
385.411	43.52
385.621	94.72
385.831	-9.73
386.041	98.81
386.251	12.8
386.461	92.67
386.671	33.28
386.881	92.67
387.091	64
387.301	-3.58
387.511	61.95
387.72	68.09
387.93	27.14
388.14	43.52
388.35	49.66
388.56	68.09
388.769	59.9
388.979	47.62
389.189	33.28
389.399	47.62
389.609	51.71
389.818	92.67
390.028	-1.54
390.238	55.81
390.447	16.9
390.657	39.42
390.867	64
391.076	59.9
391.286	49.66
391.496	41.47
391.705	10.75
391.915	113.15
392.125	4.61
392.334	53.76
392.544	76.29
392.753	78.33
392.963	18.94
393.172	76.29
393.382	33.28
393.591	115.2
393.801	90.62
394.01	20.99
394.22	94.72
394.429	10.75
394.639	-11.78
394.848	82.43
395.058	115.2
395.267	76.29
395.477	8.7
395.686	43.52
395.895	145.92
396.105	145.92
396.314	70.14
396.524	-32.26
396.733	143.87
396.942	70.14
397.152	37.38
397.361	100.86
397.57	61.95
397.78	29.18
397.989	96.77
398.198	158.21
398.407	53.76
398.617	-9.73
398.826	100.86
399.035	98.81
399.244	72.19
399.453	104.96
399.663	170.49
399.872	96.77
400.081	70.14
400.29	145.92
400.499	6.66
400.708	164.35
400.917	104.96
401.127	10.75
401.336	27.14
401.545	76.29
401.754	119.29
401.963	100.86
402.172	135.68
402.381	82.43
402.59	88.57
402.799	102.91
403.008	96.77
403.217	137.73
403.426	182.78
403.635	109.05
403.844	109.05
404.053	113.15
404.262	121.34
404.471	199.16
404.68	111.1
404.888	104.96
405.097	193.02
405.306	174.59
405.515	166.4
405.724	127.49
405.933	182.78
406.142	125.44
406.35	123.39
406.559	119.29
406.768	94.72
406.977	174.59
407.185	207.36
407.394	264.7
407.603	92.67
407.812	174.59
408.02	182.78
408.229	272.89
408.438	209.4
408.646	178.69
408.855	199.16
409.064	184.83
409.272	195.07
409.481	250.36
409.69	172.54
409.898	272.89
410.107	190.97
410.315	254.46
410.524	227.84
410.733	209.4
410.941	264.7
411.15	330.23
411.358	301.56
411.567	330.23
411.775	340.47
411.984	324.09
412.192	338.43
412.401	223.74
412.609	430.59
412.818	444.92
413.026	395.77
413.234	358.91
413.443	440.83
413.651	477.69
413.86	414.2
414.068	500.22
414.276	455.16
414.485	494.07
414.693	502.26
414.901	559.61
415.11	561.66
415.318	543.22
415.526	600.57
415.734	627.19
415.943	696.82
416.151	676.34
416.359	657.91
416.567	741.88
416.776	688.63
416.984	750.07
417.192	788.98
417.4	709.11
417.608	782.84
417.817	743.92
418.025	881.14
418.233	977.39
418.441	842.23
418.649	895.47
418.857	918
419.065	993.78
419.273	971.25
419.481	1022.45
419.689	1145.33
419.897	1171.95
420.105	1200.62
420.313	1200.62
420.521	1247.72
420.729	1364.46
420.937	1300.97
421.145	1370.6
421.353	1501.67
421.561	1513.96
421.769	1530.34
421.977	1665.51
422.185	1599.98
422.393	1700.33
422.601	1782.24
422.809	1706.47
423.017	1849.83
423.224	1903.07
423.432	2015.71
423.64	1919.46
423.848	2005.47
424.056	1999.33
424.263	2214.37
424.471	2288.09
424.679	2228.7
424.887	2370.01
425.094	2333.15
425.302	2550.23
425.51	2542.04
425.718	2546.14
425.925	2742.74
426.133	2781.65
426.341	2898.39
426.548	2963.92
426.756	2892.24
426.964	3023.31
427.171	3224.01
427.379	3221.97
427.586	3330.51
427.794	3422.67
428.001	3709.38
428.209	3639.75
428.417	3744.2
428.624	3930.56
428.832	3918.28
429.039	3971.52
429.247	4032.96
429.454	4303.29
429.662	4606.39
429.869	4348.35
430.076	4624.83
430.284	4434.36
430.491	4698.55
430.699	5036.47
430.906	4975.03
431.114	4929.97
431.321	5073.33
431.528	5304.75
431.736	5548.46
431.943	5802.41
432.15	5577.13
432.358	5753.26
432.565	6226.34
432.772	6048.16
432.979	6474.14
433.187	6506.91
433.394	6490.52
433.601	6967.7
433.808	6945.17
434.016	6971.8
434.223	7215.51
434.43	7621
434.637	7498.13
434.844	7887.24
435.052	8245.63
435.259	8040.84
435.466	8110.47
435.673	8067.46
435.88	8575.36
436.087	8972.66
436.294	8999.29
436.501	8690.04
436.708	9083.25
436.915	9382.26
437.122	9896.3
437.329	9869.67
437.537	9943.4
437.743	10013.03
437.95	10221.92
438.157	10520.93
438.364	11092.31
438.571	10846.55
438.778	11014.49
438.985	11921.74
439.192	11495.76
439.399	11868.49
439.606	11430.23
439.813	12142.92
440.02	13041.98
440.227	12849.47
440.433	12757.31
440.64	13214.01
440.847	13062.46
441.054	12994.87
441.261	14264.61
441.467	14115.11
441.674	14614.82
441.881	14891.29
442.088	15030.55
442.294	14764.32
442.501	15051.03
442.708	15395.09
442.914	16154.89
443.121	16580.87
443.328	16185.61
443.534	17459.45
443.741	16826.62
443.948	16384.26
444.154	18139.37
444.361	17770.74
444.568	17678.58
444.774	17889.52
444.981	18143.47
445.187	18555.11
445.394	19411.16
445.6	18876.64
445.807	21164.22
446.013	20170.96
446.22	20461.77
446.426	21201.08
446.633	21659.83
446.839	22022.32
447.046	21018.82
447.252	22200.49
447.459	22194.35
447.665	22296.75
447.871	23238.81
448.078	24293.52
448.284	23099.55
448.491	23759
448.697	24801.41
448.903	25542.78
449.11	25243.77
449.316	24686.73
449.522	25229.44
449.728	25944.18
449.935	26200.18
450.141	26265.71
450.347	26732.65
450.553	25825.4
450.76	26368.11
450.966	27371.61
451.172	26816.61
451.378	27828.31
451.584	26884.2
451.791	27797.59
451.997	27529.31
452.203	28096.6
452.409	27899.99
452.615	27826.26
452.821	27064.42
453.027	26730.6
453.233	28264.53
453.44	27062.37
453.646	27672.67
453.852	27166.82
454.058	28127.31
454.264	27002.98
454.47	27648.09
454.676	26869.86
454.882	28018.77
455.088	25524.35
455.294	26290.29
455.5	26624.11
455.705	26753.13
455.911	25737.34
456.117	25204.86
456.323	24852.61
456.529	23564.44
456.735	24643.72
456.941	23939.22
457.147	23529.62
457.352	23064.74
457.558	22892.71
457.764	22900.9
457.97	22466.73
458.176	21897.39
458.381	22120.62
458.587	20940.99
458.793	20662.47
458.999	19685.59
459.204	21233.85
459.41	20590.79
459.616	19224.79
459.821	19472.6
460.027	19310.81
460.233	18778.34
460.438	17797.36
460.644	18069.74
460.85	17287.42
461.055	17090.81
461.261	16734.46
461.466	15769.87
461.672	15370.52
461.878	16374.02
462.083	15309.08
462.289	15178.01
462.494	14987.55
462.7	14121.26
462.905	13990.19
463.111	14252.33
463.316	14303.53
463.522	14008.62
463.727	14213.42
463.932	14037.29
464.138	13822.25
464.343	13852.97
464.549	13723.95
464.754	13986.09
464.959	13771.05
465.165	13459.76
465.37	13449.52
465.575	12822.84
465.781	13396.28
465.986	13574.45
466.191	12761.41
466.397	12650.81
466.602	12140.87
466.807	12351.81
467.012	12431.68
467.218	12405.06
467.423	12247.37
467.628	12521.79
467.833	12906.81
