Data from USB4F104151__223__14-45-33-327.txt Node

Date: Thu Mar 13 14:45:33 EDT 2025
User: louis
Spectrometer: USB4F10415
Trigger mode: 4
Integration Time (sec): 2.000000E-2
Scans to average: 1
Electric dark correction enabled: true
Nonlinearity correction enabled: false
Boxcar width: 0
XAxis mode: Wavelengths
Number of Pixels in Spectrum: 3648
>>>>>Begin Spectral Data<<<<<
178.204	-140.29
178.424	-140.29
178.644	-140.29
178.864	-162.81
179.084	-52.22
179.304	-35.84
179.524	-17.41
179.744	13.31
179.964	-5.12
180.184	46.08
180.404	41.98
180.624	-44.03
180.844	39.94
181.064	-95.23
181.283	29.7
181.503	-3.07
181.723	29.7
181.943	-15.36
182.163	64.51
182.383	17.41
182.602	72.7
182.822	-9.22
183.042	5.12
183.262	25.6
183.482	46.08
183.701	29.7
183.921	-33.79
184.141	48.13
184.361	91.13
184.58	-11.26
184.8	66.56
185.02	-15.36
185.239	17.41
185.459	31.74
185.679	62.46
185.898	-52.22
186.118	87.04
186.338	5.12
186.557	82.94
186.777	-17.41
186.997	-11.26
187.216	5.12
187.436	46.08
187.655	54.27
187.875	-11.26
188.095	-58.37
188.314	33.79
188.534	93.18
188.753	5.12
188.973	7.17
189.192	17.41
189.412	-7.17
189.631	33.79
189.851	105.47
190.07	87.04
190.29	15.36
190.509	-44.03
190.729	-21.5
190.948	41.98
191.168	197.63
191.387	-3.07
191.607	29.7
191.826	-3.07
192.045	87.04
192.265	-11.26
192.484	1.02
192.704	31.74
192.923	-19.46
193.142	70.65
193.362	1.02
193.581	119.81
193.8	48.13
194.02	54.27
194.239	58.37
194.458	132.09
194.678	13.31
194.897	33.79
195.116	17.41
195.335	46.08
195.555	13.31
195.774	1.02
195.993	37.89
196.212	78.85
196.432	-19.46
196.651	29.7
196.87	-9.22
197.089	99.33
197.308	82.94
197.528	29.7
197.747	29.7
197.966	5.12
198.185	123.9
198.404	-64.51
198.623	74.75
198.842	64.51
199.062	33.79
199.281	72.7
199.5	-39.94
199.719	13.31
199.938	46.08
200.157	17.41
200.376	9.22
200.595	25.6
200.814	-50.18
201.033	54.27
201.252	54.27
201.471	50.18
201.69	46.08
201.909	15.36
202.128	-50.18
202.347	39.94
202.566	11.26
202.785	-35.84
203.004	-17.41
203.223	95.23
203.442	64.51
203.661	9.22
203.879	46.08
204.098	13.31
204.317	-11.26
204.536	74.75
204.755	111.61
204.974	15.36
205.193	-15.36
205.411	87.04
205.63	3.07
205.849	-41.98
206.068	-19.46
206.287	-1.02
206.505	33.79
206.724	-3.07
206.943	-11.26
207.162	46.08
207.381	39.94
207.599	44.03
207.818	-46.08
208.037	46.08
208.255	41.98
208.474	103.42
208.693	37.89
208.911	29.7
209.13	74.75
209.349	33.79
209.567	46.08
209.786	97.28
210.005	74.75
210.223	37.89
210.442	17.41
210.661	9.22
210.879	-60.42
211.098	15.36
211.316	-46.08
211.535	105.47
211.753	-13.31
211.972	41.98
212.191	-50.18
212.409	1.02
212.628	111.61
212.846	7.17
213.065	7.17
213.283	95.23
213.502	41.98
213.72	72.7
213.938	62.46
214.157	35.84
214.375	7.17
214.594	-41.98
214.812	39.94
215.031	60.42
215.249	25.6
215.467	76.8
215.686	72.7
215.904	78.85
216.122	62.46
216.341	7.17
216.559	46.08
216.778	60.42
216.996	78.85
217.214	19.46
217.432	95.23
217.651	21.5
217.869	52.22
218.087	17.41
218.306	48.13
218.524	68.61
218.742	70.65
218.96	82.94
219.179	39.94
219.397	29.7
219.615	111.61
219.833	72.7
220.051	5.12
220.27	29.7
220.488	148.48
220.706	23.55
220.924	21.5
221.142	54.27
221.36	46.08
221.578	21.5
221.796	23.55
222.015	60.42
222.233	23.55
222.451	54.27
222.669	-5.12
222.887	37.89
223.105	113.66
223.323	17.41
223.541	37.89
223.759	-44.03
223.977	25.6
224.195	76.8
224.413	52.22
224.631	-1.02
224.849	33.79
225.067	111.61
225.285	15.36
225.503	87.04
225.721	9.22
225.939	87.04
226.157	66.56
226.375	60.42
226.592	-25.6
226.81	95.23
227.028	76.8
227.246	27.65
227.464	5.12
227.682	39.94
227.9	-48.13
228.117	121.85
228.335	50.18
228.553	-1.02
228.771	9.22
228.989	-21.5
229.206	29.7
229.424	60.42
229.642	5.12
229.86	58.37
230.077	107.52
230.295	29.7
230.513	-70.65
230.731	27.65
230.948	62.46
231.166	39.94
231.384	58.37
231.601	62.46
231.819	64.51
232.037	-11.26
232.254	21.5
232.472	17.41
232.689	27.65
232.907	78.85
233.125	23.55
233.342	17.41
233.56	-17.41
233.777	-48.13
233.995	13.31
234.213	56.32
234.43	46.08
234.648	-15.36
234.865	52.22
235.083	19.46
235.3	62.46
235.518	13.31
235.735	72.7
235.953	70.65
236.17	21.5
236.388	23.55
236.605	9.22
236.822	33.79
237.04	87.04
237.257	39.94
237.475	17.41
237.692	37.89
237.909	-48.13
238.127	-66.56
238.344	89.09
238.562	-7.17
238.779	7.17
238.996	5.12
239.214	87.04
239.431	62.46
239.648	33.79
239.865	89.09
240.083	50.18
240.3	41.98
240.517	48.13
240.735	78.85
240.952	19.46
241.169	41.98
241.386	54.27
241.603	29.7
241.821	3.07
242.038	54.27
242.255	82.94
242.472	-3.07
242.689	95.23
242.907	99.33
243.124	35.84
243.341	-17.41
243.558	29.7
243.775	-68.61
243.992	21.5
244.209	9.22
244.426	66.56
244.643	-27.65
244.86	50.18
245.078	78.85
245.295	50.18
245.512	37.89
245.729	17.41
245.946	130.05
246.163	80.89
246.38	54.27
246.597	62.46
246.814	80.89
247.031	48.13
247.248	15.36
247.464	46.08
247.681	-31.74
247.898	105.47
248.115	21.5
248.332	-76.8
248.549	70.65
248.766	109.57
248.983	41.98
249.2	37.89
249.417	64.51
249.633	-27.65
249.85	-1.02
250.067	23.55
250.284	29.7
250.501	-52.22
250.717	33.79
250.934	46.08
251.151	56.32
251.368	-11.26
251.585	-1.02
251.801	-50.18
252.018	87.04
252.235	117.76
252.451	29.7
252.668	19.46
252.885	1.02
253.102	46.08
253.318	44.03
253.535	-9.22
253.752	41.98
253.968	-19.46
254.185	-33.79
254.401	13.31
254.618	87.04
254.835	103.42
255.051	44.03
255.268	13.31
255.484	48.13
255.701	74.75
255.917	54.27
256.134	62.46
256.351	70.65
256.567	-3.07
256.784	103.42
257	-5.12
257.217	-1.02
257.433	62.46
257.65	29.7
257.866	95.23
258.082	-3.07
258.299	29.7
258.515	-19.46
258.732	97.28
258.948	37.89
259.165	-3.07
259.381	-41.98
259.597	46.08
259.814	-35.84
260.03	33.79
260.246	95.23
260.463	48.13
260.679	-5.12
260.895	-3.07
261.112	41.98
261.328	23.55
261.544	66.56
261.761	74.75
261.977	39.94
262.193	33.79
262.409	23.55
262.626	78.85
262.842	-33.79
263.058	46.08
263.274	54.27
263.49	39.94
263.707	46.08
263.923	9.22
264.139	9.22
264.355	78.85
264.571	15.36
264.787	66.56
265.004	17.41
265.22	-11.26
265.436	66.56
265.652	80.89
265.868	7.17
266.084	58.37
266.3	60.42
266.516	13.31
266.732	17.41
266.948	15.36
267.164	37.89
267.38	80.89
267.596	68.61
267.812	130.05
268.028	5.12
268.244	-41.98
268.46	-13.31
268.676	87.04
268.892	9.22
269.108	54.27
269.324	21.5
269.54	58.37
269.756	62.46
269.972	-19.46
270.188	64.51
270.403	37.89
270.619	56.32
270.835	54.27
271.051	3.07
271.267	46.08
271.483	101.37
271.698	56.32
271.914	19.46
272.13	17.41
272.346	58.37
272.562	25.6
272.777	62.46
272.993	21.5
273.209	68.61
273.425	-89.09
273.64	33.79
273.856	13.31
274.072	105.47
274.287	27.65
274.503	23.55
274.719	29.7
274.934	80.89
275.15	-35.84
275.366	80.89
275.581	87.04
275.797	93.18
276.012	23.55
276.228	39.94
276.444	91.13
276.659	23.55
276.875	-7.17
277.09	111.61
277.306	-3.07
277.521	128
277.737	27.65
277.952	121.85
278.168	21.5
278.383	-3.07
278.599	50.18
278.814	50.18
279.03	27.65
279.245	56.32
279.461	5.12
279.676	58.37
279.892	13.31
280.107	29.7
280.322	66.56
280.538	39.94
280.753	-29.7
280.969	33.79
281.184	-1.02
281.399	103.42
281.615	68.61
281.83	87.04
282.045	52.22
282.26	54.27
282.476	111.61
282.691	105.47
282.906	7.17
283.122	39.94
283.337	95.23
283.552	54.27
283.767	23.55
283.983	54.27
284.198	93.18
284.413	80.89
284.628	-15.36
284.843	54.27
285.058	62.46
285.274	29.7
285.489	1.02
285.704	87.04
285.919	37.89
286.134	72.7
286.349	29.7
286.564	33.79
286.779	54.27
286.995	52.22
287.21	-60.42
287.425	39.94
287.64	29.7
287.855	7.17
288.07	15.36
288.285	29.7
288.5	58.37
288.715	66.56
288.93	1.02
289.145	-19.46
289.36	44.03
289.575	23.55
289.79	23.55
290.004	13.31
290.219	1.02
290.434	33.79
290.649	-41.98
290.864	13.31
291.079	37.89
291.294	41.98
291.509	-31.74
291.724	-9.22
291.938	66.56
292.153	74.75
292.368	72.7
292.583	9.22
292.798	64.51
293.012	-44.03
293.227	-23.55
293.442	37.89
293.657	66.56
293.871	-9.22
294.086	46.08
294.301	54.27
294.516	21.5
294.73	54.27
294.945	29.7
295.16	37.89
295.374	62.46
295.589	-19.46
295.804	-35.84
296.018	46.08
296.233	78.85
296.447	21.5
296.662	64.51
296.877	15.36
297.091	95.23
297.306	103.42
297.52	46.08
297.735	56.32
297.949	37.89
298.164	1.02
298.378	48.13
298.593	101.37
298.807	3.07
299.022	80.89
299.236	46.08
299.451	-9.22
299.665	56.32
299.88	13.31
300.094	23.55
300.309	66.56
300.523	82.94
300.737	-25.6
300.952	54.27
301.166	-15.36
301.381	-11.26
301.595	78.85
301.809	-21.5
302.024	-17.41
302.238	78.85
302.452	111.61
302.667	46.08
302.881	82.94
303.095	95.23
303.309	-44.03
303.524	72.7
303.738	7.17
303.952	29.7
304.166	31.74
304.381	29.7
304.595	95.23
304.809	50.18
305.023	78.85
305.237	54.27
305.452	33.79
305.666	46.08
305.88	97.28
306.094	89.09
306.308	-3.07
306.522	62.46
306.736	54.27
306.95	58.37
307.164	19.46
307.379	78.85
307.593	19.46
307.807	31.74
308.021	64.51
308.235	-3.07
308.449	54.27
308.663	17.41
308.877	54.27
309.091	50.18
309.305	72.7
309.519	-76.8
309.733	89.09
309.947	-3.07
310.161	56.32
310.374	125.95
310.588	29.7
310.802	1.02
311.016	95.23
311.23	91.13
311.444	48.13
311.658	-9.22
311.872	39.94
312.085	66.56
312.299	66.56
312.513	64.51
312.727	80.89
312.941	72.7
313.154	-3.07
313.368	41.98
313.582	130.05
313.796	41.98
314.009	29.7
314.223	17.41
314.437	48.13
314.651	128
314.864	-9.22
315.078	48.13
315.292	-3.07
315.505	74.75
315.719	46.08
315.933	-11.26
316.146	-44.03
316.36	80.89
316.573	111.61
316.787	15.36
317.001	56.32
317.214	60.42
317.428	23.55
317.641	41.98
317.855	74.75
318.068	21.5
318.282	-7.17
318.495	121.85
318.709	89.09
318.922	78.85
319.136	95.23
319.349	56.32
319.563	-25.6
319.776	11.26
319.99	72.7
320.203	56.32
320.417	33.79
320.63	72.7
320.843	60.42
321.057	-27.65
321.27	87.04
321.483	44.03
321.697	64.51
321.91	33.79
322.124	87.04
322.337	-15.36
322.55	29.7
322.763	50.18
322.977	58.37
323.19	7.17
323.403	5.12
323.617	17.41
323.83	117.76
324.043	21.5
324.256	74.75
324.469	48.13
324.683	72.7
324.896	-11.26
325.109	-11.26
325.322	-35.84
325.535	56.32
325.748	54.27
325.962	11.26
326.175	41.98
326.388	99.33
326.601	29.7
326.814	95.23
327.027	-17.41
327.24	84.99
327.453	87.04
327.666	54.27
327.879	138.24
328.092	103.42
328.305	5.12
328.518	95.23
328.731	-3.07
328.944	23.55
329.157	29.7
329.37	-15.36
329.583	56.32
329.796	130.05
330.009	-3.07
330.222	-76.8
330.435	39.94
330.648	82.94
330.861	52.22
331.073	82.94
331.286	130.05
331.499	128
331.712	15.36
331.925	70.65
332.138	37.89
332.35	70.65
332.563	48.13
332.776	72.7
332.989	93.18
333.202	89.09
333.414	70.65
333.627	74.75
333.84	54.27
334.053	27.65
334.265	62.46
334.478	-60.42
334.691	46.08
334.903	31.74
335.116	17.41
335.329	54.27
335.541	70.65
335.754	62.46
335.966	-5.12
336.179	31.74
336.392	25.6
336.604	37.89
336.817	128
337.029	-1.02
337.242	82.94
337.454	91.13
337.667	54.27
337.88	115.71
338.092	-21.5
338.305	48.13
338.517	70.65
338.729	54.27
338.942	5.12
339.154	70.65
339.367	5.12
339.579	31.74
339.792	-3.07
340.004	89.09
340.217	91.13
340.429	35.84
340.641	15.36
340.854	87.04
341.066	33.79
341.278	37.89
341.491	103.42
341.703	7.17
341.915	-3.07
342.128	144.38
342.34	9.22
342.552	-52.22
342.764	1.02
342.977	74.75
343.189	15.36
343.401	33.79
343.613	19.46
343.826	48.13
344.038	1.02
344.25	60.42
344.462	39.94
344.674	82.94
344.886	-31.74
345.099	74.75
345.311	7.17
345.523	-50.18
345.735	46.08
345.947	80.89
346.159	62.46
346.371	56.32
346.583	87.04
346.795	113.66
347.007	15.36
347.219	111.61
347.431	-46.08
347.643	89.09
347.855	-3.07
348.067	177.15
348.279	-7.17
348.491	62.46
348.703	82.94
348.915	91.13
349.127	50.18
349.339	66.56
349.551	56.32
349.763	23.55
349.975	105.47
350.187	62.46
350.399	80.89
350.61	66.56
350.822	15.36
351.034	17.41
351.246	48.13
351.458	119.81
351.669	11.26
351.881	80.89
352.093	74.75
352.305	103.42
352.517	15.36
352.728	132.09
352.94	54.27
353.152	64.51
353.363	52.22
353.575	-29.7
353.787	72.7
353.999	17.41
354.21	74.75
354.422	9.22
354.633	74.75
354.845	56.32
355.057	144.38
355.268	70.65
355.48	13.31
355.692	13.31
355.903	-19.46
356.115	17.41
356.326	-3.07
356.538	56.32
356.749	23.55
356.961	144.38
357.172	21.5
357.384	-1.02
357.595	130.05
357.807	41.98
358.018	41.98
358.23	82.94
358.441	76.8
358.653	74.75
358.864	103.42
359.075	82.94
359.287	78.85
359.498	138.24
359.709	78.85
359.921	70.65
360.132	115.71
360.344	31.74
360.555	-9.22
360.766	48.13
360.977	37.89
361.189	136.19
361.4	7.17
361.611	130.05
361.823	80.89
362.034	58.37
362.245	66.56
362.456	74.75
362.667	-15.36
362.879	80.89
363.09	-41.98
363.301	7.17
363.512	68.61
363.723	78.85
363.935	48.13
364.146	128
364.357	74.75
364.568	48.13
364.779	3.07
364.99	138.24
365.201	87.04
365.412	46.08
365.623	13.31
365.834	46.08
366.045	41.98
366.256	107.52
366.467	95.23
366.678	62.46
366.889	87.04
367.1	-17.41
367.311	46.08
367.522	76.8
367.733	74.75
367.944	46.08
368.155	54.27
368.366	70.65
368.577	29.7
368.788	-1.02
368.999	-33.79
369.209	95.23
369.42	121.85
369.631	111.61
369.842	82.94
370.053	103.42
370.264	52.22
370.474	1.02
370.685	21.5
370.896	5.12
371.107	95.23
371.317	17.41
371.528	-7.17
371.739	115.71
371.95	39.94
372.16	95.23
372.371	21.5
372.582	50.18
372.792	35.84
373.003	89.09
373.214	80.89
373.424	97.28
373.635	44.03
373.846	29.7
374.056	80.89
374.267	91.13
374.477	80.89
374.688	33.79
374.898	15.36
375.109	25.6
375.319	62.46
375.53	50.18
375.74	33.79
375.951	62.46
376.161	41.98
376.372	91.13
376.582	7.17
376.793	54.27
377.003	-11.26
377.214	62.46
377.424	84.99
377.635	48.13
377.845	-60.42
378.055	136.19
378.266	23.55
378.476	46.08
378.686	5.12
378.897	78.85
379.107	13.31
379.317	84.99
379.528	17.41
379.738	111.61
379.948	70.65
380.158	56.32
380.369	29.7
380.579	-7.17
380.789	99.33
380.999	121.85
381.21	-23.55
381.42	111.61
381.63	84.99
381.84	23.55
382.05	138.24
382.261	62.46
382.471	95.23
382.681	29.7
382.891	35.84
383.101	29.7
383.311	33.79
383.521	-27.65
383.731	136.19
383.941	31.74
384.151	54.27
384.361	95.23
384.571	21.5
384.781	41.98
384.991	62.46
385.201	87.04
385.411	64.51
385.621	64.51
385.831	78.85
386.041	113.66
386.251	33.79
386.461	177.15
386.671	-19.46
386.881	76.8
387.091	103.42
387.301	87.04
387.511	113.66
387.72	119.81
387.93	113.66
388.14	-7.17
388.35	5.12
388.56	68.61
388.769	111.61
388.979	89.09
389.189	58.37
389.399	48.13
389.609	91.13
389.818	50.18
390.028	41.98
390.238	105.47
390.447	33.79
390.657	52.22
390.867	52.22
391.076	13.31
391.286	105.47
391.496	37.89
391.705	72.7
391.915	101.37
392.125	103.42
392.334	62.46
392.544	44.03
392.753	111.61
392.963	56.32
393.172	76.8
393.382	97.28
393.591	136.19
393.801	115.71
394.01	138.24
394.22	78.85
394.429	23.55
394.639	46.08
394.848	95.23
395.058	119.81
395.267	37.89
395.477	136.19
395.686	48.13
395.895	191.49
396.105	99.33
396.314	50.18
396.524	58.37
396.733	121.85
396.942	121.85
397.152	105.47
397.361	148.48
397.57	152.57
397.78	87.04
397.989	168.96
398.198	222.2
398.407	138.24
398.617	74.75
398.826	72.7
399.035	82.94
399.244	136.19
399.453	160.77
399.663	62.46
399.872	111.61
400.081	164.86
400.29	41.98
400.499	87.04
400.708	78.85
400.917	58.37
401.127	97.28
401.336	70.65
401.545	201.72
401.754	193.53
401.963	132.09
402.172	95.23
402.381	50.18
402.59	95.23
402.799	183.29
403.008	222.2
403.217	105.47
403.426	125.95
403.635	109.57
403.844	177.15
404.053	191.49
404.262	128
404.471	140.29
404.68	166.91
404.888	119.81
405.097	164.86
405.306	158.72
405.515	179.2
405.724	193.53
405.933	185.34
406.142	230.4
406.35	146.43
406.559	162.81
406.768	177.15
406.977	222.2
407.185	111.61
407.394	228.35
407.603	238.59
407.812	168.96
408.02	259.07
408.229	238.59
408.438	193.53
408.646	244.73
408.855	267.26
409.064	291.84
409.272	291.84
409.481	308.22
409.69	345.08
409.898	308.22
410.107	308.22
410.315	326.65
410.524	320.51
410.733	353.27
410.941	263.16
411.15	396.28
411.358	379.9
411.567	439.29
411.775	365.56
411.984	496.63
412.192	435.19
412.401	480.25
412.609	508.92
412.818	541.69
413.026	533.5
413.234	498.68
413.443	470.01
413.651	541.69
413.86	568.31
414.068	629.75
414.276	613.37
414.485	658.42
414.693	627.7
414.901	801.78
415.11	769.01
415.318	693.24
415.526	832.5
415.734	799.73
415.943	801.78
416.151	867.31
416.359	869.36
416.567	975.86
416.776	990.19
416.984	998.38
417.192	1127.41
417.4	1000.43
417.608	1057.78
417.817	1072.11
418.025	1094.64
418.233	1250.28
418.441	1170.41
418.649	1238
418.857	1401.83
419.065	1455.08
419.273	1463.27
419.481	1528.81
419.689	1461.23
419.897	1643.49
420.105	1670.12
420.313	1643.49
420.521	1850.34
420.729	1827.81
420.937	1881.06
421.145	1913.83
421.353	1930.21
421.561	2126.82
421.769	2175.97
421.977	2171.87
422.185	2128.86
422.393	2235.36
422.601	2642.9
422.809	2487.26
423.017	2532.31
423.224	2657.24
423.432	2788.31
423.64	2841.56
423.848	2962.39
424.056	2921.43
424.263	3115.98
424.471	3220.43
424.679	3240.91
424.887	3390.41
425.094	3429.32
425.302	3423.18
425.51	3607.5
425.718	3720.14
425.925	3773.38
426.133	4019.14
426.341	4185.02
426.548	4363.2
426.756	4283.33
426.964	4369.34
427.171	4567.99
427.379	4791.22
427.586	4955.06
427.794	5018.55
428.001	5200.82
428.209	5274.54
428.417	5309.36
428.624	5804.97
428.832	5774.25
429.039	5718.95
429.247	5594.03
429.454	6165.41
429.662	6663.07
429.869	6271.9
430.076	6656.92
430.284	6462.37
430.491	6775.7
430.699	7164.82
430.906	6996.89
431.114	7160.72
431.321	7547.79
431.528	7547.79
431.736	8133.51
431.943	8582.01
432.15	8242.05
432.358	8442.75
432.565	8868.73
432.772	8756.09
432.979	9313.14
433.187	9354.1
433.394	9460.59
433.601	10109.8
433.808	10361.7
434.016	10130.28
434.223	10361.7
434.43	11139.93
434.637	10828.63
434.844	11688.78
435.052	11932.49
435.259	11754.32
435.466	11778.89
435.673	11916.11
435.88	12714.81
436.087	13167.42
436.294	13114.17
436.501	12880.7
436.708	13202.23
436.915	13669.17
437.122	14275.37
437.329	14056.23
437.537	14506.79
437.743	14777.12
437.95	14766.88
438.157	15788.82
438.364	16200.46
438.571	16163.59
438.778	16247.56
438.985	17545.97
439.192	17076.99
439.399	17601.27
439.606	17195.77
439.813	18393.83
440.02	19202.78
440.227	18983.65
440.433	18559.72
440.64	19423.96
440.847	19186.4
441.054	19761.87
441.261	20712.13
441.467	20775.62
441.674	21060.29
441.881	21887.67
442.088	21795.51
442.294	21885.62
442.501	21983.92
442.708	22545.06
442.914	23794.32
443.121	24638.09
443.328	24197.77
443.534	25737.85
443.741	24713.86
443.948	24605.32
444.154	26258.03
444.361	26329.71
444.568	26600.04
444.774	26120.82
444.981	26731.11
445.187	27339.36
445.394	28746.31
445.6	28047.96
445.807	31187.49
446.013	29758.01
446.22	30460.46
446.426	31451.68
446.633	31719.96
446.839	32940.55
447.046	31504.93
447.252	33360.39
447.459	32936.46
447.665	33450.5
447.871	34484.72
448.078	36301.27
448.284	34341.36
448.491	35205.61
448.697	36639.18
448.903	37546.44
449.11	37521.86
449.316	36702.67
449.522	37433.8
449.728	38517.17
449.935	38980.01
450.141	38752.69
450.347	39506.34
450.553	38472.12
450.76	39301.54
450.966	40370.58
451.172	39813.54
451.378	41101.71
451.584	40307.1
451.791	41027.98
451.997	40978.83
452.203	41601.41
452.409	41691.52
452.615	41523.59
452.821	40100.25
453.027	39348.65
453.233	41920.9
453.44	40266.14
453.646	40618.39
453.852	40976.78
454.058	41552.26
454.264	40034.72
454.47	41101.71
454.676	39985.57
454.882	41580.93
455.088	37960.12
455.294	38717.87
455.5	39242.15
455.705	39733.67
455.911	37982.65
456.117	37175.75
456.323	37351.88
456.529	35394.02
456.735	36661.71
456.941	35410.4
457.147	35207.65
457.352	34208.25
457.558	33837.56
457.764	33552.9
457.97	33118.73
458.176	32477.71
458.381	32567.82
458.587	30859.82
458.793	31052.33
458.999	29348.42
459.204	31523.36
459.41	30798.38
459.616	28643.91
459.821	28625.48
460.027	28953.16
460.233	27898.45
460.438	26864.23
460.644	26978.92
460.85	25870.97
461.055	25666.17
461.261	25315.97
461.466	23616.15
461.672	23075.49
461.878	24269.45
462.083	23065.25
462.289	22741.67
462.494	22217.39
462.7	21519.03
462.905	20652.74
463.111	21682.87
463.316	21482.17
463.522	21076.67
463.727	21140.16
463.932	21068.48
464.138	20867.78
464.343	21125.82
464.549	20531.91
464.754	21011.14
464.959	20980.42
465.165	20527.81
465.37	20081.36
465.575	19514.07
465.781	20191.95
465.986	20171.47
466.191	19725.01
466.397	19421.91
466.602	18324.2
466.807	18940.64
467.012	18975.45
467.218	18698.98
467.423	18537.19
