Data from USB4F104151__55__14-43-10-080.txt Node

Date: Thu Mar 13 14:43:10 EDT 2025
User: louis
Spectrometer: USB4F10415
Trigger mode: 4
Integration Time (sec): 2.000000E-2
Scans to average: 1
Electric dark correction enabled: true
Nonlinearity correction enabled: false
Boxcar width: 0
XAxis mode: Wavelengths
Number of Pixels in Spectrum: 3648
>>>>>Begin Spectral Data<<<<<
178.204	-113.49
178.424	-113.49
178.644	-113.49
178.864	-123.73
179.084	-90.96
179.304	-52.05
179.524	-70.48
179.744	-2.9
179.964	107.69
180.184	13.48
180.404	17.58
180.624	-43.86
180.844	-17.24
181.064	-27.48
181.283	-2.9
181.503	40.11
181.723	38.06
181.943	7.34
182.163	27.82
182.383	29.87
182.602	64.68
182.822	124.07
183.042	79.02
183.262	-9.05
183.482	15.53
183.701	64.68
183.921	68.78
184.141	5.29
184.361	70.83
184.58	72.87
184.8	31.91
185.02	31.91
185.239	144.55
185.459	42.15
185.679	103.59
185.898	36.01
186.118	54.44
186.338	46.25
186.557	62.63
186.777	29.87
186.997	25.77
187.216	31.91
187.436	54.44
187.655	46.25
187.875	105.64
188.095	72.87
188.314	132.26
188.534	97.45
188.753	132.26
188.973	83.11
189.192	50.35
189.412	33.96
189.631	89.26
189.851	87.21
190.07	113.83
190.29	-23.38
190.509	-2.9
190.729	54.44
190.948	52.39
191.168	185.51
191.387	136.36
191.607	-15.19
191.826	87.21
192.045	36.01
192.265	50.35
192.484	38.06
192.704	119.98
192.923	-2.9
193.142	181.42
193.362	97.45
193.581	64.68
193.8	19.63
194.02	54.44
194.239	50.35
194.458	7.34
194.678	29.87
194.897	31.91
195.116	13.48
195.335	15.53
195.555	68.78
195.774	103.59
195.993	87.21
196.212	40.11
196.432	46.25
196.651	99.5
196.87	25.77
197.089	119.98
197.308	31.91
197.528	50.35
197.747	68.78
197.966	52.39
198.185	29.87
198.404	13.48
198.623	68.78
198.842	13.48
199.062	124.07
199.281	79.02
199.5	58.54
199.719	54.44
199.938	31.91
200.157	89.26
200.376	56.49
200.595	91.31
200.814	52.39
201.033	9.39
201.252	66.73
201.471	60.59
201.69	9.39
201.909	83.11
202.128	81.07
202.347	154.79
202.566	5.29
202.785	-29.52
203.004	29.87
203.223	128.17
203.442	38.06
203.661	83.11
203.879	52.39
204.098	29.87
204.317	13.48
204.536	68.78
204.755	79.02
204.974	144.55
205.193	-9.05
205.411	160.94
205.63	9.39
205.849	81.07
206.068	72.87
206.287	-19.29
206.505	111.78
206.724	5.29
206.943	113.83
207.162	9.39
207.381	-9.05
207.599	85.16
207.818	31.91
208.037	33.96
208.255	7.34
208.474	48.3
208.693	38.06
208.911	9.39
209.13	132.26
209.349	38.06
209.567	64.68
209.786	54.44
210.005	-31.57
210.223	52.39
210.442	17.58
210.661	7.34
210.879	13.48
211.098	81.07
211.316	46.25
211.535	68.78
211.753	-2.9
211.972	60.59
212.191	87.21
212.409	119.98
212.628	66.73
212.846	74.92
213.065	9.39
213.283	105.64
213.502	-2.9
213.72	138.41
213.938	60.59
214.157	1.19
214.375	58.54
214.594	58.54
214.812	27.82
215.031	46.25
215.249	7.34
215.467	46.25
215.686	62.63
215.904	21.67
216.122	13.48
216.341	48.3
216.559	5.29
216.778	48.3
216.996	19.63
217.214	38.06
217.432	-4.95
217.651	40.11
217.869	7.34
218.087	7.34
218.306	119.98
218.524	42.15
218.742	-0.85
218.96	124.07
219.179	-27.48
219.397	36.01
219.615	132.26
219.833	85.16
220.051	81.07
220.27	76.97
220.488	103.59
220.706	72.87
220.924	72.87
221.142	23.72
221.36	124.07
221.578	50.35
221.796	17.58
222.015	136.36
222.233	50.35
222.451	54.44
222.669	40.11
222.887	17.58
223.105	72.87
223.323	29.87
223.541	-11.09
223.759	46.25
223.977	79.02
224.195	171.18
224.413	17.58
224.631	9.39
224.849	36.01
225.067	38.06
225.285	54.44
225.503	66.73
225.721	-43.86
225.939	38.06
226.157	85.16
226.375	124.07
226.592	50.35
226.81	105.64
227.028	68.78
227.246	201.9
227.464	-9.05
227.682	-11.09
227.9	29.87
228.117	-7
228.335	107.69
228.553	60.59
228.771	5.29
228.989	91.31
229.206	81.07
229.424	7.34
229.642	62.63
229.86	95.4
230.077	87.21
230.295	89.26
230.513	72.87
230.731	46.25
230.948	87.21
231.166	25.77
231.384	9.39
231.601	38.06
231.819	38.06
232.037	38.06
232.254	-0.85
232.472	68.78
232.689	70.83
232.907	79.02
233.125	23.72
233.342	25.77
233.56	29.87
233.777	48.3
233.995	54.44
234.213	72.87
234.43	62.63
234.648	46.25
234.865	58.54
235.083	87.21
235.3	93.35
235.518	70.83
235.735	79.02
235.953	7.34
236.17	17.58
236.388	105.64
236.605	33.96
236.822	40.11
237.04	54.44
237.257	79.02
237.475	58.54
237.692	54.44
237.909	25.77
238.127	-2.9
238.344	62.63
238.562	81.07
238.779	-15.19
238.996	-25.43
239.214	97.45
239.431	76.97
239.648	-21.33
239.865	107.69
240.083	109.74
240.3	79.02
240.517	42.15
240.735	72.87
240.952	42.15
241.169	33.96
241.386	62.63
241.603	33.96
241.821	40.11
242.038	169.13
242.255	48.3
242.472	-41.81
242.689	97.45
242.907	-35.67
243.124	87.21
243.341	46.25
243.558	17.58
243.775	21.67
243.992	46.25
244.209	-33.62
244.426	146.6
244.643	5.29
244.86	17.58
245.078	13.48
245.295	42.15
245.512	74.92
245.729	31.91
245.946	74.92
246.163	79.02
246.38	95.4
246.597	62.63
246.814	62.63
247.031	105.64
247.248	99.5
247.464	33.96
247.681	15.53
247.898	46.25
248.115	87.21
248.332	-52.05
248.549	36.01
248.766	124.07
248.983	83.11
249.2	48.3
249.417	46.25
249.633	33.96
249.85	150.7
250.067	103.59
250.284	40.11
250.501	70.83
250.717	64.68
250.934	-41.81
251.151	48.3
251.368	38.06
251.585	74.92
251.801	50.35
252.018	13.48
252.235	87.21
252.451	87.21
252.668	-39.76
252.885	38.06
253.102	148.65
253.318	-0.85
253.535	-15.19
253.752	-2.9
253.968	70.83
254.185	105.64
254.401	128.17
254.618	111.78
254.835	13.48
255.051	48.3
255.268	101.55
255.484	46.25
255.701	60.59
255.917	72.87
256.134	68.78
256.351	50.35
256.567	13.48
256.784	50.35
257	3.24
257.217	-9.05
257.433	66.73
257.65	50.35
257.866	140.46
258.082	54.44
258.299	66.73
258.515	97.45
258.732	40.11
258.948	58.54
259.165	76.97
259.381	99.5
259.597	56.49
259.814	21.67
260.03	66.73
260.246	1.19
260.463	119.98
260.679	58.54
260.895	40.11
261.112	56.49
261.328	33.96
261.544	46.25
261.761	128.17
261.977	42.15
262.193	-7
262.409	54.44
262.626	25.77
262.842	60.59
263.058	-21.33
263.274	89.26
263.49	9.39
263.707	103.59
263.923	-2.9
264.139	21.67
264.355	-35.67
264.571	79.02
264.787	70.83
265.004	81.07
265.22	23.72
265.436	52.39
265.652	11.43
265.868	21.67
266.084	42.15
266.3	48.3
266.516	-68.44
266.732	-33.62
266.948	40.11
267.164	-23.38
267.38	91.31
267.596	95.4
267.812	58.54
268.028	46.25
268.244	5.29
268.46	79.02
268.676	44.2
268.892	99.5
269.108	-0.85
269.324	9.39
269.54	23.72
269.756	62.63
269.972	-4.95
270.188	54.44
270.403	-7
270.619	103.59
270.835	64.68
271.051	31.91
271.267	-7
271.483	50.35
271.698	152.74
271.914	7.34
272.13	29.87
272.346	50.35
272.562	44.2
272.777	11.43
272.993	103.59
273.209	72.87
273.425	-23.38
273.64	56.49
273.856	29.87
274.072	42.15
274.287	5.29
274.503	99.5
274.719	54.44
274.934	62.63
275.15	-41.81
275.366	111.78
275.581	40.11
275.797	38.06
276.012	50.35
276.228	-11.09
276.444	58.54
276.659	46.25
276.875	119.98
277.09	72.87
277.306	-15.19
277.521	105.64
277.737	62.63
277.952	64.68
278.168	87.21
278.383	87.21
278.599	56.49
278.814	1.19
279.03	136.36
279.245	169.13
279.461	7.34
279.676	79.02
279.892	21.67
280.107	38.06
280.322	29.87
280.538	38.06
280.753	7.34
280.969	44.2
281.184	15.53
281.399	117.93
281.615	44.2
281.83	74.92
282.045	7.34
282.26	21.67
282.476	79.02
282.691	62.63
282.906	25.77
283.122	38.06
283.337	1.19
283.552	-31.57
283.767	79.02
283.983	50.35
284.198	33.96
284.413	-29.52
284.628	-35.67
284.843	79.02
285.058	119.98
285.274	115.88
285.489	36.01
285.704	87.21
285.919	62.63
286.134	64.68
286.349	46.25
286.564	5.29
286.779	62.63
286.995	38.06
287.21	5.29
287.425	21.67
287.64	66.73
287.855	103.59
288.07	46.25
288.285	87.21
288.5	81.07
288.715	74.92
288.93	5.29
289.145	5.29
289.36	87.21
289.575	97.45
289.79	58.54
290.004	62.63
290.219	95.4
290.434	66.73
290.649	7.34
290.864	27.82
291.079	-0.85
291.294	60.59
291.509	25.77
291.724	111.78
291.938	13.48
292.153	111.78
292.368	79.02
292.583	70.83
292.798	40.11
293.012	46.25
293.227	89.26
293.442	-19.29
293.657	17.58
293.871	136.36
294.086	38.06
294.301	156.84
294.516	68.78
294.73	21.67
294.945	3.24
295.16	58.54
295.374	70.83
295.589	72.87
295.804	-9.05
296.018	87.21
296.233	70.83
296.447	58.54
296.662	-25.43
296.877	46.25
297.091	68.78
297.306	46.25
297.52	21.67
297.735	107.69
297.949	72.87
298.164	70.83
298.378	44.2
298.593	31.91
298.807	54.44
299.022	72.87
299.236	62.63
299.451	87.21
299.665	38.06
299.88	79.02
300.094	93.35
300.309	46.25
300.523	44.2
300.737	-11.09
300.952	11.43
301.166	38.06
301.381	29.87
301.595	87.21
301.809	58.54
302.024	54.44
302.238	46.25
302.452	93.35
302.667	33.96
302.881	107.69
303.095	31.91
303.309	62.63
303.524	-33.62
303.738	9.39
303.952	36.01
304.166	42.15
304.381	1.19
304.595	93.35
304.809	72.87
305.023	-25.43
305.237	70.83
305.452	79.02
305.666	27.82
305.88	136.36
306.094	48.3
306.308	46.25
306.522	87.21
306.736	48.3
306.95	136.36
307.164	9.39
307.379	42.15
307.593	89.26
307.807	140.46
308.021	17.58
308.235	-52.05
308.449	-15.19
308.663	1.19
308.877	111.78
309.091	62.63
309.305	42.15
309.519	7.34
309.733	38.06
309.947	74.92
310.161	70.83
310.374	21.67
310.588	33.96
310.802	54.44
311.016	-11.09
311.23	56.49
311.444	21.67
311.658	99.5
311.872	146.6
312.085	7.34
312.299	50.35
312.513	87.21
312.727	29.87
312.941	9.39
313.154	58.54
313.368	83.11
313.582	-31.57
313.796	52.39
314.009	23.72
314.223	128.17
314.437	79.02
314.651	66.73
314.864	52.39
315.078	13.48
315.292	19.63
315.505	48.3
315.719	27.82
315.933	31.91
316.146	81.07
316.36	31.91
316.573	87.21
316.787	46.25
317.001	-35.67
317.214	95.4
317.428	50.35
317.641	-19.29
317.855	74.92
318.068	58.54
318.282	81.07
318.495	-2.9
318.709	117.93
318.922	54.44
319.136	146.6
319.349	107.69
319.563	50.35
319.776	36.01
319.99	31.91
320.203	87.21
320.417	56.49
320.63	62.63
320.843	91.31
321.057	27.82
321.27	64.68
321.483	40.11
321.697	128.17
321.91	5.29
322.124	81.07
322.337	60.59
322.55	31.91
322.763	3.24
322.977	79.02
323.19	48.3
323.403	83.11
323.617	25.77
323.83	101.55
324.043	7.34
324.256	38.06
324.469	21.67
324.683	146.6
324.896	91.31
325.109	74.92
325.322	46.25
325.535	13.48
325.748	111.78
325.962	46.25
326.175	70.83
326.388	68.78
326.601	79.02
326.814	64.68
327.027	62.63
327.24	119.98
327.453	17.58
327.666	95.4
327.879	64.68
328.092	95.4
328.305	5.29
328.518	42.15
328.731	46.25
328.944	-0.85
329.157	87.21
329.37	21.67
329.583	152.74
329.796	177.32
330.009	-9.05
330.222	38.06
330.435	62.63
330.648	48.3
330.861	42.15
331.073	46.25
331.286	89.26
331.499	95.4
331.712	99.5
331.925	103.59
332.138	42.15
332.35	31.91
332.563	21.67
332.776	117.93
332.989	99.5
333.202	111.78
333.414	42.15
333.627	126.12
333.84	91.31
334.053	9.39
334.265	44.2
334.478	60.59
334.691	105.64
334.903	54.44
335.116	13.48
335.329	29.87
335.541	95.4
335.754	64.68
335.966	62.63
336.179	29.87
336.392	83.11
336.604	40.11
336.817	62.63
337.029	113.83
337.242	64.68
337.454	132.26
337.667	79.02
337.88	23.72
338.092	50.35
338.305	101.55
338.517	46.25
338.729	124.07
338.942	81.07
339.154	95.4
339.367	29.87
339.579	38.06
339.792	76.97
340.004	40.11
340.217	56.49
340.429	13.48
340.641	-33.62
340.854	109.74
341.066	54.44
341.278	68.78
341.491	107.69
341.703	11.43
341.915	17.58
342.128	124.07
342.34	52.39
342.552	99.5
342.764	46.25
342.977	83.11
343.189	36.01
343.401	42.15
343.613	13.48
343.826	-29.52
344.038	83.11
344.25	36.01
344.462	31.91
344.674	81.07
344.886	72.87
345.099	95.4
345.311	15.53
345.523	44.2
345.735	31.91
345.947	54.44
346.159	-15.19
346.371	144.55
346.583	117.93
346.795	60.59
347.007	46.25
347.219	70.83
347.431	64.68
347.643	79.02
347.855	97.45
348.067	103.59
348.279	13.48
348.491	31.91
348.703	54.44
348.915	38.06
349.127	17.58
349.339	11.43
349.551	52.39
349.763	62.63
349.975	9.39
350.187	87.21
350.399	79.02
350.61	97.45
350.822	58.54
351.034	138.41
351.246	31.91
351.458	97.45
351.669	48.3
351.881	83.11
352.093	162.98
352.305	119.98
352.517	105.64
352.728	91.31
352.94	54.44
353.152	124.07
353.363	44.2
353.575	105.64
353.787	119.98
353.999	79.02
354.21	50.35
354.422	89.26
354.633	62.63
354.845	79.02
355.057	79.02
355.268	95.4
355.48	33.96
355.692	46.25
355.903	76.97
356.115	25.77
356.326	58.54
356.538	95.4
356.749	33.96
356.961	79.02
357.172	5.29
357.384	38.06
357.595	66.73
357.807	81.07
358.018	46.25
358.23	87.21
358.441	89.26
358.653	126.12
358.864	15.53
359.075	56.49
359.287	17.58
359.498	87.21
359.709	76.97
359.921	56.49
360.132	33.96
360.344	66.73
360.555	72.87
360.766	44.2
360.977	29.87
361.189	138.41
361.4	21.67
361.611	128.17
361.823	138.41
362.034	119.98
362.245	19.63
362.456	25.77
362.667	111.78
362.879	25.77
363.09	62.63
363.301	74.92
363.512	79.02
363.723	25.77
363.935	46.25
364.146	54.44
364.357	40.11
364.568	109.74
364.779	68.78
364.99	33.96
365.201	-2.9
365.412	87.21
365.623	-23.38
365.834	64.68
366.045	40.11
366.256	117.93
366.467	138.41
366.678	58.54
366.889	42.15
367.1	-31.57
367.311	83.11
367.522	48.3
367.733	97.45
367.944	66.73
368.155	87.21
368.366	95.4
368.577	66.73
368.788	162.98
368.999	31.91
369.209	83.11
369.42	107.69
369.631	152.74
369.842	5.29
370.053	-80.72
370.264	79.02
370.474	31.91
370.685	105.64
370.896	58.54
371.107	124.07
371.317	46.25
371.528	105.64
371.739	91.31
371.95	40.11
372.16	115.88
372.371	-23.38
372.582	70.83
372.792	91.31
373.003	101.55
373.214	54.44
373.424	165.03
373.635	62.63
373.846	103.59
374.056	70.83
374.267	162.98
374.477	42.15
374.688	46.25
374.898	70.83
375.109	76.97
375.319	111.78
375.53	111.78
375.74	85.16
375.951	46.25
376.161	46.25
376.372	111.78
376.582	52.39
376.793	89.26
377.003	-11.09
377.214	89.26
377.424	-33.62
377.635	7.34
377.845	19.63
378.055	79.02
378.266	31.91
378.476	115.88
378.686	33.96
378.897	60.59
379.107	79.02
379.317	109.74
379.528	15.53
379.738	58.54
379.948	70.83
380.158	15.53
380.369	52.39
380.579	1.19
380.789	13.48
380.999	171.18
381.21	113.83
381.42	107.69
381.63	72.87
381.84	79.02
382.05	93.35
382.261	58.54
382.471	58.54
382.681	54.44
382.891	138.41
383.101	68.78
383.311	74.92
383.521	64.68
383.731	87.21
383.941	122.02
384.151	185.51
384.361	50.35
384.571	42.15
384.781	38.06
384.991	171.18
385.201	136.36
385.411	70.83
385.621	44.2
385.831	19.63
386.041	64.68
386.251	58.54
386.461	128.17
386.671	83.11
386.881	48.3
387.091	19.63
387.301	52.39
387.511	9.39
387.72	111.78
387.93	74.92
388.14	101.55
388.35	81.07
388.56	103.59
388.769	85.16
388.979	70.83
389.189	23.72
389.399	62.63
389.609	9.39
389.818	79.02
390.028	76.97
390.238	154.79
390.447	68.78
390.657	87.21
390.867	72.87
391.076	103.59
391.286	58.54
391.496	91.31
391.705	81.07
391.915	162.98
392.125	103.59
392.334	66.73
392.544	185.51
392.753	136.36
392.963	40.11
393.172	144.55
393.382	103.59
393.591	136.36
393.801	25.77
394.01	160.94
394.22	132.26
394.429	146.6
394.639	160.94
394.848	87.21
395.058	93.35
395.267	142.5
395.477	79.02
395.686	111.78
395.895	148.65
396.105	89.26
396.314	138.41
396.524	70.83
396.733	85.16
396.942	111.78
397.152	99.5
397.361	70.83
397.57	117.93
397.78	115.88
397.989	87.21
398.198	193.7
398.407	136.36
398.617	97.45
398.826	119.98
399.035	62.63
399.244	189.61
399.453	97.45
399.663	111.78
399.872	160.94
400.081	38.06
400.29	165.03
400.499	3.24
400.708	148.65
400.917	107.69
401.127	79.02
401.336	58.54
401.545	212.14
401.754	60.59
401.963	201.9
402.172	132.26
402.381	17.58
402.59	99.5
402.799	76.97
403.008	99.5
403.217	122.02
403.426	111.78
403.635	83.11
403.844	165.03
404.053	99.5
404.262	156.84
404.471	169.13
404.68	169.13
404.888	146.6
405.097	128.17
405.306	234.66
405.515	201.9
405.724	226.47
405.933	169.13
406.142	218.28
406.35	173.22
406.559	269.48
406.768	179.37
406.977	253.09
407.185	302.25
407.394	191.66
407.603	144.55
407.812	218.28
408.02	249
408.229	269.48
408.438	308.39
408.646	236.71
408.855	210.09
409.064	341.16
409.272	292.01
409.481	281.77
409.69	212.14
409.898	275.62
410.107	261.29
410.315	332.97
410.524	375.97
410.733	332.97
410.941	316.58
411.15	384.16
411.358	390.31
411.567	375.97
411.775	384.16
411.984	400.55
412.192	365.73
412.401	410.79
412.609	441.51
412.818	531.62
413.026	464.04
413.234	541.86
413.443	488.61
413.651	541.86
413.86	558.24
414.068	613.54
414.276	554.15
414.485	525.47
414.693	568.48
414.901	681.12
415.11	734.37
415.318	613.54
415.526	705.7
415.734	779.42
415.943	750.75
416.151	875.68
416.359	758.94
416.567	758.94
416.776	824.48
416.984	912.54
417.192	957.6
417.4	890.01
417.608	910.49
417.817	949.4
418.025	1115.29
418.233	1131.67
418.441	1072.28
418.649	1143.96
418.857	1078.43
419.065	1268.89
419.273	1250.46
419.481	1279.13
419.689	1340.57
419.897	1447.06
420.105	1397.91
420.313	1440.92
420.521	1389.72
420.729	1549.46
420.937	1602.71
421.145	1614.99
421.353	1766.54
421.561	1756.3
421.769	1836.17
421.977	1875.09
422.185	1830.03
422.393	2036.88
422.601	2153.61
422.809	2196.62
423.017	2188.43
423.224	2241.67
423.432	2301.06
423.64	2307.21
423.848	2561.16
424.056	2491.52
424.263	2544.77
424.471	2643.07
424.679	2720.9
424.887	2874.49
425.094	2913.41
425.302	2905.21
425.51	3054.72
425.718	3265.66
425.925	3134.59
426.133	3292.28
426.341	3437.69
426.548	3544.18
426.756	3570.8
426.964	3622
427.171	3941.49
427.379	3961.97
427.586	3957.87
427.794	4195.43
428.001	4256.87
428.209	4385.9
428.417	4555.88
428.624	4742.24
428.832	4727.91
429.039	4746.34
429.247	4785.25
429.454	5243.99
429.662	5459.03
429.869	5088.35
430.076	5538.9
430.284	5342.3
430.491	5450.84
430.699	5917.78
430.906	5954.64
431.114	5913.68
431.321	6272.07
431.528	6440.01
431.736	6708.29
431.943	7052.35
432.15	6870.08
432.358	7038.02
432.565	7197.76
432.772	7246.91
432.979	7740.47
433.187	7875.63
433.394	7808.05
433.601	8320.04
433.808	8369.19
434.016	8191.02
434.223	8696.87
434.43	9286.68
434.637	9053.22
434.844	9466.91
435.052	9761.81
435.259	9681.94
435.466	9911.32
435.673	9632.79
435.88	10288.14
436.087	10779.65
436.294	11041.79
436.501	10548.23
436.708	10738.69
436.915	11121.66
437.122	11717.62
437.329	11426.81
437.537	11899.89
437.743	11959.28
437.95	12192.75
438.157	12682.22
438.364	13165.54
438.571	13087.71
438.778	13317.09
438.985	14357.46
439.192	14027.73
439.399	14365.65
439.606	14087.12
439.813	14736.33
440.02	15612.86
440.227	15397.82
440.433	15166.4
440.64	15803.32
440.847	15489.98
441.054	15805.37
441.261	16817.07
441.467	16874.41
441.674	16952.23
441.881	17912.73
442.088	17761.18
442.294	17376.16
442.501	17839
442.708	18447.25
442.914	19014.54
443.121	20149.11
443.328	19325.83
443.534	20700.01
443.741	19893.12
443.948	19725.18
444.154	21480.29
444.361	21119.85
444.568	21078.89
444.774	21300.07
444.981	21537.63
445.187	22258.52
445.394	23130.95
445.6	22575.95
445.807	25021.23
446.013	24040.25
446.22	24210.23
446.426	25539.36
446.633	25371.43
446.839	26247.96
447.046	25217.83
447.252	26880.78
447.459	26667.8
447.665	26794.77
447.871	27808.51
448.078	28818.16
448.284	27415.3
448.491	28470.01
448.697	29362.92
448.903	29879.01
449.11	30067.42
449.316	29528.81
449.522	30210.78
449.728	31249.1
449.935	31230.67
450.141	31142.61
450.347	31767.24
450.553	31019.73
450.76	31511.24
450.966	32522.94
451.172	32074.43
451.378	33020.59
451.584	32006.85
451.791	33270.45
451.997	32901.81
452.203	33389.23
452.409	33602.22
452.615	33178.29
452.821	32021.19
453.027	32090.82
453.233	33696.42
453.44	32002.75
453.646	32393.92
453.852	32953.01
454.058	33276.59
454.264	32381.63
454.47	33497.77
454.676	32262.85
454.882	33022.64
455.088	30395.1
455.294	30737.11
455.5	31361.74
455.705	31888.07
455.911	30528.22
456.117	30063.33
456.323	29606.63
456.529	28029.69
456.735	29182.7
456.941	28128
457.147	28158.72
457.352	27101.97
457.558	26438.42
457.764	26987.28
457.97	26481.43
458.176	26250.01
458.381	26049.31
458.587	24916.78
458.793	24711.99
458.999	23554.88
459.204	25303.85
459.41	24267.58
459.616	22942.54
459.821	22956.88
460.027	22770.51
460.233	22399.83
460.438	21160.81
460.644	21527.39
460.85	20425.59
461.055	20192.12
461.261	20173.69
461.466	18617.23
461.672	18076.57
461.878	19542.91
462.083	18207.64
462.289	17658.78
462.494	17460.13
462.7	17052.58
462.905	16561.07
463.111	17017.77
463.316	16847.79
463.522	16565.17
463.727	16667.56
463.932	16462.77
464.138	16382.9
464.343	16434.1
464.549	16077.75
464.754	16438.19
464.959	16352.18
465.165	16288.69
465.37	15473.6
465.575	15041.48
465.781	15809.47
465.986	15756.22
466.191	15348.67
466.397	15102.92
466.602	14351.31
466.807	15000.52
467.012	14734.28
