Data from USB4F104151__205__14-45-21-289.txt Node

Date: Thu Mar 13 14:45:21 EDT 2025
User: louis
Spectrometer: USB4F10415
Trigger mode: 4
Integration Time (sec): 2.000000E-2
Scans to average: 1
Electric dark correction enabled: true
Nonlinearity correction enabled: false
Boxcar width: 0
XAxis mode: Wavelengths
Number of Pixels in Spectrum: 3648
>>>>>Begin Spectral Data<<<<<
178.204	-66.73
178.424	-66.73
178.644	-66.73
178.864	-99.5
179.084	-60.59
179.304	-25.77
179.524	-48.3
179.744	7
179.964	47.96
180.184	-1.19
180.404	-13.48
180.624	-23.72
180.844	66.39
181.064	13.14
181.283	-42.15
181.503	-40.11
181.723	60.24
181.943	13.14
182.163	88.92
182.383	41.81
182.602	13.14
182.822	21.33
183.042	-17.58
183.262	31.57
183.482	15.19
183.701	15.19
183.921	11.09
184.141	-50.35
184.361	72.53
184.58	62.29
184.8	105.3
185.02	-21.67
185.239	82.77
185.459	23.38
185.679	56.15
185.898	-70.83
186.118	68.44
186.338	56.15
186.557	35.67
186.777	-5.29
186.997	35.67
187.216	-52.39
187.436	64.34
187.655	80.72
187.875	31.57
188.095	47.96
188.314	138.07
188.534	29.52
188.753	35.67
188.973	29.52
189.192	64.34
189.412	-15.53
189.631	23.38
189.851	-15.53
190.07	82.77
190.29	13.14
190.509	15.19
190.729	90.96
190.948	39.76
191.168	183.12
191.387	97.11
191.607	-1.19
191.826	56.15
192.045	52.05
192.265	60.24
192.484	29.52
192.704	27.48
192.923	-9.39
193.142	82.77
193.362	2.9
193.581	33.62
193.8	97.11
194.02	88.92
194.239	0.85
194.458	-13.48
194.678	37.72
194.897	41.81
195.116	-1.19
195.335	-42.15
195.555	31.57
195.774	47.96
195.993	74.58
196.212	2.9
196.432	-64.68
196.651	-19.63
196.87	-7.34
197.089	138.07
197.308	64.34
197.528	33.62
197.747	-13.48
197.966	-23.72
198.185	97.11
198.404	64.34
198.623	47.96
198.842	33.62
199.062	39.76
199.281	72.53
199.5	17.24
199.719	86.87
199.938	43.86
200.157	31.57
200.376	56.15
200.595	121.68
200.814	19.29
201.033	-7.34
201.252	52.05
201.471	37.72
201.69	62.29
201.909	97.11
202.128	45.91
202.347	-5.29
202.566	-3.24
202.785	31.57
203.004	-1.19
203.223	105.3
203.442	21.33
203.661	-11.43
203.879	11.09
204.098	58.2
204.317	15.19
204.536	74.58
204.755	39.76
204.974	60.24
205.193	47.96
205.411	97.11
205.63	68.44
205.849	-1.19
206.068	2.9
206.287	80.72
206.505	80.72
206.724	47.96
206.943	-21.67
207.162	11.09
207.381	-5.29
207.599	60.24
207.818	66.39
208.037	-21.67
208.255	25.43
208.474	105.3
208.693	68.44
208.911	43.86
209.13	105.3
209.349	27.48
209.567	82.77
209.786	39.76
210.005	43.86
210.223	11.09
210.442	-17.58
210.661	-58.54
210.879	2.9
211.098	90.96
211.316	17.24
211.535	56.15
211.753	-21.67
211.972	107.35
212.191	58.2
212.409	31.57
212.628	72.53
212.846	7
213.065	80.72
213.283	54.1
213.502	-81.07
213.72	15.19
213.938	17.24
214.157	60.24
214.375	19.29
214.594	15.19
214.812	31.57
215.031	23.38
215.249	93.01
215.467	80.72
215.686	15.19
215.904	2.9
216.122	0.85
216.341	138.07
216.559	-15.53
216.778	99.16
216.996	142.16
217.214	-15.53
217.432	25.43
217.651	-58.54
217.869	2.9
218.087	101.2
218.306	17.24
218.524	19.29
218.742	23.38
218.96	31.57
219.179	19.29
219.397	27.48
219.615	105.3
219.833	68.44
220.051	52.05
220.27	121.68
220.488	103.25
220.706	101.2
220.924	50
221.142	11.09
221.36	25.43
221.578	113.49
221.796	-19.63
222.015	58.2
222.233	64.34
222.451	115.54
222.669	-27.82
222.887	60.24
223.105	4.95
223.323	60.24
223.541	43.86
223.759	52.05
223.977	125.78
224.195	25.43
224.413	25.43
224.631	41.81
224.849	76.63
225.067	113.49
225.285	97.11
225.503	31.57
225.721	-11.43
225.939	80.72
226.157	78.68
226.375	80.72
226.592	7
226.81	9.05
227.028	66.39
227.246	-5.29
227.464	-48.3
227.682	29.52
227.9	62.29
228.117	107.35
228.335	39.76
228.553	-31.91
228.771	121.68
228.989	43.86
229.206	82.77
229.424	-42.15
229.642	90.96
229.86	-3.24
230.077	68.44
230.295	41.81
230.513	97.11
230.731	50
230.948	72.53
231.166	54.1
231.384	41.81
231.601	52.05
231.819	119.64
232.037	164.69
232.254	56.15
232.472	154.45
232.689	56.15
232.907	50
233.125	50
233.342	35.67
233.56	9.05
233.777	-9.39
233.995	43.86
234.213	58.2
234.43	64.34
234.648	113.49
234.865	86.87
235.083	74.58
235.3	29.52
235.518	-25.77
235.735	68.44
235.953	101.2
236.17	35.67
236.388	76.63
236.605	72.53
236.822	131.92
237.04	47.96
237.257	66.39
237.475	105.3
237.692	80.72
237.909	33.62
238.127	25.43
238.344	47.96
238.562	66.39
238.779	50
238.996	11.09
239.214	62.29
239.431	64.34
239.648	21.33
239.865	72.53
240.083	-9.39
240.3	33.62
240.517	0.85
240.735	33.62
240.952	2.9
241.169	70.48
241.386	-9.39
241.603	52.05
241.821	-1.19
242.038	99.16
242.255	17.24
242.472	27.48
242.689	17.24
242.907	31.57
243.124	54.1
243.341	97.11
243.558	-66.73
243.775	23.38
243.992	17.24
244.209	33.62
244.426	72.53
244.643	66.39
244.86	-17.58
245.078	-25.77
245.295	47.96
245.512	-13.48
245.729	43.86
245.946	113.49
246.163	-5.29
246.38	56.15
246.597	66.39
246.814	50
247.031	56.15
247.248	56.15
247.464	60.24
247.681	4.95
247.898	21.33
248.115	84.82
248.332	17.24
248.549	123.73
248.766	72.53
248.983	-7.34
249.2	31.57
249.417	105.3
249.633	56.15
249.85	105.3
250.067	25.43
250.284	43.86
250.501	-1.19
250.717	50
250.934	-54.44
251.151	15.19
251.368	27.48
251.585	93.01
251.801	27.48
252.018	17.24
252.235	7
252.451	33.62
252.668	27.48
252.885	31.57
253.102	111.44
253.318	-33.96
253.535	60.24
253.752	19.29
253.968	19.29
254.185	-31.91
254.401	-25.77
254.618	80.72
254.835	15.19
255.051	19.29
255.268	52.05
255.484	101.2
255.701	19.29
255.917	33.62
256.134	4.95
256.351	0.85
256.567	-1.19
256.784	2.9
257	7
257.217	64.34
257.433	17.24
257.65	109.4
257.866	64.34
258.082	2.9
258.299	-25.77
258.515	15.19
258.732	80.72
258.948	2.9
259.165	19.29
259.381	7
259.597	50
259.814	50
260.03	39.76
260.246	-31.91
260.463	58.2
260.679	72.53
260.895	39.76
261.112	7
261.328	-13.48
261.544	15.19
261.761	58.2
261.977	74.58
262.193	11.09
262.409	17.24
262.626	39.76
262.842	41.81
263.058	41.81
263.274	109.4
263.49	17.24
263.707	121.68
263.923	39.76
264.139	-1.19
264.355	56.15
264.571	115.54
264.787	50
265.004	101.2
265.22	97.11
265.436	-56.49
265.652	17.24
265.868	97.11
266.084	-1.19
266.3	93.01
266.516	-21.67
266.732	27.48
266.948	-3.24
267.164	72.53
267.38	109.4
267.596	115.54
267.812	125.78
268.028	60.24
268.244	15.19
268.46	64.34
268.676	50
268.892	50
269.108	-81.07
269.324	72.53
269.54	-42.15
269.756	11.09
269.972	31.57
270.188	-1.19
270.403	7
270.619	64.34
270.835	23.38
271.051	62.29
271.267	66.39
271.483	121.68
271.698	39.76
271.914	33.62
272.13	41.81
272.346	60.24
272.562	50
272.777	97.11
272.993	-38.06
273.209	25.43
273.425	97.11
273.64	29.52
273.856	43.86
274.072	113.49
274.287	43.86
274.503	72.53
274.719	39.76
274.934	64.34
275.15	-38.06
275.366	50
275.581	58.2
275.797	93.01
276.012	39.76
276.228	43.86
276.444	23.38
276.659	148.31
276.875	54.1
277.09	58.2
277.306	39.76
277.521	74.58
277.737	-48.3
277.952	117.59
278.168	64.34
278.383	-21.67
278.599	41.81
278.814	88.92
279.03	11.09
279.245	138.07
279.461	43.86
279.676	25.43
279.892	0.85
280.107	-21.67
280.322	41.81
280.538	7
280.753	80.72
280.969	84.82
281.184	43.86
281.399	41.81
281.615	41.81
281.83	56.15
282.045	-31.91
282.26	25.43
282.476	43.86
282.691	33.62
282.906	52.05
283.122	27.48
283.337	31.57
283.552	84.82
283.767	82.77
283.983	138.07
284.198	0.85
284.413	19.29
284.628	-17.58
284.843	29.52
285.058	56.15
285.274	50
285.489	15.19
285.704	27.48
285.919	9.05
286.134	2.9
286.349	43.86
286.564	27.48
286.779	39.76
286.995	15.19
287.21	11.09
287.425	66.39
287.64	4.95
287.855	15.19
288.07	13.14
288.285	72.53
288.5	11.09
288.715	62.29
288.93	82.77
289.145	103.25
289.36	62.29
289.575	56.15
289.79	13.14
290.004	25.43
290.219	80.72
290.434	29.52
290.649	99.16
290.864	-25.77
291.079	68.44
291.294	41.81
291.509	37.72
291.724	23.38
291.938	64.34
292.153	43.86
292.368	58.2
292.583	43.86
292.798	62.29
293.012	68.44
293.227	58.2
293.442	27.48
293.657	82.77
293.871	31.57
294.086	62.29
294.301	80.72
294.516	62.29
294.73	33.62
294.945	93.01
295.16	99.16
295.374	76.63
295.589	125.78
295.804	-15.53
296.018	103.25
296.233	95.06
296.447	56.15
296.662	47.96
296.877	170.83
297.091	68.44
297.306	19.29
297.52	27.48
297.735	70.48
297.949	52.05
298.164	123.73
298.378	146.26
298.593	-25.77
298.807	25.43
299.022	7
299.236	80.72
299.451	52.05
299.665	15.19
299.88	78.68
300.094	23.38
300.309	-17.58
300.523	76.63
300.737	52.05
300.952	115.54
301.166	25.43
301.381	47.96
301.595	39.76
301.809	80.72
302.024	66.39
302.238	-29.87
302.452	64.34
302.667	52.05
302.881	127.83
303.095	74.58
303.309	86.87
303.524	-33.96
303.738	47.96
303.952	39.76
304.166	80.72
304.381	-33.96
304.595	113.49
304.809	66.39
305.023	56.15
305.237	-7.34
305.452	-9.39
305.666	66.39
305.88	72.53
306.094	90.96
306.308	131.92
306.522	68.44
306.736	52.05
306.95	39.76
307.164	58.2
307.379	-1.19
307.593	47.96
307.807	47.96
308.021	140.12
308.235	119.64
308.449	31.57
308.663	47.96
308.877	131.92
309.091	23.38
309.305	9.05
309.519	19.29
309.733	64.34
309.947	70.48
310.161	47.96
310.374	80.72
310.588	2.9
310.802	37.72
311.016	27.48
311.23	60.24
311.444	-11.43
311.658	29.52
311.872	39.76
312.085	127.83
312.299	15.19
312.513	138.07
312.727	9.05
312.941	-7.34
313.154	25.43
313.368	33.62
313.582	90.96
313.796	82.77
314.009	56.15
314.223	82.77
314.437	17.24
314.651	15.19
314.864	15.19
315.078	82.77
315.292	80.72
315.505	84.82
315.719	105.3
315.933	7
316.146	74.58
316.36	-19.63
316.573	121.68
316.787	0.85
317.001	56.15
317.214	23.38
317.428	80.72
317.641	-17.58
317.855	66.39
318.068	56.15
318.282	146.26
318.495	88.92
318.709	76.63
318.922	80.72
319.136	74.58
319.349	50
319.563	-23.72
319.776	41.81
319.99	-7.34
320.203	88.92
320.417	66.39
320.63	68.44
320.843	84.82
321.057	-9.39
321.27	50
321.483	43.86
321.697	39.76
321.91	-48.3
322.124	-23.72
322.337	88.92
322.55	99.16
322.763	99.16
322.977	47.96
323.19	39.76
323.403	60.24
323.617	35.67
323.83	72.53
324.043	31.57
324.256	72.53
324.469	9.05
324.683	58.2
324.896	-42.15
325.109	11.09
325.322	82.77
325.535	93.01
325.748	88.92
325.962	37.72
326.175	50
326.388	76.63
326.601	7
326.814	23.38
327.027	31.57
327.24	39.76
327.453	43.86
327.666	7
327.879	-5.29
328.092	29.52
328.305	47.96
328.518	-40.11
328.731	80.72
328.944	97.11
329.157	43.86
329.37	64.34
329.583	7
329.796	105.3
330.009	0.85
330.222	56.15
330.435	43.86
330.648	101.2
330.861	-15.53
331.073	146.26
331.286	68.44
331.499	41.81
331.712	-1.19
331.925	66.39
332.138	7
332.35	82.77
332.563	33.62
332.776	113.49
332.989	2.9
333.202	72.53
333.414	23.38
333.627	9.05
333.84	39.76
334.053	72.53
334.265	68.44
334.478	21.33
334.691	72.53
334.903	54.1
335.116	43.86
335.329	129.88
335.541	166.74
335.754	109.4
335.966	0.85
336.179	-29.87
336.392	72.53
336.604	50
336.817	156.5
337.029	33.62
337.242	-64.68
337.454	27.48
337.667	31.57
337.88	82.77
338.092	58.2
338.305	39.76
338.517	17.24
338.729	64.34
338.942	80.72
339.154	80.72
339.367	52.05
339.579	13.14
339.792	43.86
340.004	117.59
340.217	45.91
340.429	97.11
340.641	35.67
340.854	60.24
341.066	41.81
341.278	56.15
341.491	70.48
341.703	82.77
341.915	-17.58
342.128	76.63
342.34	17.24
342.552	64.34
342.764	113.49
342.977	56.15
343.189	74.58
343.401	23.38
343.613	50
343.826	-1.19
344.038	-9.39
344.25	80.72
344.462	19.29
344.674	76.63
344.886	72.53
345.099	146.26
345.311	72.53
345.523	33.62
345.735	72.53
345.947	99.16
346.159	31.57
346.371	-9.39
346.583	-15.53
346.795	129.88
347.007	15.19
347.219	80.72
347.431	66.39
347.643	74.58
347.855	50
348.067	56.15
348.279	0.85
348.491	56.15
348.703	105.3
348.915	72.53
349.127	27.48
349.339	84.82
349.551	35.67
349.763	121.68
349.975	15.19
350.187	64.34
350.399	66.39
350.61	9.05
350.822	54.1
351.034	82.77
351.246	84.82
351.458	25.43
351.669	25.43
351.881	80.72
352.093	68.44
352.305	47.96
352.517	72.53
352.728	33.62
352.94	0.85
353.152	47.96
353.363	-23.72
353.575	123.73
353.787	43.86
353.999	56.15
354.21	97.11
354.422	0.85
354.633	-23.72
354.845	15.19
355.057	-68.78
355.268	107.35
355.48	74.58
355.692	21.33
355.903	101.2
356.115	125.78
356.326	74.58
356.538	154.45
356.749	138.07
356.961	23.38
357.172	31.57
357.384	15.19
357.595	50
357.807	64.34
358.018	103.25
358.23	80.72
358.441	144.21
358.653	80.72
358.864	52.05
359.075	84.82
359.287	15.19
359.498	72.53
359.709	-5.29
359.921	56.15
360.132	70.48
360.344	129.88
360.555	56.15
360.766	66.39
360.977	39.76
361.189	80.72
361.4	33.62
361.611	62.29
361.823	82.77
362.034	72.53
362.245	-11.43
362.456	80.72
362.667	74.58
362.879	72.53
363.09	58.2
363.301	64.34
363.512	52.05
363.723	97.11
363.935	129.88
364.146	88.92
364.357	66.39
364.568	93.01
364.779	74.58
364.99	113.49
365.201	47.96
365.412	86.87
365.623	58.2
365.834	56.15
366.045	105.3
366.256	58.2
366.467	123.73
366.678	123.73
366.889	117.59
367.1	54.1
367.311	31.57
367.522	60.24
367.733	105.3
367.944	93.01
368.155	60.24
368.366	-7.34
368.577	58.2
368.788	76.63
368.999	97.11
369.209	47.96
369.42	119.64
369.631	84.82
369.842	15.19
370.053	41.81
370.264	125.78
370.474	50
370.685	76.63
370.896	60.24
371.107	117.59
371.317	111.44
371.528	41.81
371.739	76.63
371.95	33.62
372.16	43.86
372.371	47.96
372.582	62.29
372.792	129.88
373.003	97.11
373.214	64.34
373.424	64.34
373.635	54.1
373.846	105.3
374.056	47.96
374.267	70.48
374.477	23.38
374.688	47.96
374.898	7
375.109	133.97
375.319	37.72
375.53	121.68
375.74	56.15
375.951	23.38
376.161	72.53
376.372	97.11
376.582	39.76
376.793	47.96
377.003	39.76
377.214	64.34
377.424	45.91
377.635	80.72
377.845	56.15
378.055	101.2
378.266	9.05
378.476	-9.39
378.686	7
378.897	74.58
379.107	88.92
379.317	144.21
379.528	80.72
379.738	56.15
379.948	2.9
380.158	60.24
380.369	72.53
380.579	70.48
380.789	88.92
380.999	7
381.21	103.25
381.42	164.69
381.63	15.19
381.84	97.11
382.05	115.54
382.261	50
382.471	64.34
382.681	72.53
382.891	172.88
383.101	-15.53
383.311	17.24
383.521	80.72
383.731	121.68
383.941	97.11
384.151	148.31
384.361	88.92
384.571	39.76
384.781	183.12
384.991	97.11
385.201	33.62
385.411	72.53
385.621	39.76
385.831	99.16
386.041	189.27
386.251	125.78
386.461	88.92
386.671	41.81
386.881	74.58
387.091	39.76
387.301	58.2
387.511	154.45
387.72	47.96
387.93	82.77
388.14	50
388.35	31.57
388.56	90.96
388.769	82.77
388.979	74.58
389.189	15.19
389.399	80.72
389.609	107.35
389.818	131.92
390.028	52.05
390.238	47.96
390.447	72.53
390.657	72.53
390.867	-1.19
391.076	58.2
391.286	68.44
391.496	101.2
391.705	43.86
391.915	115.54
392.125	113.49
392.334	93.01
392.544	74.58
392.753	88.92
392.963	17.24
393.172	154.45
393.382	27.48
393.591	189.27
393.801	93.01
394.01	129.88
394.22	72.53
394.429	35.67
394.639	99.16
394.848	66.39
395.058	88.92
395.267	2.9
395.477	15.19
395.686	9.05
395.895	84.82
396.105	125.78
396.314	60.24
396.524	66.39
396.733	80.72
396.942	41.81
397.152	93.01
397.361	156.5
397.57	64.34
397.78	105.3
397.989	117.59
398.198	205.65
398.407	29.52
398.617	105.3
398.826	39.76
399.035	50
399.244	125.78
399.453	68.44
399.663	84.82
399.872	56.15
400.081	76.63
400.29	191.31
400.499	97.11
400.708	152.4
400.917	148.31
401.127	121.68
401.336	138.07
401.545	121.68
401.754	115.54
401.963	166.74
402.172	121.68
402.381	123.73
402.59	189.27
402.799	144.21
403.008	113.49
403.217	138.07
403.426	121.68
403.635	84.82
403.844	119.64
404.053	211.79
404.262	90.96
404.471	203.6
404.68	144.21
404.888	136.02
405.097	195.41
405.306	209.75
405.515	195.41
405.724	166.74
405.933	252.75
406.142	213.84
406.35	158.55
406.559	195.41
406.768	172.88
406.977	269.14
407.185	187.22
407.394	205.65
407.603	197.46
407.812	267.09
408.02	252.75
408.229	238.42
408.438	279.38
408.646	203.6
408.855	285.52
409.064	344.91
409.272	269.14
409.481	351.06
409.69	265.04
409.898	289.62
410.107	322.38
410.315	383.82
410.524	367.44
410.733	303.95
410.941	369.49
411.15	371.54
411.358	416.59
411.567	404.3
411.775	416.59
411.984	449.36
412.192	510.8
412.401	437.07
412.609	514.89
412.818	543.57
413.026	502.61
413.234	557.9
413.443	549.71
413.651	480.08
413.86	568.14
414.068	695.11
414.276	666.44
414.485	588.62
414.693	691.02
414.901	756.55
415.11	746.31
415.318	678.73
415.526	727.88
415.734	795.47
415.943	803.66
416.151	846.66
416.359	897.86
416.567	813.9
416.776	940.87
416.984	990.02
417.192	994.12
417.4	1014.6
417.608	934.73
417.817	1057.61
418.025	1035.08
418.233	1235.78
418.441	1162.05
418.649	1125.19
418.857	1200.96
419.065	1295.17
419.273	1301.31
419.481	1461.06
419.689	1473.34
419.897	1555.26
420.105	1571.65
420.313	1588.03
420.521	1624.89
420.729	1747.77
420.937	1745.72
421.145	1923.9
421.353	1887.03
421.561	2001.72
421.769	1952.57
421.977	2071.35
422.185	2067.25
422.393	2138.93
422.601	2317.11
422.809	2284.34
423.017	2319.15
423.224	2474.8
423.432	2581.29
423.64	2587.44
423.848	2818.86
424.056	2706.22
424.263	2931.5
424.471	2978.6
424.679	2956.07
424.887	3099.43
425.094	3222.31
425.302	3279.65
425.51	3423.01
425.718	3451.68
425.925	3447.58
426.133	3646.24
426.341	3810.08
426.548	4010.78
426.756	3838.75
426.964	4037.4
427.171	4285.2
427.379	4350.74
427.586	4440.85
427.794	4659.98
428.001	4727.57
428.209	4979.47
428.417	4883.21
428.624	5294.85
428.832	5356.29
429.039	5315.33
429.247	5204.74
429.454	5774.08
429.662	6183.67
429.869	5806.84
430.076	6146.81
430.284	5980.92
430.491	6312.69
430.699	6572.79
430.906	6576.88
431.114	6699.76
431.321	7062.25
431.528	7226.09
431.736	7289.57
431.943	7813.85
432.15	7672.54
432.358	7660.26
432.565	8239.83
432.772	7863.01
432.979	8583.89
433.187	8776.4
433.394	8592.08
433.601	9280.2
433.808	9403.08
434.016	9296.58
434.223	9677.51
434.43	10328.76
434.637	10271.42
434.844	10584.76
435.052	10926.77
435.259	10640.05
435.466	10611.38
435.673	10664.63
435.88	11440.81
436.087	11926.18
436.294	12001.95
436.501	11645.6
436.708	12231.32
436.915	12632.72
437.122	13220.49
437.329	12890.77
437.537	13374.09
437.743	13568.65
437.95	13337.23
438.157	13949.57
438.364	14594.68
438.571	14662.26
438.778	14813.81
438.985	15944.29
439.192	15258.22
439.399	16206.43
439.606	15491.69
439.813	16450.14
440.02	17341
440.227	17146.45
440.433	16886.36
440.64	17861.19
440.847	17775.17
441.054	17949.25
441.261	19038.77
441.467	18821.69
441.674	19081.78
441.881	19563.05
442.088	19632.68
442.294	19692.07
442.501	20218.4
442.708	20548.12
442.914	21443.09
443.121	22163.97
443.328	21682.7
443.534	23136.76
443.741	22553.09
443.948	22200.83
444.154	23814.63
444.361	23914.98
444.568	23990.76
444.774	23912.94
444.981	24285.67
445.187	24687.07
445.394	25739.72
445.6	25516.5
445.807	28211.62
446.013	26884.54
446.22	27640.24
446.426	28363.17
446.633	28840.35
446.839	29718.93
447.046	28838.3
447.252	30187.91
447.459	30364.04
447.665	29880.72
447.871	31574.39
448.078	32549.22
448.284	31005.05
448.491	32153.96
448.697	33220.95
448.903	34031.95
449.11	34177.36
449.316	33657.17
449.522	34234.7
449.728	35135.81
449.935	35481.91
450.141	35428.66
450.347	36084.01
450.553	35002.69
450.76	36008.24
450.966	36901.15
451.172	36600.1
451.378	37404.95
451.584	36747.56
451.791	37421.34
451.997	37515.54
452.203	38105.36
452.409	38078.74
452.615	37609.75
452.821	36507.94
453.027	36229.42
453.233	38228.24
453.44	36442.41
453.646	37124.38
453.852	37378.33
454.058	37810.45
454.264	36981.03
454.47	37935.38
454.676	36483.37
454.882	37939.47
455.088	34445.64
455.294	35336.51
455.5	35664.18
455.705	36442.41
455.911	34818.37
456.117	34455.88
456.323	33954.13
456.529	32037.23
456.735	33571.16
456.941	32797.02
457.147	32244.07
457.352	31320.44
457.558	30972.28
457.764	31017.34
457.97	30294.41
458.176	30060.94
458.381	29778.32
458.587	28348.84
458.793	28543.39
458.999	26900.92
459.204	28809.63
459.41	28236.2
459.616	26200.52
459.821	26442.18
460.027	26243.52
460.233	25948.62
460.438	24650.21
460.644	24697.31
460.85	23439.86
461.055	23345.65
461.261	23341.55
461.466	21602.83
461.672	20845.08
461.878	22112.77
462.083	20941.33
462.289	20615.71
462.494	20441.63
462.7	19282.48
462.905	19200.56
463.111	19692.07
463.316	19823.14
463.522	19153.46
463.727	19319.34
463.932	19126.83
464.138	19094.07
464.343	19305.01
464.549	18733.62
464.754	19006
464.959	19057.2
465.165	18471.48
465.37	18350.65
465.575	17644.1
465.781	18516.54
465.986	18549.31
466.191	17687.11
466.397	17345.1
466.602	16704.09
466.807	17298
467.012	17449.55
467.218	17238.61
467.423	16822.87
467.628	17234.51
467.833	17615.43
468.038	17185.36
468.244	16763.48
468.449	17220.17
468.654	16779.86
