Data from USB4F104151__222__14-45-32-846.txt Node

Date: Thu Mar 13 14:45:32 EDT 2025
User: louis
Spectrometer: USB4F10415
Trigger mode: 4
Integration Time (sec): 2.000000E-2
Scans to average: 1
Electric dark correction enabled: true
Nonlinearity correction enabled: false
Boxcar width: 0
XAxis mode: Wavelengths
Number of Pixels in Spectrum: 3648
>>>>>Begin Spectral Data<<<<<
178.204	-132.78
178.424	-132.78
178.644	-132.78
178.864	-112.3
179.084	-118.44
179.304	-26.28
179.524	-13.99
179.744	-40.62
179.964	41.3
180.184	33.11
180.404	22.87
180.624	-28.33
180.844	-9.9
181.064	-61.1
181.283	31.06
181.503	-3.75
181.723	55.64
181.943	-26.28
182.163	78.16
182.383	-7.85
182.602	39.25
182.822	80.21
183.042	106.84
183.262	14.68
183.482	31.06
183.701	-5.8
183.921	-46.76
184.141	69.97
184.361	63.83
184.58	41.3
184.8	57.68
185.02	39.25
185.239	-5.8
185.459	31.06
185.679	16.73
185.898	8.53
186.118	100.69
186.338	24.92
186.557	33.11
186.777	0.34
186.997	-63.15
187.216	18.77
187.436	86.36
187.655	33.11
187.875	22.87
188.095	-81.58
188.314	80.21
188.534	90.45
188.753	-16.04
188.973	41.3
189.192	72.02
189.412	37.2
189.631	14.68
189.851	33.11
190.07	84.31
190.29	35.16
190.509	39.25
190.729	-9.9
190.948	65.88
191.168	155.99
191.387	51.54
191.607	-38.57
191.826	-9.9
192.045	16.73
192.265	-20.14
192.484	2.39
192.704	51.54
192.923	35.16
193.142	121.17
193.362	112.98
193.581	33.11
193.8	67.92
194.02	55.64
194.239	16.73
194.458	16.73
194.678	43.35
194.897	22.87
195.116	31.06
195.335	47.44
195.555	22.87
195.774	41.3
195.993	112.98
196.212	2.39
196.432	-32.43
196.651	63.83
196.87	39.25
197.089	119.12
197.308	2.39
197.528	115.03
197.747	31.06
197.966	0.34
198.185	94.55
198.404	10.58
198.623	6.49
198.842	88.4
199.062	35.16
199.281	35.16
199.5	-22.19
199.719	35.16
199.938	39.25
200.157	37.2
200.376	24.92
200.595	112.98
200.814	-26.28
201.033	35.16
201.252	121.17
201.471	6.49
201.69	86.36
201.909	41.3
202.128	72.02
202.347	82.26
202.566	51.54
202.785	47.44
203.004	-16.04
203.223	110.93
203.442	88.4
203.661	65.88
203.879	69.97
204.098	33.11
204.317	-7.85
204.536	104.79
204.755	39.25
204.974	47.44
205.193	-32.43
205.411	96.6
205.63	14.68
205.849	-32.43
206.068	2.39
206.287	31.06
206.505	26.96
206.724	96.6
206.943	-34.47
207.162	31.06
207.381	14.68
207.599	43.35
207.818	-26.28
208.037	-42.67
208.255	-89.77
208.474	82.26
208.693	59.73
208.911	26.96
209.13	94.55
209.349	74.07
209.567	110.93
209.786	39.25
210.005	80.21
210.223	51.54
210.442	-3.75
210.661	47.44
210.879	39.25
211.098	-13.99
211.316	57.68
211.535	49.49
211.753	41.3
211.972	-16.04
212.191	67.92
212.409	16.73
212.628	6.49
212.846	-9.9
213.065	69.97
213.283	24.92
213.502	0.34
213.72	22.87
213.938	-22.19
214.157	18.77
214.375	31.06
214.594	61.78
214.812	88.4
215.031	-30.38
215.249	43.35
215.467	22.87
215.686	20.82
215.904	65.88
216.122	53.59
216.341	-1.71
216.559	86.36
216.778	112.98
216.996	-18.09
217.214	39.25
217.432	-18.09
217.651	47.44
217.869	-1.71
218.087	-7.85
218.306	20.82
218.524	31.06
218.742	-18.09
218.96	16.73
219.179	47.44
219.397	31.06
219.615	-34.47
219.833	47.44
220.051	-1.71
220.27	121.17
220.488	-7.85
220.706	47.44
220.924	37.2
221.142	51.54
221.36	35.16
221.578	49.49
221.796	-22.19
222.015	51.54
222.233	100.69
222.451	63.83
222.669	4.44
222.887	76.12
223.105	24.92
223.323	55.64
223.541	14.68
223.759	51.54
223.977	24.92
224.195	6.49
224.413	8.53
224.631	-16.04
224.849	22.87
225.067	137.56
225.285	4.44
225.503	88.4
225.721	10.58
225.939	31.06
226.157	14.68
226.375	84.31
226.592	2.39
226.81	47.44
227.028	69.97
227.246	80.21
227.464	-1.71
227.682	59.73
227.9	80.21
228.117	14.68
228.335	76.12
228.553	-18.09
228.771	59.73
228.989	59.73
229.206	72.02
229.424	-34.47
229.642	14.68
229.86	-13.99
230.077	43.35
230.295	31.06
230.513	80.21
230.731	31.06
230.948	100.69
231.166	84.31
231.384	47.44
231.601	6.49
231.819	22.87
232.037	24.92
232.254	-13.99
232.472	51.54
232.689	-7.85
232.907	37.2
233.125	82.26
233.342	104.79
233.56	22.87
233.777	-9.9
233.995	24.92
234.213	82.26
234.43	39.25
234.648	8.53
234.865	-22.19
235.083	88.4
235.3	145.75
235.518	72.02
235.735	65.88
235.953	47.44
236.17	43.35
236.388	0.34
236.605	6.49
236.822	43.35
237.04	-1.71
237.257	20.82
237.475	76.12
237.692	57.68
237.909	35.16
238.127	69.97
238.344	-1.71
238.562	6.49
238.779	35.16
238.996	59.73
239.214	6.49
239.431	117.08
239.648	2.39
239.865	110.93
240.083	43.35
240.3	65.88
240.517	39.25
240.735	82.26
240.952	90.45
241.169	31.06
241.386	26.96
241.603	65.88
241.821	-67.24
242.038	39.25
242.255	117.08
242.472	-34.47
242.689	41.3
242.907	39.25
243.124	14.68
243.341	-30.38
243.558	49.49
243.775	-40.62
243.992	-5.8
244.209	57.68
244.426	43.35
244.643	18.77
244.86	-32.43
245.078	39.25
245.295	45.4
245.512	61.78
245.729	-9.9
245.946	121.17
246.163	39.25
246.38	0.34
246.597	106.84
246.814	-34.47
247.031	76.12
247.248	-9.9
247.464	31.06
247.681	57.68
247.898	67.92
248.115	72.02
248.332	-16.04
248.549	57.68
248.766	88.4
248.983	129.36
249.2	-24.23
249.417	72.02
249.633	-28.33
249.85	102.74
250.067	145.75
250.284	47.44
250.501	72.02
250.717	-26.28
250.934	-9.9
251.151	49.49
251.368	33.11
251.585	2.39
251.801	31.06
252.018	-34.47
252.235	88.4
252.451	22.87
252.668	20.82
252.885	76.12
253.102	24.92
253.318	41.3
253.535	69.97
253.752	12.63
253.968	72.02
254.185	-18.09
254.401	45.4
254.618	98.64
254.835	22.87
255.051	96.6
255.268	39.25
255.484	10.58
255.701	2.39
255.917	49.49
256.134	-81.58
256.351	-11.95
256.567	-32.43
256.784	84.31
257	-30.38
257.217	16.73
257.433	94.55
257.65	-9.9
257.866	41.3
258.082	26.96
258.299	-42.67
258.515	24.92
258.732	-26.28
258.948	22.87
259.165	6.49
259.381	39.25
259.597	78.16
259.814	33.11
260.03	18.77
260.246	57.68
260.463	31.06
260.679	112.98
260.895	16.73
261.112	84.31
261.328	74.07
261.544	6.49
261.761	139.6
261.977	49.49
262.193	55.64
262.409	102.74
262.626	31.06
262.842	8.53
263.058	43.35
263.274	-5.8
263.49	39.25
263.707	78.16
263.923	31.06
264.139	88.4
264.355	51.54
264.571	117.08
264.787	37.2
265.004	115.03
265.22	22.87
265.436	35.16
265.652	20.82
265.868	-1.71
266.084	55.64
266.3	59.73
266.516	14.68
266.732	-57
266.948	92.5
267.164	129.36
267.38	57.68
267.596	133.46
267.812	80.21
268.028	80.21
268.244	78.16
268.46	51.54
268.676	8.53
268.892	0.34
269.108	-13.99
269.324	-63.15
269.54	2.39
269.756	39.25
269.972	6.49
270.188	72.02
270.403	-24.23
270.619	2.39
270.835	63.83
271.051	6.49
271.267	63.83
271.483	8.53
271.698	127.32
271.914	67.92
272.13	12.63
272.346	35.16
272.562	2.39
272.777	-18.09
272.993	14.68
273.209	-44.71
273.425	63.83
273.64	-1.71
273.856	29.01
274.072	39.25
274.287	47.44
274.503	39.25
274.719	147.8
274.934	63.83
275.15	-13.99
275.366	76.12
275.581	31.06
275.797	49.49
276.012	69.97
276.228	49.49
276.444	-32.43
276.659	0.34
276.875	41.3
277.09	-9.9
277.306	-42.67
277.521	14.68
277.737	29.01
277.952	63.83
278.168	-7.85
278.383	22.87
278.599	39.25
278.814	41.3
279.03	65.88
279.245	67.92
279.461	22.87
279.676	67.92
279.892	47.44
280.107	51.54
280.322	-52.91
280.538	43.35
280.753	88.4
280.969	35.16
281.184	84.31
281.399	108.88
281.615	33.11
281.83	24.92
282.045	-9.9
282.26	53.59
282.476	14.68
282.691	55.64
282.906	55.64
283.122	-11.95
283.337	-73.39
283.552	57.68
283.767	-59.05
283.983	24.92
284.198	-38.57
284.413	0.34
284.628	31.06
284.843	6.49
285.058	80.21
285.274	104.79
285.489	82.26
285.704	31.06
285.919	0.34
286.134	-40.62
286.349	112.98
286.564	0.34
286.779	57.68
286.995	98.64
287.21	24.92
287.425	4.44
287.64	55.64
287.855	18.77
288.07	41.3
288.285	0.34
288.5	104.79
288.715	65.88
288.93	6.49
289.145	35.16
289.36	20.82
289.575	72.02
289.79	22.87
290.004	10.58
290.219	72.02
290.434	20.82
290.649	88.4
290.864	6.49
291.079	29.01
291.294	31.06
291.509	31.06
291.724	82.26
291.938	14.68
292.153	35.16
292.368	65.88
292.583	10.58
292.798	14.68
293.012	39.25
293.227	108.88
293.442	8.53
293.657	35.16
293.871	63.83
294.086	49.49
294.301	88.4
294.516	31.06
294.73	6.49
294.945	67.92
295.16	41.3
295.374	57.68
295.589	-1.71
295.804	59.73
296.018	31.06
296.233	35.16
296.447	61.78
296.662	24.92
296.877	90.45
297.091	84.31
297.306	-18.09
297.52	-9.9
297.735	92.5
297.949	55.64
298.164	-40.62
298.378	72.02
298.593	-1.71
298.807	-24.23
299.022	41.3
299.236	133.46
299.451	39.25
299.665	-32.43
299.88	112.98
300.094	39.25
300.309	72.02
300.523	26.96
300.737	16.73
300.952	86.36
301.166	94.55
301.381	2.39
301.595	121.17
301.809	-18.09
302.024	20.82
302.238	16.73
302.452	59.73
302.667	-1.71
302.881	31.06
303.095	14.68
303.309	47.44
303.524	26.96
303.738	-42.67
303.952	4.44
304.166	37.2
304.381	-30.38
304.595	59.73
304.809	-3.75
305.023	-50.86
305.237	47.44
305.452	14.68
305.666	84.31
305.88	31.06
306.094	96.6
306.308	35.16
306.522	112.98
306.736	-5.8
306.95	33.11
307.164	74.07
307.379	-36.52
307.593	84.31
307.807	90.45
308.021	6.49
308.235	59.73
308.449	6.49
308.663	14.68
308.877	127.32
309.091	31.06
309.305	47.44
309.519	22.87
309.733	8.53
309.947	-28.33
310.161	117.08
310.374	63.83
310.588	100.69
310.802	0.34
311.016	-46.76
311.23	61.78
311.444	-46.76
311.658	63.83
311.872	24.92
312.085	123.22
312.299	80.21
312.513	98.64
312.727	39.25
312.941	8.53
313.154	61.78
313.368	67.92
313.582	-1.71
313.796	26.96
314.009	14.68
314.223	-18.09
314.437	8.53
314.651	74.07
314.864	65.88
315.078	16.73
315.292	47.44
315.505	-34.47
315.719	84.31
315.933	49.49
316.146	22.87
316.36	-26.28
316.573	145.75
316.787	51.54
317.001	8.53
317.214	31.06
317.428	39.25
317.641	35.16
317.855	24.92
318.068	-5.8
318.282	76.12
318.495	88.4
318.709	35.16
318.922	55.64
319.136	65.88
319.349	65.88
319.563	29.01
319.776	31.06
319.99	51.54
320.203	65.88
320.417	82.26
320.63	33.11
320.843	72.02
321.057	16.73
321.27	67.92
321.483	80.21
321.697	84.31
321.91	-7.85
322.124	88.4
322.337	4.44
322.55	80.21
322.763	-18.09
322.977	61.78
323.19	53.59
323.403	57.68
323.617	80.21
323.83	2.39
324.043	67.92
324.256	-9.9
324.469	-16.04
324.683	123.22
324.896	59.73
325.109	72.02
325.322	14.68
325.535	72.02
325.748	63.83
325.962	65.88
326.175	57.68
326.388	72.02
326.601	67.92
326.814	26.96
327.027	-26.28
327.24	55.64
327.453	33.11
327.666	76.12
327.879	43.35
328.092	55.64
328.305	22.87
328.518	43.35
328.731	8.53
328.944	110.93
329.157	6.49
329.37	39.25
329.583	74.07
329.796	74.07
330.009	-40.62
330.222	96.6
330.435	92.5
330.648	49.49
330.861	26.96
331.073	39.25
331.286	31.06
331.499	112.98
331.712	57.68
331.925	22.87
332.138	53.59
332.35	57.68
332.563	80.21
332.776	22.87
332.989	80.21
333.202	2.39
333.414	8.53
333.627	121.17
333.84	35.16
334.053	-22.19
334.265	80.21
334.478	-7.85
334.691	24.92
334.903	22.87
335.116	8.53
335.329	63.83
335.541	18.77
335.754	194.9
335.966	-28.33
336.179	37.2
336.392	-18.09
336.604	24.92
336.817	82.26
337.029	72.02
337.242	-9.9
337.454	172.37
337.667	90.45
337.88	84.31
338.092	-9.9
338.305	51.54
338.517	100.69
338.729	24.92
338.942	110.93
339.154	-5.8
339.367	26.96
339.579	14.68
339.792	121.17
340.004	67.92
340.217	-22.19
340.429	41.3
340.641	31.06
340.854	-5.8
341.066	74.07
341.278	96.6
341.491	123.22
341.703	35.16
341.915	55.64
342.128	100.69
342.34	104.79
342.552	22.87
342.764	16.73
342.977	43.35
343.189	82.26
343.401	78.16
343.613	-38.57
343.826	112.98
344.038	-30.38
344.25	65.88
344.462	2.39
344.674	-40.62
344.886	14.68
345.099	51.54
345.311	39.25
345.523	35.16
345.735	-9.9
345.947	104.79
346.159	24.92
346.371	139.6
346.583	96.6
346.795	63.83
347.007	39.25
347.219	16.73
347.431	10.58
347.643	20.82
347.855	18.77
348.067	18.77
348.279	49.49
348.491	55.64
348.703	14.68
348.915	74.07
349.127	47.44
349.339	12.63
349.551	6.49
349.763	8.53
349.975	158.03
350.187	43.35
350.399	63.83
350.61	131.41
350.822	-7.85
351.034	80.21
351.246	-50.86
351.458	100.69
351.669	94.55
351.881	55.64
352.093	39.25
352.305	51.54
352.517	47.44
352.728	72.02
352.94	106.84
353.152	72.02
353.363	-54.95
353.575	22.87
353.787	84.31
353.999	76.12
354.21	112.98
354.422	65.88
354.633	2.39
354.845	6.49
355.057	47.44
355.268	14.68
355.48	55.64
355.692	82.26
355.903	45.4
356.115	96.6
356.326	-30.38
356.538	104.79
356.749	51.54
356.961	67.92
357.172	129.36
357.384	35.16
357.595	147.8
357.807	49.49
358.018	86.36
358.23	108.88
358.441	47.44
358.653	100.69
358.864	31.06
359.075	24.92
359.287	57.68
359.498	55.64
359.709	31.06
359.921	72.02
360.132	104.79
360.344	-1.71
360.555	0.34
360.766	76.12
360.977	33.11
361.189	37.2
361.4	67.92
361.611	139.6
361.823	80.21
362.034	96.6
362.245	26.96
362.456	88.4
362.667	80.21
362.879	18.77
363.09	24.92
363.301	82.26
363.512	86.36
363.723	-5.8
363.935	2.39
364.146	151.89
364.357	90.45
364.568	88.4
364.779	14.68
364.99	-26.28
365.201	20.82
365.412	74.07
365.623	12.63
365.834	47.44
366.045	26.96
366.256	57.68
366.467	57.68
366.678	63.83
366.889	74.07
367.1	31.06
367.311	24.92
367.522	43.35
367.733	80.21
367.944	33.11
368.155	18.77
368.366	51.54
368.577	84.31
368.788	88.4
368.999	14.68
369.209	96.6
369.42	72.02
369.631	153.94
369.842	90.45
370.053	22.87
370.264	29.01
370.474	2.39
370.685	84.31
370.896	55.64
371.107	82.26
371.317	106.84
371.528	10.58
371.739	69.97
371.95	100.69
372.16	31.06
372.371	2.39
372.582	108.88
372.792	96.6
373.003	2.39
373.214	26.96
373.424	59.73
373.635	112.98
373.846	90.45
374.056	2.39
374.267	57.68
374.477	102.74
374.688	86.36
374.898	88.4
375.109	123.22
375.319	69.97
375.53	57.68
375.74	98.64
375.951	55.64
376.161	88.4
376.372	88.4
376.582	10.58
376.793	-1.71
377.003	39.25
377.214	80.21
377.424	14.68
377.635	78.16
377.845	29.01
378.055	129.36
378.266	31.06
378.476	80.21
378.686	57.68
378.897	24.92
379.107	80.21
379.317	108.88
379.528	33.11
379.738	94.55
379.948	96.6
380.158	123.22
380.369	22.87
380.579	104.79
380.789	82.26
380.999	145.75
381.21	84.31
381.42	67.92
381.63	37.2
381.84	123.22
382.05	108.88
382.261	104.79
382.471	112.98
382.681	31.06
382.891	51.54
383.101	67.92
383.311	26.96
383.521	39.25
383.731	96.6
383.941	100.69
384.151	55.64
384.361	51.54
384.571	61.78
384.781	96.6
384.991	47.44
385.201	137.56
385.411	96.6
385.621	145.75
385.831	110.93
386.041	90.45
386.251	100.69
386.461	123.22
386.671	47.44
386.881	96.6
387.091	86.36
387.301	35.16
387.511	55.64
387.72	22.87
387.93	162.13
388.14	16.73
388.35	76.12
388.56	123.22
388.769	78.16
388.979	74.07
389.189	2.39
389.399	117.08
389.609	108.88
389.818	74.07
390.028	72.02
390.238	104.79
390.447	74.07
390.657	86.36
390.867	96.6
391.076	96.6
391.286	35.16
391.496	96.6
391.705	153.94
391.915	74.07
392.125	92.5
392.334	72.02
392.544	131.41
392.753	127.32
392.963	51.54
393.172	153.94
393.382	-18.09
393.591	137.56
393.801	72.02
394.01	145.75
394.22	174.42
394.429	82.26
394.639	110.93
394.848	119.12
395.058	143.7
395.267	96.6
395.477	29.01
395.686	117.08
395.895	131.41
396.105	188.75
396.314	96.6
396.524	186.71
396.733	18.77
396.942	141.65
397.152	133.46
397.361	139.6
397.57	88.4
397.78	137.56
397.989	133.46
398.198	131.41
398.407	96.6
398.617	104.79
398.826	123.22
399.035	55.64
399.244	76.12
399.453	104.79
399.663	92.5
399.872	100.69
400.081	69.97
400.29	219.47
400.499	47.44
400.708	137.56
400.917	121.17
401.127	108.88
401.336	67.92
401.545	123.22
401.754	149.84
401.963	78.16
402.172	139.6
402.381	80.21
402.59	102.74
402.799	137.56
403.008	121.17
403.217	186.71
403.426	205.14
403.635	72.02
403.844	162.13
404.053	172.37
404.262	129.36
404.471	244.05
404.68	158.03
404.888	227.67
405.097	125.27
405.306	205.14
405.515	205.14
405.724	231.76
405.933	196.95
406.142	235.86
406.35	231.76
406.559	270.67
406.768	196.95
406.977	287.06
407.185	160.08
407.394	190.8
407.603	215.38
407.812	246.1
408.02	217.43
408.229	278.87
408.438	235.86
408.646	328.02
408.855	198.99
409.064	293.2
409.272	366.93
409.481	297.3
409.69	280.91
409.898	270.67
410.107	377.17
410.315	317.78
410.524	336.21
410.733	342.35
410.941	342.35
411.15	411.98
411.358	342.35
411.567	432.46
411.775	434.51
411.984	446.8
412.192	530.77
412.401	448.85
412.609	442.7
412.818	579.92
413.026	477.52
413.234	571.72
413.443	629.07
413.651	522.57
413.86	663.88
414.068	692.55
414.276	624.97
414.485	588.11
414.693	710.99
414.901	743.75
415.11	807.24
415.318	684.36
415.526	819.53
415.734	866.63
415.943	883.02
416.151	944.45
416.359	966.98
416.567	825.67
416.776	1003.85
416.984	1104.2
417.192	1005.89
417.4	1055.05
417.608	1073.48
417.817	1147.2
418.025	1263.94
418.233	1192.26
418.441	1165.64
418.649	1392.96
418.857	1382.72
419.065	1376.58
419.273	1472.83
419.481	1481.02
419.689	1521.98
419.897	1644.86
420.105	1732.92
420.313	1653.05
420.521	1771.83
420.729	1765.69
420.937	1784.12
421.145	1964.34
421.353	2054.45
421.561	2050.36
421.769	2160.95
421.977	2144.56
422.185	2165.04
422.393	2316.59
422.601	2586.93
422.809	2455.86
423.017	2476.34
423.224	2576.69
423.432	2804.01
423.64	2777.39
423.848	2971.94
424.056	2890.03
424.263	3154.21
424.471	3205.41
424.679	3021.1
424.887	3393.83
425.094	3434.78
425.302	3692.83
425.51	3594.53
425.718	3709.21
425.925	3713.31
426.133	4022.55
426.341	4102.42
426.548	4235.54
426.756	4456.72
426.964	4372.75
427.171	4606.22
427.379	4704.53
427.586	4903.18
427.794	4901.13
428.001	5169.41
428.209	5499.14
428.417	5370.12
428.624	5697.79
428.832	5742.85
429.039	5576.96
429.247	5724.41
429.454	6381.81
429.662	6625.52
429.869	6244.6
430.076	6596.85
430.284	6602.99
430.491	6922.48
430.699	7137.51
430.906	7133.42
431.114	7227.62
431.321	7749.86
431.528	7868.64
431.736	8272.09
431.943	8530.13
432.15	8317.14
432.358	8364.25
432.565	8771.79
432.772	8943.82
432.979	9437.38
433.187	9474.24
433.394	9363.65
433.601	10139.83
433.808	10397.88
434.016	10193.08
434.223	10674.35
434.43	11200.68
434.637	11186.35
434.844	11675.81
435.052	11860.13
435.259	11677.86
435.466	11962.53
435.673	11870.37
435.88	12492.95
436.087	13230.22
436.294	13217.93
436.501	12808.34
436.708	13269.13
436.915	13574.28
437.122	14252.16
437.329	14094.46
437.537	14786.68
437.743	14932.08
437.95	14844.02
438.157	15599.72
438.364	16064.61
438.571	16097.38
438.778	16461.91
438.985	17887.3
439.192	16629.85
439.399	17643.59
439.606	17070.16
439.813	18018.37
440.02	19263.54
440.227	18849.85
440.433	18823.22
440.64	19154.99
440.847	19134.51
441.054	19648.55
441.261	20932.63
441.467	20842.52
441.674	21223.44
441.881	22104.07
442.088	21788.68
442.294	21510.16
442.501	22341.63
442.708	22558.72
442.914	23508.97
443.121	24500.19
443.328	23922.66
443.534	25636.81
443.741	25022.42
443.948	24625.12
444.154	26234.82
444.361	26298.31
444.568	26490.82
444.774	26269.64
444.981	26867.64
445.187	27353.01
445.394	28696.48
445.6	28594.08
445.807	30904.19
446.013	30089.1
446.22	30136.2
446.426	31426.42
446.633	31782.77
446.839	32855.9
447.046	31475.57
447.252	33496.92
447.459	33312.6
447.665	32962.4
447.871	34467.66
448.078	35921.71
448.284	34344.78
448.491	35321.66
448.697	36658.98
448.903	37418.78
449.11	37412.63
449.316	37021.47
449.522	37484.31
449.728	38680.33
449.935	39059.2
450.141	39235.33
450.347	39513.85
450.553	38702.85
450.76	38842.12
450.966	40361.71
451.172	39991.03
451.378	41146.08
451.584	40414.96
451.791	41047.78
451.997	40697.58
452.203	41449.18
452.409	41701.08
452.615	41565.92
452.821	40247.02
453.027	39753.46
453.233	41645.79
453.44	40001.27
453.646	40838.89
453.852	40849.13
454.058	41805.53
454.264	40085.23
454.47	41342.69
454.676	40046.32
454.882	41508.57
455.088	37873.43
455.294	38139.66
455.5	39210.75
455.705	39661.3
455.911	38156.05
456.117	37463.83
456.323	36933.41
456.529	34969.41
456.735	36761.38
456.941	35626.81
457.147	34975.55
457.352	34060.11
457.558	34512.71
457.764	33945.42
457.97	33718.1
458.176	32341.86
458.381	32380.78
458.587	31176.57
458.793	30934.91
458.999	29671.31
459.204	31354.74
459.41	30492.55
459.616	28882.84
459.821	28794.78
460.027	28946.33
460.233	28129.19
460.438	27088.82
460.644	27242.42
460.85	26007.5
461.055	25675.73
461.261	25821.13
461.466	23429.1
461.672	22829.05
461.878	24541.15
462.083	23005.17
462.289	22632.44
462.494	22384.64
462.7	21438.48
462.905	20645.91
463.111	21469.2
463.316	21594.12
463.522	21055.51
463.727	21499.92
463.932	21110.8
464.138	20824.09
464.343	20949.01
464.549	20551.71
464.754	20770.84
464.959	20736.02
465.165	20742.17
465.37	20035.62
465.575	19183.66
465.781	20293.66
465.986	20299.81
466.191	19333.17
466.397	19238.96
466.602	18163.78
466.807	19015.73
467.012	18958.39
467.218	19040.31
