Data from USB4F104151__219__14-45-30-667.txt Node

Date: Thu Mar 13 14:45:30 EDT 2025
User: louis
Spectrometer: USB4F10415
Trigger mode: 4
Integration Time (sec): 2.000000E-2
Scans to average: 1
Electric dark correction enabled: true
Nonlinearity correction enabled: false
Boxcar width: 0
XAxis mode: Wavelengths
Number of Pixels in Spectrum: 3648
>>>>>Begin Spectral Data<<<<<
178.204	-72.53
178.424	-72.53
178.644	-72.53
178.864	-90.96
179.084	-183.12
179.304	52.39
179.524	-62.29
179.744	36.01
179.964	1.19
180.184	-0.85
180.404	-50
180.624	-66.39
180.844	33.96
181.064	25.77
181.283	-19.29
181.503	50.35
181.723	-0.85
181.943	60.59
182.163	95.4
182.383	-27.48
182.602	119.98
182.822	33.96
183.042	48.3
183.262	-0.85
183.482	-56.15
183.701	33.96
183.921	19.63
184.141	-29.52
184.361	76.97
184.58	-0.85
184.8	58.54
185.02	-17.24
185.239	23.72
185.459	15.53
185.679	103.59
185.898	-27.48
186.118	17.58
186.338	13.48
186.557	83.11
186.777	-37.72
186.997	-29.52
187.216	58.54
187.436	13.48
187.655	58.54
187.875	81.07
188.095	5.29
188.314	107.69
188.534	60.59
188.753	-13.14
188.973	91.31
189.192	68.78
189.412	68.78
189.631	-7
189.851	33.96
190.07	44.2
190.29	29.87
190.509	44.2
190.729	-31.57
190.948	36.01
191.168	68.78
191.387	74.92
191.607	-17.24
191.826	33.96
192.045	-2.9
192.265	-15.19
192.484	68.78
192.704	50.35
192.923	-43.86
193.142	66.73
193.362	44.2
193.581	58.54
193.8	113.83
194.02	74.92
194.239	93.35
194.458	-9.05
194.678	-7
194.897	52.39
195.116	93.35
195.335	70.83
195.555	60.59
195.774	60.59
195.993	-35.67
196.212	66.73
196.432	70.83
196.651	42.15
196.87	1.19
197.089	89.26
197.308	1.19
197.528	3.24
197.747	-7
197.966	42.15
198.185	27.82
198.404	-13.14
198.623	17.58
198.842	101.55
199.062	-37.72
199.281	87.21
199.5	-13.14
199.719	42.15
199.938	25.77
200.157	103.59
200.376	38.06
200.595	40.11
200.814	79.02
201.033	52.39
201.252	38.06
201.471	38.06
201.69	119.98
201.909	-47.96
202.128	74.92
202.347	27.82
202.566	-27.48
202.785	11.43
203.004	-64.34
203.223	76.97
203.442	66.73
203.661	50.35
203.879	36.01
204.098	-19.29
204.317	5.29
204.536	115.88
204.755	66.73
204.974	33.96
205.193	9.39
205.411	99.5
205.63	134.31
205.849	83.11
206.068	56.49
206.287	79.02
206.505	107.69
206.724	33.96
206.943	44.2
207.162	-21.33
207.381	-17.24
207.599	21.67
207.818	3.24
208.037	50.35
208.255	42.15
208.474	52.39
208.693	9.39
208.911	66.73
209.13	66.73
209.349	-7
209.567	33.96
209.786	15.53
210.005	-4.95
210.223	93.35
210.442	52.39
210.661	-7
210.879	79.02
211.098	-23.38
211.316	1.19
211.535	101.55
211.753	-47.96
211.972	68.78
212.191	17.58
212.409	25.77
212.628	50.35
212.846	1.19
213.065	25.77
213.283	9.39
213.502	38.06
213.72	3.24
213.938	19.63
214.157	29.87
214.375	23.72
214.594	13.48
214.812	60.59
215.031	33.96
215.249	13.48
215.467	29.87
215.686	11.43
215.904	58.54
216.122	46.25
216.341	79.02
216.559	50.35
216.778	52.39
216.996	44.2
217.214	36.01
217.432	-19.29
217.651	25.77
217.869	79.02
218.087	87.21
218.306	17.58
218.524	40.11
218.742	56.49
218.96	91.31
219.179	3.24
219.397	42.15
219.615	72.87
219.833	42.15
220.051	-4.95
220.27	36.01
220.488	-2.9
220.706	50.35
220.924	-13.14
221.142	-37.72
221.36	17.58
221.578	-0.85
221.796	36.01
222.015	42.15
222.233	19.63
222.451	83.11
222.669	23.72
222.887	101.55
223.105	-72.53
223.323	38.06
223.541	36.01
223.759	119.98
223.977	-27.48
224.195	93.35
224.413	64.68
224.631	113.83
224.849	-31.57
225.067	46.25
225.285	-47.96
225.503	33.96
225.721	-0.85
225.939	21.67
226.157	36.01
226.375	95.4
226.592	9.39
226.81	58.54
227.028	19.63
227.246	140.46
227.464	-4.95
227.682	-7
227.9	60.59
228.117	-15.19
228.335	25.77
228.553	50.35
228.771	44.2
228.989	36.01
229.206	60.59
229.424	1.19
229.642	42.15
229.86	103.59
230.077	31.91
230.295	101.55
230.513	93.35
230.731	-4.95
230.948	7.34
231.166	33.96
231.384	-43.86
231.601	50.35
231.819	52.39
232.037	25.77
232.254	91.31
232.472	33.96
232.689	19.63
232.907	21.67
233.125	52.39
233.342	54.44
233.56	-0.85
233.777	5.29
233.995	17.58
234.213	42.15
234.43	83.11
234.648	-13.14
234.865	38.06
235.083	54.44
235.3	-0.85
235.518	83.11
235.735	74.92
235.953	99.5
236.17	33.96
236.388	-2.9
236.605	58.54
236.822	42.15
237.04	81.07
237.257	1.19
237.475	-21.33
237.692	134.31
237.909	5.29
238.127	-7
238.344	134.31
238.562	62.63
238.779	50.35
238.996	-23.38
239.214	74.92
239.431	-37.72
239.648	11.43
239.865	83.11
240.083	107.69
240.3	17.58
240.517	1.19
240.735	19.63
240.952	68.78
241.169	68.78
241.386	83.11
241.603	9.39
241.821	-35.67
242.038	5.29
242.255	-37.72
242.472	-17.24
242.689	54.44
242.907	76.97
243.124	44.2
243.341	54.44
243.558	91.31
243.775	1.19
243.992	46.25
244.209	115.88
244.426	17.58
244.643	91.31
244.86	-7
245.078	52.39
245.295	99.5
245.512	54.44
245.729	44.2
245.946	74.92
246.163	52.39
246.38	115.88
246.597	-7
246.814	54.44
247.031	-70.48
247.248	50.35
247.464	66.73
247.681	50.35
247.898	50.35
248.115	44.2
248.332	-70.48
248.549	160.94
248.766	72.87
248.983	38.06
249.2	33.96
249.417	25.77
249.633	38.06
249.85	74.92
250.067	52.39
250.284	79.02
250.501	46.25
250.717	117.93
250.934	17.58
251.151	29.87
251.368	50.35
251.585	3.24
251.801	17.58
252.018	42.15
252.235	171.18
252.451	11.43
252.668	9.39
252.885	97.45
253.102	107.69
253.318	48.3
253.535	52.39
253.752	81.07
253.968	17.58
254.185	-37.72
254.401	44.2
254.618	19.63
254.835	-2.9
255.051	25.77
255.268	1.19
255.484	70.83
255.701	-29.52
255.917	74.92
256.134	60.59
256.351	36.01
256.567	-33.62
256.784	-33.62
257	66.73
257.217	70.83
257.433	74.92
257.65	3.24
257.866	91.31
258.082	-29.52
258.299	33.96
258.515	15.53
258.732	17.58
258.948	52.39
259.165	58.54
259.381	33.96
259.597	99.5
259.814	-93.01
260.03	9.39
260.246	117.93
260.463	48.3
260.679	107.69
260.895	66.73
261.112	62.63
261.328	68.78
261.544	70.83
261.761	156.84
261.977	74.92
262.193	38.06
262.409	87.21
262.626	1.19
262.842	25.77
263.058	-15.19
263.274	44.2
263.49	56.49
263.707	93.35
263.923	56.49
264.139	46.25
264.355	93.35
264.571	46.25
264.787	52.39
265.004	128.17
265.22	91.31
265.436	42.15
265.652	15.53
265.868	29.87
266.084	11.43
266.3	19.63
266.516	3.24
266.732	85.16
266.948	101.55
267.164	27.82
267.38	44.2
267.596	62.63
267.812	42.15
268.028	15.53
268.244	17.58
268.46	68.78
268.676	-31.57
268.892	66.73
269.108	7.34
269.324	36.01
269.54	25.77
269.756	99.5
269.972	58.54
270.188	-39.76
270.403	44.2
270.619	-33.62
270.835	31.91
271.051	83.11
271.267	27.82
271.483	21.67
271.698	44.2
271.914	38.06
272.13	21.67
272.346	25.77
272.562	-39.76
272.777	83.11
272.993	50.35
273.209	62.63
273.425	42.15
273.64	70.83
273.856	99.5
274.072	85.16
274.287	66.73
274.503	107.69
274.719	-4.95
274.934	-11.09
275.15	-45.91
275.366	19.63
275.581	111.78
275.797	42.15
276.012	5.29
276.228	-47.96
276.444	31.91
276.659	79.02
276.875	-37.72
277.09	68.78
277.306	50.35
277.521	42.15
277.737	25.77
277.952	44.2
278.168	58.54
278.383	15.53
278.599	19.63
278.814	-9.05
279.03	-7
279.245	31.91
279.461	33.96
279.676	3.24
279.892	-31.57
280.107	91.31
280.322	1.19
280.538	50.35
280.753	13.48
280.969	126.12
281.184	54.44
281.399	74.92
281.615	52.39
281.83	33.96
282.045	52.39
282.26	5.29
282.476	79.02
282.691	93.35
282.906	79.02
283.122	44.2
283.337	-58.2
283.552	50.35
283.767	74.92
283.983	38.06
284.198	-4.95
284.413	60.59
284.628	-9.05
284.843	101.55
285.058	124.07
285.274	33.96
285.489	29.87
285.704	36.01
285.919	-31.57
286.134	-23.38
286.349	21.67
286.564	64.68
286.779	103.59
286.995	11.43
287.21	5.29
287.425	5.29
287.64	21.67
287.855	13.48
288.07	9.39
288.285	17.58
288.5	52.39
288.715	21.67
288.93	52.39
289.145	31.91
289.36	89.26
289.575	79.02
289.79	23.72
290.004	27.82
290.219	46.25
290.434	56.49
290.649	50.35
290.864	50.35
291.079	62.63
291.294	42.15
291.509	36.01
291.724	58.54
291.938	36.01
292.153	99.5
292.368	42.15
292.583	36.01
292.798	38.06
293.012	74.92
293.227	-27.48
293.442	40.11
293.657	74.92
293.871	9.39
294.086	44.2
294.301	29.87
294.516	87.21
294.73	36.01
294.945	-15.19
295.16	-68.44
295.374	81.07
295.589	17.58
295.804	36.01
296.018	74.92
296.233	115.88
296.447	3.24
296.662	-21.33
296.877	60.59
297.091	66.73
297.306	19.63
297.52	9.39
297.735	66.73
297.949	83.11
298.164	5.29
298.378	60.59
298.593	11.43
298.807	42.15
299.022	11.43
299.236	68.78
299.451	95.4
299.665	54.44
299.88	42.15
300.094	9.39
300.309	66.73
300.523	-0.85
300.737	31.91
300.952	13.48
301.166	19.63
301.381	31.91
301.595	42.15
301.809	11.43
302.024	-21.33
302.238	54.44
302.452	33.96
302.667	7.34
302.881	105.64
303.095	70.83
303.309	58.54
303.524	42.15
303.738	-19.29
303.952	33.96
304.166	42.15
304.381	11.43
304.595	99.5
304.809	17.58
305.023	25.77
305.237	38.06
305.452	105.64
305.666	83.11
305.88	64.68
306.094	72.87
306.308	50.35
306.522	17.58
306.736	93.35
306.95	70.83
307.164	11.43
307.379	62.63
307.593	85.16
307.807	87.21
308.021	97.45
308.235	124.07
308.449	91.31
308.663	52.39
308.877	50.35
309.091	40.11
309.305	11.43
309.519	11.43
309.733	60.59
309.947	50.35
310.161	-33.62
310.374	62.63
310.588	66.73
310.802	25.77
311.016	83.11
311.23	68.78
311.444	58.54
311.658	68.78
311.872	152.74
312.085	44.2
312.299	109.74
312.513	189.61
312.727	76.97
312.941	9.39
313.154	95.4
313.368	-70.48
313.582	60.59
313.796	56.49
314.009	-4.95
314.223	148.65
314.437	42.15
314.651	58.54
314.864	58.54
315.078	42.15
315.292	38.06
315.505	40.11
315.719	134.31
315.933	19.63
316.146	93.35
316.36	3.24
316.573	111.78
316.787	56.49
317.001	38.06
317.214	-23.38
317.428	7.34
317.641	1.19
317.855	11.43
318.068	52.39
318.282	31.91
318.495	70.83
318.709	19.63
318.922	38.06
319.136	83.11
319.349	-21.33
319.563	3.24
319.776	-80.72
319.99	-29.52
320.203	70.83
320.417	66.73
320.63	140.46
320.843	109.74
321.057	70.83
321.27	74.92
321.483	68.78
321.697	74.92
321.91	60.59
322.124	17.58
322.337	-23.38
322.55	-15.19
322.763	-29.52
322.977	-31.57
323.19	33.96
323.403	66.73
323.617	44.2
323.83	-23.38
324.043	5.29
324.256	66.73
324.469	-13.14
324.683	115.88
324.896	-29.52
325.109	52.39
325.322	52.39
325.535	83.11
325.748	134.31
325.962	62.63
326.175	-15.19
326.388	19.63
326.601	54.44
326.814	76.97
327.027	1.19
327.24	132.26
327.453	31.91
327.666	29.87
327.879	3.24
328.092	42.15
328.305	38.06
328.518	25.77
328.731	60.59
328.944	52.39
329.157	-13.14
329.37	70.83
329.583	87.21
329.796	107.69
330.009	40.11
330.222	109.74
330.435	29.87
330.648	1.19
330.861	58.54
331.073	5.29
331.286	-23.38
331.499	95.4
331.712	1.19
331.925	27.82
332.138	23.72
332.35	62.63
332.563	70.83
332.776	79.02
332.989	81.07
333.202	44.2
333.414	27.82
333.627	-45.91
333.84	50.35
334.053	119.98
334.265	-4.95
334.478	91.31
334.691	17.58
334.903	42.15
335.116	40.11
335.329	21.67
335.541	97.45
335.754	17.58
335.966	70.83
336.179	25.77
336.392	50.35
336.604	-23.38
336.817	101.55
337.029	50.35
337.242	44.2
337.454	13.48
337.667	9.39
337.88	124.07
338.092	111.78
338.305	27.82
338.517	83.11
338.729	107.69
338.942	74.92
339.154	1.19
339.367	3.24
339.579	105.64
339.792	-31.57
340.004	124.07
340.217	58.54
340.429	138.41
340.641	-39.76
340.854	5.29
341.066	85.16
341.278	58.54
341.491	72.87
341.703	17.58
341.915	38.06
342.128	111.78
342.34	46.25
342.552	42.15
342.764	66.73
342.977	74.92
343.189	5.29
343.401	95.4
343.613	-60.24
343.826	74.92
344.038	17.58
344.25	128.17
344.462	128.17
344.674	44.2
344.886	128.17
345.099	85.16
345.311	68.78
345.523	66.73
345.735	-17.24
345.947	36.01
346.159	52.39
346.371	3.24
346.583	46.25
346.795	60.59
347.007	-17.24
347.219	91.31
347.431	-15.19
347.643	40.11
347.855	9.39
348.067	83.11
348.279	3.24
348.491	62.63
348.703	74.92
348.915	-4.95
349.127	50.35
349.339	72.87
349.551	7.34
349.763	107.69
349.975	-0.85
350.187	93.35
350.399	66.73
350.61	40.11
350.822	5.29
351.034	70.83
351.246	5.29
351.458	19.63
351.669	76.97
351.881	122.02
352.093	107.69
352.305	62.63
352.517	93.35
352.728	109.74
352.94	107.69
353.152	91.31
353.363	81.07
353.575	87.21
353.787	91.31
353.999	29.87
354.21	-15.19
354.422	-35.67
354.633	-4.95
354.845	42.15
355.057	66.73
355.268	58.54
355.48	87.21
355.692	19.63
355.903	27.82
356.115	62.63
356.326	3.24
356.538	175.27
356.749	91.31
356.961	74.92
357.172	25.77
357.384	46.25
357.595	99.5
357.807	66.73
358.018	46.25
358.23	38.06
358.441	150.7
358.653	60.59
358.864	9.39
359.075	-29.52
359.287	17.58
359.498	95.4
359.709	31.91
359.921	60.59
360.132	62.63
360.344	101.55
360.555	72.87
360.766	70.83
360.977	91.31
361.189	95.4
361.4	-23.38
361.611	60.59
361.823	25.77
362.034	40.11
362.245	44.2
362.456	33.96
362.667	87.21
362.879	13.48
363.09	-21.33
363.301	107.69
363.512	60.59
363.723	46.25
363.935	42.15
364.146	111.78
364.357	-62.29
364.568	1.19
364.779	93.35
364.99	74.92
365.201	-21.33
365.412	136.36
365.623	17.58
365.834	132.26
366.045	25.77
366.256	60.59
366.467	62.63
366.678	5.29
366.889	38.06
367.1	-31.57
367.311	83.11
367.522	79.02
367.733	46.25
367.944	62.63
368.155	68.78
368.366	83.11
368.577	128.17
368.788	-7
368.999	46.25
369.209	72.87
369.42	124.07
369.631	148.65
369.842	33.96
370.053	-15.19
370.264	119.98
370.474	-23.38
370.685	25.77
370.896	48.3
371.107	27.82
371.317	52.39
371.528	58.54
371.739	132.26
371.95	66.73
372.16	109.74
372.371	1.19
372.582	9.39
372.792	33.96
373.003	33.96
373.214	11.43
373.424	60.59
373.635	3.24
373.846	83.11
374.056	46.25
374.267	91.31
374.477	136.36
374.688	19.63
374.898	52.39
375.109	48.3
375.319	66.73
375.53	91.31
375.74	79.02
375.951	97.45
376.161	87.21
376.372	83.11
376.582	52.39
376.793	3.24
377.003	52.39
377.214	9.39
377.424	1.19
377.635	89.26
377.845	17.58
378.055	101.55
378.266	83.11
378.476	54.44
378.686	-2.9
378.897	60.59
379.107	148.65
379.317	128.17
379.528	85.16
379.738	76.97
379.948	33.96
380.158	99.5
380.369	58.54
380.579	99.5
380.789	83.11
380.999	-4.95
381.21	68.78
381.42	138.41
381.63	52.39
381.84	152.74
382.05	29.87
382.261	42.15
382.471	132.26
382.681	83.11
382.891	132.26
383.101	50.35
383.311	42.15
383.521	9.39
383.731	58.54
383.941	52.39
384.151	13.48
384.361	50.35
384.571	103.59
384.781	140.46
384.991	117.93
385.201	122.02
385.411	76.97
385.621	36.01
385.831	105.64
386.041	31.91
386.251	91.31
386.461	50.35
386.671	27.82
386.881	17.58
387.091	101.55
387.301	83.11
387.511	52.39
387.72	-13.14
387.93	119.98
388.14	52.39
388.35	9.39
388.56	119.98
388.769	83.11
388.979	38.06
389.189	66.73
389.399	79.02
389.609	146.6
389.818	79.02
390.028	99.5
390.238	83.11
390.447	27.82
390.657	83.11
390.867	44.2
391.076	3.24
391.286	-4.95
391.496	99.5
391.705	44.2
391.915	60.59
392.125	146.6
392.334	33.96
392.544	66.73
392.753	19.63
392.963	-7
393.172	42.15
393.382	74.92
393.591	165.03
393.801	70.83
394.01	91.31
394.22	58.54
394.429	83.11
394.639	83.11
394.848	103.59
395.058	119.98
395.267	107.69
395.477	99.5
395.686	156.84
395.895	115.88
396.105	181.42
396.314	23.72
396.524	93.35
396.733	76.97
396.942	136.36
397.152	107.69
397.361	115.88
397.57	140.46
397.78	87.21
397.989	50.35
398.198	93.35
398.407	138.41
398.617	128.17
398.826	13.48
399.035	148.65
399.244	142.5
399.453	44.2
399.663	113.83
399.872	181.42
400.081	-7
400.29	119.98
400.499	115.88
400.708	93.35
400.917	60.59
401.127	40.11
401.336	85.16
401.545	181.42
401.754	142.5
401.963	148.65
402.172	93.35
402.381	115.88
402.59	126.12
402.799	119.98
403.008	111.78
403.217	111.78
403.426	93.35
403.635	52.39
403.844	140.46
404.053	99.5
404.262	79.02
404.471	218.28
404.68	85.16
404.888	191.66
405.097	140.46
405.306	124.07
405.515	128.17
405.724	130.22
405.933	177.32
406.142	85.16
406.35	197.8
406.559	140.46
406.768	111.78
406.977	189.61
407.185	175.27
407.394	134.31
407.603	156.84
407.812	263.33
408.02	191.66
408.229	257.19
408.438	208.04
408.646	95.4
408.855	246.95
409.064	242.85
409.272	287.91
409.481	244.9
409.69	234.66
409.898	273.57
410.107	271.53
410.315	304.29
410.524	230.57
410.733	375.97
410.941	304.29
411.15	357.54
411.358	330.92
411.567	304.29
411.775	306.34
411.984	386.21
412.192	386.21
412.401	414.88
412.609	404.64
412.818	494.76
413.026	451.75
413.234	378.02
413.443	435.36
413.651	439.46
413.86	439.46
414.068	494.76
414.276	568.48
414.485	461.99
414.693	552.1
414.901	601.25
415.11	631.97
415.318	586.91
415.526	685.22
415.734	562.34
415.943	709.79
416.151	668.83
416.359	701.6
416.567	664.74
416.776	818.33
416.984	904.35
417.192	869.53
417.4	771.23
417.608	787.61
417.817	980.12
418.025	937.12
418.233	1008.8
418.441	1023.13
418.649	953.5
418.857	1076.38
419.065	1115.29
419.273	1107.1
419.481	1129.63
419.689	1139.87
419.897	1270.94
420.105	1285.27
420.313	1377.43
420.521	1434.77
420.729	1352.85
420.937	1352.85
421.145	1557.65
421.353	1604.75
421.561	1584.27
421.769	1635.47
421.977	1737.87
422.185	1637.52
422.393	1789.07
422.601	1801.36
422.809	1893.52
423.017	1987.72
423.224	2024.59
423.432	2145.42
423.64	2163.85
423.848	2368.65
424.056	2112.65
424.263	2245.77
424.471	2321.54
424.679	2516.1
424.887	2555.01
425.094	2577.54
425.302	2677.89
425.51	2692.23
425.718	2811.01
425.925	2942.08
426.133	3083.39
426.341	3124.35
426.548	3269.75
426.756	3316.86
426.964	3296.38
427.171	3388.53
427.379	3523.7
427.586	3675.25
427.794	3748.98
428.001	3839.09
428.209	4007.02
428.417	3884.14
428.624	4215.91
428.832	4297.83
429.039	4088.94
429.247	4228.2
429.454	4648.04
429.662	4990.05
429.869	4588.64
430.076	4932.7
430.284	4854.88
430.491	5069.92
430.699	5354.58
430.906	5348.44
431.114	5432.41
431.321	5612.63
431.528	5811.28
431.736	6108.24
431.943	6313.03
432.15	6120.53
432.358	6267.98
432.565	6753.35
432.772	6550.6
432.979	6868.03
433.187	6974.53
433.394	6956.1
433.601	7484.47
433.808	7603.25
434.016	7554.1
434.223	7754.8
434.43	8086.58
434.637	7955.51
434.844	8733.73
435.052	8795.17
435.259	8760.36
435.466	8737.83
435.673	8735.78
435.88	9333.79
436.087	9810.96
436.294	9778.2
436.501	9552.92
436.708	9743.38
436.915	10130.45
437.122	10568.71
437.329	10480.65
437.537	10742.79
437.743	11103.23
437.95	10892.29
438.157	11619.32
438.364	11727.86
438.571	11822.07
438.778	11975.67
438.985	13040.61
439.192	12444.65
439.399	12942.31
439.606	12790.76
439.813	13550.56
440.02	14078.93
440.227	13861.85
440.433	13786.07
440.64	14382.03
440.847	14011.35
441.054	14457.81
441.261	14975.94
441.467	15281.09
441.674	15633.34
441.881	16141.24
442.088	15907.77
442.294	15836.09
442.501	16100.28
442.708	16483.25
442.914	17077.16
443.121	18101.14
443.328	17523.62
443.534	18824.08
443.741	18211.73
443.948	17777.56
444.154	19344.26
444.361	19088.26
444.568	19012.49
444.774	19166.09
444.981	19491.71
445.187	20136.82
445.394	20620.14
445.6	20577.14
445.807	22491.99
446.013	21334.89
446.22	21713.76
446.426	22512.47
446.633	22973.26
446.839	23614.27
447.046	22817.61
447.252	24032.06
447.459	23978.81
447.665	23757.63
447.871	24867.63
448.078	26311.45
448.284	24783.66
448.491	25391.91
448.697	26329.88
448.903	27122.44
449.11	27077.39
449.316	26637.08
449.522	27085.58
449.728	27865.86
449.935	28148.48
450.141	27835.14
450.347	28758.77
450.553	27785.99
450.76	28224.25
450.966	28953.33
451.172	28703.48
451.378	29580.01
451.584	28963.57
451.791	29868.77
451.997	29360.87
452.203	30173.92
452.409	30114.53
452.615	29684.45
452.821	28797.68
453.027	28474.1
453.233	30100.19
453.44	29125.36
453.646	29403.88
453.852	29500.14
454.058	30196.45
454.264	29027.06
454.47	29885.15
454.676	29065.97
454.882	29975.27
455.088	27253.51
455.294	27890.43
455.5	28408.57
455.705	28627.7
455.911	27427.59
456.117	27054.86
456.323	26592.02
456.529	25541.41
456.735	26311.45
456.941	25660.2
457.147	25006.89
457.352	24642.35
457.558	24343.35
457.764	24417.08
457.97	23874.37
458.176	23530.31
458.381	23237.45
458.587	22160.22
458.793	22616.91
458.999	21052.27
459.204	23038.8
459.41	22088.54
459.616	20849.52
459.821	20728.69
460.027	20593.52
460.233	19909.5
460.438	19219.33
460.644	19366.79
460.85	18563.98
461.055	18281.36
461.261	18248.6
461.466	16569.26
461.672	16057.27
461.878	17263.52
462.083	16409.52
462.289	16069.56
462.494	15616.96
462.7	15025.09
462.905	14820.3
463.111	15320
463.316	15289.28
463.522	14961.61
463.727	14955.46
463.932	14822.34
464.138	14801.86
464.343	15100.87
464.549	14414.8
464.754	14844.87
464.959	14666.7
465.165	14386.13
465.37	13865.94
465.575	13650.91
465.781	14089.17
465.986	14058.45
466.191	13691.87
466.397	13448.16
466.602	12792.81
466.807	13304.8
467.012	13542.36
467.218	13175.78
467.423	13108.19
467.628	13050.85
