Data from USB4F104151__93__14-43-34-934.txt Node

Date: Thu Mar 13 14:43:34 EDT 2025
User: louis
Spectrometer: USB4F10415
Trigger mode: 4
Integration Time (sec): 2.000000E-2
Scans to average: 1
Electric dark correction enabled: true
Nonlinearity correction enabled: false
Boxcar width: 0
XAxis mode: Wavelengths
Number of Pixels in Spectrum: 3648
>>>>>Begin Spectral Data<<<<<
178.204	-74.75
178.424	-74.75
178.644	-74.75
178.864	-115.71
179.084	-109.57
179.304	72.7
179.524	-56.32
179.744	-21.5
179.964	5.12
180.184	-23.55
180.404	46.08
180.624	-15.36
180.844	13.31
181.064	-64.51
181.283	41.98
181.503	-27.65
181.723	29.7
181.943	13.31
182.163	41.98
182.383	66.56
182.602	99.33
182.822	62.46
183.042	5.12
183.262	21.5
183.482	33.79
183.701	-72.7
183.921	52.22
184.141	-54.27
184.361	-1.02
184.58	54.27
184.8	-46.08
185.02	44.03
185.239	68.61
185.459	44.03
185.679	58.37
185.898	-39.94
186.118	-35.84
186.338	91.13
186.557	60.42
186.777	60.42
186.997	11.26
187.216	17.41
187.436	13.31
187.655	27.65
187.875	-15.36
188.095	-7.17
188.314	41.98
188.534	78.85
188.753	29.7
188.973	-70.65
189.192	58.37
189.412	33.79
189.631	35.84
189.851	58.37
190.07	13.31
190.29	48.13
190.509	33.79
190.729	21.5
190.948	111.61
191.168	84.99
191.387	-15.36
191.607	-31.74
191.826	46.08
192.045	-35.84
192.265	37.89
192.484	33.79
192.704	134.14
192.923	3.07
193.142	117.76
193.362	21.5
193.581	52.22
193.8	39.94
194.02	17.41
194.239	-64.51
194.458	62.46
194.678	17.41
194.897	-11.26
195.116	-31.74
195.335	50.18
195.555	-27.65
195.774	39.94
195.993	21.5
196.212	25.6
196.432	37.89
196.651	25.6
196.87	23.55
197.089	76.8
197.308	1.02
197.528	91.13
197.747	-1.02
197.966	46.08
198.185	91.13
198.404	-27.65
198.623	56.32
198.842	134.14
199.062	29.7
199.281	95.23
199.5	1.02
199.719	84.99
199.938	19.46
200.157	19.46
200.376	66.56
200.595	64.51
200.814	58.37
201.033	33.79
201.252	5.12
201.471	52.22
201.69	-11.26
201.909	-15.36
202.128	56.32
202.347	64.51
202.566	37.89
202.785	-39.94
203.004	-70.65
203.223	60.42
203.442	103.42
203.661	9.22
203.879	62.46
204.098	-21.5
204.317	5.12
204.536	76.8
204.755	84.99
204.974	-48.13
205.193	15.36
205.411	66.56
205.63	68.61
205.849	-9.22
206.068	-54.27
206.287	-44.03
206.505	66.56
206.724	17.41
206.943	3.07
207.162	76.8
207.381	9.22
207.599	-35.84
207.818	78.85
208.037	13.31
208.255	-11.26
208.474	-15.36
208.693	37.89
208.911	-3.07
209.13	103.42
209.349	60.42
209.567	95.23
209.786	-15.36
210.005	5.12
210.223	101.37
210.442	-80.89
210.661	68.61
210.879	50.18
211.098	27.65
211.316	17.41
211.535	-3.07
211.753	-13.31
211.972	11.26
212.191	-39.94
212.409	87.04
212.628	-46.08
212.846	31.74
213.065	1.02
213.283	144.38
213.502	134.14
213.72	-23.55
213.938	25.6
214.157	41.98
214.375	66.56
214.594	35.84
214.812	93.18
215.031	17.41
215.249	-56.32
215.467	11.26
215.686	87.04
215.904	136.19
216.122	25.6
216.341	44.03
216.559	44.03
216.778	15.36
216.996	62.46
217.214	3.07
217.432	68.61
217.651	-35.84
217.869	-23.55
218.087	19.46
218.306	-3.07
218.524	58.37
218.742	-46.08
218.96	68.61
219.179	52.22
219.397	25.6
219.615	84.99
219.833	80.89
220.051	21.5
220.27	91.13
220.488	70.65
220.706	74.75
220.924	58.37
221.142	-29.7
221.36	-27.65
221.578	1.02
221.796	25.6
222.015	62.46
222.233	13.31
222.451	74.75
222.669	52.22
222.887	-35.84
223.105	1.02
223.323	-44.03
223.541	-3.07
223.759	82.94
223.977	-13.31
224.195	74.75
224.413	74.75
224.631	87.04
224.849	-29.7
225.067	93.18
225.285	11.26
225.503	25.6
225.721	-25.6
225.939	-3.07
226.157	17.41
226.375	46.08
226.592	-15.36
226.81	3.07
227.028	5.12
227.246	136.19
227.464	3.07
227.682	25.6
227.9	101.37
228.117	23.55
228.335	13.31
228.553	-3.07
228.771	31.74
228.989	17.41
229.206	1.02
229.424	9.22
229.642	5.12
229.86	50.18
230.077	11.26
230.295	41.98
230.513	33.79
230.731	23.55
230.948	99.33
231.166	25.6
231.384	-105.47
231.601	74.75
231.819	50.18
232.037	66.56
232.254	-27.65
232.472	9.22
232.689	-13.31
232.907	35.84
233.125	5.12
233.342	-5.12
233.56	27.65
233.777	31.74
233.995	44.03
234.213	44.03
234.43	-21.5
234.648	-13.31
234.865	17.41
235.083	44.03
235.3	9.22
235.518	52.22
235.735	-54.27
235.953	1.02
236.17	-23.55
236.388	-70.65
236.605	-7.17
236.822	50.18
237.04	21.5
237.257	-9.22
237.475	-31.74
237.692	-9.22
237.909	52.22
238.127	-17.41
238.344	66.56
238.562	17.41
238.779	17.41
238.996	50.18
239.214	1.02
239.431	111.61
239.648	33.79
239.865	132.09
240.083	68.61
240.3	29.7
240.517	17.41
240.735	52.22
240.952	52.22
241.169	41.98
241.386	66.56
241.603	15.36
241.821	9.22
242.038	132.09
242.255	58.37
242.472	27.65
242.689	3.07
242.907	27.65
243.124	19.46
243.341	54.27
243.558	54.27
243.775	19.46
243.992	-39.94
244.209	82.94
244.426	115.71
244.643	84.99
244.86	17.41
245.078	37.89
245.295	-7.17
245.512	13.31
245.729	-41.98
245.946	27.65
246.163	41.98
246.38	62.46
246.597	33.79
246.814	3.07
247.031	15.36
247.248	46.08
247.464	-15.36
247.681	15.36
247.898	68.61
248.115	-19.46
248.332	17.41
248.549	109.57
248.766	-3.07
248.983	66.56
249.2	-23.55
249.417	84.99
249.633	-56.32
249.85	58.37
250.067	-21.5
250.284	-1.02
250.501	11.26
250.717	9.22
250.934	17.41
251.151	29.7
251.368	68.61
251.585	11.26
251.801	1.02
252.018	17.41
252.235	74.75
252.451	13.31
252.668	33.79
252.885	56.32
253.102	132.09
253.318	66.56
253.535	13.31
253.752	1.02
253.968	-5.12
254.185	9.22
254.401	19.46
254.618	35.84
254.835	44.03
255.051	39.94
255.268	37.89
255.484	-13.31
255.701	-23.55
255.917	41.98
256.134	9.22
256.351	33.79
256.567	-31.74
256.784	27.65
257	-95.23
257.217	31.74
257.433	132.09
257.65	-13.31
257.866	50.18
258.082	-13.31
258.299	-35.84
258.515	128
258.732	37.89
258.948	-31.74
259.165	-31.74
259.381	19.46
259.597	54.27
259.814	60.42
260.03	29.7
260.246	-60.42
260.463	9.22
260.679	13.31
260.895	27.65
261.112	95.23
261.328	-3.07
261.544	-39.94
261.761	113.66
261.977	58.37
262.193	-87.04
262.409	3.07
262.626	44.03
262.842	50.18
263.058	1.02
263.274	46.08
263.49	41.98
263.707	41.98
263.923	11.26
264.139	91.13
264.355	-19.46
264.571	44.03
264.787	68.61
265.004	50.18
265.22	99.33
265.436	-11.26
265.652	-3.07
265.868	41.98
266.084	58.37
266.3	-56.32
266.516	9.22
266.732	33.79
266.948	48.13
267.164	25.6
267.38	101.37
267.596	29.7
267.812	93.18
268.028	87.04
268.244	-37.89
268.46	58.37
268.676	31.74
268.892	29.7
269.108	-21.5
269.324	25.6
269.54	1.02
269.756	-21.5
269.972	-39.94
270.188	50.18
270.403	-29.7
270.619	68.61
270.835	82.94
271.051	64.51
271.267	52.22
271.483	66.56
271.698	62.46
271.914	-7.17
272.13	7.17
272.346	52.22
272.562	-11.26
272.777	60.42
272.993	21.5
273.209	68.61
273.425	37.89
273.64	33.79
273.856	70.65
274.072	46.08
274.287	80.89
274.503	50.18
274.719	44.03
274.934	95.23
275.15	15.36
275.366	-7.17
275.581	46.08
275.797	58.37
276.012	3.07
276.228	54.27
276.444	52.22
276.659	25.6
276.875	25.6
277.09	46.08
277.306	5.12
277.521	48.13
277.737	74.75
277.952	70.65
278.168	33.79
278.383	15.36
278.599	19.46
278.814	54.27
279.03	9.22
279.245	17.41
279.461	66.56
279.676	50.18
279.892	82.94
280.107	29.7
280.322	-7.17
280.538	89.09
280.753	-19.46
280.969	58.37
281.184	-7.17
281.399	89.09
281.615	84.99
281.83	44.03
282.045	29.7
282.26	1.02
282.476	3.07
282.691	41.98
282.906	21.5
283.122	70.65
283.337	-11.26
283.552	64.51
283.767	-21.5
283.983	82.94
284.198	5.12
284.413	-25.6
284.628	9.22
284.843	50.18
285.058	-5.12
285.274	33.79
285.489	3.07
285.704	50.18
285.919	3.07
286.134	3.07
286.349	-19.46
286.564	27.65
286.779	25.6
286.995	44.03
287.21	52.22
287.425	115.71
287.64	15.36
287.855	-5.12
288.07	41.98
288.285	78.85
288.5	50.18
288.715	9.22
288.93	33.79
289.145	-5.12
289.36	60.42
289.575	27.65
289.79	33.79
290.004	58.37
290.219	-15.36
290.434	1.02
290.649	52.22
290.864	41.98
291.079	29.7
291.294	99.33
291.509	91.13
291.724	-9.22
291.938	-31.74
292.153	-1.02
292.368	29.7
292.583	-9.22
292.798	70.65
293.012	13.31
293.227	21.5
293.442	91.13
293.657	-80.89
293.871	5.12
294.086	80.89
294.301	17.41
294.516	9.22
294.73	-15.36
294.945	52.22
295.16	27.65
295.374	25.6
295.589	50.18
295.804	58.37
296.018	27.65
296.233	93.18
296.447	17.41
296.662	19.46
296.877	50.18
297.091	25.6
297.306	21.5
297.52	41.98
297.735	27.65
297.949	37.89
298.164	-7.17
298.378	-5.12
298.593	-1.02
298.807	1.02
299.022	3.07
299.236	-27.65
299.451	66.56
299.665	31.74
299.88	25.6
300.094	115.71
300.309	70.65
300.523	84.99
300.737	-17.41
300.952	9.22
301.166	-1.02
301.381	9.22
301.595	19.46
301.809	74.75
302.024	-37.89
302.238	-54.27
302.452	50.18
302.667	-19.46
302.881	119.81
303.095	66.56
303.309	3.07
303.524	17.41
303.738	48.13
303.952	7.17
304.166	39.94
304.381	-15.36
304.595	123.9
304.809	37.89
305.023	52.22
305.237	50.18
305.452	1.02
305.666	25.6
305.88	-15.36
306.094	23.55
306.308	103.42
306.522	-9.22
306.736	29.7
306.95	13.31
307.164	-23.55
307.379	66.56
307.593	68.61
307.807	84.99
308.021	62.46
308.235	52.22
308.449	37.89
308.663	-37.89
308.877	60.42
309.091	50.18
309.305	99.33
309.519	48.13
309.733	66.56
309.947	46.08
310.161	58.37
310.374	33.79
310.588	89.09
310.802	-27.65
311.016	19.46
311.23	46.08
311.444	62.46
311.658	-3.07
311.872	58.37
312.085	66.56
312.299	7.17
312.513	97.28
312.727	39.94
312.941	1.02
313.154	50.18
313.368	3.07
313.582	-3.07
313.796	11.26
314.009	33.79
314.223	87.04
314.437	21.5
314.651	13.31
314.864	-33.79
315.078	-64.51
315.292	25.6
315.505	60.42
315.719	25.6
315.933	41.98
316.146	68.61
316.36	-7.17
316.573	25.6
316.787	-5.12
317.001	33.79
317.214	37.89
317.428	-35.84
317.641	25.6
317.855	70.65
318.068	54.27
318.282	54.27
318.495	37.89
318.709	-5.12
318.922	-7.17
319.136	82.94
319.349	-3.07
319.563	64.51
319.776	33.79
319.99	3.07
320.203	-5.12
320.417	66.56
320.63	25.6
320.843	54.27
321.057	29.7
321.27	70.65
321.483	-29.7
321.697	21.5
321.91	60.42
322.124	25.6
322.337	76.8
322.55	58.37
322.763	-5.12
322.977	46.08
323.19	9.22
323.403	74.75
323.617	17.41
323.83	31.74
324.043	-37.89
324.256	25.6
324.469	-72.7
324.683	74.75
324.896	-11.26
325.109	19.46
325.322	-54.27
325.535	99.33
325.748	17.41
325.962	46.08
326.175	11.26
326.388	93.18
326.601	27.65
326.814	25.6
327.027	1.02
327.24	134.14
327.453	31.74
327.666	37.89
327.879	-3.07
328.092	29.7
328.305	21.5
328.518	93.18
328.731	5.12
328.944	70.65
329.157	-1.02
329.37	3.07
329.583	93.18
329.796	46.08
330.009	7.17
330.222	35.84
330.435	76.8
330.648	11.26
330.861	-33.79
331.073	91.13
331.286	99.33
331.499	44.03
331.712	19.46
331.925	46.08
332.138	99.33
332.35	27.65
332.563	41.98
332.776	95.23
332.989	7.17
333.202	-52.22
333.414	99.33
333.627	52.22
333.84	37.89
334.053	121.85
334.265	-46.08
334.478	-56.32
334.691	72.7
334.903	74.75
335.116	50.18
335.329	80.89
335.541	74.75
335.754	19.46
335.966	1.02
336.179	25.6
336.392	3.07
336.604	27.65
336.817	41.98
337.029	54.27
337.242	74.75
337.454	56.32
337.667	68.61
337.88	93.18
338.092	58.37
338.305	58.37
338.517	35.84
338.729	17.41
338.942	113.66
339.154	33.79
339.367	-29.7
339.579	82.94
339.792	-44.03
340.004	68.61
340.217	66.56
340.429	-33.79
340.641	-3.07
340.854	44.03
341.066	35.84
341.278	-7.17
341.491	44.03
341.703	-15.36
341.915	41.98
342.128	62.46
342.34	31.74
342.552	62.46
342.764	58.37
342.977	80.89
343.189	-21.5
343.401	-35.84
343.613	5.12
343.826	13.31
344.038	25.6
344.25	66.56
344.462	41.98
344.674	33.79
344.886	91.13
345.099	103.42
345.311	33.79
345.523	27.65
345.735	46.08
345.947	33.79
346.159	11.26
346.371	74.75
346.583	-3.07
346.795	117.76
347.007	17.41
347.219	74.75
347.431	164.86
347.643	78.85
347.855	13.31
348.067	66.56
348.279	95.23
348.491	46.08
348.703	50.18
348.915	-7.17
349.127	29.7
349.339	41.98
349.551	-31.74
349.763	132.09
349.975	-19.46
350.187	111.61
350.399	52.22
350.61	54.27
350.822	17.41
351.034	70.65
351.246	60.42
351.458	70.65
351.669	66.56
351.881	23.55
352.093	60.42
352.305	87.04
352.517	113.66
352.728	37.89
352.94	66.56
353.152	58.37
353.363	15.36
353.575	70.65
353.787	60.42
353.999	41.98
354.21	76.8
354.422	13.31
354.633	-5.12
354.845	31.74
355.057	93.18
355.268	66.56
355.48	21.5
355.692	-37.89
355.903	-7.17
356.115	37.89
356.326	-15.36
356.538	58.37
356.749	107.52
356.961	87.04
357.172	-7.17
357.384	-50.18
357.595	66.56
357.807	54.27
358.018	11.26
358.23	25.6
358.441	19.46
358.653	93.18
358.864	33.79
359.075	-7.17
359.287	87.04
359.498	84.99
359.709	1.02
359.921	54.27
360.132	84.99
360.344	115.71
360.555	62.46
360.766	29.7
360.977	123.9
361.189	84.99
361.4	121.85
361.611	44.03
361.823	91.13
362.034	84.99
362.245	-68.61
362.456	93.18
362.667	25.6
362.879	82.94
363.09	87.04
363.301	33.79
363.512	33.79
363.723	-3.07
363.935	9.22
364.146	54.27
364.357	39.94
364.568	3.07
364.779	56.32
364.99	68.61
365.201	-21.5
365.412	-19.46
365.623	76.8
365.834	76.8
366.045	87.04
366.256	13.31
366.467	-15.36
366.678	19.46
366.889	76.8
367.1	21.5
367.311	58.37
367.522	54.27
367.733	50.18
367.944	46.08
368.155	9.22
368.366	101.37
368.577	103.42
368.788	56.32
368.999	9.22
369.209	78.85
369.42	46.08
369.631	66.56
369.842	-3.07
370.053	37.89
370.264	33.79
370.474	-15.36
370.685	-11.26
370.896	41.98
371.107	95.23
371.317	101.37
371.528	17.41
371.739	80.89
371.95	68.61
372.16	35.84
372.371	25.6
372.582	19.46
372.792	99.33
373.003	-11.26
373.214	52.22
373.424	115.71
373.635	37.89
373.846	87.04
374.056	41.98
374.267	1.02
374.477	27.65
374.688	13.31
374.898	58.37
375.109	117.76
375.319	9.22
375.53	21.5
375.74	91.13
375.951	44.03
376.161	95.23
376.372	80.89
376.582	27.65
376.793	1.02
377.003	11.26
377.214	3.07
377.424	35.84
377.635	50.18
377.845	9.22
378.055	128
378.266	-27.65
378.476	93.18
378.686	52.22
378.897	23.55
379.107	91.13
379.317	9.22
379.528	41.98
379.738	68.61
379.948	-50.18
380.158	15.36
380.369	74.75
380.579	99.33
380.789	33.79
380.999	35.84
381.21	17.41
381.42	125.95
381.63	9.22
381.84	-15.36
382.05	103.42
382.261	103.42
382.471	99.33
382.681	50.18
382.891	76.8
383.101	76.8
383.311	27.65
383.521	7.17
383.731	91.13
383.941	62.46
384.151	60.42
384.361	11.26
384.571	82.94
384.781	27.65
384.991	115.71
385.201	46.08
385.411	78.85
385.621	31.74
385.831	-25.6
386.041	46.08
386.251	130.05
386.461	48.13
386.671	-23.55
386.881	-35.84
387.091	87.04
387.301	173.05
387.511	62.46
387.72	91.13
387.93	128
388.14	-39.94
388.35	50.18
388.56	136.19
388.769	74.75
388.979	103.42
389.189	5.12
389.399	64.51
389.609	74.75
389.818	17.41
390.028	93.18
390.238	66.56
390.447	44.03
390.657	115.71
390.867	1.02
391.076	35.84
391.286	25.6
391.496	95.23
391.705	54.27
391.915	123.9
392.125	46.08
392.334	3.07
392.544	78.85
392.753	121.85
392.963	31.74
393.172	123.9
393.382	-13.31
393.591	136.19
393.801	66.56
394.01	84.99
394.22	82.94
394.429	80.89
394.639	103.42
394.848	66.56
395.058	103.42
395.267	89.09
395.477	29.7
395.686	123.9
395.895	148.48
396.105	101.37
396.314	68.61
396.524	50.18
396.733	11.26
396.942	33.79
397.152	144.38
397.361	58.37
397.57	84.99
397.78	101.37
397.989	25.6
398.198	68.61
398.407	117.76
398.617	154.62
398.826	41.98
399.035	33.79
399.244	107.52
399.453	93.18
399.663	97.28
399.872	142.33
400.081	74.75
400.29	166.91
400.499	68.61
400.708	89.09
400.917	74.75
401.127	78.85
401.336	33.79
401.545	173.05
401.754	111.61
401.963	107.52
402.172	84.99
402.381	111.61
402.59	87.04
402.799	152.57
403.008	154.62
403.217	117.76
403.426	142.33
403.635	89.09
403.844	87.04
404.053	107.52
404.262	119.81
404.471	173.05
404.68	148.48
404.888	123.9
405.097	74.75
405.306	205.82
405.515	113.66
405.724	128
405.933	103.42
406.142	128
406.35	175.1
406.559	150.53
406.768	193.53
406.977	185.34
407.185	224.25
407.394	236.54
407.603	175.1
407.812	181.25
408.02	162.81
408.229	232.44
408.438	242.68
408.646	199.68
408.855	230.4
409.064	263.16
409.272	297.98
409.481	287.74
409.69	234.49
409.898	218.11
410.107	300.03
410.315	216.06
410.524	304.12
410.733	254.97
410.941	259.07
411.15	279.55
411.358	369.66
411.567	406.52
411.775	412.67
411.984	386.04
412.192	353.27
412.401	388.09
412.609	418.81
412.818	412.67
413.026	476.15
413.234	453.63
413.443	404.47
413.651	476.15
413.86	439.29
414.068	533.5
414.276	482.3
414.485	500.73
414.693	609.27
414.901	566.26
415.11	662.52
415.318	560.12
415.526	631.8
415.734	707.57
415.943	781.3
416.151	779.25
416.359	787.44
416.567	691.19
416.776	746.48
416.984	809.97
417.192	873.46
417.4	842.74
417.608	840.69
417.817	832.5
418.025	951.28
418.233	1061.87
418.441	865.27
418.649	1025.01
418.857	1147.89
419.065	1158.13
419.273	1070.06
419.481	1123.31
419.689	1295.34
419.897	1297.39
420.105	1385.45
420.313	1338.35
420.521	1434.6
420.729	1389.55
420.937	1381.35
421.145	1465.32
421.353	1584.1
421.561	1672.17
421.769	1770.47
421.977	1696.74
422.185	1741.8
422.393	1876.96
422.601	1991.65
422.809	2003.94
423.017	1971.17
423.224	1942.5
423.432	2048.99
423.64	2210.78
423.848	2206.69
424.056	2225.12
424.263	2468.83
424.471	2423.77
424.679	2556.89
424.887	2606.04
425.094	2722.77
425.302	2659.29
425.51	2761.69
425.718	2915.28
425.925	2819.03
426.133	3025.87
426.341	3171.28
426.548	3285.97
426.756	3419.08
426.964	3236.81
427.171	3468.24
427.379	3675.08
427.586	3675.08
427.794	3879.88
428.001	4082.63
428.209	4305.85
428.417	4203.46
428.624	4256.7
428.832	4465.6
429.039	4438.97
429.247	4465.6
429.454	4856.76
429.662	5252.02
429.869	4903.86
430.076	5108.66
430.284	4932.53
430.491	5186.48
430.699	5465
430.906	5483.44
431.114	5491.63
431.321	5657.51
431.528	5893.03
431.736	6226.85
431.943	6474.65
432.15	6216.61
432.358	6382.49
432.565	6794.14
432.772	6669.21
432.979	7070.61
433.187	7095.19
433.394	7297.94
433.601	7865.22
433.808	7752.59
434.016	7838.6
434.223	7967.62
434.43	8659.84
434.637	8395.65
434.844	8811.39
435.052	8942.46
435.259	8895.35
435.466	9024.37
435.673	8944.5
435.88	9474.93
436.087	9909.1
436.294	10136.42
436.501	9653.1
436.708	9855.85
436.915	10333.03
437.122	10797.92
437.329	10709.85
437.537	11291.48
437.743	11354.96
437.95	11443.03
438.157	11961.16
438.364	12266.31
438.571	11987.79
438.778	12272.45
438.985	13321.01
439.192	12944.19
439.399	13245.24
439.606	12888.89
439.813	13476.66
440.02	14383.91
440.227	14048.04
440.433	14318.37
440.64	14447.4
440.847	14385.96
441.054	14824.22
441.261	15725.33
441.467	15549.2
441.674	15772.43
441.881	16620.29
442.088	16474.88
442.294	16202.5
442.501	16810.75
442.708	17072.89
442.914	17578.74
443.121	18227.95
443.328	17922.8
443.534	19282.65
443.741	18383.59
443.948	18178.79
444.154	19942.1
444.361	19686.1
444.568	19516.12
444.774	19524.31
444.981	19907.28
445.187	20724.42
445.394	21289.66
445.6	21107.39
445.807	23128.74
446.013	21951.15
446.22	22551.21
446.426	23538.33
446.633	23577.24
446.839	24435.34
447.046	23437.98
447.252	24879.75
447.459	24840.84
447.665	24474.25
447.871	25674.36
448.078	26661.48
448.284	25344.64
448.491	26210.93
448.697	27030.12
448.903	27710.04
449.11	27802.2
449.316	27452
449.522	28101.2
449.728	28584.52
449.935	29010.5
450.141	28586.57
450.347	29753.91
450.553	28211.79
450.76	29465.15
450.966	30124.6
451.172	29758.01
451.378	30597.68
451.584	29809.21
451.791	30624.3
451.997	30476.85
452.203	30911.02
452.409	30849.58
452.615	31287.84
452.821	29561.4
453.027	29563.45
453.233	31302.18
453.44	29829.69
453.646	30478.89
453.852	30349.87
454.058	30802.47
454.264	29882.94
454.47	30515.76
454.676	29884.98
454.882	30798.38
455.088	28246.61
455.294	28799.56
455.5	29340.22
455.705	29352.51
455.911	27951.7
456.117	27716.19
456.323	27462.24
456.529	25873.01
456.735	27353.69
456.941	26327.66
457.147	26124.91
457.352	25617.02
457.558	25084.55
457.764	25074.31
457.97	24834.69
458.176	24480.39
458.381	24300.17
458.587	23157.41
458.793	23085.73
458.999	22106.8
459.204	23444.12
459.41	22708.9
459.616	21359.29
459.821	21275.32
460.027	21336.76
460.233	20783.81
460.438	19786.45
460.644	20060.88
460.85	18975.45
461.055	18715.36
461.261	18651.88
461.466	17314.55
461.672	16747.26
461.878	18240.23
462.083	16685.83
462.289	16511.75
462.494	16347.91
462.7	15827.73
462.905	15260.44
463.111	15829.77
463.316	15551.25
463.522	15600.4
463.727	15268.63
463.932	15377.17
464.138	15213.34
464.343	15330.07
464.549	14795.55
464.754	15584.02
464.959	15362.84
465.165	15020.83
465.37	14381.86
465.575	14074.67
465.781	14549.79
465.986	14703.39
466.191	14127.91
466.397	13970.22
466.602	13241.14
466.807	13902.64
467.012	13640.5
467.218	13531.95
467.423	13554.48
467.628	13830.96
467.833	14248.74
468.038	13503.28
468.244	13255.48
