Data from USB4F104151__267__14-46-05-879.txt Node

Date: Thu Mar 13 14:46:05 EDT 2025
User: louis
Spectrometer: USB4F10415
Trigger mode: 4
Integration Time (sec): 2.000000E-2
Scans to average: 1
Electric dark correction enabled: true
Nonlinearity correction enabled: false
Boxcar width: 0
XAxis mode: Wavelengths
Number of Pixels in Spectrum: 3648
>>>>>Begin Spectral Data<<<<<
178.204	-62.63
178.424	-62.63
178.644	-62.63
178.864	-111.78
179.084	-134.31
179.304	15.19
179.524	25.43
179.744	11.09
179.964	23.38
180.184	-42.15
180.404	23.38
180.624	39.76
180.844	47.96
181.064	-60.59
181.283	-15.53
181.503	-62.63
181.723	-5.29
181.943	13.14
182.163	52.05
182.383	0.85
182.602	-1.19
182.822	7
183.042	52.05
183.262	-25.77
183.482	27.48
183.701	9.05
183.921	7
184.141	2.9
184.361	2.9
184.58	-17.58
184.8	-29.87
185.02	27.48
185.239	47.96
185.459	37.72
185.679	60.24
185.898	7
186.118	35.67
186.338	47.96
186.557	97.11
186.777	19.29
186.997	0.85
187.216	21.33
187.436	39.76
187.655	-17.58
187.875	93.01
188.095	58.2
188.314	27.48
188.534	41.81
188.753	74.58
188.973	17.24
189.192	-9.39
189.412	11.09
189.631	72.53
189.851	19.29
190.07	76.63
190.29	25.43
190.509	45.91
190.729	-1.19
190.948	50
191.168	150.36
191.387	56.15
191.607	17.24
191.826	15.19
192.045	19.29
192.265	80.72
192.484	-17.58
192.704	-9.39
192.923	-36.01
193.142	95.06
193.362	31.57
193.581	45.91
193.8	-72.87
194.02	19.29
194.239	7
194.458	-74.92
194.678	33.62
194.897	33.62
195.116	39.76
195.335	-5.29
195.555	35.67
195.774	58.2
195.993	15.19
196.212	23.38
196.432	68.44
196.651	17.24
196.87	41.81
197.089	144.21
197.308	-1.19
197.528	33.62
197.747	-27.82
197.966	19.29
198.185	-1.19
198.404	47.96
198.623	15.19
198.842	-25.77
199.062	31.57
199.281	58.2
199.5	21.33
199.719	31.57
199.938	11.09
200.157	88.92
200.376	19.29
200.595	54.1
200.814	17.24
201.033	29.52
201.252	15.19
201.471	95.06
201.69	129.88
201.909	45.91
202.128	56.15
202.347	7
202.566	35.67
202.785	-52.39
203.004	111.44
203.223	88.92
203.442	25.43
203.661	-33.96
203.879	90.96
204.098	35.67
204.317	-1.19
204.536	-15.53
204.755	43.86
204.974	131.92
205.193	31.57
205.411	146.26
205.63	127.83
205.849	115.54
206.068	78.68
206.287	-21.67
206.505	15.19
206.724	66.39
206.943	15.19
207.162	15.19
207.381	107.35
207.599	39.76
207.818	-3.24
208.037	35.67
208.255	-33.96
208.474	47.96
208.693	7
208.911	52.05
209.13	0.85
209.349	64.34
209.567	58.2
209.786	-9.39
210.005	47.96
210.223	72.53
210.442	45.91
210.661	86.87
210.879	33.62
211.098	4.95
211.316	60.24
211.535	39.76
211.753	-7.34
211.972	82.77
212.191	47.96
212.409	7
212.628	52.05
212.846	-31.91
213.065	31.57
213.283	-31.91
213.502	23.38
213.72	35.67
213.938	-3.24
214.157	58.2
214.375	31.57
214.594	74.58
214.812	50
215.031	97.11
215.249	66.39
215.467	9.05
215.686	64.34
215.904	41.81
216.122	-19.63
216.341	0.85
216.559	15.19
216.778	105.3
216.996	72.53
217.214	33.62
217.432	-1.19
217.651	41.81
217.869	19.29
218.087	31.57
218.306	56.15
218.524	90.96
218.742	-31.91
218.96	60.24
219.179	31.57
219.397	31.57
219.615	68.44
219.833	27.48
220.051	-23.72
220.27	33.62
220.488	23.38
220.706	56.15
220.924	33.62
221.142	9.05
221.36	7
221.578	9.05
221.796	13.14
222.015	39.76
222.233	27.48
222.451	68.44
222.669	74.58
222.887	-42.15
223.105	-21.67
223.323	82.77
223.541	-5.29
223.759	-21.67
223.977	-60.59
224.195	39.76
224.413	90.96
224.631	27.48
224.849	101.2
225.067	19.29
225.285	7
225.503	45.91
225.721	-1.19
225.939	64.34
226.157	2.9
226.375	101.2
226.592	47.96
226.81	82.77
227.028	15.19
227.246	88.92
227.464	47.96
227.682	-7.34
227.9	-11.43
228.117	35.67
228.335	43.86
228.553	31.57
228.771	50
228.989	97.11
229.206	99.16
229.424	9.05
229.642	-19.63
229.86	-1.19
230.077	72.53
230.295	58.2
230.513	58.2
230.731	25.43
230.948	101.2
231.166	39.76
231.384	-15.53
231.601	15.19
231.819	13.14
232.037	56.15
232.254	-29.87
232.472	58.2
232.689	25.43
232.907	56.15
233.125	47.96
233.342	15.19
233.56	58.2
233.777	-33.96
233.995	64.34
234.213	105.3
234.43	-3.24
234.648	29.52
234.865	-46.25
235.083	25.43
235.3	56.15
235.518	45.91
235.735	39.76
235.953	113.49
236.17	52.05
236.388	-1.19
236.605	15.19
236.822	-13.48
237.04	2.9
237.257	47.96
237.475	39.76
237.692	19.29
237.909	29.52
238.127	7
238.344	17.24
238.562	-11.43
238.779	-25.77
238.996	-9.39
239.214	60.24
239.431	56.15
239.648	41.81
239.865	95.06
240.083	-5.29
240.3	7
240.517	9.05
240.735	11.09
240.952	66.39
241.169	72.53
241.386	88.92
241.603	90.96
241.821	45.91
242.038	31.57
242.255	74.58
242.472	-19.63
242.689	47.96
242.907	66.39
243.124	21.33
243.341	4.95
243.558	-48.3
243.775	-5.29
243.992	7
244.209	15.19
244.426	47.96
244.643	52.05
244.86	-21.67
245.078	64.34
245.295	88.92
245.512	-64.68
245.729	-62.63
245.946	-5.29
246.163	13.14
246.38	56.15
246.597	-13.48
246.814	29.52
247.031	50
247.248	93.01
247.464	-31.91
247.681	90.96
247.898	-1.19
248.115	56.15
248.332	13.14
248.549	58.2
248.766	43.86
248.983	146.26
249.2	47.96
249.417	25.43
249.633	0.85
249.85	25.43
250.067	41.81
250.284	41.81
250.501	84.82
250.717	66.39
250.934	35.67
251.151	9.05
251.368	-15.53
251.585	29.52
251.801	-44.2
252.018	-54.44
252.235	119.64
252.451	-25.77
252.668	47.96
252.885	129.88
253.102	84.82
253.318	39.76
253.535	64.34
253.752	-38.06
253.968	9.05
254.185	-21.67
254.401	39.76
254.618	-25.77
254.835	-27.82
255.051	60.24
255.268	43.86
255.484	-13.48
255.701	-9.39
255.917	72.53
256.134	35.67
256.351	84.82
256.567	31.57
256.784	23.38
257	-25.77
257.217	68.44
257.433	43.86
257.65	-33.96
257.866	80.72
258.082	-17.58
258.299	17.24
258.515	11.09
258.732	-21.67
258.948	-74.92
259.165	-7.34
259.381	17.24
259.597	29.52
259.814	41.81
260.03	41.81
260.246	-15.53
260.463	-25.77
260.679	64.34
260.895	0.85
261.112	80.72
261.328	-36.01
261.544	-7.34
261.761	58.2
261.977	2.9
262.193	-31.91
262.409	76.63
262.626	-62.63
262.842	-25.77
263.058	-89.26
263.274	9.05
263.49	0.85
263.707	56.15
263.923	15.19
264.139	-56.49
264.355	-3.24
264.571	31.57
264.787	11.09
265.004	93.01
265.22	2.9
265.436	-1.19
265.652	84.82
265.868	84.82
266.084	-15.53
266.3	25.43
266.516	-42.15
266.732	37.72
266.948	7
267.164	-52.39
267.38	23.38
267.596	23.38
267.812	72.53
268.028	99.16
268.244	-5.29
268.46	-42.15
268.676	50
268.892	27.48
269.108	27.48
269.324	35.67
269.54	9.05
269.756	66.39
269.972	54.1
270.188	68.44
270.403	-19.63
270.619	74.58
270.835	-40.11
271.051	80.72
271.267	39.76
271.483	60.24
271.698	9.05
271.914	-5.29
272.13	-58.54
272.346	47.96
272.562	33.62
272.777	39.76
272.993	-17.58
273.209	17.24
273.425	25.43
273.64	-33.96
273.856	68.44
274.072	19.29
274.287	47.96
274.503	117.59
274.719	45.91
274.934	80.72
275.15	-17.58
275.366	-31.91
275.581	7
275.797	72.53
276.012	7
276.228	2.9
276.444	23.38
276.659	-1.19
276.875	-50.35
277.09	33.62
277.306	29.52
277.521	-5.29
277.737	-25.77
277.952	64.34
278.168	-1.19
278.383	74.58
278.599	-7.34
278.814	64.34
279.03	50
279.245	23.38
279.461	11.09
279.676	47.96
279.892	17.24
280.107	37.72
280.322	-3.24
280.538	-9.39
280.753	41.81
280.969	64.34
281.184	-1.19
281.399	47.96
281.615	31.57
281.83	109.4
282.045	-15.53
282.26	-46.25
282.476	37.72
282.691	39.76
282.906	97.11
283.122	7
283.337	68.44
283.552	15.19
283.767	64.34
283.983	105.3
284.198	-17.58
284.413	33.62
284.628	15.19
284.843	58.2
285.058	64.34
285.274	52.05
285.489	-79.02
285.704	97.11
285.919	-29.87
286.134	17.24
286.349	27.48
286.564	64.34
286.779	90.96
286.995	47.96
287.21	43.86
287.425	15.19
287.64	23.38
287.855	45.91
288.07	97.11
288.285	39.76
288.5	88.92
288.715	25.43
288.93	7
289.145	70.48
289.36	58.2
289.575	56.15
289.79	11.09
290.004	97.11
290.219	70.48
290.434	-21.67
290.649	31.57
290.864	0.85
291.079	39.76
291.294	33.62
291.509	99.16
291.724	11.09
291.938	64.34
292.153	64.34
292.368	39.76
292.583	47.96
292.798	19.29
293.012	56.15
293.227	-21.67
293.442	31.57
293.657	60.24
293.871	72.53
294.086	35.67
294.301	115.54
294.516	60.24
294.73	-9.39
294.945	11.09
295.16	35.67
295.374	123.73
295.589	0.85
295.804	-29.87
296.018	66.39
296.233	41.81
296.447	25.43
296.662	35.67
296.877	2.9
297.091	105.3
297.306	11.09
297.52	35.67
297.735	41.81
297.949	72.53
298.164	105.3
298.378	70.48
298.593	-9.39
298.807	-50.35
299.022	15.19
299.236	56.15
299.451	27.48
299.665	0.85
299.88	47.96
300.094	2.9
300.309	39.76
300.523	-5.29
300.737	2.9
300.952	-42.15
301.166	39.76
301.381	-21.67
301.595	-50.35
301.809	-5.29
302.024	23.38
302.238	-9.39
302.452	60.24
302.667	-33.96
302.881	11.09
303.095	56.15
303.309	105.3
303.524	-29.87
303.738	2.9
303.952	43.86
304.166	74.58
304.381	33.62
304.595	37.72
304.809	-50.35
305.023	56.15
305.237	7
305.452	76.63
305.666	17.24
305.88	72.53
306.094	23.38
306.308	41.81
306.522	7
306.736	15.19
306.95	56.15
307.164	64.34
307.379	15.19
307.593	60.24
307.807	41.81
308.021	125.78
308.235	15.19
308.449	15.19
308.663	17.24
308.877	56.15
309.091	78.68
309.305	9.05
309.519	-33.96
309.733	11.09
309.947	-42.15
310.161	25.43
310.374	90.96
310.588	33.62
310.802	105.3
311.016	-64.68
311.23	25.43
311.444	58.2
311.658	78.68
311.872	50
312.085	-38.06
312.299	54.1
312.513	90.96
312.727	-9.39
312.941	-15.53
313.154	50
313.368	25.43
313.582	166.74
313.796	13.14
314.009	72.53
314.223	33.62
314.437	-33.96
314.651	117.59
314.864	31.57
315.078	-33.96
315.292	58.2
315.505	7
315.719	56.15
315.933	93.01
316.146	23.38
316.36	-74.92
316.573	31.57
316.787	-66.73
317.001	50
317.214	47.96
317.428	0.85
317.641	0.85
317.855	-1.19
318.068	27.48
318.282	56.15
318.495	68.44
318.709	39.76
318.922	76.63
319.136	74.58
319.349	47.96
319.563	72.53
319.776	25.43
319.99	31.57
320.203	78.68
320.417	7
320.63	99.16
320.843	41.81
321.057	35.67
321.27	56.15
321.483	86.87
321.697	117.59
321.91	27.48
322.124	150.36
322.337	88.92
322.55	-5.29
322.763	72.53
322.977	37.72
323.19	23.38
323.403	25.43
323.617	15.19
323.83	72.53
324.043	-15.53
324.256	-5.29
324.469	-17.58
324.683	-23.72
324.896	39.76
325.109	68.44
325.322	35.67
325.535	58.2
325.748	31.57
325.962	76.63
326.175	99.16
326.388	60.24
326.601	15.19
326.814	27.48
327.027	105.3
327.24	109.4
327.453	17.24
327.666	27.48
327.879	13.14
328.092	7
328.305	-13.48
328.518	-21.67
328.731	-42.15
328.944	35.67
329.157	35.67
329.37	19.29
329.583	80.72
329.796	103.25
330.009	52.05
330.222	7
330.435	-9.39
330.648	84.82
330.861	80.72
331.073	74.58
331.286	82.77
331.499	23.38
331.712	17.24
331.925	-23.72
332.138	47.96
332.35	-9.39
332.563	-25.77
332.776	33.62
332.989	25.43
333.202	97.11
333.414	19.29
333.627	7
333.84	41.81
334.053	7
334.265	58.2
334.478	-9.39
334.691	-1.19
334.903	64.34
335.116	27.48
335.329	-9.39
335.541	17.24
335.754	105.3
335.966	-44.2
336.179	82.77
336.392	-58.54
336.604	41.81
336.817	33.62
337.029	7
337.242	80.72
337.454	82.77
337.667	56.15
337.88	47.96
338.092	105.3
338.305	64.34
338.517	80.72
338.729	72.53
338.942	29.52
339.154	17.24
339.367	41.81
339.579	80.72
339.792	-60.59
340.004	64.34
340.217	37.72
340.429	60.24
340.641	-1.19
340.854	11.09
341.066	35.67
341.278	-5.29
341.491	64.34
341.703	29.52
341.915	37.72
342.128	101.2
342.34	31.57
342.552	33.62
342.764	15.19
342.977	50
343.189	50
343.401	47.96
343.613	7
343.826	86.87
344.038	-99.5
344.25	43.86
344.462	-72.87
344.674	11.09
344.886	60.24
345.099	2.9
345.311	43.86
345.523	50
345.735	7
345.947	52.05
346.159	52.05
346.371	93.01
346.583	58.2
346.795	99.16
347.007	19.29
347.219	101.2
347.431	0.85
347.643	129.88
347.855	-13.48
348.067	70.48
348.279	66.39
348.491	39.76
348.703	125.78
348.915	4.95
349.127	-9.39
349.339	-1.19
349.551	17.24
349.763	64.34
349.975	62.29
350.187	35.67
350.399	90.96
350.61	68.44
350.822	35.67
351.034	0.85
351.246	13.14
351.458	62.29
351.669	127.83
351.881	62.29
352.093	31.57
352.305	31.57
352.517	43.86
352.728	105.3
352.94	80.72
353.152	72.53
353.363	-13.48
353.575	60.24
353.787	13.14
353.999	64.34
354.21	88.92
354.422	56.15
354.633	80.72
354.845	93.01
355.057	21.33
355.268	58.2
355.48	25.43
355.692	27.48
355.903	52.05
356.115	-58.54
356.326	-5.29
356.538	56.15
356.749	29.52
356.961	156.5
357.172	17.24
357.384	50
357.595	140.12
357.807	31.57
358.018	-5.29
358.23	76.63
358.441	47.96
358.653	31.57
358.864	-11.43
359.075	29.52
359.287	35.67
359.498	27.48
359.709	39.76
359.921	27.48
360.132	80.72
360.344	-1.19
360.555	37.72
360.766	105.3
360.977	-17.58
361.189	17.24
361.4	105.3
361.611	99.16
361.823	58.2
362.034	99.16
362.245	47.96
362.456	37.72
362.667	62.29
362.879	35.67
363.09	47.96
363.301	72.53
363.512	-7.34
363.723	72.53
363.935	41.81
364.146	146.26
364.357	74.58
364.568	56.15
364.779	64.34
364.99	27.48
365.201	56.15
365.412	47.96
365.623	35.67
365.834	64.34
366.045	11.09
366.256	105.3
366.467	113.49
366.678	-9.39
366.889	39.76
367.1	9.05
367.311	68.44
367.522	0.85
367.733	45.91
367.944	43.86
368.155	-23.72
368.366	25.43
368.577	37.72
368.788	72.53
368.999	13.14
369.209	-7.34
369.42	195.41
369.631	90.96
369.842	-3.24
370.053	60.24
370.264	52.05
370.474	27.48
370.685	50
370.896	60.24
371.107	66.39
371.317	25.43
371.528	70.48
371.739	56.15
371.95	76.63
372.16	-15.53
372.371	45.91
372.582	47.96
372.792	-42.15
373.003	39.76
373.214	33.62
373.424	47.96
373.635	43.86
373.846	107.35
374.056	11.09
374.267	7
374.477	115.54
374.688	-33.96
374.898	88.92
375.109	35.67
375.319	4.95
375.53	35.67
375.74	9.05
375.951	39.76
376.161	72.53
376.372	64.34
376.582	64.34
376.793	-25.77
377.003	-21.67
377.214	58.2
377.424	47.96
377.635	47.96
377.845	17.24
378.055	68.44
378.266	-3.24
378.476	62.29
378.686	88.92
378.897	60.24
379.107	21.33
379.317	90.96
379.528	23.38
379.738	15.19
379.948	15.19
380.158	88.92
380.369	74.58
380.579	80.72
380.789	146.26
380.999	31.57
381.21	-29.87
381.42	166.74
381.63	52.05
381.84	39.76
382.05	27.48
382.261	19.29
382.471	72.53
382.681	82.77
382.891	80.72
383.101	113.49
383.311	23.38
383.521	56.15
383.731	82.77
383.941	107.35
384.151	39.76
384.361	60.24
384.571	52.05
384.781	74.58
384.991	113.49
385.201	113.49
385.411	11.09
385.621	76.63
385.831	68.44
386.041	105.3
386.251	47.96
386.461	121.68
386.671	23.38
386.881	86.87
387.091	68.44
387.301	58.2
387.511	47.96
387.72	56.15
387.93	64.34
388.14	-50.35
388.35	-11.43
388.56	72.53
388.769	93.01
388.979	23.38
389.189	54.1
389.399	80.72
389.609	52.05
389.818	66.39
390.028	43.86
390.238	58.2
390.447	33.62
390.657	60.24
390.867	17.24
391.076	-50.35
391.286	54.1
391.496	97.11
391.705	68.44
391.915	66.39
392.125	88.92
392.334	27.48
392.544	39.76
392.753	103.25
392.963	15.19
393.172	-25.77
393.382	37.72
393.591	23.38
393.801	93.01
394.01	41.81
394.22	72.53
394.429	50
394.639	64.34
394.848	111.44
395.058	-21.67
395.267	60.24
395.477	52.05
395.686	23.38
395.895	105.3
396.105	117.59
396.314	107.35
396.524	41.81
396.733	43.86
396.942	68.44
397.152	121.68
397.361	125.78
397.57	125.78
397.78	74.58
397.989	95.06
398.198	121.68
398.407	88.92
398.617	66.39
398.826	115.54
399.035	68.44
399.244	68.44
399.453	80.72
399.663	45.91
399.872	105.3
400.081	119.64
400.29	131.92
400.499	172.88
400.708	140.12
400.917	90.96
401.127	68.44
401.336	113.49
401.545	162.64
401.754	138.07
401.963	136.02
402.172	95.06
402.381	80.72
402.59	121.68
402.799	56.15
403.008	154.45
403.217	93.01
403.426	80.72
403.635	121.68
403.844	172.88
404.053	41.81
404.262	23.38
404.471	80.72
404.68	107.35
404.888	107.35
405.097	66.39
405.306	93.01
405.515	181.07
405.724	148.31
405.933	248.66
406.142	125.78
406.35	158.55
406.559	222.03
406.768	123.73
406.977	197.46
407.185	74.58
407.394	269.14
407.603	150.36
407.812	170.83
408.02	226.13
408.229	158.55
408.438	238.42
408.646	228.18
408.855	179.03
409.064	254.8
409.272	187.22
409.481	285.52
409.69	142.16
409.898	211.79
410.107	301.9
410.315	289.62
410.524	297.81
410.733	232.27
410.941	277.33
411.15	318.29
411.358	346.96
411.567	334.67
411.775	330.58
411.984	383.82
412.192	381.78
412.401	342.86
412.609	297.81
412.818	416.59
413.026	355.15
413.234	482.13
413.443	318.29
413.651	387.92
413.86	430.93
414.068	518.99
414.276	432.97
414.485	504.65
414.693	553.8
414.901	607.05
415.11	510.8
415.318	564.04
415.526	471.89
415.734	641.87
415.943	523.09
416.151	746.31
416.359	529.23
416.567	668.49
416.776	674.64
416.984	809.8
417.192	867.14
417.4	764.75
417.608	744.27
417.817	830.28
418.025	836.42
418.233	916.3
418.441	852.81
418.649	990.02
418.857	1014.6
419.065	973.64
419.273	996.17
419.481	1012.55
419.689	1112.9
419.897	1110.85
420.105	1076.04
420.313	1178.44
420.521	1217.35
420.729	1194.82
420.937	1309.51
421.145	1289.03
421.353	1372.99
421.561	1459.01
421.769	1569.6
421.977	1532.73
422.185	1663.8
422.393	1622.84
422.601	1768.25
422.809	1715
423.017	1729.34
423.224	1839.93
423.432	1993.53
423.64	1841.98
423.848	2073.4
424.056	2046.77
424.263	2179.89
424.471	2186.04
424.679	2267.95
424.887	2251.57
425.094	2345.78
425.302	2487.09
425.51	2446.13
425.718	2612.01
425.925	2667.31
426.133	2659.12
426.341	2859.82
426.548	3021.61
426.756	2962.22
426.964	2956.07
427.171	3173.16
427.379	3234.6
427.586	3402.53
427.794	3339.04
428.001	3633.95
428.209	3597.09
428.417	3558.18
428.624	3963.67
428.832	3955.48
429.039	3744.54
429.247	3914.52
429.454	4291.35
429.662	4586.26
429.869	4301.59
430.076	4541.2
430.284	4246.29
430.491	4662.03
430.699	4909.83
430.906	4754.19
431.114	4856.59
431.321	5145.35
431.528	5176.07
431.736	5528.32
431.943	5776.13
432.15	5516.03
432.358	5524.23
432.565	5995.26
432.772	5849.85
432.979	6177.53
433.187	6339.32
433.394	6406.9
433.601	6855.4
433.808	6855.4
434.016	6882.03
434.223	7047.91
434.43	7564
434.637	7555.81
434.844	7793.37
435.052	7944.92
435.259	7854.81
435.466	8137.43
435.673	8067.8
435.88	8313.56
436.087	8983.24
436.294	8821.45
436.501	8579.79
436.708	8805.07
436.915	9106.12
437.122	9464.52
437.329	9464.52
437.537	9546.44
437.743	10009.28
437.95	9931.45
438.157	10339
438.364	10885.81
438.571	10697.39
438.778	10787.5
438.985	11762.34
439.192	11279.02
439.399	11850.4
439.606	11377.32
439.813	12255.9
440.02	12872.34
440.227	12655.25
440.433	12538.52
440.64	12925.58
440.847	12675.73
441.054	13146.76
441.261	14060.16
441.467	13795.97
441.674	14033.54
441.881	14350.97
442.088	14445.18
442.294	14334.59
442.501	14692.98
442.708	15065.71
442.914	15567.46
443.121	16224.86
443.328	15643.24
443.534	16992.85
443.741	16550.49
443.948	16132.7
444.154	17404.49
444.361	17338.96
444.568	17615.43
444.774	17392.2
444.981	17615.43
445.187	17984.07
445.394	19100.21
445.6	18774.58
445.807	20460.06
446.013	19653.16
446.22	19515.95
446.426	20822.55
446.633	20744.73
446.839	21576.2
447.046	20425.25
447.252	21973.51
447.459	22149.64
447.665	22055.43
447.871	22741.5
448.078	23779.82
448.284	22567.42
448.491	23368.18
448.697	24519.14
448.903	24658.4
449.11	24807.9
449.316	24558.05
449.522	25072.09
449.728	25405.91
449.935	25739.72
450.141	25620.94
450.347	26139.08
450.553	25573.84
450.76	25995.72
450.966	26933.69
451.172	26558.91
451.378	26900.92
451.584	26847.68
451.791	27431.35
451.997	27081.14
452.203	27513.27
452.409	27627.95
452.615	27496.88
452.821	26767.8
453.027	26319.3
453.233	27967.91
453.44	26870.2
453.646	27113.91
453.852	27126.2
454.058	27578.8
454.264	26988.99
454.47	27597.23
454.676	26743.23
454.882	27562.42
455.088	25493.97
455.294	25346.51
455.5	26024.39
455.705	26759.61
455.911	25194.96
456.117	25043.42
456.323	24748.51
456.529	23314.93
456.735	24410.59
456.941	23859.69
457.147	23323.12
457.352	22772.22
457.558	22592
457.764	22583.8
457.97	22178.31
458.176	21580.3
458.381	21942.79
458.587	20460.06
458.793	20802.07
458.999	19745.32
459.204	21090.84
459.41	20038.18
459.616	18987.57
459.821	18938.42
460.027	18942.52
460.233	18571.83
460.438	17760.84
460.644	17941.06
460.85	17293.9
461.055	16829.01
461.261	16853.59
461.466	15491.69
461.672	15096.43
461.878	16040.54
462.083	15129.2
462.289	14967.41
462.494	14744.18
462.7	14269.05
462.905	13943.42
463.111	14234.24
463.316	14129.79
463.522	13814.4
463.727	13918.85
463.932	13992.58
464.138	13732.48
464.343	13730.44
464.549	13417.1
464.754	13740.68
464.959	13757.06
465.165	13769.35
465.37	12999.31
465.575	12649.11
465.781	13140.62
465.986	13257.36
466.191	12651.16
466.397	12495.51
466.602	11856.54
466.807	12358.3
467.012	12561.05
467.218	12253.85
467.423	12173.98
467.628	12305.05
467.833	12741.27
468.038	12311.19
468.244	11772.58
468.449	12659.35
468.654	12239.51
468.859	12032.67
469.064	12057.25
469.269	11532.97
