Data from USB4F104151__87__14-43-31-275.txt Node

Date: Thu Mar 13 14:43:31 EDT 2025
User: louis
Spectrometer: USB4F10415
Trigger mode: 4
Integration Time (sec): 2.000000E-2
Scans to average: 1
Electric dark correction enabled: true
Nonlinearity correction enabled: false
Boxcar width: 0
XAxis mode: Wavelengths
Number of Pixels in Spectrum: 3648
>>>>>Begin Spectral Data<<<<<
178.204	-163.84
178.424	-163.84
178.644	-163.84
178.864	-145.41
179.084	-131.07
179.304	4.1
179.524	18.43
179.744	-26.62
179.964	40.96
180.184	59.39
180.404	24.58
180.624	-40.96
180.844	49.15
181.064	-69.63
181.283	-65.53
181.503	45.06
181.723	-38.91
181.943	20.48
182.163	40.96
182.383	40.96
182.602	-26.62
182.822	0
183.042	40.96
183.262	8.19
183.482	0
183.701	-49.15
183.921	18.43
184.141	-45.06
184.361	34.82
184.58	36.86
184.8	-14.34
185.02	34.82
185.239	-30.72
185.459	-24.58
185.679	32.77
185.898	0
186.118	16.38
186.338	-14.34
186.557	61.44
186.777	-75.77
186.997	-6.14
187.216	38.91
187.436	14.34
187.655	49.15
187.875	79.87
188.095	28.67
188.314	20.48
188.534	51.2
188.753	-14.34
188.973	40.96
189.192	51.2
189.412	20.48
189.631	26.62
189.851	-2.05
190.07	71.68
190.29	-96.25
190.509	-28.67
190.729	-4.1
190.948	8.19
191.168	73.73
191.387	32.77
191.607	-116.73
191.826	-2.05
192.045	-65.53
192.265	26.62
192.484	-18.43
192.704	28.67
192.923	-2.05
193.142	24.58
193.362	32.77
193.581	-12.29
193.8	30.72
194.02	28.67
194.239	-38.91
194.458	-14.34
194.678	-53.25
194.897	26.62
195.116	34.82
195.335	-40.96
195.555	0
195.774	38.91
195.993	26.62
196.212	-51.2
196.432	61.44
196.651	69.63
196.87	0
197.089	59.39
197.308	-14.34
197.528	51.2
197.747	-73.73
197.966	-6.14
198.185	-6.14
198.404	-10.24
198.623	-8.19
198.842	8.19
199.062	-14.34
199.281	61.44
199.5	61.44
199.719	-49.15
199.938	86.01
200.157	43.01
200.376	34.82
200.595	83.97
200.814	-12.29
201.033	73.73
201.252	73.73
201.471	75.77
201.69	90.11
201.909	4.1
202.128	26.62
202.347	-6.14
202.566	40.96
202.785	-63.49
203.004	-20.48
203.223	45.06
203.442	-47.1
203.661	-8.19
203.879	-10.24
204.098	43.01
204.317	-18.43
204.536	75.77
204.755	10.24
204.974	34.82
205.193	26.62
205.411	10.24
205.63	16.38
205.849	67.58
206.068	0
206.287	65.54
206.505	40.96
206.724	32.77
206.943	24.58
207.162	24.58
207.381	83.97
207.599	10.24
207.818	-18.43
208.037	-73.73
208.255	26.62
208.474	36.86
208.693	24.58
208.911	36.86
209.13	-14.34
209.349	-8.19
209.567	28.67
209.786	-20.48
210.005	8.19
210.223	32.77
210.442	-8.19
210.661	-8.19
210.879	45.06
211.098	49.15
211.316	-47.1
211.535	61.44
211.753	106.49
211.972	12.29
212.191	-38.91
212.409	-12.29
212.628	81.92
212.846	28.67
213.065	65.54
213.283	18.43
213.502	90.11
213.72	-16.38
213.938	59.39
214.157	59.39
214.375	26.62
214.594	57.34
214.812	45.06
215.031	-8.19
215.249	40.96
215.467	51.2
215.686	57.34
215.904	2.05
216.122	-16.38
216.341	24.58
216.559	36.86
216.778	67.58
216.996	22.53
217.214	6.14
217.432	-69.63
217.651	-4.1
217.869	55.3
218.087	86.01
218.306	49.15
218.524	16.38
218.742	-12.29
218.96	32.77
219.179	20.48
219.397	20.48
219.615	47.1
219.833	32.77
220.051	-14.34
220.27	49.15
220.488	51.2
220.706	69.63
220.924	18.43
221.142	47.1
221.36	-2.05
221.578	16.38
221.796	34.82
222.015	-30.72
222.233	-47.1
222.451	34.82
222.669	98.3
222.887	-73.73
223.105	-24.58
223.323	-24.58
223.541	-8.19
223.759	110.59
223.977	55.3
224.195	2.05
224.413	77.82
224.631	86.01
224.849	20.48
225.067	16.38
225.285	-20.48
225.503	53.25
225.721	-102.4
225.939	0
226.157	-8.19
226.375	86.01
226.592	-53.25
226.81	-32.77
227.028	51.2
227.246	71.68
227.464	77.82
227.682	24.58
227.9	20.48
228.117	0
228.335	90.11
228.553	24.58
228.771	-106.49
228.989	73.73
229.206	12.29
229.424	-14.34
229.642	36.86
229.86	34.82
230.077	-40.96
230.295	-4.1
230.513	16.38
230.731	94.21
230.948	65.54
231.166	20.48
231.384	-8.19
231.601	-16.38
231.819	28.67
232.037	32.77
232.254	24.58
232.472	-47.1
232.689	57.34
232.907	16.38
233.125	59.39
233.342	-14.34
233.56	10.24
233.777	-34.82
233.995	12.29
234.213	28.67
234.43	40.96
234.648	-32.77
234.865	-32.77
235.083	10.24
235.3	16.38
235.518	-22.53
235.735	8.19
235.953	71.68
236.17	-61.44
236.388	-45.06
236.605	0
236.822	-34.82
237.04	38.91
237.257	20.48
237.475	32.77
237.692	57.34
237.909	-14.34
238.127	4.1
238.344	26.62
238.562	16.38
238.779	-18.43
238.996	-22.53
239.214	49.15
239.431	45.06
239.648	36.86
239.865	-12.29
240.083	92.16
240.3	-30.72
240.517	-28.67
240.735	-38.91
240.952	28.67
241.169	67.58
241.386	16.38
241.603	0
241.821	14.34
242.038	49.15
242.255	26.62
242.472	32.77
242.689	61.44
242.907	32.77
243.124	-20.48
243.341	-8.19
243.558	16.38
243.775	-20.48
243.992	-20.48
244.209	6.14
244.426	53.25
244.643	38.91
244.86	-34.82
245.078	8.19
245.295	6.14
245.512	-6.14
245.729	-24.58
245.946	49.15
246.163	-28.67
246.38	10.24
246.597	90.11
246.814	43.01
247.031	26.62
247.248	16.38
247.464	22.53
247.681	-12.29
247.898	40.96
248.115	12.29
248.332	112.64
248.549	49.15
248.766	69.63
248.983	81.92
249.2	-8.19
249.417	24.58
249.633	-65.53
249.85	59.39
250.067	-14.34
250.284	-53.25
250.501	36.86
250.717	-73.73
250.934	24.58
251.151	36.86
251.368	65.54
251.585	77.82
251.801	16.38
252.018	61.44
252.235	2.05
252.451	-71.68
252.668	16.38
252.885	-6.14
253.102	-49.15
253.318	28.67
253.535	10.24
253.752	-8.19
253.968	10.24
254.185	-53.25
254.401	-14.34
254.618	32.77
254.835	-2.05
255.051	12.29
255.268	45.06
255.484	18.43
255.701	-14.34
255.917	36.86
256.134	24.58
256.351	4.1
256.567	92.16
256.784	-30.72
257	-32.77
257.217	-32.77
257.433	-8.19
257.65	-106.49
257.866	61.44
258.082	-6.14
258.299	14.34
258.515	32.77
258.732	-24.58
258.948	-8.19
259.165	59.39
259.381	49.15
259.597	-38.91
259.814	18.43
260.03	-20.48
260.246	-8.19
260.463	8.19
260.679	26.62
260.895	-22.53
261.112	0
261.328	24.58
261.544	0
261.761	81.92
261.977	-4.1
262.193	-12.29
262.409	57.34
262.626	38.91
262.842	32.77
263.058	43.01
263.274	-65.53
263.49	32.77
263.707	-43.01
263.923	16.38
264.139	-22.53
264.355	32.77
264.571	61.44
264.787	122.88
265.004	73.73
265.22	-16.38
265.436	28.67
265.652	-14.34
265.868	10.24
266.084	36.86
266.3	79.87
266.516	-6.14
266.732	-24.58
266.948	0
267.164	-14.34
267.38	59.39
267.596	34.82
267.812	73.73
268.028	-34.82
268.244	-8.19
268.46	53.25
268.676	-55.3
268.892	-32.77
269.108	-8.19
269.324	-2.05
269.54	-22.53
269.756	49.15
269.972	28.67
270.188	12.29
270.403	-18.43
270.619	59.39
270.835	73.73
271.051	-73.73
271.267	-71.68
271.483	26.62
271.698	36.86
271.914	-22.53
272.13	-36.86
272.346	12.29
272.562	34.82
272.777	69.63
272.993	8.19
273.209	28.67
273.425	59.39
273.64	67.58
273.856	49.15
274.072	-28.67
274.287	-6.14
274.503	-38.91
274.719	-45.06
274.934	-6.14
275.15	24.58
275.366	-8.19
275.581	12.29
275.797	-4.1
276.012	-36.86
276.228	51.2
276.444	-14.34
276.659	59.39
276.875	-47.1
277.09	34.82
277.306	32.77
277.521	-4.1
277.737	-16.38
277.952	14.34
278.168	75.77
278.383	49.15
278.599	-61.44
278.814	51.2
279.03	98.3
279.245	57.34
279.461	18.43
279.676	38.91
279.892	-57.34
280.107	6.14
280.322	-26.62
280.538	20.48
280.753	47.1
280.969	-12.29
281.184	-38.91
281.399	86.01
281.615	-49.15
281.83	-38.91
282.045	-51.2
282.26	-38.91
282.476	8.19
282.691	-4.1
282.906	-20.48
283.122	-45.06
283.337	-36.86
283.552	2.05
283.767	32.77
283.983	16.38
284.198	0
284.413	-24.58
284.628	-14.34
284.843	34.82
285.058	-22.53
285.274	-8.19
285.489	34.82
285.704	88.06
285.919	-22.53
286.134	10.24
286.349	26.62
286.564	16.38
286.779	8.19
286.995	-12.29
287.21	6.14
287.425	65.54
287.64	8.19
287.855	4.1
288.07	-8.19
288.285	34.82
288.5	4.1
288.715	28.67
288.93	-20.48
289.145	-32.77
289.36	40.96
289.575	18.43
289.79	16.38
290.004	-47.1
290.219	-8.19
290.434	-24.58
290.649	16.38
290.864	63.49
291.079	-8.19
291.294	20.48
291.509	45.06
291.724	-22.53
291.938	16.38
292.153	81.92
292.368	12.29
292.583	-32.77
292.798	-20.48
293.012	10.24
293.227	20.48
293.442	30.72
293.657	-28.67
293.871	110.59
294.086	-38.91
294.301	67.58
294.516	26.62
294.73	6.14
294.945	16.38
295.16	16.38
295.374	49.15
295.589	40.96
295.804	40.96
296.018	-12.29
296.233	83.97
296.447	-45.06
296.662	-30.72
296.877	24.58
297.091	34.82
297.306	20.48
297.52	-26.62
297.735	10.24
297.949	-18.43
298.164	-6.14
298.378	61.44
298.593	-22.53
298.807	-8.19
299.022	0
299.236	8.19
299.451	-16.38
299.665	40.96
299.88	61.44
300.094	10.24
300.309	-6.14
300.523	49.15
300.737	-10.24
300.952	55.3
301.166	90.11
301.381	20.48
301.595	24.58
301.809	12.29
302.024	26.62
302.238	24.58
302.452	75.77
302.667	0
302.881	98.3
303.095	49.15
303.309	92.16
303.524	-22.53
303.738	12.29
303.952	-14.34
304.166	83.97
304.381	-14.34
304.595	53.25
304.809	28.67
305.023	83.97
305.237	-4.1
305.452	28.67
305.666	59.39
305.88	20.48
306.094	18.43
306.308	2.05
306.522	38.91
306.736	28.67
306.95	40.96
307.164	-8.19
307.379	10.24
307.593	92.16
307.807	22.53
308.021	61.44
308.235	0
308.449	-16.38
308.663	-16.38
308.877	75.77
309.091	79.87
309.305	40.96
309.519	-61.44
309.733	16.38
309.947	30.72
310.161	-4.1
310.374	49.15
310.588	73.73
310.802	40.96
311.016	18.43
311.23	-32.77
311.444	28.67
311.658	28.67
311.872	65.54
312.085	81.92
312.299	30.72
312.513	45.06
312.727	20.48
312.941	-10.24
313.154	81.92
313.368	73.73
313.582	-16.38
313.796	16.38
314.009	-4.1
314.223	67.58
314.437	153.6
314.651	98.3
314.864	32.77
315.078	-38.91
315.292	-30.72
315.505	-86.01
315.719	53.25
315.933	-32.77
316.146	65.54
316.36	-24.58
316.573	126.97
316.787	28.67
317.001	40.96
317.214	2.05
317.428	34.82
317.641	73.73
317.855	20.48
318.068	30.72
318.282	30.72
318.495	65.54
318.709	28.67
318.922	26.62
319.136	110.59
319.349	-12.29
319.563	32.77
319.776	32.77
319.99	-49.15
320.203	10.24
320.417	36.86
320.63	32.77
320.843	59.39
321.057	-14.34
321.27	49.15
321.483	43.01
321.697	36.86
321.91	45.06
322.124	55.3
322.337	65.54
322.55	-65.53
322.763	16.38
322.977	-55.3
323.19	-6.14
323.403	-4.1
323.617	43.01
323.83	14.34
324.043	24.58
324.256	28.67
324.469	0
324.683	22.53
324.896	40.96
325.109	18.43
325.322	0
325.535	18.43
325.748	2.05
325.962	-24.58
326.175	-2.05
326.388	24.58
326.601	10.24
326.814	45.06
327.027	-12.29
327.24	104.45
327.453	-94.21
327.666	69.63
327.879	65.54
328.092	81.92
328.305	20.48
328.518	43.01
328.731	26.62
328.944	16.38
329.157	16.38
329.37	16.38
329.583	-6.14
329.796	57.34
330.009	-8.19
330.222	43.01
330.435	16.38
330.648	-4.1
330.861	28.67
331.073	51.2
331.286	114.69
331.499	40.96
331.712	20.48
331.925	55.3
332.138	12.29
332.35	24.58
332.563	18.43
332.776	51.2
332.989	-6.14
333.202	124.93
333.414	-24.58
333.627	63.49
333.84	-6.14
334.053	53.25
334.265	-18.43
334.478	-4.1
334.691	40.96
334.903	8.19
335.116	-20.48
335.329	49.15
335.541	43.01
335.754	24.58
335.966	22.53
336.179	24.58
336.392	24.58
336.604	10.24
336.817	55.3
337.029	49.15
337.242	-38.91
337.454	28.67
337.667	40.96
337.88	43.01
338.092	-16.38
338.305	34.82
338.517	32.77
338.729	75.77
338.942	-12.29
339.154	-4.1
339.367	-30.72
339.579	69.63
339.792	-45.06
340.004	77.82
340.217	32.77
340.429	0
340.641	-51.2
340.854	24.58
341.066	34.82
341.278	75.77
341.491	75.77
341.703	45.06
341.915	67.58
342.128	65.54
342.34	24.58
342.552	73.73
342.764	40.96
342.977	-12.29
343.189	92.16
343.401	61.44
343.613	0
343.826	12.29
344.038	16.38
344.25	47.1
344.462	18.43
344.674	63.49
344.886	-16.38
345.099	-49.15
345.311	65.54
345.523	-24.58
345.735	-22.53
345.947	131.07
346.159	-8.19
346.371	6.14
346.583	65.54
346.795	106.49
347.007	16.38
347.219	45.06
347.431	-6.14
347.643	92.16
347.855	40.96
348.067	32.77
348.279	-32.77
348.491	10.24
348.703	79.87
348.915	40.96
349.127	18.43
349.339	53.25
349.551	0
349.763	75.77
349.975	100.35
350.187	71.68
350.399	40.96
350.61	100.35
350.822	10.24
351.034	40.96
351.246	28.67
351.458	110.59
351.669	-20.48
351.881	90.11
352.093	57.34
352.305	-16.38
352.517	51.2
352.728	-16.38
352.94	51.2
353.152	2.05
353.363	-6.14
353.575	-30.72
353.787	73.73
353.999	49.15
354.21	65.54
354.422	24.58
354.633	8.19
354.845	-53.25
355.057	49.15
355.268	53.25
355.48	43.01
355.692	49.15
355.903	34.82
356.115	43.01
356.326	20.48
356.538	-4.1
356.749	12.29
356.961	26.62
357.172	-8.19
357.384	20.48
357.595	96.25
357.807	0
358.018	0
358.23	55.3
358.441	81.92
358.653	65.54
358.864	-4.1
359.075	59.39
359.287	-12.29
359.498	30.72
359.709	4.1
359.921	28.67
360.132	69.63
360.344	73.73
360.555	-61.44
360.766	24.58
360.977	-30.72
361.189	49.15
361.4	118.78
361.611	40.96
361.823	34.82
362.034	8.19
362.245	-77.82
362.456	114.69
362.667	98.3
362.879	-8.19
363.09	-14.34
363.301	83.97
363.512	116.73
363.723	67.58
363.935	57.34
364.146	51.2
364.357	-16.38
364.568	-18.43
364.779	-24.58
364.99	59.39
365.201	-4.1
365.412	73.73
365.623	-12.29
365.834	67.58
366.045	26.62
366.256	53.25
366.467	83.97
366.678	45.06
366.889	73.73
367.1	-30.72
367.311	73.73
367.522	8.19
367.733	149.5
367.944	63.49
368.155	20.48
368.366	45.06
368.577	16.38
368.788	73.73
368.999	16.38
369.209	63.49
369.42	167.93
369.631	-10.24
369.842	81.92
370.053	-16.38
370.264	53.25
370.474	0
370.685	24.58
370.896	8.19
371.107	100.35
371.317	-16.38
371.528	0
371.739	61.44
371.95	81.92
372.16	83.97
372.371	-12.29
372.582	-2.05
372.792	-6.14
373.003	49.15
373.214	43.01
373.424	100.35
373.635	-26.62
373.846	65.54
374.056	-43.01
374.267	49.15
374.477	124.93
374.688	26.62
374.898	14.34
375.109	51.2
375.319	-28.67
375.53	45.06
375.74	26.62
375.951	28.67
376.161	8.19
376.372	69.63
376.582	67.58
376.793	63.49
377.003	10.24
377.214	30.72
377.424	73.73
377.635	18.43
377.845	45.06
378.055	116.73
378.266	57.34
378.476	81.92
378.686	57.34
378.897	24.58
379.107	12.29
379.317	98.3
379.528	16.38
379.738	57.34
379.948	-57.34
380.158	26.62
380.369	36.86
380.579	36.86
380.789	51.2
380.999	32.77
381.21	61.44
381.42	73.73
381.63	-4.1
381.84	-24.58
382.05	-49.15
382.261	24.58
382.471	-14.34
382.681	65.54
382.891	0
383.101	4.1
383.311	77.82
383.521	36.86
383.731	28.67
383.941	81.92
384.151	90.11
384.361	24.58
384.571	40.96
384.781	65.54
384.991	32.77
385.201	10.24
385.411	49.15
385.621	36.86
385.831	-2.05
386.041	16.38
386.251	124.93
386.461	135.17
386.671	32.77
386.881	36.86
387.091	-8.19
387.301	40.96
387.511	-14.34
387.72	34.82
387.93	49.15
388.14	63.49
388.35	20.48
388.56	30.72
388.769	34.82
388.979	20.48
389.189	18.43
389.399	40.96
389.609	112.64
389.818	81.92
390.028	-6.14
390.238	65.54
390.447	61.44
390.657	90.11
390.867	73.73
391.076	-16.38
391.286	77.82
391.496	86.01
391.705	-8.19
391.915	141.31
392.125	18.43
392.334	57.34
392.544	59.39
392.753	73.73
392.963	10.24
393.172	32.77
393.382	67.58
393.591	131.07
393.801	-10.24
394.01	81.92
394.22	92.16
394.429	81.92
394.639	51.2
394.848	104.45
395.058	49.15
395.267	24.58
395.477	45.06
395.686	-20.48
395.895	157.69
396.105	163.84
396.314	49.15
396.524	65.54
396.733	165.89
396.942	106.49
397.152	178.17
397.361	77.82
397.57	57.34
397.78	83.97
397.989	110.59
398.198	73.73
398.407	71.68
398.617	71.68
398.826	47.1
399.035	61.44
399.244	49.15
399.453	57.34
399.663	86.01
399.872	61.44
400.081	12.29
400.29	172.03
400.499	65.54
400.708	81.92
400.917	81.92
401.127	75.77
401.336	118.78
401.545	147.45
401.754	75.77
401.963	75.77
402.172	53.25
402.381	81.92
402.59	67.58
402.799	188.41
403.008	106.49
403.217	98.3
403.426	155.65
403.635	51.2
403.844	102.4
404.053	106.49
404.262	51.2
404.471	32.77
404.68	120.83
404.888	208.89
405.097	139.26
405.306	110.59
405.515	126.97
405.724	149.5
405.933	110.59
406.142	155.65
406.35	237.56
406.559	188.41
406.768	212.99
406.977	212.99
407.185	219.13
407.394	163.84
407.603	114.69
407.812	223.23
408.02	204.8
408.229	188.41
408.438	210.94
408.646	239.61
408.855	231.42
409.064	196.61
409.272	215.04
409.481	192.51
409.69	204.8
409.898	311.29
410.107	215.04
410.315	319.48
410.524	335.87
410.733	268.28
410.941	368.63
411.15	346.11
411.358	286.72
411.567	421.88
411.775	374.78
411.984	409.59
412.192	354.3
412.401	364.54
412.609	446.46
412.818	526.33
413.026	411.64
413.234	530.42
413.443	559.1
413.651	526.33
413.86	491.51
414.068	688.12
414.276	606.2
414.485	575.48
414.693	684.02
414.901	632.82
415.11	747.51
415.318	589.82
415.526	739.32
415.734	747.51
415.943	722.93
416.151	845.81
416.359	786.42
416.567	847.86
416.776	954.35
416.984	886.77
417.192	1011.7
417.4	1011.7
417.608	917.49
417.817	917.49
418.025	1122.29
418.233	1126.38
418.441	1069.04
418.649	1130.48
418.857	1286.12
419.065	1372.14
419.273	1241.07
419.481	1239.02
419.689	1386.47
419.897	1445.87
420.105	1466.35
420.313	1576.94
420.521	1560.55
420.729	1662.95
420.937	1712.1
421.145	1662.95
421.353	1966.05
421.561	1916.9
421.769	1869.8
421.977	2058.21
422.185	2150.37
422.393	2138.08
422.601	2195.42
422.809	2269.15
423.017	2256.86
423.224	2377.69
423.432	2342.88
423.64	2457.56
423.848	2707.41
424.056	2637.78
424.263	2840.53
424.471	2772.95
424.679	2824.15
424.887	2891.73
425.094	3082.19
425.302	3090.38
425.51	3270.61
425.718	3270.61
425.925	3475.4
426.133	3432.4
426.341	3684.3
426.548	3891.14
426.756	3880.9
426.964	3803.08
427.171	4110.27
427.379	4147.14
427.586	4333.5
427.794	4433.85
428.001	4612.03
428.209	4833.21
428.417	4816.82
428.624	4945.84
428.832	4853.69
429.039	5072.82
429.247	5070.77
429.454	5402.54
429.662	5992.36
429.869	5455.79
430.076	5781.42
430.284	5574.57
430.491	5924.77
430.699	6182.82
430.906	6315.94
431.114	6221.73
431.321	6653.85
431.528	6752.15
431.736	7241.62
431.943	7438.22
432.15	7131.03
432.358	7409.55
432.565	7790.47
432.772	7645.07
432.979	8238.98
433.187	8298.37
433.394	8165.25
433.601	8882.04
433.808	8884.09
434.016	8963.96
434.223	9133.94
434.43	9834.35
434.637	9576.3
434.844	10178.4
435.052	10223.46
435.259	10143.59
435.466	10434.4
435.673	10149.73
435.88	10915.67
436.087	11693.9
436.294	11585.36
436.501	11339.6
436.708	11460.43
436.915	11827.02
437.122	12339.01
437.329	12296
437.537	12918.59
437.743	13057.85
437.95	12681.02
438.157	13586.22
438.364	13967.15
438.571	14071.59
438.778	13926.19
438.985	15091.48
439.192	14595.87
439.399	15296.28
439.606	14960.41
439.813	15597.33
440.02	16871.17
440.227	16244.49
440.433	16140.04
440.64	16398.09
440.847	16561.92
441.054	16899.84
441.261	18087.66
441.467	17809.14
441.674	18231.02
441.881	18806.5
442.088	18814.69
442.294	18740.96
442.501	19273.43
442.708	19265.24
442.914	20408.01
443.121	21073.6
443.328	20483.78
443.534	22093.49
443.741	21563.06
443.948	20971.2
444.154	22728.36
444.361	22851.24
444.568	22681.25
444.774	22699.69
444.981	22894.24
445.187	23332.51
445.394	24542.86
445.6	24342.16
445.807	26564.2
446.013	25302.65
446.22	25773.69
446.426	26676.84
446.633	26984.04
446.839	27868.76
447.046	26910.31
447.252	28415.57
447.459	28485.2
447.665	28145.23
447.871	29429.31
448.078	30758.44
448.284	29525.57
448.491	30066.23
448.697	31231.52
448.903	31813.15
449.11	31927.83
449.316	31411.74
449.522	32060.95
449.728	33322.5
449.935	33185.29
450.141	33252.87
450.347	34158.07
450.553	32712.2
450.76	33623.55
450.966	34201.08
451.172	33873.4
451.378	34794.99
451.584	34180.6
451.791	35233.25
451.997	35290.6
452.203	35333.6
452.409	35663.33
452.615	35425.76
452.821	34106.87
453.027	33676.8
453.233	35704.29
453.44	34041.34
453.646	34921.96
453.852	34704.88
454.058	35401.19
454.264	34270.71
454.47	35055.08
454.676	34166.26
454.882	35243.49
455.088	32173.59
455.294	32896.52
455.5	33535.49
455.705	33676.8
455.911	32261.65
456.117	31438.37
456.323	31428.13
456.529	29802.04
456.735	31026.73
456.941	30398
457.147	29531.71
457.352	28835.4
457.558	28757.58
457.764	28788.3
457.97	28233.3
458.176	27776.6
458.381	27391.58
458.587	26291.82
458.793	26674.79
458.999	24923.78
459.204	26920.55
459.41	25765.49
459.616	24374.92
459.821	24305.29
460.027	24288.91
460.233	24147.6
460.438	22740.65
460.644	23076.51
460.85	21749.43
461.055	21372.6
461.261	21587.64
461.466	19951.31
461.672	19177.18
461.878	20821.7
462.083	19275.48
462.289	19162.84
462.494	18751.2
462.7	17850.1
462.905	17415.93
463.111	17993.45
463.316	17934.06
463.522	17432.31
463.727	17727.22
463.932	17669.87
464.138	17477.37
464.343	17479.41
464.549	16951.04
464.754	17454.84
464.959	17424.12
465.165	17219.32
465.37	16551.68
465.575	16105.23
465.781	16873.21
465.986	17043.2
466.191	16441.09
466.397	15640.34
466.602	15105.82
466.807	15669.01
467.012	15855.37
467.218	15548.18
467.423	15531.79
467.628	15482.64
467.833	16051.98
