Data from USB4F104151__238__14-45-44-884.txt Node

Date: Thu Mar 13 14:45:44 EDT 2025
User: louis
Spectrometer: USB4F10415
Trigger mode: 4
Integration Time (sec): 2.000000E-2
Scans to average: 1
Electric dark correction enabled: true
Nonlinearity correction enabled: false
Boxcar width: 0
XAxis mode: Wavelengths
Number of Pixels in Spectrum: 3648
>>>>>Begin Spectral Data<<<<<
178.204	-62.12
178.424	-62.12
178.644	-62.12
178.864	-68.27
179.084	-121.51
179.304	-72.36
179.524	-76.46
179.744	5.46
179.964	34.13
180.184	1.37
180.404	11.61
180.624	27.99
180.844	9.56
181.064	-55.98
181.283	71
181.503	1.37
181.723	42.32
181.943	-47.79
182.163	17.75
182.383	-2.73
182.602	-6.83
182.822	-23.21
183.042	40.28
183.262	34.13
183.482	44.37
183.701	75.09
183.921	54.61
184.141	42.32
184.361	71
184.58	62.8
184.8	44.37
185.02	34.13
185.239	21.84
185.459	75.09
185.679	75.09
185.898	-15.02
186.118	91.48
186.338	1.37
186.557	42.32
186.777	11.61
186.997	11.61
187.216	11.61
187.436	77.14
187.655	34.13
187.875	21.84
188.095	103.76
188.314	171.35
188.534	50.52
188.753	50.52
188.973	91.48
189.192	128.34
189.412	111.96
189.631	-2.73
189.851	83.28
190.07	136.53
190.29	-58.03
190.509	42.32
190.729	-8.87
190.948	17.75
191.168	109.91
191.387	46.42
191.607	3.41
191.826	-2.73
192.045	15.7
192.265	40.28
192.484	46.42
192.704	105.81
192.923	9.56
193.142	81.24
193.362	11.61
193.581	34.13
193.8	19.8
194.02	54.61
194.239	-2.73
194.458	99.67
194.678	75.09
194.897	13.65
195.116	25.94
195.335	25.94
195.555	34.13
195.774	21.84
195.993	23.89
196.212	52.56
196.432	9.56
196.651	25.94
196.87	68.95
197.089	95.57
197.308	34.13
197.528	64.85
197.747	17.75
197.966	-12.97
198.185	38.23
198.404	-6.83
198.623	52.56
198.842	19.8
199.062	93.52
199.281	52.56
199.5	13.65
199.719	50.52
199.938	52.56
200.157	136.53
200.376	9.56
200.595	79.19
200.814	58.71
201.033	66.9
201.252	-21.16
201.471	27.99
201.69	25.94
201.909	-37.55
202.128	58.71
202.347	71
202.566	36.18
202.785	19.8
203.004	27.99
203.223	124.24
203.442	50.52
203.661	-12.97
203.879	36.18
204.098	-6.83
204.317	-39.59
204.536	-27.31
204.755	34.13
204.974	111.96
205.193	134.48
205.411	38.23
205.63	11.61
205.849	7.51
206.068	1.37
206.287	1.37
206.505	75.09
206.724	116.05
206.943	30.04
207.162	-35.5
207.381	9.56
207.599	-45.74
207.818	-12.97
208.037	50.52
208.255	19.8
208.474	-39.59
208.693	36.18
208.911	66.9
209.13	77.14
209.349	60.76
209.567	7.51
209.786	1.37
210.005	83.28
210.223	50.52
210.442	-60.07
210.661	3.41
210.879	-0.68
211.098	5.46
211.316	66.9
211.535	27.99
211.753	58.71
211.972	17.75
212.191	66.9
212.409	50.52
212.628	60.76
212.846	19.8
213.065	34.13
213.283	83.28
213.502	66.9
213.72	75.09
213.938	27.99
214.157	38.23
214.375	48.47
214.594	-0.68
214.812	-21.16
215.031	-4.78
215.249	-4.78
215.467	60.76
215.686	-19.11
215.904	36.18
216.122	-6.83
216.341	15.7
216.559	52.56
216.778	68.95
216.996	-10.92
217.214	3.41
217.432	36.18
217.651	52.56
217.869	50.52
218.087	66.9
218.306	17.75
218.524	95.57
218.742	11.61
218.96	5.46
219.179	25.94
219.397	62.8
219.615	95.57
219.833	25.94
220.051	-27.31
220.27	99.67
220.488	101.72
220.706	38.23
220.924	-39.59
221.142	38.23
221.36	42.32
221.578	58.71
221.796	50.52
222.015	21.84
222.233	-12.97
222.451	66.9
222.669	-27.31
222.887	30.04
223.105	50.52
223.323	52.56
223.541	-23.21
223.759	107.86
223.977	25.94
224.195	36.18
224.413	54.61
224.631	99.67
224.849	58.71
225.067	116.05
225.285	58.71
225.503	62.8
225.721	-51.88
225.939	13.65
226.157	77.14
226.375	83.28
226.592	157.01
226.81	-37.55
227.028	56.66
227.246	-15.02
227.464	17.75
227.682	107.86
227.9	58.71
228.117	50.52
228.335	13.65
228.553	11.61
228.771	34.13
228.989	60.76
229.206	75.09
229.424	34.13
229.642	-6.83
229.86	27.99
230.077	71
230.295	36.18
230.513	50.52
230.731	101.72
230.948	60.76
231.166	23.89
231.384	75.09
231.601	42.32
231.819	-21.16
232.037	75.09
232.254	-21.16
232.472	38.23
232.689	-17.07
232.907	62.8
233.125	15.7
233.342	-2.73
233.56	11.61
233.777	38.23
233.995	60.76
234.213	21.84
234.43	-31.4
234.648	50.52
234.865	13.65
235.083	60.76
235.3	-39.59
235.518	81.24
235.735	15.7
235.953	11.61
236.17	9.56
236.388	-37.55
236.605	99.67
236.822	126.29
237.04	66.9
237.257	5.46
237.475	27.99
237.692	79.19
237.909	-23.21
238.127	-12.97
238.344	38.23
238.562	93.52
238.779	11.61
238.996	27.99
239.214	-8.87
239.431	58.71
239.648	30.04
239.865	107.86
240.083	9.56
240.3	66.9
240.517	25.94
240.735	13.65
240.952	-37.55
241.169	122.2
241.386	23.89
241.603	79.19
241.821	-2.73
242.038	52.56
242.255	42.32
242.472	19.8
242.689	7.51
242.907	58.71
243.124	48.47
243.341	38.23
243.558	13.65
243.775	73.04
243.992	-15.02
244.209	42.32
244.426	116.05
244.643	38.23
244.86	-2.73
245.078	58.71
245.295	91.48
245.512	19.8
245.729	30.04
245.946	-45.74
246.163	60.76
246.38	36.18
246.597	40.28
246.814	-19.11
247.031	46.42
247.248	85.33
247.464	21.84
247.681	44.37
247.898	38.23
248.115	79.19
248.332	93.52
248.549	27.99
248.766	89.43
248.983	58.71
249.2	44.37
249.417	83.28
249.633	52.56
249.85	62.8
250.067	46.42
250.284	21.84
250.501	91.48
250.717	30.04
250.934	-19.11
251.151	11.61
251.368	99.67
251.585	58.71
251.801	-6.83
252.018	44.37
252.235	71
252.451	83.28
252.668	36.18
252.885	23.89
253.102	83.28
253.318	95.57
253.535	-41.64
253.752	-23.21
253.968	46.42
254.185	44.37
254.401	36.18
254.618	25.94
254.835	7.51
255.051	148.82
255.268	64.85
255.484	109.91
255.701	68.95
255.917	17.75
256.134	44.37
256.351	9.56
256.567	1.37
256.784	54.61
257	-6.83
257.217	46.42
257.433	75.09
257.65	46.42
257.866	-4.78
258.082	3.41
258.299	3.41
258.515	58.71
258.732	-33.45
258.948	83.28
259.165	54.61
259.381	-39.59
259.597	25.94
259.814	34.13
260.03	-55.98
260.246	85.33
260.463	19.8
260.679	34.13
260.895	13.65
261.112	-0.68
261.328	-0.68
261.544	-12.97
261.761	95.57
261.977	91.48
262.193	-27.31
262.409	95.57
262.626	85.33
262.842	58.71
263.058	60.76
263.274	54.61
263.49	73.04
263.707	126.29
263.923	-8.87
264.139	-0.68
264.355	58.71
264.571	44.37
264.787	75.09
265.004	60.76
265.22	122.2
265.436	-37.55
265.652	165.2
265.868	46.42
266.084	-8.87
266.3	9.56
266.516	-4.78
266.732	42.32
266.948	66.9
267.164	25.94
267.38	25.94
267.596	75.09
267.812	85.33
268.028	58.71
268.244	1.37
268.46	83.28
268.676	-17.07
268.892	48.47
269.108	-10.92
269.324	54.61
269.54	64.85
269.756	77.14
269.972	-4.78
270.188	-0.68
270.403	50.52
270.619	25.94
270.835	-25.26
271.051	38.23
271.267	36.18
271.483	62.8
271.698	32.08
271.914	48.47
272.13	64.85
272.346	58.71
272.562	77.14
272.777	17.75
272.993	73.04
273.209	27.99
273.425	105.81
273.64	9.56
273.856	77.14
274.072	-31.4
274.287	68.95
274.503	91.48
274.719	50.52
274.934	-2.73
275.15	-15.02
275.366	58.71
275.581	-10.92
275.797	85.33
276.012	44.37
276.228	87.38
276.444	-15.02
276.659	46.42
276.875	19.8
277.09	68.95
277.306	71
277.521	140.63
277.737	99.67
277.952	56.66
278.168	-4.78
278.383	83.28
278.599	40.28
278.814	60.76
279.03	-47.79
279.245	103.76
279.461	-31.4
279.676	30.04
279.892	11.61
280.107	107.86
280.322	79.19
280.538	-4.78
280.753	21.84
280.969	148.82
281.184	46.42
281.399	126.29
281.615	-15.02
281.83	120.15
282.045	30.04
282.26	9.56
282.476	-12.97
282.691	38.23
282.906	-12.97
283.122	75.09
283.337	-0.68
283.552	99.67
283.767	25.94
283.983	42.32
284.198	36.18
284.413	66.9
284.628	-12.97
284.843	-4.78
285.058	52.56
285.274	-49.83
285.489	-6.83
285.704	62.8
285.919	-6.83
286.134	54.61
286.349	-6.83
286.564	13.65
286.779	30.04
286.995	5.46
287.21	77.14
287.425	11.61
287.64	27.99
287.855	3.41
288.07	-58.03
288.285	34.13
288.5	13.65
288.715	27.99
288.93	34.13
289.145	73.04
289.36	99.67
289.575	-23.21
289.79	126.29
290.004	77.14
290.219	9.56
290.434	11.61
290.649	19.8
290.864	81.24
291.079	-31.4
291.294	19.8
291.509	77.14
291.724	-53.93
291.938	60.76
292.153	17.75
292.368	56.66
292.583	21.84
292.798	136.53
293.012	34.13
293.227	-37.55
293.442	68.95
293.657	75.09
293.871	87.38
294.086	48.47
294.301	66.9
294.516	79.19
294.73	54.61
294.945	-4.78
295.16	-33.45
295.374	101.72
295.589	83.28
295.804	42.32
296.018	83.28
296.233	58.71
296.447	79.19
296.662	17.75
296.877	81.24
297.091	-12.97
297.306	32.08
297.52	40.28
297.735	93.52
297.949	79.19
298.164	148.82
298.378	1.37
298.593	21.84
298.807	-6.83
299.022	52.56
299.236	77.14
299.451	93.52
299.665	60.76
299.88	-12.97
300.094	87.38
300.309	19.8
300.523	50.52
300.737	66.9
300.952	-15.02
301.166	58.71
301.381	-43.69
301.595	-6.83
301.809	25.94
302.024	1.37
302.238	-23.21
302.452	66.9
302.667	42.32
302.881	150.87
303.095	52.56
303.309	56.66
303.524	34.13
303.738	38.23
303.952	52.56
304.166	107.86
304.381	-8.87
304.595	27.99
304.809	46.42
305.023	44.37
305.237	-2.73
305.452	34.13
305.666	32.08
305.88	75.09
306.094	91.48
306.308	-15.02
306.522	50.52
306.736	62.8
306.95	120.15
307.164	7.51
307.379	36.18
307.593	19.8
307.807	3.41
308.021	13.65
308.235	52.56
308.449	9.56
308.663	13.65
308.877	140.63
309.091	5.46
309.305	60.76
309.519	-31.4
309.733	79.19
309.947	60.76
310.161	85.33
310.374	44.37
310.588	44.37
310.802	50.52
311.016	83.28
311.23	87.38
311.444	7.51
311.658	-6.83
311.872	83.28
312.085	32.08
312.299	97.62
312.513	25.94
312.727	38.23
312.941	34.13
313.154	11.61
313.368	27.99
313.582	-17.07
313.796	42.32
314.009	71
314.223	75.09
314.437	13.65
314.651	44.37
314.864	122.2
315.078	73.04
315.292	9.56
315.505	13.65
315.719	17.75
315.933	75.09
316.146	91.48
316.36	-25.26
316.573	50.52
316.787	21.84
317.001	44.37
317.214	32.08
317.428	3.41
317.641	5.46
317.855	42.32
318.068	15.7
318.282	46.42
318.495	38.23
318.709	42.32
318.922	13.65
319.136	97.62
319.349	48.47
319.563	30.04
319.776	66.9
319.99	50.52
320.203	107.86
320.417	25.94
320.63	93.52
320.843	32.08
321.057	71
321.27	34.13
321.483	81.24
321.697	128.34
321.91	-37.55
322.124	116.05
322.337	60.76
322.55	91.48
322.763	54.61
322.977	42.32
323.19	15.7
323.403	9.56
323.617	95.57
323.83	34.13
324.043	56.66
324.256	46.42
324.469	-35.5
324.683	103.76
324.896	71
325.109	50.52
325.322	-4.78
325.535	52.56
325.748	83.28
325.962	-23.21
326.175	101.72
326.388	27.99
326.601	27.99
326.814	-4.78
327.027	66.9
327.24	120.15
327.453	-64.17
327.666	71
327.879	87.38
328.092	50.52
328.305	56.66
328.518	-23.21
328.731	-0.68
328.944	44.37
329.157	91.48
329.37	46.42
329.583	85.33
329.796	58.71
330.009	-31.4
330.222	103.76
330.435	79.19
330.648	87.38
330.861	46.42
331.073	25.94
331.286	-12.97
331.499	52.56
331.712	75.09
331.925	68.95
332.138	1.37
332.35	40.28
332.563	42.32
332.776	109.91
332.989	17.75
333.202	75.09
333.414	132.44
333.627	42.32
333.84	87.38
334.053	11.61
334.265	105.81
334.478	-8.87
334.691	-4.78
334.903	46.42
335.116	-31.4
335.329	95.57
335.541	91.48
335.754	85.33
335.966	95.57
336.179	19.8
336.392	85.33
336.604	34.13
336.817	3.41
337.029	52.56
337.242	44.37
337.454	107.86
337.667	23.89
337.88	97.62
338.092	58.71
338.305	46.42
338.517	-4.78
338.729	40.28
338.942	60.76
339.154	52.56
339.367	-23.21
339.579	75.09
339.792	68.95
340.004	38.23
340.217	27.99
340.429	-2.73
340.641	1.37
340.854	13.65
341.066	-62.12
341.278	99.67
341.491	62.8
341.703	25.94
341.915	34.13
342.128	99.67
342.34	15.7
342.552	83.28
342.764	58.71
342.977	-6.83
343.189	77.14
343.401	9.56
343.613	1.37
343.826	23.89
344.038	-12.97
344.25	85.33
344.462	21.84
344.674	83.28
344.886	-23.21
345.099	99.67
345.311	66.9
345.523	11.61
345.735	-10.92
345.947	-2.73
346.159	75.09
346.371	-39.59
346.583	-37.55
346.795	152.91
347.007	140.63
347.219	38.23
347.431	34.13
347.643	64.85
347.855	60.76
348.067	58.71
348.279	21.84
348.491	36.18
348.703	30.04
348.915	36.18
349.127	85.33
349.339	83.28
349.551	-6.83
349.763	23.89
349.975	1.37
350.187	75.09
350.399	13.65
350.61	38.23
350.822	-39.59
351.034	93.52
351.246	42.32
351.458	52.56
351.669	85.33
351.881	58.71
352.093	66.9
352.305	95.57
352.517	50.52
352.728	118.1
352.94	1.37
353.152	75.09
353.363	40.28
353.575	1.37
353.787	99.67
353.999	56.66
354.21	103.76
354.422	-6.83
354.633	124.24
354.845	38.23
355.057	111.96
355.268	114
355.48	73.04
355.692	60.76
355.903	105.81
356.115	62.8
356.326	15.7
356.538	25.94
356.749	40.28
356.961	50.52
357.172	103.76
357.384	109.91
357.595	101.72
357.807	66.9
358.018	-19.11
358.23	56.66
358.441	79.19
358.653	126.29
358.864	9.56
359.075	19.8
359.287	19.8
359.498	68.95
359.709	75.09
359.921	91.48
360.132	17.75
360.344	83.28
360.555	34.13
360.766	62.8
360.977	120.15
361.189	85.33
361.4	-21.16
361.611	36.18
361.823	136.53
362.034	25.94
362.245	27.99
362.456	75.09
362.667	44.37
362.879	34.13
363.09	36.18
363.301	107.86
363.512	38.23
363.723	5.46
363.935	7.51
364.146	134.48
364.357	40.28
364.568	25.94
364.779	1.37
364.99	58.71
365.201	25.94
365.412	132.44
365.623	-6.83
365.834	75.09
366.045	32.08
366.256	126.29
366.467	21.84
366.678	27.99
366.889	68.95
367.1	87.38
367.311	40.28
367.522	19.8
367.733	34.13
367.944	62.8
368.155	66.9
368.366	58.71
368.577	32.08
368.788	95.57
368.999	-10.92
369.209	50.52
369.42	140.63
369.631	130.39
369.842	93.52
370.053	95.57
370.264	7.51
370.474	42.32
370.685	95.57
370.896	9.56
371.107	83.28
371.317	103.76
371.528	9.56
371.739	25.94
371.95	40.28
372.16	-23.21
372.371	36.18
372.582	17.75
372.792	-29.35
373.003	83.28
373.214	23.89
373.424	25.94
373.635	42.32
373.846	11.61
374.056	54.61
374.267	118.1
374.477	13.65
374.688	140.63
374.898	30.04
375.109	54.61
375.319	50.52
375.53	83.28
375.74	44.37
375.951	91.48
376.161	54.61
376.372	120.15
376.582	64.85
376.793	-4.78
377.003	54.61
377.214	83.28
377.424	83.28
377.635	66.9
377.845	54.61
378.055	11.61
378.266	40.28
378.476	60.76
378.686	52.56
378.897	75.09
379.107	25.94
379.317	122.2
379.528	85.33
379.738	17.75
379.948	85.33
380.158	19.8
380.369	93.52
380.579	71
380.789	52.56
380.999	25.94
381.21	54.61
381.42	118.1
381.63	42.32
381.84	58.71
382.05	46.42
382.261	54.61
382.471	116.05
382.681	32.08
382.891	124.24
383.101	3.41
383.311	-39.59
383.521	64.85
383.731	15.7
383.941	36.18
384.151	66.9
384.361	50.52
384.571	-12.97
384.781	58.71
384.991	66.9
385.201	93.52
385.411	138.58
385.621	120.15
385.831	111.96
386.041	64.85
386.251	120.15
386.461	97.62
386.671	111.96
386.881	83.28
387.091	89.43
387.301	42.32
387.511	66.9
387.72	75.09
387.93	85.33
388.14	-10.92
388.35	23.89
388.56	91.48
388.769	91.48
388.979	99.67
389.189	27.99
389.399	44.37
389.609	148.82
389.818	34.13
390.028	89.43
390.238	44.37
390.447	68.95
390.657	111.96
390.867	30.04
391.076	87.38
391.286	40.28
391.496	21.84
391.705	71
391.915	140.63
392.125	52.56
392.334	-12.97
392.544	15.7
392.753	30.04
392.963	58.71
393.172	42.32
393.382	81.24
393.591	128.34
393.801	89.43
394.01	148.82
394.22	77.14
394.429	95.57
394.639	30.04
394.848	79.19
395.058	93.52
395.267	11.61
395.477	144.72
395.686	66.9
395.895	99.67
396.105	134.48
396.314	66.9
396.524	54.61
396.733	30.04
396.942	134.48
397.152	77.14
397.361	140.63
397.57	101.72
397.78	83.28
397.989	148.82
398.198	232.79
398.407	64.85
398.617	148.82
398.826	99.67
399.035	101.72
399.244	111.96
399.453	81.24
399.663	144.72
399.872	161.11
400.081	66.9
400.29	210.26
400.499	62.8
400.708	150.87
400.917	101.72
401.127	11.61
401.336	95.57
401.545	177.49
401.754	103.76
401.963	161.11
402.172	81.24
402.381	109.91
402.59	185.68
402.799	81.24
403.008	128.34
403.217	46.42
403.426	116.05
403.635	183.63
403.844	111.96
404.053	120.15
404.262	103.76
404.471	208.21
404.68	54.61
404.888	132.44
405.097	89.43
405.306	144.72
405.515	218.45
405.724	226.64
405.933	181.59
406.142	118.1
406.35	214.35
406.559	124.24
406.768	120.15
406.977	230.74
407.185	165.2
407.394	118.1
407.603	142.68
407.812	206.16
408.02	224.59
408.229	175.44
408.438	214.35
408.646	150.87
408.855	257.36
409.064	236.88
409.272	206.16
409.481	255.31
409.69	232.79
409.898	193.87
410.107	249.17
410.315	306.51
410.524	281.94
410.733	329.04
410.941	218.45
411.15	263.51
411.358	378.19
411.567	423.25
411.775	308.56
411.984	349.52
412.192	396.62
412.401	337.23
412.609	390.48
412.818	429.39
413.026	396.62
413.234	451.92
413.443	435.53
413.651	427.34
413.86	509.26
414.068	453.97
414.276	509.26
414.485	462.16
414.693	591.18
414.901	656.72
415.11	533.84
415.318	587.08
415.526	611.66
415.734	542.03
415.943	621.9
416.151	640.33
416.359	687.43
416.567	740.68
416.776	701.77
416.984	787.79
417.192	791.88
417.4	855.37
417.608	800.07
417.817	787.79
418.025	863.56
418.233	978.25
418.441	961.86
418.649	927.05
418.857	972.1
419.065	1070.4
419.273	910.66
419.481	1129.8
419.689	1019.21
419.897	1168.71
420.105	1185.09
420.313	1183.04
420.521	1305.92
420.729	1344.83
420.937	1299.78
421.145	1373.5
421.353	1463.61
421.561	1498.43
421.769	1566.01
421.977	1633.6
422.185	1664.32
422.393	1688.89
422.601	1967.42
422.809	1885.5
423.017	1729.85
423.224	1903.93
423.432	1977.66
423.64	2110.77
423.848	2217.27
424.056	2198.84
424.263	2319.67
424.471	2405.68
424.679	2350.39
424.887	2344.24
425.094	2499.89
425.302	2534.7
425.51	2700.59
425.718	2669.87
425.925	2673.96
426.133	2925.86
426.341	3056.93
426.548	3194.15
426.756	3138.85
426.964	3208.48
427.171	3364.13
427.379	3542.3
427.586	3589.41
427.794	3771.68
428.001	3763.48
428.209	3949.85
428.417	3896.6
428.624	4138.26
428.832	4248.85
429.039	4121.88
429.247	3972.38
429.454	4551.95
429.662	4932.87
429.869	4375.83
430.076	4822.28
430.284	4703.5
430.491	4936.97
430.699	5178.63
430.906	5260.55
431.114	5270.79
431.321	5489.92
431.528	5623.04
431.736	5852.41
431.943	6128.89
432.15	5985.53
432.358	6018.3
432.565	6409.46
432.772	6335.73
432.979	6610.16
433.187	6798.57
433.394	6724.85
433.601	7349.48
433.808	7410.92
434.016	7253.22
434.223	7527.65
434.43	7957.72
434.637	7851.23
434.844	8385.75
435.052	8430.8
435.259	8447.19
435.466	8549.59
435.673	8303.83
435.88	8948.94
436.087	9559.24
436.294	9426.12
436.501	9262.28
436.708	9583.81
436.915	9770.18
437.122	10142.91
437.329	10128.57
437.537	10409.14
437.743	10710.19
437.95	10560.69
438.157	11027.63
438.364	11562.15
438.571	11453.61
438.778	11531.43
438.985	12598.42
439.192	12029.09
439.399	12491.93
439.606	12364.95
439.813	12891.28
440.02	13468.81
440.227	13505.67
440.433	13393.03
440.64	13769.86
440.847	13522.06
441.054	14066.81
441.261	15254.64
441.467	14550.14
441.674	15015.02
441.881	15570.02
442.088	15348.84
442.294	15385.71
442.501	15848.55
442.708	15987.81
442.914	17095.76
443.121	17362
443.328	17228.88
443.534	18033.73
443.741	17794.12
443.948	17312.85
444.154	18555.96
444.361	18687.03
444.568	18566.2
444.774	18820.15
444.981	18619.45
445.187	19436.59
445.394	20323.36
445.6	20243.49
445.807	21955.59
446.013	20966.42
446.22	21500.94
446.426	22092.8
446.633	22731.77
446.839	23497.71
447.046	22123.52
447.252	23460.85
447.459	23524.33
447.665	23282.67
447.871	24566.75
448.078	25254.87
448.284	24114.15
448.491	25134.04
448.697	25723.85
448.903	26057.67
449.11	26643.39
449.316	25940.94
449.522	26594.24
449.728	27653.04
449.935	27765.68
450.141	27485.11
450.347	28304.29
450.553	27300.79
450.76	27984.81
450.966	28500.9
451.172	28443.56
451.378	29053.85
451.584	28615.58
451.791	29057.95
451.997	28720.03
452.203	29279.13
452.409	29715.34
452.615	29629.33
452.821	28160.94
453.027	28033.96
453.233	29254.55
453.44	28451.75
453.646	28924.83
453.852	28681.12
454.058	29760.4
454.264	28513.19
454.47	29293.46
454.676	28138.41
454.882	29236.12
455.088	26631.1
455.294	27329.46
455.5	27571.12
455.705	27976.62
455.911	26821.56
456.117	26467.27
456.323	26162.12
456.529	24689.63
456.735	26198.98
456.941	25357.27
457.147	25002.97
457.352	24038.37
457.558	23827.43
457.764	23946.22
457.97	23636.97
458.176	23053.3
458.381	22842.36
458.587	21779.47
458.793	21949.45
458.999	20681.75
459.204	22119.43
459.41	21572.62
459.616	20300.83
459.821	20317.22
460.027	20163.62
460.233	19837.99
460.438	19037.23
460.644	19194.93
460.85	18109.51
461.055	17986.63
461.261	17876.04
461.466	16686.17
461.672	16120.93
461.878	17026.13
462.083	15895.65
462.289	15711.33
462.494	15668.33
462.7	14861.43
462.905	14335.1
463.111	14988.4
463.316	14840.95
463.522	14806.13
463.727	14767.22
463.932	14802.04
464.138	14482.55
464.343	14978.16
464.549	14310.52
464.754	14550.14
464.959	14500.98
465.165	14589.05
465.37	13712.52
465.575	13298.83
465.781	14185.6
465.986	14140.54
466.191	13735.04
466.397	13509.77
466.602	12756.11
466.807	13225.1
467.012	12850.32
467.218	13186.19
467.423	12676.24
467.628	13112.46
467.833	13642.89
