Data from USB4F104151__10__14-42-34-429.txt Node

Date: Thu Mar 13 14:42:34 EDT 2025
User: louis
Spectrometer: USB4F10415
Trigger mode: 4
Integration Time (sec): 2.000000E-2
Scans to average: 1
Electric dark correction enabled: true
Nonlinearity correction enabled: false
Boxcar width: 0
XAxis mode: Wavelengths
Number of Pixels in Spectrum: 3648
>>>>>Begin Spectral Data<<<<<
178.204	-162.64
178.424	-162.64
178.644	-162.64
178.864	-88.92
179.084	-121.68
179.304	-27.48
179.524	15.53
179.744	19.63
179.964	70.83
180.184	9.39
180.404	-19.29
180.624	-11.09
180.844	-27.48
181.064	-39.76
181.283	-33.62
181.503	42.15
181.723	1.19
181.943	-31.57
182.163	36.01
182.383	-17.24
182.602	-19.29
182.822	31.91
183.042	31.91
183.262	-52.05
183.482	25.77
183.701	-54.1
183.921	-21.33
184.141	-76.63
184.361	31.91
184.58	42.15
184.8	-35.67
185.02	-39.76
185.239	58.54
185.459	-2.9
185.679	54.44
185.898	-11.09
186.118	15.53
186.338	9.39
186.557	46.25
186.777	50.35
186.997	13.48
187.216	-0.85
187.436	-2.9
187.655	-7
187.875	48.3
188.095	-27.48
188.314	-15.19
188.534	89.26
188.753	-31.57
188.973	21.67
189.192	-19.29
189.412	-11.09
189.631	5.29
189.851	25.77
190.07	-27.48
190.29	-0.85
190.509	-68.44
190.729	25.77
190.948	50.35
191.168	83.11
191.387	89.26
191.607	25.77
191.826	40.11
192.045	5.29
192.265	54.44
192.484	-66.39
192.704	15.53
192.923	-41.81
193.142	19.63
193.362	62.63
193.581	25.77
193.8	-2.9
194.02	17.58
194.239	46.25
194.458	-25.43
194.678	-35.67
194.897	5.29
195.116	56.49
195.335	-58.2
195.555	-31.57
195.774	-60.24
195.993	58.54
196.212	46.25
196.432	-39.76
196.651	-27.48
196.87	29.87
197.089	7.34
197.308	64.68
197.528	5.29
197.747	-41.81
197.966	44.2
198.185	33.96
198.404	23.72
198.623	-35.67
198.842	5.29
199.062	27.82
199.281	42.15
199.5	-11.09
199.719	-2.9
199.938	29.87
200.157	36.01
200.376	5.29
200.595	5.29
200.814	-11.09
201.033	15.53
201.252	36.01
201.471	-47.96
201.69	89.26
201.909	-13.14
202.128	38.06
202.347	-27.48
202.566	-43.86
202.785	-35.67
203.004	-82.77
203.223	58.54
203.442	5.29
203.661	-19.29
203.879	-9.05
204.098	25.77
204.317	11.43
204.536	36.01
204.755	54.44
204.974	3.24
205.193	36.01
205.411	40.11
205.63	38.06
205.849	23.72
206.068	1.19
206.287	-47.96
206.505	64.68
206.724	-52.05
206.943	-15.19
207.162	19.63
207.381	-43.86
207.599	23.72
207.818	36.01
208.037	-35.67
208.255	-15.19
208.474	54.44
208.693	-9.05
208.911	29.87
209.13	-7
209.349	-31.57
209.567	87.21
209.786	103.59
210.005	52.39
210.223	62.63
210.442	-23.38
210.661	58.54
210.879	23.72
211.098	36.01
211.316	33.96
211.535	70.83
211.753	46.25
211.972	7.34
212.191	74.92
212.409	-31.57
212.628	-25.43
212.846	-90.96
213.065	87.21
213.283	95.4
213.502	-2.9
213.72	-43.86
213.938	-0.85
214.157	-9.05
214.375	-2.9
214.594	-35.67
214.812	25.77
215.031	50.35
215.249	25.77
215.467	13.48
215.686	-15.19
215.904	3.24
216.122	-56.15
216.341	38.06
216.559	-0.85
216.778	36.01
216.996	-0.85
217.214	-66.39
217.432	-19.29
217.651	-13.14
217.869	7.34
218.087	-11.09
218.306	-58.2
218.524	-84.82
218.742	-41.81
218.96	13.48
219.179	13.48
219.397	-0.85
219.615	40.11
219.833	36.01
220.051	-17.24
220.27	5.29
220.488	23.72
220.706	95.4
220.924	-25.43
221.142	83.11
221.36	-2.9
221.578	29.87
221.796	-64.34
222.015	-37.72
222.233	15.53
222.451	1.19
222.669	-21.33
222.887	87.21
223.105	-35.67
223.323	21.67
223.541	-52.05
223.759	1.19
223.977	-23.38
224.195	29.87
224.413	15.53
224.631	-0.85
224.849	-2.9
225.067	128.17
225.285	-7
225.503	-29.52
225.721	5.29
225.939	40.11
226.157	-11.09
226.375	40.11
226.592	-35.67
226.81	-84.82
227.028	36.01
227.246	46.25
227.464	21.67
227.682	-2.9
227.9	-17.24
228.117	17.58
228.335	-17.24
228.553	-58.2
228.771	-31.57
228.989	70.83
229.206	-2.9
229.424	-11.09
229.642	-15.19
229.86	-2.9
230.077	48.3
230.295	21.67
230.513	-7
230.731	-45.91
230.948	128.17
231.166	31.91
231.384	-27.48
231.601	46.25
231.819	58.54
232.037	-11.09
232.254	-17.24
232.472	-47.96
232.689	-2.9
232.907	-31.57
233.125	-25.43
233.342	-7
233.56	-31.57
233.777	9.39
233.995	-56.15
234.213	29.87
234.43	46.25
234.648	-0.85
234.865	-50
235.083	46.25
235.3	1.19
235.518	36.01
235.735	40.11
235.953	46.25
236.17	-9.05
236.388	23.72
236.605	-27.48
236.822	31.91
237.04	-33.62
237.257	-52.05
237.475	-35.67
237.692	62.63
237.909	-7
238.127	13.48
238.344	23.72
238.562	54.44
238.779	-17.24
238.996	13.48
239.214	-11.09
239.431	-2.9
239.648	-7
239.865	-25.43
240.083	23.72
240.3	-19.29
240.517	-27.48
240.735	25.77
240.952	74.92
241.169	1.19
241.386	-23.38
241.603	62.63
241.821	-15.19
242.038	25.77
242.255	-4.95
242.472	48.3
242.689	-50
242.907	-9.05
243.124	21.67
243.341	-35.67
243.558	-33.62
243.775	66.73
243.992	7.34
244.209	-31.57
244.426	60.59
244.643	1.19
244.86	-23.38
245.078	-66.39
245.295	-7
245.512	58.54
245.729	-2.9
245.946	48.3
246.163	64.68
246.38	58.54
246.597	-39.76
246.814	25.77
247.031	-2.9
247.248	21.67
247.464	-15.19
247.681	62.63
247.898	-2.9
248.115	46.25
248.332	-52.05
248.549	5.29
248.766	15.53
248.983	9.39
249.2	-9.05
249.417	33.96
249.633	9.39
249.85	29.87
250.067	-9.05
250.284	25.77
250.501	9.39
250.717	1.19
250.934	-9.05
251.151	31.91
251.368	9.39
251.585	44.2
251.801	-9.05
252.018	-60.24
252.235	50.35
252.451	23.72
252.668	-17.24
252.885	-11.09
253.102	54.44
253.318	46.25
253.535	-64.34
253.752	-23.38
253.968	-52.05
254.185	5.29
254.401	5.29
254.618	46.25
254.835	-52.05
255.051	72.87
255.268	33.96
255.484	31.91
255.701	15.53
255.917	-66.39
256.134	3.24
256.351	87.21
256.567	-103.25
256.784	-43.86
257	29.87
257.217	13.48
257.433	11.43
257.65	-35.67
257.866	109.74
258.082	11.43
258.299	-43.86
258.515	36.01
258.732	-25.43
258.948	79.02
259.165	38.06
259.381	-19.29
259.597	64.68
259.814	-39.76
260.03	21.67
260.246	21.67
260.463	15.53
260.679	19.63
260.895	-43.86
261.112	27.82
261.328	-9.05
261.544	99.5
261.761	23.72
261.977	-7
262.193	-33.62
262.409	89.26
262.626	-27.48
262.842	29.87
263.058	-15.19
263.274	46.25
263.49	29.87
263.707	44.2
263.923	38.06
264.139	-0.85
264.355	-54.1
264.571	87.21
264.787	40.11
265.004	38.06
265.22	15.53
265.436	-17.24
265.652	-7
265.868	-7
266.084	66.73
266.3	21.67
266.516	-7
266.732	40.11
266.948	38.06
267.164	46.25
267.38	-7
267.596	5.29
267.812	-11.09
268.028	15.53
268.244	-60.24
268.46	-19.29
268.676	-2.9
268.892	-2.9
269.108	25.77
269.324	-29.52
269.54	-68.44
269.756	23.72
269.972	-29.52
270.188	40.11
270.403	38.06
270.619	15.53
270.835	23.72
271.051	21.67
271.267	-74.58
271.483	70.83
271.698	70.83
271.914	40.11
272.13	79.02
272.346	5.29
272.562	31.91
272.777	46.25
272.993	-72.53
273.209	-19.29
273.425	54.44
273.64	-50
273.856	50.35
274.072	40.11
274.287	-9.05
274.503	3.24
274.719	64.68
274.934	-115.54
275.15	-31.57
275.366	23.72
275.581	-43.86
275.797	-17.24
276.012	-11.09
276.228	21.67
276.444	9.39
276.659	21.67
276.875	-43.86
277.09	-2.9
277.306	-19.29
277.521	15.53
277.737	-39.76
277.952	13.48
278.168	23.72
278.383	-19.29
278.599	13.48
278.814	23.72
279.03	29.87
279.245	95.4
279.461	15.53
279.676	46.25
279.892	-72.53
280.107	74.92
280.322	-29.52
280.538	25.77
280.753	-43.86
280.969	9.39
281.184	-43.86
281.399	-17.24
281.615	15.53
281.83	15.53
282.045	-17.24
282.26	-0.85
282.476	21.67
282.691	-19.29
282.906	31.91
283.122	-60.24
283.337	-52.05
283.552	72.87
283.767	-27.48
283.983	-23.38
284.198	-11.09
284.413	29.87
284.628	-86.87
284.843	58.54
285.058	103.59
285.274	-19.29
285.489	-35.67
285.704	40.11
285.919	-11.09
286.134	-2.9
286.349	-15.19
286.564	58.54
286.779	13.48
286.995	13.48
287.21	-64.34
287.425	-23.38
287.64	5.29
287.855	76.97
288.07	11.43
288.285	103.59
288.5	62.63
288.715	70.83
288.93	21.67
289.145	-23.38
289.36	-7
289.575	-35.67
289.79	56.49
290.004	-19.29
290.219	64.68
290.434	7.34
290.649	-17.24
290.864	11.43
291.079	-19.29
291.294	40.11
291.509	-25.43
291.724	9.39
291.938	11.43
292.153	-21.33
292.368	23.72
292.583	5.29
292.798	-25.43
293.012	54.44
293.227	38.06
293.442	1.19
293.657	38.06
293.871	13.48
294.086	33.96
294.301	87.21
294.516	31.91
294.73	5.29
294.945	-41.81
295.16	103.59
295.374	-15.19
295.589	7.34
295.804	-39.76
296.018	21.67
296.233	44.2
296.447	46.25
296.662	-19.29
296.877	29.87
297.091	66.73
297.306	42.15
297.52	11.43
297.735	33.96
297.949	-21.33
298.164	15.53
298.378	144.55
298.593	-19.29
298.807	38.06
299.022	46.25
299.236	-17.24
299.451	9.39
299.665	21.67
299.88	1.19
300.094	31.91
300.309	1.19
300.523	-29.52
300.737	29.87
300.952	13.48
301.166	-27.48
301.381	23.72
301.595	52.39
301.809	66.73
302.024	-33.62
302.238	-43.86
302.452	-0.85
302.667	19.63
302.881	13.48
303.095	33.96
303.309	38.06
303.524	-101.2
303.738	54.44
303.952	5.29
304.166	44.2
304.381	31.91
304.595	15.53
304.809	-17.24
305.023	23.72
305.237	-11.09
305.452	134.31
305.666	21.67
305.88	9.39
306.094	-19.29
306.308	9.39
306.522	38.06
306.736	13.48
306.95	-2.9
307.164	40.11
307.379	9.39
307.593	56.49
307.807	-0.85
308.021	21.67
308.235	54.44
308.449	15.53
308.663	-11.09
308.877	31.91
309.091	-2.9
309.305	27.82
309.519	1.19
309.733	-17.24
309.947	-52.05
310.161	64.68
310.374	-31.57
310.588	87.21
310.802	46.25
311.016	60.59
311.23	21.67
311.444	-27.48
311.658	13.48
311.872	68.78
312.085	21.67
312.299	25.77
312.513	87.21
312.727	-25.43
312.941	-17.24
313.154	13.48
313.368	-66.39
313.582	-27.48
313.796	-39.76
314.009	-7
314.223	46.25
314.437	-11.09
314.651	33.96
314.864	23.72
315.078	-4.95
315.292	-27.48
315.505	-9.05
315.719	56.49
315.933	40.11
316.146	-17.24
316.36	5.29
316.573	5.29
316.787	9.39
317.001	-9.05
317.214	-41.81
317.428	21.67
317.641	-33.62
317.855	54.44
318.068	-9.05
318.282	56.49
318.495	68.78
318.709	38.06
318.922	13.48
319.136	62.63
319.349	48.3
319.563	13.48
319.776	-21.33
319.99	-27.48
320.203	89.26
320.417	48.3
320.63	58.54
320.843	-0.85
321.057	29.87
321.27	97.45
321.483	-23.38
321.697	-11.09
321.91	9.39
322.124	-19.29
322.337	66.73
322.55	-54.1
322.763	-43.86
322.977	5.29
323.19	-15.19
323.403	56.49
323.617	89.26
323.83	52.39
324.043	-11.09
324.256	29.87
324.469	-84.82
324.683	-25.43
324.896	-29.52
325.109	-11.09
325.322	-23.38
325.535	42.15
325.748	9.39
325.962	-31.57
326.175	29.87
326.388	-35.67
326.601	27.82
326.814	-9.05
327.027	-43.86
327.24	13.48
327.453	-52.05
327.666	7.34
327.879	13.48
328.092	38.06
328.305	62.63
328.518	1.19
328.731	21.67
328.944	-7
329.157	29.87
329.37	70.83
329.583	56.49
329.796	-2.9
330.009	-2.9
330.222	-2.9
330.435	40.11
330.648	64.68
330.861	-37.72
331.073	-13.14
331.286	-0.85
331.499	-0.85
331.712	-19.29
331.925	33.96
332.138	13.48
332.35	5.29
332.563	-33.62
332.776	33.96
332.989	-35.67
333.202	15.53
333.414	11.43
333.627	15.53
333.84	21.67
334.053	-7
334.265	5.29
334.478	29.87
334.691	50.35
334.903	-39.76
335.116	-35.67
335.329	7.34
335.541	9.39
335.754	36.01
335.966	-0.85
336.179	64.68
336.392	-31.57
336.604	-0.85
336.817	11.43
337.029	21.67
337.242	40.11
337.454	40.11
337.667	1.19
337.88	5.29
338.092	31.91
338.305	21.67
338.517	13.48
338.729	40.11
338.942	97.45
339.154	-17.24
339.367	25.77
339.579	-4.95
339.792	21.67
340.004	21.67
340.217	-43.86
340.429	5.29
340.641	-0.85
340.854	-64.34
341.066	-9.05
341.278	-52.05
341.491	70.83
341.703	-50
341.915	-84.82
342.128	54.44
342.34	-33.62
342.552	-25.43
342.764	9.39
342.977	17.58
343.189	-0.85
343.401	21.67
343.613	11.43
343.826	-50
344.038	-54.1
344.25	9.39
344.462	-4.95
344.674	79.02
344.886	11.43
345.099	-23.38
345.311	83.11
345.523	-17.24
345.735	-43.86
345.947	-33.62
346.159	-11.09
346.371	58.54
346.583	50.35
346.795	64.68
347.007	5.29
347.219	-27.48
347.431	-33.62
347.643	-19.29
347.855	3.24
348.067	62.63
348.279	-60.24
348.491	-25.43
348.703	54.44
348.915	-43.86
349.127	-4.95
349.339	66.73
349.551	-33.62
349.763	19.63
349.975	76.97
350.187	79.02
350.399	81.07
350.61	54.44
350.822	-29.52
351.034	89.26
351.246	15.53
351.458	15.53
351.669	50.35
351.881	38.06
352.093	13.48
352.305	97.45
352.517	81.07
352.728	54.44
352.94	-11.09
353.152	40.11
353.363	-64.34
353.575	91.31
353.787	58.54
353.999	-27.48
354.21	122.02
354.422	23.72
354.633	-45.91
354.845	-11.09
355.057	25.77
355.268	33.96
355.48	-9.05
355.692	42.15
355.903	1.19
356.115	40.11
356.326	17.58
356.538	72.87
356.749	50.35
356.961	13.48
357.172	-41.81
357.384	-35.67
357.595	156.84
357.807	29.87
358.018	-25.43
358.23	54.44
358.441	87.21
358.653	-25.43
358.864	-27.48
359.075	-64.34
359.287	81.07
359.498	93.35
359.709	-43.86
359.921	-29.52
360.132	70.83
360.344	-2.9
360.555	29.87
360.766	60.59
360.977	-39.76
361.189	31.91
361.4	-15.19
361.611	7.34
361.823	103.59
362.034	-19.29
362.245	-15.19
362.456	17.58
362.667	-86.87
362.879	23.72
363.09	42.15
363.301	29.87
363.512	-0.85
363.723	13.48
363.935	-7
364.146	38.06
364.357	54.44
364.568	70.83
364.779	21.67
364.99	40.11
365.201	70.83
365.412	-17.24
365.623	46.25
365.834	-9.05
366.045	-0.85
366.256	46.25
366.467	-0.85
366.678	72.87
366.889	-11.09
367.1	38.06
367.311	-13.14
367.522	-43.86
367.733	64.68
367.944	21.67
368.155	46.25
368.366	70.83
368.577	87.21
368.788	13.48
368.999	38.06
369.209	5.29
369.42	50.35
369.631	31.91
369.842	36.01
370.053	-25.43
370.264	-27.48
370.474	-60.24
370.685	79.02
370.896	-0.85
371.107	19.63
371.317	21.67
371.528	79.02
371.739	-4.95
371.95	36.01
372.16	7.34
372.371	-7
372.582	1.19
372.792	-43.86
373.003	29.87
373.214	-11.09
373.424	36.01
373.635	-35.67
373.846	58.54
374.056	52.39
374.267	40.11
374.477	103.59
374.688	21.67
374.898	-27.48
375.109	87.21
375.319	-52.05
375.53	81.07
375.74	-39.76
375.951	7.34
376.161	113.83
376.372	15.53
376.582	-19.29
376.793	27.82
377.003	17.58
377.214	-23.38
377.424	50.35
377.635	119.98
377.845	25.77
378.055	27.82
378.266	58.54
378.476	40.11
378.686	36.01
378.897	-11.09
379.107	42.15
379.317	5.29
379.528	-66.39
379.738	-11.09
379.948	-27.48
380.158	54.44
380.369	19.63
380.579	-11.09
380.789	-56.15
380.999	48.3
381.21	15.53
381.42	15.53
381.63	68.78
381.84	-19.29
382.05	33.96
382.261	38.06
382.471	-13.14
382.681	23.72
382.891	54.44
383.101	62.63
383.311	29.87
383.521	50.35
383.731	40.11
383.941	17.58
384.151	13.48
384.361	29.87
384.571	-58.2
384.781	54.44
384.991	76.97
385.201	54.44
385.411	-2.9
385.621	23.72
385.831	-35.67
386.041	-19.29
386.251	-35.67
386.461	29.87
386.671	-33.62
386.881	-11.09
387.091	48.3
387.301	23.72
387.511	5.29
387.72	-2.9
387.93	105.64
388.14	29.87
388.35	36.01
388.56	54.44
388.769	-11.09
388.979	-11.09
389.189	-35.67
389.399	40.11
389.609	83.11
389.818	40.11
390.028	83.11
390.238	52.39
390.447	-0.85
390.657	-60.24
390.867	42.15
391.076	-17.24
391.286	9.39
391.496	42.15
391.705	31.91
391.915	-9.05
392.125	89.26
392.334	38.06
392.544	29.87
392.753	33.96
392.963	-9.05
393.172	9.39
393.382	-2.9
393.591	89.26
393.801	54.44
394.01	46.25
394.22	52.39
394.429	29.87
394.639	21.67
394.848	54.44
395.058	13.48
395.267	48.3
395.477	46.25
395.686	13.48
395.895	74.92
396.105	87.21
396.314	58.54
396.524	3.24
396.733	36.01
396.942	128.17
397.152	56.49
397.361	107.69
397.57	-13.14
397.78	-2.9
397.989	60.59
398.198	91.31
398.407	21.67
398.617	-25.43
398.826	70.83
399.035	54.44
399.244	93.35
399.453	62.63
399.663	79.02
399.872	48.3
400.081	38.06
400.29	40.11
400.499	9.39
400.708	-2.9
400.917	66.73
401.127	48.3
401.336	29.87
401.545	79.02
401.754	130.22
401.963	21.67
402.172	-15.19
402.381	117.93
402.59	31.91
402.799	-9.05
403.008	66.73
403.217	87.21
403.426	81.07
403.635	5.29
403.844	99.5
404.053	46.25
404.262	72.87
404.471	52.39
404.68	111.78
404.888	58.54
405.097	79.02
405.306	132.26
405.515	42.15
405.724	62.63
405.933	70.83
406.142	81.07
406.35	111.78
406.559	136.36
406.768	148.65
406.977	138.41
407.185	95.4
407.394	111.78
407.603	107.69
407.812	175.27
408.02	38.06
408.229	128.17
408.438	179.37
408.646	130.22
408.855	124.07
409.064	128.17
409.272	136.36
409.481	150.7
409.69	183.46
409.898	146.6
410.107	136.36
410.315	236.71
410.524	128.17
410.733	212.14
410.941	158.89
411.15	251.05
411.358	236.71
411.567	271.53
411.775	169.13
411.984	261.29
412.192	267.43
412.401	208.04
412.609	275.62
412.818	242.85
413.026	267.43
413.234	271.53
413.443	349.35
413.651	332.97
413.86	343.21
414.068	294.05
414.276	380.07
414.485	464.04
414.693	425.12
414.901	431.27
415.11	390.31
415.318	308.39
415.526	425.12
415.734	394.4
415.943	443.56
416.151	504.99
416.359	474.28
416.567	468.13
416.776	537.76
416.984	554.15
417.192	531.62
417.4	513.19
417.608	521.38
417.817	611.49
418.025	693.41
418.233	578.72
418.441	611.49
418.649	660.64
418.857	664.74
419.065	881.82
419.273	732.32
419.481	793.76
419.689	890.01
419.897	881.82
420.105	779.42
420.313	990.36
420.521	922.78
420.729	914.59
420.937	941.21
421.145	1006.75
421.353	1076.38
421.561	1176.73
421.769	1088.67
421.977	1195.16
422.185	1135.77
422.393	1275.03
422.601	1254.55
422.809	1373.33
423.017	1344.66
423.224	1545.36
423.432	1418.39
423.64	1504.4
423.848	1621.14
424.056	1606.8
424.263	1698.96
424.471	1668.24
424.679	1733.78
424.887	1848.46
425.094	1866.89
425.302	1844.37
425.51	1842.32
425.718	2055.31
425.925	1944.72
426.133	2028.68
426.341	2169.99
426.548	2157.71
426.756	2237.58
426.964	2397.32
427.171	2438.28
427.379	2520.2
427.586	2606.21
427.794	2692.23
428.001	2675.84
428.209	2765.95
428.417	2761.86
428.624	3015.8
428.832	3060.86
429.039	3021.95
429.247	3134.59
429.454	3273.85
429.662	3654.77
429.869	3226.75
430.076	3548.28
430.284	3484.79
430.491	3687.54
430.699	3687.54
430.906	3886.19
431.114	3691.63
431.321	3894.38
431.528	4062.32
431.736	4209.77
431.943	4559.97
432.15	4314.22
432.358	4330.6
432.565	4686.95
432.772	4598.88
432.979	4889.7
433.187	4824.16
433.394	4883.55
433.601	5446.74
433.808	5368.92
434.016	5477.46
434.223	5405.78
434.43	5905.49
434.637	5774.42
434.844	6124.62
435.052	6243.4
435.259	6149.2
435.466	6343.75
435.673	6128.72
435.88	6689.86
436.087	7015.49
436.294	6851.65
436.501	6855.75
436.708	6935.62
436.915	7218.24
437.122	7255.1
437.329	7363.64
437.537	7455.8
437.743	7627.83
437.95	7668.79
438.157	8090.67
438.364	8285.23
438.571	8238.12
438.778	8414.25
438.985	9393.18
439.192	8823.84
439.399	9126.94
439.606	9040.93
439.813	9337.88
440.02	9894.93
440.227	9720.85
440.433	9675.8
440.64	9843.73
440.847	9909.27
441.054	10155.02
441.261	10714.12
441.467	10830.85
441.674	11031.55
441.881	11355.13
442.088	11164.67
442.294	10902.53
442.501	11342.85
442.708	11838.45
442.914	12127.22
443.121	12667.88
443.328	12415.98
443.534	13186.02
443.741	12489.71
443.948	12532.72
444.154	13450.21
444.361	13396.96
444.568	13507.55
444.774	13431.77
444.981	13661.15
445.187	14009.3
445.394	14754.76
445.6	14492.62
445.807	15938.49
446.013	15389.63
446.22	15383.49
446.426	15854.52
446.633	16343.99
446.839	17062.82
447.046	15999.93
447.252	17060.77
447.459	16991.14
447.665	16901.03
447.871	17863.58
448.078	18424.72
448.284	17548.19
448.491	18439.06
448.697	18746.25
448.903	19276.68
449.11	19143.56
449.316	19008.39
449.522	19352.45
449.728	19839.87
449.935	19755.9
450.141	19729.28
450.347	20599.66
450.553	19962.75
450.76	19997.56
450.966	20921.2
451.172	20503.41
451.378	20970.35
451.584	20593.52
451.791	21326.69
451.997	20915.05
452.203	21394.28
452.409	21508.96
452.615	21113.7
452.821	20730.73
453.027	20550.51
453.233	21298.02
453.44	20593.52
453.646	21203.82
453.852	20804.46
454.058	21359.46
454.264	20667.25
454.47	21144.42
454.676	20616.05
454.882	21164.9
455.088	19325.83
455.294	19712.89
455.5	19893.12
455.705	20347.76
455.911	19276.68
456.117	19094.41
456.323	19100.55
456.529	17863.58
456.735	18813.84
456.941	18402.19
457.147	18002.84
457.352	17388.45
457.558	17257.38
457.764	17310.63
457.97	16794.54
458.176	16577.45
458.381	16612.27
458.587	15938.49
458.793	15745.98
458.999	14973.89
459.204	15883.19
459.41	15428.54
459.616	14613.45
459.821	14545.87
460.027	14664.65
460.233	14250.96
460.438	13587.42
460.644	13833.18
460.85	13091.81
461.055	12768.23
461.261	12786.66
461.466	11795.45
461.672	11465.72
461.878	12485.61
462.083	11600.89
462.289	11531.26
462.494	10914.82
462.7	10675.21
462.905	10343.44
463.111	10759.17
463.316	10755.08
463.522	10843.14
463.727	10703.88
463.932	10712.07
464.138	10413.07
464.343	10650.63
464.549	10236.94
464.754	10490.89
464.959	10507.27
465.165	10439.69
465.37	10044.43
465.575	9767.96
465.781	10081.3
465.986	10155.02
466.191	9880.6
466.397	9491.48
466.602	8991.78
466.807	9501.72
467.012	9608.22
467.218	9372.7
467.423	9427.99
