Data from USB4F104151__276__14-46-19-196.txt Node

Date: Thu Mar 13 14:46:19 EDT 2025
User: louis
Spectrometer: USB4F10415
Trigger mode: 4
Integration Time (sec): 2.000000E-2
Scans to average: 1
Electric dark correction enabled: true
Nonlinearity correction enabled: false
Boxcar width: 0
XAxis mode: Wavelengths
Number of Pixels in Spectrum: 3648
>>>>>Begin Spectral Data<<<<<
178.204	-65.71
178.424	-65.71
178.644	-65.71
178.864	-94.38
179.084	-139.43
179.304	48.98
179.524	-4.27
179.744	-8.36
179.964	-14.51
180.184	-37.03
180.404	-4.27
180.624	-37.03
180.844	-82.09
181.064	34.64
181.283	16.21
181.503	30.55
181.723	57.17
181.943	12.12
182.163	48.98
182.383	79.7
182.602	-39.08
182.822	36.69
183.042	69.46
183.262	-63.66
183.482	26.45
183.701	55.12
183.921	-2.22
184.141	-80.04
184.361	3.93
184.58	44.88
184.8	-26.79
185.02	12.12
185.239	110.42
185.459	48.98
185.679	44.88
185.898	-57.51
186.118	42.84
186.338	-20.65
186.557	-39.08
186.777	8.02
186.997	24.4
187.216	-0.17
187.436	-22.7
187.655	-14.51
187.875	34.64
188.095	42.84
188.314	34.64
188.534	10.07
188.753	16.21
188.973	1.88
189.192	20.31
189.412	36.69
189.631	32.6
189.851	-4.27
190.07	83.8
190.29	-0.17
190.509	36.69
190.729	53.08
190.948	-14.51
191.168	122.71
191.387	32.6
191.607	20.31
191.826	10.07
192.045	16.21
192.265	16.21
192.484	-14.51
192.704	57.17
192.923	-10.41
193.142	94.04
193.362	1.88
193.581	1.88
193.8	20.31
194.02	40.79
194.239	24.4
194.458	1.88
194.678	-16.55
194.897	32.6
195.116	40.79
195.335	-16.55
195.555	12.12
195.774	-4.27
195.993	22.36
196.212	10.07
196.432	-30.89
196.651	8.02
196.87	-16.55
197.089	98.13
197.308	20.31
197.528	53.08
197.747	28.5
197.966	32.6
198.185	40.79
198.404	32.6
198.623	20.31
198.842	48.98
199.062	38.74
199.281	75.6
199.5	28.5
199.719	-6.31
199.938	69.46
200.157	81.75
200.376	59.22
200.595	73.56
200.814	3.93
201.033	12.12
201.252	48.98
201.471	-22.7
201.69	36.69
201.909	36.69
202.128	-6.31
202.347	36.69
202.566	26.45
202.785	-0.17
203.004	24.4
203.223	48.98
203.442	-6.31
203.661	-0.17
203.879	-16.55
204.098	83.8
204.317	-0.17
204.536	81.75
204.755	28.5
204.974	16.21
205.193	18.26
205.411	98.13
205.63	-24.75
205.849	30.55
206.068	-30.89
206.287	55.12
206.505	44.88
206.724	24.4
206.943	42.84
207.162	-16.55
207.381	-49.32
207.599	34.64
207.818	-16.55
208.037	-6.31
208.255	-32.94
208.474	48.98
208.693	10.07
208.911	18.26
209.13	53.08
209.349	-14.51
209.567	-4.27
209.786	65.36
210.005	20.31
210.223	28.5
210.442	32.6
210.661	-55.47
210.879	24.4
211.098	24.4
211.316	71.51
211.535	124.76
211.753	48.98
211.972	1.88
212.191	-34.99
212.409	44.88
212.628	57.17
212.846	5.97
213.065	108.37
213.283	-24.75
213.502	24.4
213.72	59.22
213.938	48.98
214.157	16.21
214.375	-22.7
214.594	-8.36
214.812	12.12
215.031	26.45
215.249	28.5
215.467	-20.65
215.686	53.08
215.904	81.75
216.122	-80.04
216.341	106.32
216.559	83.8
216.778	8.02
216.996	26.45
217.214	20.31
217.432	-26.79
217.651	-24.75
217.869	-8.36
218.087	-98.47
218.306	36.69
218.524	85.84
218.742	10.07
218.96	-37.03
219.179	51.03
219.397	-6.31
219.615	98.13
219.833	-10.41
220.051	75.6
220.27	53.08
220.488	-14.51
220.706	-57.51
220.924	40.79
221.142	-24.75
221.36	32.6
221.578	102.23
221.796	-32.94
222.015	18.26
222.233	-49.32
222.451	114.52
222.669	55.12
222.887	10.07
223.105	-20.65
223.323	-8.36
223.541	-34.99
223.759	83.8
223.977	36.69
224.195	85.84
224.413	8.02
224.631	-0.17
224.849	18.26
225.067	26.45
225.285	-24.75
225.503	26.45
225.721	-53.42
225.939	16.21
226.157	-2.22
226.375	40.79
226.592	20.31
226.81	5.97
227.028	75.6
227.246	91.99
227.464	24.4
227.682	73.56
227.9	61.27
228.117	8.02
228.335	-28.84
228.553	24.4
228.771	57.17
228.989	-30.89
229.206	114.52
229.424	-32.94
229.642	32.6
229.86	-53.42
230.077	-18.6
230.295	61.27
230.513	65.36
230.731	-0.17
230.948	65.36
231.166	94.04
231.384	-4.27
231.601	3.93
231.819	36.69
232.037	-47.27
232.254	-24.75
232.472	-0.17
232.689	-41.13
232.907	-6.31
233.125	36.69
233.342	63.32
233.56	-4.27
233.777	-14.51
233.995	16.21
234.213	108.37
234.43	3.93
234.648	-41.13
234.865	10.07
235.083	-14.51
235.3	16.21
235.518	73.56
235.735	1.88
235.953	-22.7
236.17	-37.03
236.388	-37.03
236.605	-16.55
236.822	46.93
237.04	59.22
237.257	59.22
237.475	-12.46
237.692	-30.89
237.909	75.6
238.127	-14.51
238.344	-53.42
238.562	-6.31
238.779	-106.67
238.996	-86.19
239.214	8.02
239.431	40.79
239.648	-24.75
239.865	-41.13
240.083	40.79
240.3	55.12
240.517	3.93
240.735	24.4
240.952	77.65
241.169	16.21
241.386	67.41
241.603	-28.84
241.821	-47.27
242.038	89.94
242.255	-8.36
242.472	-16.55
242.689	12.12
242.907	67.41
243.124	61.27
243.341	34.64
243.558	-32.94
243.775	-28.84
243.992	-34.99
244.209	24.4
244.426	40.79
244.643	73.56
244.86	57.17
245.078	106.32
245.295	24.4
245.512	28.5
245.729	63.32
245.946	-16.55
246.163	-16.55
246.38	-30.89
246.597	34.64
246.814	-12.46
247.031	12.12
247.248	-12.46
247.464	16.21
247.681	36.69
247.898	77.65
248.115	16.21
248.332	-32.94
248.549	-14.51
248.766	71.51
248.983	57.17
249.2	83.8
249.417	51.03
249.633	79.7
249.85	32.6
250.067	16.21
250.284	8.02
250.501	32.6
250.717	40.79
250.934	5.97
251.151	-47.27
251.368	36.69
251.585	-8.36
251.801	32.6
252.018	-67.75
252.235	-43.18
252.451	-49.32
252.668	-32.94
252.885	-0.17
253.102	32.6
253.318	28.5
253.535	42.84
253.752	-14.51
253.968	8.02
254.185	-30.89
254.401	10.07
254.618	57.17
254.835	-12.46
255.051	57.17
255.268	18.26
255.484	40.79
255.701	32.6
255.917	36.69
256.134	28.5
256.351	89.94
256.567	16.21
256.784	61.27
257	-8.36
257.217	40.79
257.433	-16.55
257.65	-34.99
257.866	5.97
258.082	16.21
258.299	51.03
258.515	81.75
258.732	-12.46
258.948	-4.27
259.165	22.36
259.381	32.6
259.597	26.45
259.814	-6.31
260.03	42.84
260.246	-8.36
260.463	112.47
260.679	20.31
260.895	18.26
261.112	46.93
261.328	22.36
261.544	-16.55
261.761	55.12
261.977	26.45
262.193	3.93
262.409	30.55
262.626	-0.17
262.842	20.31
263.058	-20.65
263.274	67.41
263.49	-45.23
263.707	55.12
263.923	-0.17
264.139	-6.31
264.355	10.07
264.571	42.84
264.787	32.6
265.004	34.64
265.22	20.31
265.436	-96.43
265.652	-22.7
265.868	42.84
266.084	-63.66
266.3	8.02
266.516	26.45
266.732	59.22
266.948	24.4
267.164	18.26
267.38	-2.22
267.596	-16.55
267.812	114.52
268.028	55.12
268.244	-8.36
268.46	48.98
268.676	42.84
268.892	63.32
269.108	-37.03
269.324	57.17
269.54	34.64
269.756	32.6
269.972	-30.89
270.188	22.36
270.403	53.08
270.619	40.79
270.835	81.75
271.051	34.64
271.267	48.98
271.483	-10.41
271.698	81.75
271.914	75.6
272.13	28.5
272.346	-20.65
272.562	1.88
272.777	65.36
272.993	40.79
273.209	-61.61
273.425	40.79
273.64	-61.61
273.856	-2.22
274.072	8.02
274.287	-37.03
274.503	81.75
274.719	126.8
274.934	28.5
275.15	18.26
275.366	36.69
275.581	-37.03
275.797	40.79
276.012	24.4
276.228	20.31
276.444	34.64
276.659	28.5
276.875	34.64
277.09	40.79
277.306	-6.31
277.521	-12.46
277.737	-26.79
277.952	51.03
278.168	26.45
278.383	89.94
278.599	-108.71
278.814	-8.36
279.03	-12.46
279.245	63.32
279.461	8.02
279.676	48.98
279.892	-37.03
280.107	12.12
280.322	48.98
280.538	-14.51
280.753	-0.17
280.969	22.36
281.184	-14.51
281.399	10.07
281.615	18.26
281.83	42.84
282.045	-47.27
282.26	8.02
282.476	30.55
282.691	89.94
282.906	44.88
283.122	3.93
283.337	-0.17
283.552	124.76
283.767	14.17
283.983	48.98
284.198	28.5
284.413	-24.75
284.628	1.88
284.843	-41.13
285.058	22.36
285.274	32.6
285.489	-22.7
285.704	-6.31
285.919	-24.75
286.134	28.5
286.349	-8.36
286.564	36.69
286.779	42.84
286.995	-12.46
287.21	-16.55
287.425	-24.75
287.64	-75.95
287.855	24.4
288.07	-32.94
288.285	40.79
288.5	42.84
288.715	28.5
288.93	8.02
289.145	3.93
289.36	-24.75
289.575	57.17
289.79	18.26
290.004	48.98
290.219	-16.55
290.434	12.12
290.649	-10.41
290.864	16.21
291.079	36.69
291.294	8.02
291.509	42.84
291.724	42.84
291.938	-0.17
292.153	42.84
292.368	-16.55
292.583	48.98
292.798	65.36
293.012	-24.75
293.227	40.79
293.442	8.02
293.657	16.21
293.871	79.7
294.086	-39.08
294.301	81.75
294.516	44.88
294.73	34.64
294.945	59.22
295.16	40.79
295.374	16.21
295.589	28.5
295.804	65.36
296.018	42.84
296.233	-4.27
296.447	83.8
296.662	81.75
296.877	26.45
297.091	55.12
297.306	-49.32
297.52	34.64
297.735	124.76
297.949	53.08
298.164	-16.55
298.378	20.31
298.593	-12.46
298.807	81.75
299.022	-24.75
299.236	16.21
299.451	-55.47
299.665	77.65
299.88	16.21
300.094	24.4
300.309	69.46
300.523	26.45
300.737	-0.17
300.952	57.17
301.166	71.51
301.381	34.64
301.595	-0.17
301.809	10.07
302.024	12.12
302.238	-16.55
302.452	32.6
302.667	20.31
302.881	114.52
303.095	81.75
303.309	8.02
303.524	24.4
303.738	51.03
303.952	61.27
304.166	30.55
304.381	-39.08
304.595	67.41
304.809	34.64
305.023	38.74
305.237	-82.09
305.452	-6.31
305.666	48.98
305.88	106.32
306.094	55.12
306.308	34.64
306.522	32.6
306.736	12.12
306.95	18.26
307.164	-18.6
307.379	-18.6
307.593	8.02
307.807	42.84
308.021	81.75
308.235	85.84
308.449	44.88
308.663	24.4
308.877	106.32
309.091	28.5
309.305	-0.17
309.519	-28.84
309.733	24.4
309.947	-22.7
310.161	26.45
310.374	65.36
310.588	24.4
310.802	-24.75
311.016	57.17
311.23	77.65
311.444	69.46
311.658	63.32
311.872	65.36
312.085	100.18
312.299	32.6
312.513	48.98
312.727	59.22
312.941	-22.7
313.154	-16.55
313.368	96.08
313.582	24.4
313.796	34.64
314.009	81.75
314.223	69.46
314.437	73.56
314.651	-10.41
314.864	24.4
315.078	12.12
315.292	26.45
315.505	-28.84
315.719	42.84
315.933	16.21
316.146	44.88
316.36	10.07
316.573	18.26
316.787	51.03
317.001	-6.31
317.214	61.27
317.428	57.17
317.641	61.27
317.855	-0.17
318.068	44.88
318.282	44.88
318.495	79.7
318.709	57.17
318.922	61.27
319.136	59.22
319.349	40.79
319.563	-47.27
319.776	34.64
319.99	-57.51
320.203	26.45
320.417	-16.55
320.63	48.98
320.843	24.4
321.057	40.79
321.27	-49.32
321.483	24.4
321.697	89.94
321.91	3.93
322.124	48.98
322.337	-16.55
322.55	-49.32
322.763	40.79
322.977	48.98
323.19	24.4
323.403	20.31
323.617	106.32
323.83	-4.27
324.043	-24.75
324.256	14.17
324.469	36.69
324.683	67.41
324.896	40.79
325.109	-37.03
325.322	28.5
325.535	69.46
325.748	8.02
325.962	-16.55
326.175	44.88
326.388	-0.17
326.601	-41.13
326.814	-0.17
327.027	-18.6
327.24	40.79
327.453	3.93
327.666	69.46
327.879	3.93
328.092	-24.75
328.305	42.84
328.518	-22.7
328.731	32.6
328.944	26.45
329.157	51.03
329.37	24.4
329.583	81.75
329.796	81.75
330.009	-53.42
330.222	69.46
330.435	69.46
330.648	36.69
330.861	24.4
331.073	-41.13
331.286	94.04
331.499	57.17
331.712	57.17
331.925	73.56
332.138	3.93
332.35	73.56
332.563	-4.27
332.776	42.84
332.989	59.22
333.202	-47.27
333.414	-16.55
333.627	-20.65
333.84	18.26
334.053	-20.65
334.265	-4.27
334.478	65.36
334.691	-32.94
334.903	8.02
335.116	-20.65
335.329	48.98
335.541	26.45
335.754	34.64
335.966	75.6
336.179	12.12
336.392	-20.65
336.604	-16.55
336.817	32.6
337.029	18.26
337.242	-39.08
337.454	-6.31
337.667	-32.94
337.88	108.37
338.092	-12.46
338.305	24.4
338.517	-0.17
338.729	38.74
338.942	57.17
339.154	40.79
339.367	53.08
339.579	24.4
339.792	-28.84
340.004	-8.36
340.217	28.5
340.429	-8.36
340.641	8.02
340.854	26.45
341.066	-6.31
341.278	110.42
341.491	18.26
341.703	48.98
341.915	-49.32
342.128	32.6
342.34	3.93
342.552	65.36
342.764	-8.36
342.977	30.55
343.189	91.99
343.401	57.17
343.613	10.07
343.826	12.12
344.038	-61.61
344.25	-24.75
344.462	20.31
344.674	-0.17
344.886	46.93
345.099	-4.27
345.311	8.02
345.523	26.45
345.735	-51.37
345.947	28.5
346.159	40.79
346.371	-4.27
346.583	57.17
346.795	147.28
347.007	-16.55
347.219	130.9
347.431	57.17
347.643	59.22
347.855	-6.31
348.067	106.32
348.279	34.64
348.491	-6.31
348.703	44.88
348.915	32.6
349.127	-28.84
349.339	8.02
349.551	-20.65
349.763	61.27
349.975	-20.65
350.187	32.6
350.399	44.88
350.61	89.94
350.822	42.84
351.034	36.69
351.246	-0.17
351.458	18.26
351.669	87.89
351.881	73.56
352.093	85.84
352.305	26.45
352.517	-22.7
352.728	53.08
352.94	83.8
353.152	61.27
353.363	20.31
353.575	-6.31
353.787	40.79
353.999	-4.27
354.21	100.18
354.422	8.02
354.633	53.08
354.845	-0.17
355.057	8.02
355.268	59.22
355.48	145.24
355.692	26.45
355.903	36.69
356.115	8.02
356.326	-4.27
356.538	-24.75
356.749	65.36
356.961	73.56
357.172	20.31
357.384	-10.41
357.595	69.46
357.807	65.36
358.018	79.7
358.23	44.88
358.441	102.23
358.653	89.94
358.864	-47.27
359.075	44.88
359.287	40.79
359.498	102.23
359.709	40.79
359.921	73.56
360.132	89.94
360.344	20.31
360.555	18.26
360.766	51.03
360.977	98.13
361.189	16.21
361.4	57.17
361.611	108.37
361.823	91.99
362.034	36.69
362.245	-47.27
362.456	-12.46
362.667	65.36
362.879	12.12
363.09	-34.99
363.301	28.5
363.512	40.79
363.723	32.6
363.935	61.27
364.146	57.17
364.357	18.26
364.568	18.26
364.779	-24.75
364.99	51.03
365.201	32.6
365.412	57.17
365.623	71.51
365.834	-28.84
366.045	34.64
366.256	53.08
366.467	85.84
366.678	30.55
366.889	-0.17
367.1	24.4
367.311	116.56
367.522	48.98
367.733	53.08
367.944	51.03
368.155	30.55
368.366	-14.51
368.577	42.84
368.788	12.12
368.999	51.03
369.209	85.84
369.42	73.56
369.631	110.42
369.842	48.98
370.053	38.74
370.264	-71.85
370.474	26.45
370.685	75.6
370.896	-0.17
371.107	-4.27
371.317	102.23
371.528	53.08
371.739	10.07
371.95	16.21
372.16	32.6
372.371	42.84
372.582	-37.03
372.792	48.98
373.003	81.75
373.214	3.93
373.424	94.04
373.635	34.64
373.846	73.56
374.056	16.21
374.267	40.79
374.477	48.98
374.688	44.88
374.898	44.88
375.109	32.6
375.319	32.6
375.53	163.67
375.74	106.32
375.951	106.32
376.161	100.18
376.372	1.88
376.582	48.98
376.793	14.17
377.003	16.21
377.214	3.93
377.424	-24.75
377.635	24.4
377.845	14.17
378.055	26.45
378.266	-82.09
378.476	-12.46
378.686	12.12
378.897	12.12
379.107	32.6
379.317	83.8
379.528	67.41
379.738	32.6
379.948	1.88
380.158	67.41
380.369	48.98
380.579	75.6
380.789	30.55
380.999	79.7
381.21	65.36
381.42	155.47
381.63	-82.09
381.84	40.79
382.05	-41.13
382.261	75.6
382.471	28.5
382.681	32.6
382.891	34.64
383.101	132.95
383.311	28.5
383.521	46.93
383.731	135
383.941	10.07
384.151	61.27
384.361	-88.23
384.571	42.84
384.781	73.56
384.991	61.27
385.201	65.36
385.411	81.75
385.621	48.98
385.831	77.65
386.041	32.6
386.251	75.6
386.461	91.99
386.671	32.6
386.881	26.45
387.091	8.02
387.301	36.69
387.511	69.46
387.72	55.12
387.93	8.02
388.14	3.93
388.35	8.02
388.56	42.84
388.769	8.02
388.979	-8.36
389.189	-8.36
389.399	67.41
389.609	102.23
389.818	112.47
390.028	73.56
390.238	96.08
390.447	-8.36
390.657	12.12
390.867	3.93
391.076	24.4
391.286	22.36
391.496	1.88
391.705	-24.75
391.915	106.32
392.125	24.4
392.334	98.13
392.544	81.75
392.753	61.27
392.963	8.02
393.172	51.03
393.382	-12.46
393.591	44.88
393.801	-2.22
394.01	75.6
394.22	65.36
394.429	44.88
394.639	42.84
394.848	32.6
395.058	63.32
395.267	89.94
395.477	89.94
395.686	1.88
395.895	67.41
396.105	137.04
396.314	10.07
396.524	81.75
396.733	1.88
396.942	89.94
397.152	128.85
397.361	157.52
397.57	40.79
397.78	89.94
397.989	81.75
398.198	98.13
398.407	53.08
398.617	51.03
398.826	122.71
399.035	73.56
399.244	89.94
399.453	48.98
399.663	57.17
399.872	67.41
400.081	57.17
400.29	89.94
400.499	71.51
400.708	91.99
400.917	32.6
401.127	85.84
401.336	73.56
401.545	155.47
401.754	116.56
401.963	81.75
402.172	61.27
402.381	108.37
402.59	75.6
402.799	94.04
403.008	116.56
403.217	79.7
403.426	83.8
403.635	67.41
403.844	126.8
404.053	67.41
404.262	87.89
404.471	221.01
404.68	73.56
404.888	190.29
405.097	128.85
405.306	114.52
405.515	98.13
405.724	167.76
405.933	163.67
406.142	83.8
406.35	200.53
406.559	200.53
406.768	163.67
406.977	212.82
407.185	106.32
407.394	192.34
407.603	184.15
407.812	159.57
408.02	200.53
408.229	225.11
408.438	38.74
408.646	155.47
408.855	85.84
409.064	239.44
409.272	259.92
409.481	198.48
409.69	139.09
409.898	194.39
410.107	286.54
410.315	208.72
410.524	196.43
410.733	302.93
410.941	237.39
411.15	288.59
411.358	360.27
411.567	347.98
411.775	296.78
411.984	311.12
412.192	356.18
412.401	304.98
412.609	376.66
412.818	341.84
413.026	442.19
413.234	421.71
413.443	382.8
413.651	450.38
413.86	450.38
414.068	493.39
414.276	503.63
414.485	442.19
414.693	479.05
414.901	565.07
415.11	634.7
415.318	569.16
415.526	542.54
415.734	575.31
415.943	546.64
416.151	694.09
416.359	659.28
416.567	704.33
416.776	743.24
416.984	671.56
417.192	917.32
417.4	714.57
417.608	671.56
417.817	757.58
418.025	943.94
418.233	999.24
418.441	882.5
418.649	986.95
418.857	1001.29
419.065	1003.33
419.273	997.19
419.481	1042.25
419.689	1052.49
419.897	1161.03
420.105	1089.35
420.313	1161.03
420.521	1238.85
420.729	1298.24
420.937	1279.81
421.145	1417.02
421.353	1410.88
421.561	1527.61
421.769	1486.65
421.977	1642.3
422.185	1683.26
422.393	1736.51
422.601	1867.58
422.809	1754.94
423.017	1703.74
423.224	1861.43
423.432	1902.39
423.64	2039.61
423.848	2033.46
424.056	2166.58
424.263	2336.56
424.471	2242.36
424.679	2295.6
424.887	2369.33
425.094	2430.77
425.302	2598.7
425.51	2715.44
425.718	2658.09
425.925	2629.42
426.133	2711.34
426.341	2823.98
426.548	3063.59
426.756	3010.34
426.964	2971.43
427.171	3280.68
427.379	3335.97
427.586	3471.14
427.794	3665.69
428.001	3637.02
428.209	3841.82
428.417	3796.76
428.624	4128.53
428.832	4026.14
429.039	4005.66
429.247	3964.7
429.454	4458.26
429.662	4570.9
429.869	4450.07
430.076	4579.09
430.284	4407.06
430.491	4777.74
430.699	4955.91
430.906	5025.54
431.114	5242.63
431.321	5250.82
431.528	5537.54
431.736	5758.72
431.943	6037.24
432.15	5687.04
432.358	5906.17
432.565	6137.59
432.772	6233.85
432.979	6629.1
433.187	6571.76
433.394	6604.53
433.601	7196.39
433.808	7012.07
434.016	7214.82
434.223	7450.34
434.43	7968.48
434.637	7651.04
434.844	8095.45
435.052	8287.96
435.259	8197.85
435.466	8208.09
435.673	8210.14
435.88	8791.76
436.087	9084.62
436.294	9191.11
436.501	9027.28
436.708	9068.23
436.915	9357
437.122	9864.89
437.329	9776.83
437.537	10352.31
437.743	10317.5
437.95	10184.38
438.157	10837.68
438.364	11173.55
438.571	11126.44
438.778	11386.54
438.985	12295.83
439.192	11771.55
439.399	12189.34
439.606	11523.75
439.813	12613.27
440.02	13260.43
440.227	13207.18
440.433	12697.24
440.64	13338.25
440.847	13067.92
441.054	13565.57
441.261	14612.09
441.467	14288.51
441.674	14732.92
441.881	15398.51
442.088	15228.52
442.294	14976.62
442.501	15353.45
442.708	15656.55
442.914	16383.58
443.121	17133.14
443.328	16506.46
443.534	17587.78
443.741	17331.79
443.948	17045.07
444.154	18241.09
444.361	18185.79
444.568	18304.57
444.774	18251.33
444.981	18452.03
445.187	19201.58
445.394	20114.98
445.6	19717.67
445.807	21478.93
446.013	20635.16
446.22	20960.79
446.426	21714.44
446.633	22031.88
446.839	22773.24
447.046	21646.86
447.252	23242.23
447.459	23109.11
447.665	23176.69
447.871	23776.75
448.078	25290.2
448.284	24198.63
448.491	24391.14
448.697	25423.31
448.903	26244.55
449.11	25898.44
449.316	25894.35
449.522	26666.43
449.728	26830.27
449.935	27133.37
450.141	26922.43
450.347	28011.95
450.553	26914.23
450.76	26922.43
450.966	28419.49
451.172	27801.01
451.378	28728.73
451.584	28409.25
451.791	28949.92
451.997	28947.87
452.203	29351.32
452.409	29379.99
452.615	29232.54
452.821	28212.65
453.027	27932.08
453.233	29613.46
453.44	28249.51
453.646	28253.61
453.852	28462.5
454.058	29060.51
454.264	28415.4
454.47	29146.52
454.676	28143.02
454.882	29429.14
455.088	26781.12
455.294	26967.48
455.5	27321.78
455.705	27819.44
455.911	26502.59
456.117	26420.67
456.323	26103.24
456.529	24870.36
456.735	25724.36
456.941	25034.2
457.147	24559.07
457.352	23989.74
457.558	23494.13
457.764	23954.92
457.97	23516.65
458.176	23019
458.381	22828.54
458.587	21351.95
458.793	21839.37
458.999	20739.61
459.204	22070.79
459.41	21616.14
459.616	20137.51
459.821	20276.77
460.027	20096.55
460.233	19637.8
460.438	18667.06
460.644	18878.01
460.85	17956.42
461.055	17831.49
461.261	17956.42
461.466	16836.18
461.672	15914.59
461.878	17151.57
462.083	15976.03
462.289	15799.91
462.494	15435.37
462.7	14868.08
462.905	14632.57
463.111	15038.06
463.316	15191.66
463.522	14835.31
463.727	14993.01
463.932	14651
464.138	14491.26
464.343	14747.25
464.549	14196.35
464.754	14704.24
464.959	14665.33
465.165	14632.57
465.37	14036.61
465.575	13631.11
465.781	14100.09
465.986	14253.69
466.191	13786.75
466.397	13313.67
466.602	12816.02
466.807	13135.5
467.012	13383.31
467.218	13057.68
467.423	13035.15
467.628	13098.64
