Data from USB4F104151__286__14-46-25-754.txt Node

Date: Thu Mar 13 14:46:25 EDT 2025
User: louis
Spectrometer: USB4F10415
Trigger mode: 4
Integration Time (sec): 2.000000E-2
Scans to average: 1
Electric dark correction enabled: true
Nonlinearity correction enabled: false
Boxcar width: 0
XAxis mode: Wavelengths
Number of Pixels in Spectrum: 3648
>>>>>Begin Spectral Data<<<<<
178.204	-79.7
178.424	-79.7
178.644	-79.7
178.864	-110.42
179.084	-143.19
179.304	30.89
179.524	-81.75
179.744	10.41
179.964	53.42
180.184	-3.93
180.404	24.75
180.624	-38.74
180.844	47.27
181.064	-116.56
181.283	55.47
181.503	30.89
181.723	-12.12
181.943	6.31
182.163	8.36
182.383	22.7
182.602	10.41
182.822	14.51
183.042	41.13
183.262	-42.84
183.482	63.66
183.701	-91.99
183.921	59.56
184.141	10.41
184.361	65.71
184.58	55.47
184.8	10.41
185.02	39.08
185.239	24.75
185.459	55.47
185.679	39.08
185.898	22.7
186.118	14.51
186.338	-42.84
186.557	-34.64
186.777	22.7
186.997	55.47
187.216	28.84
187.436	57.51
187.655	-1.88
187.875	100.52
188.095	18.6
188.314	14.51
188.534	22.7
188.753	-48.98
188.973	55.47
189.192	75.95
189.412	12.46
189.631	55.47
189.851	39.08
190.07	110.76
190.29	22.7
190.509	24.75
190.729	-34.64
190.948	39.08
191.168	149.67
191.387	39.08
191.607	8.36
191.826	6.31
192.045	-5.97
192.265	30.89
192.484	6.31
192.704	-38.74
192.923	10.41
193.142	131.24
193.362	82.09
193.581	-26.45
193.8	-10.07
194.02	14.51
194.239	63.66
194.458	24.75
194.678	47.27
194.897	22.7
195.116	14.51
195.335	-10.07
195.555	90.28
195.774	98.47
195.993	47.27
196.212	6.31
196.432	-18.26
196.651	22.7
196.87	-18.26
197.089	102.57
197.308	30.89
197.528	28.84
197.747	43.18
197.966	67.75
198.185	34.99
198.404	-14.17
198.623	6.31
198.842	-10.07
199.062	-14.17
199.281	73.9
199.5	16.55
199.719	22.7
199.938	51.37
200.157	18.6
200.376	69.8
200.595	55.47
200.814	22.7
201.033	14.51
201.252	6.31
201.471	-48.98
201.69	30.89
201.909	90.28
202.128	43.18
202.347	86.19
202.566	80.04
202.785	-57.17
203.004	-30.55
203.223	98.47
203.442	96.43
203.661	16.55
203.879	16.55
204.098	63.66
204.317	47.27
204.536	-26.45
204.755	88.23
204.974	71.85
205.193	75.95
205.411	98.47
205.63	67.75
205.849	-24.4
206.068	14.51
206.287	-10.07
206.505	34.99
206.724	22.7
206.943	-42.84
207.162	45.23
207.381	0.17
207.599	6.31
207.818	24.75
208.037	22.7
208.255	-1.88
208.474	-5.97
208.693	16.55
208.911	-1.88
209.13	18.6
209.349	49.32
209.567	49.32
209.786	24.75
210.005	30.89
210.223	61.61
210.442	-10.07
210.661	8.36
210.879	104.62
211.098	-1.88
211.316	18.6
211.535	14.51
211.753	39.08
211.972	51.37
212.191	-10.07
212.409	14.51
212.628	-14.17
212.846	55.47
213.065	28.84
213.283	106.67
213.502	-42.84
213.72	34.99
213.938	-18.26
214.157	-3.93
214.375	-10.07
214.594	71.85
214.812	43.18
215.031	49.32
215.249	-30.55
215.467	14.51
215.686	0.17
215.904	8.36
216.122	-18.26
216.341	51.37
216.559	-34.64
216.778	71.85
216.996	41.13
217.214	-10.07
217.432	22.7
217.651	0.17
217.869	-30.55
218.087	0.17
218.306	18.6
218.524	59.56
218.742	37.03
218.96	28.84
219.179	69.8
219.397	-59.22
219.615	47.27
219.833	65.71
220.051	-18.26
220.27	71.85
220.488	125.1
220.706	24.75
220.924	22.7
221.142	8.36
221.36	-26.45
221.578	-1.88
221.796	34.99
222.015	20.65
222.233	55.47
222.451	67.75
222.669	-65.36
222.887	24.75
223.105	26.79
223.323	-51.03
223.541	-1.88
223.759	65.71
223.977	8.36
224.195	100.52
224.413	32.94
224.631	63.66
224.849	-48.98
225.067	59.56
225.285	22.7
225.503	-30.55
225.721	-18.26
225.939	24.75
226.157	-1.88
226.375	75.95
226.592	16.55
226.81	61.61
227.028	39.08
227.246	39.08
227.464	53.42
227.682	-44.88
227.9	-8.02
228.117	14.51
228.335	18.6
228.553	16.55
228.771	80.04
228.989	41.13
229.206	6.31
229.424	2.22
229.642	2.22
229.86	8.36
230.077	30.89
230.295	37.03
230.513	49.32
230.731	88.23
230.948	-16.21
231.166	-24.4
231.384	30.89
231.601	-32.6
231.819	98.47
232.037	24.75
232.254	22.7
232.472	6.31
232.689	-53.08
232.907	47.27
233.125	24.75
233.342	22.7
233.56	-3.93
233.777	22.7
233.995	39.08
234.213	104.62
234.43	-63.32
234.648	8.36
234.865	-8.02
235.083	45.23
235.3	-100.18
235.518	55.47
235.735	106.67
235.953	63.66
236.17	59.56
236.388	34.99
236.605	108.71
236.822	-5.97
237.04	63.66
237.257	-48.98
237.475	-16.21
237.692	41.13
237.909	51.37
238.127	8.36
238.344	-14.17
238.562	22.7
238.779	-24.4
238.996	-10.07
239.214	26.79
239.431	131.24
239.648	-40.79
239.865	-1.88
240.083	22.7
240.3	26.79
240.517	8.36
240.735	-18.26
240.952	30.89
241.169	106.67
241.386	22.7
241.603	-55.12
241.821	-36.69
242.038	53.42
242.255	43.18
242.472	10.41
242.689	24.75
242.907	88.23
243.124	-5.97
243.341	-3.93
243.558	-38.74
243.775	-22.36
243.992	43.18
244.209	55.47
244.426	22.7
244.643	-10.07
244.86	-22.36
245.078	24.75
245.295	-22.36
245.512	14.51
245.729	-81.75
245.946	14.51
246.163	80.04
246.38	6.31
246.597	-5.97
246.814	100.52
247.031	-16.21
247.248	47.27
247.464	6.31
247.681	2.22
247.898	20.65
248.115	71.85
248.332	-8.02
248.549	67.75
248.766	47.27
248.983	55.47
249.2	43.18
249.417	49.32
249.633	22.7
249.85	57.51
250.067	2.22
250.284	43.18
250.501	18.6
250.717	57.51
250.934	24.75
251.151	73.9
251.368	45.23
251.585	18.6
251.801	4.27
252.018	32.94
252.235	20.65
252.451	0.17
252.668	47.27
252.885	65.71
253.102	71.85
253.318	16.55
253.535	-55.12
253.752	24.75
253.968	34.99
254.185	14.51
254.401	-3.93
254.618	18.6
254.835	22.7
255.051	63.66
255.268	63.66
255.484	71.85
255.701	-24.4
255.917	30.89
256.134	75.95
256.351	24.75
256.567	-5.97
256.784	0.17
257	12.46
257.217	100.52
257.433	47.27
257.65	30.89
257.866	63.66
258.082	30.89
258.299	63.66
258.515	-71.51
258.732	6.31
258.948	-10.07
259.165	30.89
259.381	-32.6
259.597	-14.17
259.814	53.42
260.03	6.31
260.246	10.41
260.463	22.7
260.679	47.27
260.895	-22.36
261.112	-18.26
261.328	-26.45
261.544	0.17
261.761	129.19
261.977	30.89
262.193	-57.17
262.409	41.13
262.626	43.18
262.842	73.9
263.058	-42.84
263.274	73.9
263.49	-18.26
263.707	10.41
263.923	6.31
264.139	4.27
264.355	-1.88
264.571	45.23
264.787	94.38
265.004	112.81
265.22	-10.07
265.436	-24.4
265.652	-34.64
265.868	71.85
266.084	28.84
266.3	51.37
266.516	10.41
266.732	47.27
266.948	24.75
267.164	32.94
267.38	-1.88
267.596	-20.31
267.812	53.42
268.028	51.37
268.244	-26.45
268.46	18.6
268.676	-10.07
268.892	22.7
269.108	28.84
269.324	14.51
269.54	30.89
269.756	16.55
269.972	-12.12
270.188	0.17
270.403	18.6
270.619	12.46
270.835	49.32
271.051	45.23
271.267	18.6
271.483	14.51
271.698	14.51
271.914	47.27
272.13	2.22
272.346	-34.64
272.562	16.55
272.777	51.37
272.993	84.14
273.209	-34.64
273.425	55.47
273.64	-18.26
273.856	-1.88
274.072	80.04
274.287	-30.55
274.503	16.55
274.719	39.08
274.934	14.51
275.15	16.55
275.366	26.79
275.581	-94.04
275.797	24.75
276.012	22.7
276.228	34.99
276.444	-38.74
276.659	77.99
276.875	-96.08
277.09	14.51
277.306	26.79
277.521	82.09
277.737	-89.94
277.952	-24.4
278.168	49.32
278.383	14.51
278.599	34.99
278.814	18.6
279.03	14.51
279.245	43.18
279.461	10.41
279.676	12.46
279.892	20.65
280.107	-57.17
280.322	2.22
280.538	-1.88
280.753	-65.36
280.969	30.89
281.184	-1.88
281.399	-1.88
281.615	-5.97
281.83	41.13
282.045	-34.64
282.26	65.71
282.476	-24.4
282.691	39.08
282.906	-8.02
283.122	-22.36
283.337	6.31
283.552	49.32
283.767	16.55
283.983	67.75
284.198	-34.64
284.413	77.99
284.628	0.17
284.843	14.51
285.058	51.37
285.274	-14.17
285.489	-14.17
285.704	-32.6
285.919	57.51
286.134	22.7
286.349	71.85
286.564	-1.88
286.779	71.85
286.995	51.37
287.21	-40.79
287.425	65.71
287.64	-73.56
287.855	6.31
288.07	-46.93
288.285	30.89
288.5	-22.36
288.715	32.94
288.93	2.22
289.145	-18.26
289.36	49.32
289.575	26.79
289.79	100.52
290.004	-8.02
290.219	75.95
290.434	18.6
290.649	-10.07
290.864	-30.55
291.079	6.31
291.294	32.94
291.509	-42.84
291.724	-16.21
291.938	80.04
292.153	39.08
292.368	2.22
292.583	-3.93
292.798	30.89
293.012	14.51
293.227	26.79
293.442	14.51
293.657	98.47
293.871	80.04
294.086	63.66
294.301	6.31
294.516	39.08
294.73	39.08
294.945	6.31
295.16	16.55
295.374	112.81
295.589	47.27
295.804	-40.79
296.018	57.51
296.233	98.47
296.447	88.23
296.662	14.51
296.877	-16.21
297.091	4.27
297.306	-8.02
297.52	-53.08
297.735	67.75
297.949	10.41
298.164	-3.93
298.378	12.46
298.593	-1.88
298.807	6.31
299.022	-14.17
299.236	43.18
299.451	34.99
299.665	-42.84
299.88	80.04
300.094	32.94
300.309	51.37
300.523	32.94
300.737	-18.26
300.952	75.95
301.166	57.51
301.381	14.51
301.595	32.94
301.809	-51.03
302.024	-34.64
302.238	37.03
302.452	-10.07
302.667	67.75
302.881	80.04
303.095	26.79
303.309	30.89
303.524	51.37
303.738	51.37
303.952	-59.22
304.166	-24.4
304.381	-46.93
304.595	67.75
304.809	-8.02
305.023	28.84
305.237	47.27
305.452	-1.88
305.666	-51.03
305.88	137.38
306.094	16.55
306.308	53.42
306.522	4.27
306.736	121
306.95	41.13
307.164	0.17
307.379	-5.97
307.593	73.9
307.807	-1.88
308.021	34.99
308.235	67.75
308.449	8.36
308.663	2.22
308.877	86.19
309.091	20.65
309.305	94.38
309.519	-22.36
309.733	18.6
309.947	4.27
310.161	86.19
310.374	57.51
310.588	34.99
310.802	22.7
311.016	2.22
311.23	55.47
311.444	10.41
311.658	8.36
311.872	16.55
312.085	57.51
312.299	88.23
312.513	63.66
312.727	84.14
312.941	-32.6
313.154	39.08
313.368	-30.55
313.582	16.55
313.796	39.08
314.009	49.32
314.223	16.55
314.437	65.71
314.651	14.51
314.864	106.67
315.078	6.31
315.292	-18.26
315.505	32.94
315.719	2.22
315.933	10.41
316.146	2.22
316.36	26.79
316.573	82.09
316.787	47.27
317.001	32.94
317.214	14.51
317.428	63.66
317.641	-16.21
317.855	100.52
318.068	16.55
318.282	-48.98
318.495	18.6
318.709	-16.21
318.922	2.22
319.136	98.47
319.349	30.89
319.563	-5.97
319.776	41.13
319.99	30.89
320.203	34.99
320.417	-10.07
320.63	18.6
320.843	26.79
321.057	49.32
321.27	53.42
321.483	-1.88
321.697	18.6
321.91	18.6
322.124	55.47
322.337	-44.88
322.55	55.47
322.763	51.37
322.977	8.36
323.19	82.09
323.403	0.17
323.617	2.22
323.83	18.6
324.043	39.08
324.256	121
324.469	30.89
324.683	71.85
324.896	4.27
325.109	-5.97
325.322	39.08
325.535	18.6
325.748	-10.07
325.962	55.47
326.175	57.51
326.388	-8.02
326.601	39.08
326.814	-18.26
327.027	-42.84
327.24	100.52
327.453	14.51
327.666	47.27
327.879	-53.08
328.092	10.41
328.305	59.56
328.518	24.75
328.731	-40.79
328.944	8.36
329.157	26.79
329.37	16.55
329.583	47.27
329.796	55.47
330.009	10.41
330.222	8.36
330.435	41.13
330.648	-32.6
330.861	24.75
331.073	47.27
331.286	22.7
331.499	73.9
331.712	-1.88
331.925	-8.02
332.138	-10.07
332.35	47.27
332.563	-22.36
332.776	-5.97
332.989	43.18
333.202	14.51
333.414	75.95
333.627	-5.97
333.84	4.27
334.053	63.66
334.265	-38.74
334.478	2.22
334.691	10.41
334.903	-24.4
335.116	30.89
335.329	-8.02
335.541	108.71
335.754	98.47
335.966	22.7
336.179	39.08
336.392	-26.45
336.604	26.79
336.817	30.89
337.029	-57.17
337.242	41.13
337.454	32.94
337.667	-16.21
337.88	51.37
338.092	0.17
338.305	22.7
338.517	30.89
338.729	16.55
338.942	123.05
339.154	8.36
339.367	26.79
339.579	8.36
339.792	8.36
340.004	10.41
340.217	-14.17
340.429	-1.88
340.641	-16.21
340.854	-10.07
341.066	14.51
341.278	137.38
341.491	6.31
341.703	55.47
341.915	71.85
342.128	-28.5
342.34	63.66
342.552	22.7
342.764	59.56
342.977	75.95
343.189	-10.07
343.401	-1.88
343.613	-69.46
343.826	67.75
344.038	22.7
344.25	82.09
344.462	-14.17
344.674	88.23
344.886	18.6
345.099	0.17
345.311	-28.5
345.523	61.61
345.735	-34.64
345.947	32.94
346.159	22.7
346.371	30.89
346.583	34.99
346.795	-1.88
347.007	-67.41
347.219	63.66
347.431	-8.02
347.643	26.79
347.855	67.75
348.067	45.23
348.279	-16.21
348.491	-18.26
348.703	55.47
348.915	71.85
349.127	30.89
349.339	55.47
349.551	39.08
349.763	6.31
349.975	39.08
350.187	65.71
350.399	41.13
350.61	80.04
350.822	-3.93
351.034	10.41
351.246	55.47
351.458	75.95
351.669	65.71
351.881	63.66
352.093	65.71
352.305	63.66
352.517	34.99
352.728	6.31
352.94	-55.12
353.152	37.03
353.363	-67.41
353.575	73.9
353.787	65.71
353.999	80.04
354.21	63.66
354.422	47.27
354.633	18.6
354.845	-18.26
355.057	34.99
355.268	34.99
355.48	96.43
355.692	30.89
355.903	-1.88
356.115	8.36
356.326	-42.84
356.538	63.66
356.749	84.14
356.961	71.85
357.172	10.41
357.384	2.22
357.595	106.67
357.807	0.17
358.018	22.7
358.23	8.36
358.441	88.23
358.653	63.66
358.864	51.37
359.075	14.51
359.287	39.08
359.498	57.51
359.709	37.03
359.921	86.19
360.132	37.03
360.344	2.22
360.555	-5.97
360.766	24.75
360.977	43.18
361.189	24.75
361.4	22.7
361.611	96.43
361.823	112.81
362.034	47.27
362.245	41.13
362.456	43.18
362.667	55.47
362.879	24.75
363.09	24.75
363.301	-51.03
363.512	20.65
363.723	30.89
363.935	55.47
364.146	-18.26
364.357	-1.88
364.568	88.23
364.779	32.94
364.99	39.08
365.201	12.46
365.412	43.18
365.623	-18.26
365.834	55.47
366.045	55.47
366.256	18.6
366.467	16.55
366.678	-8.02
366.889	6.31
367.1	-26.45
367.311	94.38
367.522	12.46
367.733	96.43
367.944	67.75
368.155	22.7
368.366	112.81
368.577	47.27
368.788	10.41
368.999	-5.97
369.209	63.66
369.42	57.51
369.631	88.23
369.842	14.51
370.053	26.79
370.264	80.04
370.474	49.32
370.685	-22.36
370.896	75.95
371.107	59.56
371.317	43.18
371.528	-34.64
371.739	-63.32
371.95	-38.74
372.16	71.85
372.371	18.6
372.582	90.28
372.792	30.89
373.003	20.65
373.214	2.22
373.424	121
373.635	-59.22
373.846	80.04
374.056	-1.88
374.267	-16.21
374.477	-30.55
374.688	39.08
374.898	8.36
375.109	14.51
375.319	-34.64
375.53	77.99
375.74	8.36
375.951	18.6
376.161	67.75
376.372	41.13
376.582	30.89
376.793	51.37
377.003	22.7
377.214	71.85
377.424	-8.02
377.635	-1.88
377.845	-24.4
378.055	22.7
378.266	-36.69
378.476	-10.07
378.686	41.13
378.897	16.55
379.107	14.51
379.317	73.9
379.528	0.17
379.738	57.51
379.948	10.41
380.158	94.38
380.369	30.89
380.579	-8.02
380.789	-14.17
380.999	80.04
381.21	63.66
381.42	96.43
381.63	45.23
381.84	-22.36
382.05	6.31
382.261	39.08
382.471	-44.88
382.681	16.55
382.891	20.65
383.101	28.84
383.311	47.27
383.521	39.08
383.731	116.9
383.941	14.51
384.151	-24.4
384.361	30.89
384.571	-18.26
384.781	63.66
384.991	69.8
385.201	139.43
385.411	69.8
385.621	104.62
385.831	30.89
386.041	41.13
386.251	8.36
386.461	59.56
386.671	71.85
386.881	67.75
387.091	18.6
387.301	63.66
387.511	30.89
387.72	39.08
387.93	61.61
388.14	22.7
388.35	24.75
388.56	26.79
388.769	75.95
388.979	39.08
389.189	94.38
389.399	32.94
389.609	24.75
389.818	82.09
390.028	37.03
390.238	43.18
390.447	28.84
390.657	47.27
390.867	45.23
391.076	63.66
391.286	90.28
391.496	30.89
391.705	57.51
391.915	39.08
392.125	67.75
392.334	34.99
392.544	2.22
392.753	26.79
392.963	6.31
393.172	47.27
393.382	-5.97
393.591	137.38
393.801	-34.64
394.01	125.1
394.22	-3.93
394.429	-38.74
394.639	55.47
394.848	84.14
395.058	114.86
395.267	71.85
395.477	88.23
395.686	102.57
395.895	71.85
396.105	155.82
396.314	30.89
396.524	47.27
396.733	84.14
396.942	116.9
397.152	57.51
397.361	166.06
397.57	53.42
397.78	112.81
397.989	84.14
398.198	63.66
398.407	65.71
398.617	59.56
398.826	77.99
399.035	82.09
399.244	59.56
399.453	39.08
399.663	34.99
399.872	39.08
400.081	45.23
400.29	104.62
400.499	8.36
400.708	145.58
400.917	30.89
401.127	59.56
401.336	47.27
401.545	121
401.754	100.52
401.963	133.29
402.172	30.89
402.381	59.56
402.59	80.04
402.799	82.09
403.008	67.75
403.217	57.51
403.426	80.04
403.635	39.08
403.844	92.33
404.053	104.62
404.262	143.53
404.471	153.77
404.68	63.66
404.888	106.67
405.097	121
405.306	118.95
405.515	98.47
405.724	96.43
405.933	63.66
406.142	57.51
406.35	63.66
406.559	98.47
406.768	88.23
406.977	186.54
407.185	161.96
407.394	112.81
407.603	137.38
407.812	151.72
408.02	221.35
408.229	121
408.438	96.43
408.646	137.38
408.855	190.63
409.064	141.48
409.272	133.29
409.481	213.16
409.69	75.95
409.898	190.63
410.107	182.44
410.315	166.06
410.524	184.49
410.733	178.34
410.941	245.93
411.15	327.85
411.358	264.36
411.567	360.61
411.775	301.22
411.984	276.65
412.192	297.13
412.401	344.23
412.609	264.36
412.818	352.42
413.026	336.04
413.234	385.19
413.443	411.81
413.651	352.42
413.86	401.57
414.068	415.91
414.276	377
414.485	352.42
414.693	381.09
414.901	436.39
415.11	454.82
415.318	555.17
415.526	510.11
415.734	526.5
415.943	467.11
416.151	583.84
416.359	477.35
416.567	610.47
416.776	657.57
416.984	696.48
417.192	759.97
417.4	618.66
417.608	542.88
417.817	671.9
418.025	774.3
418.233	766.11
418.441	811.17
418.649	827.55
418.857	870.56
419.065	792.73
419.273	819.36
419.481	923.8
419.689	954.52
419.897	966.81
420.105	1101.98
420.313	1036.44
420.521	1058.97
420.729	1056.92
420.937	1116.31
421.145	1196.18
421.353	1237.14
421.561	1214.62
421.769	1292.44
421.977	1452.18
422.185	1327.25
422.393	1443.99
422.601	1579.15
422.809	1448.08
423.017	1443.99
423.224	1646.74
423.432	1708.18
423.64	1626.26
423.848	1896.59
424.056	1816.72
424.263	1896.59
424.471	1949.84
424.679	1923.21
424.887	2064.52
425.094	2080.91
425.302	2195.59
425.51	2185.35
425.718	2265.22
425.925	2336.9
426.133	2377.86
426.341	2566.28
426.548	2603.14
426.756	2664.58
426.964	2711.68
427.171	2711.68
427.379	2926.72
427.586	2963.58
427.794	2965.63
428.001	3100.8
428.209	3324.02
428.417	3242.11
428.624	3537.01
428.832	3459.19
429.039	3539.06
429.247	3401.85
429.454	3756.15
429.662	4061.29
429.869	3784.82
430.076	3991.66
430.284	4026.48
430.491	4110.44
430.699	4331.62
430.906	4247.66
431.114	4358.25
431.321	4429.93
431.528	4640.87
431.736	4941.92
431.943	5072.99
432.15	5052.51
432.358	4997.21
432.565	5275.74
432.772	5204.06
432.979	5539.93
433.187	5824.59
433.394	5625.94
433.601	6086.73
433.808	6109.26
434.016	6039.63
434.223	6254.67
434.43	6617.16
434.637	6594.63
434.844	6897.73
435.052	7049.28
435.259	6936.64
435.466	7100.48
435.673	7071.81
435.88	7495.74
436.087	7731.25
436.294	7845.94
436.501	7655.48
436.708	7876.66
436.915	8114.22
437.122	8419.37
437.329	8448.04
437.537	8462.38
437.743	8900.64
437.95	8572.97
438.157	9283.61
438.364	9529.37
438.571	9584.66
438.778	9404.44
438.985	10432.52
439.192	9869.33
439.399	10385.42
439.606	10158.1
439.813	10573.83
440.02	11225.09
440.227	10995.71
440.433	10831.88
440.64	11196.42
440.847	10991.62
441.054	11696.12
441.261	12292.08
441.467	12056.56
441.674	12318.7
441.881	12646.38
442.088	12761.06
442.294	12662.76
442.501	12941.29
442.708	13268.96
442.914	13883.35
443.121	14264.27
443.328	13869.02
443.534	14936.01
443.741	14456.78
443.948	14342.1
444.154	15497.15
444.361	15237.06
444.568	15556.54
444.774	15355.84
444.981	15169.48
445.187	15749.05
445.394	16641.96
445.6	16459.7
445.807	17856.41
446.013	17250.21
446.22	17553.31
446.426	18102.17
446.633	18405.27
446.839	18876.3
447.046	18278.29
447.252	19292.04
447.459	19187.59
447.665	19142.53
447.871	19838.84
448.078	21030.76
448.284	19834.75
448.491	20500.34
448.697	21059.43
448.903	21282.66
449.11	21753.69
449.316	21340.01
449.522	21624.67
449.728	22132.57
449.935	22320.98
450.141	22091.61
450.347	22925.13
450.553	22388.57
450.76	22429.52
450.966	23416.65
451.172	22994.76
451.378	23588.67
451.584	23037.77
451.791	23791.42
451.997	23746.37
452.203	24117.05
452.409	24233.78
452.615	23953.21
452.821	23125.83
453.027	22757.2
453.233	24041.28
453.44	23447.36
453.646	23664.45
453.852	23639.87
454.058	24268.6
454.264	23207.75
454.47	23940.93
454.676	22943.56
454.882	23942.97
455.088	21839.71
455.294	22183.77
455.5	22773.58
455.705	22830.93
455.911	21751.65
456.117	21737.31
456.323	21309.29
456.529	20076.41
456.735	21002.09
456.941	20725.61
457.147	20162.42
457.352	19646.33
457.558	19527.55
457.764	19490.69
457.97	19228.55
458.176	18765.71
458.381	18556.82
458.587	18147.22
458.793	17831.83
458.999	16955.3
459.204	18306.96
459.41	17528.74
459.616	16621.49
459.821	16531.37
460.027	16621.49
460.233	16248.75
460.438	15243.2
460.644	15843.26
460.85	14817.22
461.055	14608.33
461.261	14696.39
461.466	13580.25
461.672	12994.53
461.878	14168.02
462.083	13033.44
462.289	12826.6
462.494	12681.19
462.7	12283.89
462.905	11839.48
463.111	12253.17
463.316	12206.06
463.522	12085.23
463.727	12056.56
463.932	12124.15
464.138	11851.77
464.343	11925.49
464.549	11491.32
464.754	11917.3
464.959	11515.9
465.165	11646.97
465.37	11294.72
465.575	10854.41
465.781	11548.67
465.986	11704.31
466.191	11194.37
466.397	10827.78
466.602	10330.13
466.807	10561.55
467.012	10696.71
467.218	10661.9
467.423	10575.88
467.628	10516.49
467.833	11161.6
468.038	10688.52
468.244	10385.42
