Data from USB4F104151__204__14-45-20-930.txt Node

Date: Thu Mar 13 14:45:20 EDT 2025
User: louis
Spectrometer: USB4F10415
Trigger mode: 4
Integration Time (sec): 2.000000E-2
Scans to average: 1
Electric dark correction enabled: true
Nonlinearity correction enabled: false
Boxcar width: 0
XAxis mode: Wavelengths
Number of Pixels in Spectrum: 3648
>>>>>Begin Spectral Data<<<<<
178.204	-18.94
178.424	-18.94
178.644	-18.94
178.864	-115.2
179.084	-86.53
179.304	-23.04
179.524	-61.95
179.744	-76.29
179.964	77.31
180.184	46.59
180.404	28.16
180.624	11.78
180.844	-4.61
181.064	-25.09
181.283	36.35
181.503	-8.7
181.723	-0.51
181.943	-12.8
182.163	124.41
182.383	11.78
182.602	87.55
182.822	40.45
183.042	126.46
183.262	15.87
183.482	87.55
183.701	73.21
183.921	77.31
184.141	-12.8
184.361	44.54
184.58	5.63
184.8	56.83
185.02	54.78
185.239	134.65
185.459	142.85
185.679	110.08
185.898	87.55
186.118	28.16
186.338	11.78
186.557	44.54
186.777	22.02
186.997	-29.18
187.216	36.35
187.436	62.98
187.655	48.64
187.875	91.65
188.095	-41.47
188.314	93.69
188.534	30.21
188.753	-14.85
188.973	7.68
189.192	130.56
189.412	87.55
189.631	56.83
189.851	26.11
190.07	75.26
190.29	-2.56
190.509	71.17
190.729	-0.51
190.948	101.89
191.168	165.37
191.387	48.64
191.607	50.69
191.826	69.12
192.045	44.54
192.265	-10.75
192.484	22.02
192.704	89.6
192.923	-23.04
193.142	85.5
193.362	146.94
193.581	101.89
193.8	56.83
194.02	46.59
194.239	85.5
194.458	36.35
194.678	-10.75
194.897	48.64
195.116	-0.51
195.335	3.58
195.555	56.83
195.774	15.87
195.993	52.74
196.212	48.64
196.432	44.54
196.651	30.21
196.87	93.69
197.089	93.69
197.308	38.4
197.528	99.84
197.747	11.78
197.966	22.02
198.185	99.84
198.404	85.5
198.623	28.16
198.842	-4.61
199.062	38.4
199.281	103.93
199.5	54.78
199.719	112.13
199.938	7.68
200.157	85.5
200.376	28.16
200.595	62.98
200.814	3.58
201.033	48.64
201.252	77.31
201.471	99.84
201.69	65.02
201.909	101.89
202.128	71.17
202.347	13.82
202.566	38.4
202.785	87.55
203.004	-4.61
203.223	32.26
203.442	46.59
203.661	52.74
203.879	19.97
204.098	130.56
204.317	60.93
204.536	159.23
204.755	97.79
204.974	73.21
205.193	71.17
205.411	65.02
205.63	50.69
205.849	85.5
206.068	46.59
206.287	13.82
206.505	60.93
206.724	36.35
206.943	56.83
207.162	30.21
207.381	32.26
207.599	26.11
207.818	28.16
208.037	85.5
208.255	48.64
208.474	93.69
208.693	60.93
208.911	11.78
209.13	65.02
209.349	77.31
209.567	46.59
209.786	65.02
210.005	36.35
210.223	44.54
210.442	36.35
210.661	46.59
210.879	77.31
211.098	67.07
211.316	-4.61
211.535	30.21
211.753	24.06
211.972	50.69
212.191	22.02
212.409	93.69
212.628	91.65
212.846	44.54
213.065	44.54
213.283	46.59
213.502	-4.61
213.72	71.17
213.938	-27.14
214.157	126.46
214.375	7.68
214.594	28.16
214.812	5.63
215.031	19.97
215.249	71.17
215.467	9.73
215.686	52.74
215.904	151.04
216.122	50.69
216.341	22.02
216.559	87.55
216.778	89.6
216.996	60.93
217.214	19.97
217.432	-53.76
217.651	62.98
217.869	13.82
218.087	44.54
218.306	50.69
218.524	134.65
218.742	5.63
218.96	112.13
219.179	52.74
219.397	118.27
219.615	112.13
219.833	54.78
220.051	60.93
220.27	54.78
220.488	56.83
220.706	38.4
220.924	28.16
221.142	-18.94
221.36	62.98
221.578	101.89
221.796	97.79
222.015	-33.28
222.233	46.59
222.451	110.08
222.669	-14.85
222.887	97.79
223.105	-4.61
223.323	28.16
223.541	36.35
223.759	85.5
223.977	36.35
224.195	69.12
224.413	48.64
224.631	91.65
224.849	-2.56
225.067	142.85
225.285	67.07
225.503	75.26
225.721	32.26
225.939	77.31
226.157	77.31
226.375	126.46
226.592	42.5
226.81	56.83
227.028	32.26
227.246	142.85
227.464	-0.51
227.682	34.3
227.9	36.35
228.117	138.75
228.335	52.74
228.553	69.12
228.771	19.97
228.989	93.69
229.206	42.5
229.424	89.6
229.642	52.74
229.86	73.21
230.077	54.78
230.295	40.45
230.513	95.74
230.731	54.78
230.948	95.74
231.166	120.32
231.384	32.26
231.601	19.97
231.819	91.65
232.037	58.88
232.254	30.21
232.472	46.59
232.689	11.78
232.907	126.46
233.125	3.58
233.342	101.89
233.56	73.21
233.777	50.69
233.995	44.54
234.213	65.02
234.43	81.41
234.648	15.87
234.865	-37.38
235.083	208.38
235.3	52.74
235.518	15.87
235.735	120.32
235.953	124.41
236.17	62.98
236.388	32.26
236.605	73.21
236.822	79.36
237.04	91.65
237.257	71.17
237.475	50.69
237.692	110.08
237.909	19.97
238.127	-27.14
238.344	67.07
238.562	69.12
238.779	-41.47
238.996	99.84
239.214	40.45
239.431	93.69
239.648	44.54
239.865	52.74
240.083	22.02
240.3	54.78
240.517	13.82
240.735	52.74
240.952	48.64
241.169	101.89
241.386	58.88
241.603	7.68
241.821	7.68
242.038	56.83
242.255	1.54
242.472	19.97
242.689	79.36
242.907	11.78
243.124	44.54
243.341	3.58
243.558	11.78
243.775	67.07
243.992	30.21
244.209	89.6
244.426	114.17
244.643	60.93
244.86	77.31
245.078	9.73
245.295	69.12
245.512	93.69
245.729	11.78
245.946	17.92
246.163	110.08
246.38	3.58
246.597	-33.28
246.814	83.45
247.031	79.36
247.248	95.74
247.464	56.83
247.681	48.64
247.898	-29.18
248.115	60.93
248.332	52.74
248.549	56.83
248.766	128.51
248.983	112.13
249.2	-8.7
249.417	54.78
249.633	40.45
249.85	73.21
250.067	50.69
250.284	83.45
250.501	75.26
250.717	85.5
250.934	77.31
251.151	52.74
251.368	52.74
251.585	75.26
251.801	79.36
252.018	-20.99
252.235	134.65
252.451	52.74
252.668	26.11
252.885	-2.56
253.102	77.31
253.318	36.35
253.535	44.54
253.752	48.64
253.968	-12.8
254.185	48.64
254.401	3.58
254.618	126.46
254.835	69.12
255.051	118.27
255.268	110.08
255.484	54.78
255.701	28.16
255.917	93.69
256.134	26.11
256.351	126.46
256.567	-8.7
256.784	110.08
257	5.63
257.217	81.41
257.433	28.16
257.65	-57.86
257.866	28.16
258.082	71.17
258.299	-16.9
258.515	122.37
258.732	-20.99
258.948	36.35
259.165	58.88
259.381	-49.66
259.597	69.12
259.814	71.17
260.03	44.54
260.246	81.41
260.463	101.89
260.679	89.6
260.895	83.45
261.112	79.36
261.328	42.5
261.544	46.59
261.761	69.12
261.977	110.08
262.193	11.78
262.409	77.31
262.626	-16.9
262.842	46.59
263.058	97.79
263.274	3.58
263.49	108.03
263.707	44.54
263.923	40.45
264.139	15.87
264.355	5.63
264.571	110.08
264.787	28.16
265.004	60.93
265.22	13.82
265.436	81.41
265.652	19.97
265.868	77.31
266.084	30.21
266.3	54.78
266.516	26.11
266.732	71.17
266.948	36.35
267.164	-2.56
267.38	93.69
267.596	-4.61
267.812	126.46
268.028	60.93
268.244	3.58
268.46	93.69
268.676	22.02
268.892	19.97
269.108	3.58
269.324	50.69
269.54	48.64
269.756	134.65
269.972	77.31
270.188	38.4
270.403	48.64
270.619	54.78
270.835	44.54
271.051	-8.7
271.267	58.88
271.483	77.31
271.698	159.23
271.914	138.75
272.13	24.06
272.346	48.64
272.562	34.3
272.777	48.64
272.993	32.26
273.209	77.31
273.425	118.27
273.64	77.31
273.856	19.97
274.072	-18.94
274.287	56.83
274.503	118.27
274.719	48.64
274.934	40.45
275.15	-16.9
275.366	85.5
275.581	-20.99
275.797	-12.8
276.012	62.98
276.228	112.13
276.444	52.74
276.659	71.17
276.875	112.13
277.09	60.93
277.306	15.87
277.521	146.94
277.737	15.87
277.952	24.06
278.168	-4.61
278.383	65.02
278.599	15.87
278.814	60.93
279.03	69.12
279.245	124.41
279.461	89.6
279.676	-12.8
279.892	19.97
280.107	26.11
280.322	11.78
280.538	110.08
280.753	77.31
280.969	93.69
281.184	52.74
281.399	91.65
281.615	11.78
281.83	52.74
282.045	44.54
282.26	19.97
282.476	24.06
282.691	36.35
282.906	60.93
283.122	19.97
283.337	24.06
283.552	138.75
283.767	69.12
283.983	71.17
284.198	103.93
284.413	126.46
284.628	101.89
284.843	-16.9
285.058	97.79
285.274	93.69
285.489	87.55
285.704	50.69
285.919	19.97
286.134	3.58
286.349	81.41
286.564	46.59
286.779	71.17
286.995	85.5
287.21	62.98
287.425	120.32
287.64	24.06
287.855	85.5
288.07	87.55
288.285	60.93
288.5	-18.94
288.715	101.89
288.93	52.74
289.145	105.98
289.36	67.07
289.575	52.74
289.79	126.46
290.004	46.59
290.219	48.64
290.434	48.64
290.649	44.54
290.864	79.36
291.079	95.74
291.294	112.13
291.509	81.41
291.724	65.02
291.938	56.83
292.153	85.5
292.368	32.26
292.583	52.74
292.798	126.46
293.012	99.84
293.227	-2.56
293.442	77.31
293.657	97.79
293.871	142.85
294.086	28.16
294.301	103.93
294.516	52.74
294.73	79.36
294.945	-4.61
295.16	65.02
295.374	44.54
295.589	36.35
295.804	-4.61
296.018	40.45
296.233	28.16
296.447	11.78
296.662	-12.8
296.877	69.12
297.091	103.93
297.306	114.17
297.52	46.59
297.735	114.17
297.949	75.26
298.164	40.45
298.378	7.68
298.593	103.93
298.807	56.83
299.022	91.65
299.236	60.93
299.451	28.16
299.665	-16.9
299.88	112.13
300.094	105.98
300.309	-0.51
300.523	13.82
300.737	36.35
300.952	79.36
301.166	24.06
301.381	-12.8
301.595	50.69
301.809	73.21
302.024	19.97
302.238	56.83
302.452	56.83
302.667	48.64
302.881	36.35
303.095	99.84
303.309	124.41
303.524	30.21
303.738	28.16
303.952	36.35
304.166	93.69
304.381	44.54
304.595	112.13
304.809	46.59
305.023	151.04
305.237	46.59
305.452	24.06
305.666	-18.94
305.88	79.36
306.094	30.21
306.308	11.78
306.522	79.36
306.736	89.6
306.95	36.35
307.164	60.93
307.379	56.83
307.593	79.36
307.807	120.32
308.021	62.98
308.235	93.69
308.449	38.4
308.663	81.41
308.877	144.89
309.091	42.5
309.305	146.94
309.519	-18.94
309.733	118.27
309.947	91.65
310.161	126.46
310.374	36.35
310.588	185.85
310.802	-10.75
311.016	65.02
311.23	26.11
311.444	44.54
311.658	13.82
311.872	126.46
312.085	77.31
312.299	75.26
312.513	128.51
312.727	54.78
312.941	60.93
313.154	56.83
313.368	65.02
313.582	126.46
313.796	28.16
314.009	85.5
314.223	15.87
314.437	75.26
314.651	11.78
314.864	48.64
315.078	95.74
315.292	60.93
315.505	38.4
315.719	99.84
315.933	93.69
316.146	48.64
316.36	77.31
316.573	134.65
316.787	110.08
317.001	36.35
317.214	50.69
317.428	120.32
317.641	24.06
317.855	54.78
318.068	19.97
318.282	69.12
318.495	81.41
318.709	155.13
318.922	24.06
319.136	101.89
319.349	77.31
319.563	110.08
319.776	77.31
319.99	-12.8
320.203	136.7
320.417	15.87
320.63	85.5
320.843	167.42
321.057	44.54
321.27	118.27
321.483	40.45
321.697	-10.75
321.91	81.41
322.124	22.02
322.337	-0.51
322.55	60.93
322.763	30.21
322.977	19.97
323.19	46.59
323.403	48.64
323.617	120.32
323.83	71.17
324.043	38.4
324.256	-20.99
324.469	3.58
324.683	110.08
324.896	13.82
325.109	24.06
325.322	44.54
325.535	101.89
325.748	62.98
325.962	24.06
326.175	-10.75
326.388	110.08
326.601	60.93
326.814	126.46
327.027	83.45
327.24	97.79
327.453	-33.28
327.666	120.32
327.879	52.74
328.092	36.35
328.305	48.64
328.518	5.63
328.731	28.16
328.944	54.78
329.157	95.74
329.37	52.74
329.583	134.65
329.796	48.64
330.009	13.82
330.222	54.78
330.435	87.55
330.648	7.68
330.861	79.36
331.073	44.54
331.286	65.02
331.499	118.27
331.712	30.21
331.925	103.93
332.138	95.74
332.35	114.17
332.563	-55.81
332.776	120.32
332.989	65.02
333.202	44.54
333.414	26.11
333.627	151.04
333.84	112.13
334.053	110.08
334.265	65.02
334.478	56.83
334.691	69.12
334.903	85.5
335.116	50.69
335.329	101.89
335.541	77.31
335.754	112.13
335.966	85.5
336.179	77.31
336.392	93.69
336.604	75.26
336.817	126.46
337.029	28.16
337.242	32.26
337.454	103.93
337.667	87.55
337.88	138.75
338.092	28.16
338.305	101.89
338.517	73.21
338.729	85.5
338.942	73.21
339.154	11.78
339.367	85.5
339.579	-0.51
339.792	50.69
340.004	62.98
340.217	110.08
340.429	97.79
340.641	73.21
340.854	110.08
341.066	54.78
341.278	87.55
341.491	101.89
341.703	87.55
341.915	44.54
342.128	138.75
342.34	32.26
342.552	46.59
342.764	42.5
342.977	81.41
343.189	105.98
343.401	48.64
343.613	93.69
343.826	19.97
344.038	62.98
344.25	73.21
344.462	48.64
344.674	126.46
344.886	-4.61
345.099	112.13
345.311	52.74
345.523	15.87
345.735	71.17
345.947	101.89
346.159	54.78
346.371	87.55
346.583	26.11
346.795	144.89
347.007	30.21
347.219	138.75
347.431	19.97
347.643	142.85
347.855	28.16
348.067	101.89
348.279	19.97
348.491	69.12
348.703	65.02
348.915	26.11
349.127	36.35
349.339	85.5
349.551	116.22
349.763	142.85
349.975	103.93
350.187	122.37
350.399	3.58
350.61	65.02
350.822	114.17
351.034	54.78
351.246	38.4
351.458	30.21
351.669	77.31
351.881	128.51
352.093	120.32
352.305	52.74
352.517	79.36
352.728	85.5
352.94	87.55
353.152	132.61
353.363	71.17
353.575	138.75
353.787	69.12
353.999	77.31
354.21	151.04
354.422	118.27
354.633	-10.75
354.845	62.98
355.057	60.93
355.268	44.54
355.48	87.55
355.692	58.88
355.903	42.5
356.115	77.31
356.326	24.06
356.538	52.74
356.749	65.02
356.961	130.56
357.172	-43.52
357.384	40.45
357.595	169.47
357.807	151.04
358.018	-2.56
358.23	112.13
358.441	216.57
358.653	161.28
358.864	-18.94
359.075	40.45
359.287	126.46
359.498	83.45
359.709	151.04
359.921	167.42
360.132	36.35
360.344	85.5
360.555	77.31
360.766	85.5
360.977	118.27
361.189	118.27
361.4	60.93
361.611	69.12
361.823	132.61
362.034	65.02
362.245	110.08
362.456	30.21
362.667	101.89
362.879	105.98
363.09	69.12
363.301	46.59
363.512	62.98
363.723	22.02
363.935	3.58
364.146	112.13
364.357	99.84
364.568	118.27
364.779	69.12
364.99	67.07
365.201	60.93
365.412	-2.56
365.623	85.5
365.834	118.27
366.045	69.12
366.256	134.65
366.467	77.31
366.678	77.31
366.889	40.45
367.1	138.75
367.311	93.69
367.522	54.78
367.733	103.93
367.944	159.23
368.155	93.69
368.366	62.98
368.577	19.97
368.788	89.6
368.999	32.26
369.209	60.93
369.42	108.03
369.631	151.04
369.842	85.5
370.053	120.32
370.264	73.21
370.474	52.74
370.685	108.03
370.896	50.69
371.107	44.54
371.317	87.55
371.528	32.26
371.739	132.61
371.95	116.22
372.16	85.5
372.371	77.31
372.582	93.69
372.792	69.12
373.003	108.03
373.214	95.74
373.424	136.7
373.635	60.93
373.846	48.64
374.056	187.9
374.267	60.93
374.477	52.74
374.688	73.21
374.898	110.08
375.109	19.97
375.319	118.27
375.53	42.5
375.74	56.83
375.951	142.85
376.161	120.32
376.372	101.89
376.582	32.26
376.793	85.5
377.003	7.68
377.214	32.26
377.424	105.98
377.635	38.4
377.845	15.87
378.055	97.79
378.266	19.97
378.476	60.93
378.686	93.69
378.897	48.64
379.107	93.69
379.317	46.59
379.528	24.06
379.738	110.08
379.948	28.16
380.158	79.36
380.369	110.08
380.579	32.26
380.789	28.16
380.999	134.65
381.21	22.02
381.42	151.04
381.63	85.5
381.84	71.17
382.05	116.22
382.261	105.98
382.471	132.61
382.681	79.36
382.891	89.6
383.101	71.17
383.311	24.06
383.521	62.98
383.731	44.54
383.941	101.89
384.151	60.93
384.361	130.56
384.571	151.04
384.781	120.32
384.991	69.12
385.201	79.36
385.411	54.78
385.621	120.32
385.831	95.74
386.041	112.13
386.251	65.02
386.461	11.78
386.671	75.26
386.881	46.59
387.091	69.12
387.301	126.46
387.511	122.37
387.72	120.32
387.93	87.55
388.14	95.74
388.35	122.37
388.56	120.32
388.769	120.32
388.979	114.17
389.189	71.17
389.399	105.98
389.609	103.93
389.818	118.27
390.028	69.12
390.238	151.04
390.447	52.74
390.657	48.64
390.867	134.65
391.076	54.78
391.286	87.55
391.496	110.08
391.705	-8.7
391.915	159.23
392.125	58.88
392.334	134.65
392.544	103.93
392.753	71.17
392.963	69.12
393.172	132.61
393.382	105.98
393.591	110.08
393.801	138.75
394.01	60.93
394.22	132.61
394.429	7.68
394.639	89.6
394.848	101.89
395.058	112.13
395.267	136.7
395.477	77.31
395.686	146.94
395.895	167.42
396.105	230.91
396.314	148.99
396.524	87.55
396.733	110.08
396.942	122.37
397.152	173.57
397.361	101.89
397.57	69.12
397.78	134.65
397.989	101.89
398.198	179.71
398.407	97.79
398.617	52.74
398.826	159.23
399.035	118.27
399.244	214.52
399.453	161.28
399.663	71.17
399.872	192
400.081	151.04
400.29	114.17
400.499	65.02
400.708	185.85
400.917	110.08
401.127	95.74
401.336	50.69
401.545	232.96
401.754	204.28
401.963	163.33
402.172	103.93
402.381	173.57
402.59	114.17
402.799	144.89
403.008	183.81
403.217	179.71
403.426	167.42
403.635	177.66
403.844	204.28
404.053	202.24
404.262	103.93
404.471	177.66
404.68	110.08
404.888	167.42
405.097	159.23
405.306	185.85
405.515	228.86
405.724	249.34
405.933	202.24
406.142	220.67
406.35	267.77
406.559	196.09
406.768	200.19
406.977	310.78
407.185	232.96
407.394	179.71
407.603	261.63
407.812	235
408.02	341.5
408.229	220.67
408.438	284.16
408.646	241.15
408.855	237.05
409.064	333.31
409.272	198.14
409.481	290.3
409.69	341.5
409.898	341.5
410.107	325.12
410.315	347.64
410.524	364.03
410.733	372.22
410.941	398.84
411.15	343.55
411.358	404.99
411.567	505.34
411.775	437.75
411.984	478.71
412.192	437.75
412.401	517.62
412.609	503.29
412.818	585.21
413.026	595.45
413.234	511.48
413.443	593.4
413.651	642.55
413.86	560.63
414.068	663.03
414.276	636.41
414.485	529.91
414.693	718.33
414.901	757.24
415.11	740.85
415.318	773.62
415.526	691.7
415.734	808.44
415.943	912.88
416.151	896.5
416.359	880.11
416.567	798.2
416.776	1021.42
416.984	1005.04
417.192	988.66
417.4	1011.18
417.608	1027.57
417.817	1068.53
418.025	1095.15
418.233	1373.68
418.441	1175.02
418.649	1175.02
418.857	1445.35
419.065	1353.2
419.273	1347.05
419.481	1361.39
419.689	1486.31
419.897	1547.75
420.105	1609.19
420.313	1666.53
420.521	1734.12
420.729	1840.61
420.937	1746.41
421.145	1773.03
421.353	1867.24
421.561	2029.03
421.769	1979.87
421.977	2170.33
422.185	2250.21
422.393	2203.1
422.601	2287.07
422.809	2315.74
423.017	2264.54
423.224	2541.02
423.432	2633.18
423.64	2571.74
423.848	2772.44
424.056	2719.19
424.263	3007.95
424.471	2848.21
424.679	3065.3
424.887	3110.35
425.094	3372.49
425.302	3220.94
425.51	3374.54
425.718	3616.2
425.925	3519.95
426.133	3661.26
426.341	3759.56
426.548	4142.53
426.756	4021.7
426.964	4115.91
427.171	4341.18
427.379	4320.7
427.586	4478.4
427.794	4556.22
428.001	4742.58
428.209	4980.15
428.417	4847.03
428.624	5451.18
428.832	5381.55
429.039	5275.06
429.247	5123.51
429.454	5713.32
429.662	6215.07
429.869	5731.75
430.076	6143.39
430.284	6114.72
430.491	6215.07
430.699	6675.87
430.906	6641.05
431.114	6749.59
431.321	6909.33
431.528	7200.15
431.736	7554.44
431.943	7816.58
432.15	7705.99
432.358	7837.06
432.565	8291.71
432.772	8154.5
432.979	8592.76
433.187	8781.18
433.394	8678.78
433.601	9368.95
433.808	9418.1
434.016	9418.1
434.223	9723.24
434.43	10208.61
434.637	9946.47
434.844	10657.12
435.052	11005.27
435.259	10861.91
435.466	10911.07
435.673	10798.43
435.88	11636.05
436.087	12062.02
436.294	12164.42
436.501	11705.68
436.708	11965.77
436.915	12492.1
437.122	12803.39
437.329	13153.59
437.537	13411.64
437.743	13741.36
437.95	13532.47
438.157	14216.49
438.364	14560.55
438.571	14671.14
438.778	14783.77
438.985	16166.15
439.192	15623.44
439.399	16127.24
439.606	15516.95
439.813	16868.61
440.02	17446.13
440.227	17165.56
440.433	16971.01
440.64	17876.21
440.847	17466.61
441.054	17992.94
441.261	19229.91
441.467	18566.37
441.674	19254.49
441.881	20124.88
442.088	19930.32
442.294	19703
442.501	20286.67
442.708	20739.27
442.914	21443.77
443.121	22353.07
443.328	21972.14
443.534	23332
443.741	22516.9
443.948	22367.4
444.154	24052.88
444.361	23932.05
444.568	24243.34
444.774	24071.31
444.981	24202.38
445.187	25076.87
445.394	25799.8
445.6	25769.08
445.807	28425.29
446.013	27190.37
446.22	27466.84
446.426	28204.11
446.633	28998.73
446.839	29953.08
447.046	28458.06
447.252	30137.4
447.459	30252.08
447.665	29912.12
447.871	31548.45
448.078	32592.91
448.284	31183.91
448.491	32255
448.697	33541.12
448.903	34169.85
449.11	34038.78
449.316	33391.62
449.522	33948.67
449.728	34821.1
449.935	35353.57
450.141	35372
450.347	36295.64
450.553	35189.74
450.76	35785.69
450.966	36899.79
451.172	36355.03
451.378	37508.04
451.584	36439
451.791	37794.75
451.997	37610.43
452.203	38001.6
452.409	38153.15
452.615	37970.88
452.821	36666.32
453.027	36113.37
453.233	37993.4
453.44	36621.27
453.646	37321.67
453.852	37419.97
454.058	38233.02
454.264	36776.91
454.47	37798.85
454.676	36721.62
454.882	37942.21
455.088	34790.38
455.294	35544.03
455.5	36183
455.705	36228.06
455.911	34986.99
456.117	34130.94
456.323	33758.2
456.529	32406.55
456.735	33557.5
456.941	32695.31
457.147	32381.97
457.352	31317.03
457.558	30772.27
457.764	30932.01
457.97	30356.53
458.176	29799.48
458.381	29852.73
458.587	28404.81
458.793	28386.38
458.999	27153.51
459.204	29170.75
459.41	28103.76
459.616	26348.65
459.821	26719.34
460.027	26412.14
460.233	25853.05
460.438	24802.44
460.644	24693.9
460.85	23649.43
461.055	23065.76
461.261	23272.6
461.466	21716.15
461.672	20749.51
461.878	22265
462.083	20970.69
462.289	20796.61
462.494	20434.12
462.7	19582.17
462.905	18881.76
463.111	19789.01
463.316	19756.24
463.522	19541.21
463.727	19447
463.932	19098.84
464.138	19025.12
464.343	19191
464.549	18631.91
464.754	19191
464.959	19223.77
465.165	19156.19
465.37	18230.51
465.575	17472.76
465.781	18330.86
465.986	18644.2
466.191	17771.76
