Data from USB4F104151__31__14-42-49-525.txt Node

Date: Thu Mar 13 14:42:49 EDT 2025
User: louis
Spectrometer: USB4F10415
Trigger mode: 4
Integration Time (sec): 2.000000E-2
Scans to average: 1
Electric dark correction enabled: true
Nonlinearity correction enabled: false
Boxcar width: 0
XAxis mode: Wavelengths
Number of Pixels in Spectrum: 3648
>>>>>Begin Spectral Data<<<<<
178.204	-138.75
178.424	-138.75
178.644	-138.75
178.864	-153.09
179.084	-62.98
179.304	-32.26
179.524	-24.06
179.744	0.51
179.964	-17.92
180.184	14.85
180.404	-26.11
180.624	2.56
180.844	47.62
181.064	33.28
181.283	41.47
181.503	-75.26
181.723	35.33
181.943	-62.98
182.163	8.7
182.383	27.14
182.602	49.66
182.822	45.57
183.042	-1.54
183.262	-46.59
183.482	80.38
183.701	-71.17
183.921	-22.02
184.141	-26.11
184.361	8.7
184.58	2.56
184.8	113.15
185.02	-30.21
185.239	18.94
185.459	49.66
185.679	80.38
185.898	-7.68
186.118	33.28
186.338	16.9
186.557	41.47
186.777	33.28
186.997	14.85
187.216	-5.63
187.436	80.38
187.655	-15.87
187.875	88.57
188.095	-9.73
188.314	64
188.534	23.04
188.753	49.66
188.973	0.51
189.192	72.19
189.412	76.29
189.631	113.15
189.851	43.52
190.07	55.81
190.29	6.66
190.509	72.19
190.729	10.75
190.948	43.52
191.168	64
191.387	113.15
191.607	-42.5
191.826	115.2
192.045	49.66
192.265	10.75
192.484	45.57
192.704	64
192.923	18.94
193.142	96.77
193.362	80.38
193.581	49.66
193.8	35.33
194.02	135.68
194.239	-5.63
194.458	74.24
194.678	74.24
194.897	20.99
195.116	59.9
195.335	0.51
195.555	33.28
195.774	23.04
195.993	72.19
196.212	2.56
196.432	76.29
196.651	64
196.87	23.04
197.089	119.29
197.308	8.7
197.528	68.09
197.747	-5.63
197.966	14.85
198.185	113.15
198.404	16.9
198.623	23.04
198.842	137.73
199.062	51.71
199.281	154.11
199.5	68.09
199.719	-17.92
199.938	47.62
200.157	74.24
200.376	59.9
200.595	39.42
200.814	-11.78
201.033	-40.45
201.252	98.81
201.471	43.52
201.69	59.9
201.909	53.76
202.128	98.81
202.347	59.9
202.566	31.23
202.785	23.04
203.004	6.66
203.223	59.9
203.442	55.81
203.661	6.66
203.879	57.86
204.098	47.62
204.317	-26.11
204.536	47.62
204.755	84.48
204.974	-34.3
205.193	-11.78
205.411	88.57
205.63	12.8
205.849	6.66
206.068	10.75
206.287	43.52
206.505	47.62
206.724	96.77
206.943	47.62
207.162	-30.21
207.381	88.57
207.599	51.71
207.818	2.56
208.037	18.94
208.255	-22.02
208.474	109.05
208.693	59.9
208.911	35.33
209.13	18.94
209.349	0.51
209.567	-58.88
209.786	8.7
210.005	16.9
210.223	96.77
210.442	-26.11
210.661	66.05
210.879	-7.68
211.098	39.42
211.316	-34.3
211.535	45.57
211.753	55.81
211.972	109.05
212.191	55.81
212.409	33.28
212.628	18.94
212.846	-13.82
213.065	64
213.283	109.05
213.502	8.7
213.72	-1.54
213.938	29.18
214.157	59.9
214.375	64
214.594	27.14
214.812	61.95
215.031	45.57
215.249	-1.54
215.467	18.94
215.686	-1.54
215.904	-26.11
216.122	121.34
216.341	55.81
216.559	104.96
216.778	31.23
216.996	47.62
217.214	-24.06
217.432	-5.63
217.651	6.66
217.869	-1.54
218.087	-1.54
218.306	37.38
218.524	41.47
218.742	27.14
218.96	90.62
219.179	4.61
219.397	90.62
219.615	133.63
219.833	41.47
220.051	-50.69
220.27	66.05
220.488	-13.82
220.706	6.66
220.924	31.23
221.142	55.81
221.36	27.14
221.578	-5.63
221.796	10.75
222.015	47.62
222.233	31.23
222.451	45.57
222.669	8.7
222.887	61.95
223.105	8.7
223.323	12.8
223.541	14.85
223.759	72.19
223.977	31.23
224.195	8.7
224.413	59.9
224.631	102.91
224.849	80.38
225.067	55.81
225.285	-17.92
225.503	10.75
225.721	-9.73
225.939	14.85
226.157	80.38
226.375	88.57
226.592	64
226.81	84.48
227.028	47.62
227.246	90.62
227.464	-40.45
227.682	70.14
227.9	8.7
228.117	23.04
228.335	39.42
228.553	-1.54
228.771	41.47
228.989	121.34
229.206	35.33
229.424	-17.92
229.642	41.47
229.86	10.75
230.077	55.81
230.295	37.38
230.513	61.95
230.731	90.62
230.948	59.9
231.166	74.24
231.384	20.99
231.601	6.66
231.819	33.28
232.037	-13.82
232.254	14.85
232.472	100.86
232.689	88.57
232.907	14.85
233.125	82.43
233.342	57.86
233.56	47.62
233.777	41.47
233.995	2.56
234.213	59.9
234.43	10.75
234.648	66.05
234.865	8.7
235.083	88.57
235.3	31.23
235.518	102.91
235.735	64
235.953	33.28
236.17	31.23
236.388	64
236.605	51.71
236.822	18.94
237.04	129.53
237.257	39.42
237.475	6.66
237.692	16.9
237.909	39.42
238.127	92.67
238.344	25.09
238.562	31.23
238.779	31.23
238.996	47.62
239.214	18.94
239.431	16.9
239.648	-40.45
239.865	-7.68
240.083	68.09
240.3	-5.63
240.517	31.23
240.735	2.56
240.952	59.9
241.169	72.19
241.386	57.86
241.603	12.8
241.821	14.85
242.038	53.76
242.255	-1.54
242.472	59.9
242.689	68.09
242.907	121.34
243.124	-50.69
243.341	-7.68
243.558	6.66
243.775	14.85
243.992	-9.73
244.209	2.56
244.426	129.53
244.643	96.77
244.86	2.56
245.078	64
245.295	64
245.512	43.52
245.729	35.33
245.946	43.52
246.163	84.48
246.38	-26.11
246.597	33.28
246.814	37.38
247.031	-48.64
247.248	-54.78
247.464	27.14
247.681	125.44
247.898	51.71
248.115	43.52
248.332	2.56
248.549	72.19
248.766	147.97
248.983	66.05
249.2	51.71
249.417	33.28
249.633	-62.98
249.85	64
250.067	72.19
250.284	-5.63
250.501	100.86
250.717	121.34
250.934	14.85
251.151	64
251.368	47.62
251.585	51.71
251.801	84.48
252.018	4.61
252.235	33.28
252.451	47.62
252.668	102.91
252.885	57.86
253.102	88.57
253.318	47.62
253.535	35.33
253.752	131.58
253.968	35.33
254.185	45.57
254.401	-1.54
254.618	74.24
254.835	14.85
255.051	43.52
255.268	33.28
255.484	-17.92
255.701	-34.3
255.917	41.47
256.134	12.8
256.351	68.09
256.567	76.29
256.784	23.04
257	96.77
257.217	27.14
257.433	49.66
257.65	35.33
257.866	119.29
258.082	47.62
258.299	-28.16
258.515	43.52
258.732	66.05
258.948	0.51
259.165	92.67
259.381	55.81
259.597	23.04
259.814	4.61
260.03	43.52
260.246	6.66
260.463	-42.5
260.679	-1.54
260.895	55.81
261.112	96.77
261.328	-24.06
261.544	90.62
261.761	129.53
261.977	-15.87
262.193	27.14
262.409	84.48
262.626	72.19
262.842	31.23
263.058	-7.68
263.274	16.9
263.49	31.23
263.707	43.52
263.923	107.01
264.139	-38.4
264.355	88.57
264.571	64
264.787	31.23
265.004	88.57
265.22	41.47
265.436	6.66
265.652	-22.02
265.868	80.38
266.084	-50.69
266.3	39.42
266.516	0.51
266.732	64
266.948	14.85
267.164	80.38
267.38	29.18
267.596	90.62
267.812	57.86
268.028	33.28
268.244	23.04
268.46	6.66
268.676	14.85
268.892	-26.11
269.108	-17.92
269.324	98.81
269.54	29.18
269.756	51.71
269.972	57.86
270.188	80.38
270.403	14.85
270.619	121.34
270.835	55.81
271.051	8.7
271.267	68.09
271.483	8.7
271.698	90.62
271.914	86.53
272.13	41.47
272.346	-1.54
272.562	-17.92
272.777	98.81
272.993	8.7
273.209	47.62
273.425	14.85
273.64	20.99
273.856	14.85
274.072	80.38
274.287	-17.92
274.503	68.09
274.719	49.66
274.934	68.09
275.15	27.14
275.366	90.62
275.581	72.19
275.797	98.81
276.012	37.38
276.228	-36.35
276.444	10.75
276.659	31.23
276.875	82.43
277.09	107.01
277.306	72.19
277.521	57.86
277.737	23.04
277.952	123.39
278.168	45.57
278.383	49.66
278.599	49.66
278.814	64
279.03	66.05
279.245	92.67
279.461	90.62
279.676	45.57
279.892	27.14
280.107	27.14
280.322	55.81
280.538	90.62
280.753	8.7
280.969	66.05
281.184	-13.82
281.399	92.67
281.615	18.94
281.83	72.19
282.045	-17.92
282.26	27.14
282.476	66.05
282.691	107.01
282.906	27.14
283.122	41.47
283.337	-1.54
283.552	-17.92
283.767	-40.45
283.983	92.67
284.198	2.56
284.413	39.42
284.628	53.76
284.843	47.62
285.058	20.99
285.274	0.51
285.489	27.14
285.704	68.09
285.919	18.94
286.134	0.51
286.349	29.18
286.564	2.56
286.779	84.48
286.995	14.85
287.21	43.52
287.425	6.66
287.64	-42.5
287.855	41.47
288.07	6.66
288.285	14.85
288.5	59.9
288.715	64
288.93	16.9
289.145	8.7
289.36	10.75
289.575	6.66
289.79	41.47
290.004	35.33
290.219	104.96
290.434	8.7
290.649	-22.02
290.864	68.09
291.079	10.75
291.294	72.19
291.509	-26.11
291.724	-11.78
291.938	-24.06
292.153	39.42
292.368	43.52
292.583	-24.06
292.798	45.57
293.012	4.61
293.227	61.95
293.442	8.7
293.657	74.24
293.871	78.33
294.086	104.96
294.301	64
294.516	92.67
294.73	23.04
294.945	-50.69
295.16	-1.54
295.374	59.9
295.589	96.77
295.804	-67.07
296.018	61.95
296.233	70.14
296.447	-3.58
296.662	39.42
296.877	-32.26
297.091	66.05
297.306	53.76
297.52	33.28
297.735	14.85
297.949	84.48
298.164	39.42
298.378	31.23
298.593	18.94
298.807	-26.11
299.022	57.86
299.236	20.99
299.451	59.9
299.665	-19.97
299.88	23.04
300.094	43.52
300.309	25.09
300.523	6.66
300.737	43.52
300.952	8.7
301.166	33.28
301.381	-26.11
301.595	14.85
301.809	20.99
302.024	59.9
302.238	-36.35
302.452	96.77
302.667	27.14
302.881	-7.68
303.095	102.91
303.309	55.81
303.524	-38.4
303.738	23.04
303.952	-11.78
304.166	82.43
304.381	-13.82
304.595	109.05
304.809	64
305.023	64
305.237	47.62
305.452	8.7
305.666	72.19
305.88	12.8
306.094	123.39
306.308	90.62
306.522	84.48
306.736	47.62
306.95	82.43
307.164	64
307.379	74.24
307.593	51.71
307.807	25.09
308.021	14.85
308.235	70.14
308.449	51.71
308.663	-50.69
308.877	92.67
309.091	64
309.305	-5.63
309.519	-13.82
309.733	117.25
309.947	-26.11
310.161	27.14
310.374	90.62
310.588	190.97
310.802	16.9
311.016	29.18
311.23	66.05
311.444	-15.87
311.658	-17.92
311.872	18.94
312.085	14.85
312.299	96.77
312.513	104.96
312.727	49.66
312.941	-87.55
313.154	33.28
313.368	14.85
313.582	39.42
313.796	96.77
314.009	6.66
314.223	10.75
314.437	47.62
314.651	8.7
314.864	39.42
315.078	104.96
315.292	33.28
315.505	82.43
315.719	47.62
315.933	29.18
316.146	84.48
316.36	66.05
316.573	66.05
316.787	37.38
317.001	51.71
317.214	23.04
317.428	49.66
317.641	23.04
317.855	25.09
318.068	90.62
318.282	25.09
318.495	86.53
318.709	47.62
318.922	14.85
319.136	86.53
319.349	96.77
319.563	27.14
319.776	-9.73
319.99	-7.68
320.203	74.24
320.417	90.62
320.63	27.14
320.843	35.33
321.057	96.77
321.27	53.76
321.483	39.42
321.697	47.62
321.91	27.14
322.124	-26.11
322.337	10.75
322.55	25.09
322.763	70.14
322.977	51.71
323.19	64
323.403	31.23
323.617	55.81
323.83	100.86
324.043	31.23
324.256	76.29
324.469	10.75
324.683	88.57
324.896	51.71
325.109	49.66
325.322	14.85
325.535	41.47
325.748	82.43
325.962	64
326.175	-9.73
326.388	86.53
326.601	121.34
326.814	-26.11
327.027	68.09
327.24	88.57
327.453	-5.63
327.666	41.47
327.879	14.85
328.092	35.33
328.305	57.86
328.518	2.56
328.731	20.99
328.944	-5.63
329.157	88.57
329.37	-69.12
329.583	14.85
329.796	115.2
330.009	23.04
330.222	125.44
330.435	39.42
330.648	98.81
330.861	-38.4
331.073	39.42
331.286	88.57
331.499	39.42
331.712	27.14
331.925	113.15
332.138	12.8
332.35	72.19
332.563	-17.92
332.776	141.82
332.989	20.99
333.202	-1.54
333.414	-9.73
333.627	66.05
333.84	8.7
334.053	84.48
334.265	18.94
334.478	25.09
334.691	-1.54
334.903	39.42
335.116	-69.12
335.329	70.14
335.541	51.71
335.754	131.58
335.966	35.33
336.179	64
336.392	2.56
336.604	2.56
336.817	74.24
337.029	82.43
337.242	25.09
337.454	41.47
337.667	51.71
337.88	68.09
338.092	162.3
338.305	45.57
338.517	10.75
338.729	88.57
338.942	100.86
339.154	-17.92
339.367	47.62
339.579	72.19
339.792	55.81
340.004	47.62
340.217	33.28
340.429	39.42
340.641	-9.73
340.854	31.23
341.066	-13.82
341.278	68.09
341.491	125.44
341.703	-1.54
341.915	2.56
342.128	35.33
342.34	51.71
342.552	-81.41
342.764	33.28
342.977	55.81
343.189	55.81
343.401	76.29
343.613	47.62
343.826	113.15
344.038	72.19
344.25	113.15
344.462	47.62
344.674	-1.54
344.886	55.81
345.099	64
345.311	72.19
345.523	47.62
345.735	14.85
345.947	43.52
346.159	68.09
346.371	45.57
346.583	14.85
346.795	92.67
347.007	96.77
347.219	82.43
347.431	41.47
347.643	139.77
347.855	80.38
348.067	55.81
348.279	66.05
348.491	72.19
348.703	64
348.915	31.23
349.127	49.66
349.339	-11.78
349.551	-40.45
349.763	41.47
349.975	6.66
350.187	74.24
350.399	70.14
350.61	86.53
350.822	88.57
351.034	31.23
351.246	16.9
351.458	51.71
351.669	-19.97
351.881	39.42
352.093	68.09
352.305	27.14
352.517	104.96
352.728	27.14
352.94	104.96
353.152	41.47
353.363	-79.36
353.575	23.04
353.787	76.29
353.999	113.15
354.21	98.81
354.422	35.33
354.633	10.75
354.845	6.66
355.057	64
355.268	37.38
355.48	72.19
355.692	72.19
355.903	80.38
356.115	-9.73
356.326	39.42
356.538	47.62
356.749	37.38
356.961	49.66
357.172	59.9
357.384	92.67
357.595	76.29
357.807	66.05
358.018	14.85
358.23	25.09
358.441	57.86
358.653	72.19
358.864	80.38
359.075	92.67
359.287	23.04
359.498	96.77
359.709	92.67
359.921	47.62
360.132	14.85
360.344	39.42
360.555	6.66
360.766	0.51
360.977	96.77
361.189	55.81
361.4	29.18
361.611	66.05
361.823	115.2
362.034	-17.92
362.245	76.29
362.456	98.81
362.667	86.53
362.879	98.81
363.09	25.09
363.301	107.01
363.512	31.23
363.723	47.62
363.935	84.48
364.146	104.96
364.357	25.09
364.568	68.09
364.779	39.42
364.99	178.69
365.201	23.04
365.412	90.62
365.623	-30.21
365.834	16.9
366.045	39.42
366.256	8.7
366.467	43.52
366.678	47.62
366.889	64
367.1	57.86
367.311	23.04
367.522	72.19
367.733	49.66
367.944	137.73
368.155	55.81
368.366	25.09
368.577	72.19
368.788	92.67
368.999	23.04
369.209	104.96
369.42	109.05
369.631	78.33
369.842	66.05
370.053	8.7
370.264	104.96
370.474	-17.92
370.685	80.38
370.896	104.96
371.107	94.72
371.317	80.38
371.528	31.23
371.739	53.76
371.95	43.52
372.16	80.38
372.371	41.47
372.582	-73.21
372.792	49.66
373.003	113.15
373.214	55.81
373.424	119.29
373.635	64
373.846	98.81
374.056	-13.82
374.267	18.94
374.477	104.96
374.688	39.42
374.898	49.66
375.109	-1.54
375.319	88.57
375.53	82.43
375.74	23.04
375.951	72.19
376.161	68.09
376.372	121.34
376.582	35.33
376.793	39.42
377.003	12.8
377.214	43.52
377.424	68.09
377.635	-9.73
377.845	14.85
378.055	131.58
378.266	20.99
378.476	39.42
378.686	64
378.897	49.66
379.107	76.29
379.317	-9.73
379.528	-7.68
379.738	76.29
379.948	6.66
380.158	47.62
380.369	64
380.579	86.53
380.789	115.2
380.999	64
381.21	25.09
381.42	64
381.63	43.52
381.84	137.73
382.05	66.05
382.261	76.29
382.471	113.15
382.681	0.51
382.891	64
383.101	111.1
383.311	-9.73
383.521	39.42
383.731	100.86
383.941	53.76
384.151	-17.92
384.361	80.38
384.571	39.42
384.781	96.77
384.991	88.57
385.201	121.34
385.411	133.63
385.621	96.77
385.831	47.62
386.041	100.86
386.251	80.38
386.461	23.04
386.671	68.09
386.881	84.48
387.091	96.77
387.301	66.05
387.511	-5.63
387.72	129.53
387.93	59.9
388.14	57.86
388.35	55.81
388.56	96.77
388.769	64
388.979	150.01
389.189	8.7
389.399	45.57
389.609	166.4
389.818	141.82
390.028	123.39
390.238	117.25
390.447	125.44
390.657	88.57
390.867	82.43
391.076	55.81
391.286	113.15
391.496	39.42
391.705	55.81
391.915	121.34
392.125	31.23
392.334	96.77
392.544	23.04
392.753	131.58
392.963	84.48
393.172	121.34
393.382	72.19
393.591	76.29
393.801	49.66
394.01	104.96
394.22	72.19
394.429	121.34
394.639	27.14
394.848	131.58
395.058	172.54
395.267	96.77
395.477	64
395.686	43.52
395.895	125.44
396.105	96.77
396.314	82.43
396.524	55.81
396.733	51.71
396.942	133.63
397.152	47.62
397.361	84.48
397.57	84.48
397.78	96.77
397.989	84.48
398.198	193.02
398.407	55.81
398.617	66.05
398.826	64
399.035	18.94
399.244	72.19
399.453	109.05
399.663	109.05
399.872	203.26
400.081	70.14
400.29	80.38
400.499	104.96
400.708	31.23
400.917	90.62
401.127	80.38
401.336	137.73
401.545	80.38
401.754	133.63
401.963	80.38
402.172	123.39
402.381	88.57
402.59	129.53
402.799	104.96
403.008	219.64
403.217	137.73
403.426	166.4
403.635	82.43
403.844	137.73
404.053	195.07
404.262	131.58
404.471	203.26
404.68	215.55
404.888	123.39
405.097	150.01
405.306	133.63
405.515	170.49
405.724	176.64
405.933	199.16
406.142	182.78
406.35	180.73
406.559	102.91
406.768	213.5
406.977	254.46
407.185	145.92
407.394	276.99
407.603	162.3
407.812	195.07
408.02	225.79
408.229	260.6
408.438	162.3
408.646	188.93
408.855	160.25
409.064	154.11
409.272	287.23
409.481	236.03
409.69	250.36
409.898	256.51
410.107	317.95
410.315	272.89
410.524	285.18
410.733	354.81
410.941	350.71
411.15	350.71
411.358	301.56
411.567	408.06
411.775	377.34
411.984	350.71
412.192	358.91
412.401	442.87
412.609	408.06
412.818	453.11
413.026	430.59
413.234	510.46
413.443	485.88
413.651	446.97
413.86	524.79
414.068	637.43
414.276	571.9
414.485	492.02
414.693	459.26
414.901	659.96
415.11	516.6
415.318	578.04
415.526	547.32
415.734	569.85
415.943	602.61
416.151	702.97
416.359	719.35
416.567	690.68
416.776	754.16
416.984	760.31
417.192	819.7
417.4	729.59
417.608	690.68
417.817	874.99
418.025	926.19
418.233	999.92
418.441	918
418.649	985.58
418.857	1038.83
419.065	1096.18
419.273	1055.22
419.481	1087.98
419.689	1188.33
419.897	1282.54
420.105	1118.7
420.313	1372.65
420.521	1425.9
420.729	1466.86
420.937	1450.47
421.145	1466.86
421.353	1534.44
421.561	1563.11
421.769	1718.76
421.977	1579.5
422.185	1671.65
422.393	1761.77
422.601	1878.5
422.809	1796.58
423.017	1870.31
423.224	1939.94
423.432	2038.24
423.64	1997.28
423.848	2183.65
424.056	2046.43
424.263	2202.08
424.471	2302.43
424.679	2415.07
424.887	2490.84
425.094	2564.57
425.302	2644.44
425.51	2568.66
425.718	2730.45
425.925	2857.43
426.133	2898.39
426.341	2910.68
426.548	3236.3
426.756	3078.61
426.964	3318.22
427.171	3373.52
427.379	3525.07
427.586	3539.4
427.794	3668.42
428.001	3828.17
428.209	3869.12
428.417	3905.99
428.624	4186.56
428.832	4151.74
429.039	4147.65
429.247	4188.61
429.454	4587.96
429.662	5024.18
429.869	4516.28
430.076	4989.36
430.284	4846.01
430.491	4970.93
430.699	5153.2
430.906	5349.81
431.114	5231.02
431.321	5519.79
431.528	5632.43
431.736	6070.69
431.943	6209.95
432.15	6091.17
432.358	6185.38
432.565	6396.32
432.772	6250.91
432.979	6758.81
433.187	6922.65
433.394	6871.45
433.601	7233.94
433.808	7448.97
434.016	7489.93
434.223	7612.81
434.43	8077.7
434.637	8059.27
434.844	8415.62
435.052	8669.56
435.259	8671.61
435.466	8608.12
435.673	8567.17
435.88	9150.84
436.087	9410.93
436.294	9511.28
436.501	9169.27
436.708	9740.65
436.915	9783.66
437.122	10391.91
437.329	10262.88
437.537	10611.04
437.743	10875.23
437.95	10797.4
438.157	11376.98
438.364	11966.79
438.571	11589.97
438.778	11788.62
438.985	12769.6
439.192	12300.61
439.399	12613.95
439.606	12472.64
439.813	13007.16
440.02	14006.57
440.227	13664.56
440.433	13482.29
440.64	13889.84
440.847	13707.57
441.054	14100.78
441.261	15087.9
441.467	15065.37
441.674	15282.45
441.881	15735.06
442.088	15761.68
442.294	15810.83
442.501	15798.54
442.708	16312.58
442.914	17049.85
443.121	17897.71
443.328	17330.42
443.534	18290.92
443.741	17959.15
443.948	17572.08
444.154	19120.35
444.361	18766.05
444.568	19065.05
444.774	18815.2
444.981	19253.47
445.187	19841.23
445.394	20646.08
445.6	20601.03
445.807	22266.03
446.013	21303.48
446.22	21723.32
446.426	22806.69
446.633	22659.24
446.839	23742.61
447.046	22562.98
447.252	24023.19
447.459	24017.04
447.665	24207.5
447.871	24856.71
448.078	26220.66
448.284	24971.39
448.491	25796.73
448.697	26364.01
448.903	26871.91
449.11	27254.88
449.316	26548.33
449.522	27246.69
449.728	28147.79
449.935	28168.27
450.141	28213.33
450.347	28842.06
450.553	27666.52
450.76	28702.79
450.966	29200.45
451.172	29343.81
451.378	29978.68
451.584	29349.95
451.791	30230.58
451.997	29970.49
452.203	30412.85
452.409	30552.11
452.615	30355.5
452.821	29179.97
453.027	28895.3
453.233	30627.88
453.44	29300.8
453.646	29376.58
453.852	29618.24
454.058	30220.34
454.264	29235.27
454.47	30148.66
454.676	29098.05
454.882	30181.43
455.088	27445.34
455.294	28162.13
455.5	28762.19
455.705	29057.09
455.911	27687
456.117	27299.94
456.323	26890.34
456.529	25208.96
456.735	26759.27
456.941	25946.23
457.147	25630.84
457.352	24758.41
457.558	24610.95
457.764	24938.63
457.97	24416.4
458.176	23521.43
458.381	23859.35
458.587	22593.7
458.793	22716.58
458.999	21395.64
459.204	22962.34
459.41	22397.1
459.616	20564.17
459.821	21039.29
460.027	20828.35
460.233	20175.05
460.438	19458.26
460.644	19724.5
460.85	18782.43
461.055	18471.14
461.261	18526.44
461.466	17361.14
461.672	16421.13
461.878	17647.86
462.083	16609.54
462.289	16259.34
462.494	16027.92
462.7	15554.83
462.905	15231.26
463.111	15446.29
463.316	15501.59
463.522	15137.05
463.727	15380.76
463.932	15296.79
464.138	15003.93
464.343	15366.42
464.549	14784.8
464.754	15071.51
464.959	15157.53
465.165	14962.97
465.37	14348.58
465.575	13941.04
465.781	14739.74
465.986	14735.65
466.191	14172.46
466.397	13740.33
466.602	13062.46
466.807	13736.24
467.012	13631.79
467.218	13424.95
467.423	13318.45
467.628	13418.8
467.833	14311.72
468.038	13521.2
468.244	13254.97
468.449	13793.58
468.654	13566.26
468.859	13396.28
469.064	13138.23
