Data from USB4F104151__176__14-45-03-497.txt Node

Date: Thu Mar 13 14:45:03 EDT 2025
User: louis
Spectrometer: USB4F10415
Trigger mode: 4
Integration Time (sec): 2.000000E-2
Scans to average: 1
Electric dark correction enabled: true
Nonlinearity correction enabled: false
Boxcar width: 0
XAxis mode: Wavelengths
Number of Pixels in Spectrum: 3648
>>>>>Begin Spectral Data<<<<<
178.204	-54.27
178.424	-54.27
178.644	-54.27
178.864	-146.43
179.084	-113.66
179.304	-41.98
179.524	44.03
179.744	17.41
179.964	15.36
180.184	25.6
180.404	-37.89
180.624	-9.22
180.844	-9.22
181.064	-64.51
181.283	37.89
181.503	-25.6
181.723	48.13
181.943	1.02
182.163	39.94
182.383	-78.85
182.602	156.67
182.822	56.32
183.042	17.41
183.262	-23.55
183.482	66.56
183.701	37.89
183.921	-1.02
184.141	56.32
184.361	72.7
184.58	58.37
184.8	17.41
185.02	-41.98
185.239	31.74
185.459	62.46
185.679	50.18
185.898	-17.41
186.118	50.18
186.338	-21.5
186.557	64.51
186.777	-56.32
186.997	78.85
187.216	109.57
187.436	17.41
187.655	37.89
187.875	76.8
188.095	-15.36
188.314	134.14
188.534	89.09
188.753	44.03
188.973	37.89
189.192	48.13
189.412	-29.7
189.631	78.85
189.851	3.07
190.07	50.18
190.29	-82.94
190.509	-9.22
190.729	15.36
190.948	82.94
191.168	142.33
191.387	97.28
191.607	-48.13
191.826	15.36
192.045	37.89
192.265	48.13
192.484	-31.74
192.704	-1.02
192.923	-3.07
193.142	89.09
193.362	72.7
193.581	44.03
193.8	70.65
194.02	62.46
194.239	31.74
194.458	7.17
194.678	-41.98
194.897	56.32
195.116	23.55
195.335	89.09
195.555	27.65
195.774	66.56
195.993	58.37
196.212	19.46
196.432	13.31
196.651	-35.84
196.87	52.22
197.089	107.52
197.308	25.6
197.528	56.32
197.747	-23.55
197.966	33.79
198.185	29.7
198.404	23.55
198.623	3.07
198.842	64.51
199.062	7.17
199.281	70.65
199.5	-29.7
199.719	39.94
199.938	33.79
200.157	91.13
200.376	17.41
200.595	54.27
200.814	76.8
201.033	44.03
201.252	56.32
201.471	23.55
201.69	50.18
201.909	33.79
202.128	35.84
202.347	23.55
202.566	-7.17
202.785	-13.31
203.004	-9.22
203.223	97.28
203.442	64.51
203.661	7.17
203.879	-7.17
204.098	72.7
204.317	29.7
204.536	7.17
204.755	52.22
204.974	39.94
205.193	105.47
205.411	91.13
205.63	33.79
205.849	11.26
206.068	33.79
206.287	15.36
206.505	15.36
206.724	15.36
206.943	58.37
207.162	11.26
207.381	107.52
207.599	9.22
207.818	-1.02
208.037	-13.31
208.255	87.04
208.474	-39.94
208.693	-5.12
208.911	9.22
209.13	84.99
209.349	-17.41
209.567	-25.6
209.786	99.33
210.005	76.8
210.223	48.13
210.442	-7.17
210.661	54.27
210.879	-15.36
211.098	64.51
211.316	15.36
211.535	54.27
211.753	76.8
211.972	72.7
212.191	48.13
212.409	-23.55
212.628	17.41
212.846	46.08
213.065	-5.12
213.283	31.74
213.502	27.65
213.72	23.55
213.938	1.02
214.157	-1.02
214.375	17.41
214.594	70.65
214.812	44.03
215.031	107.52
215.249	-11.26
215.467	48.13
215.686	87.04
215.904	39.94
216.122	-5.12
216.341	33.79
216.559	-11.26
216.778	142.33
216.996	142.33
217.214	105.47
217.432	27.65
217.651	33.79
217.869	52.22
218.087	52.22
218.306	27.65
218.524	44.03
218.742	48.13
218.96	84.99
219.179	82.94
219.397	107.52
219.615	140.29
219.833	72.7
220.051	31.74
220.27	58.37
220.488	39.94
220.706	52.22
220.924	-15.36
221.142	-31.74
221.36	84.99
221.578	17.41
221.796	-13.31
222.015	95.23
222.233	39.94
222.451	97.28
222.669	-29.7
222.887	113.66
223.105	97.28
223.323	17.41
223.541	-7.17
223.759	21.5
223.977	50.18
224.195	-17.41
224.413	-5.12
224.631	-13.31
224.849	41.98
225.067	78.85
225.285	13.31
225.503	15.36
225.721	13.31
225.939	23.55
226.157	23.55
226.375	93.18
226.592	13.31
226.81	52.22
227.028	9.22
227.246	138.24
227.464	-9.22
227.682	3.07
227.9	23.55
228.117	19.46
228.335	39.94
228.553	13.31
228.771	58.37
228.989	74.75
229.206	76.8
229.424	17.41
229.642	37.89
229.86	11.26
230.077	46.08
230.295	19.46
230.513	95.23
230.731	70.65
230.948	56.32
231.166	68.61
231.384	-13.31
231.601	-3.07
231.819	115.71
232.037	72.7
232.254	-7.17
232.472	50.18
232.689	-5.12
232.907	23.55
233.125	15.36
233.342	82.94
233.56	-66.56
233.777	41.98
233.995	-13.31
234.213	72.7
234.43	21.5
234.648	39.94
234.865	-1.02
235.083	35.84
235.3	-68.61
235.518	84.99
235.735	-29.7
235.953	41.98
236.17	25.6
236.388	-15.36
236.605	-33.79
236.822	-9.22
237.04	130.05
237.257	-5.12
237.475	25.6
237.692	82.94
237.909	37.89
238.127	11.26
238.344	56.32
238.562	52.22
238.779	-33.79
238.996	72.7
239.214	41.98
239.431	64.51
239.648	31.74
239.865	15.36
240.083	-15.36
240.3	-29.7
240.517	60.42
240.735	3.07
240.952	23.55
241.169	64.51
241.386	-7.17
241.603	64.51
241.821	-23.55
242.038	74.75
242.255	56.32
242.472	-25.6
242.689	56.32
242.907	64.51
243.124	-15.36
243.341	-23.55
243.558	35.84
243.775	5.12
243.992	48.13
244.209	1.02
244.426	97.28
244.643	33.79
244.86	87.04
245.078	25.6
245.295	39.94
245.512	74.75
245.729	101.37
245.946	-1.02
246.163	84.99
246.38	11.26
246.597	58.37
246.814	37.89
247.031	-5.12
247.248	19.46
247.464	35.84
247.681	23.55
247.898	11.26
248.115	-15.36
248.332	-25.6
248.549	9.22
248.766	103.42
248.983	84.99
249.2	48.13
249.417	123.9
249.633	39.94
249.85	48.13
250.067	68.61
250.284	15.36
250.501	35.84
250.717	33.79
250.934	-13.31
251.151	11.26
251.368	68.61
251.585	80.89
251.801	50.18
252.018	37.89
252.235	27.65
252.451	56.32
252.668	39.94
252.885	23.55
253.102	35.84
253.318	-9.22
253.535	64.51
253.752	9.22
253.968	68.61
254.185	-3.07
254.401	27.65
254.618	60.42
254.835	15.36
255.051	72.7
255.268	62.46
255.484	39.94
255.701	15.36
255.917	56.32
256.134	-46.08
256.351	64.51
256.567	44.03
256.784	-11.26
257	-3.07
257.217	-9.22
257.433	72.7
257.65	70.65
257.866	89.09
258.082	-62.46
258.299	-1.02
258.515	48.13
258.732	31.74
258.948	33.79
259.165	19.46
259.381	-5.12
259.597	-11.26
259.814	80.89
260.03	25.6
260.246	9.22
260.463	-1.02
260.679	50.18
260.895	39.94
261.112	89.09
261.328	48.13
261.544	33.79
261.761	58.37
261.977	72.7
262.193	5.12
262.409	-9.22
262.626	56.32
262.842	15.36
263.058	19.46
263.274	44.03
263.49	64.51
263.707	54.27
263.923	25.6
264.139	35.84
264.355	-13.31
264.571	64.51
264.787	44.03
265.004	58.37
265.22	31.74
265.436	64.51
265.652	-9.22
265.868	64.51
266.084	15.36
266.3	58.37
266.516	54.27
266.732	15.36
266.948	11.26
267.164	48.13
267.38	56.32
267.596	58.37
267.812	82.94
268.028	39.94
268.244	17.41
268.46	-41.98
268.676	91.13
268.892	56.32
269.108	3.07
269.324	-48.13
269.54	-48.13
269.756	9.22
269.972	58.37
270.188	97.28
270.403	-66.56
270.619	-11.26
270.835	27.65
271.051	-1.02
271.267	23.55
271.483	56.32
271.698	39.94
271.914	130.05
272.13	60.42
272.346	80.89
272.562	25.6
272.777	84.99
272.993	-41.98
273.209	3.07
273.425	70.65
273.64	17.41
273.856	39.94
274.072	56.32
274.287	21.5
274.503	3.07
274.719	64.51
274.934	35.84
275.15	1.02
275.366	41.98
275.581	-15.36
275.797	107.52
276.012	-50.18
276.228	56.32
276.444	66.56
276.659	82.94
276.875	-33.79
277.09	-25.6
277.306	48.13
277.521	72.7
277.737	-25.6
277.952	134.14
278.168	15.36
278.383	64.51
278.599	25.6
278.814	52.22
279.03	72.7
279.245	60.42
279.461	50.18
279.676	15.36
279.892	58.37
280.107	-5.12
280.322	48.13
280.538	82.94
280.753	50.18
280.969	33.79
281.184	-5.12
281.399	33.79
281.615	72.7
281.83	-1.02
282.045	-41.98
282.26	-23.55
282.476	-1.02
282.691	7.17
282.906	33.79
283.122	58.37
283.337	44.03
283.552	-25.6
283.767	-17.41
283.983	46.08
284.198	-3.07
284.413	-9.22
284.628	-15.36
284.843	21.5
285.058	39.94
285.274	64.51
285.489	-17.41
285.704	-31.74
285.919	9.22
286.134	27.65
286.349	-9.22
286.564	44.03
286.779	74.75
286.995	17.41
287.21	15.36
287.425	101.37
287.64	44.03
287.855	58.37
288.07	-50.18
288.285	74.75
288.5	17.41
288.715	99.33
288.93	27.65
289.145	72.7
289.36	105.47
289.575	37.89
289.79	-7.17
290.004	41.98
290.219	-7.17
290.434	1.02
290.649	39.94
290.864	7.17
291.079	21.5
291.294	11.26
291.509	-78.85
291.724	-7.17
291.938	21.5
292.153	41.98
292.368	60.42
292.583	48.13
292.798	48.13
293.012	66.56
293.227	-13.31
293.442	33.79
293.657	144.38
293.871	109.57
294.086	80.89
294.301	113.66
294.516	123.9
294.73	60.42
294.945	3.07
295.16	33.79
295.374	15.36
295.589	82.94
295.804	23.55
296.018	15.36
296.233	109.57
296.447	48.13
296.662	23.55
296.877	82.94
297.091	58.37
297.306	-68.61
297.52	-5.12
297.735	113.66
297.949	9.22
298.164	41.98
298.378	-15.36
298.593	68.61
298.807	33.79
299.022	97.28
299.236	82.94
299.451	-1.02
299.665	-9.22
299.88	76.8
300.094	9.22
300.309	134.14
300.523	-13.31
300.737	29.7
300.952	31.74
301.166	7.17
301.381	66.56
301.595	93.18
301.809	64.51
302.024	-9.22
302.238	-7.17
302.452	48.13
302.667	103.42
302.881	52.22
303.095	25.6
303.309	91.13
303.524	50.18
303.738	29.7
303.952	-70.65
304.166	105.47
304.381	7.17
304.595	82.94
304.809	48.13
305.023	39.94
305.237	74.75
305.452	31.74
305.666	23.55
305.88	27.65
306.094	80.89
306.308	78.85
306.522	66.56
306.736	87.04
306.95	60.42
307.164	105.47
307.379	52.22
307.593	39.94
307.807	52.22
308.021	31.74
308.235	-33.79
308.449	15.36
308.663	7.17
308.877	56.32
309.091	109.57
309.305	68.61
309.519	-15.36
309.733	-23.55
309.947	7.17
310.161	89.09
310.374	3.07
310.588	-3.07
310.802	7.17
311.016	50.18
311.23	35.84
311.444	41.98
311.658	80.89
311.872	87.04
312.085	93.18
312.299	99.33
312.513	-7.17
312.727	54.27
312.941	15.36
313.154	31.74
313.368	35.84
313.582	93.18
313.796	89.09
314.009	50.18
314.223	117.76
314.437	72.7
314.651	72.7
314.864	5.12
315.078	48.13
315.292	-19.46
315.505	35.84
315.719	15.36
315.933	80.89
316.146	23.55
316.36	35.84
316.573	56.32
316.787	-9.22
317.001	64.51
317.214	27.65
317.428	80.89
317.641	56.32
317.855	15.36
318.068	15.36
318.282	50.18
318.495	25.6
318.709	66.56
318.922	29.7
319.136	52.22
319.349	-3.07
319.563	140.29
319.776	66.56
319.99	93.18
320.203	17.41
320.417	91.13
320.63	74.75
320.843	56.32
321.057	39.94
321.27	97.28
321.483	91.13
321.697	130.05
321.91	7.17
322.124	99.33
322.337	31.74
322.55	41.98
322.763	3.07
322.977	-9.22
323.19	-31.74
323.403	66.56
323.617	-21.5
323.83	99.33
324.043	1.02
324.256	48.13
324.469	-21.5
324.683	-5.12
324.896	33.79
325.109	31.74
325.322	27.65
325.535	97.28
325.748	33.79
325.962	41.98
326.175	35.84
326.388	31.74
326.601	35.84
326.814	41.98
327.027	7.17
327.24	76.8
327.453	31.74
327.666	80.89
327.879	31.74
328.092	82.94
328.305	41.98
328.518	3.07
328.731	48.13
328.944	107.52
329.157	60.42
329.37	109.57
329.583	87.04
329.796	31.74
330.009	-50.18
330.222	52.22
330.435	48.13
330.648	21.5
330.861	31.74
331.073	68.61
331.286	87.04
331.499	74.75
331.712	17.41
331.925	17.41
332.138	15.36
332.35	64.51
332.563	44.03
332.776	97.28
332.989	17.41
333.202	33.79
333.414	113.66
333.627	1.02
333.84	66.56
334.053	52.22
334.265	-19.46
334.478	11.26
334.691	23.55
334.903	-39.94
335.116	27.65
335.329	-5.12
335.541	44.03
335.754	56.32
335.966	41.98
336.179	58.37
336.392	58.37
336.604	-54.27
336.817	50.18
337.029	11.26
337.242	5.12
337.454	15.36
337.667	23.55
337.88	80.89
338.092	134.14
338.305	9.22
338.517	17.41
338.729	84.99
338.942	35.84
339.154	19.46
339.367	41.98
339.579	68.61
339.792	-9.22
340.004	78.85
340.217	15.36
340.429	74.75
340.641	31.74
340.854	84.99
341.066	87.04
341.278	11.26
341.491	130.05
341.703	117.76
341.915	9.22
342.128	50.18
342.34	62.46
342.552	60.42
342.764	-13.31
342.977	31.74
343.189	-35.84
343.401	58.37
343.613	25.6
343.826	56.32
344.038	5.12
344.25	56.32
344.462	9.22
344.674	58.37
344.886	46.08
345.099	11.26
345.311	93.18
345.523	31.74
345.735	64.51
345.947	72.7
346.159	-23.55
346.371	80.89
346.583	39.94
346.795	68.61
347.007	52.22
347.219	66.56
347.431	54.27
347.643	44.03
347.855	9.22
348.067	52.22
348.279	-1.02
348.491	11.26
348.703	39.94
348.915	31.74
349.127	56.32
349.339	78.85
349.551	46.08
349.763	39.94
349.975	27.65
350.187	-5.12
350.399	44.03
350.61	7.17
350.822	89.09
351.034	115.71
351.246	29.7
351.458	-31.74
351.669	23.55
351.881	89.09
352.093	17.41
352.305	64.51
352.517	56.32
352.728	91.13
352.94	-58.37
353.152	25.6
353.363	50.18
353.575	99.33
353.787	76.8
353.999	11.26
354.21	17.41
354.422	33.79
354.633	105.47
354.845	56.32
355.057	48.13
355.268	44.03
355.48	37.89
355.692	41.98
355.903	46.08
356.115	-7.17
356.326	-9.22
356.538	68.61
356.749	76.8
356.961	64.51
357.172	31.74
357.384	41.98
357.595	80.89
357.807	91.13
358.018	44.03
358.23	60.42
358.441	91.13
358.653	27.65
358.864	113.66
359.075	23.55
359.287	41.98
359.498	130.05
359.709	-9.22
359.921	62.46
360.132	15.36
360.344	109.57
360.555	-29.7
360.766	48.13
360.977	19.46
361.189	113.66
361.4	56.32
361.611	-25.6
361.823	33.79
362.034	72.7
362.245	44.03
362.456	-17.41
362.667	107.52
362.879	56.32
363.09	62.46
363.301	44.03
363.512	23.55
363.723	7.17
363.935	48.13
364.146	82.94
364.357	-15.36
364.568	76.8
364.779	-41.98
364.99	46.08
365.201	25.6
365.412	164.86
365.623	93.18
365.834	54.27
366.045	62.46
366.256	64.51
366.467	46.08
366.678	-9.22
366.889	56.32
367.1	91.13
367.311	56.32
367.522	-7.17
367.733	33.79
367.944	23.55
368.155	132.09
368.366	25.6
368.577	7.17
368.788	-7.17
368.999	46.08
369.209	46.08
369.42	31.74
369.631	109.57
369.842	64.51
370.053	15.36
370.264	50.18
370.474	39.94
370.685	27.65
370.896	-5.12
371.107	68.61
371.317	39.94
371.528	-15.36
371.739	89.09
371.95	68.61
372.16	41.98
372.371	33.79
372.582	33.79
372.792	7.17
373.003	130.05
373.214	-5.12
373.424	68.61
373.635	15.36
373.846	25.6
374.056	44.03
374.267	23.55
374.477	76.8
374.688	27.65
374.898	35.84
375.109	84.99
375.319	15.36
375.53	60.42
375.74	31.74
375.951	72.7
376.161	80.89
376.372	128
376.582	15.36
376.793	72.7
377.003	17.41
377.214	-1.02
377.424	48.13
377.635	113.66
377.845	-25.6
378.055	33.79
378.266	29.7
378.476	17.41
378.686	97.28
378.897	-17.41
379.107	25.6
379.317	-1.02
379.528	52.22
379.738	115.71
379.948	-7.17
380.158	27.65
380.369	72.7
380.579	29.7
380.789	-1.02
380.999	66.56
381.21	56.32
381.42	27.65
381.63	19.46
381.84	25.6
382.05	39.94
382.261	68.61
382.471	50.18
382.681	-1.02
382.891	56.32
383.101	48.13
383.311	31.74
383.521	89.09
383.731	48.13
383.941	138.24
384.151	-37.89
384.361	64.51
384.571	56.32
384.781	23.55
384.991	37.89
385.201	80.89
385.411	74.75
385.621	97.28
385.831	39.94
386.041	72.7
386.251	123.9
386.461	113.66
386.671	27.65
386.881	62.46
387.091	76.8
387.301	128
387.511	33.79
387.72	152.57
387.93	72.7
388.14	-21.5
388.35	39.94
388.56	41.98
388.769	105.47
388.979	87.04
389.189	-7.17
389.399	62.46
389.609	91.13
389.818	93.18
390.028	44.03
390.238	44.03
390.447	19.46
390.657	64.51
390.867	27.65
391.076	44.03
391.286	39.94
391.496	31.74
391.705	80.89
391.915	48.13
392.125	31.74
392.334	44.03
392.544	80.89
392.753	-31.74
392.963	39.94
393.172	7.17
393.382	25.6
393.591	23.55
393.801	66.56
394.01	140.29
394.22	93.18
394.429	-39.94
394.639	35.84
394.848	89.09
395.058	84.99
395.267	48.13
395.477	41.98
395.686	39.94
395.895	130.05
396.105	117.76
396.314	23.55
396.524	23.55
396.733	101.37
396.942	140.29
397.152	125.95
397.361	101.37
397.57	113.66
397.78	68.61
397.989	27.65
398.198	191.49
398.407	62.46
398.617	48.13
398.826	39.94
399.035	52.22
399.244	9.22
399.453	117.76
399.663	82.94
399.872	130.05
400.081	-1.02
400.29	228.35
400.499	113.66
400.708	74.75
400.917	130.05
401.127	91.13
401.336	154.62
401.545	130.05
401.754	80.89
401.963	146.43
402.172	46.08
402.381	99.33
402.59	93.18
402.799	113.66
403.008	136.19
403.217	162.81
403.426	80.89
403.635	64.51
403.844	64.51
404.053	158.72
404.262	1.02
404.471	123.9
404.68	80.89
404.888	103.42
405.097	89.09
405.306	89.09
405.515	113.66
405.724	121.85
405.933	175.1
406.142	138.24
406.35	154.62
406.559	64.51
406.768	132.09
406.977	89.09
407.185	146.43
407.394	177.15
407.603	117.76
407.812	113.66
408.02	228.35
408.229	171.01
408.438	99.33
408.646	164.86
408.855	246.78
409.064	142.33
409.272	179.2
409.481	240.64
409.69	191.49
409.898	205.82
410.107	216.06
410.315	261.12
410.524	207.87
410.733	269.31
410.941	248.83
411.15	216.06
411.358	343.03
411.567	310.27
411.775	291.84
411.984	310.27
412.192	283.64
412.401	171.01
412.609	367.61
412.818	371.71
413.026	353.27
413.234	365.56
413.443	400.38
413.651	437.24
413.86	400.38
414.068	465.91
414.276	388.09
414.485	383.99
414.693	564.22
414.901	506.87
415.11	420.86
415.318	478.2
415.526	556.02
415.734	580.6
415.943	556.02
416.151	678.9
416.359	558.07
416.567	639.99
416.776	695.29
416.984	695.29
417.192	721.91
417.4	713.72
417.608	664.57
417.817	750.58
418.025	871.41
418.233	885.75
418.441	842.74
418.649	744.44
418.857	855.03
419.065	900.08
419.273	875.51
419.481	1000.43
419.689	945.14
419.897	1006.58
420.105	973.81
420.313	1055.73
420.521	1137.65
420.729	1166.32
420.937	1096.69
421.145	1186.8
421.353	1336.3
421.561	1385.45
421.769	1350.64
421.977	1395.69
422.185	1321.96
422.393	1547.24
422.601	1647.59
422.809	1645.54
423.017	1539.05
423.224	1670.12
423.432	1694.69
423.64	1631.21
423.848	1858.53
424.056	1784.8
424.263	1952.74
424.471	1887.2
424.679	1944.55
424.887	2216.93
425.094	2194.4
425.302	2239.45
425.51	2194.4
425.718	2329.56
425.925	2280.41
426.133	2374.62
426.341	2560.98
426.548	2642.9
426.756	2624.47
426.964	2790.36
427.171	2784.21
427.379	2862.04
427.586	3097.55
427.794	3046.35
428.001	3152.85
428.209	3320.78
428.417	3222.48
428.624	3570.63
428.832	3566.54
429.039	3406.8
429.247	3472.33
429.454	3779.53
429.662	4172.74
429.869	3834.82
430.076	4131.78
430.284	3931.08
430.491	4197.31
430.699	4492.22
430.906	4479.93
431.114	4393.92
431.321	4637.63
431.528	4717.5
431.736	5088.18
431.943	5127.09
432.15	5082.03
432.358	5047.22
432.565	5258.16
432.772	5411.76
432.979	5718.95
433.187	5571.5
433.394	5835.69
433.601	6079.4
433.808	6071.2
434.016	5972.9
434.223	6482.85
434.43	6749.08
434.637	6480.8
434.844	7099.28
435.052	7242.64
435.259	7269.27
435.466	7363.47
435.673	7148.43
435.88	7539.6
436.087	7879.56
436.294	8008.58
436.501	7953.29
436.708	8010.63
436.915	8158.08
437.122	8516.48
437.329	8524.67
437.537	8729.47
437.743	8985.46
437.95	8938.36
438.157	9231.22
438.364	9485.17
438.571	9575.28
438.778	9694.06
438.985	10554.21
439.192	10236.77
439.399	10586.97
439.606	10208.1
439.813	10855.26
440.02	11471.7
440.227	11330.39
440.433	10955.61
440.64	11383.63
440.847	11406.16
441.054	11639.63
441.261	12350.28
441.467	12262.21
441.674	12409.67
441.881	13093.69
442.088	13069.11
442.294	12843.84
442.501	13278.01
442.708	13378.36
442.914	14140.2
443.121	14836.51
443.328	14207.78
443.534	15069.98
443.741	14664.48
443.948	14408.48
444.154	15698.7
444.361	15614.74
444.568	15688.46
444.774	15547.15
444.981	15893.26
445.187	16165.64
445.394	16960.25
445.6	16628.48
445.807	18393.83
446.013	17457.91
446.22	18000.62
446.426	18463.46
446.633	18844.38
446.839	19493.59
447.046	18328.3
447.252	19714.77
447.459	19487.45
447.665	19483.35
447.871	20425.42
448.078	21267.13
448.284	20347.59
448.491	20744.9
448.697	21662.39
448.903	21916.34
449.11	22168.24
449.316	21805.75
449.522	22194.86
449.728	22774.44
449.935	22919.84
450.141	22704.81
450.347	23519.9
450.553	22641.32
450.76	22964.9
450.966	23673.49
451.172	23423.64
451.378	23978.64
451.584	23614.1
451.791	24228.49
451.997	23843.48
452.203	24593.03
452.409	24472.2
452.615	24341.13
452.821	23718.55
453.027	23265.95
453.233	24619.66
453.44	23362.2
453.646	24048.27
453.852	24005.27
454.058	24189.58
454.264	23610.01
454.47	24068.75
454.676	23435.93
454.882	24248.97
455.088	22022.83
455.294	22526.63
455.5	23071.39
455.705	23399.07
455.911	21885.62
456.117	21889.71
456.323	21183.16
456.529	20472.52
456.735	21256.89
456.941	20552.39
457.147	20400.84
457.352	19858.13
457.558	19759.83
457.764	19677.91
457.97	19247.83
458.176	18817.76
458.381	19139.29
458.587	17992.43
458.793	18023.15
458.999	17009.4
459.204	18287.34
459.41	17838.83
459.616	16726.78
459.821	16829.18
460.027	16519.94
460.233	16245.51
460.438	15483.67
460.644	15743.76
460.85	14975.77
461.055	14680.86
461.261	14482.21
461.466	13550.39
461.672	13085.5
461.878	13996.84
462.083	13191.99
462.289	13026.11
462.494	12720.96
462.7	12221.25
462.905	11815.76
463.111	12460.87
463.316	12487.49
463.522	11885.39
463.727	12000.07
463.932	12131.14
464.138	11856.72
464.343	11885.39
464.549	11543.38
464.754	12086.09
464.959	11854.67
465.165	11754.32
465.37	11285.33
465.575	10941.27
465.781	11664.21
465.986	11389.78
466.191	11101.01
466.397	10740.57
466.602	10363.75
466.807	10820.44
467.012	10830.68
467.218	10664.8
467.423	10533.73
467.628	10500.96
467.833	10959.7
468.038	10597.21
