Data from USB4F104151__42__14-42-56-883.txt Node

Date: Thu Mar 13 14:42:56 EDT 2025
User: louis
Spectrometer: USB4F10415
Trigger mode: 4
Integration Time (sec): 2.000000E-2
Scans to average: 1
Electric dark correction enabled: true
Nonlinearity correction enabled: false
Boxcar width: 0
XAxis mode: Wavelengths
Number of Pixels in Spectrum: 3648
>>>>>Begin Spectral Data<<<<<
178.204	-131.75
178.424	-131.75
178.644	-131.75
178.864	-117.42
179.084	-127.66
179.304	-8.87
179.524	17.75
179.744	-27.31
179.964	36.18
180.184	46.42
180.404	-25.26
180.624	-51.88
180.844	15.7
181.064	-17.07
181.283	34.13
181.503	-82.6
181.723	62.8
181.943	-107.18
182.163	56.66
182.383	-37.55
182.602	44.37
182.822	7.51
183.042	-8.87
183.262	3.41
183.482	13.65
183.701	68.95
183.921	40.28
184.141	-53.93
184.361	116.05
184.58	23.89
184.8	64.85
185.02	-33.45
185.239	40.28
185.459	-23.21
185.679	93.52
185.898	-64.17
186.118	89.43
186.338	73.04
186.557	1.37
186.777	1.37
186.997	-29.35
187.216	-33.45
187.436	75.09
187.655	34.13
187.875	1.37
188.095	-17.07
188.314	83.28
188.534	44.37
188.753	-21.16
188.973	161.11
189.192	9.56
189.412	-4.78
189.631	-0.68
189.851	48.47
190.07	50.52
190.29	-45.74
190.509	15.7
190.729	42.32
190.948	118.1
191.168	130.39
191.387	52.56
191.607	-12.97
191.826	25.94
192.045	52.56
192.265	36.18
192.484	-12.97
192.704	-33.45
192.923	56.66
193.142	52.56
193.362	15.7
193.581	19.8
193.8	36.18
194.02	9.56
194.239	-8.87
194.458	130.39
194.678	27.99
194.897	66.9
195.116	23.89
195.335	73.04
195.555	9.56
195.774	7.51
195.993	19.8
196.212	7.51
196.432	15.7
196.651	48.47
196.87	15.7
197.089	97.62
197.308	44.37
197.528	64.85
197.747	42.32
197.966	-0.68
198.185	73.04
198.404	56.66
198.623	56.66
198.842	50.52
199.062	44.37
199.281	60.76
199.5	15.7
199.719	44.37
199.938	40.28
200.157	15.7
200.376	36.18
200.595	9.56
200.814	30.04
201.033	42.32
201.252	64.85
201.471	7.51
201.69	62.8
201.909	42.32
202.128	44.37
202.347	44.37
202.566	73.04
202.785	-6.83
203.004	-12.97
203.223	103.76
203.442	-21.16
203.661	-25.26
203.879	91.48
204.098	64.85
204.317	-49.83
204.536	-33.45
204.755	-21.16
204.974	17.75
205.193	21.84
205.411	52.56
205.63	-25.26
205.849	89.43
206.068	9.56
206.287	75.09
206.505	48.47
206.724	-37.55
206.943	46.42
207.162	-70.31
207.381	-4.78
207.599	79.19
207.818	50.52
208.037	-10.92
208.255	-68.27
208.474	-15.02
208.693	52.56
208.911	-0.68
209.13	52.56
209.349	-15.02
209.567	73.04
209.786	36.18
210.005	56.66
210.223	-43.69
210.442	-25.26
210.661	114
210.879	42.32
211.098	27.99
211.316	3.41
211.535	9.56
211.753	66.9
211.972	21.84
212.191	3.41
212.409	48.47
212.628	58.71
212.846	-6.83
213.065	34.13
213.283	-17.07
213.502	-51.88
213.72	-21.16
213.938	5.46
214.157	-8.87
214.375	128.34
214.594	-6.83
214.812	-41.64
215.031	48.47
215.249	-8.87
215.467	48.47
215.686	44.37
215.904	81.24
216.122	99.67
216.341	126.29
216.559	-15.02
216.778	11.61
216.996	23.89
217.214	36.18
217.432	-29.35
217.651	-8.87
217.869	42.32
218.087	15.7
218.306	95.57
218.524	56.66
218.742	48.47
218.96	-37.55
219.179	68.95
219.397	68.95
219.615	77.14
219.833	56.66
220.051	38.23
220.27	40.28
220.488	68.95
220.706	44.37
220.924	73.04
221.142	40.28
221.36	7.51
221.578	99.67
221.796	-6.83
222.015	-17.07
222.233	-39.59
222.451	40.28
222.669	15.7
222.887	66.9
223.105	-8.87
223.323	-74.41
223.541	-29.35
223.759	44.37
223.977	-33.45
224.195	32.08
224.413	81.24
224.631	146.77
224.849	3.41
225.067	60.76
225.285	40.28
225.503	-39.59
225.721	-12.97
225.939	-6.83
226.157	30.04
226.375	54.61
226.592	11.61
226.81	64.85
227.028	54.61
227.246	66.9
227.464	48.47
227.682	97.62
227.9	79.19
228.117	-12.97
228.335	-6.83
228.553	3.41
228.771	81.24
228.989	75.09
229.206	23.89
229.424	-25.26
229.642	23.89
229.86	-25.26
230.077	46.42
230.295	73.04
230.513	56.66
230.731	64.85
230.948	27.99
231.166	73.04
231.384	17.75
231.601	56.66
231.819	58.71
232.037	-49.83
232.254	-0.68
232.472	-23.21
232.689	68.95
232.907	17.75
233.125	1.37
233.342	30.04
233.56	56.66
233.777	-12.97
233.995	44.37
234.213	62.8
234.43	-25.26
234.648	97.62
234.865	5.46
235.083	89.43
235.3	48.47
235.518	126.29
235.735	122.2
235.953	27.99
236.17	46.42
236.388	58.71
236.605	48.47
236.822	64.85
237.04	36.18
237.257	97.62
237.475	32.08
237.692	52.56
237.909	58.71
238.127	-8.87
238.344	32.08
238.562	64.85
238.779	36.18
238.996	32.08
239.214	-8.87
239.431	146.77
239.648	15.7
239.865	23.89
240.083	130.39
240.3	40.28
240.517	-6.83
240.735	23.89
240.952	23.89
241.169	40.28
241.386	34.13
241.603	48.47
241.821	27.99
242.038	81.24
242.255	75.09
242.472	-35.5
242.689	19.8
242.907	77.14
243.124	34.13
243.341	34.13
243.558	40.28
243.775	-33.45
243.992	9.56
244.209	27.99
244.426	64.85
244.643	64.85
244.86	1.37
245.078	36.18
245.295	21.84
245.512	15.7
245.729	-8.87
245.946	-0.68
246.163	-29.35
246.38	19.8
246.597	44.37
246.814	-25.26
247.031	-0.68
247.248	56.66
247.464	34.13
247.681	-37.55
247.898	40.28
248.115	23.89
248.332	-39.59
248.549	154.96
248.766	36.18
248.983	60.76
249.2	79.19
249.417	83.28
249.633	13.65
249.85	7.51
250.067	27.99
250.284	60.76
250.501	40.28
250.717	40.28
250.934	15.7
251.151	40.28
251.368	-8.87
251.585	-31.4
251.801	-6.83
252.018	-12.97
252.235	101.72
252.451	-31.4
252.668	-19.11
252.885	64.85
253.102	48.47
253.318	118.1
253.535	27.99
253.752	25.94
253.968	122.2
254.185	52.56
254.401	60.76
254.618	-23.21
254.835	-25.26
255.051	60.76
255.268	114
255.484	42.32
255.701	21.84
255.917	21.84
256.134	-31.4
256.351	107.86
256.567	105.81
256.784	79.19
257	17.75
257.217	23.89
257.433	-47.79
257.65	68.95
257.866	48.47
258.082	50.52
258.299	15.7
258.515	23.89
258.732	97.62
258.948	-17.07
259.165	-10.92
259.381	32.08
259.597	-12.97
259.814	15.7
260.03	3.41
260.246	64.85
260.463	89.43
260.679	83.28
260.895	23.89
261.112	-31.4
261.328	89.43
261.544	36.18
261.761	44.37
261.977	-49.83
262.193	42.32
262.409	40.28
262.626	60.76
262.842	50.52
263.058	-64.17
263.274	73.04
263.49	48.47
263.707	85.33
263.923	87.38
264.139	50.52
264.355	19.8
264.571	64.85
264.787	-8.87
265.004	52.56
265.22	54.61
265.436	40.28
265.652	36.18
265.868	-31.4
266.084	-15.02
266.3	-12.97
266.516	23.89
266.732	15.7
266.948	9.56
267.164	73.04
267.38	50.52
267.596	-17.07
267.812	75.09
268.028	58.71
268.244	32.08
268.46	15.7
268.676	52.56
268.892	93.52
269.108	42.32
269.324	-12.97
269.54	60.76
269.756	-8.87
269.972	19.8
270.188	-2.73
270.403	-12.97
270.619	3.41
270.835	42.32
271.051	25.94
271.267	-12.97
271.483	-0.68
271.698	87.38
271.914	105.81
272.13	7.51
272.346	48.47
272.562	34.13
272.777	-2.73
272.993	64.85
273.209	-17.07
273.425	19.8
273.64	48.47
273.856	105.81
274.072	56.66
274.287	-39.59
274.503	79.19
274.719	23.89
274.934	48.47
275.15	21.84
275.366	107.86
275.581	-17.07
275.797	48.47
276.012	77.14
276.228	-25.26
276.444	64.85
276.659	130.39
276.875	-4.78
277.09	17.75
277.306	-0.68
277.521	81.24
277.737	23.89
277.952	40.28
278.168	48.47
278.383	30.04
278.599	58.71
278.814	83.28
279.03	64.85
279.245	105.81
279.461	9.56
279.676	83.28
279.892	19.8
280.107	48.47
280.322	25.94
280.538	48.47
280.753	17.75
280.969	-27.31
281.184	52.56
281.399	58.71
281.615	48.47
281.83	114
282.045	71
282.26	56.66
282.476	52.56
282.691	173.39
282.906	64.85
283.122	50.52
283.337	120.15
283.552	114
283.767	-31.4
283.983	83.28
284.198	30.04
284.413	93.52
284.628	-0.68
284.843	42.32
285.058	97.62
285.274	36.18
285.489	73.04
285.704	99.67
285.919	-2.73
286.134	34.13
286.349	-6.83
286.564	58.71
286.779	140.63
286.995	54.61
287.21	-21.16
287.425	52.56
287.64	40.28
287.855	42.32
288.07	66.9
288.285	34.13
288.5	56.66
288.715	89.43
288.93	50.52
289.145	-6.83
289.36	27.99
289.575	-45.74
289.79	87.38
290.004	3.41
290.219	-19.11
290.434	68.95
290.649	-45.74
290.864	56.66
291.079	48.47
291.294	60.76
291.509	1.37
291.724	58.71
291.938	-41.64
292.153	40.28
292.368	7.51
292.583	-33.45
292.798	77.14
293.012	56.66
293.227	64.85
293.442	-0.68
293.657	114
293.871	114
294.086	56.66
294.301	66.9
294.516	27.99
294.73	66.9
294.945	83.28
295.16	40.28
295.374	54.61
295.589	50.52
295.804	-27.31
296.018	52.56
296.233	89.43
296.447	109.91
296.662	3.41
296.877	64.85
297.091	138.58
297.306	13.65
297.52	11.61
297.735	56.66
297.949	36.18
298.164	71
298.378	32.08
298.593	56.66
298.807	46.42
299.022	34.13
299.236	64.85
299.451	-6.83
299.665	-31.4
299.88	5.46
300.094	60.76
300.309	105.81
300.523	-27.31
300.737	27.99
300.952	-0.68
301.166	48.47
301.381	13.65
301.595	32.08
301.809	73.04
302.024	66.9
302.238	79.19
302.452	73.04
302.667	15.7
302.881	99.67
303.095	109.91
303.309	30.04
303.524	3.41
303.738	40.28
303.952	9.56
304.166	25.94
304.381	-8.87
304.595	105.81
304.809	-82.6
305.023	83.28
305.237	15.7
305.452	23.89
305.666	58.71
305.88	71
306.094	15.7
306.308	32.08
306.522	64.85
306.736	77.14
306.95	-8.87
307.164	-6.83
307.379	-39.59
307.593	62.8
307.807	11.61
308.021	105.81
308.235	105.81
308.449	44.37
308.663	44.37
308.877	58.71
309.091	27.99
309.305	36.18
309.519	42.32
309.733	27.99
309.947	-80.55
310.161	15.7
310.374	89.43
310.588	85.33
310.802	15.7
311.016	1.37
311.23	99.67
311.444	58.71
311.658	-0.68
311.872	89.43
312.085	66.9
312.299	60.76
312.513	17.75
312.727	32.08
312.941	56.66
313.154	-8.87
313.368	142.68
313.582	25.94
313.796	95.57
314.009	1.37
314.223	77.14
314.437	32.08
314.651	27.99
314.864	7.51
315.078	21.84
315.292	15.7
315.505	-49.83
315.719	42.32
315.933	17.75
316.146	19.8
316.36	23.89
316.573	81.24
316.787	40.28
317.001	9.56
317.214	-78.51
317.428	75.09
317.641	-15.02
317.855	58.71
318.068	48.47
318.282	85.33
318.495	132.44
318.709	44.37
318.922	60.76
319.136	58.71
319.349	17.75
319.563	97.62
319.776	58.71
319.99	15.7
320.203	48.47
320.417	3.41
320.63	15.7
320.843	101.72
321.057	32.08
321.27	52.56
321.483	36.18
321.697	56.66
321.91	93.52
322.124	64.85
322.337	89.43
322.55	44.37
322.763	60.76
322.977	27.99
323.19	-98.99
323.403	83.28
323.617	77.14
323.83	17.75
324.043	32.08
324.256	40.28
324.469	23.89
324.683	71
324.896	64.85
325.109	-31.4
325.322	-29.35
325.535	48.47
325.748	95.57
325.962	15.7
326.175	32.08
326.388	58.71
326.601	91.48
326.814	56.66
327.027	77.14
327.24	87.38
327.453	-12.97
327.666	17.75
327.879	-0.68
328.092	32.08
328.305	32.08
328.518	25.94
328.731	56.66
328.944	40.28
329.157	64.85
329.37	3.41
329.583	99.67
329.796	32.08
330.009	66.9
330.222	7.51
330.435	-2.73
330.648	21.84
330.861	23.89
331.073	99.67
331.286	56.66
331.499	81.24
331.712	-4.78
331.925	-4.78
332.138	48.47
332.35	87.38
332.563	-10.92
332.776	75.09
332.989	-19.11
333.202	48.47
333.414	46.42
333.627	81.24
333.84	23.89
334.053	-17.07
334.265	77.14
334.478	44.37
334.691	1.37
334.903	32.08
335.116	19.8
335.329	75.09
335.541	64.85
335.754	169.3
335.966	-53.93
336.179	75.09
336.392	40.28
336.604	42.32
336.817	25.94
337.029	81.24
337.242	64.85
337.454	122.2
337.667	44.37
337.88	140.63
338.092	97.62
338.305	56.66
338.517	-31.4
338.729	128.34
338.942	77.14
339.154	42.32
339.367	81.24
339.579	11.61
339.792	19.8
340.004	101.72
340.217	75.09
340.429	75.09
340.641	54.61
340.854	34.13
341.066	73.04
341.278	132.44
341.491	93.52
341.703	95.57
341.915	-0.68
342.128	130.39
342.34	42.32
342.552	56.66
342.764	23.89
342.977	-2.73
343.189	140.63
343.401	62.8
343.613	38.23
343.826	73.04
344.038	99.67
344.25	42.32
344.462	66.9
344.674	42.32
344.886	-2.73
345.099	62.8
345.311	105.81
345.523	114
345.735	17.75
345.947	105.81
346.159	79.19
346.371	54.61
346.583	-25.26
346.795	124.24
347.007	52.56
347.219	32.08
347.431	83.28
347.643	105.81
347.855	91.48
348.067	101.72
348.279	73.04
348.491	73.04
348.703	-10.92
348.915	17.75
349.127	15.7
349.339	52.56
349.551	9.56
349.763	75.09
349.975	17.75
350.187	83.28
350.399	54.61
350.61	48.47
350.822	48.47
351.034	126.29
351.246	46.42
351.458	122.2
351.669	-8.87
351.881	40.28
352.093	111.96
352.305	66.9
352.517	-10.92
352.728	171.35
352.94	17.75
353.152	75.09
353.363	40.28
353.575	7.51
353.787	40.28
353.999	114
354.21	66.9
354.422	23.89
354.633	114
354.845	48.47
355.057	-4.78
355.268	58.71
355.48	73.04
355.692	32.08
355.903	23.89
356.115	-8.87
356.326	-2.73
356.538	140.63
356.749	30.04
356.961	48.47
357.172	64.85
357.384	-58.03
357.595	111.96
357.807	73.04
358.018	52.56
358.23	7.51
358.441	81.24
358.653	42.32
358.864	56.66
359.075	-17.07
359.287	27.99
359.498	89.43
359.709	114
359.921	17.75
360.132	38.23
360.344	48.47
360.555	23.89
360.766	114
360.977	5.46
361.189	128.34
361.4	56.66
361.611	81.24
361.823	-21.16
362.034	15.7
362.245	-19.11
362.456	83.28
362.667	44.37
362.879	9.56
363.09	64.85
363.301	71
363.512	85.33
363.723	34.13
363.935	27.99
364.146	81.24
364.357	-19.11
364.568	23.89
364.779	68.95
364.99	66.9
365.201	136.53
365.412	93.52
365.623	42.32
365.834	40.28
366.045	73.04
366.256	50.52
366.467	15.7
366.678	1.37
366.889	109.91
367.1	9.56
367.311	58.71
367.522	36.18
367.733	97.62
367.944	85.33
368.155	23.89
368.366	114
368.577	87.38
368.788	77.14
368.999	40.28
369.209	-15.02
369.42	19.8
369.631	173.39
369.842	56.66
370.053	11.61
370.264	107.86
370.474	77.14
370.685	-6.83
370.896	95.57
371.107	93.52
371.317	118.1
371.528	7.51
371.739	97.62
371.95	32.08
372.16	89.43
372.371	60.76
372.582	5.46
372.792	66.9
373.003	79.19
373.214	73.04
373.424	85.33
373.635	34.13
373.846	68.95
374.056	79.19
374.267	81.24
374.477	87.38
374.688	64.85
374.898	17.75
375.109	105.81
375.319	50.52
375.53	97.62
375.74	27.99
375.951	27.99
376.161	34.13
376.372	64.85
376.582	48.47
376.793	56.66
377.003	91.48
377.214	27.99
377.424	68.95
377.635	107.86
377.845	27.99
378.055	5.46
378.266	42.32
378.476	87.38
378.686	60.76
378.897	89.43
379.107	23.89
379.317	36.18
379.528	11.61
379.738	68.95
379.948	44.37
380.158	103.76
380.369	50.52
380.579	56.66
380.789	23.89
380.999	40.28
381.21	114
381.42	122.2
381.63	44.37
381.84	64.85
382.05	36.18
382.261	48.47
382.471	46.42
382.681	17.75
382.891	99.67
383.101	73.04
383.311	56.66
383.521	62.8
383.731	21.84
383.941	173.39
384.151	75.09
384.361	58.71
384.571	93.52
384.781	81.24
384.991	83.28
385.201	77.14
385.411	64.85
385.621	9.56
385.831	56.66
386.041	105.81
386.251	23.89
386.461	64.85
386.671	17.75
386.881	36.18
387.091	60.76
387.301	64.85
387.511	97.62
387.72	27.99
387.93	140.63
388.14	32.08
388.35	73.04
388.56	40.28
388.769	122.2
388.979	116.05
389.189	42.32
389.399	97.62
389.609	95.57
389.818	132.44
390.028	-0.68
390.238	91.48
390.447	89.43
390.657	85.33
390.867	126.29
391.076	15.7
391.286	7.51
391.496	34.13
391.705	73.04
391.915	32.08
392.125	130.39
392.334	64.85
392.544	175.44
392.753	87.38
392.963	50.52
393.172	183.63
393.382	97.62
393.591	122.2
393.801	23.89
394.01	62.8
394.22	44.37
394.429	85.33
394.639	64.85
394.848	79.19
395.058	23.89
395.267	56.66
395.477	42.32
395.686	150.87
395.895	56.66
396.105	138.58
396.314	116.05
396.524	146.77
396.733	185.68
396.942	17.75
397.152	157.01
397.361	109.91
397.57	204.11
397.78	7.51
397.989	116.05
398.198	114
398.407	89.43
398.617	114
398.826	167.25
399.035	99.67
399.244	83.28
399.453	68.95
399.663	124.24
399.872	140.63
400.081	60.76
400.29	64.85
400.499	107.86
400.708	138.58
400.917	148.82
401.127	89.43
401.336	71
401.545	204.11
401.754	107.86
401.963	183.63
402.172	23.89
402.381	146.77
402.59	89.43
402.799	89.43
403.008	157.01
403.217	101.72
403.426	220.5
403.635	154.96
403.844	204.11
404.053	114
404.262	122.2
404.471	220.5
404.68	97.62
404.888	177.49
405.097	175.44
405.306	214.35
405.515	228.69
405.724	206.16
405.933	93.52
406.142	197.97
406.35	230.74
406.559	222.55
406.768	269.65
406.977	267.6
407.185	220.5
407.394	261.46
407.603	226.64
407.812	150.87
408.02	228.69
408.229	320.85
408.438	253.27
408.646	286.03
408.855	195.92
409.064	240.98
409.272	322.9
409.481	220.5
409.69	294.22
409.898	322.9
410.107	329.04
410.315	351.57
410.524	300.37
410.733	310.61
410.941	343.38
411.15	351.57
411.358	402.77
411.567	478.54
411.775	372.05
411.984	423.25
412.192	484.69
412.401	496.97
412.609	517.45
412.818	539.98
413.026	576.84
413.234	587.08
413.443	572.75
413.651	558.41
413.86	572.75
414.068	613.71
414.276	507.21
414.485	646.48
414.693	705.87
414.901	720.2
415.11	714.06
415.318	724.3
415.526	773.45
415.734	789.83
415.943	851.27
416.151	853.32
416.359	855.37
416.567	830.79
416.776	916.81
416.984	965.96
417.192	1006.92
417.4	961.86
417.608	1006.92
417.817	1049.93
418.025	1082.69
418.233	1310.02
418.441	1320.26
418.649	1310.02
418.857	1334.59
419.065	1387.84
419.273	1350.98
419.481	1424.7
419.689	1494.33
419.897	1613.12
420.105	1658.17
420.313	1678.65
420.521	1658.17
420.729	1686.84
420.937	1760.57
421.145	1932.6
421.353	1924.41
421.561	2041.14
421.769	2055.48
421.977	2035
422.185	2037.05
422.393	2215.22
422.601	2397.49
422.809	2288.95
423.017	2354.48
423.224	2559.28
423.432	2682.16
423.64	2714.92
423.848	2817.32
424.056	2702.64
424.263	2907.43
424.471	3009.83
424.679	3046.69
424.887	3181.86
425.094	3138.85
425.302	3317.03
425.51	3515.68
425.718	3521.82
425.925	3648.8
426.133	3589.41
426.341	3847.45
426.548	3900.7
426.756	4039.96
426.964	4074.78
427.171	4424.98
427.379	4513.04
427.586	4570.38
427.794	4605.2
428.001	4908.3
428.209	5121.29
428.417	4998.41
428.624	5328.13
428.832	5465.35
429.039	5326.08
429.247	5348.61
429.454	5946.62
429.662	6200.57
429.869	5868.8
430.076	6200.57
430.284	6212.85
430.491	6538.48
430.699	6659.31
430.906	6640.88
431.114	6737.13
431.321	7154.92
431.528	7109.86
431.736	7718.11
431.943	7806.17
432.15	7757.02
432.358	7904.48
432.565	8250.58
432.772	8043.74
432.979	8606.93
433.187	8764.62
433.394	8756.43
433.601	9340.1
433.808	9544.9
434.016	9438.41
434.223	9866.43
434.43	10329.27
434.637	10218.68
434.844	10935.47
435.052	11123.88
435.259	11089.07
435.466	11054.25
435.673	10853.55
435.88	11414.7
436.087	12348.57
436.294	12346.52
436.501	12104.86
436.708	12237.98
436.915	12801.17
437.122	13448.33
437.329	13087.89
437.537	13661.32
437.743	13823.11
437.95	13638.79
438.157	14404.73
438.364	14980.21
438.571	15064.18
438.778	15215.73
438.985	16456.79
439.192	15817.83
439.399	16237.66
439.606	16063.58
439.813	16784.47
440.02	17724.49
440.227	17740.87
440.433	17484.87
440.64	17925.19
440.847	17822.79
441.054	18316.35
441.261	19416.11
441.467	19272.75
441.674	19801.13
441.881	20171.81
442.088	20147.23
442.294	19958.82
442.501	20790.3
442.708	21077.01
442.914	21840.9
443.121	22658.04
443.328	22191.11
443.534	23882.73
443.741	23131.12
443.948	22864.89
444.154	24562.65
444.361	24445.92
444.568	24476.64
444.774	24384.48
444.981	24677.34
445.187	25598.93
445.394	26598.34
445.6	26178.5
445.807	28935.07
446.013	27825.07
446.22	28027.82
446.426	29078.43
446.633	29549.46
446.839	30524.29
447.046	29477.78
447.252	30772.1
447.459	30956.41
447.665	30899.07
447.871	31968.11
448.078	33182.56
448.284	32050.03
448.491	33047.39
448.697	34210.64
448.903	34923.33
449.11	34947.9
449.316	34310.99
449.522	35160.89
449.728	35887.92
449.935	36270.89
450.141	36135.73
450.347	36840.23
450.553	36283.18
450.76	36653.86
450.966	37417.75
451.172	37174.05
451.378	38443.79
451.584	37739.29
451.791	38503.18
451.997	38355.72
452.203	38949.63
452.409	38861.57
452.615	39047.94
452.821	37436.19
453.027	36926.24
453.233	39437.05
453.44	37559.06
453.646	38069.01
453.852	38279.95
454.058	38918.92
454.264	37792.53
454.47	38679.3
454.676	37528.34
454.882	38755.08
455.088	35746.61
455.294	36520.74
455.5	37067.55
455.705	37008.16
455.911	35840.82
456.117	34968.38
456.323	34593.61
456.529	32641.89
456.735	34358.09
456.941	33098.59
457.147	33008.48
457.352	32189.29
457.558	31832.94
457.764	31699.83
457.97	31044.48
458.176	30546.82
458.381	30737.28
458.587	29344.66
458.793	29217.69
458.999	27597.74
459.204	29594.51
459.41	28691.36
459.616	27093.94
459.821	26909.63
460.027	26885.05
460.233	26442.69
460.438	25377.75
460.644	25316.31
460.85	24165.35
461.055	23757.8
461.261	23639.02
461.466	21744.65
461.672	21390.35
461.878	22973.43
462.083	21449.74
462.289	21408.78
462.494	21013.52
462.7	20096.03
462.905	19309.61
463.111	19954.72
463.316	20069.41
463.522	19917.86
463.727	19901.48
463.932	19614.76
464.138	19493.93
464.343	19674.15
464.549	19178.54
464.754	19733.54
464.959	19643.43
465.165	19364.91
465.37	18490.43
465.575	18168.9
465.781	18834.49
465.986	19057.71
466.191	18191.42
466.397	18187.33
466.602	16927.83
466.807	17677.38
467.012	17615.94
467.218	17761.35
467.423	17296.46
467.628	17593.42
