Data from USB4F104151__46__14-43-01-145.txt Node

Date: Thu Mar 13 14:43:01 EDT 2025
User: louis
Spectrometer: USB4F10415
Trigger mode: 4
Integration Time (sec): 2.000000E-2
Scans to average: 1
Electric dark correction enabled: true
Nonlinearity correction enabled: false
Boxcar width: 0
XAxis mode: Wavelengths
Number of Pixels in Spectrum: 3648
>>>>>Begin Spectral Data<<<<<
178.204	-105.13
178.424	-105.13
178.644	-105.13
178.864	-109.23
179.084	-88.75
179.304	-29.35
179.524	-6.83
179.744	-51.88
179.964	75.09
180.184	21.84
180.404	44.37
180.624	-39.59
180.844	5.46
181.064	-47.79
181.283	-4.78
181.503	60.76
181.723	-27.31
181.943	-105.13
182.163	7.51
182.383	-68.27
182.602	-6.83
182.822	71
183.042	-19.11
183.262	13.65
183.482	-62.12
183.701	5.46
183.921	62.8
184.141	-0.68
184.361	23.89
184.58	-6.83
184.8	-23.21
185.02	71
185.239	154.96
185.459	56.66
185.679	107.86
185.898	-10.92
186.118	62.8
186.338	-6.83
186.557	83.28
186.777	-23.21
186.997	-12.97
187.216	-47.79
187.436	48.47
187.655	21.84
187.875	15.7
188.095	13.65
188.314	71
188.534	17.75
188.753	68.95
188.973	71
189.192	32.08
189.412	38.23
189.631	1.37
189.851	42.32
190.07	46.42
190.29	-88.75
190.509	-0.68
190.729	7.51
190.948	34.13
191.168	64.85
191.387	95.57
191.607	5.46
191.826	64.85
192.045	40.28
192.265	-25.26
192.484	-19.11
192.704	62.8
192.923	9.56
193.142	66.9
193.362	38.23
193.581	5.46
193.8	64.85
194.02	79.19
194.239	-27.31
194.458	5.46
194.678	56.66
194.897	46.42
195.116	-49.83
195.335	56.66
195.555	52.56
195.774	58.71
195.993	9.56
196.212	-84.65
196.432	58.71
196.651	-27.31
196.87	-8.87
197.089	81.24
197.308	40.28
197.528	40.28
197.747	-45.74
197.966	15.7
198.185	50.52
198.404	-17.07
198.623	79.19
198.842	68.95
199.062	21.84
199.281	-19.11
199.5	-25.26
199.719	46.42
199.938	42.32
200.157	-17.07
200.376	34.13
200.595	46.42
200.814	-33.45
201.033	34.13
201.252	81.24
201.471	-10.92
201.69	56.66
201.909	-17.07
202.128	17.75
202.347	9.56
202.566	11.61
202.785	56.66
203.004	7.51
203.223	73.04
203.442	-29.35
203.661	5.46
203.879	38.23
204.098	50.52
204.317	-43.69
204.536	79.19
204.755	95.57
204.974	38.23
205.193	-23.21
205.411	75.09
205.63	34.13
205.849	62.8
206.068	79.19
206.287	42.32
206.505	42.32
206.724	-6.83
206.943	-0.68
207.162	-12.97
207.381	58.71
207.599	-29.35
207.818	-33.45
208.037	71
208.255	48.47
208.474	30.04
208.693	111.96
208.911	91.48
209.13	46.42
209.349	30.04
209.567	-10.92
209.786	32.08
210.005	-37.55
210.223	99.67
210.442	7.51
210.661	-10.92
210.879	13.65
211.098	7.51
211.316	11.61
211.535	42.32
211.753	56.66
211.972	-43.69
212.191	-10.92
212.409	7.51
212.628	-8.87
212.846	-45.74
213.065	68.95
213.283	95.57
213.502	62.8
213.72	54.61
213.938	30.04
214.157	62.8
214.375	42.32
214.594	21.84
214.812	-43.69
215.031	25.94
215.249	21.84
215.467	54.61
215.686	81.24
215.904	17.75
216.122	21.84
216.341	32.08
216.559	48.47
216.778	58.71
216.996	-19.11
217.214	30.04
217.432	54.61
217.651	17.75
217.869	9.56
218.087	122.2
218.306	5.46
218.524	-35.5
218.742	-35.5
218.96	52.56
219.179	75.09
219.397	-8.87
219.615	62.8
219.833	50.52
220.051	-31.4
220.27	140.63
220.488	11.61
220.706	27.99
220.924	71
221.142	46.42
221.36	75.09
221.578	17.75
221.796	25.94
222.015	15.7
222.233	-17.07
222.451	46.42
222.669	-27.31
222.887	25.94
223.105	11.61
223.323	1.37
223.541	-35.5
223.759	21.84
223.977	-10.92
224.195	1.37
224.413	-25.26
224.631	38.23
224.849	-17.07
225.067	91.48
225.285	15.7
225.503	19.8
225.721	-49.83
225.939	73.04
226.157	83.28
226.375	83.28
226.592	66.9
226.81	97.62
227.028	-15.02
227.246	21.84
227.464	56.66
227.682	75.09
227.9	23.89
228.117	32.08
228.335	97.62
228.553	58.71
228.771	11.61
228.989	38.23
229.206	-15.02
229.424	105.81
229.642	30.04
229.86	-37.55
230.077	116.05
230.295	30.04
230.513	83.28
230.731	46.42
230.948	62.8
231.166	73.04
231.384	60.76
231.601	-8.87
231.819	13.65
232.037	5.46
232.254	-82.6
232.472	5.46
232.689	56.66
232.907	81.24
233.125	13.65
233.342	9.56
233.56	1.37
233.777	-64.17
233.995	56.66
234.213	99.67
234.43	25.94
234.648	-19.11
234.865	52.56
235.083	48.47
235.3	122.2
235.518	34.13
235.735	87.38
235.953	13.65
236.17	21.84
236.388	1.37
236.605	27.99
236.822	169.3
237.04	21.84
237.257	-23.21
237.475	-2.73
237.692	40.28
237.909	-2.73
238.127	30.04
238.344	25.94
238.562	44.37
238.779	-0.68
238.996	-2.73
239.214	-8.87
239.431	50.52
239.648	-35.5
239.865	58.71
240.083	13.65
240.3	56.66
240.517	30.04
240.735	56.66
240.952	79.19
241.169	79.19
241.386	83.28
241.603	30.04
241.821	30.04
242.038	71
242.255	114
242.472	87.38
242.689	15.7
242.907	130.39
243.124	-35.5
243.341	44.37
243.558	30.04
243.775	-55.98
243.992	-51.88
244.209	118.1
244.426	114
244.643	-2.73
244.86	23.89
245.078	62.8
245.295	13.65
245.512	36.18
245.729	-53.93
245.946	54.61
246.163	21.84
246.38	46.42
246.597	114
246.814	42.32
247.031	46.42
247.248	64.85
247.464	-35.5
247.681	23.89
247.898	5.46
248.115	34.13
248.332	15.7
248.549	152.91
248.766	25.94
248.983	42.32
249.2	-0.68
249.417	54.61
249.633	1.37
249.85	64.85
250.067	-43.69
250.284	44.37
250.501	7.51
250.717	50.52
250.934	25.94
251.151	79.19
251.368	23.89
251.585	13.65
251.801	54.61
252.018	-72.36
252.235	7.51
252.451	30.04
252.668	64.85
252.885	56.66
253.102	-37.55
253.318	-35.5
253.535	15.7
253.752	71
253.968	34.13
254.185	-43.69
254.401	-6.83
254.618	103.76
254.835	73.04
255.051	130.39
255.268	1.37
255.484	120.15
255.701	21.84
255.917	46.42
256.134	46.42
256.351	50.52
256.567	-64.17
256.784	15.7
257	13.65
257.217	30.04
257.433	64.85
257.65	7.51
257.866	62.8
258.082	66.9
258.299	62.8
258.515	81.24
258.732	-23.21
258.948	-19.11
259.165	5.46
259.381	79.19
259.597	-49.83
259.814	62.8
260.03	48.47
260.246	81.24
260.463	-6.83
260.679	44.37
260.895	19.8
261.112	40.28
261.328	56.66
261.544	-10.92
261.761	34.13
261.977	21.84
262.193	-33.45
262.409	91.48
262.626	7.51
262.842	103.76
263.058	-10.92
263.274	46.42
263.49	-2.73
263.707	13.65
263.923	3.41
264.139	46.42
264.355	-10.92
264.571	40.28
264.787	-29.35
265.004	46.42
265.22	19.8
265.436	-10.92
265.652	46.42
265.868	36.18
266.084	-2.73
266.3	73.04
266.516	-6.83
266.732	62.8
266.948	5.46
267.164	25.94
267.38	-17.07
267.596	99.67
267.812	38.23
268.028	19.8
268.244	91.48
268.46	54.61
268.676	46.42
268.892	32.08
269.108	21.84
269.324	62.8
269.54	21.84
269.756	42.32
269.972	23.89
270.188	-2.73
270.403	-29.35
270.619	15.7
270.835	81.24
271.051	38.23
271.267	48.47
271.483	40.28
271.698	60.76
271.914	89.43
272.13	30.04
272.346	-31.4
272.562	95.57
272.777	62.8
272.993	-0.68
273.209	87.38
273.425	40.28
273.64	-8.87
273.856	17.75
274.072	50.52
274.287	5.46
274.503	7.51
274.719	15.7
274.934	40.28
275.15	30.04
275.366	-19.11
275.581	7.51
275.797	5.46
276.012	25.94
276.228	-27.31
276.444	-39.59
276.659	30.04
276.875	75.09
277.09	52.56
277.306	-2.73
277.521	38.23
277.737	13.65
277.952	-51.88
278.168	-6.83
278.383	-8.87
278.599	62.8
278.814	40.28
279.03	120.15
279.245	32.08
279.461	-23.21
279.676	21.84
279.892	54.61
280.107	-41.64
280.322	11.61
280.538	-35.5
280.753	-90.79
280.969	40.28
281.184	-33.45
281.399	46.42
281.615	58.71
281.83	87.38
282.045	17.75
282.26	23.89
282.476	38.23
282.691	21.84
282.906	17.75
283.122	-8.87
283.337	30.04
283.552	62.8
283.767	-51.88
283.983	56.66
284.198	-51.88
284.413	-2.73
284.628	46.42
284.843	5.46
285.058	36.18
285.274	46.42
285.489	15.7
285.704	21.84
285.919	5.46
286.134	95.57
286.349	-15.02
286.564	-0.68
286.779	81.24
286.995	103.76
287.21	15.7
287.425	-15.02
287.64	-76.46
287.855	-0.68
288.07	-27.31
288.285	62.8
288.5	9.56
288.715	56.66
288.93	75.09
289.145	25.94
289.36	46.42
289.575	5.46
289.79	46.42
290.004	-55.98
290.219	40.28
290.434	38.23
290.649	-10.92
290.864	52.56
291.079	34.13
291.294	30.04
291.509	-58.03
291.724	-19.11
291.938	-15.02
292.153	46.42
292.368	56.66
292.583	62.8
292.798	23.89
293.012	50.52
293.227	64.85
293.442	-8.87
293.657	62.8
293.871	25.94
294.086	32.08
294.301	107.86
294.516	40.28
294.73	34.13
294.945	13.65
295.16	42.32
295.374	34.13
295.589	17.75
295.804	97.62
296.018	58.71
296.233	38.23
296.447	30.04
296.662	52.56
296.877	40.28
297.091	-4.78
297.306	23.89
297.52	19.8
297.735	101.72
297.949	38.23
298.164	54.61
298.378	105.81
298.593	-15.02
298.807	25.94
299.022	11.61
299.236	48.47
299.451	32.08
299.665	15.7
299.88	-41.64
300.094	-0.68
300.309	15.7
300.523	99.67
300.737	30.04
300.952	5.46
301.166	50.52
301.381	38.23
301.595	7.51
301.809	-10.92
302.024	23.89
302.238	-49.83
302.452	79.19
302.667	42.32
302.881	73.04
303.095	-51.88
303.309	40.28
303.524	-0.68
303.738	111.96
303.952	25.94
304.166	54.61
304.381	-6.83
304.595	50.52
304.809	-43.69
305.023	5.46
305.237	68.95
305.452	-19.11
305.666	-10.92
305.88	71
306.094	25.94
306.308	25.94
306.522	50.52
306.736	13.65
306.95	-2.73
307.164	46.42
307.379	27.99
307.593	87.38
307.807	-0.68
308.021	32.08
308.235	-19.11
308.449	9.56
308.663	-2.73
308.877	107.86
309.091	34.13
309.305	46.42
309.519	46.42
309.733	103.76
309.947	-23.21
310.161	48.47
310.374	132.44
310.588	105.81
310.802	7.51
311.016	66.9
311.23	-23.21
311.444	-60.07
311.658	75.09
311.872	71
312.085	5.46
312.299	48.47
312.513	21.84
312.727	50.52
312.941	21.84
313.154	99.67
313.368	1.37
313.582	81.24
313.796	46.42
314.009	62.8
314.223	17.75
314.437	32.08
314.651	19.8
314.864	11.61
315.078	11.61
315.292	-17.07
315.505	13.65
315.719	56.66
315.933	36.18
316.146	-0.68
316.36	-64.17
316.573	58.71
316.787	-15.02
317.001	56.66
317.214	77.14
317.428	89.43
317.641	30.04
317.855	13.65
318.068	46.42
318.282	71
318.495	9.56
318.709	97.62
318.922	-2.73
319.136	71
319.349	50.52
319.563	23.89
319.776	46.42
319.99	38.23
320.203	-19.11
320.417	46.42
320.63	-4.78
320.843	87.38
321.057	73.04
321.27	48.47
321.483	30.04
321.697	27.99
321.91	71
322.124	25.94
322.337	62.8
322.55	71
322.763	93.52
322.977	30.04
323.19	50.52
323.403	48.47
323.617	42.32
323.83	54.61
324.043	44.37
324.256	99.67
324.469	87.38
324.683	128.34
324.896	5.46
325.109	15.7
325.322	5.46
325.535	81.24
325.748	44.37
325.962	68.95
326.175	-8.87
326.388	-8.87
326.601	56.66
326.814	13.65
327.027	-0.68
327.24	85.33
327.453	-55.98
327.666	75.09
327.879	62.8
328.092	44.37
328.305	48.47
328.518	25.94
328.731	46.42
328.944	54.61
329.157	58.71
329.37	38.23
329.583	85.33
329.796	79.19
330.009	-21.16
330.222	46.42
330.435	64.85
330.648	27.99
330.861	79.19
331.073	48.47
331.286	-10.92
331.499	5.46
331.712	73.04
331.925	9.56
332.138	25.94
332.35	30.04
332.563	38.23
332.776	13.65
332.989	21.84
333.202	21.84
333.414	73.04
333.627	58.71
333.84	-0.68
334.053	89.43
334.265	-29.35
334.478	13.65
334.691	38.23
334.903	-19.11
335.116	32.08
335.329	-23.21
335.541	30.04
335.754	27.99
335.966	52.56
336.179	40.28
336.392	9.56
336.604	46.42
336.817	9.56
337.029	17.75
337.242	-2.73
337.454	21.84
337.667	15.7
337.88	56.66
338.092	56.66
338.305	21.84
338.517	-19.11
338.729	66.9
338.942	111.96
339.154	-33.45
339.367	1.37
339.579	97.62
339.792	23.89
340.004	21.84
340.217	30.04
340.429	7.51
340.641	40.28
340.854	58.71
341.066	-10.92
341.278	79.19
341.491	3.41
341.703	32.08
341.915	21.84
342.128	56.66
342.34	13.65
342.552	-10.92
342.764	38.23
342.977	56.66
343.189	73.04
343.401	103.76
343.613	1.37
343.826	7.51
344.038	44.37
344.25	95.57
344.462	38.23
344.674	-27.31
344.886	-31.4
345.099	42.32
345.311	48.47
345.523	-37.55
345.735	1.37
345.947	-0.68
346.159	103.76
346.371	-19.11
346.583	1.37
346.795	157.01
347.007	64.85
347.219	5.46
347.431	13.65
347.643	97.62
347.855	56.66
348.067	48.47
348.279	1.37
348.491	75.09
348.703	81.24
348.915	13.65
349.127	-21.16
349.339	71
349.551	50.52
349.763	66.9
349.975	-23.21
350.187	64.85
350.399	34.13
350.61	73.04
350.822	54.61
351.034	30.04
351.246	42.32
351.458	40.28
351.669	66.9
351.881	79.19
352.093	13.65
352.305	99.67
352.517	85.33
352.728	126.29
352.94	7.51
353.152	-17.07
353.363	-68.27
353.575	44.37
353.787	66.9
353.999	5.46
354.21	126.29
354.422	38.23
354.633	17.75
354.845	23.89
355.057	73.04
355.268	5.46
355.48	17.75
355.692	13.65
355.903	3.41
356.115	5.46
356.326	-0.68
356.538	-10.92
356.749	40.28
356.961	64.85
357.172	-10.92
357.384	7.51
357.595	38.23
357.807	-0.68
358.018	91.48
358.23	38.23
358.441	21.84
358.653	124.24
358.864	34.13
359.075	-2.73
359.287	48.47
359.498	54.61
359.709	97.62
359.921	38.23
360.132	9.56
360.344	99.67
360.555	60.76
360.766	114
360.977	13.65
361.189	62.8
361.4	21.84
361.611	87.38
361.823	21.84
362.034	71
362.245	42.32
362.456	25.94
362.667	44.37
362.879	30.04
363.09	83.28
363.301	42.32
363.512	11.61
363.723	-15.02
363.935	-35.5
364.146	58.71
364.357	83.28
364.568	118.1
364.779	52.56
364.99	95.57
365.201	13.65
365.412	93.52
365.623	38.23
365.834	56.66
366.045	54.61
366.256	87.38
366.467	21.84
366.678	87.38
366.889	27.99
367.1	9.56
367.311	52.56
367.522	5.46
367.733	130.39
367.944	46.42
368.155	50.52
368.366	38.23
368.577	46.42
368.788	107.86
368.999	13.65
369.209	64.85
369.42	91.48
369.631	126.29
369.842	103.76
370.053	62.8
370.264	46.42
370.474	7.51
370.685	54.61
370.896	46.42
371.107	99.67
371.317	-15.02
371.528	21.84
371.739	56.66
371.95	62.8
372.16	-29.35
372.371	15.7
372.582	62.8
372.792	71
373.003	79.19
373.214	64.85
373.424	66.9
373.635	40.28
373.846	79.19
374.056	34.13
374.267	62.8
374.477	54.61
374.688	-2.73
374.898	-2.73
375.109	95.57
375.319	71
375.53	130.39
375.74	136.53
375.951	46.42
376.161	46.42
376.372	30.04
376.582	11.61
376.793	130.39
377.003	21.84
377.214	54.61
377.424	97.62
377.635	85.33
377.845	38.23
378.055	32.08
378.266	56.66
378.476	30.04
378.686	50.52
378.897	-19.11
379.107	54.61
379.317	7.51
379.528	-51.88
379.738	93.52
379.948	-0.68
380.158	38.23
380.369	-25.26
380.579	-15.02
380.789	118.1
380.999	79.19
381.21	46.42
381.42	73.04
381.63	91.48
381.84	103.76
382.05	44.37
382.261	56.66
382.471	17.75
382.681	-19.11
382.891	120.15
383.101	36.18
383.311	81.24
383.521	5.46
383.731	66.9
383.941	97.62
384.151	32.08
384.361	89.43
384.571	99.67
384.781	87.38
384.991	83.28
385.201	71
385.411	-2.73
385.621	66.9
385.831	81.24
386.041	107.86
386.251	21.84
386.461	83.28
386.671	15.7
386.881	54.61
387.091	15.7
387.301	83.28
387.511	-0.68
387.72	66.9
387.93	81.24
388.14	7.51
388.35	48.47
388.56	5.46
388.769	95.57
388.979	91.48
389.189	79.19
389.399	71
389.609	54.61
389.818	56.66
390.028	48.47
390.238	3.41
390.447	107.86
390.657	85.33
390.867	73.04
391.076	25.94
391.286	9.56
391.496	136.53
391.705	68.95
391.915	79.19
392.125	169.3
392.334	30.04
392.544	40.28
392.753	79.19
392.963	-39.59
393.172	25.94
393.382	1.37
393.591	134.48
393.801	44.37
394.01	79.19
394.22	105.81
394.429	54.61
394.639	64.85
394.848	103.76
395.058	81.24
395.267	52.56
395.477	124.24
395.686	21.84
395.895	144.72
396.105	146.77
396.314	52.56
396.524	114
396.733	34.13
396.942	87.38
397.152	87.38
397.361	62.8
397.57	95.57
397.78	58.71
397.989	89.43
398.198	95.57
398.407	128.34
398.617	95.57
398.826	71
399.035	75.09
399.244	52.56
399.453	40.28
399.663	157.01
399.872	124.24
400.081	144.72
400.29	62.8
400.499	83.28
400.708	157.01
400.917	97.62
401.127	120.15
401.336	107.86
401.545	152.91
401.754	120.15
401.963	103.76
402.172	105.81
402.381	25.94
402.59	3.41
402.799	122.2
403.008	154.96
403.217	79.19
403.426	91.48
403.635	38.23
403.844	114
404.053	157.01
404.262	120.15
404.471	161.11
404.68	128.34
404.888	173.39
405.097	154.96
405.306	136.53
405.515	111.96
405.724	163.15
405.933	163.15
406.142	140.63
406.35	243.03
406.559	122.2
406.768	99.67
406.977	212.31
407.185	197.97
407.394	197.97
407.603	132.44
407.812	226.64
408.02	195.92
408.229	181.59
408.438	210.26
408.646	251.22
408.855	210.26
409.064	240.98
409.272	212.31
409.481	171.35
409.69	212.31
409.898	269.65
410.107	296.27
410.315	263.51
410.524	232.79
410.733	294.22
410.941	267.6
411.15	341.33
411.358	390.48
411.567	417.1
411.775	404.82
411.984	361.81
412.192	441.68
412.401	415.05
412.609	456.01
412.818	456.01
413.026	537.93
413.234	413.01
413.443	378.19
413.651	478.54
413.86	513.36
414.068	562.51
414.276	544.08
414.485	578.89
414.693	591.18
414.901	693.58
415.11	646.48
415.318	640.33
415.526	677.19
415.734	716.11
415.943	611.66
416.151	703.82
416.359	783.69
416.567	728.39
416.776	793.93
416.984	955.72
417.192	902.47
417.4	898.38
417.608	963.91
417.817	957.77
418.025	1037.64
418.233	1045.83
418.441	1041.73
418.649	1111.36
418.857	1152.32
419.065	1185.09
419.273	1174.85
419.481	1230.15
419.689	1346.88
419.897	1353.02
420.105	1316.16
420.313	1443.14
420.521	1449.28
420.729	1531.2
420.937	1545.53
421.145	1586.49
421.353	1611.07
421.561	1768.76
421.769	1742.14
421.977	1918.26
422.185	1848.63
422.393	1944.89
422.601	2106.68
422.809	2053.43
423.017	2080.05
423.224	2184.5
423.432	2245.94
423.64	2200.88
423.848	2522.41
424.056	2374.96
424.263	2639.15
424.471	2587.95
424.679	2653.48
424.887	2653.48
425.094	2866.47
425.302	2934.06
425.51	2979.11
425.718	3097.89
425.925	3151.14
426.133	3106.09
426.341	3415.33
426.548	3456.29
426.756	3589.41
426.964	3417.38
427.171	3759.39
427.379	3882.27
427.586	3994.9
427.794	4058.39
428.001	4261.14
428.209	4502.8
428.417	4406.55
428.624	4601.1
428.832	4541.71
429.039	4625.68
429.247	4588.82
429.454	5088.52
429.662	5428.48
429.869	5176.58
430.076	5412.1
430.284	5285.12
430.491	5489.92
430.699	5784.83
430.906	5774.59
431.114	5862.65
431.321	6221.05
431.528	6282.49
431.736	6616.3
431.943	6862.06
432.15	6718.7
432.358	6716.65
432.565	7046.38
432.772	7189.74
432.979	7511.27
433.187	7664.86
433.394	7754.97
433.601	8248.54
433.808	8242.39
434.016	7951.58
434.223	8393.94
434.43	8869.07
434.637	8981.71
434.844	9399.49
435.052	9549
435.259	9456.84
435.466	9635.01
435.673	9288.9
435.88	9983.16
436.087	10470.58
436.294	10742.96
436.501	10261.69
436.708	10646.71
436.915	10806.45
437.122	11289.77
437.329	11586.72
437.537	11697.31
437.743	11740.32
437.95	11877.54
438.157	12514.45
438.364	12817.55
438.571	12582.04
438.778	12981.39
438.985	14062.72
439.192	13452.42
439.399	14099.58
439.606	13542.53
439.813	14611.57
440.02	15438.95
440.227	15068.27
440.433	15070.32
440.64	15266.92
440.847	15307.88
441.054	15733.86
441.261	16645.21
441.467	16364.64
441.674	16804.95
441.881	17335.37
442.088	17476.68
442.294	17357.9
442.501	17493.07
442.708	17957.96
442.914	18582.59
443.121	19459.12
443.328	18820.15
443.534	20128.8
443.741	19649.58
443.948	19420.21
444.154	20952.09
444.361	20900.89
444.568	20593.69
444.774	20845.59
444.981	21367.82
445.187	21718.03
445.394	22668.28
445.6	22434.81
445.807	24540.13
446.013	23557.1
446.22	23639.02
446.426	24513.5
446.633	24953.82
446.839	25897.93
447.046	24667.1
447.252	26135.49
447.459	26352.58
447.665	25983.94
447.871	27130.81
448.078	28365.73
448.284	27055.03
448.491	27708.33
448.697	28896.16
448.903	29262.74
449.11	29545.36
449.316	28992.41
449.522	29440.92
449.728	30565.25
449.935	30782.34
450.141	30333.83
450.347	31380.34
450.553	30149.51
450.76	30751.62
450.966	31933.29
451.172	31392.63
451.378	32033.64
451.584	31701.87
451.791	32111.47
451.997	31992.69
452.203	32660.32
452.409	32914.27
452.615	32420.71
452.821	31363.96
453.027	31140.73
453.233	32875.36
453.44	31685.49
453.646	31599.48
453.852	31794.03
454.058	32486.25
454.264	31249.27
454.47	32240.49
454.676	31382.39
454.882	32480.1
455.088	29479.83
455.294	30253.96
455.5	30526.34
455.705	30935.93
455.911	29625.23
456.117	29213.59
456.323	28855.2
456.529	27327.41
456.735	28408.74
456.941	27734.96
457.147	27257.78
457.352	26352.58
457.558	26266.56
457.764	26225.61
457.97	25678.8
458.176	25394.13
458.381	25381.84
458.587	24210.4
458.793	24091.62
458.999	22828.03
459.204	24368.1
459.41	23598.06
459.616	22242.31
459.821	22479.87
460.027	22105.09
460.233	21421.07
460.438	20640.79
460.644	20814.87
460.85	19991.59
461.055	19549.23
461.261	19786.79
461.466	18119.74
461.672	17685.58
461.878	18721.85
462.083	17617.99
462.289	17175.63
462.494	17243.21
462.7	16268.38
462.905	15848.55
463.111	16405.6
463.316	16493.66
463.522	16208.99
463.727	16299.1
463.932	16208.99
464.138	15819.88
464.343	16063.58
464.549	15709.29
464.754	16104.54
464.959	15834.21
465.165	15742.05
465.37	15293.55
465.575	14668.92
465.781	15344.75
465.986	15369.32
466.191	14906.48
466.397	14615.67
466.602	13886.59
466.807	14470.26
467.012	14507.13
467.218	14232.7
467.423	14095.49
467.628	14163.07
467.833	14836.85
468.038	14304.38
468.244	13890.69
468.449	14310.52
