Data from USB4F104151__231__14-45-38-925.txt Node

Date: Thu Mar 13 14:45:38 EDT 2025
User: louis
Spectrometer: USB4F10415
Trigger mode: 4
Integration Time (sec): 2.000000E-2
Scans to average: 1
Electric dark correction enabled: true
Nonlinearity correction enabled: false
Boxcar width: 0
XAxis mode: Wavelengths
Number of Pixels in Spectrum: 3648
>>>>>Begin Spectral Data<<<<<
178.204	-113.32
178.424	-113.32
178.644	-113.32
178.864	-107.18
179.084	-101.03
179.304	42.32
179.524	-17.07
179.744	-27.31
179.964	21.85
180.184	-33.45
180.404	21.85
180.624	32.08
180.844	-2.73
181.064	-39.59
181.283	-8.87
181.503	-0.68
181.723	11.61
181.943	-43.69
182.163	122.2
182.383	-17.07
182.602	27.99
182.822	15.7
183.042	25.94
183.262	38.23
183.482	73.04
183.701	30.04
183.921	7.51
184.141	-33.45
184.361	50.52
184.58	9.56
184.8	-23.21
185.02	42.32
185.239	40.28
185.459	13.65
185.679	109.91
185.898	-43.69
186.118	99.67
186.338	32.08
186.557	75.09
186.777	-19.11
186.997	54.61
187.216	30.04
187.436	89.43
187.655	64.85
187.875	87.38
188.095	-6.83
188.314	-8.87
188.534	87.38
188.753	107.86
188.973	46.42
189.192	99.67
189.412	1.37
189.631	58.71
189.851	30.04
190.07	105.81
190.29	25.94
190.509	5.46
190.729	-8.87
190.948	46.42
191.168	81.24
191.387	120.15
191.607	-47.79
191.826	-33.45
192.045	81.24
192.265	62.8
192.484	48.47
192.704	38.23
192.923	-15.02
193.142	157.01
193.362	27.99
193.581	27.99
193.8	13.65
194.02	42.32
194.239	27.99
194.458	21.85
194.678	-17.07
194.897	71
195.116	83.28
195.335	40.28
195.555	60.76
195.774	13.65
195.993	-51.88
196.212	-6.83
196.432	48.47
196.651	-19.11
196.87	-0.68
197.089	128.34
197.308	27.99
197.528	54.61
197.747	13.65
197.966	46.42
198.185	152.92
198.404	-15.02
198.623	36.18
198.842	75.09
199.062	62.8
199.281	44.37
199.5	1.37
199.719	79.19
199.938	48.47
200.157	42.32
200.376	36.18
200.595	152.92
200.814	44.37
201.033	46.42
201.252	66.9
201.471	-10.92
201.69	79.19
201.909	17.75
202.128	-25.26
202.347	87.38
202.566	-21.16
202.785	1.37
203.004	5.46
203.223	187.73
203.442	87.38
203.661	-2.73
203.879	5.46
204.098	111.96
204.317	83.28
204.536	27.99
204.755	46.42
204.974	95.57
205.193	5.46
205.411	42.32
205.63	79.19
205.849	5.46
206.068	103.76
206.287	87.38
206.505	25.94
206.724	52.56
206.943	30.04
207.162	42.32
207.381	-6.83
207.599	9.56
207.818	34.13
208.037	-23.21
208.255	81.24
208.474	68.95
208.693	46.42
208.911	-27.31
209.13	17.75
209.349	42.32
209.567	46.42
209.786	71
210.005	130.39
210.223	-10.92
210.442	-2.73
210.661	27.99
210.879	99.67
211.098	-2.73
211.316	15.7
211.535	77.14
211.753	-19.11
211.972	58.71
212.191	-21.16
212.409	-2.73
212.628	71
212.846	7.51
213.065	73.04
213.283	124.24
213.502	89.43
213.72	9.56
213.938	15.7
214.157	17.75
214.375	23.89
214.594	-37.55
214.812	-0.68
215.031	-51.88
215.249	11.61
215.467	13.65
215.686	17.75
215.904	46.42
216.122	5.46
216.341	27.99
216.559	62.8
216.778	32.08
216.996	50.52
217.214	64.85
217.432	66.9
217.651	-33.45
217.869	21.85
218.087	32.08
218.306	-39.59
218.524	46.42
218.742	-0.68
218.96	30.04
219.179	58.71
219.397	38.23
219.615	95.57
219.833	54.61
220.051	42.32
220.27	83.28
220.488	56.66
220.706	79.19
220.924	66.9
221.142	7.51
221.36	50.52
221.578	25.94
221.796	-31.4
222.015	89.43
222.233	15.7
222.451	75.09
222.669	-2.73
222.887	21.85
223.105	9.56
223.323	40.28
223.541	11.61
223.759	62.8
223.977	42.32
224.195	60.76
224.413	-51.88
224.631	-2.73
224.849	32.08
225.067	120.15
225.285	27.99
225.503	62.8
225.721	-84.65
225.939	32.08
226.157	89.43
226.375	152.92
226.592	-2.73
226.81	120.15
227.028	38.23
227.246	97.62
227.464	36.18
227.682	21.85
227.9	7.51
228.117	79.19
228.335	-17.07
228.553	15.7
228.771	46.42
228.989	95.57
229.206	5.46
229.424	7.51
229.642	-2.73
229.86	17.75
230.077	40.28
230.295	54.61
230.513	44.37
230.731	87.38
230.948	83.28
231.166	114
231.384	1.37
231.601	-62.12
231.819	87.38
232.037	79.19
232.254	15.7
232.472	58.71
232.689	-49.83
232.907	46.42
233.125	34.13
233.342	50.52
233.56	52.56
233.777	5.46
233.995	25.94
234.213	13.65
234.43	-6.83
234.648	-10.92
234.865	23.89
235.083	66.9
235.3	21.85
235.518	13.65
235.735	97.62
235.953	111.96
236.17	62.8
236.388	54.61
236.605	-23.21
236.822	-15.02
237.04	34.13
237.257	56.66
237.475	1.37
237.692	13.65
237.909	73.04
238.127	13.65
238.344	30.04
238.562	64.85
238.779	-15.02
238.996	-10.92
239.214	-4.78
239.431	40.28
239.648	-0.68
239.865	34.13
240.083	56.66
240.3	-35.5
240.517	-25.26
240.735	32.08
240.952	79.19
241.169	73.04
241.386	17.75
241.603	-15.02
241.821	9.56
242.038	120.15
242.255	62.8
242.472	13.65
242.689	64.85
242.907	44.37
243.124	7.51
243.341	23.89
243.558	-6.83
243.775	38.23
243.992	19.8
244.209	38.23
244.426	66.9
244.643	32.08
244.86	60.76
245.078	-0.68
245.295	21.85
245.512	7.51
245.729	9.56
245.946	71
246.163	17.75
246.38	13.65
246.597	5.46
246.814	36.18
247.031	-33.45
247.248	50.52
247.464	-10.92
247.681	38.23
247.898	56.66
248.115	21.85
248.332	34.13
248.549	38.23
248.766	71
248.983	-0.68
249.2	79.19
249.417	75.09
249.633	32.08
249.85	62.8
250.067	-2.73
250.284	25.94
250.501	21.85
250.717	107.86
250.934	11.61
251.151	-33.45
251.368	9.56
251.585	23.89
251.801	30.04
252.018	-43.69
252.235	54.61
252.451	38.23
252.668	23.89
252.885	15.7
253.102	27.99
253.318	60.76
253.535	13.65
253.752	5.46
253.968	81.24
254.185	-2.73
254.401	-8.87
254.618	54.61
254.835	25.94
255.051	136.53
255.268	-6.83
255.484	64.85
255.701	21.85
255.917	40.28
256.134	-55.98
256.351	25.94
256.567	-2.73
256.784	7.51
257	-0.68
257.217	64.85
257.433	46.42
257.65	83.28
257.866	21.85
258.082	-51.88
258.299	5.46
258.515	54.61
258.732	-23.21
258.948	-19.11
259.165	36.18
259.381	38.23
259.597	50.52
259.814	42.32
260.03	54.61
260.246	42.32
260.463	36.18
260.679	32.08
260.895	21.85
261.112	44.37
261.328	-15.02
261.544	-2.73
261.761	68.95
261.977	3.41
262.193	21.85
262.409	87.38
262.626	54.61
262.842	56.66
263.058	-8.87
263.274	30.04
263.49	79.19
263.707	48.47
263.923	5.46
264.139	-19.11
264.355	17.75
264.571	73.04
264.787	-15.02
265.004	58.71
265.22	111.96
265.436	58.71
265.652	15.7
265.868	-17.07
266.084	58.71
266.3	30.04
266.516	9.56
266.732	71
266.948	19.8
267.164	19.8
267.38	15.7
267.596	17.75
267.812	30.04
268.028	89.43
268.244	58.71
268.46	7.51
268.676	38.23
268.892	40.28
269.108	21.85
269.324	40.28
269.54	34.13
269.756	83.28
269.972	11.61
270.188	54.61
270.403	58.71
270.619	58.71
270.835	25.94
271.051	21.85
271.267	-6.83
271.483	-58.03
271.698	62.8
271.914	38.23
272.13	13.65
272.346	-66.22
272.562	15.7
272.777	103.76
272.993	13.65
273.209	46.42
273.425	95.57
273.64	-27.31
273.856	25.94
274.072	38.23
274.287	68.95
274.503	21.85
274.719	13.65
274.934	-101.03
275.15	-27.31
275.366	107.86
275.581	38.23
275.797	50.52
276.012	25.94
276.228	111.96
276.444	15.7
276.659	93.52
276.875	48.47
277.09	93.52
277.306	-15.02
277.521	13.65
277.737	75.09
277.952	95.57
278.168	-6.83
278.383	3.41
278.599	-2.73
278.814	17.75
279.03	34.13
279.245	7.51
279.461	111.96
279.676	75.09
279.892	1.37
280.107	-31.4
280.322	-31.4
280.538	9.56
280.753	-49.83
280.969	52.56
281.184	36.18
281.399	64.85
281.615	40.28
281.83	40.28
282.045	-23.21
282.26	-17.07
282.476	42.32
282.691	71
282.906	71
283.122	71
283.337	13.65
283.552	56.66
283.767	46.42
283.983	46.42
284.198	38.23
284.413	15.7
284.628	17.75
284.843	81.24
285.058	46.42
285.274	50.52
285.489	-6.83
285.704	81.24
285.919	23.89
286.134	97.62
286.349	1.37
286.564	-8.87
286.779	23.89
286.995	36.18
287.21	-29.35
287.425	32.08
287.64	23.89
287.855	36.18
288.07	-31.4
288.285	-35.5
288.5	32.08
288.715	19.8
288.93	52.56
289.145	13.65
289.36	81.24
289.575	7.51
289.79	-10.92
290.004	38.23
290.219	120.15
290.434	42.32
290.649	17.75
290.864	-33.45
291.079	-2.73
291.294	1.37
291.509	21.85
291.724	68.95
291.938	13.65
292.153	-33.45
292.368	23.89
292.583	21.85
292.798	19.8
293.012	95.57
293.227	21.85
293.442	87.38
293.657	91.48
293.871	21.85
294.086	-2.73
294.301	-0.68
294.516	-2.73
294.73	-2.73
294.945	-33.45
295.16	46.42
295.374	30.04
295.589	64.85
295.804	56.66
296.018	9.56
296.233	95.57
296.447	130.39
296.662	-25.26
296.877	25.94
297.091	23.89
297.306	38.23
297.52	32.08
297.735	71
297.949	75.09
298.164	-10.92
298.378	71
298.593	5.46
298.807	46.42
299.022	-58.03
299.236	38.23
299.451	75.09
299.665	46.42
299.88	9.56
300.094	13.65
300.309	-19.11
300.523	38.23
300.737	15.7
300.952	79.19
301.166	58.71
301.381	25.94
301.595	73.04
301.809	30.04
302.024	38.23
302.238	15.7
302.452	30.04
302.667	27.99
302.881	97.62
303.095	87.38
303.309	-43.69
303.524	21.85
303.738	-35.5
303.952	-2.73
304.166	5.46
304.381	-39.59
304.595	52.56
304.809	32.08
305.023	17.75
305.237	50.52
305.452	42.32
305.666	71
305.88	58.71
306.094	34.13
306.308	13.65
306.522	52.56
306.736	32.08
306.95	30.04
307.164	54.61
307.379	50.52
307.593	97.62
307.807	46.42
308.021	17.75
308.235	81.24
308.449	-10.92
308.663	38.23
308.877	52.56
309.091	7.51
309.305	34.13
309.519	-33.45
309.733	38.23
309.947	-39.59
310.161	48.47
310.374	-4.78
310.588	157.01
310.802	21.85
311.016	58.71
311.23	66.9
311.444	9.56
311.658	-0.68
311.872	46.42
312.085	-19.11
312.299	87.38
312.513	58.71
312.727	66.9
312.941	-23.21
313.154	87.38
313.368	17.75
313.582	42.32
313.796	-0.68
314.009	91.48
314.223	89.43
314.437	7.51
314.651	-0.68
314.864	-25.26
315.078	136.53
315.292	13.65
315.505	46.42
315.719	32.08
315.933	-55.98
316.146	-6.83
316.36	-0.68
316.573	34.13
316.787	36.18
317.001	68.95
317.214	-60.07
317.428	34.13
317.641	23.89
317.855	64.85
318.068	79.19
318.282	99.67
318.495	48.47
318.709	99.67
318.922	111.96
319.136	79.19
319.349	62.8
319.563	19.8
319.776	66.9
319.99	5.46
320.203	48.47
320.417	-0.68
320.63	30.04
320.843	120.15
321.057	71
321.27	46.42
321.483	99.67
321.697	118.1
321.91	13.65
322.124	19.8
322.337	58.71
322.55	62.8
322.763	9.56
322.977	66.9
323.19	85.33
323.403	15.7
323.617	30.04
323.83	15.7
324.043	75.09
324.256	-10.92
324.469	38.23
324.683	130.39
324.896	-10.92
325.109	38.23
325.322	21.85
325.535	46.42
325.748	30.04
325.962	-4.78
326.175	75.09
326.388	13.65
326.601	23.89
326.814	1.37
327.027	54.61
327.24	79.19
327.453	-66.22
327.666	-15.02
327.879	99.67
328.092	3.41
328.305	38.23
328.518	62.8
328.731	34.13
328.944	64.85
329.157	42.32
329.37	30.04
329.583	124.24
329.796	56.66
330.009	-51.88
330.222	64.85
330.435	105.81
330.648	60.76
330.861	40.28
331.073	54.61
331.286	50.52
331.499	5.46
331.712	71
331.925	7.51
332.138	46.42
332.35	81.24
332.563	-15.02
332.776	46.42
332.989	1.37
333.202	40.28
333.414	23.89
333.627	-6.83
333.84	21.85
334.053	52.56
334.265	25.94
334.478	-43.69
334.691	56.66
334.903	54.61
335.116	-25.26
335.329	-8.87
335.541	54.61
335.754	64.85
335.966	71
336.179	5.46
336.392	68.95
336.604	142.68
336.817	46.42
337.029	38.23
337.242	32.08
337.454	101.72
337.667	7.51
337.88	130.39
338.092	71
338.305	77.14
338.517	42.32
338.729	140.63
338.942	-27.31
339.154	38.23
339.367	-41.64
339.579	5.46
339.792	48.47
340.004	81.24
340.217	75.09
340.429	30.04
340.641	9.56
340.854	17.75
341.066	79.19
341.278	89.43
341.491	83.28
341.703	36.18
341.915	30.04
342.128	87.38
342.34	40.28
342.552	38.23
342.764	32.08
342.977	38.23
343.189	21.85
343.401	30.04
343.613	-33.45
343.826	50.52
344.038	-23.21
344.25	62.8
344.462	38.23
344.674	32.08
344.886	52.56
345.099	83.28
345.311	89.43
345.523	1.37
345.735	-2.73
345.947	58.71
346.159	66.9
346.371	79.19
346.583	34.13
346.795	-15.02
347.007	25.94
347.219	40.28
347.431	7.51
347.643	116.05
347.855	-2.73
348.067	79.19
348.279	15.7
348.491	62.8
348.703	34.13
348.915	42.32
349.127	44.37
349.339	30.04
349.551	13.65
349.763	54.61
349.975	81.24
350.187	56.66
350.399	50.52
350.61	-25.26
350.822	-10.92
351.034	21.85
351.246	103.76
351.458	77.14
351.669	71
351.881	7.51
352.093	9.56
352.305	46.42
352.517	-8.87
352.728	68.95
352.94	73.04
353.152	95.57
353.363	21.85
353.575	42.32
353.787	50.52
353.999	34.13
354.21	101.72
354.422	11.61
354.633	32.08
354.845	77.14
355.057	54.61
355.268	7.51
355.48	87.38
355.692	-6.83
355.903	-4.78
356.115	-2.73
356.326	-12.97
356.538	122.2
356.749	103.76
356.961	46.42
357.172	79.19
357.384	58.71
357.595	91.48
357.807	146.77
358.018	21.85
358.23	34.13
358.441	95.57
358.653	30.04
358.864	27.99
359.075	60.76
359.287	34.13
359.498	46.42
359.709	56.66
359.921	25.94
360.132	11.61
360.344	95.57
360.555	-2.73
360.766	58.71
360.977	9.56
361.189	50.52
361.4	-23.21
361.611	42.32
361.823	146.77
362.034	-10.92
362.245	-25.26
362.456	15.7
362.667	30.04
362.879	23.89
363.09	7.51
363.301	142.68
363.512	103.76
363.723	11.61
363.935	64.85
364.146	73.04
364.357	50.52
364.568	71
364.779	54.61
364.99	30.04
365.201	81.24
365.412	91.48
365.623	19.8
365.834	79.19
366.045	44.37
366.256	38.23
366.467	23.89
366.678	71
366.889	30.04
367.1	54.61
367.311	111.96
367.522	103.76
367.733	-2.73
367.944	64.85
368.155	13.65
368.366	83.28
368.577	58.71
368.788	9.56
368.999	30.04
369.209	34.13
369.42	71
369.631	109.91
369.842	42.32
370.053	38.23
370.264	77.14
370.474	19.8
370.685	83.28
370.896	83.28
371.107	50.52
371.317	66.9
371.528	95.57
371.739	87.38
371.95	46.42
372.16	118.1
372.371	-35.5
372.582	32.08
372.792	66.9
373.003	71
373.214	50.52
373.424	85.33
373.635	-17.07
373.846	87.38
374.056	54.61
374.267	128.34
374.477	48.47
374.688	7.51
374.898	25.94
375.109	66.9
375.319	56.66
375.53	114
375.74	30.04
375.951	30.04
376.161	68.95
376.372	83.28
376.582	21.85
376.793	30.04
377.003	75.09
377.214	-6.83
377.424	81.24
377.635	32.08
377.845	30.04
378.055	62.8
378.266	64.85
378.476	64.85
378.686	81.24
378.897	-8.87
379.107	52.56
379.317	38.23
379.528	81.24
379.738	50.52
379.948	118.1
380.158	128.34
380.369	71
380.579	77.14
380.789	50.52
380.999	79.19
381.21	75.09
381.42	138.58
381.63	50.52
381.84	54.61
382.05	36.18
382.261	97.62
382.471	56.66
382.681	64.85
382.891	87.38
383.101	116.05
383.311	73.04
383.521	103.76
383.731	66.9
383.941	97.62
384.151	111.96
384.361	-15.02
384.571	38.23
384.781	75.09
384.991	138.58
385.201	73.04
385.411	107.86
385.621	122.2
385.831	46.42
386.041	38.23
386.251	-15.02
386.461	81.24
386.671	81.24
386.881	89.43
387.091	56.66
387.301	75.09
387.511	75.09
387.72	56.66
387.93	60.76
388.14	97.62
388.35	64.85
388.56	46.42
388.769	-17.07
388.979	58.71
389.189	46.42
389.399	83.28
389.609	87.38
389.818	103.76
390.028	1.37
390.238	34.13
390.447	95.57
390.657	136.53
390.867	27.99
391.076	44.37
391.286	89.43
391.496	71
391.705	-62.12
391.915	64.85
392.125	89.43
392.334	130.39
392.544	93.52
392.753	152.92
392.963	81.24
393.172	91.48
393.382	58.71
393.591	99.67
393.801	48.47
394.01	111.96
394.22	56.66
394.429	89.43
394.639	40.28
394.848	54.61
395.058	34.13
395.267	44.37
395.477	91.48
395.686	32.08
395.895	71
396.105	79.19
396.314	89.43
396.524	87.38
396.733	101.72
396.942	79.19
397.152	64.85
397.361	136.53
397.57	30.04
397.78	38.23
397.989	34.13
398.198	75.09
398.407	73.04
398.617	71
398.826	75.09
399.035	93.52
399.244	75.09
399.453	64.85
399.663	62.8
399.872	132.44
400.081	66.9
400.29	103.76
400.499	38.23
400.708	81.24
400.917	150.87
401.127	46.42
401.336	34.13
401.545	48.47
401.754	140.63
401.963	124.24
402.172	111.96
402.381	48.47
402.59	111.96
402.799	114
403.008	93.52
403.217	193.87
403.426	48.47
403.635	132.44
403.844	234.83
404.053	144.72
404.262	169.3
404.471	111.96
404.68	103.76
404.888	148.82
405.097	163.15
405.306	165.2
405.515	157.01
405.724	144.72
405.933	138.58
406.142	193.87
406.35	177.49
406.559	103.76
406.768	79.19
406.977	171.35
407.185	161.11
407.394	163.15
407.603	146.77
407.812	171.35
408.02	138.58
408.229	105.81
408.438	234.83
408.646	216.4
408.855	251.22
409.064	253.27
409.272	216.4
409.481	261.46
409.69	277.84
409.898	146.77
410.107	236.88
410.315	245.07
410.524	191.83
410.733	308.56
410.941	283.99
411.15	333.14
411.358	349.52
411.567	361.81
411.775	357.71
411.984	359.76
412.192	349.52
412.401	374.1
412.609	398.67
412.818	439.63
413.026	464.21
413.234	456.01
413.443	433.49
413.651	386.38
413.86	490.83
414.068	464.21
414.276	558.41
414.485	554.32
414.693	484.69
414.901	580.94
415.11	488.78
415.318	539.98
415.526	628.04
415.734	634.19
415.943	648.52
416.151	660.81
416.359	703.82
416.567	742.73
416.776	720.2
416.984	752.97
417.192	769.35
417.4	832.84
417.608	783.69
417.817	826.7
418.025	941.38
418.233	881.99
418.441	830.79
418.649	980.29
418.857	1088.84
419.065	1070.41
419.273	1076.55
419.481	1070.41
419.689	1213.76
419.897	1269.06
420.105	1181
420.313	1275.2
420.521	1332.55
420.729	1340.74
420.937	1357.12
421.145	1455.42
421.353	1578.3
421.561	1619.26
421.769	1516.86
421.977	1672.51
422.185	1631.55
422.393	1750.33
422.601	1672.51
422.809	1856.82
423.017	1858.87
423.224	1946.94
423.432	1996.09
423.64	1987.89
423.848	2276.66
424.056	2121.01
424.263	2284.85
424.471	2299.19
424.679	2311.47
424.887	2393.39
425.094	2508.08
425.302	2594.09
425.51	2551.09
425.718	2676.01
425.925	2745.64
426.133	2809.13
426.341	3034.41
426.548	3001.64
426.756	3046.69
426.964	3245.35
427.171	3472.67
427.379	3398.95
427.586	3523.87
427.794	3530.02
428.001	3822.88
428.209	3917.08
428.417	3851.55
428.624	4150.55
428.832	4252.95
429.039	4128.02
429.247	4011.29
429.454	4533.52
429.662	4793.61
429.869	4535.57
430.076	4668.69
430.284	4635.92
430.491	4914.44
430.699	5276.93
430.906	5109
431.114	5168.39
431.321	5405.95
431.528	5436.67
431.736	5897.47
431.943	6175.99
432.15	5922.04
432.358	6124.79
432.565	6388.98
432.772	6268.15
432.979	6606.06
433.187	6874.35
433.394	6819.05
433.601	7326.95
433.808	7255.27
434.016	7234.79
434.223	7462.12
434.43	7902.43
434.637	7900.38
434.844	8346.84
435.052	8301.78
435.259	8295.64
435.466	8467.67
435.673	8377.56
435.88	9043.15
436.087	9534.66
436.294	9387.21
436.501	9084.11
436.708	9340.1
436.915	9733.31
437.122	10196.15
437.329	9923.77
437.537	10390.71
437.743	10622.13
437.95	10599.6
438.157	10919.09
438.364	11525.29
438.571	11439.27
438.778	11605.16
438.985	12498.07
439.192	12133.53
439.399	12242.07
439.606	11875.49
439.813	12842.13
440.02	13694.08
440.227	13128.84
440.433	13030.54
440.64	13534.34
440.847	13380.75
441.054	13913.22
441.261	14972.02
441.467	14605.43
441.674	15045.74
441.881	15610.98
442.088	15303.79
442.294	15328.36
442.501	15518.82
442.708	15752.29
442.914	16718.93
443.121	17472.59
443.328	16731.22
443.534	18179.14
443.741	17220.69
443.948	17304.65
444.154	18684.98
444.361	18390.08
444.568	18590.78
444.774	18617.4
444.981	18641.98
445.187	19162.16
445.394	20089.89
445.6	19733.54
445.807	21945.35
446.013	21068.82
446.22	21154.83
446.426	22303.74
446.633	22328.32
446.839	23008.25
447.046	22146.05
447.252	23483.38
447.459	23530.48
447.665	23389.17
447.871	24275.94
448.078	25420.75
448.284	24085.48
448.491	25109.46
448.697	25564.11
448.903	26090.44
449.11	26536.9
449.316	25570.26
449.522	26407.87
449.728	27280.31
449.935	27462.58
450.141	27313.08
450.347	27937.71
450.553	27413.43
450.76	27558.83
450.966	28644.26
451.172	28398.5
451.378	29262.74
451.584	28502.95
451.791	29250.46
451.997	29293.46
452.203	29938.57
452.409	29485.97
452.615	29295.51
452.821	28119.98
453.027	28373.92
453.233	29672.34
453.44	28504.99
453.646	29111.19
453.852	28996.51
454.058	29608.85
454.264	28636.06
454.47	29518.74
454.676	28595.1
454.882	29578.13
455.088	26700.73
455.294	27411.38
455.5	28119.98
455.705	28134.31
455.911	26833.85
456.117	26567.62
456.323	26129.35
456.529	25007.06
456.735	26029
456.941	25498.58
457.147	25400.27
457.352	24089.57
457.558	23866.35
457.764	23981.03
457.97	23530.48
458.176	23063.54
458.381	22928.38
458.587	22289.41
458.793	22027.27
458.999	20839.45
459.204	22508.54
459.41	21840.9
459.616	20741.14
459.821	20431.9
460.027	20489.24
460.233	19770.41
460.438	19098.67
460.644	19272.75
460.85	18183.23
461.055	18021.44
461.261	17910.85
461.466	16630.87
461.672	16159.84
461.878	17306.7
462.083	16372.83
462.289	15823.97
462.494	15821.92
462.7	15506.54
462.905	14533.75
463.111	15187.05
463.316	15111.28
463.522	14836.85
463.727	14865.52
463.932	14865.52
464.138	14888.05
464.343	14759.03
464.549	14226.56
464.754	14828.66
464.959	14558.33
465.165	14273.66
465.37	13968.51
465.575	13653.12
465.781	14113.92
465.986	14199.93
466.191	13638.79
466.397	13501.58
466.602	12891.28
466.807	13098.13
467.012	13311.11
467.218	13192.33
467.423	12969.1
467.628	12895.38
467.833	13560.97
468.038	13143.18
468.244	12727.44
468.449	13227.15
468.654	12893.33
