Data from USB4F104151__134__14-44-05-467.txt Node

Date: Thu Mar 13 14:44:05 EDT 2025
User: louis
Spectrometer: USB4F10415
Trigger mode: 4
Integration Time (sec): 2.000000E-2
Scans to average: 1
Electric dark correction enabled: true
Nonlinearity correction enabled: false
Boxcar width: 0
XAxis mode: Wavelengths
Number of Pixels in Spectrum: 3648
>>>>>Begin Spectral Data<<<<<
178.204	-30.89
178.424	-30.89
178.644	-30.89
178.864	-98.47
179.084	-123.05
179.304	-18.6
179.524	-71.85
179.744	-12.46
179.964	-10.41
180.184	-14.51
180.404	18.26
180.624	51.03
180.844	24.4
181.064	-77.99
181.283	34.64
181.503	14.17
181.723	63.32
181.943	-32.94
182.163	87.89
182.383	-2.22
182.602	1.88
182.822	22.36
183.042	40.79
183.262	22.36
183.482	51.03
183.701	96.08
183.921	-30.89
184.141	-8.36
184.361	145.24
184.58	20.31
184.8	87.89
185.02	40.79
185.239	5.97
185.459	96.08
185.679	151.38
185.898	30.55
186.118	59.22
186.338	-30.89
186.557	38.74
186.777	14.17
186.997	-18.6
187.216	-4.27
187.436	130.9
187.655	10.07
187.875	87.89
188.095	-20.65
188.314	-10.41
188.534	18.26
188.753	5.97
188.973	18.26
189.192	12.12
189.412	10.07
189.631	3.93
189.851	71.51
190.07	81.75
190.29	-18.6
190.509	32.6
190.729	71.51
190.948	67.41
191.168	91.99
191.387	71.51
191.607	-10.41
191.826	36.69
192.045	42.84
192.265	67.41
192.484	71.51
192.704	-24.75
192.923	59.22
193.142	112.47
193.362	-45.23
193.581	-14.51
193.8	38.74
194.02	104.28
194.239	46.93
194.458	51.03
194.678	-12.46
194.897	65.36
195.116	40.79
195.335	5.97
195.555	-8.36
195.774	22.36
195.993	75.6
196.212	14.17
196.432	-4.27
196.651	1.88
196.87	18.26
197.089	104.28
197.308	116.56
197.528	-2.22
197.747	30.55
197.966	65.36
198.185	42.84
198.404	55.12
198.623	30.55
198.842	26.45
199.062	81.75
199.281	48.98
199.5	24.4
199.719	-8.36
199.938	-2.22
200.157	89.94
200.376	8.02
200.595	79.7
200.814	20.31
201.033	-10.41
201.252	57.17
201.471	-10.41
201.69	63.32
201.909	46.93
202.128	65.36
202.347	-16.55
202.566	14.17
202.785	-8.36
203.004	-2.22
203.223	132.95
203.442	30.55
203.661	-8.36
203.879	8.02
204.098	5.97
204.317	1.88
204.536	67.41
204.755	98.13
204.974	55.12
205.193	48.98
205.411	169.81
205.63	24.4
205.849	-10.41
206.068	130.9
206.287	30.55
206.505	18.26
206.724	63.32
206.943	14.17
207.162	-10.41
207.381	-6.31
207.599	-24.75
207.818	71.51
208.037	8.02
208.255	-55.47
208.474	71.51
208.693	87.89
208.911	22.36
209.13	-24.75
209.349	46.93
209.567	81.75
209.786	63.32
210.005	77.65
210.223	22.36
210.442	38.74
210.661	67.41
210.879	28.5
211.098	-8.36
211.316	77.65
211.535	106.32
211.753	40.79
211.972	32.6
212.191	-82.09
212.409	63.32
212.628	51.03
212.846	18.26
213.065	71.51
213.283	46.93
213.502	18.26
213.72	61.27
213.938	-0.17
214.157	24.4
214.375	63.32
214.594	81.75
214.812	137.04
215.031	5.97
215.249	38.74
215.467	30.55
215.686	-34.99
215.904	61.27
216.122	96.08
216.341	57.17
216.559	71.51
216.778	53.08
216.996	22.36
217.214	48.98
217.432	65.36
217.651	67.41
217.869	-10.41
218.087	46.93
218.306	26.45
218.524	40.79
218.742	34.64
218.96	59.22
219.179	57.17
219.397	-26.79
219.615	87.89
219.833	161.62
220.051	-6.31
220.27	79.7
220.488	42.84
220.706	75.6
220.924	-0.17
221.142	55.12
221.36	30.55
221.578	-6.31
221.796	87.89
222.015	79.7
222.233	18.26
222.451	40.79
222.669	42.84
222.887	83.8
223.105	67.41
223.323	30.55
223.541	-14.51
223.759	44.88
223.977	14.17
224.195	63.32
224.413	-2.22
224.631	79.7
224.849	-32.94
225.067	-0.17
225.285	-22.7
225.503	28.5
225.721	-2.22
225.939	32.6
226.157	102.23
226.375	65.36
226.592	22.36
226.81	36.69
227.028	104.28
227.246	14.17
227.464	87.89
227.682	104.28
227.9	-0.17
228.117	67.41
228.335	100.18
228.553	24.4
228.771	30.55
228.989	40.79
229.206	77.65
229.424	104.28
229.642	22.36
229.86	40.79
230.077	32.6
230.295	-18.6
230.513	81.75
230.731	100.18
230.948	79.7
231.166	91.99
231.384	5.97
231.601	28.5
231.819	94.04
232.037	63.32
232.254	16.21
232.472	83.8
232.689	22.36
232.907	75.6
233.125	55.12
233.342	51.03
233.56	53.08
233.777	55.12
233.995	106.32
234.213	12.12
234.43	30.55
234.648	5.97
234.865	55.12
235.083	26.45
235.3	-0.17
235.518	75.6
235.735	8.02
235.953	73.56
236.17	91.99
236.388	40.79
236.605	38.74
236.822	79.7
237.04	34.64
237.257	5.97
237.475	1.88
237.692	46.93
237.909	79.7
238.127	5.97
238.344	38.74
238.562	79.7
238.779	48.98
238.996	-18.6
239.214	-2.22
239.431	18.26
239.648	8.02
239.865	40.79
240.083	48.98
240.3	26.45
240.517	-39.08
240.735	16.21
240.952	30.55
241.169	112.47
241.386	69.46
241.603	55.12
241.821	10.07
242.038	55.12
242.255	81.75
242.472	-41.13
242.689	67.41
242.907	75.6
243.124	57.17
243.341	16.21
243.558	-16.55
243.775	79.7
243.992	-32.94
244.209	38.74
244.426	96.08
244.643	79.7
244.86	46.93
245.078	110.42
245.295	81.75
245.512	22.36
245.729	1.88
245.946	48.98
246.163	22.36
246.38	-2.22
246.597	20.31
246.814	124.76
247.031	102.23
247.248	-0.17
247.464	-0.17
247.681	73.56
247.898	96.08
248.115	108.37
248.332	-28.84
248.549	112.47
248.766	112.47
248.983	48.98
249.2	-2.22
249.417	96.08
249.633	5.97
249.85	81.75
250.067	18.26
250.284	55.12
250.501	26.45
250.717	8.02
250.934	5.97
251.151	-2.22
251.368	71.51
251.585	46.93
251.801	34.64
252.018	16.21
252.235	122.71
252.451	-6.31
252.668	55.12
252.885	91.99
253.102	32.6
253.318	-8.36
253.535	24.4
253.752	38.74
253.968	48.98
254.185	22.36
254.401	20.31
254.618	38.74
254.835	38.74
255.051	57.17
255.268	38.74
255.484	22.36
255.701	30.55
255.917	59.22
256.134	81.75
256.351	24.4
256.567	-10.41
256.784	55.12
257	-6.31
257.217	67.41
257.433	83.8
257.65	67.41
257.866	-2.22
258.082	-18.6
258.299	-10.41
258.515	48.98
258.732	16.21
258.948	-14.51
259.165	-32.94
259.381	46.93
259.597	67.41
259.814	59.22
260.03	38.74
260.246	46.93
260.463	63.32
260.679	83.8
260.895	16.21
261.112	20.31
261.328	-43.18
261.544	-8.36
261.761	149.33
261.977	30.55
262.193	98.13
262.409	57.17
262.626	38.74
262.842	79.7
263.058	-2.22
263.274	8.02
263.49	83.8
263.707	-24.75
263.923	79.7
264.139	-22.7
264.355	98.13
264.571	48.98
264.787	53.08
265.004	81.75
265.22	-20.65
265.436	22.36
265.652	-32.94
265.868	42.84
266.084	42.84
266.3	67.41
266.516	5.97
266.732	34.64
266.948	-82.09
267.164	61.27
267.38	63.32
267.596	16.21
267.812	106.32
268.028	55.12
268.244	-2.22
268.46	24.4
268.676	16.21
268.892	55.12
269.108	38.74
269.324	10.07
269.54	-10.41
269.756	40.79
269.972	-34.99
270.188	24.4
270.403	22.36
270.619	55.12
270.835	24.4
271.051	71.51
271.267	-41.13
271.483	38.74
271.698	-18.6
271.914	5.97
272.13	-67.75
272.346	5.97
272.562	38.74
272.777	10.07
272.993	48.98
273.209	-12.46
273.425	28.5
273.64	75.6
273.856	73.56
274.072	18.26
274.287	14.17
274.503	91.99
274.719	55.12
274.934	63.32
275.15	24.4
275.366	94.04
275.581	75.6
275.797	32.6
276.012	75.6
276.228	10.07
276.444	1.88
276.659	32.6
276.875	-71.85
277.09	-10.41
277.306	55.12
277.521	71.51
277.737	36.69
277.952	83.8
278.168	59.22
278.383	10.07
278.599	55.12
278.814	65.36
279.03	-37.03
279.245	81.75
279.461	5.97
279.676	71.51
279.892	16.21
280.107	3.93
280.322	-57.51
280.538	69.46
280.753	-6.31
280.969	-6.31
281.184	59.22
281.399	112.47
281.615	3.93
281.83	26.45
282.045	14.17
282.26	79.7
282.476	12.12
282.691	30.55
282.906	42.84
283.122	26.45
283.337	18.26
283.552	5.97
283.767	-49.32
283.983	98.13
284.198	83.8
284.413	26.45
284.628	57.17
284.843	20.31
285.058	63.32
285.274	53.08
285.489	-8.36
285.704	38.74
285.919	26.45
286.134	132.95
286.349	-12.46
286.564	1.88
286.779	63.32
286.995	55.12
287.21	55.12
287.425	48.98
287.64	12.12
287.855	116.56
288.07	67.41
288.285	71.51
288.5	79.7
288.715	71.51
288.93	55.12
289.145	-22.7
289.36	79.7
289.575	57.17
289.79	87.89
290.004	87.89
290.219	-24.75
290.434	46.93
290.649	-24.75
290.864	55.12
291.079	48.98
291.294	40.79
291.509	1.88
291.724	10.07
291.938	38.74
292.153	40.79
292.368	32.6
292.583	81.75
292.798	81.75
293.012	89.94
293.227	30.55
293.442	-51.37
293.657	46.93
293.871	71.51
294.086	55.12
294.301	63.32
294.516	116.56
294.73	-51.37
294.945	8.02
295.16	48.98
295.374	22.36
295.589	104.28
295.804	34.64
296.018	40.79
296.233	46.93
296.447	71.51
296.662	67.41
296.877	34.64
297.091	30.55
297.306	75.6
297.52	40.79
297.735	77.65
297.949	30.55
298.164	65.36
298.378	53.08
298.593	38.74
298.807	10.07
299.022	14.17
299.236	96.08
299.451	38.74
299.665	73.56
299.88	-41.13
300.094	38.74
300.309	96.08
300.523	98.13
300.737	40.79
300.952	100.18
301.166	71.51
301.381	65.36
301.595	106.32
301.809	77.65
302.024	59.22
302.238	-43.18
302.452	102.23
302.667	5.97
302.881	55.12
303.095	96.08
303.309	46.93
303.524	79.7
303.738	26.45
303.952	30.55
304.166	-14.51
304.381	-2.22
304.595	-2.22
304.809	-0.17
305.023	55.12
305.237	-14.51
305.452	38.74
305.666	89.94
305.88	8.02
306.094	83.8
306.308	57.17
306.522	16.21
306.736	57.17
306.95	89.94
307.164	1.88
307.379	16.21
307.593	38.74
307.807	63.32
308.021	38.74
308.235	-30.89
308.449	38.74
308.663	-2.22
308.877	67.41
309.091	10.07
309.305	51.03
309.519	-24.75
309.733	10.07
309.947	63.32
310.161	53.08
310.374	26.45
310.588	-32.94
310.802	8.02
311.016	42.84
311.23	67.41
311.444	-0.17
311.658	63.32
311.872	22.36
312.085	67.41
312.299	159.57
312.513	77.65
312.727	48.98
312.941	-0.17
313.154	42.84
313.368	40.79
313.582	65.36
313.796	5.97
314.009	40.79
314.223	67.41
314.437	79.7
314.651	24.4
314.864	16.21
315.078	1.88
315.292	94.04
315.505	1.88
315.719	38.74
315.933	34.64
316.146	38.74
316.36	10.07
316.573	42.84
316.787	-6.31
317.001	71.51
317.214	3.93
317.428	32.6
317.641	67.41
317.855	77.65
318.068	14.17
318.282	46.93
318.495	30.55
318.709	73.56
318.922	67.41
319.136	89.94
319.349	98.13
319.563	36.69
319.776	22.36
319.99	40.79
320.203	30.55
320.417	46.93
320.63	42.84
320.843	67.41
321.057	55.12
321.27	59.22
321.483	48.98
321.697	106.32
321.91	96.08
322.124	8.02
322.337	63.32
322.55	79.7
322.763	10.07
322.977	91.99
323.19	77.65
323.403	122.71
323.617	32.6
323.83	61.27
324.043	18.26
324.256	65.36
324.469	5.97
324.683	51.03
324.896	5.97
325.109	89.94
325.322	-18.6
325.535	73.56
325.748	44.88
325.962	42.84
326.175	104.28
326.388	89.94
326.601	108.37
326.814	46.93
327.027	-18.6
327.24	116.56
327.453	1.88
327.666	46.93
327.879	67.41
328.092	30.55
328.305	-2.22
328.518	-6.31
328.731	18.26
328.944	79.7
329.157	10.07
329.37	-0.17
329.583	65.36
329.796	87.89
330.009	22.36
330.222	32.6
330.435	53.08
330.648	89.94
330.861	59.22
331.073	14.17
331.286	75.6
331.499	48.98
331.712	5.97
331.925	18.26
332.138	102.23
332.35	106.32
332.563	-34.99
332.776	-26.79
332.989	79.7
333.202	57.17
333.414	71.51
333.627	59.22
333.84	61.27
334.053	42.84
334.265	-32.94
334.478	77.65
334.691	46.93
334.903	128.85
335.116	24.4
335.329	16.21
335.541	3.93
335.754	81.75
335.966	14.17
336.179	65.36
336.392	-10.41
336.604	-14.51
336.817	100.18
337.029	71.51
337.242	63.32
337.454	104.28
337.667	51.03
337.88	42.84
338.092	104.28
338.305	40.79
338.517	-47.27
338.729	38.74
338.942	147.28
339.154	71.51
339.367	-12.46
339.579	14.17
339.792	-0.17
340.004	8.02
340.217	44.88
340.429	63.32
340.641	71.51
340.854	81.75
341.066	30.55
341.278	65.36
341.491	96.08
341.703	73.56
341.915	30.55
342.128	102.23
342.34	81.75
342.552	-2.22
342.764	75.6
342.977	8.02
343.189	96.08
343.401	73.56
343.613	65.36
343.826	57.17
344.038	-37.03
344.25	40.79
344.462	-8.36
344.674	71.51
344.886	16.21
345.099	104.28
345.311	63.32
345.523	18.26
345.735	5.97
345.947	55.12
346.159	42.84
346.371	73.56
346.583	30.55
346.795	112.47
347.007	42.84
347.219	100.18
347.431	5.97
347.643	34.64
347.855	-18.6
348.067	48.98
348.279	22.36
348.491	77.65
348.703	40.79
348.915	24.4
349.127	30.55
349.339	38.74
349.551	36.69
349.763	120.66
349.975	32.6
350.187	130.9
350.399	71.51
350.61	79.7
350.822	71.51
351.034	51.03
351.246	26.45
351.458	48.98
351.669	22.36
351.881	112.47
352.093	-10.41
352.305	32.6
352.517	51.03
352.728	34.64
352.94	-12.46
353.152	40.79
353.363	-6.31
353.575	130.9
353.787	57.17
353.999	63.32
354.21	46.93
354.422	59.22
354.633	57.17
354.845	16.21
355.057	100.18
355.268	30.55
355.48	30.55
355.692	57.17
355.903	28.5
356.115	22.36
356.326	73.56
356.538	112.47
356.749	-0.17
356.961	46.93
357.172	5.97
357.384	96.08
357.595	55.12
357.807	30.55
358.018	51.03
358.23	-28.84
358.441	126.8
358.653	87.89
358.864	18.26
359.075	22.36
359.287	30.55
359.498	91.99
359.709	73.56
359.921	96.08
360.132	67.41
360.344	87.89
360.555	75.6
360.766	38.74
360.977	51.03
361.189	73.56
361.4	10.07
361.611	79.7
361.823	32.6
362.034	91.99
362.245	46.93
362.456	30.55
362.667	71.51
362.879	98.13
363.09	96.08
363.301	79.7
363.512	57.17
363.723	1.88
363.935	-26.79
364.146	106.32
364.357	-18.6
364.568	91.99
364.779	14.17
364.99	108.37
365.201	22.36
365.412	73.56
365.623	5.97
365.834	63.32
366.045	98.13
366.256	55.12
366.467	67.41
366.678	106.32
366.889	10.07
367.1	75.6
367.311	30.55
367.522	-4.27
367.733	48.98
367.944	122.71
368.155	98.13
368.366	73.56
368.577	71.51
368.788	124.76
368.999	-8.36
369.209	26.45
369.42	63.32
369.631	71.51
369.842	18.26
370.053	55.12
370.264	83.8
370.474	32.6
370.685	26.45
370.896	24.4
371.107	79.7
371.317	55.12
371.528	79.7
371.739	94.04
371.95	73.56
372.16	57.17
372.371	46.93
372.582	40.79
372.792	40.79
373.003	40.79
373.214	102.23
373.424	42.84
373.635	38.74
373.846	139.09
374.056	96.08
374.267	102.23
374.477	46.93
374.688	-34.99
374.898	73.56
375.109	51.03
375.319	55.12
375.53	57.17
375.74	5.97
375.951	28.5
376.161	100.18
376.372	79.7
376.582	-8.36
376.793	108.37
377.003	-10.41
377.214	14.17
377.424	-4.27
377.635	51.03
377.845	10.07
378.055	79.7
378.266	32.6
378.476	30.55
378.686	26.45
378.897	42.84
379.107	75.6
379.317	73.56
379.528	100.18
379.738	42.84
379.948	-0.17
380.158	55.12
380.369	40.79
380.579	55.12
380.789	22.36
380.999	81.75
381.21	38.74
381.42	32.6
381.63	110.42
381.84	79.7
382.05	55.12
382.261	57.17
382.471	30.55
382.681	89.94
382.891	8.02
383.101	40.79
383.311	79.7
383.521	112.47
383.731	79.7
383.941	145.24
384.151	14.17
384.361	67.41
384.571	51.03
384.781	79.7
384.991	118.61
385.201	137.04
385.411	46.93
385.621	89.94
385.831	38.74
386.041	-0.17
386.251	36.69
386.461	112.47
386.671	-22.7
386.881	79.7
387.091	110.42
387.301	128.85
387.511	5.97
387.72	36.69
387.93	57.17
388.14	65.36
388.35	1.88
388.56	57.17
388.769	104.28
388.979	79.7
389.189	14.17
389.399	71.51
389.609	108.37
389.818	71.51
390.028	153.43
390.238	65.36
390.447	24.4
390.657	112.47
390.867	-6.31
391.076	91.99
391.286	106.32
391.496	71.51
391.705	98.13
391.915	34.64
392.125	48.98
392.334	63.32
392.544	57.17
392.753	81.75
392.963	-8.36
393.172	22.36
393.382	71.51
393.591	104.28
393.801	55.12
394.01	94.04
394.22	32.6
394.429	63.32
394.639	38.74
394.848	104.28
395.058	42.84
395.267	14.17
395.477	63.32
395.686	71.51
395.895	42.84
396.105	114.52
396.314	100.18
396.524	42.84
396.733	112.47
396.942	69.46
397.152	22.36
397.361	12.12
397.57	55.12
397.78	38.74
397.989	55.12
398.198	149.33
398.407	94.04
398.617	79.7
398.826	55.12
399.035	65.36
399.244	-22.7
399.453	53.08
399.663	141.14
399.872	120.66
400.081	112.47
400.29	157.52
400.499	59.22
400.708	120.66
400.917	112.47
401.127	73.56
401.336	46.93
401.545	151.38
401.754	96.08
401.963	73.56
402.172	24.4
402.381	106.32
402.59	57.17
402.799	124.76
403.008	65.36
403.217	79.7
403.426	116.56
403.635	67.41
403.844	122.71
404.053	161.62
404.262	94.04
404.471	245.59
404.68	145.24
404.888	161.62
405.097	106.32
405.306	153.43
405.515	130.9
405.724	128.85
405.933	194.39
406.142	186.19
406.35	108.37
406.559	216.91
406.768	120.66
406.977	186.19
407.185	206.67
407.394	139.09
407.603	161.62
407.812	206.67
408.02	120.66
408.229	206.67
408.438	274.26
408.646	198.48
408.855	200.53
409.064	202.58
409.272	165.71
409.481	276.31
409.69	218.96
409.898	229.2
410.107	210.77
410.315	245.59
410.524	253.78
410.733	259.92
410.941	212.82
411.15	245.59
411.358	292.69
411.567	382.8
411.775	300.88
411.984	352.08
412.192	425.81
412.401	284.5
412.609	419.66
412.818	264.02
413.026	405.33
413.234	431.95
413.443	386.9
413.651	390.99
413.86	456.53
414.068	503.63
414.276	456.53
414.485	468.81
414.693	477.01
414.901	497.49
415.11	542.54
415.318	522.06
415.526	579.4
415.734	603.98
415.943	640.84
416.151	644.94
416.359	616.27
416.567	640.84
416.776	620.36
416.984	702.28
417.192	788.3
417.4	702.28
417.608	743.24
417.817	677.71
418.025	802.63
418.233	931.66
418.441	859.98
418.649	862.02
418.857	935.75
419.065	1013.57
419.273	1017.67
419.481	952.13
419.689	1003.33
419.897	1015.62
420.105	1029.96
420.313	1032.01
420.521	1105.73
420.729	1195.84
420.937	1195.84
421.145	1226.56
421.353	1398.59
421.561	1431.36
421.769	1402.69
421.977	1390.4
422.185	1462.08
422.393	1609.53
422.601	1574.72
422.809	1603.39
423.017	1640.25
423.224	1726.27
423.432	1873.72
423.64	1793.85
423.848	2045.75
424.056	1996.6
424.263	2049.85
424.471	2092.85
424.679	2207.54
424.887	2187.06
425.094	2287.41
425.302	2375.47
425.51	2324.27
425.718	2522.93
425.925	2414.38
426.133	2629.42
426.341	2688.81
426.548	2905.9
426.756	2778.92
426.964	2914.09
427.171	3094.31
427.379	2996.01
427.586	3151.65
427.794	3280.68
428.001	3389.22
428.209	3606.3
428.417	3381.03
428.624	3897.11
428.832	3632.93
429.039	3798.81
429.247	3626.78
429.454	3958.55
429.662	4278.04
429.869	4063
430.076	4450.07
430.284	4288.28
430.491	4384.53
430.699	4673.29
430.906	4564.75
431.114	4742.92
431.321	4851.47
431.528	5084.94
431.736	5234.44
431.943	5412.61
432.15	5420.8
432.358	5633.79
432.565	5783.29
432.772	5682.94
432.979	6137.59
433.187	6059.77
433.394	6174.46
433.601	6592.24
433.808	6506.23
434.016	6465.27
434.223	6700.78
434.43	7112.42
434.637	7126.76
434.844	7493.35
435.052	7663.33
435.259	7454.44
435.466	7573.22
435.673	7612.13
435.88	7909.08
436.087	8457.94
436.294	8550.1
436.501	8390.36
436.708	8304.34
436.915	8738.51
437.122	9058
437.329	9037.52
437.537	9297.61
437.743	9443.01
437.95	9426.63
438.157	9848.51
438.364	10172.09
438.571	10032.83
438.778	10245.82
438.985	11187.88
439.192	10737.33
439.399	11017.9
439.606	10802.86
439.813	11605.67
440.02	12009.12
440.227	11968.16
440.433	11820.7
440.64	12312.22
440.847	12060.32
441.054	12420.76
441.261	13244.04
441.467	12908.18
441.674	13313.67
441.881	13817.47
442.088	13749.89
442.294	13809.28
442.501	13903.49
442.708	14329.47
442.914	14835.31
443.121	15269.48
443.328	15038.06
443.534	15875.68
443.741	15591.02
443.948	15130.22
444.154	16445.02
444.361	16297.56
444.568	16672.34
444.774	16543.32
444.981	16784.98
445.187	17221.2
445.394	17915.46
445.6	17735.24
445.807	19226.16
446.013	18472.51
446.22	18662.97
446.426	19697.19
446.633	19705.38
446.839	20702.75
447.046	19789.35
447.252	20887.06
447.459	20481.56
447.665	20700.7
447.871	21552.65
448.078	22337.02
448.284	21431.82
448.491	22017.54
448.697	22840.82
448.903	23231.99
449.11	23326.19
449.316	22969.85
449.522	23305.71
449.728	23965.16
449.935	24208.87
450.141	24335.84
450.347	24548.83
450.553	23893.48
450.76	24200.68
450.966	25007.58
451.172	25054.68
451.378	25609.68
451.584	25001.43
451.791	25363.92
451.997	25646.54
452.203	25959.88
452.409	25837
452.615	25781.71
452.821	24718.81
453.027	24606.17
453.233	25873.87
453.44	24935.9
453.646	25433.55
453.852	25724.36
454.058	25855.43
454.264	24774.11
454.47	25918.92
454.676	24983
454.882	25433.55
455.088	23569.9
455.294	23950.82
455.5	24583.65
455.705	24837.59
455.911	23518.7
456.117	23256.56
456.323	22877.69
456.529	21820.94
456.735	22509.05
456.941	22042.12
457.147	21808.65
457.352	20878.87
457.558	20876.82
457.764	21052.95
457.97	20639.26
458.176	19893.8
458.381	20008.48
458.587	19207.73
458.793	18986.55
458.999	18167.36
459.204	19478.06
459.41	18855.48
459.616	17573.45
459.821	17669.7
460.027	17733.19
460.233	17223.25
460.438	16361.05
460.644	16571.99
460.85	15666.79
461.055	15531.62
461.261	15527.53
461.466	14325.37
461.672	13997.7
461.878	15091.31
462.083	14042.75
462.289	13708.93
462.494	13743.75
462.7	12957.33
462.905	12754.58
463.111	13080.21
463.316	13178.51
463.522	12760.72
463.727	12996.24
463.932	12791.44
464.138	12629.65
464.343	12707.48
464.549	12590.74
464.754	12834.45
464.959	12777.11
465.165	12537.49
465.37	11986.59
465.575	11820.7
465.781	12334.75
465.986	12304.03
466.191	11867.81
466.397	11607.72
466.602	11116.2
466.807	11591.33
467.012	11472.55
467.218	11298.47
467.423	11189.93
467.628	11269.8
467.833	11763.36
468.038	11290.28
468.244	11222.7
