Data from USB4F104151__6__14-42-30-710.txt Node

Date: Thu Mar 13 14:42:30 EDT 2025
User: louis
Spectrometer: USB4F10415
Trigger mode: 4
Integration Time (sec): 2.000000E-2
Scans to average: 1
Electric dark correction enabled: true
Nonlinearity correction enabled: false
Boxcar width: 0
XAxis mode: Wavelengths
Number of Pixels in Spectrum: 3648
>>>>>Begin Spectral Data<<<<<
178.204	-98.47
178.424	-98.47
178.644	-98.47
178.864	-164.01
179.084	-47.27
179.304	12.12
179.524	-41.13
179.744	-121
179.964	24.4
180.184	69.46
180.404	-6.31
180.624	42.84
180.844	26.45
181.064	-77.99
181.283	8.02
181.503	-39.08
181.723	102.23
181.943	-12.46
182.163	59.22
182.383	59.22
182.602	65.36
182.822	46.93
183.042	59.22
183.262	24.4
183.482	36.69
183.701	-16.55
183.921	-6.31
184.141	-8.36
184.361	-20.65
184.58	18.26
184.8	1.88
185.02	12.12
185.239	57.17
185.459	34.64
185.679	8.02
185.898	-47.27
186.118	-0.17
186.338	-37.03
186.557	67.41
186.777	-0.17
186.997	59.22
187.216	-8.36
187.436	20.31
187.655	-6.31
187.875	16.21
188.095	-6.31
188.314	81.75
188.534	40.79
188.753	-65.71
188.973	59.22
189.192	55.12
189.412	-41.13
189.631	-18.6
189.851	51.03
190.07	59.22
190.29	-41.13
190.509	42.84
190.729	-43.18
190.948	42.84
191.168	143.19
191.387	65.36
191.607	22.36
191.826	1.88
192.045	-16.55
192.265	32.6
192.484	-8.36
192.704	42.84
192.923	16.21
193.142	94.04
193.362	110.42
193.581	85.84
193.8	89.94
194.02	46.93
194.239	-0.17
194.458	8.02
194.678	16.21
194.897	71.51
195.116	67.41
195.335	73.56
195.555	8.02
195.774	12.12
195.993	-6.31
196.212	-0.17
196.432	-2.22
196.651	42.84
196.87	20.31
197.089	94.04
197.308	48.98
197.528	67.41
197.747	-0.17
197.966	-6.31
198.185	73.56
198.404	-32.94
198.623	22.36
198.842	40.79
199.062	57.17
199.281	40.79
199.5	53.08
199.719	-22.7
199.938	55.12
200.157	14.17
200.376	26.45
200.595	67.41
200.814	36.69
201.033	-65.71
201.252	1.88
201.471	34.64
201.69	55.12
201.909	32.6
202.128	73.56
202.347	71.51
202.566	38.74
202.785	34.64
203.004	-0.17
203.223	57.17
203.442	51.03
203.661	18.26
203.879	38.74
204.098	40.79
204.317	57.17
204.536	8.02
204.755	79.7
204.974	-12.46
205.193	12.12
205.411	18.26
205.63	89.94
205.849	32.6
206.068	42.84
206.287	-20.65
206.505	34.64
206.724	-24.75
206.943	-0.17
207.162	65.36
207.381	42.84
207.599	-8.36
207.818	1.88
208.037	34.64
208.255	26.45
208.474	73.56
208.693	91.99
208.911	-24.75
209.13	18.26
209.349	51.03
209.567	16.21
209.786	69.46
210.005	-47.27
210.223	12.12
210.442	-14.51
210.661	24.4
210.879	53.08
211.098	114.52
211.316	-45.23
211.535	91.99
211.753	24.4
211.972	61.27
212.191	36.69
212.409	53.08
212.628	77.65
212.846	38.74
213.065	20.31
213.283	98.13
213.502	14.17
213.72	81.75
213.938	40.79
214.157	30.55
214.375	102.23
214.594	18.26
214.812	18.26
215.031	26.45
215.249	-14.51
215.467	100.18
215.686	42.84
215.904	85.84
216.122	1.88
216.341	85.84
216.559	32.6
216.778	24.4
216.996	59.22
217.214	-39.08
217.432	-14.51
217.651	16.21
217.869	81.75
218.087	20.31
218.306	48.98
218.524	34.64
218.742	10.07
218.96	-10.41
219.179	36.69
219.397	40.79
219.615	96.08
219.833	24.4
220.051	5.97
220.27	53.08
220.488	163.67
220.706	-24.75
220.924	10.07
221.142	48.98
221.36	-32.94
221.578	81.75
221.796	83.8
222.015	16.21
222.233	14.17
222.451	71.51
222.669	32.6
222.887	51.03
223.105	-26.79
223.323	26.45
223.541	44.88
223.759	8.02
223.977	24.4
224.195	94.04
224.413	-24.75
224.631	24.4
224.849	-82.09
225.067	5.97
225.285	65.36
225.503	24.4
225.721	-14.51
225.939	75.6
226.157	130.9
226.375	100.18
226.592	-20.65
226.81	20.31
227.028	91.99
227.246	83.8
227.464	38.74
227.682	67.41
227.9	40.79
228.117	94.04
228.335	73.56
228.553	-37.03
228.771	42.84
228.989	48.98
229.206	-20.65
229.424	10.07
229.642	-37.03
229.86	81.75
230.077	16.21
230.295	32.6
230.513	51.03
230.731	102.23
230.948	61.27
231.166	10.07
231.384	8.02
231.601	42.84
231.819	65.36
232.037	-14.51
232.254	-16.55
232.472	63.32
232.689	1.88
232.907	26.45
233.125	-22.7
233.342	-34.99
233.56	-12.46
233.777	-0.17
233.995	42.84
234.213	61.27
234.43	106.32
234.648	91.99
234.865	32.6
235.083	24.4
235.3	-30.89
235.518	73.56
235.735	69.46
235.953	20.31
236.17	42.84
236.388	108.37
236.605	122.71
236.822	38.74
237.04	67.41
237.257	16.21
237.475	5.97
237.692	-49.32
237.909	22.36
238.127	18.26
238.344	26.45
238.562	114.52
238.779	36.69
238.996	-24.75
239.214	-39.08
239.431	14.17
239.648	-0.17
239.865	20.31
240.083	83.8
240.3	-0.17
240.517	20.31
240.735	48.98
240.952	75.6
241.169	30.55
241.386	73.56
241.603	1.88
241.821	-12.46
242.038	5.97
242.255	77.65
242.472	48.98
242.689	30.55
242.907	-12.46
243.124	18.26
243.341	32.6
243.558	-41.13
243.775	-12.46
243.992	79.7
244.209	-16.55
244.426	61.27
244.643	51.03
244.86	-24.75
245.078	85.84
245.295	51.03
245.512	61.27
245.729	-53.42
245.946	100.18
246.163	57.17
246.38	32.6
246.597	-24.75
246.814	53.08
247.031	22.36
247.248	75.6
247.464	32.6
247.681	51.03
247.898	40.79
248.115	61.27
248.332	24.4
248.549	20.31
248.766	59.22
248.983	69.46
249.2	-16.55
249.417	51.03
249.633	-57.51
249.85	87.89
250.067	91.99
250.284	-6.31
250.501	26.45
250.717	32.6
250.934	24.4
251.151	-16.55
251.368	32.6
251.585	16.21
251.801	32.6
252.018	59.22
252.235	53.08
252.451	-8.36
252.668	-43.18
252.885	73.56
253.102	36.69
253.318	12.12
253.535	5.97
253.752	-59.56
253.968	10.07
254.185	-10.41
254.401	-65.71
254.618	36.69
254.835	24.4
255.051	8.02
255.268	69.46
255.484	98.13
255.701	10.07
255.917	26.45
256.134	26.45
256.351	65.36
256.567	-0.17
256.784	59.22
257	14.17
257.217	12.12
257.433	61.27
257.65	114.52
257.866	57.17
258.082	16.21
258.299	-26.79
258.515	18.26
258.732	-10.41
258.948	-8.36
259.165	-0.17
259.381	24.4
259.597	22.36
259.814	83.8
260.03	40.79
260.246	48.98
260.463	34.64
260.679	73.56
260.895	114.52
261.112	73.56
261.328	32.6
261.544	61.27
261.761	114.52
261.977	3.93
262.193	-2.22
262.409	18.26
262.626	-32.94
262.842	40.79
263.058	-30.89
263.274	128.85
263.49	-8.36
263.707	108.37
263.923	75.6
264.139	-0.17
264.355	-8.36
264.571	163.67
264.787	-24.75
265.004	20.31
265.22	10.07
265.436	61.27
265.652	-8.36
265.868	40.79
266.084	-34.99
266.3	48.98
266.516	-30.89
266.732	18.26
266.948	-41.13
267.164	81.75
267.38	-12.46
267.596	-0.17
267.812	36.69
268.028	28.5
268.244	5.97
268.46	24.4
268.676	40.79
268.892	14.17
269.108	42.84
269.324	8.02
269.54	-12.46
269.756	81.75
269.972	34.64
270.188	18.26
270.403	-14.51
270.619	81.75
270.835	8.02
271.051	65.36
271.267	-14.51
271.483	14.17
271.698	-34.99
271.914	89.94
272.13	8.02
272.346	-32.94
272.562	-14.51
272.777	122.71
272.993	-26.79
273.209	51.03
273.425	85.84
273.64	18.26
273.856	53.08
274.072	1.88
274.287	51.03
274.503	67.41
274.719	94.04
274.934	61.27
275.15	53.08
275.366	42.84
275.581	-41.13
275.797	12.12
276.012	-16.55
276.228	10.07
276.444	8.02
276.659	77.65
276.875	-12.46
277.09	69.46
277.306	83.8
277.521	42.84
277.737	24.4
277.952	8.02
278.168	22.36
278.383	-26.79
278.599	59.22
278.814	48.98
279.03	-12.46
279.245	57.17
279.461	8.02
279.676	67.41
279.892	20.31
280.107	100.18
280.322	12.12
280.538	5.97
280.753	48.98
280.969	40.79
281.184	44.88
281.399	20.31
281.615	-26.79
281.83	116.56
282.045	-14.51
282.26	57.17
282.476	51.03
282.691	16.21
282.906	51.03
283.122	34.64
283.337	26.45
283.552	73.56
283.767	57.17
283.983	40.79
284.198	8.02
284.413	-37.03
284.628	-61.61
284.843	-4.27
285.058	73.56
285.274	12.12
285.489	12.12
285.704	81.75
285.919	36.69
286.134	65.36
286.349	32.6
286.564	59.22
286.779	8.02
286.995	51.03
287.21	-0.17
287.425	26.45
287.64	10.07
287.855	-14.51
288.07	3.93
288.285	14.17
288.5	79.7
288.715	73.56
288.93	61.27
289.145	67.41
289.36	59.22
289.575	-6.31
289.79	48.98
290.004	-12.46
290.219	77.65
290.434	89.94
290.649	-28.84
290.864	-0.17
291.079	79.7
291.294	-30.89
291.509	8.02
291.724	59.22
291.938	10.07
292.153	77.65
292.368	32.6
292.583	-14.51
292.798	55.12
293.012	-0.17
293.227	32.6
293.442	28.5
293.657	16.21
293.871	69.46
294.086	24.4
294.301	75.6
294.516	-2.22
294.73	24.4
294.945	-41.13
295.16	34.64
295.374	8.02
295.589	87.89
295.804	20.31
296.018	44.88
296.233	89.94
296.447	34.64
296.662	8.02
296.877	83.8
297.091	38.74
297.306	106.32
297.52	10.07
297.735	-20.65
297.949	-2.22
298.164	-28.84
298.378	24.4
298.593	24.4
298.807	18.26
299.022	42.84
299.236	40.79
299.451	40.79
299.665	8.02
299.88	40.79
300.094	61.27
300.309	128.85
300.523	51.03
300.737	75.6
300.952	-16.55
301.166	-22.7
301.381	-41.13
301.595	40.79
301.809	42.84
302.024	20.31
302.238	-20.65
302.452	98.13
302.667	-16.55
302.881	1.88
303.095	48.98
303.309	40.79
303.524	61.27
303.738	77.65
303.952	-12.46
304.166	12.12
304.381	-53.42
304.595	102.23
304.809	5.97
305.023	67.41
305.237	-6.31
305.452	34.64
305.666	-4.27
305.88	89.94
306.094	65.36
306.308	38.74
306.522	-8.36
306.736	16.21
306.95	118.61
307.164	98.13
307.379	-41.13
307.593	18.26
307.807	-41.13
308.021	89.94
308.235	73.56
308.449	20.31
308.663	-8.36
308.877	91.99
309.091	57.17
309.305	79.7
309.519	-82.09
309.733	73.56
309.947	-49.32
310.161	65.36
310.374	81.75
310.588	57.17
310.802	57.17
311.016	96.08
311.23	8.02
311.444	20.31
311.658	12.12
311.872	48.98
312.085	42.84
312.299	81.75
312.513	71.51
312.727	20.31
312.941	1.88
313.154	73.56
313.368	34.64
313.582	59.22
313.796	53.08
314.009	-2.22
314.223	65.36
314.437	-41.13
314.651	69.46
314.864	53.08
315.078	-4.27
315.292	-49.32
315.505	-18.6
315.719	24.4
315.933	16.21
316.146	-4.27
316.36	36.69
316.573	65.36
316.787	-24.75
317.001	28.5
317.214	65.36
317.428	34.64
317.641	-8.36
317.855	57.17
318.068	51.03
318.282	26.45
318.495	98.13
318.709	108.37
318.922	28.5
319.136	16.21
319.349	44.88
319.563	14.17
319.776	69.46
319.99	63.32
320.203	61.27
320.417	22.36
320.63	51.03
320.843	65.36
321.057	16.21
321.27	59.22
321.483	-4.27
321.697	108.37
321.91	34.64
322.124	61.27
322.337	-0.17
322.55	-57.51
322.763	12.12
322.977	83.8
323.19	48.98
323.403	-20.65
323.617	102.23
323.83	51.03
324.043	-53.42
324.256	65.36
324.469	-6.31
324.683	108.37
324.896	8.02
325.109	8.02
325.322	-16.55
325.535	89.94
325.748	26.45
325.962	-6.31
326.175	-8.36
326.388	98.13
326.601	48.98
326.814	20.31
327.027	-4.27
327.24	8.02
327.453	-39.08
327.666	51.03
327.879	32.6
328.092	8.02
328.305	1.88
328.518	1.88
328.731	8.02
328.944	36.69
329.157	1.88
329.37	59.22
329.583	83.8
329.796	85.84
330.009	20.31
330.222	12.12
330.435	135
330.648	57.17
330.861	53.08
331.073	-12.46
331.286	3.93
331.499	-41.13
331.712	5.97
331.925	3.93
332.138	28.5
332.35	85.84
332.563	81.75
332.776	55.12
332.989	75.6
333.202	-0.17
333.414	81.75
333.627	24.4
333.84	40.79
334.053	34.64
334.265	-16.55
334.478	42.84
334.691	94.04
334.903	26.45
335.116	77.65
335.329	36.69
335.541	65.36
335.754	57.17
335.966	40.79
336.179	42.84
336.392	51.03
336.604	12.12
336.817	79.7
337.029	51.03
337.242	-30.89
337.454	34.64
337.667	79.7
337.88	91.99
338.092	48.98
338.305	44.88
338.517	-6.31
338.729	100.18
338.942	-22.7
339.154	-16.55
339.367	75.6
339.579	73.56
339.792	-0.17
340.004	46.93
340.217	28.5
340.429	3.93
340.641	67.41
340.854	-41.13
341.066	-41.13
341.278	16.21
341.491	122.71
341.703	24.4
341.915	16.21
342.128	139.09
342.34	42.84
342.552	-24.75
342.764	22.36
342.977	94.04
343.189	24.4
343.401	65.36
343.613	55.12
343.826	75.6
344.038	-77.99
344.25	100.18
344.462	16.21
344.674	26.45
344.886	12.12
345.099	53.08
345.311	42.84
345.523	38.74
345.735	-28.84
345.947	67.41
346.159	-8.36
346.371	75.6
346.583	20.31
346.795	100.18
347.007	34.64
347.219	106.32
347.431	10.07
347.643	69.46
347.855	51.03
348.067	122.71
348.279	-4.27
348.491	-0.17
348.703	126.8
348.915	24.4
349.127	53.08
349.339	65.36
349.551	32.6
349.763	46.93
349.975	32.6
350.187	63.32
350.399	-22.7
350.61	83.8
350.822	71.51
351.034	1.88
351.246	63.32
351.458	100.18
351.669	-28.84
351.881	12.12
352.093	40.79
352.305	24.4
352.517	36.69
352.728	-8.36
352.94	8.02
353.152	18.26
353.363	59.22
353.575	59.22
353.787	75.6
353.999	81.75
354.21	100.18
354.422	8.02
354.633	24.4
354.845	16.21
355.057	-16.55
355.268	28.5
355.48	-8.36
355.692	26.45
355.903	10.07
356.115	-0.17
356.326	40.79
356.538	42.84
356.749	61.27
356.961	57.17
357.172	102.23
357.384	-6.31
357.595	81.75
357.807	20.31
358.018	28.5
358.23	61.27
358.441	79.7
358.653	65.36
358.864	63.32
359.075	106.32
359.287	-14.51
359.498	51.03
359.709	69.46
359.921	3.93
360.132	51.03
360.344	-32.94
360.555	44.88
360.766	16.21
360.977	-28.84
361.189	-24.75
361.4	-43.18
361.611	51.03
361.823	89.94
362.034	46.93
362.245	12.12
362.456	-4.27
362.667	32.6
362.879	16.21
363.09	91.99
363.301	32.6
363.512	85.84
363.723	53.08
363.935	32.6
364.146	57.17
364.357	16.21
364.568	44.88
364.779	28.5
364.99	44.88
365.201	-4.27
365.412	65.36
365.623	8.02
365.834	73.56
366.045	98.13
366.256	51.03
366.467	-24.75
366.678	40.79
366.889	53.08
367.1	34.64
367.311	18.26
367.522	79.7
367.733	81.75
367.944	83.8
368.155	48.98
368.366	96.08
368.577	34.64
368.788	8.02
368.999	-26.79
369.209	65.36
369.42	53.08
369.631	42.84
369.842	55.12
370.053	40.79
370.264	26.45
370.474	16.21
370.685	57.17
370.896	89.94
371.107	48.98
371.317	36.69
371.528	1.88
371.739	61.27
371.95	40.79
372.16	38.74
372.371	24.4
372.582	-0.17
372.792	77.65
373.003	61.27
373.214	-2.22
373.424	16.21
373.635	69.46
373.846	1.88
374.056	75.6
374.267	57.17
374.477	77.65
374.688	3.93
374.898	81.75
375.109	34.64
375.319	20.31
375.53	18.26
375.74	94.04
375.951	73.56
376.161	44.88
376.372	126.8
376.582	16.21
376.793	83.8
377.003	-8.36
377.214	57.17
377.424	108.37
377.635	30.55
377.845	-0.17
378.055	114.52
378.266	48.98
378.476	79.7
378.686	32.6
378.897	46.93
379.107	-16.55
379.317	18.26
379.528	24.4
379.738	98.13
379.948	57.17
380.158	18.26
380.369	73.56
380.579	20.31
380.789	24.4
380.999	14.17
381.21	22.36
381.42	100.18
381.63	-32.94
381.84	40.79
382.05	77.65
382.261	28.5
382.471	46.93
382.681	-20.65
382.891	61.27
383.101	10.07
383.311	-4.27
383.521	83.8
383.731	94.04
383.941	26.45
384.151	81.75
384.361	40.79
384.571	69.46
384.781	-0.17
384.991	106.32
385.201	36.69
385.411	89.94
385.621	28.5
385.831	91.99
386.041	57.17
386.251	69.46
386.461	73.56
386.671	-28.84
386.881	143.19
387.091	83.8
387.301	24.4
387.511	40.79
387.72	42.84
387.93	40.79
388.14	-20.65
388.35	73.56
388.56	24.4
388.769	110.42
388.979	67.41
389.189	139.09
389.399	65.36
389.609	-2.22
389.818	83.8
390.028	77.65
390.238	65.36
390.447	-8.36
390.657	36.69
390.867	20.31
391.076	-32.94
391.286	28.5
391.496	32.6
391.705	-24.75
391.915	40.79
392.125	12.12
392.334	-24.75
392.544	71.51
392.753	59.22
392.963	-41.13
393.172	116.56
393.382	38.74
393.591	30.55
393.801	69.46
394.01	81.75
394.22	108.37
394.429	71.51
394.639	16.21
394.848	139.09
395.058	36.69
395.267	8.02
395.477	77.65
395.686	98.13
395.895	110.42
396.105	59.22
396.314	5.97
396.524	81.75
396.733	57.17
396.942	147.28
397.152	108.37
397.361	65.36
397.57	139.09
397.78	3.93
397.989	81.75
398.198	71.51
398.407	24.4
398.617	57.17
398.826	73.56
399.035	69.46
399.244	81.75
399.453	124.76
399.663	65.36
399.872	57.17
400.081	67.41
400.29	77.65
400.499	14.17
400.708	65.36
400.917	147.28
401.127	102.23
401.336	69.46
401.545	126.8
401.754	24.4
401.963	91.99
402.172	61.27
402.381	51.03
402.59	91.99
402.799	34.64
403.008	42.84
403.217	100.18
403.426	102.23
403.635	79.7
403.844	83.8
404.053	65.36
404.262	126.8
404.471	180.05
404.68	114.52
404.888	83.8
405.097	184.15
405.306	91.99
405.515	114.52
405.724	94.04
405.933	106.32
406.142	139.09
406.35	120.66
406.559	85.84
406.768	130.9
406.977	124.76
407.185	98.13
407.394	204.63
407.603	141.14
407.812	159.57
408.02	237.39
408.229	135
408.438	223.06
408.646	114.52
408.855	171.86
409.064	167.76
409.272	157.52
409.481	159.57
409.69	206.67
409.898	212.82
410.107	175.95
410.315	165.71
410.524	218.96
410.733	204.63
410.941	229.2
411.15	229.2
411.358	294.74
411.567	296.78
411.775	325.46
411.984	278.35
412.192	286.54
412.401	288.59
412.609	307.02
412.818	284.5
413.026	290.64
413.234	356.18
413.443	333.65
413.651	341.84
413.86	382.8
414.068	368.46
414.276	479.05
414.485	434
414.693	409.42
414.901	515.92
415.11	434
415.318	532.3
415.526	509.77
415.734	438.09
415.943	497.49
416.151	606.03
416.359	507.73
416.567	677.71
416.776	622.41
416.984	567.12
417.192	671.56
417.4	669.52
417.608	646.99
417.817	671.56
418.025	667.47
418.233	712.52
418.441	689.99
418.649	741.19
418.857	835.4
419.065	780.11
419.273	821.06
419.481	788.3
419.689	952.13
419.897	919.37
420.105	950.09
420.313	941.89
420.521	986.95
420.729	1001.29
420.937	1060.68
421.145	1089.35
421.353	1208.13
421.561	1218.37
421.769	1277.76
421.977	1210.18
422.185	1238.85
422.393	1376.06
422.601	1431.36
422.809	1523.52
423.017	1476.41
423.224	1500.99
423.432	1492.8
423.64	1630.01
423.848	1746.75
424.056	1756.99
424.263	1826.62
424.471	1744.7
424.679	1871.67
424.887	1990.45
425.094	1998.65
425.302	2090.81
425.51	2088.76
425.718	2123.57
425.925	2099
426.133	2191.16
426.341	2457.39
426.548	2404.14
426.756	2494.26
426.964	2508.59
427.171	2678.57
427.379	2748.2
427.586	2780.97
427.794	2817.83
428.001	3039.01
428.209	3106.6
428.417	3104.55
428.624	3229.48
428.832	3270.44
429.039	3419.94
429.247	3303.2
429.454	3616.54
429.662	3956.5
429.869	3497.76
430.076	3817.24
430.284	3694.36
430.491	3919.64
430.699	4054.81
430.906	4128.53
431.114	4163.35
431.321	4419.35
431.528	4384.53
431.736	4495.12
431.943	4978.44
432.15	4603.66
432.358	4695.82
432.565	5093.13
432.772	5013.26
432.979	5295.88
433.187	5414.66
433.394	5369.6
433.601	5687.04
433.808	5848.83
434.016	5752.57
434.223	5943.03
434.43	6338.29
434.637	6221.56
434.844	6602.48
435.052	6831.85
435.259	6665.97
435.466	6684.4
435.673	6815.47
435.88	7141.1
436.087	7446.24
436.294	7519.97
436.501	7360.23
436.708	7376.61
436.915	7816.93
437.122	8019.67
437.329	7904.99
437.537	8218.33
437.743	8326.87
437.95	8265.43
438.157	8715.98
438.364	9047.76
438.571	9086.67
438.778	9119.43
438.985	9823.94
439.192	9494.21
439.399	9940.67
439.606	9524.93
439.813	10237.63
440.02	10956.46
440.227	10739.38
440.433	10317.5
440.64	11040.43
440.847	10784.43
441.054	11202.22
441.261	11773.6
441.467	11583.14
441.674	11638.44
441.881	12308.12
442.088	12287.64
442.294	12369.56
442.501	12474.01
442.708	12582.55
442.914	13180.56
443.121	13672.07
443.328	13459.08
443.534	14106.24
443.741	14001.79
443.948	13584.01
444.154	14982.77
444.361	14728.82
444.568	14896.75
444.774	14761.59
444.981	14952.05
445.187	15500.9
445.394	16160.35
445.6	15773.28
445.807	17180.24
446.013	16660.06
446.22	16895.57
446.426	17698.38
446.633	17747.53
446.839	18665.02
447.046	17579.59
447.252	18595.39
447.459	18495.04
447.665	18501.18
447.871	19299.89
448.078	20317.73
448.284	19351.09
448.491	19803.69
448.697	20631.07
448.903	20821.53
449.11	21036.56
449.316	20907.54
449.522	21159.44
449.728	21548.56
449.935	22185.47
450.141	21806.6
450.347	22392.32
450.553	21693.96
450.76	21952.01
450.966	22451.71
451.172	22339.07
451.378	22879.74
451.584	22525.44
451.791	23068.15
451.997	23127.54
452.203	23268.85
452.409	23723.5
452.615	23557.61
452.821	22312.45
453.027	22228.48
453.233	23617
453.44	22814.2
453.646	22693.37
453.852	22980.09
454.058	23424.5
454.264	22543.87
454.47	23217.65
454.676	22492.67
454.882	23576.05
455.088	21251.6
455.294	21638.67
455.5	22017.54
455.705	22525.44
455.911	21145.11
456.117	20766.23
456.323	20450.85
456.529	19441.2
456.735	20495.9
456.941	19750.44
457.147	19553.83
457.352	18796.09
457.558	18847.29
457.764	18884.15
457.97	18396.73
458.176	18054.72
458.381	18196.03
458.587	17227.34
458.793	17133.14
458.999	16543.32
459.204	17512.01
459.41	16895.57
459.616	16039.52
459.821	16223.84
460.027	16158.3
460.233	15488.62
460.438	14755.44
460.644	15191.66
460.85	14282.36
461.055	14038.66
461.261	14096
461.466	13123.21
461.672	12791.44
461.878	13598.34
462.083	12682.9
462.289	12545.69
462.494	12508.82
462.7	11763.36
462.905	11552.42
463.111	12033.69
463.316	11830.94
463.522	11630.24
463.727	11568.8
463.932	11777.7
464.138	11445.93
464.343	11474.6
464.549	11263.66
464.754	11388.58
464.959	11562.66
465.165	11249.32
465.37	11005.61
465.575	10630.84
465.781	11200.17
465.986	11093.68
466.191	10813.1
466.397	10434.23
466.602	10038.97
466.807	10567.35
467.012	10370.74
467.218	10249.91
467.423	10176.19
467.628	10211
467.833	10632.88
468.038	10335.93
468.244	10200.76
468.449	10501.81
468.654	10133.18
