Data from USB4F104151__41__14-42-56-523.txt Node

Date: Thu Mar 13 14:42:56 EDT 2025
User: louis
Spectrometer: USB4F10415
Trigger mode: 4
Integration Time (sec): 2.000000E-2
Scans to average: 1
Electric dark correction enabled: true
Nonlinearity correction enabled: false
Boxcar width: 0
XAxis mode: Wavelengths
Number of Pixels in Spectrum: 3648
>>>>>Begin Spectral Data<<<<<
178.204	-136.19
178.424	-136.19
178.644	-136.19
178.864	-87.04
179.084	-164.86
179.304	33.79
179.524	21.5
179.744	-15.36
179.964	11.26
180.184	-35.84
180.404	29.7
180.624	50.18
180.844	-25.6
181.064	-17.41
181.283	15.36
181.503	-37.89
181.723	-29.7
181.943	-17.41
182.163	76.8
182.383	60.42
182.602	23.55
182.822	62.46
183.042	27.65
183.262	21.5
183.482	80.89
183.701	70.65
183.921	44.03
184.141	54.27
184.361	29.7
184.58	87.04
184.8	27.65
185.02	50.18
185.239	117.76
185.459	105.47
185.679	87.04
185.898	31.74
186.118	113.66
186.338	89.09
186.557	33.79
186.777	-68.61
186.997	46.08
187.216	-15.36
187.436	80.89
187.655	35.84
187.875	109.57
188.095	78.85
188.314	125.95
188.534	148.48
188.753	3.07
188.973	52.22
189.192	37.89
189.412	97.28
189.631	54.27
189.851	48.13
190.07	80.89
190.29	7.17
190.509	44.03
190.729	66.56
190.948	101.37
191.168	265.21
191.387	64.51
191.607	37.89
191.826	52.22
192.045	7.17
192.265	29.7
192.484	21.5
192.704	46.08
192.923	87.04
193.142	109.57
193.362	29.7
193.581	70.65
193.8	23.55
194.02	103.42
194.239	60.42
194.458	66.56
194.678	17.41
194.897	60.42
195.116	35.84
195.335	103.42
195.555	95.23
195.774	68.61
195.993	52.22
196.212	15.36
196.432	48.13
196.651	31.74
196.87	119.81
197.089	19.46
197.308	76.8
197.528	101.37
197.747	-17.41
197.966	31.74
198.185	82.94
198.404	84.99
198.623	60.42
198.842	76.8
199.062	52.22
199.281	48.13
199.5	19.46
199.719	39.94
199.938	84.99
200.157	62.46
200.376	54.27
200.595	66.56
200.814	121.85
201.033	5.12
201.252	74.75
201.471	17.41
201.69	76.8
201.909	13.31
202.128	84.99
202.347	76.8
202.566	11.26
202.785	-21.5
203.004	13.31
203.223	119.81
203.442	19.46
203.661	101.37
203.879	70.65
204.098	119.81
204.317	-7.17
204.536	48.13
204.755	-5.12
204.974	84.99
205.193	80.89
205.411	160.77
205.63	52.22
205.849	27.65
206.068	-33.79
206.287	11.26
206.505	56.32
206.724	84.99
206.943	-27.65
207.162	44.03
207.381	3.07
207.599	52.22
207.818	48.13
208.037	23.55
208.255	11.26
208.474	125.95
208.693	103.42
208.911	109.57
209.13	89.09
209.349	146.43
209.567	113.66
209.786	117.76
210.005	74.75
210.223	80.89
210.442	35.84
210.661	44.03
210.879	46.08
211.098	27.65
211.316	44.03
211.535	46.08
211.753	80.89
211.972	117.76
212.191	37.89
212.409	64.51
212.628	107.52
212.846	-19.46
213.065	21.5
213.283	173.05
213.502	46.08
213.72	60.42
213.938	72.7
214.157	37.89
214.375	84.99
214.594	46.08
214.812	64.51
215.031	60.42
215.249	-50.18
215.467	119.81
215.686	48.13
215.904	97.28
216.122	27.65
216.341	144.38
216.559	39.94
216.778	76.8
216.996	31.74
217.214	5.12
217.432	78.85
217.651	99.33
217.869	23.55
218.087	134.14
218.306	62.46
218.524	60.42
218.742	27.65
218.96	111.61
219.179	78.85
219.397	1.02
219.615	125.95
219.833	84.99
220.051	39.94
220.27	56.32
220.488	132.09
220.706	-15.36
220.924	35.84
221.142	54.27
221.36	13.31
221.578	62.46
221.796	7.17
222.015	72.7
222.233	-1.02
222.451	56.32
222.669	46.08
222.887	109.57
223.105	15.36
223.323	48.13
223.541	58.37
223.759	87.04
223.977	21.5
224.195	72.7
224.413	60.42
224.631	101.37
224.849	60.42
225.067	115.71
225.285	62.46
225.503	46.08
225.721	-29.7
225.939	52.22
226.157	64.51
226.375	117.76
226.592	113.66
226.81	62.46
227.028	68.61
227.246	68.61
227.464	68.61
227.682	-17.41
227.9	76.8
228.117	33.79
228.335	74.75
228.553	33.79
228.771	130.05
228.989	99.33
229.206	11.26
229.424	11.26
229.642	48.13
229.86	93.18
230.077	37.89
230.295	68.61
230.513	35.84
230.731	117.76
230.948	78.85
231.166	5.12
231.384	19.46
231.601	29.7
231.819	99.33
232.037	93.18
232.254	44.03
232.472	84.99
232.689	-68.61
232.907	130.05
233.125	44.03
233.342	76.8
233.56	103.42
233.777	21.5
233.995	97.28
234.213	76.8
234.43	52.22
234.648	72.7
234.865	80.89
235.083	54.27
235.3	1.02
235.518	125.95
235.735	62.46
235.953	117.76
236.17	101.37
236.388	-54.27
236.605	78.85
236.822	158.72
237.04	113.66
237.257	68.61
237.475	5.12
237.692	31.74
237.909	105.47
238.127	87.04
238.344	25.6
238.562	68.61
238.779	52.22
238.996	-11.26
239.214	60.42
239.431	111.61
239.648	-17.41
239.865	154.62
240.083	95.23
240.3	60.42
240.517	-17.41
240.735	109.57
240.952	70.65
241.169	52.22
241.386	19.46
241.603	35.84
241.821	35.84
242.038	66.56
242.255	80.89
242.472	27.65
242.689	117.76
242.907	66.56
243.124	46.08
243.341	78.85
243.558	56.32
243.775	31.74
243.992	7.17
244.209	93.18
244.426	103.42
244.643	39.94
244.86	101.37
245.078	44.03
245.295	111.61
245.512	117.76
245.729	56.32
245.946	158.72
246.163	60.42
246.38	52.22
246.597	39.94
246.814	25.6
247.031	68.61
247.248	101.37
247.464	89.09
247.681	66.56
247.898	60.42
248.115	70.65
248.332	62.46
248.549	82.94
248.766	87.04
248.983	119.81
249.2	44.03
249.417	115.71
249.633	76.8
249.85	68.61
250.067	37.89
250.284	91.13
250.501	46.08
250.717	35.84
250.934	-1.02
251.151	15.36
251.368	68.61
251.585	68.61
251.801	37.89
252.018	-9.22
252.235	125.95
252.451	5.12
252.668	62.46
252.885	54.27
253.102	78.85
253.318	76.8
253.535	11.26
253.752	95.23
253.968	103.42
254.185	-17.41
254.401	119.81
254.618	17.41
254.835	-11.26
255.051	37.89
255.268	91.13
255.484	-13.31
255.701	-21.5
255.917	84.99
256.134	35.84
256.351	72.7
256.567	33.79
256.784	60.42
257	11.26
257.217	136.19
257.433	37.89
257.65	84.99
257.866	111.61
258.082	54.27
258.299	27.65
258.515	109.57
258.732	35.84
258.948	105.47
259.165	121.85
259.381	74.75
259.597	44.03
259.814	50.18
260.03	19.46
260.246	119.81
260.463	109.57
260.679	152.57
260.895	11.26
261.112	3.07
261.328	44.03
261.544	19.46
261.761	89.09
261.977	3.07
262.193	21.5
262.409	105.47
262.626	52.22
262.842	166.91
263.058	103.42
263.274	68.61
263.49	150.53
263.707	134.14
263.923	35.84
264.139	44.03
264.355	17.41
264.571	87.04
264.787	56.32
265.004	109.57
265.22	64.51
265.436	35.84
265.652	68.61
265.868	35.84
266.084	52.22
266.3	119.81
266.516	89.09
266.732	68.61
266.948	66.56
267.164	50.18
267.38	68.61
267.596	95.23
267.812	125.95
268.028	39.94
268.244	56.32
268.46	52.22
268.676	87.04
268.892	109.57
269.108	58.37
269.324	15.36
269.54	29.7
269.756	80.89
269.972	46.08
270.188	44.03
270.403	31.74
270.619	37.89
270.835	138.24
271.051	87.04
271.267	113.66
271.483	44.03
271.698	84.99
271.914	101.37
272.13	70.65
272.346	35.84
272.562	-9.22
272.777	93.18
272.993	125.95
273.209	70.65
273.425	48.13
273.64	37.89
273.856	50.18
274.072	109.57
274.287	-13.31
274.503	44.03
274.719	39.94
274.934	78.85
275.15	44.03
275.366	15.36
275.581	-9.22
275.797	93.18
276.012	54.27
276.228	68.61
276.444	103.42
276.659	35.84
276.875	-66.56
277.09	70.65
277.306	27.65
277.521	152.57
277.737	7.17
277.952	62.46
278.168	58.37
278.383	128
278.599	48.13
278.814	23.55
279.03	7.17
279.245	74.75
279.461	70.65
279.676	44.03
279.892	105.47
280.107	64.51
280.322	44.03
280.538	101.37
280.753	41.98
280.969	109.57
281.184	84.99
281.399	78.85
281.615	56.32
281.83	44.03
282.045	-1.02
282.26	52.22
282.476	-5.12
282.691	84.99
282.906	44.03
283.122	56.32
283.337	52.22
283.552	60.42
283.767	41.98
283.983	-21.5
284.198	93.18
284.413	121.85
284.628	19.46
284.843	113.66
285.058	103.42
285.274	44.03
285.489	105.47
285.704	103.42
285.919	89.09
286.134	35.84
286.349	64.51
286.564	3.07
286.779	119.81
286.995	62.46
287.21	13.31
287.425	54.27
287.64	48.13
287.855	99.33
288.07	60.42
288.285	52.22
288.5	93.18
288.715	33.79
288.93	80.89
289.145	44.03
289.36	87.04
289.575	39.94
289.79	97.28
290.004	44.03
290.219	105.47
290.434	80.89
290.649	11.26
290.864	13.31
291.079	95.23
291.294	76.8
291.509	78.85
291.724	46.08
291.938	52.22
292.153	84.99
292.368	54.27
292.583	29.7
292.798	93.18
293.012	52.22
293.227	-50.18
293.442	-29.7
293.657	19.46
293.871	140.29
294.086	-13.31
294.301	125.95
294.516	50.18
294.73	39.94
294.945	89.09
295.16	76.8
295.374	128
295.589	146.43
295.804	-7.17
296.018	109.57
296.233	130.05
296.447	37.89
296.662	95.23
296.877	105.47
297.091	58.37
297.306	64.51
297.52	35.84
297.735	113.66
297.949	64.51
298.164	111.61
298.378	-5.12
298.593	27.65
298.807	-25.6
299.022	130.05
299.236	113.66
299.451	27.65
299.665	56.32
299.88	56.32
300.094	68.61
300.309	183.29
300.523	72.7
300.737	21.5
300.952	11.26
301.166	84.99
301.381	46.08
301.595	70.65
301.809	56.32
302.024	56.32
302.238	70.65
302.452	146.43
302.667	72.7
302.881	39.94
303.095	109.57
303.309	109.57
303.524	68.61
303.738	15.36
303.952	54.27
304.166	103.42
304.381	11.26
304.595	21.5
304.809	13.31
305.023	21.5
305.237	27.65
305.452	76.8
305.666	52.22
305.88	50.18
306.094	101.37
306.308	80.89
306.522	54.27
306.736	109.57
306.95	44.03
307.164	142.33
307.379	95.23
307.593	76.8
307.807	166.91
308.021	121.85
308.235	138.24
308.449	15.36
308.663	95.23
308.877	128
309.091	11.26
309.305	58.37
309.519	23.55
309.733	93.18
309.947	19.46
310.161	76.8
310.374	48.13
310.588	17.41
310.802	82.94
311.016	103.42
311.23	68.61
311.444	27.65
311.658	66.56
311.872	93.18
312.085	134.14
312.299	60.42
312.513	93.18
312.727	72.7
312.941	60.42
313.154	44.03
313.368	35.84
313.582	25.6
313.796	64.51
314.009	113.66
314.223	68.61
314.437	35.84
314.651	76.8
314.864	46.08
315.078	44.03
315.292	44.03
315.505	29.7
315.719	60.42
315.933	60.42
316.146	78.85
316.36	48.13
316.573	130.05
316.787	62.46
317.001	119.81
317.214	48.13
317.428	68.61
317.641	78.85
317.855	44.03
318.068	56.32
318.282	3.07
318.495	87.04
318.709	44.03
318.922	93.18
319.136	99.33
319.349	142.33
319.563	21.5
319.776	103.42
319.99	23.55
320.203	58.37
320.417	5.12
320.63	29.7
320.843	80.89
321.057	27.65
321.27	56.32
321.483	70.65
321.697	109.57
321.91	70.65
322.124	89.09
322.337	175.1
322.55	19.46
322.763	29.7
322.977	35.84
323.19	44.03
323.403	84.99
323.617	60.42
323.83	60.42
324.043	31.74
324.256	121.85
324.469	39.94
324.683	109.57
324.896	27.65
325.109	58.37
325.322	62.46
325.535	119.81
325.748	35.84
325.962	64.51
326.175	19.46
326.388	56.32
326.601	72.7
326.814	27.65
327.027	31.74
327.24	95.23
327.453	50.18
327.666	76.8
327.879	119.81
328.092	-60.42
328.305	84.99
328.518	3.07
328.731	76.8
328.944	35.84
329.157	80.89
329.37	80.89
329.583	91.13
329.796	134.14
330.009	35.84
330.222	91.13
330.435	19.46
330.648	109.57
330.861	78.85
331.073	62.46
331.286	64.51
331.499	119.81
331.712	35.84
331.925	-41.98
332.138	76.8
332.35	128
332.563	37.89
332.776	11.26
332.989	27.65
333.202	21.5
333.414	76.8
333.627	27.65
333.84	19.46
334.053	52.22
334.265	3.07
334.478	80.89
334.691	136.19
334.903	46.08
335.116	62.46
335.329	58.37
335.541	93.18
335.754	119.81
335.966	68.61
336.179	19.46
336.392	97.28
336.604	97.28
336.817	99.33
337.029	3.07
337.242	64.51
337.454	119.81
337.667	80.89
337.88	166.91
338.092	27.65
338.305	46.08
338.517	13.31
338.729	109.57
338.942	91.13
339.154	123.9
339.367	-29.7
339.579	78.85
339.792	7.17
340.004	48.13
340.217	68.61
340.429	68.61
340.641	80.89
340.854	-50.18
341.066	41.98
341.278	93.18
341.491	128
341.703	115.71
341.915	7.17
342.128	103.42
342.34	125.95
342.552	76.8
342.764	62.46
342.977	-7.17
343.189	99.33
343.401	60.42
343.613	72.7
343.826	27.65
344.038	70.65
344.25	54.27
344.462	-13.31
344.674	60.42
344.886	27.65
345.099	46.08
345.311	80.89
345.523	111.61
345.735	89.09
345.947	91.13
346.159	19.46
346.371	105.47
346.583	39.94
346.795	175.1
347.007	39.94
347.219	33.79
347.431	97.28
347.643	60.42
347.855	41.98
348.067	130.05
348.279	-9.22
348.491	78.85
348.703	64.51
348.915	95.23
349.127	48.13
349.339	80.89
349.551	72.7
349.763	35.84
349.975	1.02
350.187	72.7
350.399	82.94
350.61	138.24
350.822	52.22
351.034	72.7
351.246	11.26
351.458	17.41
351.669	76.8
351.881	44.03
352.093	27.65
352.305	115.71
352.517	144.38
352.728	25.6
352.94	107.52
353.152	80.89
353.363	62.46
353.575	113.66
353.787	125.95
353.999	19.46
354.21	105.47
354.422	70.65
354.633	3.07
354.845	31.74
355.057	142.33
355.268	84.99
355.48	68.61
355.692	-3.07
355.903	19.46
356.115	44.03
356.326	78.85
356.538	109.57
356.749	52.22
356.961	113.66
357.172	66.56
357.384	5.12
357.595	142.33
357.807	72.7
358.018	37.89
358.23	138.24
358.441	76.8
358.653	76.8
358.864	7.17
359.075	-70.65
359.287	60.42
359.498	39.94
359.709	93.18
359.921	48.13
360.132	70.65
360.344	72.7
360.555	101.37
360.766	44.03
360.977	44.03
361.189	95.23
361.4	21.5
361.611	125.95
361.823	111.61
362.034	121.85
362.245	93.18
362.456	93.18
362.667	-15.36
362.879	27.65
363.09	64.51
363.301	93.18
363.512	44.03
363.723	1.02
363.935	128
364.146	95.23
364.357	-11.26
364.568	29.7
364.779	35.84
364.99	91.13
365.201	107.52
365.412	89.09
365.623	37.89
365.834	103.42
366.045	48.13
366.256	87.04
366.467	76.8
366.678	35.84
366.889	72.7
367.1	13.31
367.311	93.18
367.522	48.13
367.733	68.61
367.944	99.33
368.155	52.22
368.366	142.33
368.577	138.24
368.788	130.05
368.999	60.42
369.209	134.14
369.42	89.09
369.631	121.85
369.842	48.13
370.053	23.55
370.264	177.15
370.474	-50.18
370.685	44.03
370.896	158.72
371.107	121.85
371.317	113.66
371.528	54.27
371.739	109.57
371.95	76.8
372.16	87.04
372.371	91.13
372.582	101.37
372.792	109.57
373.003	44.03
373.214	87.04
373.424	76.8
373.635	62.46
373.846	35.84
374.056	80.89
374.267	101.37
374.477	164.86
374.688	62.46
374.898	181.25
375.109	125.95
375.319	64.51
375.53	78.85
375.74	62.46
375.951	84.99
376.161	95.23
376.372	107.52
376.582	60.42
376.793	7.17
377.003	84.99
377.214	68.61
377.424	74.75
377.635	121.85
377.845	117.76
378.055	191.49
378.266	44.03
378.476	68.61
378.686	33.79
378.897	68.61
379.107	19.46
379.317	105.47
379.528	87.04
379.738	99.33
379.948	76.8
380.158	54.27
380.369	121.85
380.579	76.8
380.789	144.38
380.999	74.75
381.21	128
381.42	144.38
381.63	89.09
381.84	117.76
382.05	33.79
382.261	76.8
382.471	91.13
382.681	52.22
382.891	68.61
383.101	119.81
383.311	44.03
383.521	52.22
383.731	74.75
383.941	109.57
384.151	13.31
384.361	166.91
384.571	162.81
384.781	27.65
384.991	134.14
385.201	76.8
385.411	168.96
385.621	52.22
385.831	103.42
386.041	44.03
386.251	93.18
386.461	109.57
386.671	93.18
386.881	68.61
387.091	97.28
387.301	103.42
387.511	97.28
387.72	109.57
387.93	93.18
388.14	60.42
388.35	113.66
388.56	93.18
388.769	48.13
388.979	130.05
389.189	27.65
389.399	76.8
389.609	44.03
389.818	103.42
390.028	130.05
390.238	91.13
390.447	74.75
390.657	111.61
390.867	52.22
391.076	125.95
391.286	103.42
391.496	175.1
391.705	78.85
391.915	152.57
392.125	130.05
392.334	99.33
392.544	115.71
392.753	128
392.963	97.28
393.172	99.33
393.382	117.76
393.591	168.96
393.801	21.5
394.01	168.96
394.22	154.62
394.429	80.89
394.639	70.65
394.848	95.23
395.058	125.95
395.267	11.26
395.477	152.57
395.686	146.43
395.895	72.7
396.105	125.95
396.314	93.18
396.524	128
396.733	56.32
396.942	128
397.152	134.14
397.361	209.92
397.57	76.8
397.78	89.09
397.989	152.57
398.198	242.68
398.407	150.53
398.617	103.42
398.826	123.9
399.035	101.37
399.244	211.96
399.453	89.09
399.663	132.09
399.872	205.82
400.081	134.14
400.29	111.61
400.499	136.19
400.708	199.68
400.917	154.62
401.127	146.43
401.336	103.42
401.545	209.92
401.754	128
401.963	185.34
402.172	136.19
402.381	183.29
402.59	195.58
402.799	183.29
403.008	191.49
403.217	166.91
403.426	101.37
403.635	144.38
403.844	201.72
404.053	218.11
404.262	177.15
404.471	179.2
404.68	242.68
404.888	240.64
405.097	175.1
405.306	168.96
405.515	230.4
405.724	154.62
405.933	226.3
406.142	291.84
406.35	330.75
406.559	97.28
406.768	175.1
406.977	281.6
407.185	304.12
407.394	216.06
407.603	228.35
407.812	326.65
408.02	273.4
408.229	345.08
408.438	207.87
408.646	287.74
408.855	265.21
409.064	279.55
409.272	310.27
409.481	349.18
409.69	273.4
409.898	248.83
410.107	367.61
410.315	306.17
410.524	308.22
410.733	422.91
410.941	381.95
411.15	310.27
411.358	404.47
411.567	470.01
411.775	449.53
411.984	474.1
412.192	543.74
412.401	498.68
412.609	521.21
412.818	541.69
413.026	484.34
413.234	611.32
413.443	543.74
413.651	633.85
413.86	609.27
414.068	619.51
414.276	717.81
414.485	611.32
414.693	748.53
414.901	746.48
415.11	758.77
415.318	750.58
415.526	820.21
415.734	799.73
415.943	863.22
416.151	990.19
416.359	910.32
416.567	895.99
416.776	889.84
416.984	1070.06
417.192	998.38
417.4	1086.45
417.608	1025.01
417.817	1084.4
418.025	1151.98
418.233	1203.18
418.441	1272.81
418.649	1213.42
418.857	1493.99
419.065	1401.83
419.273	1420.27
419.481	1362.92
419.689	1522.66
419.897	1610.73
420.105	1543.14
420.313	1772.52
420.521	1612.78
420.729	1715.17
420.937	1817.57
421.145	1774.56
421.353	1962.98
421.561	1858.53
421.769	2079.71
421.977	2186.21
422.185	2137.06
422.393	2268.13
422.601	2526.17
422.809	2345.95
423.017	2460.63
423.224	2372.57
423.432	2522.07
423.64	2603.99
423.848	2814.93
424.056	2790.36
424.263	3060.69
424.471	2972.63
424.679	3044.31
424.887	3292.11
425.094	3310.54
425.302	3423.18
425.51	3476.43
425.718	3537.87
425.925	3705.8
426.133	3789.77
426.341	3918.79
426.548	4121.54
426.756	4019.14
426.964	4316.09
427.171	4346.81
427.379	4471.74
427.586	4660.15
427.794	4721.59
428.001	4912.05
428.209	5073.84
428.417	5049.27
428.624	5473.2
428.832	5510.06
429.039	5503.92
429.247	5385.13
429.454	5843.88
429.662	6319.01
429.869	5964.71
430.076	6419.36
430.284	6163.36
430.491	6421.41
430.699	6804.38
430.906	6828.95
431.114	6818.71
431.321	7091.09
431.528	7203.73
431.736	7850.89
431.943	8117.12
432.15	7844.74
432.358	7803.78
432.565	8403.84
432.772	8217.47
432.979	8774.52
433.187	8835.96
433.394	9038.71
433.601	9368.43
433.808	9526.13
434.016	9560.94
434.223	9925.48
434.43	10496.86
434.637	10533.73
434.844	10955.61
435.052	11053.91
435.259	11035.48
435.466	11207.51
435.673	11088.73
435.88	11531.09
436.087	12522.3
436.294	12507.97
436.501	12028.74
436.708	12436.29
436.915	12700.48
437.122	13439.79
437.329	13198.13
437.537	13652.78
437.743	14177.06
437.95	13984.55
438.157	14691.1
438.364	14979.87
438.571	14650.14
438.778	15229.72
438.985	16409.35
439.192	15743.76
439.399	16542.47
439.606	16104.2
439.813	17013.5
440.02	17955.57
440.227	17568.5
440.433	17486.58
440.64	18078.44
440.847	17738.48
441.054	18246.38
441.261	19509.97
441.467	19593.94
441.674	19958.48
441.881	20515.53
442.088	20468.42
442.294	20087.5
442.501	20669.12
442.708	21230.27
442.914	21711.54
443.121	22682.28
443.328	22389.42
443.534	23937.68
443.741	23247.52
443.948	22688.42
444.154	24644.23
444.361	24138.38
444.568	24494.73
444.774	24486.54
444.981	25008.77
445.187	25723.51
445.394	26897
445.6	26096.24
445.807	29071.94
446.013	27558.49
446.22	28234.32
446.426	29205.06
446.633	29614.65
446.839	30906.92
447.046	29348.42
447.252	30827.05
447.459	31185.44
447.665	31214.12
447.871	32371.22
448.078	33561.09
448.284	32121.37
448.491	32723.47
448.697	34345.46
448.903	34939.37
449.11	35250.66
449.316	34441.71
449.522	35068.39
449.728	36045.27
449.935	36667.86
450.141	36585.94
450.347	37351.88
450.553	36084.19
450.76	36747.73
450.966	37607.87
451.172	37102.03
451.378	38478.26
451.584	37474.76
451.791	38578.61
451.997	38435.25
452.203	39303.59
452.409	39045.55
452.615	38941.1
452.821	37802.43
453.027	37093.83
453.233	39088.56
453.44	37796.29
453.646	38105.53
453.852	38058.43
454.058	39436.71
454.264	37343.69
454.47	38650.29
454.676	37814.72
454.882	39215.53
455.088	35621.34
455.294	36504.02
455.5	36798.93
455.705	37349.83
455.911	35928.54
456.117	35086.82
456.323	34781.68
456.529	32883.21
456.735	34650.61
456.941	33890.81
457.147	32983.56
457.352	32039.45
457.558	31771.16
457.764	31658.52
457.97	31146.53
458.176	30868.01
458.381	30775.85
458.587	29366.85
458.793	29121.09
458.999	27841.11
459.204	29903.42
459.41	28887.62
459.616	27345.5
459.821	27312.74
460.027	27232.86
460.233	26831.46
460.438	25102.98
460.644	25467.52
460.85	24281.74
461.055	23671.45
461.261	23796.37
461.466	21985.97
461.672	21752.5
461.878	23028.38
462.083	21652.15
462.289	21111.49
462.494	20990.66
462.7	19964.62
462.905	19434.2
463.111	19911.38
463.316	20337.35
463.522	19759.83
463.727	19956.43
463.932	20005.58
464.138	19546.84
464.343	19804.88
464.549	19026.65
464.754	19770.07
464.959	19665.62
465.165	19630.8
465.37	18690.79
465.575	18070.25
465.781	19053.28
465.986	18928.35
466.191	18322.15
