Data from USB4F104151__265__14-46-03-359.txt Node

Date: Thu Mar 13 14:46:03 EDT 2025
User: louis
Spectrometer: USB4F10415
Trigger mode: 4
Integration Time (sec): 2.000000E-2
Scans to average: 1
Electric dark correction enabled: true
Nonlinearity correction enabled: false
Boxcar width: 0
XAxis mode: Wavelengths
Number of Pixels in Spectrum: 3648
>>>>>Begin Spectral Data<<<<<
178.204	-158.72
178.424	-158.72
178.644	-158.72
178.864	-111.61
179.084	-128
179.304	-23.55
179.524	-17.41
179.744	3.07
179.964	23.55
180.184	11.26
180.404	46.08
180.624	7.17
180.844	-29.7
181.064	31.74
181.283	19.46
181.503	-50.18
181.723	-21.5
181.943	-9.22
182.163	134.14
182.383	27.65
182.602	15.36
182.822	-3.07
183.042	46.08
183.262	21.5
183.482	19.46
183.701	-3.07
183.921	58.37
184.141	35.84
184.361	52.22
184.58	91.13
184.8	17.41
185.02	17.41
185.239	64.51
185.459	-9.22
185.679	-13.31
185.898	7.17
186.118	44.03
186.338	76.8
186.557	123.9
186.777	-29.7
186.997	-15.36
187.216	-17.41
187.436	82.94
187.655	64.51
187.875	111.61
188.095	-13.31
188.314	70.65
188.534	48.13
188.753	62.46
188.973	60.42
189.192	74.75
189.412	11.26
189.631	72.7
189.851	48.13
190.07	52.22
190.29	41.98
190.509	46.08
190.729	23.55
190.948	97.28
191.168	154.62
191.387	68.61
191.607	33.79
191.826	13.31
192.045	54.27
192.265	-7.17
192.484	-17.41
192.704	35.84
192.923	23.55
193.142	93.18
193.362	-52.22
193.581	136.19
193.8	70.65
194.02	35.84
194.239	5.12
194.458	5.12
194.678	21.5
194.897	64.51
195.116	-44.03
195.335	89.09
195.555	27.65
195.774	35.84
195.993	7.17
196.212	117.76
196.432	-11.26
196.651	-3.07
196.87	-33.79
197.089	121.85
197.308	35.84
197.528	-5.12
197.747	-17.41
197.966	70.65
198.185	25.6
198.404	-29.7
198.623	39.94
198.842	101.37
199.062	7.17
199.281	91.13
199.5	44.03
199.719	46.08
199.938	84.99
200.157	54.27
200.376	33.79
200.595	119.81
200.814	25.6
201.033	134.14
201.252	7.17
201.471	64.51
201.69	-3.07
201.909	101.37
202.128	80.89
202.347	19.46
202.566	31.74
202.785	-13.31
203.004	29.7
203.223	103.42
203.442	76.8
203.661	31.74
203.879	-5.12
204.098	54.27
204.317	60.42
204.536	78.85
204.755	11.26
204.974	52.22
205.193	52.22
205.411	109.57
205.63	54.27
205.849	60.42
206.068	87.04
206.287	134.14
206.505	99.33
206.724	66.56
206.943	35.84
207.162	-41.98
207.381	35.84
207.599	-11.26
207.818	72.7
208.037	31.74
208.255	48.13
208.474	11.26
208.693	3.07
208.911	39.94
209.13	19.46
209.349	68.61
209.567	56.32
209.786	72.7
210.005	17.41
210.223	97.28
210.442	7.17
210.661	35.84
210.879	44.03
211.098	39.94
211.316	-37.89
211.535	48.13
211.753	27.65
211.972	29.7
212.191	11.26
212.409	62.46
212.628	23.55
212.846	23.55
213.065	1.02
213.283	66.56
213.502	-13.31
213.72	60.42
213.938	23.55
214.157	82.94
214.375	13.31
214.594	-27.65
214.812	84.99
215.031	76.8
215.249	35.84
215.467	84.99
215.686	-3.07
215.904	97.28
216.122	68.61
216.341	44.03
216.559	19.46
216.778	7.17
216.996	-13.31
217.214	84.99
217.432	64.51
217.651	46.08
217.869	27.65
218.087	-3.07
218.306	19.46
218.524	11.26
218.742	15.36
218.96	105.47
219.179	-19.46
219.397	46.08
219.615	117.76
219.833	48.13
220.051	19.46
220.27	78.85
220.488	19.46
220.706	84.99
220.924	23.55
221.142	15.36
221.36	39.94
221.578	46.08
221.796	15.36
222.015	11.26
222.233	35.84
222.451	103.42
222.669	76.8
222.887	52.22
223.105	52.22
223.323	11.26
223.541	11.26
223.759	31.74
223.977	80.89
224.195	109.57
224.413	54.27
224.631	76.8
224.849	19.46
225.067	89.09
225.285	11.26
225.503	82.94
225.721	-39.94
225.939	19.46
226.157	78.85
226.375	134.14
226.592	-17.41
226.81	44.03
227.028	60.42
227.246	123.9
227.464	-70.65
227.682	-5.12
227.9	52.22
228.117	44.03
228.335	52.22
228.553	46.08
228.771	15.36
228.989	25.6
229.206	72.7
229.424	17.41
229.642	-19.46
229.86	-5.12
230.077	87.04
230.295	-78.85
230.513	52.22
230.731	27.65
230.948	109.57
231.166	72.7
231.384	52.22
231.601	-37.89
231.819	48.13
232.037	3.07
232.254	5.12
232.472	35.84
232.689	82.94
232.907	-1.02
233.125	68.61
233.342	44.03
233.56	-3.07
233.777	93.18
233.995	-19.46
234.213	84.99
234.43	46.08
234.648	11.26
234.865	48.13
235.083	64.51
235.3	60.42
235.518	68.61
235.735	99.33
235.953	97.28
236.17	-46.08
236.388	62.46
236.605	21.5
236.822	-13.31
237.04	44.03
237.257	89.09
237.475	-80.89
237.692	46.08
237.909	95.23
238.127	87.04
238.344	17.41
238.562	60.42
238.779	-23.55
238.996	-48.13
239.214	-91.13
239.431	13.31
239.648	13.31
239.865	19.46
240.083	66.56
240.3	-13.31
240.517	72.7
240.735	93.18
240.952	58.37
241.169	121.85
241.386	37.89
241.603	29.7
241.821	80.89
242.038	84.99
242.255	78.85
242.472	-37.89
242.689	35.84
242.907	11.26
243.124	60.42
243.341	33.79
243.558	-5.12
243.775	-84.99
243.992	-13.31
244.209	46.08
244.426	117.76
244.643	46.08
244.86	3.07
245.078	29.7
245.295	76.8
245.512	21.5
245.729	70.65
245.946	-76.8
246.163	35.84
246.38	21.5
246.597	93.18
246.814	68.61
247.031	95.23
247.248	-3.07
247.464	62.46
247.681	39.94
247.898	48.13
248.115	62.46
248.332	109.57
248.549	33.79
248.766	115.71
248.983	62.46
249.2	-5.12
249.417	99.33
249.633	84.99
249.85	54.27
250.067	70.65
250.284	44.03
250.501	13.31
250.717	39.94
250.934	25.6
251.151	134.14
251.368	54.27
251.585	31.74
251.801	89.09
252.018	-60.42
252.235	62.46
252.451	76.8
252.668	17.41
252.885	15.36
253.102	60.42
253.318	93.18
253.535	31.74
253.752	27.65
253.968	11.26
254.185	3.07
254.401	-31.74
254.618	68.61
254.835	27.65
255.051	93.18
255.268	115.71
255.484	23.55
255.701	56.32
255.917	80.89
256.134	50.18
256.351	54.27
256.567	80.89
256.784	70.65
257	-9.22
257.217	21.5
257.433	115.71
257.65	70.65
257.866	111.61
258.082	-3.07
258.299	58.37
258.515	95.23
258.732	5.12
258.948	107.52
259.165	31.74
259.381	1.02
259.597	29.7
259.814	37.89
260.03	13.31
260.246	84.99
260.463	31.74
260.679	48.13
260.895	46.08
261.112	46.08
261.328	37.89
261.544	37.89
261.761	103.42
261.977	91.13
262.193	39.94
262.409	60.42
262.626	1.02
262.842	68.61
263.058	70.65
263.274	-37.89
263.49	1.02
263.707	19.46
263.923	109.57
264.139	-25.6
264.355	13.31
264.571	70.65
264.787	-54.27
265.004	64.51
265.22	-1.02
265.436	31.74
265.652	50.18
265.868	93.18
266.084	29.7
266.3	48.13
266.516	3.07
266.732	41.98
266.948	21.5
267.164	109.57
267.38	80.89
267.596	68.61
267.812	97.28
268.028	64.51
268.244	9.22
268.46	68.61
268.676	87.04
268.892	78.85
269.108	11.26
269.324	80.89
269.54	60.42
269.756	66.56
269.972	-58.37
270.188	-29.7
270.403	72.7
270.619	56.32
270.835	56.32
271.051	46.08
271.267	72.7
271.483	-37.89
271.698	48.13
271.914	70.65
272.13	76.8
272.346	21.5
272.562	9.22
272.777	101.37
272.993	68.61
273.209	35.84
273.425	27.65
273.64	52.22
273.856	35.84
274.072	-15.36
274.287	35.84
274.503	35.84
274.719	-25.6
274.934	19.46
275.15	-17.41
275.366	93.18
275.581	-29.7
275.797	11.26
276.012	62.46
276.228	29.7
276.444	48.13
276.659	64.51
276.875	93.18
277.09	54.27
277.306	35.84
277.521	35.84
277.737	-9.22
277.952	56.32
278.168	21.5
278.383	89.09
278.599	23.55
278.814	97.28
279.03	15.36
279.245	46.08
279.461	87.04
279.676	48.13
279.892	44.03
280.107	3.07
280.322	84.99
280.538	48.13
280.753	-13.31
280.969	-19.46
281.184	44.03
281.399	21.5
281.615	13.31
281.83	27.65
282.045	-13.31
282.26	-5.12
282.476	46.08
282.691	54.27
282.906	60.42
283.122	70.65
283.337	23.55
283.552	101.37
283.767	27.65
283.983	39.94
284.198	-54.27
284.413	84.99
284.628	11.26
284.843	21.5
285.058	27.65
285.274	60.42
285.489	39.94
285.704	48.13
285.919	56.32
286.134	84.99
286.349	-39.94
286.564	72.7
286.779	121.85
286.995	52.22
287.21	-1.02
287.425	60.42
287.64	54.27
287.855	35.84
288.07	64.51
288.285	-19.46
288.5	74.75
288.715	119.81
288.93	7.17
289.145	-1.02
289.36	84.99
289.575	87.04
289.79	72.7
290.004	5.12
290.219	27.65
290.434	66.56
290.649	21.5
290.864	44.03
291.079	-21.5
291.294	80.89
291.509	54.27
291.724	52.22
291.938	35.84
292.153	76.8
292.368	27.65
292.583	31.74
292.798	19.46
293.012	9.22
293.227	52.22
293.442	7.17
293.657	60.42
293.871	21.5
294.086	-9.22
294.301	78.85
294.516	60.42
294.73	84.99
294.945	89.09
295.16	48.13
295.374	117.76
295.589	56.32
295.804	7.17
296.018	29.7
296.233	44.03
296.447	21.5
296.662	-50.18
296.877	78.85
297.091	58.37
297.306	117.76
297.52	72.7
297.735	93.18
297.949	175.1
298.164	54.27
298.378	44.03
298.593	84.99
298.807	113.66
299.022	44.03
299.236	144.38
299.451	70.65
299.665	80.89
299.88	91.13
300.094	52.22
300.309	76.8
300.523	56.32
300.737	35.84
300.952	15.36
301.166	66.56
301.381	52.22
301.595	1.02
301.809	44.03
302.024	119.81
302.238	29.7
302.452	138.24
302.667	27.65
302.881	64.51
303.095	95.23
303.309	37.89
303.524	52.22
303.738	37.89
303.952	-37.89
304.166	150.53
304.381	44.03
304.595	109.57
304.809	-70.65
305.023	84.99
305.237	89.09
305.452	52.22
305.666	89.09
305.88	-3.07
306.094	21.5
306.308	84.99
306.522	95.23
306.736	134.14
306.95	62.46
307.164	-29.7
307.379	76.8
307.593	154.62
307.807	87.04
308.021	107.52
308.235	68.61
308.449	27.65
308.663	-13.31
308.877	68.61
309.091	13.31
309.305	-15.36
309.519	15.36
309.733	101.37
309.947	48.13
310.161	68.61
310.374	76.8
310.588	48.13
310.802	19.46
311.016	52.22
311.23	89.09
311.444	82.94
311.658	78.85
311.872	103.42
312.085	78.85
312.299	76.8
312.513	35.84
312.727	27.65
312.941	54.27
313.154	62.46
313.368	68.61
313.582	78.85
313.796	-5.12
314.009	113.66
314.223	44.03
314.437	29.7
314.651	74.75
314.864	37.89
315.078	46.08
315.292	97.28
315.505	-41.98
315.719	109.57
315.933	52.22
316.146	19.46
316.36	19.46
316.573	66.56
316.787	105.47
317.001	78.85
317.214	58.37
317.428	52.22
317.641	31.74
317.855	111.61
318.068	72.7
318.282	-9.22
318.495	62.46
318.709	84.99
318.922	134.14
319.136	70.65
319.349	3.07
319.563	76.8
319.776	46.08
319.99	70.65
320.203	7.17
320.417	109.57
320.63	101.37
320.843	72.7
321.057	58.37
321.27	13.31
321.483	121.85
321.697	125.95
321.91	52.22
322.124	87.04
322.337	44.03
322.55	84.99
322.763	5.12
322.977	-13.31
323.19	52.22
323.403	130.05
323.617	60.42
323.83	107.52
324.043	35.84
324.256	48.13
324.469	35.84
324.683	84.99
324.896	97.28
325.109	35.84
325.322	84.99
325.535	125.95
325.748	23.55
325.962	35.84
326.175	44.03
326.388	113.66
326.601	99.33
326.814	7.17
327.027	78.85
327.24	113.66
327.453	-21.5
327.666	80.89
327.879	109.57
328.092	35.84
328.305	111.61
328.518	84.99
328.731	19.46
328.944	44.03
329.157	68.61
329.37	48.13
329.583	105.47
329.796	78.85
330.009	-17.41
330.222	7.17
330.435	35.84
330.648	66.56
330.861	21.5
331.073	136.19
331.286	27.65
331.499	11.26
331.712	54.27
331.925	19.46
332.138	82.94
332.35	52.22
332.563	76.8
332.776	39.94
332.989	-3.07
333.202	21.5
333.414	76.8
333.627	166.91
333.84	64.51
334.053	140.29
334.265	117.76
334.478	52.22
334.691	-17.41
334.903	62.46
335.116	31.74
335.329	35.84
335.541	76.8
335.754	103.42
335.966	35.84
336.179	70.65
336.392	54.27
336.604	52.22
336.817	113.66
337.029	3.07
337.242	52.22
337.454	-5.12
337.667	35.84
337.88	99.33
338.092	35.84
338.305	70.65
338.517	3.07
338.729	52.22
338.942	144.38
339.154	78.85
339.367	27.65
339.579	99.33
339.792	31.74
340.004	125.95
340.217	-1.02
340.429	21.5
340.641	103.42
340.854	68.61
341.066	52.22
341.278	72.7
341.491	68.61
341.703	117.76
341.915	70.65
342.128	171.01
342.34	60.42
342.552	54.27
342.764	93.18
342.977	41.98
343.189	11.26
343.401	50.18
343.613	95.23
343.826	31.74
344.038	80.89
344.25	111.61
344.462	60.42
344.674	37.89
344.886	44.03
345.099	52.22
345.311	-5.12
345.523	109.57
345.735	60.42
345.947	62.46
346.159	93.18
346.371	128
346.583	84.99
346.795	121.85
347.007	76.8
347.219	44.03
347.431	17.41
347.643	35.84
347.855	62.46
348.067	27.65
348.279	-13.31
348.491	3.07
348.703	27.65
348.915	78.85
349.127	3.07
349.339	121.85
349.551	52.22
349.763	84.99
349.975	-25.6
350.187	58.37
350.399	101.37
350.61	82.94
350.822	44.03
351.034	78.85
351.246	62.46
351.458	5.12
351.669	44.03
351.881	62.46
352.093	60.42
352.305	101.37
352.517	48.13
352.728	48.13
352.94	60.42
353.152	21.5
353.363	44.03
353.575	56.32
353.787	68.61
353.999	140.29
354.21	87.04
354.422	54.27
354.633	33.79
354.845	35.84
355.057	60.42
355.268	29.7
355.48	68.61
355.692	91.13
355.903	46.08
356.115	27.65
356.326	27.65
356.538	103.42
356.749	-21.5
356.961	201.72
357.172	35.84
357.384	27.65
357.595	80.89
357.807	76.8
358.018	84.99
358.23	89.09
358.441	111.61
358.653	125.95
358.864	31.74
359.075	52.22
359.287	91.13
359.498	60.42
359.709	84.99
359.921	60.42
360.132	66.56
360.344	101.37
360.555	27.65
360.766	60.42
360.977	15.36
361.189	52.22
361.4	37.89
361.611	68.61
361.823	84.99
362.034	60.42
362.245	11.26
362.456	78.85
362.667	39.94
362.879	56.32
363.09	87.04
363.301	11.26
363.512	-9.22
363.723	11.26
363.935	52.22
364.146	44.03
364.357	109.57
364.568	113.66
364.779	60.42
364.99	66.56
365.201	1.02
365.412	95.23
365.623	60.42
365.834	97.28
366.045	-3.07
366.256	101.37
366.467	21.5
366.678	80.89
366.889	3.07
367.1	54.27
367.311	93.18
367.522	35.84
367.733	19.46
367.944	87.04
368.155	70.65
368.366	119.81
368.577	99.33
368.788	87.04
368.999	11.26
369.209	95.23
369.42	117.76
369.631	154.62
369.842	-9.22
370.053	87.04
370.264	35.84
370.474	138.24
370.685	64.51
370.896	46.08
371.107	84.99
371.317	23.55
371.528	29.7
371.739	68.61
371.95	-13.31
372.16	111.61
372.371	-35.84
372.582	138.24
372.792	35.84
373.003	76.8
373.214	193.53
373.424	70.65
373.635	105.47
373.846	33.79
374.056	29.7
374.267	99.33
374.477	62.46
374.688	125.95
374.898	89.09
375.109	44.03
375.319	68.61
375.53	64.51
375.74	125.95
375.951	68.61
376.161	105.47
376.372	52.22
376.582	44.03
376.793	183.29
377.003	87.04
377.214	70.65
377.424	89.09
377.635	125.95
377.845	-25.6
378.055	146.43
378.266	68.61
378.476	44.03
378.686	46.08
378.897	97.28
379.107	52.22
379.317	76.8
379.528	97.28
379.738	113.66
379.948	62.46
380.158	72.7
380.369	72.7
380.579	125.95
380.789	68.61
380.999	66.56
381.21	93.18
381.42	87.04
381.63	11.26
381.84	91.13
382.05	119.81
382.261	76.8
382.471	54.27
382.681	87.04
382.891	103.42
383.101	35.84
383.311	56.32
383.521	46.08
383.731	101.37
383.941	125.95
384.151	117.76
384.361	62.46
384.571	76.8
384.781	70.65
384.991	60.42
385.201	82.94
385.411	101.37
385.621	107.52
385.831	64.51
386.041	44.03
386.251	19.46
386.461	95.23
386.671	99.33
386.881	144.38
387.091	66.56
387.301	140.29
387.511	23.55
387.72	164.86
387.93	64.51
388.14	11.26
388.35	3.07
388.56	21.5
388.769	93.18
388.979	23.55
389.189	62.46
389.399	3.07
389.609	89.09
389.818	76.8
390.028	39.94
390.238	101.37
390.447	56.32
390.657	76.8
390.867	48.13
391.076	56.32
391.286	93.18
391.496	68.61
391.705	54.27
391.915	103.42
392.125	138.24
392.334	138.24
392.544	175.1
392.753	52.22
392.963	52.22
393.172	130.05
393.382	152.57
393.591	109.57
393.801	78.85
394.01	48.13
394.22	128
394.429	35.84
394.639	87.04
394.848	76.8
395.058	97.28
395.267	80.89
395.477	35.84
395.686	95.23
395.895	152.57
396.105	156.67
396.314	113.66
396.524	64.51
396.733	64.51
396.942	93.18
397.152	87.04
397.361	84.99
397.57	142.33
397.78	91.13
397.989	177.15
398.198	142.33
398.407	150.53
398.617	91.13
398.826	103.42
399.035	125.95
399.244	115.71
399.453	80.89
399.663	62.46
399.872	134.14
400.081	111.61
400.29	93.18
400.499	101.37
400.708	193.53
400.917	187.39
401.127	70.65
401.336	185.34
401.545	158.72
401.754	146.43
401.963	177.15
402.172	50.18
402.381	113.66
402.59	130.05
402.799	138.24
403.008	171.01
403.217	150.53
403.426	150.53
403.635	158.72
403.844	150.53
404.053	156.67
404.262	144.38
404.471	175.1
404.68	220.16
404.888	134.14
405.097	74.75
405.306	238.59
405.515	203.77
405.724	154.62
405.933	177.15
406.142	216.06
406.35	156.67
406.559	259.07
406.768	158.72
406.977	257.02
407.185	281.6
407.394	234.49
407.603	199.68
407.812	224.25
408.02	265.21
408.229	259.07
408.438	287.74
408.646	306.17
408.855	254.97
409.064	250.88
409.272	289.79
409.481	398.33
409.69	279.55
409.898	281.6
410.107	297.98
410.315	324.6
410.524	351.23
410.733	400.38
410.941	404.47
411.15	412.67
411.358	398.33
411.567	408.57
411.775	355.32
411.984	375.8
412.192	390.14
412.401	347.13
412.609	529.4
412.818	545.78
413.026	527.35
413.234	461.82
413.443	467.96
413.651	488.44
413.86	578.55
414.068	594.93
414.276	558.07
414.485	644.09
414.693	674.81
414.901	707.57
415.11	680.95
415.318	732.15
415.526	764.92
415.734	781.3
415.943	701.43
416.151	816.12
416.359	834.55
416.567	783.35
416.776	887.79
416.984	928.75
417.192	1108.98
417.4	938.99
417.608	961.52
417.817	1027.06
418.025	1096.69
418.233	1199.09
418.441	1111.02
418.649	1225.71
418.857	1268.72
419.065	1379.31
419.273	1235.95
419.481	1346.54
419.689	1379.31
419.897	1338.35
420.105	1463.27
420.313	1504.23
420.521	1596.39
420.729	1641.45
420.937	1674.21
421.145	1631.21
421.353	1813.48
421.561	1850.34
421.769	1960.93
421.977	2165.73
422.185	2069.47
422.393	2044.9
422.601	2214.88
422.809	2272.22
423.017	2196.45
423.224	2231.26
423.432	2436.06
423.64	2395.1
423.848	2567.13
424.056	2520.03
424.263	2677.72
424.471	2784.21
424.679	2851.8
424.887	2872.28
425.094	2986.96
425.302	3132.37
425.51	3242.96
425.718	3328.97
425.925	3365.84
426.133	3388.36
426.341	3568.59
426.548	3793.86
426.756	3808.2
426.964	3709.9
427.171	4125.63
427.379	4148.16
427.586	4150.21
427.794	4299.71
428.001	4639.67
428.209	4864.95
428.417	4639.67
428.624	5032.88
428.832	4946.87
429.039	4979.64
429.247	5004.21
429.454	5442.48
429.662	5696.43
429.869	5485.48
430.076	5845.93
430.284	5696.43
430.491	5837.73
430.699	6257.57
430.906	6294.43
431.114	6245.28
431.321	6587.29
431.528	6654.87
431.736	6990.74
431.943	7437.2
432.15	7265.17
432.358	7117.72
432.565	7633.8
432.772	7664.52
432.979	7924.62
433.187	8237.95
433.394	8233.86
433.601	8747.9
433.808	8805.24
434.016	8848.25
434.223	9177.97
434.43	9433.97
434.637	9579.37
434.844	10091.37
435.052	10181.48
435.259	10208.1
435.466	10480.48
435.673	10083.17
435.88	10847.07
436.087	11320.15
436.294	11514.7
436.501	11074.39
436.708	11342.67
436.915	11768.65
437.122	12036.94
437.329	12483.39
437.537	12577.6
437.743	13003.58
437.95	12587.84
438.157	13517.62
438.364	13871.92
438.571	13787.95
438.778	13988.65
438.985	15416.08
439.192	14619.42
439.399	14992.16
439.606	14877.47
439.813	15715.09
440.02	16413.45
440.227	16374.53
440.433	16263.94
440.64	16542.47
440.847	16565
441.054	16968.45
441.261	17976.05
441.467	18045.68
441.674	17847.02
441.881	18705.12
442.088	18737.89
442.294	18692.83
442.501	19296.99
442.708	19477.21
442.914	20312.78
443.121	21207.74
443.328	20648.64
443.534	22119.09
443.741	21480.12
443.948	21199.55
444.154	22899.36
444.361	22557.35
444.568	22438.57
444.774	22612.65
444.981	23149.21
445.187	23954.07
445.394	24578.7
445.6	24255.12
445.807	26837.61
446.013	25492.09
446.22	26147.44
446.426	27191.91
446.633	27744.86
446.839	28365.39
447.046	27458.14
447.252	28600.91
447.459	28772.94
447.665	28617.29
447.871	29805.11
448.078	31351.33
448.284	29661.76
448.491	30687.79
448.697	32055.83
448.903	32246.29
449.11	32696.85
449.316	32283.16
449.522	32424.47
449.728	33200.65
449.935	33880.57
450.141	33651.2
450.347	34845.16
450.553	33600
450.76	34050.55
450.966	35351.01
451.172	34982.38
451.378	35801.57
451.584	35035.63
451.791	35996.12
451.997	35686.88
452.203	36549.07
452.409	36549.07
452.615	36690.38
452.821	35332.58
453.027	34922.99
453.233	36483.54
453.44	35279.33
453.646	35580.39
453.852	35373.54
454.058	36440.53
454.264	35584.48
454.47	36268.5
454.676	35561.95
454.882	36465.11
455.088	33409.54
455.294	34167.29
455.5	34390.52
455.705	34765.29
455.911	33389.06
456.117	32772.62
456.323	32530.96
456.529	30990.89
456.735	32363.03
456.941	31537.69
457.147	31023.65
457.352	29811.26
457.558	29940.28
457.764	29690.43
457.97	29186.63
458.176	28527.18
458.381	28664.39
458.587	27492.96
458.793	27167.33
458.999	26092.15
459.204	27791.96
459.41	26921.57
459.616	25434.75
459.821	25498.23
460.027	25266.81
460.233	24885.89
460.438	23442.07
460.644	23730.84
460.85	22715.05
461.055	22538.92
461.261	22418.09
461.466	20712.13
461.672	20222.67
461.878	21592.76
462.083	20484.81
462.289	19892.94
462.494	19505.88
462.7	18846.43
462.905	18459.37
463.111	18940.64
463.316	19356.38
463.522	18467.56
463.727	18467.56
463.932	18825.95
464.138	18352.87
464.343	18633.44
464.549	17799.92
464.754	18395.88
464.959	18299.62
465.165	18264.81
465.37	17490.68
465.575	17089.28
465.781	17797.87
465.986	17994.48
466.191	17310.46
466.397	16829.18
466.602	16245.51
466.807	16675.59
467.012	16732.93
