Data from USB4F104151__96__14-43-37-254.txt Node

Date: Thu Mar 13 14:43:37 EDT 2025
User: louis
Spectrometer: USB4F10415
Trigger mode: 4
Integration Time (sec): 2.000000E-2
Scans to average: 1
Electric dark correction enabled: true
Nonlinearity correction enabled: false
Boxcar width: 0
XAxis mode: Wavelengths
Number of Pixels in Spectrum: 3648
>>>>>Begin Spectral Data<<<<<
178.204	-67.58
178.424	-67.58
178.644	-67.58
178.864	-86.01
179.084	-43.01
179.304	-4.1
179.524	32.77
179.744	-2.05
179.964	10.24
180.184	69.63
180.404	18.43
180.624	-73.73
180.844	-16.38
181.064	-10.24
181.283	49.15
181.503	6.14
181.723	-79.87
181.943	-14.34
182.163	153.6
182.383	63.49
182.602	38.91
182.822	122.88
183.042	147.45
183.262	32.77
183.482	36.86
183.701	-10.24
183.921	55.3
184.141	22.53
184.361	88.06
184.58	77.82
184.8	65.54
185.02	30.72
185.239	16.38
185.459	98.3
185.679	88.06
185.898	40.96
186.118	114.69
186.338	-8.19
186.557	108.54
186.777	73.73
186.997	55.3
187.216	40.96
187.436	124.93
187.655	30.72
187.875	18.43
188.095	49.15
188.314	73.73
188.534	63.49
188.753	38.91
188.973	53.25
189.192	18.43
189.412	55.3
189.631	65.54
189.851	16.38
190.07	157.69
190.29	77.82
190.509	79.87
190.729	51.2
190.948	30.72
191.168	139.26
191.387	32.77
191.607	98.3
191.826	38.91
192.045	59.39
192.265	38.91
192.484	14.34
192.704	100.35
192.923	104.45
193.142	112.64
193.362	71.68
193.581	55.3
193.8	32.77
194.02	126.97
194.239	73.73
194.458	129.02
194.678	-38.91
194.897	22.53
195.116	-2.05
195.335	83.97
195.555	71.68
195.774	90.11
195.993	43.01
196.212	79.87
196.432	26.62
196.651	40.96
196.87	26.62
197.089	104.45
197.308	51.2
197.528	40.96
197.747	63.49
197.966	57.34
198.185	47.1
198.404	24.58
198.623	124.93
198.842	49.15
199.062	53.25
199.281	34.82
199.5	83.97
199.719	81.92
199.938	47.1
200.157	14.34
200.376	12.29
200.595	47.1
200.814	63.49
201.033	88.06
201.252	100.35
201.471	47.1
201.69	141.31
201.909	63.49
202.128	26.62
202.347	129.02
202.566	92.16
202.785	24.58
203.004	47.1
203.223	28.67
203.442	112.64
203.661	65.54
203.879	79.87
204.098	43.01
204.317	0
204.536	94.21
204.755	71.68
204.974	22.53
205.193	96.25
205.411	178.17
205.63	51.2
205.849	73.73
206.068	124.93
206.287	47.1
206.505	100.35
206.724	8.19
206.943	88.06
207.162	38.91
207.381	38.91
207.599	40.96
207.818	71.68
208.037	14.34
208.255	116.73
208.474	102.4
208.693	30.72
208.911	61.44
209.13	22.53
209.349	59.39
209.567	45.06
209.786	63.49
210.005	22.53
210.223	-14.34
210.442	-22.53
210.661	61.44
210.879	55.3
211.098	24.58
211.316	45.06
211.535	55.3
211.753	22.53
211.972	43.01
212.191	36.86
212.409	57.34
212.628	120.83
212.846	14.34
213.065	71.68
213.283	79.87
213.502	8.19
213.72	106.49
213.938	57.34
214.157	32.77
214.375	69.63
214.594	81.92
214.812	38.91
215.031	16.38
215.249	98.3
215.467	-14.34
215.686	129.02
215.904	75.77
216.122	114.69
216.341	38.91
216.559	88.06
216.778	73.73
216.996	96.25
217.214	6.14
217.432	24.58
217.651	73.73
217.869	129.02
218.087	10.24
218.306	59.39
218.524	100.35
218.742	10.24
218.96	79.87
219.179	34.82
219.397	-8.19
219.615	30.72
219.833	-18.43
220.051	100.35
220.27	129.02
220.488	114.69
220.706	34.82
220.924	75.77
221.142	16.38
221.36	90.11
221.578	47.1
221.796	57.34
222.015	32.77
222.233	34.82
222.451	30.72
222.669	47.1
222.887	79.87
223.105	30.72
223.323	22.53
223.541	-26.62
223.759	10.24
223.977	59.39
224.195	49.15
224.413	71.68
224.631	24.58
224.849	24.58
225.067	153.6
225.285	36.86
225.503	90.11
225.721	34.82
225.939	94.21
226.157	55.3
226.375	112.64
226.592	71.68
226.81	112.64
227.028	137.21
227.246	104.45
227.464	73.73
227.682	88.06
227.9	94.21
228.117	40.96
228.335	63.49
228.553	55.3
228.771	79.87
228.989	122.88
229.206	86.01
229.424	40.96
229.642	2.05
229.86	8.19
230.077	73.73
230.295	26.62
230.513	63.49
230.731	79.87
230.948	40.96
231.166	96.25
231.384	67.58
231.601	22.53
231.819	53.25
232.037	90.11
232.254	30.72
232.472	43.01
232.689	-20.48
232.907	63.49
233.125	94.21
233.342	30.72
233.56	26.62
233.777	118.78
233.995	-6.14
234.213	112.64
234.43	169.98
234.648	98.3
234.865	26.62
235.083	98.3
235.3	75.77
235.518	65.54
235.735	114.69
235.953	45.06
236.17	47.1
236.388	-51.2
236.605	32.77
236.822	153.6
237.04	100.35
237.257	43.01
237.475	-22.53
237.692	10.24
237.909	98.3
238.127	61.44
238.344	34.82
238.562	96.25
238.779	40.96
238.996	-2.05
239.214	-24.58
239.431	106.49
239.648	30.72
239.865	59.39
240.083	63.49
240.3	75.77
240.517	30.72
240.735	-18.43
240.952	49.15
241.169	38.91
241.386	71.68
241.603	112.64
241.821	43.01
242.038	24.58
242.255	43.01
242.472	30.72
242.689	120.83
242.907	75.77
243.124	38.91
243.341	71.68
243.558	24.58
243.775	45.06
243.992	22.53
244.209	139.26
244.426	88.06
244.643	81.92
244.86	73.73
245.078	126.97
245.295	79.87
245.512	81.92
245.729	-18.43
245.946	38.91
246.163	36.86
246.38	92.16
246.597	0
246.814	79.87
247.031	14.34
247.248	116.73
247.464	-6.14
247.681	71.68
247.898	131.07
248.115	63.49
248.332	38.91
248.549	73.73
248.766	81.92
248.983	133.12
249.2	36.86
249.417	18.43
249.633	90.11
249.85	65.54
250.067	10.24
250.284	43.01
250.501	133.12
250.717	26.62
250.934	-8.19
251.151	-2.05
251.368	92.16
251.585	75.77
251.801	32.77
252.018	71.68
252.235	75.77
252.451	32.77
252.668	-26.62
252.885	36.86
253.102	10.24
253.318	131.07
253.535	10.24
253.752	-10.24
253.968	86.01
254.185	16.38
254.401	83.97
254.618	114.69
254.835	22.53
255.051	120.83
255.268	137.21
255.484	49.15
255.701	55.3
255.917	114.69
256.134	-4.1
256.351	61.44
256.567	16.38
256.784	106.49
257	0
257.217	126.97
257.433	88.06
257.65	79.87
257.866	81.92
258.082	-14.34
258.299	30.72
258.515	71.68
258.732	90.11
258.948	38.91
259.165	79.87
259.381	-2.05
259.597	83.97
259.814	40.96
260.03	55.3
260.246	-6.14
260.463	81.92
260.679	79.87
260.895	63.49
261.112	81.92
261.328	38.91
261.544	-20.48
261.761	139.26
261.977	30.72
262.193	73.73
262.409	114.69
262.626	71.68
262.842	55.3
263.058	-10.24
263.274	32.77
263.49	43.01
263.707	22.53
263.923	53.25
264.139	26.62
264.355	71.68
264.571	96.25
264.787	43.01
265.004	88.06
265.22	2.05
265.436	47.1
265.652	-10.24
265.868	-40.96
266.084	32.77
266.3	38.91
266.516	-16.38
266.732	49.15
266.948	34.82
267.164	108.54
267.38	8.19
267.596	71.68
267.812	151.55
268.028	55.3
268.244	-18.43
268.46	38.91
268.676	-10.24
268.892	98.3
269.108	-6.14
269.324	14.34
269.54	45.06
269.756	131.07
269.972	47.1
270.188	90.11
270.403	-16.38
270.619	-18.43
270.835	47.1
271.051	120.83
271.267	16.38
271.483	36.86
271.698	57.34
271.914	45.06
272.13	55.3
272.346	92.16
272.562	49.15
272.777	104.45
272.993	16.38
273.209	26.62
273.425	98.3
273.64	10.24
273.856	77.82
274.072	96.25
274.287	-55.3
274.503	112.64
274.719	45.06
274.934	120.83
275.15	32.77
275.366	34.82
275.581	36.86
275.797	92.16
276.012	30.72
276.228	24.58
276.444	34.82
276.659	73.73
276.875	108.54
277.09	26.62
277.306	47.1
277.521	71.68
277.737	71.68
277.952	79.87
278.168	26.62
278.383	8.19
278.599	71.68
278.814	0
279.03	55.3
279.245	104.45
279.461	65.54
279.676	94.21
279.892	71.68
280.107	24.58
280.322	-28.67
280.538	38.91
280.753	34.82
280.969	65.54
281.184	55.3
281.399	192.51
281.615	88.06
281.83	124.93
282.045	18.43
282.26	30.72
282.476	26.62
282.691	104.45
282.906	-16.38
283.122	63.49
283.337	55.3
283.552	79.87
283.767	65.54
283.983	98.3
284.198	59.39
284.413	98.3
284.628	-2.05
284.843	22.53
285.058	137.21
285.274	34.82
285.489	75.77
285.704	6.14
285.919	22.53
286.134	38.91
286.349	-24.58
286.564	-10.24
286.779	81.92
286.995	157.69
287.21	96.25
287.425	100.35
287.64	2.05
287.855	104.45
288.07	59.39
288.285	38.91
288.5	28.67
288.715	73.73
288.93	65.54
289.145	32.77
289.36	88.06
289.575	34.82
289.79	100.35
290.004	114.69
290.219	81.92
290.434	92.16
290.649	55.3
290.864	22.53
291.079	71.68
291.294	86.01
291.509	88.06
291.724	131.07
291.938	92.16
292.153	16.38
292.368	32.77
292.583	94.21
292.798	57.34
293.012	38.91
293.227	-10.24
293.442	55.3
293.657	120.83
293.871	102.4
294.086	71.68
294.301	116.73
294.516	98.3
294.73	59.39
294.945	-22.53
295.16	32.77
295.374	71.68
295.589	145.41
295.804	59.39
296.018	55.3
296.233	178.17
296.447	96.25
296.662	49.15
296.877	98.3
297.091	75.77
297.306	38.91
297.52	96.25
297.735	51.2
297.949	57.34
298.164	26.62
298.378	83.97
298.593	-26.62
298.807	81.92
299.022	108.54
299.236	143.36
299.451	-32.77
299.665	67.58
299.88	6.14
300.094	108.54
300.309	81.92
300.523	88.06
300.737	65.54
300.952	51.2
301.166	126.97
301.381	71.68
301.595	83.97
301.809	88.06
302.024	116.73
302.238	63.49
302.452	215.04
302.667	8.19
302.881	96.25
303.095	38.91
303.309	57.34
303.524	30.72
303.738	-18.43
303.952	10.24
304.166	67.58
304.381	22.53
304.595	124.93
304.809	8.19
305.023	40.96
305.237	79.87
305.452	55.3
305.666	22.53
305.88	14.34
306.094	92.16
306.308	40.96
306.522	120.83
306.736	137.21
306.95	75.77
307.164	104.45
307.379	104.45
307.593	108.54
307.807	49.15
308.021	79.87
308.235	55.3
308.449	49.15
308.663	26.62
308.877	38.91
309.091	38.91
309.305	114.69
309.519	88.06
309.733	157.69
309.947	47.1
310.161	40.96
310.374	73.73
310.588	114.69
310.802	-22.53
311.016	10.24
311.23	63.49
311.444	71.68
311.658	94.21
311.872	157.69
312.085	94.21
312.299	30.72
312.513	153.6
312.727	47.1
312.941	65.54
313.154	79.87
313.368	53.25
313.582	-8.19
313.796	63.49
314.009	26.62
314.223	49.15
314.437	71.68
314.651	-2.05
314.864	63.49
315.078	88.06
315.292	-2.05
315.505	47.1
315.719	57.34
315.933	71.68
316.146	83.97
316.36	59.39
316.573	32.77
316.787	104.45
317.001	75.77
317.214	30.72
317.428	137.21
317.641	65.54
317.855	63.49
318.068	92.16
318.282	122.88
318.495	65.54
318.709	96.25
318.922	55.3
319.136	131.07
319.349	49.15
319.563	8.19
319.776	114.69
319.99	28.67
320.203	79.87
320.417	24.58
320.63	79.87
320.843	169.98
321.057	57.34
321.27	88.06
321.483	106.49
321.697	55.3
321.91	106.49
322.124	75.77
322.337	8.19
322.55	-16.38
322.763	30.72
322.977	30.72
323.19	22.53
323.403	83.97
323.617	71.68
323.83	98.3
324.043	88.06
324.256	59.39
324.469	22.53
324.683	141.31
324.896	-8.19
325.109	69.63
325.322	51.2
325.535	57.34
325.748	45.06
325.962	71.68
326.175	55.3
326.388	90.11
326.601	102.4
326.814	71.68
327.027	116.73
327.24	96.25
327.453	-12.29
327.666	65.54
327.879	28.67
328.092	63.49
328.305	53.25
328.518	71.68
328.731	53.25
328.944	79.87
329.157	-6.14
329.37	8.19
329.583	116.73
329.796	36.86
330.009	88.06
330.222	151.55
330.435	-16.38
330.648	22.53
330.861	32.77
331.073	88.06
331.286	110.59
331.499	40.96
331.712	98.3
331.925	81.92
332.138	71.68
332.35	131.07
332.563	88.06
332.776	81.92
332.989	38.91
333.202	43.01
333.414	122.88
333.627	36.86
333.84	14.34
334.053	83.97
334.265	-47.1
334.478	-34.82
334.691	24.58
334.903	75.77
335.116	34.82
335.329	43.01
335.541	108.54
335.754	133.12
335.966	55.3
336.179	43.01
336.392	55.3
336.604	71.68
336.817	24.58
337.029	71.68
337.242	-10.24
337.454	137.21
337.667	63.49
337.88	102.4
338.092	-16.38
338.305	71.68
338.517	79.87
338.729	83.97
338.942	47.1
339.154	28.67
339.367	96.25
339.579	98.3
339.792	-51.2
340.004	34.82
340.217	147.45
340.429	59.39
340.641	73.73
340.854	112.64
341.066	55.3
341.278	65.54
341.491	92.16
341.703	55.3
341.915	49.15
342.128	65.54
342.34	67.58
342.552	2.05
342.764	100.35
342.977	88.06
343.189	51.2
343.401	98.3
343.613	28.67
343.826	108.54
344.038	88.06
344.25	110.59
344.462	-2.05
344.674	98.3
344.886	94.21
345.099	43.01
345.311	73.73
345.523	88.06
345.735	79.87
345.947	157.69
346.159	18.43
346.371	161.79
346.583	20.48
346.795	122.88
347.007	55.3
347.219	14.34
347.431	43.01
347.643	131.07
347.855	73.73
348.067	79.87
348.279	36.86
348.491	96.25
348.703	40.96
348.915	106.49
349.127	0
349.339	30.72
349.551	124.93
349.763	6.14
349.975	18.43
350.187	124.93
350.399	40.96
350.61	71.68
350.822	67.58
351.034	32.77
351.246	157.69
351.458	22.53
351.669	75.77
351.881	43.01
352.093	172.03
352.305	55.3
352.517	120.83
352.728	120.83
352.94	55.3
353.152	65.54
353.363	47.1
353.575	57.34
353.787	129.02
353.999	96.25
354.21	112.64
354.422	106.49
354.633	47.1
354.845	104.45
355.057	108.54
355.268	73.73
355.48	116.73
355.692	-8.19
355.903	22.53
356.115	45.06
356.326	12.29
356.538	38.91
356.749	49.15
356.961	73.73
357.172	38.91
357.384	30.72
357.595	51.2
357.807	116.73
358.018	40.96
358.23	100.35
358.441	155.65
358.653	75.77
358.864	63.49
359.075	53.25
359.287	88.06
359.498	120.83
359.709	63.49
359.921	38.91
360.132	51.2
360.344	28.67
360.555	24.58
360.766	165.89
360.977	49.15
361.189	120.83
361.4	106.49
361.611	77.82
361.823	133.12
362.034	32.77
362.245	14.34
362.456	67.58
362.667	94.21
362.879	59.39
363.09	116.73
363.301	67.58
363.512	8.19
363.723	6.14
363.935	0
364.146	206.84
364.357	55.3
364.568	122.88
364.779	-4.1
364.99	106.49
365.201	28.67
365.412	24.58
365.623	12.29
365.834	79.87
366.045	-2.05
366.256	51.2
366.467	22.53
366.678	106.49
366.889	104.45
367.1	102.4
367.311	108.54
367.522	106.49
367.733	73.73
367.944	77.82
368.155	79.87
368.366	118.78
368.577	94.21
368.788	120.83
368.999	38.91
369.209	114.69
369.42	88.06
369.631	108.54
369.842	8.19
370.053	24.58
370.264	81.92
370.474	22.53
370.685	73.73
370.896	67.58
371.107	73.73
371.317	65.54
371.528	161.79
371.739	108.54
371.95	92.16
372.16	24.58
372.371	40.96
372.582	24.58
372.792	67.58
373.003	83.97
373.214	6.14
373.424	77.82
373.635	-18.43
373.846	129.02
374.056	79.87
374.267	129.02
374.477	163.84
374.688	-32.77
374.898	88.06
375.109	61.44
375.319	100.35
375.53	120.83
375.74	94.21
375.951	24.58
376.161	92.16
376.372	104.45
376.582	88.06
376.793	104.45
377.003	10.24
377.214	79.87
377.424	90.11
377.635	26.62
377.845	-14.34
378.055	194.56
378.266	100.35
378.476	104.45
378.686	43.01
378.897	59.39
379.107	67.58
379.317	81.92
379.528	47.1
379.738	98.3
379.948	90.11
380.158	69.63
380.369	75.77
380.579	71.68
380.789	73.73
380.999	65.54
381.21	34.82
381.42	92.16
381.63	30.72
381.84	112.64
382.05	94.21
382.261	22.53
382.471	51.2
382.681	86.01
382.891	151.55
383.101	47.1
383.311	75.77
383.521	47.1
383.731	120.83
383.941	112.64
384.151	96.25
384.361	34.82
384.571	104.45
384.781	94.21
384.991	108.54
385.201	51.2
385.411	96.25
385.621	79.87
385.831	100.35
386.041	131.07
386.251	45.06
386.461	165.89
386.671	22.53
386.881	45.06
387.091	59.39
387.301	129.02
387.511	59.39
387.72	106.49
387.93	83.97
388.14	22.53
388.35	34.82
388.56	110.59
388.769	47.1
388.979	55.3
389.189	71.68
389.399	96.25
389.609	139.26
389.818	126.97
390.028	126.97
390.238	69.63
390.447	24.58
390.657	88.06
390.867	10.24
391.076	133.12
391.286	100.35
391.496	153.6
391.705	96.25
391.915	206.84
392.125	147.45
392.334	98.3
392.544	104.45
392.753	122.88
392.963	57.34
393.172	63.49
393.382	120.83
393.591	100.35
393.801	86.01
394.01	79.87
394.22	79.87
394.429	137.21
394.639	55.3
394.848	83.97
395.058	38.91
395.267	165.89
395.477	129.02
395.686	122.88
395.895	90.11
396.105	131.07
396.314	147.45
396.524	147.45
396.733	94.21
396.942	174.08
397.152	106.49
397.361	143.36
397.57	186.37
397.78	79.87
397.989	104.45
398.198	141.31
398.407	169.98
398.617	139.26
398.826	114.69
399.035	153.6
399.244	124.93
399.453	104.45
399.663	133.12
399.872	30.72
400.081	98.3
400.29	141.31
400.499	4.1
400.708	129.02
400.917	198.65
401.127	114.69
401.336	141.31
401.545	251.9
401.754	131.07
401.963	178.17
402.172	153.6
402.381	59.39
402.59	112.64
402.799	223.23
403.008	159.74
403.217	172.03
403.426	178.17
403.635	90.11
403.844	92.16
404.053	188.41
404.262	155.65
404.471	194.56
404.68	102.4
404.888	141.31
405.097	180.22
405.306	122.88
405.515	139.26
405.724	157.69
405.933	151.55
406.142	260.09
406.35	131.07
406.559	182.27
406.768	153.6
406.977	210.94
407.185	202.75
407.394	202.75
407.603	155.65
407.812	268.28
408.02	225.28
408.229	194.56
408.438	196.61
408.646	188.41
408.855	264.19
409.064	202.75
409.272	264.19
409.481	333.82
409.69	251.9
409.898	286.72
410.107	358.39
410.315	339.96
410.524	337.91
410.733	374.78
410.941	335.87
411.15	331.77
411.358	366.59
411.567	415.74
411.775	415.74
411.984	395.26
412.192	403.45
412.401	432.12
412.609	464.89
412.818	489.46
413.026	385.02
413.234	452.6
413.443	466.94
413.651	546.81
413.86	546.81
414.068	604.15
414.276	593.91
414.485	530.42
414.693	694.26
414.901	610.29
415.11	686.07
415.318	569.34
415.526	708.6
415.734	706.55
415.943	696.31
416.151	784.37
416.359	763.89
416.567	808.95
416.776	833.52
416.984	800.76
417.192	862.19
417.4	821.24
417.608	837.62
417.817	919.54
418.025	911.35
418.233	1105.9
418.441	1075.18
418.649	1071.09
418.857	1103.86
419.065	1251.31
419.273	1144.81
419.481	1239.02
419.689	1230.83
419.897	1259.5
420.105	1327.08
420.313	1394.67
420.521	1417.19
420.729	1380.33
420.937	1523.69
421.145	1619.94
421.353	1662.95
421.561	1687.53
421.769	1720.29
421.977	1771.49
422.185	1767.4
422.393	1949.67
422.601	2103.26
422.809	2015.2
423.017	2052.06
423.224	2144.22
423.432	2172.89
423.64	2199.52
423.848	2447.32
424.056	2265.05
424.263	2410.46
424.471	2525.15
424.679	2619.35
424.887	2635.74
425.094	2869.2
425.302	2865.11
425.51	2807.77
425.718	2852.82
425.925	2932.69
426.133	3028.95
426.341	3366.86
426.548	3389.39
426.756	3373
426.964	3518.41
427.171	3567.56
427.379	3815.37
427.586	3837.89
427.794	3870.66
428.001	4149.18
428.209	4302.78
428.417	4286.4
428.624	4519.87
428.832	4341.69
429.039	4472.76
429.247	4519.87
429.454	4931.51
429.662	5203.89
429.869	4929.46
430.076	5386.16
430.284	5169.07
430.491	5201.84
430.699	5554.09
430.906	5517.23
431.114	5644.2
431.321	5969.83
431.528	5920.68
431.736	6459.29
431.943	6567.84
432.15	6563.74
432.358	6614.94
432.565	6789.02
432.772	7012.24
432.979	7206.8
433.187	7229.33
433.394	7399.31
433.601	8034.18
433.808	7780.23
434.016	7649.16
434.223	8120.2
434.43	8806.27
434.637	8290.18
434.844	8996.73
435.052	9191.28
435.259	9103.22
435.466	9176.95
435.673	9017.21
435.88	9647.98
436.087	10143.59
436.294	10245.99
436.501	9924.46
436.708	10198.88
436.915	10610.53
437.122	11034.46
437.329	10807.13
437.537	11304.79
437.743	11485.01
437.95	11329.36
438.157	11937.61
438.364	12183.37
438.571	12459.84
438.778	12300.1
438.985	13514.55
439.192	12908.35
439.399	13297.46
439.606	13096.76
439.813	13846.32
440.02	14679.84
440.227	14149.42
440.433	14378.79
440.64	14878.49
440.847	14640.93
441.054	15185.69
441.261	15832.85
441.467	15816.46
441.674	15869.71
441.881	16654.08
442.088	16500.48
442.294	16525.06
442.501	16731.9
442.708	17315.58
442.914	17837.81
443.121	18642.66
443.328	18245.35
443.534	19592.92
443.741	18898.66
443.948	18790.11
444.154	19959.5
444.361	19879.63
444.568	19859.15
444.774	19783.38
444.981	20254.41
445.187	20721.35
445.394	21624.5
445.6	21288.64
445.807	23533.21
446.013	22640.29
446.22	22636.2
446.426	23721.62
446.633	23903.89
446.839	24872.58
447.046	23504.54
447.252	25122.43
447.459	25110.14
447.665	24934.02
447.871	26076.79
448.078	27102.82
448.284	26123.89
448.491	26627.69
448.697	27657.82
448.903	28255.82
449.11	28390.99
449.316	27756.12
449.522	28345.94
449.728	29042.24
449.935	29367.87
450.141	29718.07
450.347	29836.86
450.553	29152.84
450.76	29691.45
450.966	30453.3
451.172	29974.07
451.378	30873.13
451.584	30258.74
451.791	31202.85
451.997	31069.73
452.203	31327.78
452.409	31551.01
452.615	31411.74
452.821	29965.88
453.027	30031.41
453.233	31329.83
453.44	30240.31
453.646	30713.39
453.852	30879.27
454.058	31217.19
454.264	30322.23
454.47	31260.19
454.676	30371.38
454.882	31553.05
455.088	28407.37
455.294	29193.79
455.5	29795.9
455.705	29843
455.911	28624.46
456.117	28405.33
456.323	27868.76
456.529	26336.88
456.735	27817.56
456.941	26984.04
457.147	26650.22
457.352	25667.19
457.558	25724.54
457.764	25714.3
457.97	25190.02
458.176	24338.06
458.381	24884.87
458.587	23916.18
458.793	23428.76
458.999	22169.26
459.204	23983.76
459.41	23240.35
459.616	21771.96
459.821	21339.83
460.027	21800.63
460.233	21137.09
460.438	20385.48
460.644	20489.93
460.85	19375.83
461.055	19031.77
461.261	18988.77
461.466	17772.27
461.672	17086.2
461.878	18599.65
462.083	16969.47
462.289	16903.93
462.494	16766.72
462.7	15935.24
462.905	15347.48
463.111	16078.6
463.316	16088.84
463.522	15689.49
463.727	15783.7
463.932	15826.7
464.138	15277.85
464.343	15791.89
464.549	15128.35
464.754	15613.71
464.959	15509.27
465.165	15294.23
465.37	15058.71
465.575	14460.71
465.781	14923.55
465.986	15142.68
466.191	14561.06
466.397	14321.45
466.602	13512.5
