Data from USB4F104151__110__14-43-49-311.txt Node

Date: Thu Mar 13 14:43:49 EDT 2025
User: louis
Spectrometer: USB4F10415
Trigger mode: 4
Integration Time (sec): 2.000000E-2
Scans to average: 1
Electric dark correction enabled: true
Nonlinearity correction enabled: false
Boxcar width: 0
XAxis mode: Wavelengths
Number of Pixels in Spectrum: 3648
>>>>>Begin Spectral Data<<<<<
178.204	-106.15
178.424	-106.15
178.644	-106.15
178.864	-106.15
179.084	-112.3
179.304	6.49
179.524	-48.81
179.744	-69.29
179.964	41.3
180.184	-28.33
180.404	-7.85
180.624	20.82
180.844	29.01
181.064	98.64
181.283	0.34
181.503	-20.14
181.723	-22.19
181.943	-93.87
182.163	59.73
182.383	-13.99
182.602	57.68
182.822	53.59
183.042	-5.8
183.262	4.44
183.482	74.07
183.701	31.06
183.921	16.73
184.141	10.58
184.361	49.49
184.58	57.68
184.8	74.07
185.02	0.34
185.239	86.36
185.459	8.53
185.679	39.25
185.898	-44.71
186.118	92.5
186.338	69.97
186.557	12.63
186.777	0.34
186.997	-13.99
187.216	-32.43
187.436	53.59
187.655	10.58
187.875	59.73
188.095	8.53
188.314	2.39
188.534	8.53
188.753	45.4
188.973	74.07
189.192	43.35
189.412	20.82
189.631	2.39
189.851	106.84
190.07	57.68
190.29	65.88
190.509	82.26
190.729	8.53
190.948	106.84
191.168	117.08
191.387	82.26
191.607	2.39
191.826	-24.23
192.045	35.16
192.265	35.16
192.484	106.84
192.704	86.36
192.923	33.11
193.142	106.84
193.362	35.16
193.581	78.16
193.8	-28.33
194.02	106.84
194.239	51.54
194.458	67.92
194.678	55.64
194.897	106.84
195.116	86.36
195.335	18.77
195.555	88.4
195.774	18.77
195.993	49.49
196.212	-13.99
196.432	-1.71
196.651	26.96
196.87	-22.19
197.089	74.07
197.308	53.59
197.528	51.54
197.747	-16.04
197.966	49.49
198.185	74.07
198.404	41.3
198.623	33.11
198.842	41.3
199.062	90.45
199.281	100.69
199.5	8.53
199.719	-30.38
199.938	31.06
200.157	24.92
200.376	49.49
200.595	108.88
200.814	29.01
201.033	53.59
201.252	51.54
201.471	0.34
201.69	45.4
201.909	69.97
202.128	92.5
202.347	29.01
202.566	35.16
202.785	65.88
203.004	-3.75
203.223	86.36
203.442	43.35
203.661	35.16
203.879	-44.71
204.098	72.02
204.317	86.36
204.536	115.03
204.755	80.21
204.974	98.64
205.193	29.01
205.411	51.54
205.63	41.3
205.849	37.2
206.068	92.5
206.287	49.49
206.505	80.21
206.724	18.77
206.943	26.96
207.162	41.3
207.381	43.35
207.599	33.11
207.818	-7.85
208.037	45.4
208.255	12.63
208.474	106.84
208.693	94.55
208.911	10.58
209.13	51.54
209.349	100.69
209.567	-16.04
209.786	94.55
210.005	12.63
210.223	76.12
210.442	-16.04
210.661	0.34
210.879	33.11
211.098	82.26
211.316	45.4
211.535	131.41
211.753	10.58
211.972	37.2
212.191	-11.95
212.409	-7.85
212.628	-5.8
212.846	78.16
213.065	57.68
213.283	106.84
213.502	2.39
213.72	37.2
213.938	110.93
214.157	16.73
214.375	14.68
214.594	61.78
214.812	12.63
215.031	82.26
215.249	57.68
215.467	33.11
215.686	0.34
215.904	45.4
216.122	12.63
216.341	104.79
216.559	74.07
216.778	84.31
216.996	59.73
217.214	29.01
217.432	45.4
217.651	76.12
217.869	20.82
218.087	24.92
218.306	29.01
218.524	76.12
218.742	0.34
218.96	123.22
219.179	53.59
219.397	53.59
219.615	94.55
219.833	-3.75
220.051	59.73
220.27	31.06
220.488	108.88
220.706	76.12
220.924	33.11
221.142	2.39
221.36	31.06
221.578	76.12
221.796	-24.23
222.015	49.49
222.233	-24.23
222.451	80.21
222.669	45.4
222.887	24.92
223.105	-32.43
223.323	43.35
223.541	-20.14
223.759	-16.04
223.977	74.07
224.195	16.73
224.413	20.82
224.631	131.41
224.849	39.25
225.067	213.33
225.285	-1.71
225.503	16.73
225.721	8.53
225.939	35.16
226.157	26.96
226.375	131.41
226.592	-36.52
226.81	78.16
227.028	65.88
227.246	80.21
227.464	14.68
227.682	98.64
227.9	-34.47
228.117	65.88
228.335	37.2
228.553	-13.99
228.771	-42.67
228.989	43.35
229.206	49.49
229.424	63.83
229.642	-50.86
229.86	59.73
230.077	65.88
230.295	78.16
230.513	51.54
230.731	49.49
230.948	76.12
231.166	-7.85
231.384	98.64
231.601	26.96
231.819	51.54
232.037	-30.38
232.254	-63.15
232.472	49.49
232.689	12.63
232.907	76.12
233.125	92.5
233.342	18.77
233.56	12.63
233.777	16.73
233.995	14.68
234.213	57.68
234.43	-61.1
234.648	33.11
234.865	43.35
235.083	33.11
235.3	12.63
235.518	119.12
235.735	33.11
235.953	106.84
236.17	-3.75
236.388	43.35
236.605	0.34
236.822	69.97
237.04	69.97
237.257	115.03
237.475	-54.95
237.692	57.68
237.909	26.96
238.127	-9.9
238.344	-1.71
238.562	98.64
238.779	-20.14
238.996	-46.76
239.214	2.39
239.431	8.53
239.648	53.59
239.865	82.26
240.083	43.35
240.3	-30.38
240.517	16.73
240.735	16.73
240.952	49.49
241.169	74.07
241.386	49.49
241.603	39.25
241.821	-22.19
242.038	139.6
242.255	51.54
242.472	51.54
242.689	35.16
242.907	24.92
243.124	26.96
243.341	16.73
243.558	-7.85
243.775	8.53
243.992	0.34
244.209	78.16
244.426	96.6
244.643	22.87
244.86	4.44
245.078	57.68
245.295	102.74
245.512	51.54
245.729	29.01
245.946	74.07
246.163	-5.8
246.38	8.53
246.597	-7.85
246.814	63.83
247.031	24.92
247.248	-5.8
247.464	8.53
247.681	65.88
247.898	24.92
248.115	102.74
248.332	24.92
248.549	78.16
248.766	86.36
248.983	33.11
249.2	39.25
249.417	29.01
249.633	2.39
249.85	-7.85
250.067	-16.04
250.284	-24.23
250.501	4.44
250.717	100.69
250.934	-16.04
251.151	22.87
251.368	2.39
251.585	26.96
251.801	-22.19
252.018	10.58
252.235	20.82
252.451	90.45
252.668	10.58
252.885	57.68
253.102	139.6
253.318	16.73
253.535	74.07
253.752	33.11
253.968	45.4
254.185	-36.52
254.401	-13.99
254.618	82.26
254.835	76.12
255.051	24.92
255.268	59.73
255.484	35.16
255.701	24.92
255.917	14.68
256.134	14.68
256.351	20.82
256.567	-106.15
256.784	108.88
257	16.73
257.217	47.44
257.433	49.49
257.65	10.58
257.866	53.59
258.082	-16.04
258.299	31.06
258.515	108.88
258.732	-13.99
258.948	-3.75
259.165	115.03
259.381	67.92
259.597	53.59
259.814	49.49
260.03	-32.43
260.246	53.59
260.463	-1.71
260.679	74.07
260.895	51.54
261.112	51.54
261.328	61.78
261.544	18.77
261.761	61.78
261.977	33.11
262.193	35.16
262.409	76.12
262.626	76.12
262.842	16.73
263.058	22.87
263.274	65.88
263.49	20.82
263.707	115.03
263.923	29.01
264.139	72.02
264.355	37.2
264.571	82.26
264.787	74.07
265.004	86.36
265.22	98.64
265.436	41.3
265.652	45.4
265.868	-3.75
266.084	14.68
266.3	82.26
266.516	33.11
266.732	84.31
266.948	-3.75
267.164	100.69
267.38	-3.75
267.596	82.26
267.812	63.83
268.028	117.08
268.244	67.92
268.46	84.31
268.676	-38.57
268.892	106.84
269.108	-32.43
269.324	65.88
269.54	-16.04
269.756	57.68
269.972	-34.47
270.188	20.82
270.403	-32.43
270.619	10.58
270.835	31.06
271.051	41.3
271.267	31.06
271.483	88.4
271.698	57.68
271.914	49.49
272.13	65.88
272.346	133.46
272.562	67.92
272.777	98.64
272.993	65.88
273.209	74.07
273.425	18.77
273.64	-40.62
273.856	41.3
274.072	47.44
274.287	-54.95
274.503	131.41
274.719	8.53
274.934	35.16
275.15	20.82
275.366	106.84
275.581	8.53
275.797	33.11
276.012	18.77
276.228	10.58
276.444	123.22
276.659	-13.99
276.875	-104.11
277.09	72.02
277.306	-11.95
277.521	65.88
277.737	0.34
277.952	51.54
278.168	33.11
278.383	49.49
278.599	57.68
278.814	16.73
279.03	69.97
279.245	108.88
279.461	45.4
279.676	59.73
279.892	24.92
280.107	49.49
280.322	24.92
280.538	67.92
280.753	65.88
280.969	-22.19
281.184	41.3
281.399	106.84
281.615	8.53
281.83	16.73
282.045	37.2
282.26	-48.81
282.476	55.64
282.691	115.03
282.906	8.53
283.122	-30.38
283.337	16.73
283.552	59.73
283.767	26.96
283.983	135.51
284.198	10.58
284.413	74.07
284.628	-11.95
284.843	69.97
285.058	61.78
285.274	2.39
285.489	-7.85
285.704	0.34
285.919	51.54
286.134	65.88
286.349	43.35
286.564	41.3
286.779	74.07
286.995	-30.38
287.21	0.34
287.425	82.26
287.64	74.07
287.855	39.25
288.07	33.11
288.285	-40.62
288.5	-30.38
288.715	20.82
288.93	16.73
289.145	-30.38
289.36	74.07
289.575	65.88
289.79	55.64
290.004	6.49
290.219	67.92
290.434	2.39
290.649	2.39
290.864	84.31
291.079	0.34
291.294	94.55
291.509	49.49
291.724	31.06
291.938	55.64
292.153	90.45
292.368	51.54
292.583	-13.99
292.798	33.11
293.012	74.07
293.227	127.32
293.442	-85.67
293.657	84.31
293.871	29.01
294.086	-22.19
294.301	31.06
294.516	41.3
294.73	16.73
294.945	33.11
295.16	-36.52
295.374	61.78
295.589	8.53
295.804	49.49
296.018	53.59
296.233	119.12
296.447	14.68
296.662	29.01
296.877	61.78
297.091	41.3
297.306	14.68
297.52	37.2
297.735	143.7
297.949	65.88
298.164	90.45
298.378	33.11
298.593	8.53
298.807	20.82
299.022	94.55
299.236	51.54
299.451	33.11
299.665	33.11
299.88	98.64
300.094	0.34
300.309	65.88
300.523	45.4
300.737	59.73
300.952	59.73
301.166	45.4
301.381	90.45
301.595	-32.43
301.809	45.4
302.024	-24.23
302.238	37.2
302.452	49.49
302.667	65.88
302.881	65.88
303.095	53.59
303.309	39.25
303.524	51.54
303.738	-5.8
303.952	16.73
304.166	117.08
304.381	-13.99
304.595	86.36
304.809	63.83
305.023	69.97
305.237	74.07
305.452	49.49
305.666	100.69
305.88	20.82
306.094	65.88
306.308	78.16
306.522	8.53
306.736	41.3
306.95	94.55
307.164	41.3
307.379	51.54
307.593	143.7
307.807	-18.09
308.021	35.16
308.235	29.01
308.449	-30.38
308.663	37.2
308.877	106.84
309.091	98.64
309.305	53.59
309.519	78.16
309.733	96.6
309.947	-16.04
310.161	59.73
310.374	76.12
310.588	33.11
310.802	-11.95
311.016	26.96
311.23	139.6
311.444	-16.04
311.658	2.39
311.872	115.03
312.085	35.16
312.299	82.26
312.513	74.07
312.727	-7.85
312.941	22.87
313.154	59.73
313.368	2.39
313.582	69.97
313.796	-30.38
314.009	-24.23
314.223	65.88
314.437	131.41
314.651	33.11
314.864	49.49
315.078	0.34
315.292	65.88
315.505	41.3
315.719	92.5
315.933	8.53
316.146	74.07
316.36	59.73
316.573	59.73
316.787	102.74
317.001	-16.04
317.214	12.63
317.428	33.11
317.641	29.01
317.855	61.78
318.068	86.36
318.282	0.34
318.495	26.96
318.709	92.5
318.922	84.31
319.136	2.39
319.349	6.49
319.563	8.53
319.776	65.88
319.99	49.49
320.203	67.92
320.417	88.4
320.63	110.93
320.843	61.78
321.057	65.88
321.27	-7.85
321.483	10.58
321.697	110.93
321.91	74.07
322.124	33.11
322.337	65.88
322.55	-44.71
322.763	4.44
322.977	106.84
323.19	12.63
323.403	65.88
323.617	102.74
323.83	84.31
324.043	-13.99
324.256	35.16
324.469	45.4
324.683	90.45
324.896	49.49
325.109	-54.95
325.322	10.58
325.535	76.12
325.748	53.59
325.962	-36.52
326.175	82.26
326.388	80.21
326.601	-1.71
326.814	69.97
327.027	59.73
327.24	51.54
327.453	18.77
327.666	18.77
327.879	92.5
328.092	49.49
328.305	57.68
328.518	53.59
328.731	76.12
328.944	-22.19
329.157	104.79
329.37	49.49
329.583	4.44
329.796	20.82
330.009	2.39
330.222	98.64
330.435	33.11
330.648	41.3
330.861	16.73
331.073	61.78
331.286	47.44
331.499	37.2
331.712	-34.47
331.925	-3.75
332.138	90.45
332.35	49.49
332.563	104.79
332.776	20.82
332.989	-69.29
333.202	57.68
333.414	8.53
333.627	43.35
333.84	22.87
334.053	65.88
334.265	18.77
334.478	-13.99
334.691	8.53
334.903	49.49
335.116	33.11
335.329	-20.14
335.541	63.83
335.754	121.17
335.966	16.73
336.179	53.59
336.392	-7.85
336.604	26.96
336.817	26.96
337.029	41.3
337.242	78.16
337.454	18.77
337.667	-11.95
337.88	104.79
338.092	92.5
338.305	108.88
338.517	51.54
338.729	26.96
338.942	55.64
339.154	35.16
339.367	24.92
339.579	35.16
339.792	-57
340.004	57.68
340.217	-9.9
340.429	59.73
340.641	-7.85
340.854	82.26
341.066	65.88
341.278	49.49
341.491	102.74
341.703	82.26
341.915	-57
342.128	98.64
342.34	65.88
342.552	0.34
342.764	74.07
342.977	31.06
343.189	65.88
343.401	74.07
343.613	0.34
343.826	18.77
344.038	41.3
344.25	-52.91
344.462	12.63
344.674	43.35
344.886	-36.52
345.099	49.49
345.311	35.16
345.523	8.53
345.735	-11.95
345.947	16.73
346.159	14.68
346.371	31.06
346.583	106.84
346.795	100.69
347.007	31.06
347.219	80.21
347.431	10.58
347.643	49.49
347.855	-34.47
348.067	74.07
348.279	55.64
348.491	74.07
348.703	-20.14
348.915	43.35
349.127	26.96
349.339	102.74
349.551	80.21
349.763	63.83
349.975	-20.14
350.187	16.73
350.399	16.73
350.61	125.27
350.822	43.35
351.034	133.46
351.246	12.63
351.458	24.92
351.669	90.45
351.881	57.68
352.093	123.22
352.305	16.73
352.517	49.49
352.728	63.83
352.94	102.74
353.152	45.4
353.363	-3.75
353.575	61.78
353.787	82.26
353.999	98.64
354.21	45.4
354.422	80.21
354.633	-32.43
354.845	43.35
355.057	55.64
355.268	-20.14
355.48	67.92
355.692	-63.15
355.903	14.68
356.115	33.11
356.326	-9.9
356.538	57.68
356.749	74.07
356.961	67.92
357.172	88.4
357.384	55.64
357.595	88.4
357.807	59.73
358.018	37.2
358.23	41.3
358.441	90.45
358.653	69.97
358.864	94.55
359.075	131.41
359.287	20.82
359.498	59.73
359.709	22.87
359.921	67.92
360.132	6.49
360.344	100.69
360.555	8.53
360.766	12.63
360.977	41.3
361.189	108.88
361.4	43.35
361.611	59.73
361.823	43.35
362.034	-3.75
362.245	16.73
362.456	39.25
362.667	123.22
362.879	35.16
363.09	12.63
363.301	108.88
363.512	59.73
363.723	49.49
363.935	22.87
364.146	86.36
364.357	92.5
364.568	65.88
364.779	0.34
364.99	49.49
365.201	0.34
365.412	149.84
365.623	10.58
365.834	35.16
366.045	69.97
366.256	69.97
366.467	35.16
366.678	106.84
366.889	55.64
367.1	35.16
367.311	49.49
367.522	49.49
367.733	43.35
367.944	102.74
368.155	106.84
368.366	51.54
368.577	100.69
368.788	104.79
368.999	55.64
369.209	16.73
369.42	100.69
369.631	131.41
369.842	37.2
370.053	24.92
370.264	39.25
370.474	24.92
370.685	4.44
370.896	49.49
371.107	123.22
371.317	98.64
371.528	33.11
371.739	49.49
371.95	121.17
372.16	12.63
372.371	53.59
372.582	92.5
372.792	35.16
373.003	41.3
373.214	24.92
373.424	35.16
373.635	69.97
373.846	29.01
374.056	24.92
374.267	8.53
374.477	2.39
374.688	41.3
374.898	65.88
375.109	98.64
375.319	72.02
375.53	10.58
375.74	43.35
375.951	49.49
376.161	-40.62
376.372	37.2
376.582	51.54
376.793	33.11
377.003	-52.91
377.214	123.22
377.424	98.64
377.635	74.07
377.845	0.34
378.055	59.73
378.266	51.54
378.476	20.82
378.686	67.92
378.897	84.31
379.107	33.11
379.317	110.93
379.528	22.87
379.738	55.64
379.948	12.63
380.158	143.7
380.369	16.73
380.579	51.54
380.789	31.06
380.999	65.88
381.21	20.82
381.42	61.78
381.63	12.63
381.84	26.96
382.05	57.68
382.261	65.88
382.471	104.79
382.681	-54.95
382.891	35.16
383.101	65.88
383.311	-13.99
383.521	98.64
383.731	88.4
383.941	74.07
384.151	98.64
384.361	67.92
384.571	94.55
384.781	-3.75
384.991	117.08
385.201	141.65
385.411	117.08
385.621	59.73
385.831	18.77
386.041	69.97
386.251	84.31
386.461	108.88
386.671	20.82
386.881	-13.99
387.091	20.82
387.301	76.12
387.511	98.64
387.72	137.56
387.93	16.73
388.14	16.73
388.35	104.79
388.56	63.83
388.769	63.83
388.979	33.11
389.189	45.4
389.399	125.27
389.609	90.45
389.818	53.59
390.028	-5.8
390.238	72.02
390.447	12.63
390.657	76.12
390.867	78.16
391.076	-16.04
391.286	147.8
391.496	12.63
391.705	119.12
391.915	82.26
392.125	78.16
392.334	57.68
392.544	90.45
392.753	117.08
392.963	78.16
393.172	86.36
393.382	41.3
393.591	67.92
393.801	10.58
394.01	164.18
394.22	24.92
394.429	110.93
394.639	96.6
394.848	67.92
395.058	164.18
395.267	90.45
395.477	-7.85
395.686	49.49
395.895	78.16
396.105	166.23
396.314	53.59
396.524	94.55
396.733	76.12
396.942	133.46
397.152	51.54
397.361	172.37
397.57	43.35
397.78	76.12
397.989	115.03
398.198	180.56
398.407	123.22
398.617	166.23
398.826	82.26
399.035	123.22
399.244	143.7
399.453	96.6
399.663	41.3
399.872	119.12
400.081	-18.09
400.29	29.01
400.499	92.5
400.708	125.27
400.917	33.11
401.127	125.27
401.336	92.5
401.545	133.46
401.754	131.41
401.963	131.41
402.172	74.07
402.381	47.44
402.59	35.16
402.799	117.08
403.008	39.25
403.217	86.36
403.426	100.69
403.635	129.36
403.844	119.12
404.053	102.74
404.262	82.26
404.471	115.03
404.68	106.84
404.888	139.6
405.097	123.22
405.306	164.18
405.515	172.37
405.724	168.27
405.933	190.8
406.142	160.08
406.35	155.99
406.559	100.69
406.768	190.8
406.977	180.56
407.185	166.23
407.394	145.75
407.603	147.8
407.812	264.53
408.02	209.23
408.229	203.09
408.438	225.62
408.646	151.89
408.855	289.1
409.064	215.38
409.272	233.81
409.481	223.57
409.69	168.27
409.898	155.99
410.107	213.33
410.315	223.57
410.524	278.87
410.733	295.25
410.941	237.91
411.15	246.1
411.358	278.87
411.567	256.34
411.775	246.1
411.984	225.62
412.192	319.82
412.401	319.82
412.609	403.79
412.818	411.98
413.026	336.21
413.234	344.4
413.443	432.46
413.651	364.88
413.86	373.07
414.068	465.23
414.276	405.84
414.485	381.26
414.693	504.14
414.901	502.09
415.11	495.95
415.318	549.2
415.526	627.02
415.734	549.2
415.943	469.33
416.151	651.6
416.359	536.91
416.567	635.21
416.776	706.89
416.984	631.12
417.192	758.09
417.4	715.08
417.608	665.93
417.817	727.37
418.025	880.97
418.233	858.44
418.441	803.15
418.649	852.3
418.857	905.54
419.065	971.08
419.273	936.26
419.481	934.22
419.689	999.75
419.897	1024.33
420.105	1063.24
420.313	1077.57
420.521	1216.83
420.729	1106.24
420.937	1231.17
421.145	1212.74
421.353	1308.99
421.561	1395.01
421.769	1380.67
421.977	1487.17
422.185	1448.26
422.393	1548.61
422.601	1624.38
422.809	1618.24
423.017	1614.14
423.224	1659.2
423.432	1782.07
423.64	1771.83
423.848	1829.18
424.056	1888.57
424.263	1968.44
424.471	1982.78
424.679	2191.67
424.887	2185.52
425.094	2306.35
425.302	2216.24
425.51	2285.87
425.718	2335.03
425.925	2402.61
426.133	2511.15
426.341	2787.63
426.548	2711.85
426.756	2732.33
426.964	2679.08
427.171	3006.76
427.379	2967.85
427.586	3139.88
427.794	3178.79
428.001	3246.37
428.209	3559.71
428.417	3408.16
428.624	3789.08
428.832	3539.23
429.039	3676.45
429.247	3617.05
429.454	4016.41
429.662	4270.36
429.869	3936.54
430.076	4272.4
430.284	3981.59
430.491	4456.72
430.699	4493.58
430.906	4497.68
431.114	4595.98
431.321	4663.57
431.528	4858.12
431.736	5083.4
431.943	5370.12
432.15	5261.57
432.358	5353.73
432.565	5538.05
432.772	5507.33
432.979	5921.02
433.187	5959.93
433.394	5884.16
433.601	6308.09
433.808	6385.91
434.016	6324.47
434.223	6564.08
434.43	6854.89
434.637	7002.35
434.844	7262.44
435.052	7479.52
435.259	7405.8
435.466	7504.1
435.673	7303.4
435.88	7739.62
436.087	8390.87
436.294	8196.31
436.501	7983.32
436.708	8134.87
436.915	8366.29
437.122	8816.85
437.329	8827.09
437.537	9142.47
437.743	9427.14
437.95	8968.4
438.157	9724.1
438.364	10045.63
438.571	9976
438.778	10006.72
438.985	10746.03
439.192	10668.21
439.399	10844.34
439.606	10344.63
439.813	11118.76
440.02	11749.54
440.227	11477.16
440.433	11522.21
440.64	11839.65
440.847	11778.21
441.054	12028.06
441.261	13045.9
441.467	12779.67
441.674	12910.74
441.881	13189.26
442.088	13340.81
442.294	13254.8
442.501	13738.12
442.708	13883.52
442.914	14469.24
443.121	15157.36
443.328	14899.31
443.534	15724.65
443.741	15200.37
443.948	14850.16
444.154	16328.8
444.361	16152.67
444.568	16189.53
444.774	15761.51
444.981	16324.7
445.187	16461.91
445.394	17430.6
445.6	17092.69
445.807	18845.75
446.013	17920.07
446.22	18292.8
446.426	19202.1
446.633	19062.83
446.839	19937.32
447.046	18966.58
447.252	20252.7
447.459	20221.98
447.665	20154.4
447.871	20891.67
448.078	21911.56
448.284	21032.98
448.491	21131.28
448.697	22052.87
448.903	22716.41
449.11	22949.88
449.316	22304.77
449.522	22640.64
449.728	23261.17
449.935	23664.62
450.141	23394.29
450.347	23908.33
450.553	23322.61
450.76	23658.48
450.966	24684.51
451.172	24276.96
451.378	24711.13
451.584	24049.64
451.791	25139.16
451.997	24745.95
452.203	25126.87
452.409	25184.21
452.615	25391.06
452.821	24213.48
453.027	24078.31
453.233	25341.91
453.44	24133.61
453.646	24334.31
453.852	24563.68
454.058	24895.45
454.264	24297.44
454.47	24905.69
454.676	23932.9
454.882	25075.67
455.088	22994.93
455.294	23246.83
455.5	23449.58
455.705	24004.58
455.911	23078.9
456.117	22337.54
456.323	22136.84
456.529	20998.16
456.735	21942.28
456.941	21424.14
457.147	21237.78
457.352	20578.33
457.558	20275.23
457.764	20394.01
457.97	20027.43
458.176	19650.6
458.381	19580.97
458.587	18237.5
458.793	18640.95
458.999	17592.39
459.204	18899
459.41	18497.6
459.616	17373.26
459.821	17303.63
460.027	17186.9
460.233	16916.56
460.438	16191.58
460.644	16261.21
460.85	15366.25
461.055	15061.1
461.261	15364.2
461.466	13904
461.672	13781.12
461.878	14565.5
462.083	13695.11
462.289	13273.23
462.494	13301.9
462.7	12750.99
462.905	12177.56
463.111	12888.21
463.316	12955.79
463.522	12470.42
463.727	12325.02
463.932	12525.72
464.138	12177.56
464.343	12474.52
464.549	12148.89
464.754	12152.99
464.959	12374.17
465.165	12269.72
465.37	11708.58
465.575	11325.61
465.781	11890.85
465.986	11847.84
466.191	11649.19
466.397	11276.46
466.602	10567.86
466.807	11296.94
467.012	11186.35
467.218	11198.63
467.423	10950.83
467.628	10961.07
467.833	11614.37
