Data from USB4F104151__246__14-45-50-962.txt Node

Date: Thu Mar 13 14:45:50 EDT 2025
User: louis
Spectrometer: USB4F10415
Trigger mode: 4
Integration Time (sec): 2.000000E-2
Scans to average: 1
Electric dark correction enabled: true
Nonlinearity correction enabled: false
Boxcar width: 0
XAxis mode: Wavelengths
Number of Pixels in Spectrum: 3648
>>>>>Begin Spectral Data<<<<<
178.204	-123.39
178.424	-123.39
178.644	-123.39
178.864	-90.62
179.084	-131.58
179.304	-16.9
179.524	1.54
179.744	32.26
179.964	-6.66
180.184	-25.09
180.404	22.02
180.624	-55.81
180.844	-31.23
181.064	1.54
181.283	3.58
181.503	19.97
181.723	54.78
181.943	-41.47
182.163	89.6
182.383	32.26
182.602	34.3
182.822	32.26
183.042	-20.99
183.262	28.16
183.482	-16.9
183.701	3.58
183.921	50.69
184.141	-0.51
184.361	40.45
184.58	58.88
184.8	89.6
185.02	-45.57
185.239	56.83
185.459	91.65
185.679	69.12
185.898	-41.47
186.118	77.31
186.338	87.55
186.557	34.3
186.777	-2.56
186.997	-8.7
187.216	3.58
187.436	42.5
187.655	77.31
187.875	34.3
188.095	-23.04
188.314	11.78
188.534	36.35
188.753	50.69
188.973	19.97
189.192	17.92
189.412	17.92
189.631	-8.7
189.851	48.64
190.07	60.93
190.29	3.58
190.509	52.74
190.729	7.68
190.948	91.65
191.168	165.37
191.387	67.07
191.607	7.68
191.826	81.41
192.045	73.21
192.265	73.21
192.484	-12.8
192.704	65.02
192.923	-45.57
193.142	103.93
193.362	40.45
193.581	-6.66
193.8	81.41
194.02	91.65
194.239	-20.99
194.458	-6.66
194.678	1.54
194.897	38.4
195.116	85.5
195.335	48.64
195.555	44.54
195.774	48.64
195.993	-0.51
196.212	50.69
196.432	-10.75
196.651	44.54
196.87	-14.85
197.089	122.37
197.308	32.26
197.528	67.07
197.747	11.78
197.966	1.54
198.185	89.6
198.404	19.97
198.623	11.78
198.842	118.27
199.062	67.07
199.281	1.54
199.5	24.06
199.719	40.45
199.938	15.87
200.157	40.45
200.376	40.45
200.595	9.73
200.814	56.83
201.033	15.87
201.252	91.65
201.471	15.87
201.69	50.69
201.909	40.45
202.128	89.6
202.347	91.65
202.566	15.87
202.785	-23.04
203.004	15.87
203.223	56.83
203.442	48.64
203.661	7.68
203.879	-18.94
204.098	67.07
204.317	19.97
204.536	148.99
204.755	54.78
204.974	24.06
205.193	56.83
205.411	44.54
205.63	7.68
205.849	34.3
206.068	50.69
206.287	75.26
206.505	44.54
206.724	11.78
206.943	1.54
207.162	58.88
207.381	36.35
207.599	87.55
207.818	-78.33
208.037	3.58
208.255	-29.18
208.474	52.74
208.693	81.41
208.911	65.02
209.13	15.87
209.349	56.83
209.567	24.06
209.786	95.74
210.005	24.06
210.223	48.64
210.442	-49.66
210.661	38.4
210.879	-2.56
211.098	-16.9
211.316	81.41
211.535	48.64
211.753	-23.04
211.972	81.41
212.191	52.74
212.409	-23.04
212.628	17.92
212.846	-20.99
213.065	77.31
213.283	-16.9
213.502	42.5
213.72	-47.62
213.938	42.5
214.157	3.58
214.375	50.69
214.594	114.17
214.812	40.45
215.031	-16.9
215.249	-6.66
215.467	24.06
215.686	-10.75
215.904	130.56
216.122	-0.51
216.341	54.78
216.559	-8.7
216.778	26.11
216.996	11.78
217.214	-6.66
217.432	-29.18
217.651	69.12
217.869	42.5
218.087	-12.8
218.306	-14.85
218.524	7.68
218.742	26.11
218.96	114.17
219.179	-23.04
219.397	-0.51
219.615	75.26
219.833	26.11
220.051	65.02
220.27	56.83
220.488	44.54
220.706	48.64
220.924	17.92
221.142	28.16
221.36	1.54
221.578	75.26
221.796	81.41
222.015	56.83
222.233	69.12
222.451	48.64
222.669	22.02
222.887	40.45
223.105	7.68
223.323	44.54
223.541	15.87
223.759	40.45
223.977	52.74
224.195	79.36
224.413	15.87
224.631	65.02
224.849	-16.9
225.067	67.07
225.285	38.4
225.503	73.21
225.721	-2.56
225.939	67.07
226.157	36.35
226.375	105.98
226.592	22.02
226.81	163.33
227.028	62.98
227.246	138.75
227.464	42.5
227.682	60.93
227.9	56.83
228.117	-20.99
228.335	56.83
228.553	19.97
228.771	52.74
228.989	65.02
229.206	103.93
229.424	73.21
229.642	13.82
229.86	151.04
230.077	5.63
230.295	32.26
230.513	7.68
230.731	24.06
230.948	1.54
231.166	71.17
231.384	17.92
231.601	32.26
231.819	62.98
232.037	60.93
232.254	-43.52
232.472	97.79
232.689	62.98
232.907	62.98
233.125	67.07
233.342	34.3
233.56	22.02
233.777	-29.18
233.995	-14.85
234.213	120.32
234.43	81.41
234.648	73.21
234.865	73.21
235.083	32.26
235.3	28.16
235.518	34.3
235.735	140.8
235.953	58.88
236.17	73.21
236.388	85.5
236.605	50.69
236.822	15.87
237.04	-20.99
237.257	-8.7
237.475	75.26
237.692	32.26
237.909	48.64
238.127	56.83
238.344	71.17
238.562	81.41
238.779	56.83
238.996	15.87
239.214	40.45
239.431	32.26
239.648	48.64
239.865	7.68
240.083	42.5
240.3	32.26
240.517	-31.23
240.735	73.21
240.952	36.35
241.169	34.3
241.386	34.3
241.603	28.16
241.821	44.54
242.038	50.69
242.255	48.64
242.472	30.21
242.689	83.45
242.907	34.3
243.124	60.93
243.341	36.35
243.558	1.54
243.775	42.5
243.992	44.54
244.209	15.87
244.426	65.02
244.643	-4.61
244.86	-8.7
245.078	95.74
245.295	-12.8
245.512	73.21
245.729	15.87
245.946	3.58
246.163	32.26
246.38	34.3
246.597	15.87
246.814	67.07
247.031	11.78
247.248	7.68
247.464	32.26
247.681	28.16
247.898	42.5
248.115	-0.51
248.332	7.68
248.549	89.6
248.766	81.41
248.983	114.17
249.2	9.73
249.417	99.84
249.633	-33.28
249.85	56.83
250.067	24.06
250.284	65.02
250.501	60.93
250.717	24.06
250.934	52.74
251.151	-0.51
251.368	36.35
251.585	24.06
251.801	7.68
252.018	19.97
252.235	-16.9
252.451	19.97
252.668	-20.99
252.885	44.54
253.102	-6.66
253.318	52.74
253.535	30.21
253.752	9.73
253.968	32.26
254.185	-0.51
254.401	75.26
254.618	79.36
254.835	85.5
255.051	110.08
255.268	65.02
255.484	3.58
255.701	40.45
255.917	36.35
256.134	24.06
256.351	73.21
256.567	9.73
256.784	34.3
257	24.06
257.217	79.36
257.433	42.5
257.65	75.26
257.866	24.06
258.082	-8.7
258.299	-61.95
258.515	30.21
258.732	-6.66
258.948	15.87
259.165	85.5
259.381	-35.33
259.597	103.93
259.814	-2.56
260.03	38.4
260.246	-16.9
260.463	101.89
260.679	116.22
260.895	73.21
261.112	81.41
261.328	13.82
261.544	56.83
261.761	97.79
261.977	13.82
262.193	56.83
262.409	40.45
262.626	75.26
262.842	9.73
263.058	9.73
263.274	48.64
263.49	42.5
263.707	15.87
263.923	9.73
264.139	-41.47
264.355	83.45
264.571	105.98
264.787	40.45
265.004	15.87
265.22	7.68
265.436	32.26
265.652	-33.28
265.868	24.06
266.084	-6.66
266.3	28.16
266.516	134.65
266.732	30.21
266.948	71.17
267.164	69.12
267.38	-0.51
267.596	126.46
267.812	73.21
268.028	65.02
268.244	-14.85
268.46	40.45
268.676	40.45
268.892	17.92
269.108	-0.51
269.324	36.35
269.54	36.35
269.756	69.12
269.972	50.69
270.188	28.16
270.403	-43.52
270.619	58.88
270.835	1.54
271.051	40.45
271.267	-14.85
271.483	1.54
271.698	42.5
271.914	17.92
272.13	30.21
272.346	101.89
272.562	81.41
272.777	44.54
272.993	11.78
273.209	-29.18
273.425	22.02
273.64	54.78
273.856	-43.52
274.072	-10.75
274.287	65.02
274.503	22.02
274.719	24.06
274.934	-0.51
275.15	34.3
275.366	3.58
275.581	44.54
275.797	97.79
276.012	108.03
276.228	32.26
276.444	15.87
276.659	99.84
276.875	36.35
277.09	-25.09
277.306	93.69
277.521	48.64
277.737	19.97
277.952	38.4
278.168	9.73
278.383	9.73
278.599	40.45
278.814	85.5
279.03	95.74
279.245	56.83
279.461	-37.38
279.676	77.31
279.892	67.07
280.107	-8.7
280.322	-20.99
280.538	30.21
280.753	42.5
280.969	58.88
281.184	75.26
281.399	-25.09
281.615	-4.61
281.83	-16.9
282.045	36.35
282.26	-29.18
282.476	56.83
282.691	183.81
282.906	69.12
283.122	9.73
283.337	7.68
283.552	114.17
283.767	34.3
283.983	24.06
284.198	9.73
284.413	83.45
284.628	48.64
284.843	-41.47
285.058	48.64
285.274	1.54
285.489	7.68
285.704	120.32
285.919	79.36
286.134	97.79
286.349	73.21
286.564	67.07
286.779	26.11
286.995	34.3
287.21	-53.76
287.425	60.93
287.64	15.87
287.855	-55.81
288.07	-23.04
288.285	58.88
288.5	69.12
288.715	26.11
288.93	38.4
289.145	56.83
289.36	81.41
289.575	48.64
289.79	71.17
290.004	58.88
290.219	83.45
290.434	1.54
290.649	9.73
290.864	40.45
291.079	42.5
291.294	24.06
291.509	3.58
291.724	36.35
291.938	118.27
292.153	148.99
292.368	3.58
292.583	38.4
292.798	11.78
293.012	15.87
293.227	19.97
293.442	69.12
293.657	126.46
293.871	11.78
294.086	81.41
294.301	89.6
294.516	32.26
294.73	15.87
294.945	-20.99
295.16	93.69
295.374	69.12
295.589	24.06
295.804	60.93
296.018	15.87
296.233	36.35
296.447	42.5
296.662	44.54
296.877	26.11
297.091	71.17
297.306	19.97
297.52	34.3
297.735	103.93
297.949	73.21
298.164	50.69
298.378	56.83
298.593	-31.23
298.807	32.26
299.022	48.64
299.236	89.6
299.451	19.97
299.665	52.74
299.88	48.64
300.094	-0.51
300.309	-8.7
300.523	67.07
300.737	-6.66
300.952	36.35
301.166	44.54
301.381	32.26
301.595	15.87
301.809	-8.7
302.024	26.11
302.238	-4.61
302.452	101.89
302.667	28.16
302.881	93.69
303.095	-20.99
303.309	146.94
303.524	36.35
303.738	24.06
303.952	17.92
304.166	91.65
304.381	15.87
304.595	101.89
304.809	3.58
305.023	101.89
305.237	24.06
305.452	-2.56
305.666	71.17
305.88	22.02
306.094	65.02
306.308	32.26
306.522	46.59
306.736	7.68
306.95	67.07
307.164	40.45
307.379	34.3
307.593	60.93
307.807	36.35
308.021	67.07
308.235	85.5
308.449	-25.09
308.663	-8.7
308.877	142.85
309.091	-37.38
309.305	87.55
309.519	-12.8
309.733	52.74
309.947	15.87
310.161	110.08
310.374	26.11
310.588	81.41
310.802	91.65
311.016	52.74
311.23	75.26
311.444	60.93
311.658	36.35
311.872	89.6
312.085	40.45
312.299	69.12
312.513	83.45
312.727	36.35
312.941	56.83
313.154	56.83
313.368	5.63
313.582	58.88
313.796	1.54
314.009	91.65
314.223	58.88
314.437	81.41
314.651	48.64
314.864	32.26
315.078	97.79
315.292	17.92
315.505	67.07
315.719	-53.76
315.933	26.11
316.146	151.04
316.36	-49.66
316.573	132.61
316.787	85.5
317.001	73.21
317.214	15.87
317.428	42.5
317.641	-59.9
317.855	48.64
318.068	9.73
318.282	60.93
318.495	56.83
318.709	32.26
318.922	73.21
319.136	40.45
319.349	15.87
319.563	17.92
319.776	-6.66
319.99	22.02
320.203	19.97
320.417	48.64
320.63	159.23
320.843	108.03
321.057	85.5
321.27	24.06
321.483	-39.42
321.697	101.89
321.91	24.06
322.124	40.45
322.337	58.88
322.55	56.83
322.763	85.5
322.977	32.26
323.19	15.87
323.403	15.87
323.617	50.69
323.83	105.98
324.043	56.83
324.256	99.84
324.469	46.59
324.683	114.17
324.896	7.68
325.109	128.51
325.322	19.97
325.535	11.78
325.748	97.79
325.962	7.68
326.175	44.54
326.388	136.7
326.601	32.26
326.814	3.58
327.027	15.87
327.24	87.55
327.453	5.63
327.666	71.17
327.879	1.54
328.092	-20.99
328.305	40.45
328.518	32.26
328.731	7.68
328.944	-2.56
329.157	73.21
329.37	42.5
329.583	116.22
329.796	44.54
330.009	-29.18
330.222	89.6
330.435	83.45
330.648	65.02
330.861	13.82
331.073	101.89
331.286	67.07
331.499	52.74
331.712	-45.57
331.925	48.64
332.138	28.16
332.35	122.37
332.563	97.79
332.776	30.21
332.989	75.26
333.202	75.26
333.414	124.41
333.627	1.54
333.84	95.74
334.053	28.16
334.265	24.06
334.478	40.45
334.691	73.21
334.903	17.92
335.116	28.16
335.329	-8.7
335.541	42.5
335.754	83.45
335.966	42.5
336.179	32.26
336.392	36.35
336.604	58.88
336.817	83.45
337.029	56.83
337.242	56.83
337.454	91.65
337.667	19.97
337.88	48.64
338.092	24.06
338.305	128.51
338.517	-70.14
338.729	75.26
338.942	46.59
339.154	24.06
339.367	-16.9
339.579	22.02
339.792	7.68
340.004	36.35
340.217	65.02
340.429	54.78
340.641	36.35
340.854	73.21
341.066	46.59
341.278	105.98
341.491	146.94
341.703	42.5
341.915	69.12
342.128	99.84
342.34	36.35
342.552	40.45
342.764	32.26
342.977	7.68
343.189	-14.85
343.401	22.02
343.613	48.64
343.826	-18.94
344.038	40.45
344.25	32.26
344.462	50.69
344.674	34.3
344.886	54.78
345.099	91.65
345.311	-8.7
345.523	36.35
345.735	42.5
345.947	134.65
346.159	-8.7
346.371	26.11
346.583	48.64
346.795	167.42
347.007	120.32
347.219	89.6
347.431	36.35
347.643	75.26
347.855	-49.66
348.067	89.6
348.279	-23.04
348.491	42.5
348.703	97.79
348.915	-57.86
349.127	11.78
349.339	89.6
349.551	15.87
349.763	9.73
349.975	24.06
350.187	77.31
350.399	75.26
350.61	36.35
350.822	-31.23
351.034	93.69
351.246	73.21
351.458	108.03
351.669	40.45
351.881	114.17
352.093	30.21
352.305	101.89
352.517	56.83
352.728	97.79
352.94	24.06
353.152	73.21
353.363	56.83
353.575	32.26
353.787	77.31
353.999	24.06
354.21	87.55
354.422	24.06
354.633	48.64
354.845	134.65
355.057	40.45
355.268	36.35
355.48	83.45
355.692	-0.51
355.903	81.41
356.115	42.5
356.326	-20.99
356.538	108.03
356.749	97.79
356.961	97.79
357.172	77.31
357.384	11.78
357.595	99.84
357.807	22.02
358.018	77.31
358.23	89.6
358.441	138.75
358.653	48.64
358.864	9.73
359.075	69.12
359.287	28.16
359.498	26.11
359.709	48.64
359.921	9.73
360.132	93.69
360.344	99.84
360.555	89.6
360.766	116.22
360.977	9.73
361.189	36.35
361.4	67.07
361.611	124.41
361.823	69.12
362.034	81.41
362.245	32.26
362.456	97.79
362.667	91.65
362.879	3.58
363.09	24.06
363.301	62.98
363.512	48.64
363.723	67.07
363.935	42.5
364.146	124.41
364.357	89.6
364.568	36.35
364.779	42.5
364.99	40.45
365.201	32.26
365.412	48.64
365.623	-39.42
365.834	128.51
366.045	105.98
366.256	83.45
366.467	7.68
366.678	75.26
366.889	99.84
367.1	67.07
367.311	58.88
367.522	9.73
367.733	114.17
367.944	62.98
368.155	69.12
368.366	122.37
368.577	79.36
368.788	99.84
368.999	77.31
369.209	103.93
369.42	132.61
369.631	42.5
369.842	120.32
370.053	101.89
370.264	56.83
370.474	13.82
370.685	9.73
370.896	67.07
371.107	114.17
371.317	118.27
371.528	28.16
371.739	77.31
371.95	60.93
372.16	85.5
372.371	9.73
372.582	77.31
372.792	67.07
373.003	65.02
373.214	122.37
373.424	69.12
373.635	34.3
373.846	42.5
374.056	73.21
374.267	34.3
374.477	34.3
374.688	65.02
374.898	48.64
375.109	81.41
375.319	32.26
375.53	79.36
375.74	108.03
375.951	32.26
376.161	140.8
376.372	48.64
376.582	-14.85
376.793	50.69
377.003	5.63
377.214	40.45
377.424	142.85
377.635	126.46
377.845	32.26
378.055	81.41
378.266	65.02
378.476	93.69
378.686	7.68
378.897	85.5
379.107	52.74
379.317	69.12
379.528	19.97
379.738	26.11
379.948	-12.8
380.158	130.56
380.369	146.94
380.579	73.21
380.789	56.83
380.999	83.45
381.21	69.12
381.42	69.12
381.63	-8.7
381.84	56.83
382.05	3.58
382.261	130.56
382.471	85.5
382.681	1.54
382.891	112.13
383.101	52.74
383.311	3.58
383.521	89.6
383.731	65.02
383.941	118.27
384.151	40.45
384.361	105.98
384.571	58.88
384.781	132.61
384.991	189.95
385.201	110.08
385.411	99.84
385.621	177.66
385.831	75.26
386.041	58.88
386.251	120.32
386.461	101.89
386.671	-14.85
386.881	32.26
387.091	128.51
387.301	148.99
387.511	58.88
387.72	52.74
387.93	120.32
388.14	24.06
388.35	56.83
388.56	97.79
388.769	134.65
388.979	146.94
389.189	103.93
389.399	24.06
389.609	122.37
389.818	155.13
390.028	81.41
390.238	36.35
390.447	114.17
390.657	99.84
390.867	105.98
391.076	69.12
391.286	26.11
391.496	126.46
391.705	208.38
391.915	101.89
392.125	73.21
392.334	85.5
392.544	108.03
392.753	97.79
392.963	130.56
393.172	83.45
393.382	144.89
393.591	108.03
393.801	108.03
394.01	212.48
394.22	132.61
394.429	65.02
394.639	105.98
394.848	155.13
395.058	77.31
395.267	40.45
395.477	69.12
395.686	52.74
395.895	179.71
396.105	208.38
396.314	71.17
396.524	108.03
396.733	112.13
396.942	118.27
397.152	130.56
397.361	81.41
397.57	116.22
397.78	120.32
397.989	122.37
398.198	155.13
398.407	103.93
398.617	91.65
398.826	116.22
399.035	155.13
399.244	196.09
399.453	155.13
399.663	157.18
399.872	77.31
400.081	118.27
400.29	120.32
400.499	67.07
400.708	212.48
400.917	56.83
401.127	159.23
401.336	122.37
401.545	155.13
401.754	189.95
401.963	110.08
402.172	114.17
402.381	75.26
402.59	216.57
402.799	146.94
403.008	189.95
403.217	97.79
403.426	187.9
403.635	171.52
403.844	165.37
404.053	206.33
404.262	194.05
404.471	130.56
404.68	142.85
404.888	151.04
405.097	132.61
405.306	179.71
405.515	196.09
405.724	171.52
405.933	202.24
406.142	185.85
406.35	196.09
406.559	151.04
406.768	181.76
406.977	241.15
407.185	220.67
407.394	288.25
407.603	177.66
407.812	259.58
408.02	302.59
408.229	222.72
408.438	237.05
408.646	263.68
408.855	353.79
409.064	343.55
409.272	329.21
409.481	318.97
409.69	392.7
409.898	337.4
410.107	292.35
410.315	359.93
410.524	417.27
410.733	382.46
410.941	376.31
411.15	366.07
411.358	450.04
411.567	458.23
411.775	407.03
411.984	482.81
412.192	579.06
412.401	474.62
412.609	591.35
412.818	507.38
413.026	491
413.234	593.4
413.443	638.45
413.651	570.87
413.86	628.21
414.068	673.27
414.276	665.08
414.485	636.41
414.693	785.91
414.901	851.44
415.11	763.38
415.318	773.62
415.526	878.07
415.734	876.02
415.943	902.64
416.151	957.94
416.359	949.75
416.567	1099.25
416.776	968.18
416.984	1172.97
417.192	1152.49
417.4	1246.7
417.608	1170.93
417.817	1246.7
418.025	1324.52
418.233	1295.85
418.441	1302
418.649	1369.58
418.857	1482.22
419.065	1500.65
419.273	1498.6
419.481	1500.65
419.689	1617.38
419.897	1709.54
420.105	1680.87
420.313	1818.08
420.521	2004.45
420.729	1832.42
420.937	1902.05
421.145	2051.55
421.353	2080.22
421.561	2203.1
421.769	2217.44
421.977	2467.29
422.185	2317.79
422.393	2508.25
422.601	2694.61
422.809	2663.9
423.017	2751.96
423.224	2825.68
423.432	3048.91
423.64	2729.43
423.848	3063.25
424.056	3184.08
424.263	3231.18
424.471	3296.72
424.679	3440.08
424.887	3456.46
425.094	3755.46
425.302	3571.15
425.51	3759.56
425.718	3968.45
425.925	3999.17
426.133	4038.08
426.341	4459.96
426.548	4523.45
426.756	4531.64
426.964	4644.28
427.171	4773.3
427.379	4933.04
427.586	4998.58
427.794	5279.15
428.001	5529
428.209	5760.42
428.417	5594.54
428.624	6032.8
428.832	6071.72
429.039	5944.74
429.247	6104.48
429.454	6409.63
429.662	6882.71
429.869	6559.13
430.076	7079.32
430.284	6757.78
430.491	7222.67
430.699	7521.68
430.906	7609.74
431.114	7749
431.321	7832.97
431.528	8101.25
431.736	8543.61
431.943	8899.96
432.15	8856.95
432.358	8875.38
432.565	9276.79
432.772	9194.87
432.979	9872.75
433.187	9854.31
433.394	9987.43
433.601	10655.07
433.808	10741.08
434.016	10745.18
434.223	11199.83
434.43	11830.6
434.637	11492.69
434.844	12377.41
435.052	12385.6
435.259	12438.85
435.466	12440.9
435.673	12393.79
435.88	13264.18
436.087	13919.53
436.294	13983.02
436.501	13794.61
436.708	13868.33
436.915	14390.56
437.122	14957.85
437.329	15056.15
437.537	15469.84
437.743	15592.72
437.95	15525.14
438.157	16448.77
438.364	17241.34
438.571	17059.07
438.778	17097.98
438.985	18605.28
439.192	17771.76
439.399	18500.84
439.606	17988.85
439.813	19088.6
440.02	20362.44
440.227	19801.3
440.433	19778.77
440.64	20364.49
440.847	20413.64
441.054	20577.48
441.261	22019.25
441.467	21654.71
441.674	22213.81
441.881	23145.63
442.088	23041.18
442.294	22865.06
442.501	23395.48
442.708	23968.91
442.914	24835.21
443.121	25967.73
443.328	25271.42
443.534	26946.66
443.741	26070.13
443.948	26020.98
444.154	27874.39
444.361	27991.12
444.568	27757.66
444.774	27974.74
444.981	28077.14
445.187	28703.82
445.394	30266.42
445.6	29684.8
445.807	32992.26
446.013	31063.08
446.22	32195.6
446.426	33207.3
446.633	33229.83
446.839	34470.9
447.046	33311.75
447.252	35140.58
447.459	34989.03
447.665	34851.82
447.871	36215.77
448.078	37653.44
448.284	36178.9
448.491	37393.35
448.697	38661.04
448.903	39136.17
449.11	39822.24
449.316	39027.63
449.522	39621.54
449.728	40747.92
449.935	40967.05
450.141	41042.83
450.347	42201.98
450.553	40856.46
450.76	41816.96
450.966	42750.84
451.172	42247.04
451.378	43619.17
451.584	42525.56
451.791	43928.42
451.997	43264.88
452.203	44114.78
452.409	44096.35
452.615	44299.1
452.821	42769.27
453.027	42541.94
453.233	44700.5
453.44	43027.31
453.646	43299.69
453.852	43348.84
454.058	44069.73
454.264	42732.4
454.47	43942.75
454.676	43172.72
454.882	44182.37
455.088	40684.44
455.294	41245.58
455.5	41814.91
455.705	42271.61
455.911	40334.23
456.117	39885.73
456.323	39461.8
456.529	37329.86
456.735	39205.8
456.941	38253.5
457.147	37770.18
457.352	36613.07
457.558	36166.62
457.764	36518.87
457.97	35578.85
458.176	35091.43
458.381	35070.95
458.587	33309.7
458.793	33354.76
458.999	31450.14
459.204	33844.22
459.41	32689.17
459.616	30592.05
459.821	30848.04
460.027	30659.63
460.233	29948.98
460.438	28869.7
460.644	28789.83
460.85	27862.1
461.055	27106.4
461.261	27360.35
461.466	25519.23
461.672	24669.32
461.878	26530.92
462.083	24583.3
462.289	24282.25
462.494	23780.5
462.7	22736.04
462.905	22334.64
463.111	23217.31
463.316	23010.46
463.522	22500.52
463.727	22592.68
463.932	22811.81
464.138	22228.14
464.343	22525.1
464.549	21984.43
464.754	22473.9
464.959	22330.54
465.165	22103.21
465.37	21576.89
465.575	20802.75
465.781	21871.79
465.986	21775.54
466.191	21048.51
466.397	20262.09
466.602	19545.3
466.807	20436.17
467.012	20354.25
467.218	20237.52
467.423	20237.52
467.628	20106.45
