Data from USB4F104151__109__14-43-48-951.txt Node

Date: Thu Mar 13 14:43:48 EDT 2025
User: louis
Spectrometer: USB4F10415
Trigger mode: 4
Integration Time (sec): 2.000000E-2
Scans to average: 1
Electric dark correction enabled: true
Nonlinearity correction enabled: false
Boxcar width: 0
XAxis mode: Wavelengths
Number of Pixels in Spectrum: 3648
>>>>>Begin Spectral Data<<<<<
178.204	-78.85
178.424	-78.85
178.644	-78.85
178.864	-91.13
179.084	-156.67
179.304	9.22
179.524	52.22
179.744	-33.79
179.964	9.22
180.184	21.5
180.404	44.03
180.624	19.46
180.844	3.07
181.064	-66.56
181.283	-76.8
181.503	-46.08
181.723	64.51
181.943	-41.98
182.163	41.98
182.383	-3.07
182.602	52.22
182.822	-25.6
183.042	60.42
183.262	-70.65
183.482	29.7
183.701	-37.89
183.921	52.22
184.141	-1.02
184.361	82.94
184.58	27.65
184.8	19.46
185.02	-29.7
185.239	29.7
185.459	3.07
185.679	27.65
185.898	9.22
186.118	23.55
186.338	21.5
186.557	-1.02
186.777	29.7
186.997	5.12
187.216	-78.85
187.436	72.7
187.655	19.46
187.875	68.61
188.095	-5.12
188.314	68.61
188.534	101.37
188.753	27.65
188.973	-9.22
189.192	84.99
189.412	46.08
189.631	58.37
189.851	9.22
190.07	44.03
190.29	-50.18
190.509	-27.65
190.729	-3.07
190.948	56.32
191.168	80.89
191.387	-13.31
191.607	-31.74
191.826	56.32
192.045	-11.26
192.265	21.5
192.484	11.26
192.704	-13.31
192.923	-21.5
193.142	109.57
193.362	27.65
193.581	41.98
193.8	39.94
194.02	80.89
194.239	-31.74
194.458	-27.65
194.678	-1.02
194.897	78.85
195.116	37.89
195.335	-21.5
195.555	74.75
195.774	19.46
195.993	56.32
196.212	19.46
196.432	-60.42
196.651	25.6
196.87	-29.7
197.089	76.8
197.308	-5.12
197.528	19.46
197.747	3.07
197.966	-1.02
198.185	27.65
198.404	-3.07
198.623	64.51
198.842	46.08
199.062	-33.79
199.281	50.18
199.5	31.74
199.719	84.99
199.938	37.89
200.157	111.61
200.376	54.27
200.595	-35.84
200.814	-44.03
201.033	23.55
201.252	7.17
201.471	70.65
201.69	60.42
201.909	29.7
202.128	84.99
202.347	21.5
202.566	15.36
202.785	-13.31
203.004	7.17
203.223	60.42
203.442	9.22
203.661	-13.31
203.879	84.99
204.098	9.22
204.317	39.94
204.536	46.08
204.755	11.26
204.974	44.03
205.193	35.84
205.411	99.33
205.63	84.99
205.849	-21.5
206.068	-19.46
206.287	60.42
206.505	41.98
206.724	7.17
206.943	35.84
207.162	-37.89
207.381	-54.27
207.599	11.26
207.818	64.51
208.037	3.07
208.255	41.98
208.474	11.26
208.693	52.22
208.911	13.31
209.13	52.22
209.349	5.12
209.567	-17.41
209.786	27.65
210.005	13.31
210.223	93.18
210.442	-29.7
210.661	15.36
210.879	48.13
211.098	15.36
211.316	15.36
211.535	48.13
211.753	-41.98
211.972	97.28
212.191	-9.22
212.409	15.36
212.628	15.36
212.846	-3.07
213.065	7.17
213.283	64.51
213.502	-17.41
213.72	5.12
213.938	37.89
214.157	33.79
214.375	21.5
214.594	78.85
214.812	125.95
215.031	52.22
215.249	48.13
215.467	-21.5
215.686	-19.46
215.904	97.28
216.122	52.22
216.341	-9.22
216.559	103.42
216.778	70.65
216.996	44.03
217.214	-64.51
217.432	35.84
217.651	66.56
217.869	37.89
218.087	103.42
218.306	-27.65
218.524	29.7
218.742	-29.7
218.96	68.61
219.179	21.5
219.397	9.22
219.615	44.03
219.833	64.51
220.051	64.51
220.27	60.42
220.488	23.55
220.706	29.7
220.924	-25.6
221.142	19.46
221.36	11.26
221.578	23.55
221.796	-19.46
222.015	60.42
222.233	37.89
222.451	144.38
222.669	-41.98
222.887	74.75
223.105	46.08
223.323	46.08
223.541	27.65
223.759	21.5
223.977	37.89
224.195	62.46
224.413	19.46
224.631	35.84
224.849	29.7
225.067	46.08
225.285	-62.46
225.503	31.74
225.721	-95.23
225.939	54.27
226.157	21.5
226.375	128
226.592	13.31
226.81	19.46
227.028	93.18
227.246	19.46
227.464	-23.55
227.682	48.13
227.9	39.94
228.117	33.79
228.335	21.5
228.553	11.26
228.771	-29.7
228.989	60.42
229.206	60.42
229.424	-1.02
229.642	60.42
229.86	-13.31
230.077	39.94
230.295	60.42
230.513	-11.26
230.731	15.36
230.948	89.09
231.166	154.62
231.384	11.26
231.601	3.07
231.819	-33.79
232.037	27.65
232.254	5.12
232.472	41.98
232.689	-48.13
232.907	60.42
233.125	3.07
233.342	23.55
233.56	-13.31
233.777	31.74
233.995	19.46
234.213	52.22
234.43	29.7
234.648	48.13
234.865	5.12
235.083	64.51
235.3	54.27
235.518	19.46
235.735	72.7
235.953	142.33
236.17	44.03
236.388	11.26
236.605	-5.12
236.822	19.46
237.04	125.95
237.257	62.46
237.475	13.31
237.692	-9.22
237.909	27.65
238.127	46.08
238.344	46.08
238.562	13.31
238.779	-13.31
238.996	33.79
239.214	-19.46
239.431	101.37
239.648	54.27
239.865	-46.08
240.083	23.55
240.3	11.26
240.517	-5.12
240.735	-21.5
240.952	109.57
241.169	3.07
241.386	44.03
241.603	31.74
241.821	23.55
242.038	78.85
242.255	101.37
242.472	52.22
242.689	19.46
242.907	117.76
243.124	15.36
243.341	-23.55
243.558	23.55
243.775	25.6
243.992	29.7
244.209	37.89
244.426	76.8
244.643	87.04
244.86	80.89
245.078	-17.41
245.295	101.37
245.512	-37.89
245.729	33.79
245.946	-5.12
246.163	-37.89
246.38	-19.46
246.597	-5.12
246.814	-15.36
247.031	-1.02
247.248	41.98
247.464	78.85
247.681	60.42
247.898	-21.5
248.115	72.7
248.332	21.5
248.549	5.12
248.766	95.23
248.983	46.08
249.2	93.18
249.417	68.61
249.633	5.12
249.85	-15.36
250.067	17.41
250.284	50.18
250.501	29.7
250.717	93.18
250.934	5.12
251.151	19.46
251.368	-19.46
251.585	91.13
251.801	23.55
252.018	-76.8
252.235	-29.7
252.451	39.94
252.668	74.75
252.885	84.99
253.102	74.75
253.318	-3.07
253.535	-21.5
253.752	93.18
253.968	21.5
254.185	39.94
254.401	11.26
254.618	46.08
254.835	-21.5
255.051	76.8
255.268	-33.79
255.484	52.22
255.701	46.08
255.917	3.07
256.134	17.41
256.351	46.08
256.567	27.65
256.784	46.08
257	-35.84
257.217	9.22
257.433	-9.22
257.65	11.26
257.866	3.07
258.082	-70.65
258.299	-19.46
258.515	-5.12
258.732	-27.65
258.948	35.84
259.165	64.51
259.381	-52.22
259.597	64.51
259.814	76.8
260.03	-19.46
260.246	68.61
260.463	-62.46
260.679	44.03
260.895	44.03
261.112	39.94
261.328	87.04
261.544	52.22
261.761	128
261.977	-27.65
262.193	-21.5
262.409	-3.07
262.626	35.84
262.842	60.42
263.058	-39.94
263.274	-11.26
263.49	46.08
263.707	-50.18
263.923	56.32
264.139	-68.61
264.355	56.32
264.571	109.57
264.787	35.84
265.004	-29.7
265.22	37.89
265.436	56.32
265.652	19.46
265.868	13.31
266.084	68.61
266.3	29.7
266.516	-13.31
266.732	37.89
266.948	29.7
267.164	136.19
267.38	21.5
267.596	7.17
267.812	144.38
268.028	80.89
268.244	5.12
268.46	19.46
268.676	-37.89
268.892	62.46
269.108	-9.22
269.324	-29.7
269.54	-52.22
269.756	60.42
269.972	-13.31
270.188	1.02
270.403	-64.51
270.619	-5.12
270.835	15.36
271.051	1.02
271.267	27.65
271.483	64.51
271.698	11.26
271.914	-1.02
272.13	17.41
272.346	-11.26
272.562	25.6
272.777	119.81
272.993	-35.84
273.209	44.03
273.425	11.26
273.64	44.03
273.856	78.85
274.072	37.89
274.287	54.27
274.503	-9.22
274.719	-37.89
274.934	29.7
275.15	-74.75
275.366	31.74
275.581	11.26
275.797	50.18
276.012	-3.07
276.228	62.46
276.444	9.22
276.659	54.27
276.875	27.65
277.09	37.89
277.306	31.74
277.521	3.07
277.737	5.12
277.952	-13.31
278.168	15.36
278.383	5.12
278.599	29.7
278.814	-27.65
279.03	-3.07
279.245	70.65
279.461	27.65
279.676	27.65
279.892	19.46
280.107	-1.02
280.322	41.98
280.538	68.61
280.753	52.22
280.969	-25.6
281.184	48.13
281.399	60.42
281.615	-11.26
281.83	13.31
282.045	-11.26
282.26	80.89
282.476	-15.36
282.691	78.85
282.906	11.26
283.122	46.08
283.337	-52.22
283.552	52.22
283.767	-7.17
283.983	109.57
284.198	11.26
284.413	21.5
284.628	-11.26
284.843	39.94
285.058	44.03
285.274	5.12
285.489	54.27
285.704	78.85
285.919	15.36
286.134	103.42
286.349	-68.61
286.564	11.26
286.779	76.8
286.995	-25.6
287.21	60.42
287.425	52.22
287.64	41.98
287.855	-11.26
288.07	-29.7
288.285	33.79
288.5	-17.41
288.715	17.41
288.93	-52.22
289.145	-7.17
289.36	15.36
289.575	5.12
289.79	35.84
290.004	52.22
290.219	60.42
290.434	80.89
290.649	70.65
290.864	19.46
291.079	19.46
291.294	76.8
291.509	64.51
291.724	15.36
291.938	17.41
292.153	-1.02
292.368	60.42
292.583	62.46
292.798	74.75
293.012	52.22
293.227	111.61
293.442	37.89
293.657	44.03
293.871	76.8
294.086	39.94
294.301	84.99
294.516	29.7
294.73	62.46
294.945	-25.6
295.16	97.28
295.374	87.04
295.589	23.55
295.804	76.8
296.018	44.03
296.233	74.75
296.447	-37.89
296.662	62.46
296.877	70.65
297.091	80.89
297.306	-5.12
297.52	21.5
297.735	41.98
297.949	-35.84
298.164	70.65
298.378	-11.26
298.593	27.65
298.807	76.8
299.022	-5.12
299.236	25.6
299.451	-13.31
299.665	58.37
299.88	80.89
300.094	3.07
300.309	35.84
300.523	21.5
300.737	-1.02
300.952	7.17
301.166	58.37
301.381	-93.18
301.595	95.23
301.809	105.47
302.024	54.27
302.238	-9.22
302.452	62.46
302.667	9.22
302.881	52.22
303.095	33.79
303.309	44.03
303.524	93.18
303.738	-62.46
303.952	-58.37
304.166	101.37
304.381	-33.79
304.595	13.31
304.809	-17.41
305.023	-5.12
305.237	19.46
305.452	3.07
305.666	-29.7
305.88	84.99
306.094	52.22
306.308	82.94
306.522	105.47
306.736	-17.41
306.95	54.27
307.164	-19.46
307.379	54.27
307.593	50.18
307.807	-11.26
308.021	87.04
308.235	-13.31
308.449	-15.36
308.663	87.04
308.877	101.37
309.091	48.13
309.305	87.04
309.519	-23.55
309.733	60.42
309.947	-11.26
310.161	52.22
310.374	3.07
310.588	64.51
310.802	5.12
311.016	31.74
311.23	1.02
311.444	27.65
311.658	39.94
311.872	68.61
312.085	27.65
312.299	3.07
312.513	84.99
312.727	66.56
312.941	7.17
313.154	-5.12
313.368	13.31
313.582	35.84
313.796	62.46
314.009	-37.89
314.223	27.65
314.437	-21.5
314.651	31.74
314.864	-27.65
315.078	78.85
315.292	62.46
315.505	-19.46
315.719	37.89
315.933	60.42
316.146	44.03
316.36	-3.07
316.573	35.84
316.787	15.36
317.001	44.03
317.214	27.65
317.428	19.46
317.641	-11.26
317.855	-13.31
318.068	64.51
318.282	35.84
318.495	78.85
318.709	44.03
318.922	7.17
319.136	52.22
319.349	15.36
319.563	-15.36
319.776	138.24
319.99	37.89
320.203	29.7
320.417	62.46
320.63	70.65
320.843	68.61
321.057	80.89
321.27	3.07
321.483	21.5
321.697	68.61
321.91	72.7
322.124	66.56
322.337	-17.41
322.55	62.46
322.763	68.61
322.977	27.65
323.19	15.36
323.403	-5.12
323.617	19.46
323.83	27.65
324.043	68.61
324.256	-1.02
324.469	25.6
324.683	27.65
324.896	-33.79
325.109	-9.22
325.322	-27.65
325.535	-27.65
325.748	46.08
325.962	5.12
326.175	15.36
326.388	37.89
326.601	76.8
326.814	27.65
327.027	50.18
327.24	27.65
327.453	50.18
327.666	11.26
327.879	74.75
328.092	44.03
328.305	19.46
328.518	-5.12
328.731	-11.26
328.944	44.03
329.157	60.42
329.37	-3.07
329.583	19.46
329.796	46.08
330.009	-46.08
330.222	19.46
330.435	52.22
330.648	-1.02
330.861	3.07
331.073	52.22
331.286	52.22
331.499	21.5
331.712	35.84
331.925	76.8
332.138	35.84
332.35	46.08
332.563	-29.7
332.776	29.7
332.989	13.31
333.202	35.84
333.414	95.23
333.627	11.26
333.84	-27.65
334.053	48.13
334.265	44.03
334.478	19.46
334.691	13.31
334.903	-5.12
335.116	68.61
335.329	107.52
335.541	27.65
335.754	78.85
335.966	11.26
336.179	27.65
336.392	37.89
336.604	58.37
336.817	48.13
337.029	68.61
337.242	60.42
337.454	3.07
337.667	46.08
337.88	95.23
338.092	-5.12
338.305	13.31
338.517	27.65
338.729	-46.08
338.942	35.84
339.154	35.84
339.367	-3.07
339.579	68.61
339.792	-44.03
340.004	54.27
340.217	27.65
340.429	70.65
340.641	-46.08
340.854	48.13
341.066	27.65
341.278	64.51
341.491	11.26
341.703	41.98
341.915	37.89
342.128	33.79
342.34	3.07
342.552	64.51
342.764	103.42
342.977	60.42
343.189	23.55
343.401	-46.08
343.613	39.94
343.826	54.27
344.038	-70.65
344.25	21.5
344.462	7.17
344.674	35.84
344.886	7.17
345.099	97.28
345.311	62.46
345.523	44.03
345.735	23.55
345.947	76.8
346.159	76.8
346.371	7.17
346.583	23.55
346.795	91.13
347.007	-17.41
347.219	50.18
347.431	5.12
347.643	-17.41
347.855	3.07
348.067	23.55
348.279	-29.7
348.491	31.74
348.703	52.22
348.915	23.55
349.127	54.27
349.339	117.76
349.551	19.46
349.763	23.55
349.975	13.31
350.187	35.84
350.399	7.17
350.61	35.84
350.822	1.02
351.034	29.7
351.246	64.51
351.458	82.94
351.669	93.18
351.881	91.13
352.093	25.6
352.305	68.61
352.517	64.51
352.728	39.94
352.94	-31.74
353.152	44.03
353.363	11.26
353.575	87.04
353.787	7.17
353.999	50.18
354.21	87.04
354.422	-29.7
354.633	74.75
354.845	19.46
355.057	-13.31
355.268	62.46
355.48	121.85
355.692	-17.41
355.903	64.51
356.115	52.22
356.326	11.26
356.538	101.37
356.749	27.65
356.961	19.46
357.172	39.94
357.384	46.08
357.595	130.05
357.807	-27.65
358.018	-19.46
358.23	27.65
358.441	76.8
358.653	68.61
358.864	78.85
359.075	-3.07
359.287	68.61
359.498	95.23
359.709	39.94
359.921	125.95
360.132	29.7
360.344	44.03
360.555	11.26
360.766	46.08
360.977	101.37
361.189	48.13
361.4	54.27
361.611	5.12
361.823	31.74
362.034	91.13
362.245	31.74
362.456	15.36
362.667	76.8
362.879	-5.12
363.09	19.46
363.301	68.61
363.512	-25.6
363.723	37.89
363.935	-9.22
364.146	76.8
364.357	27.65
364.568	64.51
364.779	-5.12
364.99	19.46
365.201	11.26
365.412	41.98
365.623	-37.89
365.834	31.74
366.045	35.84
366.256	15.36
366.467	7.17
366.678	1.02
366.889	76.8
367.1	13.31
367.311	87.04
367.522	27.65
367.733	-56.32
367.944	101.37
368.155	27.65
368.366	60.42
368.577	-9.22
368.788	101.37
368.999	3.07
369.209	52.22
369.42	44.03
369.631	93.18
369.842	39.94
370.053	60.42
370.264	33.79
370.474	11.26
370.685	19.46
370.896	-17.41
371.107	23.55
371.317	72.7
371.528	64.51
371.739	109.57
371.95	39.94
372.16	128
372.371	15.36
372.582	-11.26
372.792	44.03
373.003	48.13
373.214	50.18
373.424	125.95
373.635	-31.74
373.846	72.7
374.056	-9.22
374.267	60.42
374.477	-13.31
374.688	37.89
374.898	68.61
375.109	54.27
375.319	62.46
375.53	70.65
375.74	93.18
375.951	19.46
376.161	-15.36
376.372	87.04
376.582	93.18
376.793	60.42
377.003	52.22
377.214	78.85
377.424	52.22
377.635	44.03
377.845	27.65
378.055	68.61
378.266	-15.36
378.476	44.03
378.686	19.46
378.897	60.42
379.107	19.46
379.317	70.65
379.528	-5.12
379.738	101.37
379.948	-27.65
380.158	95.23
380.369	11.26
380.579	35.84
380.789	80.89
380.999	80.89
381.21	91.13
381.42	134.14
381.63	-66.56
381.84	52.22
382.05	70.65
382.261	54.27
382.471	31.74
382.681	15.36
382.891	37.89
383.101	117.76
383.311	-68.61
383.521	37.89
383.731	109.57
383.941	44.03
384.151	15.36
384.361	35.84
384.571	-25.6
384.781	7.17
384.991	44.03
385.201	134.14
385.411	105.47
385.621	93.18
385.831	35.84
386.041	89.09
386.251	31.74
386.461	76.8
386.671	48.13
386.881	-5.12
387.091	46.08
387.301	84.99
387.511	-3.07
387.72	46.08
387.93	25.6
388.14	101.37
388.35	3.07
388.56	52.22
388.769	41.98
388.979	101.37
389.189	56.32
389.399	39.94
389.609	-17.41
389.818	68.61
390.028	60.42
390.238	101.37
390.447	80.89
390.657	50.18
390.867	3.07
391.076	27.65
391.286	89.09
391.496	52.22
391.705	-3.07
391.915	44.03
392.125	84.99
392.334	56.32
392.544	152.57
392.753	68.61
392.963	21.5
393.172	33.79
393.382	25.6
393.591	60.42
393.801	48.13
394.01	72.7
394.22	52.22
394.429	84.99
394.639	76.8
394.848	60.42
395.058	68.61
395.267	5.12
395.477	56.32
395.686	-3.07
395.895	117.76
396.105	60.42
396.314	5.12
396.524	125.95
396.733	68.61
396.942	152.57
397.152	54.27
397.361	125.95
397.57	113.66
397.78	44.03
397.989	132.09
398.198	152.57
398.407	3.07
398.617	15.36
398.826	70.65
399.035	109.57
399.244	60.42
399.453	48.13
399.663	130.05
399.872	89.09
400.081	87.04
400.29	111.61
400.499	68.61
400.708	103.42
400.917	13.31
401.127	66.56
401.336	48.13
401.545	199.68
401.754	76.8
401.963	101.37
402.172	101.37
402.381	44.03
402.59	101.37
402.799	76.8
403.008	152.57
403.217	87.04
403.426	152.57
403.635	128
403.844	103.42
404.053	101.37
404.262	84.99
404.471	142.33
404.68	93.18
404.888	152.57
405.097	158.72
405.306	70.65
405.515	84.99
405.724	158.72
405.933	89.09
406.142	99.33
406.35	203.77
406.559	117.76
406.768	119.81
406.977	164.86
407.185	173.05
407.394	175.1
407.603	168.96
407.812	175.1
408.02	199.68
408.229	209.92
408.438	195.58
408.646	154.62
408.855	183.29
409.064	175.1
409.272	230.4
409.481	244.73
409.69	187.39
409.898	224.25
410.107	265.21
410.315	281.6
410.524	201.72
410.733	185.34
410.941	257.02
411.15	281.6
411.358	287.74
411.567	396.28
411.775	308.22
411.984	187.39
412.192	318.46
412.401	347.13
412.609	447.48
412.818	308.22
413.026	322.56
413.234	359.42
413.443	349.18
413.651	289.79
413.86	361.47
414.068	406.52
414.276	441.34
414.485	494.58
414.693	453.63
414.901	496.63
415.11	500.73
415.318	568.31
415.526	535.54
415.734	568.31
415.943	617.46
416.151	611.32
416.359	691.19
416.567	611.32
416.776	699.38
416.984	670.71
417.192	687.09
417.4	672.76
417.608	658.42
417.817	723.96
418.025	793.59
418.233	863.22
418.441	787.44
418.649	822.26
418.857	947.19
419.065	902.13
419.273	930.8
419.481	941.04
419.689	984.05
419.897	1068.02
420.105	1027.06
420.313	1070.06
420.521	1160.17
420.729	1151.98
420.937	1201.13
421.145	1145.84
421.353	1350.64
421.561	1354.73
421.769	1389.55
421.977	1475.56
422.185	1524.71
422.393	1518.57
422.601	1545.19
422.809	1575.91
423.017	1694.69
423.224	1555.43
423.432	1749.99
423.64	1711.08
423.848	1924.07
424.056	1879.01
424.263	2040.8
424.471	2026.47
424.679	2051.04
424.887	2169.82
425.094	2282.46
425.302	2223.07
425.51	2292.7
425.718	2395.1
425.925	2337.76
426.133	2446.3
426.341	2624.47
426.548	2708.44
426.756	2649.05
426.964	2755.54
427.171	2872.28
427.379	3158.99
427.586	2941.91
427.794	3111.89
428.001	3275.73
428.209	3570.63
428.417	3292.11
428.624	3648.46
428.832	3558.35
429.039	3410.89
429.247	3591.11
429.454	3912.64
429.662	4074.43
429.869	3935.17
430.076	4334.53
430.284	4160.45
430.491	4260.8
430.699	4459.45
430.906	4402.11
431.114	4731.83
431.321	4733.88
431.528	4762.55
431.736	5088.18
431.943	5317.55
432.15	5163.95
432.358	5342.13
432.565	5483.44
432.772	5565.36
432.979	5899.17
433.187	5821.35
433.394	5938.09
433.601	6261.66
433.808	6353.82
434.016	6247.33
434.223	6615.96
434.43	6970.26
434.637	6931.35
434.844	7119.76
435.052	7367.57
435.259	7373.71
435.466	7269.27
435.673	7187.35
435.88	7824.26
436.087	8127.36
436.294	8260.48
436.501	7875.46
436.708	8358.78
436.915	8536.96
437.122	8795
437.329	8784.76
437.537	9169.78
437.743	9098.1
437.95	9102.2
438.157	9681.77
438.364	9919.34
438.571	9866.09
438.778	10040.17
438.985	10734.43
439.192	10447.71
439.399	10603.36
439.606	10445.66
439.813	11121.49
440.02	11668.3
440.227	11469.65
440.433	11594.58
440.64	11959.11
440.847	11623.25
441.054	12028.74
441.261	12733.25
441.467	12680
441.674	12907.32
441.881	13429.56
442.088	13298.49
442.294	13191.99
442.501	13599.54
442.708	13900.59
442.914	14310.18
443.121	15080.22
443.328	14340.9
443.534	15653.65
443.741	14867.23
443.948	14947.1
444.154	15997.71
444.361	15891.21
444.568	16014.09
444.774	15903.5
444.981	16059.15
445.187	16591.62
445.394	17406.71
445.6	16972.54
445.807	18594.53
446.013	17887.98
446.22	18031.34
446.426	18891.49
446.633	19180.25
446.839	19888.85
447.046	19020.51
447.252	20218.57
447.459	20052.69
447.665	19774.16
447.871	20859.59
448.078	21691.06
448.284	21007.04
448.491	21379.77
448.697	22047.41
448.903	22543.02
449.11	22579.88
449.316	22418.09
449.522	22577.83
449.728	23143.07
449.935	23575.19
450.141	23339.68
450.347	23628.44
450.553	23335.58
450.76	23636.63
450.966	24359.56
451.172	24035.99
451.378	24631.94
451.584	24126.1
451.791	24470.15
451.997	24758.92
452.203	25047.68
452.409	25182.85
452.615	24980.1
452.821	24124.05
453.027	23818.9
453.233	25281.15
453.44	23972.5
453.646	24232.59
453.852	24339.08
454.058	24873.6
454.264	24277.65
454.47	24748.68
454.676	23827.09
454.882	24734.34
455.088	23118.5
455.294	22913.7
455.5	23632.54
455.705	23755.41
455.911	22852.26
456.117	22411.95
456.323	22069.94
456.529	20996.8
456.735	22071.98
456.941	21441.21
457.147	20896.45
457.352	20576.97
457.558	20056.78
457.764	20347.59
457.97	19829.46
458.176	19409.62
458.381	19530.45
458.587	18402.02
458.793	18617.06
458.999	17572.6
459.204	18762.47
459.41	18475.75
459.616	17128.19
459.821	16988.92
460.027	16894.72
460.233	16818.94
460.438	16239.37
460.644	15977.23
460.85	15475.48
461.055	15084.31
461.261	15174.42
461.466	13738.8
461.672	13499.19
461.878	14551.84
462.083	13564.72
462.289	13241.14
462.494	13210.42
462.7	12630.85
462.905	12331.84
463.111	12659.52
463.316	12741.44
463.522	12585.79
463.727	12456.77
463.932	12563.26
464.138	12280.64
464.343	12290.88
464.549	12061.51
464.754	12239.69
464.959	12471.11
465.165	12100.42
465.37	11754.32
465.575	11346.77
465.781	11756.36
465.986	11694.93
466.191	11418.45
466.397	11215.7
466.602	10761.05
466.807	11250.52
467.012	11051.86
467.218	10869.59
467.423	10834.78
467.628	11004.76
467.833	11561.81
468.038	10908.51
