Data from USB4F104151__249__14-45-52-162.txt Node

Date: Thu Mar 13 14:45:52 EDT 2025
User: louis
Spectrometer: USB4F10415
Trigger mode: 4
Integration Time (sec): 2.000000E-2
Scans to average: 1
Electric dark correction enabled: true
Nonlinearity correction enabled: false
Boxcar width: 0
XAxis mode: Wavelengths
Number of Pixels in Spectrum: 3648
>>>>>Begin Spectral Data<<<<<
178.204	-123.22
178.424	-123.22
178.644	-123.22
178.864	-98.64
179.084	-92.5
179.304	-4.44
179.524	9.9
179.744	-65.88
179.964	44.71
180.184	18.09
180.404	24.23
180.624	3.75
180.844	1.71
181.064	-98.64
181.283	34.47
181.503	-65.88
181.723	97.96
181.943	-18.77
182.163	65.19
182.383	48.81
182.602	69.29
182.822	75.43
183.042	-0.34
183.262	-31.06
183.482	7.85
183.701	85.67
183.921	57
184.141	73.39
184.361	73.39
184.58	75.43
184.8	16.04
185.02	48.81
185.239	38.57
185.459	36.52
185.679	24.23
185.898	-29.01
186.118	81.58
186.338	20.14
186.557	18.09
186.777	-39.25
186.997	52.91
187.216	-6.49
187.436	57
187.655	-33.11
187.875	-8.53
188.095	-22.87
188.314	97.96
188.534	75.43
188.753	32.43
188.973	81.58
189.192	16.04
189.412	24.23
189.631	81.58
189.851	22.19
190.07	110.25
190.29	-0.34
190.509	73.39
190.729	-0.34
190.948	83.63
191.168	130.73
191.387	20.14
191.607	32.43
191.826	102.06
192.045	40.62
192.265	34.47
192.484	67.24
192.704	57
192.923	28.33
193.142	138.92
193.362	42.67
193.581	65.19
193.8	36.52
194.02	50.86
194.239	20.14
194.458	20.14
194.678	-22.87
194.897	32.43
195.116	-8.53
195.335	28.33
195.555	48.81
195.774	-31.06
195.993	46.76
196.212	-65.88
196.432	-47.44
196.651	-24.92
196.87	-88.4
197.089	57
197.308	20.14
197.528	26.28
197.747	-8.53
197.966	44.71
198.185	77.48
198.404	-20.82
198.623	20.14
198.842	73.39
199.062	91.82
199.281	46.76
199.5	24.23
199.719	3.75
199.938	57
200.157	89.77
200.376	65.19
200.595	34.47
200.814	16.04
201.033	-20.82
201.252	24.23
201.471	42.67
201.69	-0.34
201.909	89.77
202.128	46.76
202.347	7.85
202.566	57
202.785	-72.02
203.004	24.23
203.223	124.58
203.442	18.09
203.661	1.71
203.879	1.71
204.098	32.43
204.317	-20.82
204.536	9.9
204.755	-49.49
204.974	-8.53
205.193	42.67
205.411	110.25
205.63	57
205.849	1.71
206.068	75.43
206.287	-20.82
206.505	-33.11
206.724	42.67
206.943	-0.34
207.162	48.81
207.381	65.19
207.599	-24.92
207.818	24.23
208.037	-8.53
208.255	-0.34
208.474	89.77
208.693	-8.53
208.911	-39.25
209.13	20.14
209.349	-49.49
209.567	-14.68
209.786	38.57
210.005	32.43
210.223	16.04
210.442	7.85
210.661	73.39
210.879	61.1
211.098	26.28
211.316	42.67
211.535	57
211.753	3.75
211.972	48.81
212.191	20.14
212.409	102.06
212.628	50.86
212.846	-74.07
213.065	73.39
213.283	114.34
213.502	1.71
213.72	57
213.938	-0.34
214.157	18.09
214.375	38.57
214.594	-33.11
214.812	-16.73
215.031	30.38
215.249	13.99
215.467	65.19
215.686	102.06
215.904	93.87
216.122	-4.44
216.341	40.62
216.559	42.67
216.778	69.29
216.996	61.1
217.214	-16.73
217.432	9.9
217.651	11.95
217.869	91.82
218.087	69.29
218.306	34.47
218.524	32.43
218.742	-90.45
218.96	-6.49
219.179	46.76
219.397	1.71
219.615	77.48
219.833	-8.53
220.051	7.85
220.27	50.86
220.488	40.62
220.706	77.48
220.924	20.14
221.142	67.24
221.36	-14.68
221.578	-55.64
221.796	18.09
222.015	34.47
222.233	13.99
222.451	52.91
222.669	-26.96
222.887	-4.44
223.105	-63.83
223.323	67.24
223.541	28.33
223.759	181.93
223.977	-33.11
224.195	102.06
224.413	36.52
224.631	46.76
224.849	83.63
225.067	89.77
225.285	34.47
225.503	-6.49
225.721	-22.87
225.939	11.95
226.157	57
226.375	149.16
226.592	118.44
226.81	57
227.028	50.86
227.246	89.77
227.464	57
227.682	30.38
227.9	-22.87
228.117	59.05
228.335	52.91
228.553	22.19
228.771	-37.2
228.989	73.39
229.206	-16.73
229.424	-33.11
229.642	18.09
229.86	-47.44
230.077	57
230.295	28.33
230.513	83.63
230.731	57
230.948	73.39
231.166	89.77
231.384	50.86
231.601	-8.53
231.819	16.04
232.037	-49.49
232.254	22.19
232.472	81.58
232.689	-12.63
232.907	34.47
233.125	24.23
233.342	24.23
233.56	16.04
233.777	-31.06
233.995	61.1
234.213	50.86
234.43	50.86
234.648	44.71
234.865	48.81
235.083	1.71
235.3	-8.53
235.518	-10.58
235.735	67.24
235.953	16.04
236.17	26.28
236.388	34.47
236.605	108.2
236.822	50.86
237.04	1.71
237.257	24.23
237.475	3.75
237.692	48.81
237.909	26.28
238.127	16.04
238.344	-47.44
238.562	-0.34
238.779	7.85
238.996	32.43
239.214	59.05
239.431	81.58
239.648	69.29
239.865	-22.87
240.083	11.95
240.3	-0.34
240.517	36.52
240.735	26.28
240.952	81.58
241.169	44.71
241.386	13.99
241.603	18.09
241.821	32.43
242.038	67.24
242.255	-22.87
242.472	-8.53
242.689	61.1
242.907	63.15
243.124	79.53
243.341	18.09
243.558	16.04
243.775	-47.44
243.992	61.1
244.209	28.33
244.426	122.54
244.643	1.71
244.86	-10.58
245.078	-12.63
245.295	18.09
245.512	32.43
245.729	44.71
245.946	-14.68
246.163	104.11
246.38	1.71
246.597	18.09
246.814	22.19
247.031	-4.44
247.248	48.81
247.464	65.19
247.681	73.39
247.898	26.28
248.115	87.72
248.332	34.47
248.549	-0.34
248.766	91.82
248.983	20.14
249.2	22.19
249.417	61.1
249.633	-16.73
249.85	40.62
250.067	-37.2
250.284	32.43
250.501	63.15
250.717	89.77
250.934	28.33
251.151	38.57
251.368	9.9
251.585	44.71
251.801	1.71
252.018	-16.73
252.235	63.15
252.451	16.04
252.668	-0.34
252.885	91.82
253.102	20.14
253.318	7.85
253.535	-31.06
253.752	75.43
253.968	-41.3
254.185	57
254.401	-41.3
254.618	24.23
254.835	40.62
255.051	89.77
255.268	28.33
255.484	69.29
255.701	112.3
255.917	7.85
256.134	5.8
256.351	52.91
256.567	50.86
256.784	-14.68
257	-41.3
257.217	40.62
257.433	69.29
257.65	48.81
257.866	3.75
258.082	34.47
258.299	18.09
258.515	28.33
258.732	42.67
258.948	11.95
259.165	-2.39
259.381	73.39
259.597	69.29
259.814	93.87
260.03	50.86
260.246	36.52
260.463	-0.34
260.679	57
260.895	34.47
261.112	-29.01
261.328	22.19
261.544	50.86
261.761	65.19
261.977	48.81
262.193	-37.2
262.409	3.75
262.626	34.47
262.842	73.39
263.058	67.24
263.274	102.06
263.49	24.23
263.707	16.04
263.923	50.86
264.139	-78.16
264.355	34.47
264.571	16.04
264.787	61.1
265.004	118.44
265.22	32.43
265.436	61.1
265.652	83.63
265.868	24.23
266.084	-47.44
266.3	57
266.516	71.34
266.732	20.14
266.948	73.39
267.164	106.15
267.38	69.29
267.596	20.14
267.812	85.67
268.028	28.33
268.244	-33.11
268.46	-8.53
268.676	32.43
268.892	61.1
269.108	9.9
269.324	-8.53
269.54	79.53
269.756	-10.58
269.972	-4.44
270.188	22.19
270.403	-49.49
270.619	59.05
270.835	-65.88
271.051	52.91
271.267	42.67
271.483	57
271.698	89.77
271.914	36.52
272.13	71.34
272.346	28.33
272.562	57
272.777	57
272.993	-12.63
273.209	-2.39
273.425	57
273.64	16.04
273.856	54.95
274.072	48.81
274.287	18.09
274.503	32.43
274.719	57
274.934	42.67
275.15	-53.59
275.366	46.76
275.581	38.57
275.797	48.81
276.012	30.38
276.228	89.77
276.444	-22.87
276.659	100.01
276.875	48.81
277.09	38.57
277.306	22.19
277.521	28.33
277.737	-4.44
277.952	61.1
278.168	34.47
278.383	5.8
278.599	36.52
278.814	-29.01
279.03	48.81
279.245	-2.39
279.461	16.04
279.676	1.71
279.892	83.63
280.107	24.23
280.322	7.85
280.538	75.43
280.753	-0.34
280.969	48.81
281.184	83.63
281.399	124.58
281.615	30.38
281.83	124.58
282.045	-12.63
282.26	34.47
282.476	-0.34
282.691	48.81
282.906	48.81
283.122	28.33
283.337	24.23
283.552	75.43
283.767	-4.44
283.983	65.19
284.198	-24.92
284.413	-12.63
284.628	-16.73
284.843	75.43
285.058	61.1
285.274	-4.44
285.489	-20.82
285.704	30.38
285.919	-24.92
286.134	57
286.349	63.15
286.564	57
286.779	93.87
286.995	157.35
287.21	20.14
287.425	63.15
287.64	28.33
287.855	93.87
288.07	28.33
288.285	30.38
288.5	42.67
288.715	122.54
288.93	-39.25
289.145	20.14
289.36	13.99
289.575	24.23
289.79	-22.87
290.004	-86.36
290.219	48.81
290.434	7.85
290.649	81.58
290.864	83.63
291.079	-12.63
291.294	97.96
291.509	59.05
291.724	18.09
291.938	38.57
292.153	42.67
292.368	40.62
292.583	59.05
292.798	-8.53
293.012	16.04
293.227	9.9
293.442	-14.68
293.657	52.91
293.871	67.24
294.086	81.58
294.301	26.28
294.516	-2.39
294.73	-16.73
294.945	-4.44
295.16	22.19
295.374	59.05
295.589	32.43
295.804	-33.11
296.018	28.33
296.233	122.54
296.447	-20.82
296.662	34.47
296.877	13.99
297.091	59.05
297.306	71.34
297.52	83.63
297.735	-6.49
297.949	63.15
298.164	44.71
298.378	-14.68
298.593	-22.87
298.807	-39.25
299.022	118.44
299.236	34.47
299.451	48.81
299.665	16.04
299.88	13.99
300.094	89.77
300.309	-12.63
300.523	97.96
300.737	-61.78
300.952	20.14
301.166	11.95
301.381	-16.73
301.595	124.58
301.809	26.28
302.024	16.04
302.238	-0.34
302.452	73.39
302.667	44.71
302.881	106.15
303.095	61.1
303.309	5.8
303.524	40.62
303.738	20.14
303.952	57
304.166	65.19
304.381	13.99
304.595	69.29
304.809	-33.11
305.023	18.09
305.237	-33.11
305.452	26.28
305.666	-16.73
305.88	91.82
306.094	48.81
306.308	3.75
306.522	67.24
306.736	67.24
306.95	57
307.164	102.06
307.379	52.91
307.593	108.2
307.807	83.63
308.021	32.43
308.235	46.76
308.449	18.09
308.663	-33.11
308.877	106.15
309.091	30.38
309.305	48.81
309.519	24.23
309.733	83.63
309.947	-63.83
310.161	118.44
310.374	16.04
310.588	130.73
310.802	-39.25
311.016	63.15
311.23	57
311.444	-41.3
311.658	63.15
311.872	81.58
312.085	40.62
312.299	20.14
312.513	-16.73
312.727	-49.49
312.941	26.28
313.154	50.86
313.368	-10.58
313.582	97.96
313.796	71.34
314.009	32.43
314.223	13.99
314.437	57
314.651	7.85
314.864	59.05
315.078	40.62
315.292	91.82
315.505	83.63
315.719	-10.58
315.933	54.95
316.146	9.9
316.36	26.28
316.573	73.39
316.787	57
317.001	-14.68
317.214	3.75
317.428	85.67
317.641	44.71
317.855	57
318.068	77.48
318.282	89.77
318.495	83.63
318.709	77.48
318.922	63.15
319.136	34.47
319.349	26.28
319.563	40.62
319.776	-0.34
319.99	11.95
320.203	85.67
320.417	63.15
320.63	24.23
320.843	118.44
321.057	57
321.27	-2.39
321.483	91.82
321.697	97.96
321.91	122.54
322.124	91.82
322.337	77.48
322.55	48.81
322.763	85.67
322.977	50.86
323.19	-65.88
323.403	44.71
323.617	69.29
323.83	48.81
324.043	52.91
324.256	36.52
324.469	-33.11
324.683	85.67
324.896	-53.59
325.109	16.04
325.322	-24.92
325.535	61.1
325.748	77.48
325.962	-4.44
326.175	67.24
326.388	112.3
326.601	48.81
326.814	-26.96
327.027	122.54
327.24	104.11
327.453	32.43
327.666	59.05
327.879	75.43
328.092	83.63
328.305	114.34
328.518	57
328.731	16.04
328.944	40.62
329.157	-49.49
329.37	20.14
329.583	122.54
329.796	44.71
330.009	-24.92
330.222	97.96
330.435	48.81
330.648	26.28
330.861	24.23
331.073	7.85
331.286	87.72
331.499	28.33
331.712	-24.92
331.925	65.19
332.138	59.05
332.35	89.77
332.563	44.71
332.776	57
332.989	7.85
333.202	26.28
333.414	34.47
333.627	22.19
333.84	75.43
334.053	32.43
334.265	89.77
334.478	28.33
334.691	32.43
334.903	57
335.116	73.39
335.329	54.95
335.541	93.87
335.754	40.62
335.966	24.23
336.179	52.91
336.392	-57.68
336.604	-16.73
336.817	44.71
337.029	-41.3
337.242	-16.73
337.454	67.24
337.667	65.19
337.88	95.91
338.092	-0.34
338.305	59.05
338.517	87.72
338.729	73.39
338.942	67.24
339.154	-6.49
339.367	7.85
339.579	97.96
339.792	57
340.004	77.48
340.217	-26.96
340.429	28.33
340.641	28.33
340.854	9.9
341.066	7.85
341.278	-33.11
341.491	63.15
341.703	20.14
341.915	24.23
342.128	54.95
342.34	-14.68
342.552	116.39
342.764	24.23
342.977	61.1
343.189	91.82
343.401	1.71
343.613	69.29
343.826	48.81
344.038	1.71
344.25	147.11
344.462	93.87
344.674	28.33
344.886	124.58
345.099	126.63
345.311	65.19
345.523	18.09
345.735	-33.11
345.947	40.62
346.159	81.58
346.371	38.57
346.583	-22.87
346.795	93.87
347.007	100.01
347.219	-4.44
347.431	1.71
347.643	89.77
347.855	32.43
348.067	59.05
348.279	75.43
348.491	59.05
348.703	-14.68
348.915	50.86
349.127	18.09
349.339	40.62
349.551	26.28
349.763	-14.68
349.975	11.95
350.187	67.24
350.399	50.86
350.61	40.62
350.822	32.43
351.034	18.09
351.246	73.39
351.458	65.19
351.669	57
351.881	126.63
352.093	57
352.305	36.52
352.517	40.62
352.728	122.54
352.94	36.52
353.152	75.43
353.363	9.9
353.575	36.52
353.787	50.86
353.999	-10.58
354.21	122.54
354.422	73.39
354.633	81.58
354.845	81.58
355.057	73.39
355.268	40.62
355.48	57
355.692	3.75
355.903	-53.59
356.115	18.09
356.326	57
356.538	-0.34
356.749	24.23
356.961	77.48
357.172	-24.92
357.384	7.85
357.595	102.06
357.807	50.86
358.018	-8.53
358.23	112.3
358.441	65.19
358.653	54.95
358.864	106.15
359.075	5.8
359.287	-24.92
359.498	128.68
359.709	11.95
359.921	24.23
360.132	132.78
360.344	42.67
360.555	59.05
360.766	73.39
360.977	40.62
361.189	155.3
361.4	-0.34
361.611	44.71
361.823	54.95
362.034	83.63
362.245	11.95
362.456	65.19
362.667	65.19
362.879	73.39
363.09	73.39
363.301	118.44
363.512	24.23
363.723	81.58
363.935	28.33
364.146	7.85
364.357	57
364.568	89.77
364.779	-47.44
364.99	79.53
365.201	57
365.412	100.01
365.623	40.62
365.834	73.39
366.045	-4.44
366.256	97.96
366.467	77.48
366.678	83.63
366.889	32.43
367.1	57
367.311	132.78
367.522	134.82
367.733	114.34
367.944	89.77
368.155	3.75
368.366	130.73
368.577	32.43
368.788	57
368.999	32.43
369.209	-14.68
369.42	149.16
369.631	130.73
369.842	16.04
370.053	75.43
370.264	67.24
370.474	61.1
370.685	106.15
370.896	87.72
371.107	77.48
371.317	91.82
371.528	57
371.739	114.34
371.95	61.1
372.16	118.44
372.371	-53.59
372.582	42.67
372.792	102.06
373.003	42.67
373.214	36.52
373.424	32.43
373.635	36.52
373.846	122.54
374.056	34.47
374.267	73.39
374.477	81.58
374.688	50.86
374.898	28.33
375.109	7.85
375.319	36.52
375.53	134.82
375.74	128.68
375.951	18.09
376.161	44.71
376.372	97.96
376.582	42.67
376.793	83.63
377.003	57
377.214	100.01
377.424	73.39
377.635	61.1
377.845	42.67
378.055	81.58
378.266	-24.92
378.476	-16.73
378.686	57
378.897	26.28
379.107	89.77
379.317	138.92
379.528	89.77
379.738	130.73
379.948	69.29
380.158	63.15
380.369	71.34
380.579	32.43
380.789	26.28
380.999	85.67
381.21	106.15
381.42	165.54
381.63	-2.39
381.84	77.48
382.05	13.99
382.261	59.05
382.471	77.48
382.681	-14.68
382.891	130.73
383.101	40.62
383.311	11.95
383.521	63.15
383.731	106.15
383.941	85.67
384.151	59.05
384.361	106.15
384.571	147.11
384.781	59.05
384.991	40.62
385.201	97.96
385.411	118.44
385.621	40.62
385.831	120.49
386.041	16.04
386.251	57
386.461	85.67
386.671	44.71
386.881	77.48
387.091	11.95
387.301	165.54
387.511	-12.63
387.72	65.19
387.93	7.85
388.14	59.05
388.35	38.57
388.56	50.86
388.769	81.58
388.979	24.23
389.189	44.71
389.399	65.19
389.609	100.01
389.818	91.82
390.028	83.63
390.238	48.81
390.447	16.04
390.657	65.19
390.867	46.76
391.076	57
391.286	126.63
391.496	124.58
391.705	61.1
391.915	40.62
392.125	67.24
392.334	48.81
392.544	67.24
392.753	77.48
392.963	102.06
393.172	132.78
393.382	48.81
393.591	89.77
393.801	106.15
394.01	114.34
394.22	89.77
394.429	97.96
394.639	75.43
394.848	69.29
395.058	79.53
395.267	30.38
395.477	77.48
395.686	89.77
395.895	118.44
396.105	138.92
396.314	91.82
396.524	83.63
396.733	75.43
396.942	198.31
397.152	89.77
397.361	147.11
397.57	106.15
397.78	118.44
397.989	116.39
398.198	138.92
398.407	116.39
398.617	42.67
398.826	153.26
399.035	159.4
399.244	122.54
399.453	83.63
399.663	75.43
399.872	122.54
400.081	75.43
400.29	132.78
400.499	81.58
400.708	188.07
400.917	128.68
401.127	134.82
401.336	196.26
401.545	190.12
401.754	206.5
401.963	173.74
402.172	89.77
402.381	110.25
402.59	83.63
402.799	114.34
403.008	198.31
403.217	157.35
403.426	138.92
403.635	140.97
403.844	110.25
404.053	179.88
404.262	175.78
404.471	208.55
404.68	198.31
404.888	114.34
405.097	159.4
405.306	100.01
405.515	194.22
405.724	149.16
405.933	145.06
406.142	200.36
406.35	171.69
406.559	239.27
406.768	247.46
406.977	192.17
407.185	204.46
407.394	280.23
407.603	161.45
407.812	222.89
408.02	231.08
408.229	290.47
408.438	263.85
408.646	220.84
408.855	280.23
409.064	212.65
409.272	313
409.481	313
409.69	278.18
409.898	335.53
410.107	343.72
410.315	386.72
410.524	360.1
410.733	345.77
410.941	384.68
411.15	419.49
411.358	474.79
411.567	474.79
411.775	454.31
411.984	482.98
412.192	566.95
412.401	534.18
412.609	581.28
412.818	630.43
413.026	603.81
413.234	577.19
413.443	577.19
413.651	614.05
413.86	655.01
414.068	695.97
414.276	695.97
414.485	671.39
414.693	816.8
414.901	767.65
415.11	769.69
415.318	773.79
415.526	829.09
415.734	855.71
415.943	884.38
416.151	978.59
416.359	911
416.567	990.88
416.776	1121.95
416.984	1052.31
417.192	1130.14
417.4	1093.27
417.608	1189.53
417.817	1228.44
418.025	1246.87
418.233	1318.55
418.441	1281.69
418.649	1388.18
418.857	1484.44
419.065	1584.79
419.273	1470.1
419.481	1597.07
419.689	1599.12
419.897	1744.53
420.105	1695.38
420.313	1746.58
420.521	1826.45
420.729	2027.15
420.937	2018.96
421.145	1965.71
421.353	2080.39
421.561	2229.9
421.769	2190.99
421.977	2377.35
422.185	2277
422.393	2514.56
422.601	2612.87
422.809	2563.72
423.017	2698.88
423.224	2877.05
423.432	2848.38
423.64	2899.58
423.848	3128.95
424.056	3079.8
424.263	3329.66
424.471	3391.09
424.679	3245.69
424.887	3528.31
425.094	3649.14
425.302	3784.3
425.51	3726.96
425.718	3892.85
425.925	4042.35
426.133	4249.19
426.341	4453.99
426.548	4617.83
426.756	4529.77
426.964	4615.78
427.171	4925.02
427.379	4994.65
427.586	5078.62
427.794	5373.53
428.001	5514.84
428.209	5774.93
428.417	5596.76
428.624	6078.03
428.832	6061.65
429.039	5994.06
429.247	5979.73
429.454	6532.68
429.662	6983.23
429.869	6598.21
430.076	7114.3
430.284	6889.03
430.491	7269.95
430.699	7472.7
430.906	7663.16
431.114	7622.2
431.321	8199.73
431.528	7980.59
431.736	8603.18
431.943	8910.37
432.15	8840.74
432.358	8877.6
432.565	9373.21
432.772	9459.23
432.979	9831.96
433.187	9977.36
433.394	9983.51
433.601	10702.34
433.808	10970.63
434.016	10710.54
434.223	11228.67
434.43	11814.39
434.637	11591.16
434.844	12307.95
435.052	12525.04
435.259	12453.36
435.466	12717.54
435.673	12330.48
435.88	13149.67
436.087	14042.58
436.294	13979.09
436.501	13712.86
436.708	14007.76
436.915	14364.11
437.122	15119.81
437.329	15125.96
437.537	15478.21
437.743	15873.46
437.95	15603.13
438.157	16491.95
438.364	17010.09
438.571	16999.85
438.778	17079.72
438.985	18691.47
439.192	18085.27
439.399	18433.43
439.606	17997.21
439.813	19060.1
440.02	20084.09
440.227	20014.46
440.433	19742.08
440.64	20749.68
440.847	20139.38
441.054	20735.34
441.261	22052.19
441.467	21839.2
441.674	22291.8
441.881	22981.96
442.088	22918.48
442.294	22764.88
442.501	23434.57
442.708	23821.63
442.914	24706.35
443.121	26178.84
443.328	25097.52
443.534	26731.79
443.741	26189.08
443.948	25816.35
444.154	27874.56
444.361	27725.06
444.568	27868.42
444.774	27819.27
444.981	27989.25
445.187	28857.59
445.394	30321.88
445.6	29879.52
445.807	32894.13
446.013	31169.74
446.22	32312.51
446.426	32793.78
446.633	33473.71
446.839	34772.12
447.046	33277.1
447.252	34808.98
447.459	35030.16
447.665	34960.53
447.871	36224.13
448.078	38036.58
448.284	36154.5
448.491	37532.78
448.697	38458.46
448.903	39427.15
449.11	39560.27
449.316	39255.12
449.522	39896.14
449.728	40735.81
449.935	41452.59
450.141	41047.1
450.347	42447.91
450.553	40684.61
450.76	41313.33
450.966	42570.79
451.172	42087.46
451.378	43312.15
451.584	42062.89
451.791	43338.77
451.997	43586.58
452.203	43994.12
452.409	43947.02
452.615	44225.54
452.821	42736.67
453.027	42439.72
453.233	44723.2
453.44	42628.13
453.646	43162.65
453.852	43670.54
454.058	44030.99
454.264	42738.72
454.47	43854.86
454.676	42456.1
454.882	44645.38
455.088	40152.13
455.294	40940.6
455.5	41751.6
455.705	42062.89
455.911	40754.24
456.117	39773.26
456.323	39357.52
456.529	37141.62
456.735	39220.31
456.941	38161.51
457.147	37938.28
457.352	36492.41
457.558	36359.3
457.764	36457.6
457.97	35513.48
458.176	34731.16
458.381	34845.85
458.587	33543.34
458.793	33748.14
458.999	31626.44
459.204	34120.87
459.41	33008.82
459.616	30971.09
459.821	31048.91
460.027	30655.7
460.233	30303.45
460.438	28890.35
460.644	28974.32
460.85	27919.62
461.055	27270.41
461.261	27485.45
461.466	25128.24
461.672	24497.46
461.878	26363.16
462.083	24898.86
462.289	23983.42
462.494	23926.08
462.7	22781.26
462.905	22281.56
463.111	23086.41
463.316	23088.46
463.522	22572.37
463.727	22826.32
463.932	22916.43
464.138	22388.05
464.343	22431.06
464.549	21988.7
464.754	22820.17
464.959	22322.52
465.165	22109.53
465.37	21454.18
465.575	20782.45
465.781	21646.69
465.986	21572.96
466.191	20759.92
466.397	20569.46
466.602	19346.82
466.807	20563.31
467.012	20475.25
467.218	20454.77
467.423	19703.17
467.628	20192.63
467.833	20743.53
468.038	20161.91
