Data from USB4F104151__177__14-45-03-833.txt Node

Date: Thu Mar 13 14:45:03 EDT 2025
User: louis
Spectrometer: USB4F10415
Trigger mode: 4
Integration Time (sec): 2.000000E-2
Scans to average: 1
Electric dark correction enabled: true
Nonlinearity correction enabled: false
Boxcar width: 0
XAxis mode: Wavelengths
Number of Pixels in Spectrum: 3648
>>>>>Begin Spectral Data<<<<<
178.204	-43.86
178.424	-43.86
178.644	-43.86
178.864	-133.97
179.084	-111.44
179.304	-37.72
179.524	9.39
179.744	25.77
179.964	-29.52
180.184	-9.05
180.404	13.48
180.624	7.34
180.844	36.01
181.064	-78.68
181.283	-13.14
181.503	19.63
181.723	56.49
181.943	-78.68
182.163	169.13
182.383	13.48
182.602	76.97
182.822	13.48
183.042	25.77
183.262	-13.14
183.482	64.68
183.701	5.29
183.921	62.63
184.141	-50
184.361	72.87
184.58	-11.09
184.8	64.68
185.02	68.78
185.239	62.63
185.459	-29.52
185.679	-2.9
185.898	23.72
186.118	85.16
186.338	13.48
186.557	52.39
186.777	1.19
186.997	3.24
187.216	1.19
187.436	68.78
187.655	19.63
187.875	-4.95
188.095	-9.05
188.314	56.49
188.534	119.98
188.753	89.26
188.973	44.2
189.192	60.59
189.412	19.63
189.631	11.43
189.851	36.01
190.07	109.74
190.29	76.97
190.509	-13.14
190.729	68.78
190.948	48.3
191.168	40.11
191.387	44.2
191.607	56.49
191.826	54.44
192.045	66.73
192.265	-27.48
192.484	15.53
192.704	38.06
192.923	-52.05
193.142	105.64
193.362	109.74
193.581	50.35
193.8	62.63
194.02	-13.14
194.239	-25.43
194.458	44.2
194.678	17.58
194.897	50.35
195.116	-45.91
195.335	36.01
195.555	5.29
195.774	-33.62
195.993	36.01
196.212	3.24
196.432	-13.14
196.651	60.59
196.87	-54.1
197.089	31.91
197.308	54.44
197.528	44.2
197.747	-13.14
197.966	42.15
198.185	17.58
198.404	27.82
198.623	-0.85
198.842	44.2
199.062	7.34
199.281	36.01
199.5	-4.95
199.719	89.26
199.938	76.97
200.157	76.97
200.376	44.2
200.595	33.96
200.814	117.93
201.033	68.78
201.252	85.16
201.471	85.16
201.69	3.24
201.909	31.91
202.128	-21.33
202.347	21.67
202.566	17.58
202.785	-4.95
203.004	-52.05
203.223	167.08
203.442	54.44
203.661	48.3
203.879	76.97
204.098	-15.19
204.317	27.82
204.536	27.82
204.755	64.68
204.974	36.01
205.193	-27.48
205.411	50.35
205.63	25.77
205.849	23.72
206.068	11.43
206.287	-21.33
206.505	74.92
206.724	-21.33
206.943	31.91
207.162	15.53
207.381	66.73
207.599	-11.09
207.818	40.11
208.037	68.78
208.255	-2.9
208.474	3.24
208.693	-4.95
208.911	27.82
209.13	-17.24
209.349	19.63
209.567	27.82
209.786	42.15
210.005	44.2
210.223	70.83
210.442	-54.1
210.661	31.91
210.879	64.68
211.098	17.58
211.316	27.82
211.535	25.77
211.753	-43.86
211.972	3.24
212.191	-13.14
212.409	-4.95
212.628	44.2
212.846	13.48
213.065	52.39
213.283	54.44
213.502	95.4
213.72	19.63
213.938	93.35
214.157	-2.9
214.375	52.39
214.594	25.77
214.812	5.29
215.031	-66.39
215.249	-2.9
215.467	46.25
215.686	36.01
215.904	27.82
216.122	13.48
216.341	29.87
216.559	52.39
216.778	40.11
216.996	40.11
217.214	72.87
217.432	-4.95
217.651	33.96
217.869	-25.43
218.087	76.97
218.306	-15.19
218.524	27.82
218.742	85.16
218.96	29.87
219.179	56.49
219.397	46.25
219.615	70.83
219.833	19.63
220.051	23.72
220.27	48.3
220.488	70.83
220.706	68.78
220.924	56.49
221.142	72.87
221.36	21.67
221.578	1.19
221.796	36.01
222.015	-35.67
222.233	19.63
222.451	68.78
222.669	-4.95
222.887	46.25
223.105	60.59
223.323	-29.52
223.541	25.77
223.759	9.39
223.977	54.44
224.195	36.01
224.413	60.59
224.631	68.78
224.849	-4.95
225.067	76.97
225.285	21.67
225.503	64.68
225.721	-11.09
225.939	36.01
226.157	5.29
226.375	89.26
226.592	60.59
226.81	85.16
227.028	-27.48
227.246	68.78
227.464	76.97
227.682	19.63
227.9	15.53
228.117	-21.33
228.335	1.19
228.553	13.48
228.771	81.07
228.989	70.83
229.206	36.01
229.424	27.82
229.642	-37.72
229.86	36.01
230.077	-68.44
230.295	36.01
230.513	134.31
230.731	23.72
230.948	-4.95
231.166	60.59
231.384	29.87
231.601	-9.05
231.819	109.74
232.037	-21.33
232.254	76.97
232.472	9.39
232.689	19.63
232.907	-52.05
233.125	72.87
233.342	95.4
233.56	-2.9
233.777	15.53
233.995	29.87
234.213	29.87
234.43	54.44
234.648	-11.09
234.865	56.49
235.083	44.2
235.3	76.97
235.518	79.02
235.735	126.12
235.953	109.74
236.17	21.67
236.388	38.06
236.605	13.48
236.822	79.02
237.04	40.11
237.257	-54.1
237.475	54.44
237.692	64.68
237.909	-33.62
238.127	-19.29
238.344	79.02
238.562	52.39
238.779	-25.43
238.996	50.35
239.214	111.78
239.431	101.55
239.648	-2.9
239.865	27.82
240.083	27.82
240.3	-76.63
240.517	-4.95
240.735	62.63
240.952	154.79
241.169	101.55
241.386	50.35
241.603	3.24
241.821	-31.57
242.038	52.39
242.255	19.63
242.472	-13.14
242.689	38.06
242.907	48.3
243.124	-31.57
243.341	7.34
243.558	19.63
243.775	-35.67
243.992	21.67
244.209	52.39
244.426	101.55
244.643	115.88
244.86	68.78
245.078	-4.95
245.295	-54.1
245.512	27.82
245.729	-4.95
245.946	76.97
246.163	48.3
246.38	62.63
246.597	7.34
246.814	31.91
247.031	109.74
247.248	109.74
247.464	56.49
247.681	23.72
247.898	-19.29
248.115	40.11
248.332	-2.9
248.549	44.2
248.766	52.39
248.983	72.87
249.2	70.83
249.417	23.72
249.633	-2.9
249.85	29.87
250.067	50.35
250.284	87.21
250.501	60.59
250.717	103.59
250.934	3.24
251.151	46.25
251.368	-23.38
251.585	117.93
251.801	36.01
252.018	-29.52
252.235	93.35
252.451	87.21
252.668	52.39
252.885	117.93
253.102	76.97
253.318	-0.85
253.535	42.15
253.752	-2.9
253.968	44.2
254.185	3.24
254.401	-45.91
254.618	48.3
254.835	25.77
255.051	29.87
255.268	50.35
255.484	79.02
255.701	9.39
255.917	44.2
256.134	40.11
256.351	5.29
256.567	11.43
256.784	97.45
257	-9.05
257.217	19.63
257.433	5.29
257.65	117.93
257.866	40.11
258.082	-17.24
258.299	-9.05
258.515	72.87
258.732	-29.52
258.948	93.35
259.165	-11.09
259.381	-9.05
259.597	85.16
259.814	62.63
260.03	85.16
260.246	-19.29
260.463	109.74
260.679	19.63
260.895	-0.85
261.112	-19.29
261.328	-56.15
261.544	-54.1
261.761	40.11
261.977	29.87
262.193	-29.52
262.409	68.78
262.626	52.39
262.842	7.34
263.058	29.87
263.274	-11.09
263.49	60.59
263.707	38.06
263.923	11.43
264.139	-4.95
264.355	60.59
264.571	93.35
264.787	42.15
265.004	95.4
265.22	38.06
265.436	19.63
265.652	-50
265.868	85.16
266.084	-86.87
266.3	79.02
266.516	19.63
266.732	103.59
266.948	-2.9
267.164	-23.38
267.38	31.91
267.596	13.48
267.812	81.07
268.028	68.78
268.244	46.25
268.46	38.06
268.676	-29.52
268.892	19.63
269.108	3.24
269.324	9.39
269.54	-19.29
269.756	-4.95
269.972	46.25
270.188	68.78
270.403	15.53
270.619	101.55
270.835	93.35
271.051	52.39
271.267	60.59
271.483	87.21
271.698	113.83
271.914	56.49
272.13	76.97
272.346	25.77
272.562	21.67
272.777	38.06
272.993	72.87
273.209	48.3
273.425	79.02
273.64	-37.72
273.856	48.3
274.072	93.35
274.287	17.58
274.503	38.06
274.719	60.59
274.934	29.87
275.15	-78.68
275.366	21.67
275.581	13.48
275.797	25.77
276.012	-37.72
276.228	-9.05
276.444	64.68
276.659	68.78
276.875	11.43
277.09	-35.67
277.306	48.3
277.521	19.63
277.737	-11.09
277.952	29.87
278.168	36.01
278.383	3.24
278.599	33.96
278.814	25.77
279.03	62.63
279.245	79.02
279.461	15.53
279.676	95.4
279.892	72.87
280.107	-2.9
280.322	-4.95
280.538	15.53
280.753	-15.19
280.969	19.63
281.184	-35.67
281.399	101.55
281.615	42.15
281.83	11.43
282.045	3.24
282.26	-13.14
282.476	13.48
282.691	19.63
282.906	70.83
283.122	62.63
283.337	15.53
283.552	-4.95
283.767	-11.09
283.983	-11.09
284.198	-4.95
284.413	44.2
284.628	1.19
284.843	126.12
285.058	40.11
285.274	-2.9
285.489	36.01
285.704	60.59
285.919	36.01
286.134	23.72
286.349	38.06
286.564	52.39
286.779	15.53
286.995	76.97
287.21	-4.95
287.425	11.43
287.64	-7
287.855	23.72
288.07	38.06
288.285	44.2
288.5	50.35
288.715	48.3
288.93	40.11
289.145	68.78
289.36	76.97
289.575	46.25
289.79	79.02
290.004	17.58
290.219	72.87
290.434	-4.95
290.649	3.24
290.864	-29.52
291.079	3.24
291.294	19.63
291.509	36.01
291.724	-4.95
291.938	27.82
292.153	19.63
292.368	-41.81
292.583	36.01
292.798	70.83
293.012	44.2
293.227	-27.48
293.442	-21.33
293.657	97.45
293.871	76.97
294.086	52.39
294.301	72.87
294.516	-43.86
294.73	85.16
294.945	-27.48
295.16	-2.9
295.374	89.26
295.589	72.87
295.804	52.39
296.018	27.82
296.233	68.78
296.447	44.2
296.662	91.31
296.877	79.02
297.091	46.25
297.306	13.48
297.52	11.43
297.735	91.31
297.949	-2.9
298.164	89.26
298.378	-17.24
298.593	62.63
298.807	54.44
299.022	44.2
299.236	-9.05
299.451	-60.24
299.665	-29.52
299.88	70.83
300.094	72.87
300.309	25.77
300.523	48.3
300.737	15.53
300.952	11.43
301.166	68.78
301.381	-23.38
301.595	103.59
301.809	-50
302.024	-4.95
302.238	128.17
302.452	85.16
302.667	3.24
302.881	13.48
303.095	60.59
303.309	48.3
303.524	-62.29
303.738	46.25
303.952	-9.05
304.166	-9.05
304.381	-76.63
304.595	126.12
304.809	97.45
305.023	93.35
305.237	36.01
305.452	76.97
305.666	-29.52
305.88	85.16
306.094	52.39
306.308	52.39
306.522	19.63
306.736	93.35
306.95	85.16
307.164	85.16
307.379	36.01
307.593	66.73
307.807	36.01
308.021	68.78
308.235	36.01
308.449	36.01
308.663	36.01
308.877	27.82
309.091	-0.85
309.305	42.15
309.519	-13.14
309.733	144.55
309.947	11.43
310.161	52.39
310.374	81.07
310.588	29.87
310.802	-45.91
311.016	-4.95
311.23	64.68
311.444	-4.95
311.658	124.07
311.872	-21.33
312.085	-43.86
312.299	48.3
312.513	-4.95
312.727	76.97
312.941	-27.48
313.154	38.06
313.368	11.43
313.582	-66.39
313.796	60.59
314.009	79.02
314.223	60.59
314.437	-2.9
314.651	54.44
314.864	-19.29
315.078	50.35
315.292	27.82
315.505	19.63
315.719	97.45
315.933	48.3
316.146	25.77
316.36	11.43
316.573	60.59
316.787	27.82
317.001	87.21
317.214	25.77
317.428	1.19
317.641	-27.48
317.855	134.31
318.068	17.58
318.282	48.3
318.495	42.15
318.709	99.5
318.922	11.43
319.136	103.59
319.349	29.87
319.563	13.48
319.776	44.2
319.99	29.87
320.203	33.96
320.417	68.78
320.63	31.91
320.843	128.17
321.057	-13.14
321.27	5.29
321.483	126.12
321.697	103.59
321.91	68.78
322.124	5.29
322.337	-15.19
322.55	-35.67
322.763	70.83
322.977	11.43
323.19	21.67
323.403	79.02
323.617	60.59
323.83	-2.9
324.043	11.43
324.256	119.98
324.469	-52.05
324.683	85.16
324.896	-115.54
325.109	-13.14
325.322	11.43
325.535	109.74
325.748	36.01
325.962	-29.52
326.175	36.01
326.388	44.2
326.601	33.96
326.814	56.49
327.027	95.4
327.24	54.44
327.453	-47.96
327.666	85.16
327.879	19.63
328.092	89.26
328.305	52.39
328.518	-4.95
328.731	101.55
328.944	5.29
329.157	91.31
329.37	27.82
329.583	85.16
329.796	85.16
330.009	-25.43
330.222	60.59
330.435	66.73
330.648	70.83
330.861	70.83
331.073	-17.24
331.286	40.11
331.499	19.63
331.712	60.59
331.925	19.63
332.138	23.72
332.35	72.87
332.563	-0.85
332.776	76.97
332.989	72.87
333.202	-13.14
333.414	60.59
333.627	44.2
333.84	70.83
334.053	60.59
334.265	-4.95
334.478	9.39
334.691	134.31
334.903	-21.33
335.116	42.15
335.329	-19.29
335.541	44.2
335.754	152.74
335.966	3.24
336.179	-13.14
336.392	19.63
336.604	40.11
336.817	-13.14
337.029	76.97
337.242	31.91
337.454	93.35
337.667	87.21
337.88	87.21
338.092	15.53
338.305	70.83
338.517	-0.85
338.729	36.01
338.942	56.49
339.154	44.2
339.367	1.19
339.579	5.29
339.792	-54.1
340.004	-4.95
340.217	52.39
340.429	56.49
340.641	58.54
340.854	-45.91
341.066	3.24
341.278	36.01
341.491	76.97
341.703	17.58
341.915	89.26
342.128	17.58
342.34	29.87
342.552	-37.72
342.764	25.77
342.977	109.74
343.189	46.25
343.401	21.67
343.613	-37.72
343.826	29.87
344.038	11.43
344.25	64.68
344.462	1.19
344.674	33.96
344.886	64.68
345.099	-4.95
345.311	40.11
345.523	93.35
345.735	-2.9
345.947	46.25
346.159	21.67
346.371	27.82
346.583	60.59
346.795	62.63
347.007	95.4
347.219	33.96
347.431	3.24
347.643	58.54
347.855	7.34
348.067	113.83
348.279	33.96
348.491	76.97
348.703	119.98
348.915	-15.19
349.127	25.77
349.339	25.77
349.551	60.59
349.763	27.82
349.975	130.22
350.187	101.55
350.399	5.29
350.61	36.01
350.822	29.87
351.034	89.26
351.246	38.06
351.458	15.53
351.669	87.21
351.881	52.39
352.093	146.6
352.305	7.34
352.517	115.88
352.728	99.5
352.94	54.44
353.152	40.11
353.363	64.68
353.575	136.36
353.787	85.16
353.999	54.44
354.21	142.5
354.422	3.24
354.633	60.59
354.845	74.92
355.057	87.21
355.268	15.53
355.48	27.82
355.692	-13.14
355.903	70.83
356.115	-29.52
356.326	38.06
356.538	60.59
356.749	60.59
356.961	31.91
357.172	122.02
357.384	-29.52
357.595	111.78
357.807	19.63
358.018	-4.95
358.23	44.2
358.441	101.55
358.653	3.24
358.864	25.77
359.075	17.58
359.287	19.63
359.498	79.02
359.709	-13.14
359.921	52.39
360.132	-2.9
360.344	68.78
360.555	27.82
360.766	-0.85
360.977	1.19
361.189	46.25
361.4	76.97
361.611	109.74
361.823	95.4
362.034	103.59
362.245	11.43
362.456	60.59
362.667	3.24
362.879	54.44
363.09	97.45
363.301	70.83
363.512	52.39
363.723	-29.52
363.935	40.11
364.146	83.11
364.357	105.64
364.568	38.06
364.779	-21.33
364.99	97.45
365.201	40.11
365.412	85.16
365.623	19.63
365.834	19.63
366.045	72.87
366.256	-29.52
366.467	27.82
366.678	50.35
366.889	101.55
367.1	103.59
367.311	21.67
367.522	-11.09
367.733	19.63
367.944	36.01
368.155	52.39
368.366	-11.09
368.577	54.44
368.788	56.49
368.999	3.24
369.209	54.44
369.42	113.83
369.631	109.74
369.842	44.2
370.053	38.06
370.264	-0.85
370.474	38.06
370.685	76.97
370.896	56.49
371.107	93.35
371.317	-23.38
371.528	-0.85
371.739	44.2
371.95	11.43
372.16	64.68
372.371	97.45
372.582	95.4
372.792	76.97
373.003	76.97
373.214	46.25
373.424	58.54
373.635	-37.72
373.846	79.02
374.056	54.44
374.267	29.87
374.477	54.44
374.688	3.24
374.898	-2.9
375.109	56.49
375.319	64.68
375.53	93.35
375.74	52.39
375.951	87.21
376.161	-2.9
376.372	81.07
376.582	89.26
376.793	19.63
377.003	5.29
377.214	9.39
377.424	97.45
377.635	60.59
377.845	72.87
378.055	21.67
378.266	-9.05
378.476	46.25
378.686	52.39
378.897	36.01
379.107	76.97
379.317	54.44
379.528	15.53
379.738	60.59
379.948	5.29
380.158	11.43
380.369	38.06
380.579	87.21
380.789	68.78
380.999	60.59
381.21	87.21
381.42	142.5
381.63	56.49
381.84	85.16
382.05	79.02
382.261	101.55
382.471	36.01
382.681	93.35
382.891	91.31
383.101	85.16
383.311	-13.14
383.521	68.78
383.731	117.93
383.941	89.26
384.151	70.83
384.361	-0.85
384.571	46.25
384.781	62.63
384.991	95.4
385.201	109.74
385.411	132.26
385.621	103.59
385.831	29.87
386.041	29.87
386.251	85.16
386.461	76.97
386.671	27.82
386.881	64.68
387.091	-0.85
387.301	46.25
387.511	1.19
387.72	38.06
387.93	3.24
388.14	-4.95
388.35	111.78
388.56	83.11
388.769	44.2
388.979	11.43
389.189	29.87
389.399	44.2
389.609	36.01
389.818	76.97
390.028	-4.95
390.238	62.63
390.447	93.35
390.657	27.82
390.867	119.98
391.076	19.63
391.286	68.78
391.496	27.82
391.705	-19.29
391.915	117.93
392.125	144.55
392.334	68.78
392.544	-27.48
392.753	136.36
392.963	23.72
393.172	97.45
393.382	113.83
393.591	109.74
393.801	52.39
394.01	54.44
394.22	66.73
394.429	68.78
394.639	60.59
394.848	89.26
395.058	72.87
395.267	93.35
395.477	109.74
395.686	44.2
395.895	89.26
396.105	117.93
396.314	97.45
396.524	40.11
396.733	76.97
396.942	152.74
397.152	91.31
397.361	81.07
397.57	38.06
397.78	74.92
397.989	25.77
398.198	158.89
398.407	19.63
398.617	68.78
398.826	29.87
399.035	74.92
399.244	124.07
399.453	101.55
399.663	130.22
399.872	93.35
400.081	91.31
400.29	113.83
400.499	93.35
400.708	87.21
400.917	93.35
401.127	60.59
401.336	38.06
401.545	111.78
401.754	68.78
401.963	115.88
402.172	79.02
402.381	44.2
402.59	79.02
402.799	76.97
403.008	117.93
403.217	101.55
403.426	44.2
403.635	62.63
403.844	44.2
404.053	103.59
404.262	138.41
404.471	158.89
404.68	138.41
404.888	93.35
405.097	48.3
405.306	105.64
405.515	85.16
405.724	52.39
405.933	117.93
406.142	97.45
406.35	185.51
406.559	181.42
406.768	113.83
406.977	122.02
407.185	177.32
407.394	93.35
407.603	187.56
407.812	158.89
408.02	160.94
408.229	189.61
408.438	150.7
408.646	152.74
408.855	203.94
409.064	232.62
409.272	226.47
409.481	257.19
409.69	162.98
409.898	179.37
410.107	210.09
410.315	259.24
410.524	193.7
410.733	240.81
410.941	285.86
411.15	265.38
411.358	285.86
411.567	302.25
411.775	240.81
411.984	273.57
412.192	330.92
412.401	347.3
412.609	416.93
412.818	371.88
413.026	400.55
413.234	314.53
413.443	357.54
413.651	347.3
413.86	384.16
414.068	490.66
414.276	410.79
414.485	373.92
414.693	533.67
414.901	515.23
415.11	578.72
415.318	437.41
415.526	486.56
415.734	580.77
415.943	578.72
416.151	654.5
416.359	609.44
416.567	701.6
416.776	611.49
416.984	670.88
417.192	732.32
417.4	693.41
417.608	658.59
417.817	674.98
418.025	814.24
418.233	830.62
418.441	715.94
418.649	806.05
418.857	945.31
419.065	898.2
419.273	863.39
419.481	961.69
419.689	978.08
419.897	1037.47
420.105	1031.32
420.313	1037.47
420.521	1078.43
420.729	1211.54
420.937	1186.97
421.145	1281.18
421.353	1252.5
421.561	1338.52
421.769	1363.09
421.977	1412.25
422.185	1418.39
422.393	1553.55
422.601	1631.38
422.809	1604.75
423.017	1533.08
423.224	1676.43
423.432	1752.21
423.64	1639.57
423.848	1887.37
424.056	1846.41
424.263	1881.23
424.471	1973.39
424.679	1997.96
424.887	2059.4
425.094	2206.86
425.302	2206.86
425.51	2227.34
425.718	2342.02
425.925	2411.65
426.133	2348.17
426.341	2593.92
426.548	2641.03
426.756	2503.81
426.964	2585.73
427.171	2841.73
427.379	2919.55
427.586	3009.66
427.794	3153.02
428.001	3148.92
428.209	3345.53
428.417	3175.55
428.624	3554.42
428.832	3595.38
429.039	3540.08
429.247	3488.89
429.454	3984.49
429.662	4095.08
429.869	3773.55
430.076	4060.27
430.284	4054.12
430.491	4234.35
430.699	4346.98
430.906	4367.46
431.114	4330.6
431.321	4531.3
431.528	4725.86
431.736	4979.81
431.943	5278.81
432.15	5000.29
432.358	5057.63
432.565	5403.74
432.772	5217.37
432.979	5553.24
433.187	5786.71
433.394	5592.15
433.601	6114.38
433.808	6042.7
434.016	6081.61
434.223	6308.94
434.43	6833.22
434.637	6753.35
434.844	7124.03
435.052	7124.03
435.259	7150.65
435.466	7150.65
435.673	7177.28
435.88	7558.2
436.087	7957.55
436.294	7861.3
436.501	7765.04
436.708	7763
436.915	8248.36
437.122	8596.52
437.329	8490.03
437.537	8559.66
437.743	8766.5
437.95	8893.47
438.157	9432.09
438.364	9802.77
438.571	9401.37
438.778	9727
438.985	10474.51
439.192	10091.54
439.399	10327.05
439.606	10243.09
439.813	10667.02
440.02	11340.8
440.227	11344.89
440.433	11088.9
440.64	11596.79
440.847	11267.07
441.054	11750.39
441.261	12391.41
441.467	12260.34
441.674	12594.15
441.881	13048.8
442.088	12823.53
442.294	12788.71
442.501	13306.85
442.708	13216.74
442.914	13986.77
443.121	14459.85
443.328	14013.4
443.534	15129.54
443.741	14621.64
443.948	14552.01
444.154	15530.94
444.361	15416.26
444.568	15272.9
444.774	15510.46
444.981	15600.57
445.187	16100.28
445.394	16948.14
445.6	16706.48
445.807	17996.7
446.013	17652.64
446.22	17570.72
446.426	18332.56
446.633	18412.43
446.839	19174.28
447.046	18404.24
447.252	19616.64
447.459	19528.58
447.665	19446.66
447.871	20159.35
448.078	21166.95
448.284	20110.2
448.491	20704.11
448.697	21308.26
448.903	21791.58
449.11	22061.91
449.316	21785.44
449.522	22027.1
449.728	22489.94
449.935	22788.94
450.141	22631.25
450.347	23116.62
450.553	22457.17
450.76	22797.13
450.966	23511.88
451.172	23380.81
451.378	23925.57
451.584	23563.08
451.791	23966.52
451.997	23640.9
452.203	24345.4
452.409	24570.68
452.615	24138.55
452.821	23284.55
453.027	23169.87
453.233	24060.73
453.44	23251.78
453.646	23853.89
453.852	23626.56
454.058	24105.79
454.264	23292.74
454.47	23759.68
454.676	23284.55
454.882	23944
455.088	22342.49
455.294	22481.75
455.5	22657.87
455.705	22778.7
455.911	21926.75
456.117	21709.66
456.323	21320.55
456.529	20380.53
456.735	21257.06
456.941	20517.75
457.147	20312.95
457.352	19737.47
457.558	19452.8
457.764	19504
457.97	19239.81
458.176	18566.03
458.381	18791.31
458.587	17914.78
458.793	17896.35
458.999	16874.41
459.204	18262.93
459.41	17488.8
459.616	16546.73
459.821	16522.16
460.027	16300.98
460.233	16341.94
460.438	15307.71
460.644	15600.57
460.85	14701.51
461.055	14855.11
461.261	14582.73
461.466	13585.37
461.672	13106.15
461.878	13902.81
462.083	13087.71
462.289	12817.38
462.494	12637.16
462.7	12006.39
462.905	11795.45
463.111	12248.05
463.316	12157.94
463.522	12086.26
463.727	12086.26
463.932	11996.15
464.138	11906.04
464.343	12102.64
464.549	11547.64
464.754	11936.76
464.959	11856.89
465.165	11883.51
465.37	11385.85
465.575	10943.49
465.781	11574.27
465.986	11416.57
466.191	11242.5
466.397	10564.62
466.602	10308.62
466.807	10839.05
467.012	10882.05
467.218	10640.39
467.423	10544.14
467.628	10599.43
467.833	10939.4
