Data from USB4F104151__233__14-45-39-685.txt Node

Date: Thu Mar 13 14:45:39 EDT 2025
User: louis
Spectrometer: USB4F10415
Trigger mode: 4
Integration Time (sec): 2.000000E-2
Scans to average: 1
Electric dark correction enabled: true
Nonlinearity correction enabled: false
Boxcar width: 0
XAxis mode: Wavelengths
Number of Pixels in Spectrum: 3648
>>>>>Begin Spectral Data<<<<<
178.204	-189.1
178.424	-189.1
178.644	-189.1
178.864	-129.7
179.084	-78.51
179.304	15.7
179.524	-2.73
179.744	7.51
179.964	58.71
180.184	52.56
180.404	-72.36
180.624	25.94
180.844	11.61
181.064	-53.93
181.283	-15.02
181.503	-21.16
181.723	-6.83
181.943	-88.75
182.163	40.28
182.383	-12.97
182.602	40.28
182.822	48.47
183.042	15.7
183.262	-49.83
183.482	-0.68
183.701	-68.27
183.921	-25.26
184.141	-78.51
184.361	11.61
184.58	-74.41
184.8	-17.07
185.02	-15.02
185.239	60.76
185.459	1.37
185.679	23.89
185.898	-70.31
186.118	23.89
186.338	32.08
186.557	-8.87
186.777	-58.03
186.997	75.09
187.216	-31.4
187.436	89.43
187.655	-4.78
187.875	58.71
188.095	-0.68
188.314	60.76
188.534	42.32
188.753	36.18
188.973	32.08
189.192	60.76
189.412	-12.97
189.631	93.52
189.851	-12.97
190.07	97.62
190.29	-62.12
190.509	-0.68
190.729	-0.68
190.948	40.28
191.168	138.58
191.387	83.28
191.607	-4.78
191.826	32.08
192.045	46.42
192.265	-51.88
192.484	44.37
192.704	71
192.923	-8.87
193.142	89.43
193.362	-2.73
193.581	-0.68
193.8	17.75
194.02	27.99
194.239	-0.68
194.458	58.71
194.678	25.94
194.897	42.32
195.116	-0.68
195.335	-8.87
195.555	7.51
195.774	-23.21
195.993	25.94
196.212	40.28
196.432	-17.07
196.651	3.41
196.87	25.94
197.089	42.32
197.308	-0.68
197.528	40.28
197.747	-12.97
197.966	-58.03
198.185	60.76
198.404	13.65
198.623	79.19
198.842	77.14
199.062	83.28
199.281	73.04
199.5	-27.31
199.719	-0.68
199.938	36.18
200.157	50.52
200.376	27.99
200.595	-55.98
200.814	58.71
201.033	25.94
201.252	30.04
201.471	23.89
201.69	36.18
201.909	19.8
202.128	-0.68
202.347	27.99
202.566	15.7
202.785	-8.87
203.004	-29.35
203.223	73.04
203.442	15.7
203.661	-27.31
203.879	7.51
204.098	46.42
204.317	-17.07
204.536	27.99
204.755	5.46
204.974	23.89
205.193	19.8
205.411	1.37
205.63	17.75
205.849	-33.45
206.068	13.65
206.287	60.76
206.505	48.47
206.724	7.51
206.943	-33.45
207.162	-37.55
207.381	58.71
207.599	25.94
207.818	34.13
208.037	7.51
208.255	48.47
208.474	3.41
208.693	54.61
208.911	44.37
209.13	-53.93
209.349	-8.87
209.567	62.8
209.786	-37.55
210.005	-2.73
210.223	9.56
210.442	-37.55
210.661	-62.12
210.879	73.04
211.098	-49.83
211.316	-10.92
211.535	83.28
211.753	15.7
211.972	60.76
212.191	89.43
212.409	-8.87
212.628	50.52
212.846	-88.75
213.065	44.37
213.283	132.44
213.502	-31.4
213.72	-6.83
213.938	23.89
214.157	25.94
214.375	-41.64
214.594	25.94
214.812	36.18
215.031	105.81
215.249	23.89
215.467	56.66
215.686	7.51
215.904	46.42
216.122	-35.5
216.341	111.96
216.559	3.41
216.778	97.62
216.996	73.04
217.214	-74.41
217.432	5.46
217.651	-113.32
217.869	-49.83
218.087	91.48
218.306	-55.98
218.524	19.8
218.742	11.61
218.96	118.1
219.179	17.75
219.397	-15.02
219.615	66.9
219.833	48.47
220.051	-8.87
220.27	23.89
220.488	38.23
220.706	32.08
220.924	-33.45
221.142	1.37
221.36	46.42
221.578	32.08
221.796	44.37
222.015	32.08
222.233	7.51
222.451	-6.83
222.669	-15.02
222.887	32.08
223.105	-0.68
223.323	7.51
223.541	-10.92
223.759	3.41
223.977	-17.07
224.195	42.32
224.413	19.8
224.631	79.19
224.849	7.51
225.067	58.71
225.285	-21.16
225.503	15.7
225.721	7.51
225.939	21.85
226.157	52.56
226.375	52.56
226.592	7.51
226.81	40.28
227.028	56.66
227.246	15.7
227.464	-17.07
227.682	50.52
227.9	-25.26
228.117	7.51
228.335	-33.45
228.553	-33.45
228.771	-0.68
228.989	-33.45
229.206	-17.07
229.424	-33.45
229.642	-2.73
229.86	91.48
230.077	3.41
230.295	46.42
230.513	73.04
230.731	73.04
230.948	97.62
231.166	48.47
231.384	-41.64
231.601	11.61
231.819	32.08
232.037	-8.87
232.254	-41.64
232.472	68.95
232.689	7.51
232.907	7.51
233.125	-70.31
233.342	27.99
233.56	7.51
233.777	-33.45
233.995	-37.55
234.213	91.48
234.43	36.18
234.648	23.89
234.865	-17.07
235.083	34.13
235.3	-43.69
235.518	-4.78
235.735	-15.02
235.953	40.28
236.17	17.75
236.388	-17.07
236.605	48.47
236.822	48.47
237.04	56.66
237.257	3.41
237.475	48.47
237.692	23.89
237.909	36.18
238.127	15.7
238.344	7.51
238.562	66.9
238.779	42.32
238.996	-17.07
239.214	-17.07
239.431	25.94
239.648	-12.97
239.865	-4.78
240.083	23.89
240.3	42.32
240.517	-74.41
240.735	44.37
240.952	54.61
241.169	36.18
241.386	-43.69
241.603	54.61
241.821	-17.07
242.038	36.18
242.255	15.7
242.472	-39.59
242.689	-4.78
242.907	66.9
243.124	17.75
243.341	-12.97
243.558	15.7
243.775	40.28
243.992	-25.26
244.209	1.37
244.426	73.04
244.643	99.67
244.86	1.37
245.078	44.37
245.295	-25.26
245.512	11.61
245.729	-35.5
245.946	15.7
246.163	-37.55
246.38	25.94
246.597	7.51
246.814	9.56
247.031	118.1
247.248	7.51
247.464	-41.64
247.681	-31.4
247.898	-4.78
248.115	7.51
248.332	-12.97
248.549	32.08
248.766	13.65
248.983	73.04
249.2	58.71
249.417	48.47
249.633	-4.78
249.85	30.04
250.067	7.51
250.284	-66.22
250.501	32.08
250.717	7.51
250.934	11.61
251.151	-12.97
251.368	7.51
251.585	23.89
251.801	56.66
252.018	-29.35
252.235	52.56
252.451	-68.27
252.668	1.37
252.885	66.9
253.102	-17.07
253.318	66.9
253.535	-37.55
253.752	-37.55
253.968	11.61
254.185	-49.83
254.401	-76.46
254.618	27.99
254.835	-98.99
255.051	56.66
255.268	-39.59
255.484	19.8
255.701	-15.02
255.917	27.99
256.134	-23.21
256.351	11.61
256.567	64.85
256.784	15.7
257	-107.18
257.217	19.8
257.433	3.41
257.65	-43.69
257.866	9.56
258.082	38.23
258.299	-33.45
258.515	25.94
258.732	50.52
258.948	75.09
259.165	1.37
259.381	-43.69
259.597	40.28
259.814	40.28
260.03	-17.07
260.246	23.89
260.463	13.65
260.679	44.37
260.895	-19.11
261.112	46.42
261.328	-49.83
261.544	15.7
261.761	58.71
261.977	48.47
262.193	-29.35
262.409	48.47
262.626	-0.68
262.842	40.28
263.058	-17.07
263.274	25.94
263.49	-43.69
263.707	30.04
263.923	-29.35
264.139	-47.79
264.355	27.99
264.571	75.09
264.787	60.76
265.004	9.56
265.22	68.95
265.436	1.37
265.652	19.8
265.868	91.48
266.084	-12.97
266.3	68.95
266.516	17.75
266.732	42.32
266.948	-6.83
267.164	-8.87
267.38	-15.02
267.596	71
267.812	73.04
268.028	-25.26
268.244	60.76
268.46	42.32
268.676	-70.31
268.892	32.08
269.108	9.56
269.324	1.37
269.54	-4.78
269.756	-6.83
269.972	15.7
270.188	36.18
270.403	-23.21
270.619	23.89
270.835	-25.26
271.051	15.7
271.267	-78.51
271.483	23.89
271.698	36.18
271.914	44.37
272.13	32.08
272.346	56.66
272.562	27.99
272.777	15.7
272.993	56.66
273.209	-8.87
273.425	52.56
273.64	-60.07
273.856	-21.16
274.072	7.51
274.287	1.37
274.503	27.99
274.719	-6.83
274.934	71
275.15	-0.68
275.366	36.18
275.581	-64.17
275.797	1.37
276.012	11.61
276.228	3.41
276.444	64.85
276.659	-0.68
276.875	15.7
277.09	-23.21
277.306	48.47
277.521	48.47
277.737	-6.83
277.952	130.39
278.168	1.37
278.383	-58.03
278.599	56.66
278.814	-15.02
279.03	-17.07
279.245	27.99
279.461	25.94
279.676	66.9
279.892	-53.93
280.107	-25.26
280.322	-45.74
280.538	9.56
280.753	7.51
280.969	27.99
281.184	11.61
281.399	-15.02
281.615	-33.45
281.83	75.09
282.045	-27.31
282.26	-15.02
282.476	11.61
282.691	25.94
282.906	11.61
283.122	77.14
283.337	7.51
283.552	32.08
283.767	23.89
283.983	56.66
284.198	-25.26
284.413	64.85
284.628	-6.83
284.843	23.89
285.058	23.89
285.274	-37.55
285.489	-25.26
285.704	97.62
285.919	30.04
286.134	3.41
286.349	-6.83
286.564	27.99
286.779	64.85
286.995	1.37
287.21	-33.45
287.425	21.85
287.64	48.47
287.855	19.8
288.07	-37.55
288.285	103.76
288.5	25.94
288.715	-2.73
288.93	3.41
289.145	3.41
289.36	-0.68
289.575	15.7
289.79	15.7
290.004	15.7
290.219	-12.97
290.434	7.51
290.649	23.89
290.864	-39.59
291.079	-35.5
291.294	58.71
291.509	17.75
291.724	68.95
291.938	-15.02
292.153	46.42
292.368	-72.36
292.583	-49.83
292.798	-55.98
293.012	-37.55
293.227	-41.64
293.442	9.56
293.657	9.56
293.871	95.57
294.086	-37.55
294.301	48.47
294.516	-0.68
294.73	7.51
294.945	-72.36
295.16	-90.79
295.374	48.47
295.589	81.24
295.804	5.46
296.018	-23.21
296.233	103.76
296.447	19.8
296.662	36.18
296.877	56.66
297.091	25.94
297.306	1.37
297.52	19.8
297.735	64.85
297.949	-21.16
298.164	42.32
298.378	56.66
298.593	-12.97
298.807	1.37
299.022	-21.16
299.236	44.37
299.451	32.08
299.665	15.7
299.88	89.43
300.094	48.47
300.309	62.8
300.523	-19.11
300.737	34.13
300.952	66.9
301.166	48.47
301.381	25.94
301.595	32.08
301.809	-6.83
302.024	32.08
302.238	77.14
302.452	93.52
302.667	48.47
302.881	58.71
303.095	48.47
303.309	71
303.524	-17.07
303.738	50.52
303.952	-10.92
304.166	42.32
304.381	-12.97
304.595	73.04
304.809	21.85
305.023	-4.78
305.237	13.65
305.452	25.94
305.666	44.37
305.88	46.42
306.094	19.8
306.308	15.7
306.522	-6.83
306.736	73.04
306.95	56.66
307.164	15.7
307.379	30.04
307.593	83.28
307.807	-41.64
308.021	52.56
308.235	60.76
308.449	-2.73
308.663	17.75
308.877	56.66
309.091	-12.97
309.305	23.89
309.519	-39.59
309.733	73.04
309.947	-0.68
310.161	52.56
310.374	68.95
310.588	73.04
310.802	17.75
311.016	-27.31
311.23	25.94
311.444	60.76
311.658	-0.68
311.872	99.67
312.085	89.43
312.299	40.28
312.513	17.75
312.727	11.61
312.941	-58.03
313.154	1.37
313.368	58.71
313.582	-51.88
313.796	32.08
314.009	11.61
314.223	19.8
314.437	7.51
314.651	-0.68
314.864	5.46
315.078	23.89
315.292	48.47
315.505	3.41
315.719	15.7
315.933	32.08
316.146	93.52
316.36	-72.36
316.573	40.28
316.787	52.56
317.001	-10.92
317.214	-49.83
317.428	-98.99
317.641	-37.55
317.855	-0.68
318.068	89.43
318.282	13.65
318.495	-25.26
318.709	62.8
318.922	-66.22
319.136	17.75
319.349	48.47
319.563	60.76
319.776	81.24
319.99	40.28
320.203	3.41
320.417	-37.55
320.63	97.62
320.843	36.18
321.057	-23.21
321.27	32.08
321.483	-25.26
321.697	-19.11
321.91	-49.83
322.124	-35.5
322.337	40.28
322.55	23.89
322.763	5.46
322.977	40.28
323.19	-4.78
323.403	48.47
323.617	75.09
323.83	48.47
324.043	46.42
324.256	5.46
324.469	34.13
324.683	40.28
324.896	64.85
325.109	60.76
325.322	-19.11
325.535	54.61
325.748	27.99
325.962	-21.16
326.175	36.18
326.388	3.41
326.601	34.13
326.814	11.61
327.027	3.41
327.24	73.04
327.453	-0.68
327.666	-4.78
327.879	34.13
328.092	56.66
328.305	1.37
328.518	5.46
328.731	19.8
328.944	48.47
329.157	64.85
329.37	-8.87
329.583	126.29
329.796	52.56
330.009	-31.4
330.222	19.8
330.435	54.61
330.648	3.41
330.861	107.86
331.073	23.89
331.286	73.04
331.499	11.61
331.712	17.75
331.925	-41.64
332.138	-39.59
332.35	75.09
332.563	15.7
332.776	73.04
332.989	13.65
333.202	11.61
333.414	17.75
333.627	15.7
333.84	15.7
334.053	64.85
334.265	-0.68
334.478	81.24
334.691	34.13
334.903	60.76
335.116	56.66
335.329	38.23
335.541	-43.69
335.754	66.9
335.966	7.51
336.179	44.37
336.392	23.89
336.604	-33.45
336.817	32.08
337.029	34.13
337.242	32.08
337.454	-33.45
337.667	32.08
337.88	-10.92
338.092	42.32
338.305	-80.55
338.517	-39.59
338.729	40.28
338.942	54.61
339.154	-17.07
339.367	-15.02
339.579	73.04
339.792	11.61
340.004	111.96
340.217	-12.97
340.429	-25.26
340.641	-80.55
340.854	-27.31
341.066	17.75
341.278	-8.87
341.491	44.37
341.703	23.89
341.915	-2.73
342.128	40.28
342.34	23.89
342.552	-2.73
342.764	-12.97
342.977	-72.36
343.189	68.95
343.401	64.85
343.613	-39.59
343.826	54.61
344.038	-10.92
344.25	48.47
344.462	-33.45
344.674	34.13
344.886	15.7
345.099	36.18
345.311	7.51
345.523	40.28
345.735	-17.07
345.947	97.62
346.159	32.08
346.371	3.41
346.583	46.42
346.795	48.47
347.007	-8.87
347.219	7.51
347.431	-27.31
347.643	64.85
347.855	46.42
348.067	75.09
348.279	15.7
348.491	50.52
348.703	64.85
348.915	105.81
349.127	5.46
349.339	-17.07
349.551	89.43
349.763	-21.16
349.975	13.65
350.187	36.18
350.399	36.18
350.61	3.41
350.822	7.51
351.034	36.18
351.246	9.56
351.458	-29.35
351.669	32.08
351.881	126.29
352.093	36.18
352.305	40.28
352.517	97.62
352.728	171.35
352.94	5.46
353.152	83.28
353.363	-53.93
353.575	73.04
353.787	15.7
353.999	21.85
354.21	40.28
354.422	64.85
354.633	-31.4
354.845	5.46
355.057	105.81
355.268	50.52
355.48	19.8
355.692	42.32
355.903	19.8
356.115	-8.87
356.326	-8.87
356.538	54.61
356.749	-25.26
356.961	81.24
357.172	27.99
357.384	-31.4
357.595	1.37
357.807	32.08
358.018	3.41
358.23	64.85
358.441	44.37
358.653	-25.26
358.864	25.94
359.075	-19.11
359.287	52.56
359.498	48.47
359.709	116.05
359.921	-17.07
360.132	7.51
360.344	-49.83
360.555	-6.83
360.766	40.28
360.977	42.32
361.189	34.13
361.4	-12.97
361.611	64.85
361.823	58.71
362.034	73.04
362.245	25.94
362.456	-23.21
362.667	58.71
362.879	-29.35
363.09	-23.21
363.301	-23.21
363.512	42.32
363.723	32.08
363.935	7.51
364.146	19.8
364.357	66.9
364.568	32.08
364.779	-41.64
364.99	-0.68
365.201	1.37
365.412	15.7
365.623	-49.83
365.834	81.24
366.045	23.89
366.256	38.23
366.467	120.15
366.678	15.7
366.889	-15.02
367.1	19.8
367.311	-19.11
367.522	-55.98
367.733	19.8
367.944	-10.92
368.155	48.47
368.366	54.61
368.577	56.66
368.788	48.47
368.999	15.7
369.209	48.47
369.42	48.47
369.631	114
369.842	-12.97
370.053	-0.68
370.264	9.56
370.474	7.51
370.685	21.85
370.896	73.04
371.107	89.43
371.317	-25.26
371.528	9.56
371.739	58.71
371.95	97.62
372.16	66.9
372.371	-66.22
372.582	-39.59
372.792	-49.83
373.003	7.51
373.214	-84.65
373.424	15.7
373.635	3.41
373.846	75.09
374.056	40.28
374.267	-25.26
374.477	81.24
374.688	60.76
374.898	48.47
375.109	50.52
375.319	25.94
375.53	154.96
375.74	105.81
375.951	-49.83
376.161	62.8
376.372	107.86
376.582	17.75
376.793	105.81
377.003	-33.45
377.214	79.19
377.424	17.75
377.635	52.56
377.845	-29.35
378.055	93.52
378.266	-23.21
378.476	-0.68
378.686	27.99
378.897	75.09
379.107	56.66
379.317	60.76
379.528	73.04
379.738	75.09
379.948	-4.78
380.158	52.56
380.369	50.52
380.579	56.66
380.789	-4.78
380.999	44.37
381.21	11.61
381.42	116.05
381.63	9.56
381.84	23.89
382.05	-33.45
382.261	50.52
382.471	62.8
382.681	34.13
382.891	73.04
383.101	9.56
383.311	40.28
383.521	-25.26
383.731	15.7
383.941	91.48
384.151	7.51
384.361	81.24
384.571	3.41
384.781	38.23
384.991	93.52
385.201	40.28
385.411	11.61
385.621	99.67
385.831	-45.74
386.041	42.32
386.251	25.94
386.461	73.04
386.671	75.09
386.881	54.61
387.091	52.56
387.301	-17.07
387.511	54.61
387.72	3.41
387.93	75.09
388.14	38.23
388.35	58.71
388.56	-4.78
388.769	97.62
388.979	36.18
389.189	34.13
389.399	118.1
389.609	34.13
389.818	15.7
390.028	56.66
390.238	56.66
390.447	9.56
390.657	85.33
390.867	-6.83
391.076	-115.37
391.286	66.9
391.496	48.47
391.705	40.28
391.915	83.28
392.125	48.47
392.334	7.51
392.544	85.33
392.753	-12.97
392.963	-45.74
393.172	97.62
393.382	-23.21
393.591	132.44
393.801	87.38
394.01	109.91
394.22	54.61
394.429	66.9
394.639	40.28
394.848	56.66
395.058	56.66
395.267	-39.59
395.477	48.47
395.686	124.24
395.895	25.94
396.105	122.2
396.314	73.04
396.524	58.71
396.733	40.28
396.942	64.85
397.152	91.48
397.361	157.01
397.57	44.37
397.78	148.82
397.989	48.47
398.198	-10.92
398.407	40.28
398.617	56.66
398.826	107.86
399.035	17.75
399.244	85.33
399.453	91.48
399.663	34.13
399.872	122.2
400.081	89.43
400.29	79.19
400.499	64.85
400.708	91.48
400.917	159.06
401.127	89.43
401.336	15.7
401.545	138.58
401.754	171.35
401.963	89.43
402.172	64.85
402.381	68.95
402.59	91.48
402.799	114
403.008	99.67
403.217	130.39
403.426	85.33
403.635	56.66
403.844	44.37
404.053	71
404.262	132.44
404.471	138.58
404.68	107.86
404.888	73.04
405.097	154.96
405.306	89.43
405.515	124.24
405.724	130.39
405.933	120.15
406.142	183.63
406.35	157.01
406.559	124.24
406.768	134.48
406.977	140.63
407.185	130.39
407.394	197.97
407.603	124.24
407.812	183.63
408.02	195.92
408.229	234.83
408.438	179.54
408.646	204.11
408.855	159.06
409.064	161.11
409.272	218.45
409.481	187.73
409.69	169.3
409.898	206.16
410.107	206.16
410.315	245.07
410.524	212.31
410.733	228.69
410.941	240.98
411.15	320.85
411.358	351.57
411.567	333.14
411.775	286.03
411.984	304.46
412.192	374.1
412.401	347.47
412.609	372.05
412.818	380.24
413.026	339.28
413.234	370
413.443	417.1
413.651	449.87
413.86	427.34
414.068	386.38
414.276	482.64
414.485	449.87
414.693	527.69
414.901	613.71
415.11	572.75
415.318	593.23
415.526	632.14
415.734	597.32
415.943	666.96
416.151	630.09
416.359	630.09
416.567	669
416.776	632.14
416.984	798.03
417.192	863.56
417.4	808.27
417.608	916.81
417.817	810.31
418.025	894.28
418.233	959.81
418.441	927.05
418.649	900.42
418.857	982.34
419.065	1019.21
419.273	990.53
419.481	1045.83
419.689	1129.8
419.897	1240.39
420.105	1150.28
420.313	1162.56
420.521	1320.26
420.729	1379.65
420.937	1314.11
421.145	1385.79
421.353	1486.14
421.561	1566.01
421.769	1621.31
421.977	1654.08
422.185	1617.21
422.393	1656.12
422.601	1834.3
422.809	1817.91
423.017	1862.97
423.224	1901.88
423.432	1926.46
423.64	1998.13
423.848	2168.12
424.056	2055.48
424.263	2133.3
424.471	2196.79
424.679	2350.39
424.887	2391.34
425.094	2592.05
425.302	2514.22
425.51	2571.57
425.718	2819.37
425.925	2733.36
426.133	2764.08
426.341	3001.64
426.548	3099.94
426.756	3138.85
426.964	3190.05
427.171	3357.99
427.379	3388.71
427.586	3407.14
427.794	3478.82
428.001	3648.8
428.209	3931.42
428.417	3812.64
428.624	4076.82
428.832	4121.88
429.039	4029.72
429.247	4199.7
429.454	4447.51
429.662	4709.65
429.869	4457.75
430.076	4783.37
430.284	4642.06
430.491	4816.14
430.699	5182.73
430.906	5082.38
431.114	5061.9
431.321	5424.39
431.528	5545.22
431.736	5805.31
431.943	6161.66
432.15	5958.91
432.358	5909.76
432.565	6282.49
432.772	6233.33
432.979	6544.63
433.187	6663.41
433.394	6710.51
433.601	7228.65
433.808	7298.28
434.016	7159.02
434.223	7544.03
434.43	7982.3
434.637	8129.75
434.844	8234.2
435.052	8531.16
435.259	8398.04
435.466	8576.21
435.673	8363.22
435.88	8821.97
436.087	9405.64
436.294	9442.5
436.501	9116.87
436.708	9348.29
436.915	9821.38
437.122	9956.54
437.329	9940.16
437.537	10546.36
437.743	10693.81
437.95	10427.57
438.157	11181.23
438.364	11433.13
438.571	11259.05
438.778	11494.57
438.985	12643.48
439.192	11713.7
439.399	12223.64
439.606	12182.68
439.813	12805.27
440.02	13491.34
440.227	13378.7
440.433	13229.2
440.64	13749.38
440.847	13503.62
441.054	13909.12
441.261	14670.97
441.467	14675.06
441.674	14888.05
441.881	15578.22
442.088	15373.42
442.294	15094.89
442.501	15684.71
442.708	15768.68
442.914	16561.24
443.121	17194.06
443.328	16868.44
443.534	18134.08
443.741	17777.73
443.948	17366.09
444.154	18691.13
444.361	18220.1
444.568	18369.6
444.774	18775.09
444.981	18625.59
445.187	19303.47
445.394	20122.66
445.6	19950.63
445.807	22041.6
446.013	20825.11
446.22	21113.88
446.426	22119.43
446.633	22416.38
446.839	22879.22
447.046	22191.11
447.252	23397.36
447.459	23284.72
447.665	23458.8
447.871	24185.83
448.078	25461.71
448.284	24296.42
448.491	25058.26
448.697	25756.62
448.903	26254.28
449.11	26315.72
449.316	26033.1
449.522	26596.29
449.728	27071.42
449.935	27321.27
450.141	27364.28
450.347	28033.96
450.553	27165.62
450.76	27677.62
450.966	28404.64
451.172	27857.84
451.378	28783.52
451.584	28556.19
451.791	29094.81
451.997	28988.31
452.203	29322.13
452.409	29561.75
452.615	29479.83
452.821	28441.51
453.027	27993
453.233	29502.36
453.44	28294.05
453.646	28939.16
453.852	28871.58
454.058	29420.44
454.264	28529.57
454.47	29164.44
454.676	28545.95
454.882	29385.62
455.088	27247.54
455.294	27356.08
455.5	27683.76
455.705	28281.77
455.911	26850.24
456.117	26751.93
456.323	26147.78
456.529	25074.65
456.735	26155.97
456.941	25465.81
457.147	25078.74
457.352	24138.73
457.558	23753.71
457.764	24130.53
457.97	23393.26
458.176	22887.42
458.381	23346.16
458.587	21978.12
458.793	22014.98
458.999	20753.43
459.204	22295.55
459.41	21664.78
459.616	20360.22
459.821	20505.63
460.027	20266.02
460.233	20010.02
460.438	19115.06
460.644	19295.28
460.85	18424.89
461.055	18111.55
461.261	17943.62
461.466	16811.09
461.672	16272.48
461.878	17120.34
462.083	16335.96
462.289	15973.47
462.494	15514.73
462.7	15236.2
462.905	14474.36
463.111	15164.53
463.316	15195.25
463.522	14699.64
463.727	14638.2
463.932	14693.49
464.138	14752.88
464.343	14861.43
464.549	14427.26
464.754	14580.85
464.959	14673.01
465.165	14535.8
465.37	14042.24
465.575	13474.95
465.781	13956.22
465.986	14005.38
466.191	13485.19
466.397	13278.35
466.602	12551.32
466.807	13192.33
467.012	13474.95
467.218	13028.49
467.423	12864.66
467.628	13036.69
