Data from USB4F104151__104__14-43-43-592.txt Node

Date: Thu Mar 13 14:43:43 EDT 2025
User: louis
Spectrometer: USB4F10415
Trigger mode: 4
Integration Time (sec): 2.000000E-2
Scans to average: 1
Electric dark correction enabled: true
Nonlinearity correction enabled: false
Boxcar width: 0
XAxis mode: Wavelengths
Number of Pixels in Spectrum: 3648
>>>>>Begin Spectral Data<<<<<
178.204	-45.06
178.424	-45.06
178.644	-45.06
178.864	-176.13
179.084	-102.4
179.304	-45.06
179.524	22.53
179.744	-10.24
179.964	38.91
180.184	-12.29
180.404	28.67
180.624	96.25
180.844	2.05
181.064	-57.34
181.283	-43.01
181.503	-61.44
181.723	40.96
181.943	22.53
182.163	53.25
182.383	-16.38
182.602	30.72
182.822	81.92
183.042	53.25
183.262	4.1
183.482	63.49
183.701	-16.38
183.921	57.34
184.141	96.25
184.361	10.24
184.58	53.25
184.8	53.25
185.02	47.1
185.239	61.44
185.459	-53.25
185.679	98.3
185.898	8.19
186.118	53.25
186.338	90.11
186.557	59.39
186.777	77.82
186.997	45.06
187.216	36.86
187.436	38.91
187.655	36.86
187.875	98.3
188.095	-10.24
188.314	38.91
188.534	26.62
188.753	55.3
188.973	77.82
189.192	36.86
189.412	88.06
189.631	-18.43
189.851	63.49
190.07	28.67
190.29	47.1
190.509	-59.39
190.729	-34.82
190.948	53.25
191.168	108.54
191.387	32.77
191.607	81.92
191.826	55.3
192.045	24.58
192.265	20.48
192.484	28.67
192.704	-2.05
192.923	28.67
193.142	61.44
193.362	81.92
193.581	61.44
193.8	16.38
194.02	135.17
194.239	79.87
194.458	38.91
194.678	69.63
194.897	2.05
195.116	53.25
195.335	18.43
195.555	43.01
195.774	55.3
195.993	88.06
196.212	8.19
196.432	16.38
196.651	0
196.87	28.67
197.089	94.21
197.308	4.1
197.528	26.62
197.747	-18.43
197.966	36.86
198.185	47.1
198.404	4.1
198.623	53.25
198.842	73.73
199.062	30.72
199.281	90.11
199.5	45.06
199.719	-10.24
199.938	59.39
200.157	-8.19
200.376	45.06
200.595	73.73
200.814	20.48
201.033	36.86
201.252	32.77
201.471	8.19
201.69	49.15
201.909	88.06
202.128	-59.39
202.347	-51.2
202.566	63.49
202.785	-16.38
203.004	6.14
203.223	102.4
203.442	106.49
203.661	20.48
203.879	65.54
204.098	43.01
204.317	36.86
204.536	112.64
204.755	47.1
204.974	57.34
205.193	12.29
205.411	69.63
205.63	98.3
205.849	79.87
206.068	77.82
206.287	69.63
206.505	61.44
206.724	73.73
206.943	32.77
207.162	55.3
207.381	12.29
207.599	67.58
207.818	-4.1
208.037	45.06
208.255	4.1
208.474	16.38
208.693	69.63
208.911	61.44
209.13	-45.06
209.349	12.29
209.567	45.06
209.786	-4.1
210.005	90.11
210.223	-2.05
210.442	45.06
210.661	8.19
210.879	20.48
211.098	45.06
211.316	30.72
211.535	112.64
211.753	12.29
211.972	63.49
212.191	45.06
212.409	47.1
212.628	86.01
212.846	-4.1
213.065	-12.29
213.283	96.25
213.502	69.63
213.72	20.48
213.938	2.05
214.157	59.39
214.375	28.67
214.594	38.91
214.812	38.91
215.031	-6.14
215.249	4.1
215.467	104.45
215.686	28.67
215.904	24.58
216.122	124.93
216.341	92.16
216.559	-20.48
216.778	71.68
216.996	63.49
217.214	36.86
217.432	86.01
217.651	18.43
217.869	47.1
218.087	61.44
218.306	34.82
218.524	61.44
218.742	-14.34
218.96	0
219.179	-24.58
219.397	12.29
219.615	104.45
219.833	28.67
220.051	12.29
220.27	61.44
220.488	38.91
220.706	-36.86
220.924	28.67
221.142	61.44
221.36	40.96
221.578	6.14
221.796	-8.19
222.015	96.25
222.233	77.82
222.451	45.06
222.669	20.48
222.887	69.63
223.105	0
223.323	49.15
223.541	14.34
223.759	4.1
223.977	16.38
224.195	92.16
224.413	61.44
224.631	122.88
224.849	34.82
225.067	55.3
225.285	8.19
225.503	40.96
225.721	-20.48
225.939	65.54
226.157	-12.29
226.375	100.35
226.592	-61.44
226.81	4.1
227.028	28.67
227.246	118.78
227.464	28.67
227.682	63.49
227.9	71.68
228.117	69.63
228.335	102.4
228.553	59.39
228.771	73.73
228.989	36.86
229.206	32.77
229.424	20.48
229.642	14.34
229.86	71.68
230.077	61.44
230.295	28.67
230.513	32.77
230.731	38.91
230.948	102.4
231.166	98.3
231.384	-20.48
231.601	12.29
231.819	131.07
232.037	-26.62
232.254	-8.19
232.472	-8.19
232.689	61.44
232.907	77.82
233.125	-34.82
233.342	-43.01
233.56	-10.24
233.777	28.67
233.995	-12.29
234.213	81.92
234.43	55.3
234.648	26.62
234.865	92.16
235.083	18.43
235.3	57.34
235.518	-2.05
235.735	53.25
235.953	22.53
236.17	77.82
236.388	6.14
236.605	14.34
236.822	47.1
237.04	12.29
237.257	61.44
237.475	28.67
237.692	-10.24
237.909	24.58
238.127	106.49
238.344	94.21
238.562	32.77
238.779	22.53
238.996	36.86
239.214	63.49
239.431	6.14
239.648	28.67
239.865	-6.14
240.083	63.49
240.3	14.34
240.517	6.14
240.735	71.68
240.952	61.44
241.169	0
241.386	26.62
241.603	83.97
241.821	26.62
242.038	77.82
242.255	28.67
242.472	86.01
242.689	12.29
242.907	-8.19
243.124	79.87
243.341	8.19
243.558	4.1
243.775	36.86
243.992	40.96
244.209	14.34
244.426	36.86
244.643	61.44
244.86	-2.05
245.078	38.91
245.295	16.38
245.512	-4.1
245.729	38.91
245.946	57.34
246.163	59.39
246.38	40.96
246.597	28.67
246.814	81.92
247.031	49.15
247.248	6.14
247.464	20.48
247.681	57.34
247.898	28.67
248.115	47.1
248.332	28.67
248.549	28.67
248.766	73.73
248.983	77.82
249.2	102.4
249.417	45.06
249.633	-8.19
249.85	55.3
250.067	77.82
250.284	65.54
250.501	77.82
250.717	104.45
250.934	-10.24
251.151	55.3
251.368	69.63
251.585	61.44
251.801	71.68
252.018	-14.34
252.235	61.44
252.451	0
252.668	102.4
252.885	110.59
253.102	14.34
253.318	36.86
253.535	43.01
253.752	36.86
253.968	12.29
254.185	-20.48
254.401	108.54
254.618	14.34
254.835	53.25
255.051	110.59
255.268	53.25
255.484	110.59
255.701	40.96
255.917	47.1
256.134	61.44
256.351	30.72
256.567	-20.48
256.784	90.11
257	4.1
257.217	94.21
257.433	6.14
257.65	63.49
257.866	69.63
258.082	-8.19
258.299	20.48
258.515	55.3
258.732	-20.48
258.948	26.62
259.165	20.48
259.381	6.14
259.597	40.96
259.814	28.67
260.03	16.38
260.246	8.19
260.463	4.1
260.679	131.07
260.895	36.86
261.112	-26.62
261.328	12.29
261.544	77.82
261.761	110.59
261.977	28.67
262.193	-12.29
262.409	14.34
262.626	61.44
262.842	157.69
263.058	32.77
263.274	69.63
263.49	-12.29
263.707	79.87
263.923	45.06
264.139	40.96
264.355	36.86
264.571	79.87
264.787	43.01
265.004	110.59
265.22	36.86
265.436	12.29
265.652	16.38
265.868	12.29
266.084	-45.06
266.3	43.01
266.516	16.38
266.732	104.45
266.948	-20.48
267.164	102.4
267.38	73.73
267.596	12.29
267.812	61.44
268.028	90.11
268.244	-59.39
268.46	88.06
268.676	45.06
268.892	108.54
269.108	55.3
269.324	-12.29
269.54	6.14
269.756	36.86
269.972	4.1
270.188	40.96
270.403	12.29
270.619	90.11
270.835	18.43
271.051	104.45
271.267	-20.48
271.483	12.29
271.698	28.67
271.914	69.63
272.13	-34.82
272.346	69.63
272.562	22.53
272.777	47.1
272.993	63.49
273.209	30.72
273.425	102.4
273.64	-26.62
273.856	86.01
274.072	28.67
274.287	-28.67
274.503	120.83
274.719	71.68
274.934	38.91
275.15	49.15
275.366	-12.29
275.581	-12.29
275.797	18.43
276.012	32.77
276.228	55.3
276.444	51.2
276.659	53.25
276.875	8.19
277.09	57.34
277.306	47.1
277.521	79.87
277.737	63.49
277.952	61.44
278.168	104.45
278.383	45.06
278.599	81.92
278.814	32.77
279.03	43.01
279.245	38.91
279.461	55.3
279.676	30.72
279.892	-16.38
280.107	55.3
280.322	-8.19
280.538	83.97
280.753	-4.1
280.969	53.25
281.184	-47.1
281.399	112.64
281.615	32.77
281.83	40.96
282.045	-10.24
282.26	40.96
282.476	-20.48
282.691	32.77
282.906	77.82
283.122	12.29
283.337	94.21
283.552	32.77
283.767	6.14
283.983	51.2
284.198	45.06
284.413	38.91
284.628	26.62
284.843	98.3
285.058	63.49
285.274	16.38
285.489	-45.06
285.704	79.87
285.919	-20.48
286.134	8.19
286.349	22.53
286.564	81.92
286.779	36.86
286.995	-51.2
287.21	32.77
287.425	24.58
287.64	12.29
287.855	28.67
288.07	-6.14
288.285	112.64
288.5	53.25
288.715	38.91
288.93	28.67
289.145	38.91
289.36	118.78
289.575	106.49
289.79	69.63
290.004	90.11
290.219	0
290.434	12.29
290.649	30.72
290.864	-59.39
291.079	-43.01
291.294	47.1
291.509	28.67
291.724	57.34
291.938	36.86
292.153	96.25
292.368	-26.62
292.583	14.34
292.798	63.49
293.012	71.68
293.227	55.3
293.442	-12.29
293.657	12.29
293.871	14.34
294.086	47.1
294.301	112.64
294.516	38.91
294.73	65.54
294.945	49.15
295.16	20.48
295.374	112.64
295.589	22.53
295.804	12.29
296.018	12.29
296.233	47.1
296.447	12.29
296.662	12.29
296.877	22.53
297.091	49.15
297.306	-36.86
297.52	-2.05
297.735	28.67
297.949	16.38
298.164	14.34
298.378	24.58
298.593	69.63
298.807	73.73
299.022	88.06
299.236	57.34
299.451	14.34
299.665	73.73
299.88	102.4
300.094	-12.29
300.309	61.44
300.523	38.91
300.737	75.77
300.952	77.82
301.166	135.17
301.381	-2.05
301.595	22.53
301.809	-73.73
302.024	51.2
302.238	14.34
302.452	67.58
302.667	0
302.881	94.21
303.095	69.63
303.309	14.34
303.524	4.1
303.738	36.86
303.952	-8.19
304.166	14.34
304.381	24.58
304.595	45.06
304.809	26.62
305.023	28.67
305.237	-4.1
305.452	-12.29
305.666	61.44
305.88	53.25
306.094	77.82
306.308	57.34
306.522	94.21
306.736	36.86
306.95	14.34
307.164	24.58
307.379	40.96
307.593	53.25
307.807	86.01
308.021	-12.29
308.235	14.34
308.449	28.67
308.663	53.25
308.877	112.64
309.091	40.96
309.305	55.3
309.519	-43.01
309.733	53.25
309.947	-2.05
310.161	79.87
310.374	92.16
310.588	81.92
310.802	8.19
311.016	16.38
311.23	81.92
311.444	43.01
311.658	49.15
311.872	77.82
312.085	110.59
312.299	102.4
312.513	69.63
312.727	30.72
312.941	83.97
313.154	24.58
313.368	45.06
313.582	57.34
313.796	104.45
314.009	38.91
314.223	53.25
314.437	77.82
314.651	61.44
314.864	40.96
315.078	18.43
315.292	-10.24
315.505	-16.38
315.719	53.25
315.933	38.91
316.146	-24.58
316.36	-32.77
316.573	79.87
316.787	-8.19
317.001	38.91
317.214	-49.15
317.428	77.82
317.641	45.06
317.855	-20.48
318.068	4.1
318.282	81.92
318.495	49.15
318.709	45.06
318.922	49.15
319.136	59.39
319.349	-32.77
319.563	32.77
319.776	86.01
319.99	-24.58
320.203	96.25
320.417	55.3
320.63	88.06
320.843	47.1
321.057	-4.1
321.27	81.92
321.483	104.45
321.697	61.44
321.91	-12.29
322.124	38.91
322.337	65.54
322.55	36.86
322.763	10.24
322.977	108.54
323.19	30.72
323.403	110.59
323.617	18.43
323.83	61.44
324.043	10.24
324.256	47.1
324.469	-24.58
324.683	98.3
324.896	-4.1
325.109	61.44
325.322	6.14
325.535	63.49
325.748	10.24
325.962	40.96
326.175	14.34
326.388	12.29
326.601	12.29
326.814	24.58
327.027	53.25
327.24	61.44
327.453	36.86
327.666	79.87
327.879	53.25
328.092	24.58
328.305	49.15
328.518	20.48
328.731	12.29
328.944	45.06
329.157	16.38
329.37	18.43
329.583	86.01
329.796	92.16
330.009	73.73
330.222	81.92
330.435	92.16
330.648	26.62
330.861	12.29
331.073	61.44
331.286	12.29
331.499	12.29
331.712	-12.29
331.925	32.77
332.138	-71.68
332.35	90.11
332.563	-20.48
332.776	40.96
332.989	28.67
333.202	-73.73
333.414	4.1
333.627	96.25
333.84	20.48
334.053	71.68
334.265	26.62
334.478	45.06
334.691	28.67
334.903	79.87
335.116	-30.72
335.329	53.25
335.541	77.82
335.754	129.02
335.966	0
336.179	63.49
336.392	12.29
336.604	57.34
336.817	92.16
337.029	71.68
337.242	81.92
337.454	63.49
337.667	-22.53
337.88	53.25
338.092	69.63
338.305	-12.29
338.517	28.67
338.729	108.54
338.942	26.62
339.154	8.19
339.367	-8.19
339.579	57.34
339.792	57.34
340.004	106.49
340.217	45.06
340.429	112.64
340.641	-4.1
340.854	-4.1
341.066	77.82
341.278	69.63
341.491	110.59
341.703	126.97
341.915	53.25
342.128	88.06
342.34	20.48
342.552	47.1
342.764	57.34
342.977	8.19
343.189	-26.62
343.401	116.73
343.613	24.58
343.826	-16.38
344.038	28.67
344.25	47.1
344.462	38.91
344.674	73.73
344.886	40.96
345.099	6.14
345.311	36.86
345.523	-8.19
345.735	24.58
345.947	69.63
346.159	92.16
346.371	77.82
346.583	32.77
346.795	12.29
347.007	20.48
347.219	36.86
347.431	30.72
347.643	126.97
347.855	124.93
348.067	110.59
348.279	32.77
348.491	22.53
348.703	59.39
348.915	12.29
349.127	14.34
349.339	57.34
349.551	-10.24
349.763	24.58
349.975	-4.1
350.187	4.1
350.399	65.54
350.61	61.44
350.822	12.29
351.034	88.06
351.246	104.45
351.458	40.96
351.669	86.01
351.881	55.3
352.093	100.35
352.305	108.54
352.517	63.49
352.728	61.44
352.94	65.54
353.152	53.25
353.363	28.67
353.575	34.82
353.787	114.69
353.999	45.06
354.21	77.82
354.422	40.96
354.633	4.1
354.845	36.86
355.057	102.4
355.268	94.21
355.48	79.87
355.692	45.06
355.903	71.68
356.115	59.39
356.326	4.1
356.538	96.25
356.749	14.34
356.961	77.82
357.172	112.64
357.384	88.06
357.595	38.91
357.807	79.87
358.018	20.48
358.23	-12.29
358.441	77.82
358.653	32.77
358.864	61.44
359.075	16.38
359.287	55.3
359.498	43.01
359.709	-2.05
359.921	65.54
360.132	65.54
360.344	-24.58
360.555	112.64
360.766	69.63
360.977	112.64
361.189	79.87
361.4	40.96
361.611	34.82
361.823	51.2
362.034	-20.48
362.245	-98.3
362.456	108.54
362.667	43.01
362.879	24.58
363.09	110.59
363.301	20.48
363.512	36.86
363.723	40.96
363.935	49.15
364.146	55.3
364.357	0
364.568	-4.1
364.779	16.38
364.99	131.07
365.201	-10.24
365.412	61.44
365.623	8.19
365.834	53.25
366.045	24.58
366.256	55.3
366.467	47.1
366.678	45.06
366.889	40.96
367.1	53.25
367.311	73.73
367.522	77.82
367.733	20.48
367.944	53.25
368.155	8.19
368.366	86.01
368.577	79.87
368.788	131.07
368.999	24.58
369.209	28.67
369.42	96.25
369.631	92.16
369.842	77.82
370.053	79.87
370.264	38.91
370.474	-18.43
370.685	57.34
370.896	12.29
371.107	30.72
371.317	-4.1
371.528	22.53
371.739	149.5
371.95	38.91
372.16	77.82
372.371	-16.38
372.582	71.68
372.792	102.4
373.003	59.39
373.214	40.96
373.424	69.63
373.635	14.34
373.846	77.82
374.056	112.64
374.267	96.25
374.477	81.92
374.688	63.49
374.898	79.87
375.109	100.35
375.319	98.3
375.53	24.58
375.74	51.2
375.951	88.06
376.161	12.29
376.372	110.59
376.582	43.01
376.793	14.34
377.003	63.49
377.214	14.34
377.424	-40.96
377.635	12.29
377.845	81.92
378.055	38.91
378.266	12.29
378.476	36.86
378.686	63.49
378.897	38.91
379.107	26.62
379.317	110.59
379.528	69.63
379.738	163.84
379.948	-8.19
380.158	81.92
380.369	30.72
380.579	129.02
380.789	43.01
380.999	30.72
381.21	108.54
381.42	178.17
381.63	73.73
381.84	73.73
382.05	59.39
382.261	153.6
382.471	75.77
382.681	81.92
382.891	102.4
383.101	71.68
383.311	12.29
383.521	-2.05
383.731	88.06
383.941	38.91
384.151	45.06
384.361	67.58
384.571	79.87
384.781	135.17
384.991	81.92
385.201	104.45
385.411	106.49
385.621	98.3
385.831	61.44
386.041	-8.19
386.251	45.06
386.461	86.01
386.671	69.63
386.881	77.82
387.091	14.34
387.301	47.1
387.511	45.06
387.72	110.59
387.93	34.82
388.14	12.29
388.35	40.96
388.56	45.06
388.769	71.68
388.979	36.86
389.189	6.14
389.399	118.78
389.609	-18.43
389.818	167.93
390.028	-2.05
390.238	131.07
390.447	20.48
390.657	86.01
390.867	81.92
391.076	24.58
391.286	49.15
391.496	65.54
391.705	14.34
391.915	172.03
392.125	124.93
392.334	45.06
392.544	94.21
392.753	88.06
392.963	94.21
393.172	-12.29
393.382	20.48
393.591	77.82
393.801	55.3
394.01	137.21
394.22	51.2
394.429	137.21
394.639	12.29
394.848	61.44
395.058	126.97
395.267	43.01
395.477	94.21
395.686	69.63
395.895	145.41
396.105	61.44
396.314	147.45
396.524	75.77
396.733	57.34
396.942	79.87
397.152	153.6
397.361	71.68
397.57	47.1
397.78	94.21
397.989	88.06
398.198	163.84
398.407	59.39
398.617	71.68
398.826	26.62
399.035	126.97
399.244	71.68
399.453	36.86
399.663	100.35
399.872	57.34
400.081	65.54
400.29	176.13
400.499	36.86
400.708	131.07
400.917	98.3
401.127	143.36
401.336	159.74
401.545	129.02
401.754	98.3
401.963	139.26
402.172	61.44
402.381	163.84
402.59	110.59
402.799	151.55
403.008	110.59
403.217	143.36
403.426	100.35
403.635	77.82
403.844	137.21
404.053	55.3
404.262	36.86
404.471	184.32
404.68	161.79
404.888	137.21
405.097	110.59
405.306	192.51
405.515	172.03
405.724	96.25
405.933	178.17
406.142	120.83
406.35	135.17
406.559	102.4
406.768	126.97
406.977	186.37
407.185	180.22
407.394	169.98
407.603	81.92
407.812	147.45
408.02	131.07
408.229	225.28
408.438	137.21
408.646	200.7
408.855	159.74
409.064	167.93
409.272	231.42
409.481	290.81
409.69	253.95
409.898	196.61
410.107	315.39
410.315	270.33
410.524	266.24
410.733	288.76
410.941	225.28
411.15	323.58
411.358	337.91
411.567	276.48
411.775	329.72
411.984	276.48
412.192	258.04
412.401	331.77
412.609	389.11
412.818	423.93
413.026	407.55
413.234	421.88
413.443	391.16
413.651	372.73
413.86	405.5
414.068	378.87
414.276	481.27
414.485	477.18
414.693	520.18
414.901	475.13
415.11	511.99
415.318	528.38
415.526	544.76
415.734	622.58
415.943	626.68
416.151	651.25
416.359	606.2
416.567	663.54
416.776	741.36
416.984	663.54
417.192	692.21
417.4	667.64
417.608	720.89
417.817	774.13
418.025	817.14
418.233	831.48
418.441	831.48
418.649	884.72
418.857	909.3
419.065	1030.13
419.273	978.93
419.481	972.79
419.689	1015.79
419.897	1077.23
420.105	1089.52
420.313	1185.77
420.521	1183.73
420.729	1196.01
420.937	1183.73
421.145	1306.6
421.353	1314.8
421.561	1456.11
421.769	1425.39
421.977	1535.98
422.185	1462.25
422.393	1585.13
422.601	1660.9
422.809	1679.33
423.017	1650.66
423.224	1693.67
423.432	1892.32
423.64	1814.5
423.848	1957.86
424.056	1970.15
424.263	2093.02
424.471	2066.4
424.679	2144.22
424.887	2179.04
425.094	2340.83
425.302	2291.68
425.51	2439.13
425.718	2519
425.925	2586.58
426.133	2588.63
426.341	2656.22
426.548	2846.68
426.756	2832.34
426.964	2920.4
427.171	3000.27
427.379	3088.34
427.586	3250.13
427.794	3176.4
428.001	3301.33
428.209	3602.38
428.417	3559.37
428.624	3661.77
428.832	3674.06
429.039	3659.72
429.247	3645.38
429.454	4030.4
429.662	4364.22
429.869	3962.82
430.076	4327.36
430.284	4102.08
430.491	4517.82
430.699	4556.73
430.906	4726.71
431.114	4835.25
431.321	4829.11
431.528	4968.37
431.736	5216.18
431.943	5470.12
432.15	5345.2
432.358	5427.12
432.565	5601.19
432.772	5699.5
432.979	5961.64
433.187	6145.95
433.394	6109.09
433.601	6481.82
433.808	6533.02
434.016	6578.08
434.223	6619.03
434.43	7184.27
434.637	6995.86
434.844	7417.74
435.052	7737.23
435.259	7524.24
435.466	7626.64
435.673	7544.72
435.88	8083.33
436.087	8515.45
436.294	8341.38
436.501	8179.59
436.708	8400.77
436.915	8650.62
437.122	9142.13
437.329	9125.75
437.537	9455.47
437.743	9580.4
437.95	9514.86
438.157	10084.2
438.364	10313.57
438.571	10241.89
438.778	10284.9
438.985	11104.09
439.192	10714.97
439.399	10991.45
439.606	10860.38
439.813	11489.1
440.02	12351.3
440.227	12009.29
440.433	12021.58
440.64	12398.4
440.847	12187.46
441.054	12334.92
441.261	13334.32
441.467	13023.03
441.674	13246.26
441.881	13819.69
442.088	13901.61
442.294	13903.66
442.501	14036.78
442.708	14491.43
442.914	15071
443.121	15472.4
443.328	15150.87
443.534	16019.21
443.741	15920.91
443.948	15261.46
444.154	16592.64
444.361	17096.44
444.568	16744.19
444.774	16793.34
444.981	16979.71
445.187	17452.79
445.394	18296.55
445.6	18050.8
445.807	19814.1
446.013	18765.54
446.22	19156.7
446.426	19941.07
446.633	20278.99
446.839	20903.62
447.046	20051.66
447.252	20938.43
447.459	21325.5
447.665	21020.35
447.871	22118.06
448.078	23213.73
448.284	21921.46
448.491	22648.49
448.697	23590.55
448.903	23801.49
449.11	23944.85
449.316	23383.71
449.522	24272.53
449.728	24850.05
449.935	24809.09
450.141	24610.44
450.347	25505.4
450.553	24796.81
450.76	25075.33
450.966	25951.86
451.172	25722.49
451.378	26250.86
451.584	25915
451.791	26513
451.997	26400.37
452.203	26779.24
452.409	27008.61
452.615	26793.58
452.821	25937.52
453.027	25615.99
453.233	27047.52
453.44	25779.83
453.646	26027.63
453.852	26095.22
454.058	26685.03
454.264	25986.68
454.47	25980.53
454.676	25845.37
454.882	26611.31
455.088	24536.71
455.294	25063.04
455.5	25347.71
455.705	25624.18
455.911	24407.69
456.117	24227.47
456.323	23666.33
456.529	22714.02
456.735	23690.9
456.941	23178.91
457.147	22947.49
457.352	22034.1
457.558	21950.13
457.764	21786.29
457.97	21429.94
458.176	20891.33
458.381	20930.24
458.587	19773.14
458.793	19789.52
458.999	18939.61
459.204	20342.47
459.41	19691.22
459.616	18507.49
459.821	18628.32
460.027	18605.8
460.233	18069.23
460.438	17247.99
460.644	17606.39
460.85	16793.34
461.055	16148.23
461.261	16418.57
461.466	15257.37
461.672	14511.91
461.878	15877.9
462.083	14716.7
462.289	14450.47
462.494	14225.19
462.7	13666.1
462.905	13279.03
463.111	13735.73
463.316	13827.89
463.522	13334.32
463.727	13285.17
463.932	13758.25
464.138	13242.17
464.343	13508.4
464.549	12851
464.754	13401.91
464.959	13315.89
465.165	13117.24
465.37	12805.95
465.575	12234.57
465.781	12748.61
465.986	12986.17
466.191	12334.92
466.397	12158.79
466.602	11587.41
466.807	12031.82
467.012	12111.69
467.218	12083.02
467.423	11870.03
467.628	11986.76
467.833	12377.92
468.038	11804.49
468.244	11745.1
468.449	12093.26
