Data from USB4F104151__214__14-45-27-888.txt Node

Date: Thu Mar 13 14:45:27 EDT 2025
User: louis
Spectrometer: USB4F10415
Trigger mode: 4
Integration Time (sec): 2.000000E-2
Scans to average: 1
Electric dark correction enabled: true
Nonlinearity correction enabled: false
Boxcar width: 0
XAxis mode: Wavelengths
Number of Pixels in Spectrum: 3648
>>>>>Begin Spectral Data<<<<<
178.204	-31.74
178.424	-31.74
178.644	-31.74
178.864	-117.76
179.084	-68.61
179.304	-7.17
179.524	41.98
179.744	-39.94
179.964	52.22
180.184	11.26
180.404	1.02
180.624	-11.26
180.844	19.46
181.064	-11.26
181.283	5.12
181.503	-33.79
181.723	-27.65
181.943	44.03
182.163	95.23
182.383	74.75
182.602	25.6
182.822	29.7
183.042	80.89
183.262	-66.56
183.482	58.37
183.701	1.02
183.921	-64.51
184.141	-7.17
184.361	80.89
184.58	109.57
184.8	27.65
185.02	46.08
185.239	60.42
185.459	50.18
185.679	62.46
185.898	-7.17
186.118	68.61
186.338	62.46
186.557	27.65
186.777	19.46
186.997	29.7
187.216	52.22
187.436	-23.55
187.655	-7.17
187.875	125.95
188.095	68.61
188.314	109.57
188.534	48.13
188.753	87.04
188.973	132.09
189.192	33.79
189.412	109.57
189.631	35.84
189.851	35.84
190.07	62.46
190.29	5.12
190.509	66.56
190.729	13.31
190.948	46.08
191.168	168.96
191.387	91.13
191.607	-11.26
191.826	125.95
192.045	91.13
192.265	50.18
192.484	41.98
192.704	33.79
192.923	50.18
193.142	95.23
193.362	41.98
193.581	54.27
193.8	109.57
194.02	115.71
194.239	1.02
194.458	56.32
194.678	37.89
194.897	35.84
195.116	74.75
195.335	17.41
195.555	41.98
195.774	101.37
195.993	62.46
196.212	29.7
196.432	21.5
196.651	54.27
196.87	5.12
197.089	134.14
197.308	50.18
197.528	115.71
197.747	21.5
197.966	46.08
198.185	107.52
198.404	64.51
198.623	64.51
198.842	11.26
199.062	109.57
199.281	13.31
199.5	68.61
199.719	58.37
199.938	1.02
200.157	130.05
200.376	84.99
200.595	44.03
200.814	64.51
201.033	121.85
201.252	97.28
201.471	58.37
201.69	76.8
201.909	103.42
202.128	70.65
202.347	78.85
202.566	46.08
202.785	46.08
203.004	-31.74
203.223	78.85
203.442	87.04
203.661	89.09
203.879	78.85
204.098	58.37
204.317	25.6
204.536	33.79
204.755	50.18
204.974	-35.84
205.193	119.81
205.411	46.08
205.63	-7.17
205.849	41.98
206.068	58.37
206.287	37.89
206.505	132.09
206.724	93.18
206.943	80.89
207.162	50.18
207.381	23.55
207.599	50.18
207.818	11.26
208.037	9.22
208.255	121.85
208.474	17.41
208.693	58.37
208.911	60.42
209.13	82.94
209.349	76.8
209.567	50.18
209.786	82.94
210.005	27.65
210.223	125.95
210.442	15.36
210.661	52.22
210.879	21.5
211.098	58.37
211.316	93.18
211.535	93.18
211.753	74.75
211.972	91.13
212.191	33.79
212.409	37.89
212.628	39.94
212.846	44.03
213.065	62.46
213.283	132.09
213.502	68.61
213.72	9.22
213.938	54.27
214.157	58.37
214.375	35.84
214.594	84.99
214.812	74.75
215.031	-7.17
215.249	39.94
215.467	-17.41
215.686	35.84
215.904	123.9
216.122	46.08
216.341	60.42
216.559	11.26
216.778	119.81
216.996	44.03
217.214	-41.98
217.432	50.18
217.651	-27.65
217.869	64.51
218.087	80.89
218.306	37.89
218.524	54.27
218.742	1.02
218.96	52.22
219.179	109.57
219.397	50.18
219.615	99.33
219.833	3.07
220.051	50.18
220.27	44.03
220.488	66.56
220.706	93.18
220.924	37.89
221.142	91.13
221.36	101.37
221.578	68.61
221.796	-5.12
222.015	84.99
222.233	70.65
222.451	132.09
222.669	-15.36
222.887	82.94
223.105	17.41
223.323	-7.17
223.541	50.18
223.759	29.7
223.977	44.03
224.195	117.76
224.413	119.81
224.631	41.98
224.849	35.84
225.067	95.23
225.285	-37.89
225.503	25.6
225.721	-31.74
225.939	9.22
226.157	19.46
226.375	125.95
226.592	-7.17
226.81	25.6
227.028	107.52
227.246	140.29
227.464	46.08
227.682	119.81
227.9	41.98
228.117	74.75
228.335	1.02
228.553	76.8
228.771	3.07
228.989	109.57
229.206	35.84
229.424	68.61
229.642	74.75
229.86	41.98
230.077	17.41
230.295	9.22
230.513	21.5
230.731	84.99
230.948	17.41
231.166	29.7
231.384	35.84
231.601	11.26
231.819	95.23
232.037	74.75
232.254	25.6
232.472	54.27
232.689	-7.17
232.907	33.79
233.125	93.18
233.342	11.26
233.56	82.94
233.777	60.42
233.995	37.89
234.213	113.66
234.43	41.98
234.648	89.09
234.865	46.08
235.083	68.61
235.3	35.84
235.518	84.99
235.735	107.52
235.953	54.27
236.17	95.23
236.388	5.12
236.605	33.79
236.822	48.13
237.04	76.8
237.257	76.8
237.475	33.79
237.692	29.7
237.909	9.22
238.127	136.19
238.344	138.24
238.562	74.75
238.779	62.46
238.996	-23.55
239.214	33.79
239.431	91.13
239.648	107.52
239.865	39.94
240.083	17.41
240.3	70.65
240.517	35.84
240.735	91.13
240.952	123.9
241.169	68.61
241.386	74.75
241.603	78.85
241.821	80.89
242.038	17.41
242.255	-7.17
242.472	70.65
242.689	-46.08
242.907	37.89
243.124	35.84
243.341	58.37
243.558	27.65
243.775	62.46
243.992	21.5
244.209	46.08
244.426	78.85
244.643	44.03
244.86	19.46
245.078	37.89
245.295	17.41
245.512	84.99
245.729	44.03
245.946	52.22
246.163	58.37
246.38	95.23
246.597	74.75
246.814	46.08
247.031	29.7
247.248	58.37
247.464	99.33
247.681	-23.55
247.898	33.79
248.115	58.37
248.332	21.5
248.549	82.94
248.766	111.61
248.983	76.8
249.2	33.79
249.417	41.98
249.633	52.22
249.85	44.03
250.067	-3.07
250.284	41.98
250.501	21.5
250.717	56.32
250.934	13.31
251.151	50.18
251.368	11.26
251.585	37.89
251.801	91.13
252.018	60.42
252.235	111.61
252.451	-23.55
252.668	44.03
252.885	41.98
253.102	78.85
253.318	-13.31
253.535	1.02
253.752	37.89
253.968	105.47
254.185	29.7
254.401	107.52
254.618	115.71
254.835	23.55
255.051	37.89
255.268	62.46
255.484	66.56
255.701	52.22
255.917	39.94
256.134	7.17
256.351	58.37
256.567	50.18
256.784	60.42
257	27.65
257.217	19.46
257.433	-13.31
257.65	93.18
257.866	9.22
258.082	82.94
258.299	66.56
258.515	46.08
258.732	35.84
258.948	-39.94
259.165	41.98
259.381	87.04
259.597	76.8
259.814	37.89
260.03	78.85
260.246	9.22
260.463	-7.17
260.679	76.8
260.895	87.04
261.112	25.6
261.328	19.46
261.544	80.89
261.761	119.81
261.977	91.13
262.193	99.33
262.409	128
262.626	82.94
262.842	70.65
263.058	21.5
263.274	136.19
263.49	70.65
263.707	99.33
263.923	41.98
264.139	-13.31
264.355	58.37
264.571	66.56
264.787	46.08
265.004	62.46
265.22	21.5
265.436	82.94
265.652	62.46
265.868	119.81
266.084	103.42
266.3	11.26
266.516	37.89
266.732	74.75
266.948	11.26
267.164	168.96
267.38	52.22
267.596	64.51
267.812	144.38
268.028	91.13
268.244	-33.79
268.46	99.33
268.676	62.46
268.892	58.37
269.108	9.22
269.324	1.02
269.54	89.09
269.756	91.13
269.972	29.7
270.188	78.85
270.403	117.76
270.619	21.5
270.835	78.85
271.051	25.6
271.267	17.41
271.483	82.94
271.698	44.03
271.914	93.18
272.13	37.89
272.346	82.94
272.562	109.57
272.777	105.47
272.993	17.41
273.209	76.8
273.425	105.47
273.64	54.27
273.856	103.42
274.072	74.75
274.287	-1.02
274.503	144.38
274.719	99.33
274.934	27.65
275.15	-23.55
275.366	27.65
275.581	52.22
275.797	74.75
276.012	37.89
276.228	132.09
276.444	132.09
276.659	25.6
276.875	37.89
277.09	107.52
277.306	72.7
277.521	76.8
277.737	78.85
277.952	68.61
278.168	41.98
278.383	52.22
278.599	-19.46
278.814	29.7
279.03	-5.12
279.245	76.8
279.461	68.61
279.676	25.6
279.892	52.22
280.107	29.7
280.322	60.42
280.538	103.42
280.753	44.03
280.969	74.75
281.184	97.28
281.399	84.99
281.615	33.79
281.83	41.98
282.045	15.36
282.26	58.37
282.476	25.6
282.691	62.46
282.906	-15.36
283.122	27.65
283.337	35.84
283.552	33.79
283.767	-13.31
283.983	64.51
284.198	-27.65
284.413	66.56
284.628	66.56
284.843	21.5
285.058	25.6
285.274	1.02
285.489	46.08
285.704	58.37
285.919	37.89
286.134	-13.31
286.349	66.56
286.564	132.09
286.779	95.23
286.995	99.33
287.21	58.37
287.425	101.37
287.64	-54.27
287.855	107.52
288.07	1.02
288.285	35.84
288.5	117.76
288.715	107.52
288.93	33.79
289.145	33.79
289.36	5.12
289.575	17.41
289.79	84.99
290.004	11.26
290.219	80.89
290.434	99.33
290.649	130.05
290.864	66.56
291.079	66.56
291.294	93.18
291.509	68.61
291.724	13.31
291.938	33.79
292.153	70.65
292.368	50.18
292.583	74.75
292.798	99.33
293.012	82.94
293.227	37.89
293.442	13.31
293.657	60.42
293.871	39.94
294.086	21.5
294.301	48.13
294.516	76.8
294.73	64.51
294.945	50.18
295.16	-35.84
295.374	52.22
295.589	113.66
295.804	11.26
296.018	21.5
296.233	60.42
296.447	41.98
296.662	123.9
296.877	109.57
297.091	54.27
297.306	82.94
297.52	-27.65
297.735	58.37
297.949	82.94
298.164	35.84
298.378	1.02
298.593	35.84
298.807	64.51
299.022	72.7
299.236	9.22
299.451	60.42
299.665	-37.89
299.88	44.03
300.094	46.08
300.309	74.75
300.523	46.08
300.737	35.84
300.952	-31.74
301.166	82.94
301.381	62.46
301.595	52.22
301.809	56.32
302.024	76.8
302.238	68.61
302.452	107.52
302.667	15.36
302.881	70.65
303.095	56.32
303.309	56.32
303.524	33.79
303.738	84.99
303.952	23.55
304.166	109.57
304.381	46.08
304.595	78.85
304.809	58.37
305.023	152.57
305.237	66.56
305.452	-7.17
305.666	60.42
305.88	25.6
306.094	62.46
306.308	99.33
306.522	54.27
306.736	60.42
306.95	117.76
307.164	99.33
307.379	74.75
307.593	60.42
307.807	33.79
308.021	95.23
308.235	146.43
308.449	27.65
308.663	103.42
308.877	128
309.091	117.76
309.305	35.84
309.519	58.37
309.733	44.03
309.947	1.02
310.161	35.84
310.374	58.37
310.588	105.47
310.802	41.98
311.016	52.22
311.23	111.61
311.444	74.75
311.658	52.22
311.872	109.57
312.085	109.57
312.299	99.33
312.513	52.22
312.727	66.56
312.941	7.17
313.154	109.57
313.368	-5.12
313.582	-64.51
313.796	21.5
314.009	9.22
314.223	78.85
314.437	68.61
314.651	21.5
314.864	19.46
315.078	35.84
315.292	-27.65
315.505	25.6
315.719	115.71
315.933	74.75
316.146	13.31
316.36	-15.36
316.573	119.81
316.787	66.56
317.001	35.84
317.214	44.03
317.428	82.94
317.641	70.65
317.855	60.42
318.068	91.13
318.282	58.37
318.495	82.94
318.709	87.04
318.922	95.23
319.136	95.23
319.349	62.46
319.563	117.76
319.776	52.22
319.99	58.37
320.203	54.27
320.417	84.99
320.63	19.46
320.843	62.46
321.057	-11.26
321.27	-3.07
321.483	13.31
321.697	5.12
321.91	41.98
322.124	99.33
322.337	1.02
322.55	17.41
322.763	60.42
322.977	60.42
323.19	95.23
323.403	97.28
323.617	115.71
323.83	29.7
324.043	21.5
324.256	82.94
324.469	35.84
324.683	84.99
324.896	41.98
325.109	35.84
325.322	25.6
325.535	41.98
325.748	111.61
325.962	-9.22
326.175	50.18
326.388	91.13
326.601	74.75
326.814	9.22
327.027	60.42
327.24	76.8
327.453	-39.94
327.666	132.09
327.879	25.6
328.092	68.61
328.305	13.31
328.518	-1.02
328.731	41.98
328.944	66.56
329.157	7.17
329.37	95.23
329.583	101.37
329.796	91.13
330.009	-3.07
330.222	33.79
330.435	-3.07
330.648	56.32
330.861	140.29
331.073	76.8
331.286	19.46
331.499	66.56
331.712	37.89
331.925	107.52
332.138	130.05
332.35	82.94
332.563	107.52
332.776	89.09
332.989	7.17
333.202	25.6
333.414	15.36
333.627	134.14
333.84	7.17
334.053	52.22
334.265	64.51
334.478	-17.41
334.691	146.43
334.903	52.22
335.116	19.46
335.329	62.46
335.541	58.37
335.754	115.71
335.966	64.51
336.179	44.03
336.392	136.19
336.604	35.84
336.817	54.27
337.029	82.94
337.242	33.79
337.454	66.56
337.667	44.03
337.88	72.7
338.092	41.98
338.305	136.19
338.517	41.98
338.729	84.99
338.942	29.7
339.154	46.08
339.367	-48.13
339.579	140.29
339.792	41.98
340.004	115.71
340.217	111.61
340.429	68.61
340.641	48.13
340.854	37.89
341.066	50.18
341.278	99.33
341.491	76.8
341.703	54.27
341.915	-7.17
342.128	132.09
342.34	111.61
342.552	66.56
342.764	-31.74
342.977	1.02
343.189	68.61
343.401	37.89
343.613	17.41
343.826	37.89
344.038	44.03
344.25	-3.07
344.462	123.9
344.674	54.27
344.886	113.66
345.099	105.47
345.311	62.46
345.523	132.09
345.735	58.37
345.947	33.79
346.159	107.52
346.371	74.75
346.583	89.09
346.795	66.56
347.007	-54.27
347.219	60.42
347.431	123.9
347.643	70.65
347.855	50.18
348.067	99.33
348.279	-7.17
348.491	9.22
348.703	48.13
348.915	91.13
349.127	25.6
349.339	-11.26
349.551	58.37
349.763	58.37
349.975	89.09
350.187	74.75
350.399	115.71
350.61	68.61
350.822	25.6
351.034	58.37
351.246	164.86
351.458	84.99
351.669	91.13
351.881	-7.17
352.093	101.37
352.305	160.77
352.517	52.22
352.728	115.71
352.94	52.22
353.152	58.37
353.363	-15.36
353.575	117.76
353.787	99.33
353.999	91.13
354.21	46.08
354.422	70.65
354.633	-19.46
354.845	-11.26
355.057	23.55
355.268	56.32
355.48	105.47
355.692	58.37
355.903	68.61
356.115	19.46
356.326	35.84
356.538	101.37
356.749	54.27
356.961	66.56
357.172	54.27
357.384	76.8
357.595	60.42
357.807	60.42
358.018	17.41
358.23	39.94
358.441	84.99
358.653	105.47
358.864	78.85
359.075	52.22
359.287	54.27
359.498	107.52
359.709	41.98
359.921	84.99
360.132	74.75
360.344	52.22
360.555	35.84
360.766	82.94
360.977	66.56
361.189	95.23
361.4	44.03
361.611	76.8
361.823	68.61
362.034	68.61
362.245	62.46
362.456	78.85
362.667	35.84
362.879	62.46
363.09	27.65
363.301	146.43
363.512	68.61
363.723	68.61
363.935	99.33
364.146	68.61
364.357	111.61
364.568	91.13
364.779	11.26
364.99	46.08
365.201	-13.31
365.412	58.37
365.623	29.7
365.834	150.53
366.045	76.8
366.256	66.56
366.467	121.85
366.678	11.26
366.889	76.8
367.1	44.03
367.311	50.18
367.522	74.75
367.733	1.02
367.944	93.18
368.155	66.56
368.366	56.32
368.577	56.32
368.788	101.37
368.999	27.65
369.209	91.13
369.42	148.48
369.631	74.75
369.842	58.37
370.053	31.74
370.264	25.6
370.474	74.75
370.685	97.28
370.896	50.18
371.107	5.12
371.317	29.7
371.528	82.94
371.739	41.98
371.95	115.71
372.16	76.8
372.371	54.27
372.582	70.65
372.792	72.7
373.003	134.14
373.214	103.42
373.424	82.94
373.635	64.51
373.846	136.19
374.056	56.32
374.267	41.98
374.477	41.98
374.688	62.46
374.898	119.81
375.109	58.37
375.319	54.27
375.53	62.46
375.74	156.67
375.951	99.33
376.161	66.56
376.372	50.18
376.582	78.85
376.793	80.89
377.003	-17.41
377.214	84.99
377.424	64.51
377.635	37.89
377.845	9.22
378.055	95.23
378.266	-31.74
378.476	140.29
378.686	68.61
378.897	62.46
379.107	107.52
379.317	70.65
379.528	9.22
379.738	125.95
379.948	46.08
380.158	99.33
380.369	25.6
380.579	74.75
380.789	74.75
380.999	44.03
381.21	95.23
381.42	140.29
381.63	-11.26
381.84	91.13
382.05	78.85
382.261	74.75
382.471	111.61
382.681	74.75
382.891	66.56
383.101	-3.07
383.311	19.46
383.521	41.98
383.731	41.98
383.941	25.6
384.151	39.94
384.361	74.75
384.571	134.14
384.781	9.22
384.991	76.8
385.201	74.75
385.411	107.52
385.621	128
385.831	58.37
386.041	150.53
386.251	25.6
386.461	171.01
386.671	138.24
386.881	76.8
387.091	-11.26
387.301	74.75
387.511	158.72
387.72	91.13
387.93	123.9
388.14	9.22
388.35	52.22
388.56	105.47
388.769	80.89
388.979	164.86
389.189	58.37
389.399	19.46
389.609	150.53
389.818	54.27
390.028	35.84
390.238	80.89
390.447	101.37
390.657	109.57
390.867	50.18
391.076	44.03
391.286	62.46
391.496	123.9
391.705	87.04
391.915	189.44
392.125	58.37
392.334	58.37
392.544	97.28
392.753	-13.31
392.963	80.89
393.172	74.75
393.382	33.79
393.591	76.8
393.801	140.29
394.01	91.13
394.22	125.95
394.429	99.33
394.639	117.76
394.848	84.99
395.058	82.94
395.267	91.13
395.477	101.37
395.686	123.9
395.895	95.23
396.105	107.52
396.314	78.85
396.524	66.56
396.733	91.13
396.942	78.85
397.152	164.86
397.361	132.09
397.57	76.8
397.78	101.37
397.989	132.09
398.198	171.01
398.407	103.42
398.617	46.08
398.826	62.46
399.035	89.09
399.244	168.96
399.453	164.86
399.663	125.95
399.872	173.05
400.081	146.43
400.29	166.91
400.499	78.85
400.708	136.19
400.917	82.94
401.127	89.09
401.336	136.19
401.545	70.65
401.754	123.9
401.963	123.9
402.172	134.14
402.381	50.18
402.59	134.14
402.799	146.43
403.008	82.94
403.217	132.09
403.426	119.81
403.635	84.99
403.844	191.49
404.053	95.23
404.262	87.04
404.471	125.95
404.68	148.48
404.888	136.19
405.097	191.49
405.306	207.87
405.515	128
405.724	209.92
405.933	95.23
406.142	156.67
406.35	156.67
406.559	150.53
406.768	181.25
406.977	222.2
407.185	177.15
407.394	244.73
407.603	84.99
407.812	177.15
408.02	269.31
408.229	279.55
408.438	224.25
408.646	248.83
408.855	295.93
409.064	222.2
409.272	269.31
409.481	207.87
409.69	261.12
409.898	240.64
410.107	207.87
410.315	361.47
410.524	216.06
410.733	218.11
410.941	355.32
411.15	347.13
411.358	345.08
411.567	295.93
411.775	379.9
411.984	345.08
412.192	347.13
412.401	377.85
412.609	416.76
412.818	433.15
413.026	455.67
413.234	467.96
413.443	439.29
413.651	510.97
413.86	508.92
414.068	492.54
414.276	613.37
414.485	517.11
414.693	599.03
414.901	639.99
415.11	566.26
415.318	623.61
415.526	662.52
415.734	642.04
415.943	670.71
416.151	656.37
416.359	668.66
416.567	648.18
416.776	746.48
416.984	793.59
417.192	842.74
417.4	742.39
417.608	895.99
417.817	865.27
418.025	959.47
418.233	1018.86
418.441	947.19
418.649	1076.21
418.857	1043.44
419.065	1078.26
419.273	1051.63
419.481	1180.65
419.689	1145.84
419.897	1281
420.105	1278.96
420.313	1274.86
420.521	1299.44
420.729	1336.3
420.937	1395.69
421.145	1453.03
421.353	1483.75
421.561	1549.29
421.769	1631.21
421.977	1651.69
422.185	1631.21
422.393	1745.89
422.601	1805.28
422.809	1833.96
423.017	1766.37
423.224	2059.23
423.432	2081.76
423.64	2036.7
423.848	2188.25
424.056	2212.83
424.263	2356.19
424.471	2288.61
424.679	2425.82
424.887	2458.59
425.094	2540.51
425.302	2624.47
425.51	2657.24
425.718	2698.2
425.925	2761.69
426.133	2880.47
426.341	3050.45
426.548	3216.33
426.756	3015.63
426.964	3238.86
427.171	3392.46
427.379	3437.52
427.586	3478.47
427.794	3718.09
428.001	3752.9
428.209	3912.64
428.417	3877.83
428.624	4113.35
428.832	4266.94
429.039	4168.64
429.247	4012.99
429.454	4402.11
429.662	4774.84
429.869	4529.08
430.076	4879.29
430.284	4678.58
430.491	4916.15
430.699	5188.53
430.906	5309.36
431.114	5174.19
431.321	5446.57
431.528	5485.48
431.736	5807.02
431.943	6202.27
432.15	5747.62
432.358	6007.72
432.565	6390.69
432.772	6267.81
432.979	6519.71
433.187	6611.87
433.394	6681.5
433.601	7332.75
433.808	7265.17
434.016	7252.88
434.223	7521.17
434.43	7994.25
434.637	7871.37
434.844	8201.09
435.052	8446.85
435.259	8283.01
435.466	8491.9
435.673	8461.18
435.88	8889.21
436.087	9374.58
436.294	9395.06
436.501	9399.15
436.708	9309.04
436.915	9706.35
437.122	10003.3
437.329	9956.2
437.537	10634.08
437.743	10640.22
437.95	10371.94
438.157	11035.48
438.364	11453.27
438.571	11649.87
438.778	11367.25
438.985	12415.81
439.192	12000.07
439.399	12350.28
439.606	11854.67
439.813	12833.6
440.02	13654.83
440.227	13384.5
440.433	13318.96
440.64	13331.25
440.847	13693.74
441.054	13851.44
441.261	14773.02
441.467	14701.34
441.674	14883.61
441.881	15354.65
442.088	15491.86
442.294	15180.57
442.501	15584.02
442.708	15893.26
442.914	16597.76
443.121	17195.77
443.328	16720.64
443.534	17943.28
443.741	17588.98
443.948	17101.56
444.154	18223.85
444.361	18320.1
444.568	18490.09
444.774	18574.05
444.981	18432.74
445.187	19229.4
445.394	20241.1
445.6	19487.45
445.807	21557.94
446.013	20615.88
446.22	21232.32
446.426	21891.76
446.633	22225.58
446.839	22909.6
447.046	21838.51
447.252	23149.21
447.459	23071.39
447.665	22901.41
447.871	23982.74
448.078	24920.71
448.284	23884.44
448.491	24537.74
448.697	25641.59
448.903	25916.02
449.11	26049.14
449.316	25553.53
449.522	26274.42
449.728	27087.46
449.935	27345.5
450.141	27030.12
450.347	27591.26
450.553	26526.32
450.76	27351.65
450.966	28217.94
451.172	27765.34
451.378	28222.03
451.584	27716.19
451.791	28508.75
451.997	28480.08
452.203	28973.64
452.409	29129.28
452.615	28987.97
452.821	27718.23
453.027	27316.83
453.233	29661.76
453.44	27787.86
453.646	28308.05
453.852	28475.98
454.058	28922.44
454.264	27898.45
454.47	28760.65
454.676	27769.43
454.882	28555.85
455.088	26442.35
455.294	26546.79
455.5	27239.01
455.705	27624.03
455.911	26354.29
456.117	25879.16
456.323	25606.78
456.529	24234.64
456.735	25344.64
456.941	24638.09
457.147	24679.05
457.352	23624.34
457.558	23153.31
457.764	23401.11
457.97	23124.64
458.176	22538.92
458.381	22442.67
458.587	21422.78
458.793	21256.89
458.999	20275.91
459.204	21689.01
459.41	21156.54
459.616	19880.66
459.821	19964.62
460.027	20067.02
460.233	19462.87
460.438	18631.4
460.644	18600.68
460.85	17801.97
461.055	17642.23
461.261	17357.56
461.466	16001.8
461.672	15835.92
461.878	16653.06
462.083	15758.1
462.289	15446.8
462.494	15534.87
462.7	14664.48
462.905	14242.6
463.111	14805.79
463.316	14750.49
463.522	14660.38
463.727	14277.41
463.932	14289.7
464.138	14617.38
464.343	14340.9
464.549	14082.86
464.754	14349.09
464.959	14392.1
465.165	13822.77
465.37	13357.88
465.575	13253.43
465.781	13595.44
465.986	13853.48
466.191	13271.86
466.397	13108.02
466.602	12329.8
466.807	12843.84
467.012	12745.53
467.218	12804.92
