Data from USB4F104151__193__14-45-13-631.txt Node

Date: Thu Mar 13 14:45:13 EDT 2025
User: louis
Spectrometer: USB4F10415
Trigger mode: 4
Integration Time (sec): 2.000000E-2
Scans to average: 1
Electric dark correction enabled: true
Nonlinearity correction enabled: false
Boxcar width: 0
XAxis mode: Wavelengths
Number of Pixels in Spectrum: 3648
>>>>>Begin Spectral Data<<<<<
178.204	-132.95
178.424	-132.95
178.644	-132.95
178.864	-128.85
179.084	-159.57
179.304	-53.08
179.524	0.17
179.744	28.84
179.964	-8.02
180.184	-3.93
180.404	6.31
180.624	-32.6
180.844	12.46
181.064	4.27
181.283	-61.27
181.503	63.66
181.723	43.18
181.943	-48.98
182.163	96.43
182.383	37.03
182.602	57.51
182.822	121
183.042	51.37
183.262	-28.5
183.482	4.27
183.701	-5.97
183.921	90.28
184.141	4.27
184.361	55.47
184.58	73.9
184.8	55.47
185.02	90.28
185.239	41.13
185.459	104.62
185.679	4.27
185.898	32.94
186.118	12.46
186.338	-1.88
186.557	61.61
186.777	28.84
186.997	4.27
187.216	69.8
187.436	104.62
187.655	57.51
187.875	55.47
188.095	69.8
188.314	16.55
188.534	77.99
188.753	6.31
188.973	71.85
189.192	71.85
189.412	61.61
189.631	2.22
189.851	94.38
190.07	143.53
190.29	30.89
190.509	59.56
190.729	34.99
190.948	12.46
191.168	178.34
191.387	110.76
191.607	-38.74
191.826	94.38
192.045	45.23
192.265	-40.79
192.484	47.27
192.704	16.55
192.923	6.31
193.142	139.43
193.362	59.56
193.581	106.67
193.8	12.46
194.02	106.67
194.239	22.7
194.458	77.99
194.678	118.95
194.897	47.27
195.116	41.13
195.335	137.38
195.555	71.85
195.774	4.27
195.993	4.27
196.212	73.9
196.432	30.89
196.651	86.19
196.87	12.46
197.089	110.76
197.308	0.17
197.528	110.76
197.747	-18.26
197.966	-10.07
198.185	22.7
198.404	73.9
198.623	43.18
198.842	8.36
199.062	22.7
199.281	135.34
199.5	24.75
199.719	88.23
199.938	12.46
200.157	86.19
200.376	98.47
200.595	-3.93
200.814	47.27
201.033	55.47
201.252	-1.88
201.471	80.04
201.69	49.32
201.909	61.61
202.128	-10.07
202.347	28.84
202.566	125.1
202.785	45.23
203.004	49.32
203.223	57.51
203.442	47.27
203.661	20.65
203.879	-44.88
204.098	53.42
204.317	92.33
204.536	77.99
204.755	20.65
204.974	20.65
205.193	-16.21
205.411	147.62
205.63	59.56
205.849	80.04
206.068	16.55
206.287	67.75
206.505	104.62
206.724	102.57
206.943	16.55
207.162	49.32
207.381	-36.69
207.599	10.41
207.818	69.8
208.037	0.17
208.255	61.61
208.474	98.47
208.693	71.85
208.911	53.42
209.13	24.75
209.349	0.17
209.567	14.51
209.786	61.61
210.005	30.89
210.223	24.75
210.442	-8.02
210.661	92.33
210.879	34.99
211.098	73.9
211.316	104.62
211.535	39.08
211.753	65.71
211.972	63.66
212.191	55.47
212.409	28.84
212.628	12.46
212.846	-20.31
213.065	45.23
213.283	37.03
213.502	118.95
213.72	6.31
213.938	6.31
214.157	47.27
214.375	94.38
214.594	-5.97
214.812	39.08
215.031	30.89
215.249	-16.21
215.467	102.57
215.686	90.28
215.904	53.42
216.122	-8.02
216.341	63.66
216.559	77.99
216.778	49.32
216.996	30.89
217.214	22.7
217.432	92.33
217.651	30.89
217.869	43.18
218.087	82.09
218.306	-10.07
218.524	55.47
218.742	37.03
218.96	18.6
219.179	-3.93
219.397	30.89
219.615	108.71
219.833	-48.98
220.051	37.03
220.27	47.27
220.488	41.13
220.706	86.19
220.924	12.46
221.142	39.08
221.36	41.13
221.578	100.52
221.796	4.27
222.015	84.14
222.233	28.84
222.451	141.48
222.669	4.27
222.887	80.04
223.105	18.6
223.323	63.66
223.541	61.61
223.759	67.75
223.977	39.08
224.195	77.99
224.413	143.53
224.631	39.08
224.849	14.51
225.067	22.7
225.285	-14.17
225.503	69.8
225.721	8.36
225.939	88.23
226.157	22.7
226.375	184.49
226.592	47.27
226.81	57.51
227.028	32.94
227.246	90.28
227.464	114.86
227.682	51.37
227.9	26.79
228.117	6.31
228.335	84.14
228.553	41.13
228.771	114.86
228.989	110.76
229.206	118.95
229.424	-1.88
229.642	22.7
229.86	41.13
230.077	53.42
230.295	51.37
230.513	63.66
230.731	-1.88
230.948	28.84
231.166	112.81
231.384	131.24
231.601	-10.07
231.819	159.91
232.037	69.8
232.254	-3.93
232.472	24.75
232.689	90.28
232.907	69.8
233.125	8.36
233.342	47.27
233.56	20.65
233.777	53.42
233.995	80.04
234.213	100.52
234.43	80.04
234.648	90.28
234.865	73.9
235.083	-32.6
235.3	80.04
235.518	129.19
235.735	143.53
235.953	49.32
236.17	90.28
236.388	8.36
236.605	39.08
236.822	-26.45
237.04	77.99
237.257	4.27
237.475	-61.27
237.692	41.13
237.909	37.03
238.127	14.51
238.344	-20.31
238.562	12.46
238.779	4.27
238.996	45.23
239.214	43.18
239.431	94.38
239.648	96.43
239.865	63.66
240.083	39.08
240.3	63.66
240.517	73.9
240.735	51.37
240.952	6.31
241.169	6.31
241.386	59.56
241.603	61.61
241.821	8.36
242.038	71.85
242.255	94.38
242.472	28.84
242.689	12.46
242.907	127.14
243.124	67.75
243.341	24.75
243.558	20.65
243.775	-10.07
243.992	47.27
244.209	86.19
244.426	135.34
244.643	39.08
244.86	49.32
245.078	-12.12
245.295	94.38
245.512	55.47
245.729	37.03
245.946	114.86
246.163	30.89
246.38	98.47
246.597	-12.12
246.814	-44.88
247.031	94.38
247.248	88.23
247.464	39.08
247.681	108.71
247.898	32.94
248.115	86.19
248.332	6.31
248.549	73.9
248.766	102.57
248.983	100.52
249.2	28.84
249.417	73.9
249.633	37.03
249.85	-3.93
250.067	26.79
250.284	65.71
250.501	80.04
250.717	71.85
250.934	43.18
251.151	45.23
251.368	-28.5
251.585	102.57
251.801	41.13
252.018	24.75
252.235	57.51
252.451	61.61
252.668	77.99
252.885	90.28
253.102	39.08
253.318	53.42
253.535	34.99
253.752	63.66
253.968	-75.6
254.185	-24.4
254.401	14.51
254.618	-14.17
254.835	-65.36
255.051	137.38
255.268	20.65
255.484	43.18
255.701	12.46
255.917	100.52
256.134	20.65
256.351	41.13
256.567	8.36
256.784	53.42
257	37.03
257.217	20.65
257.433	57.51
257.65	22.7
257.866	94.38
258.082	88.23
258.299	4.27
258.515	61.61
258.732	77.99
258.948	-10.07
259.165	24.75
259.381	6.31
259.597	20.65
259.814	71.85
260.03	75.95
260.246	100.52
260.463	73.9
260.679	69.8
260.895	63.66
261.112	75.95
261.328	71.85
261.544	51.37
261.761	127.14
261.977	-5.97
262.193	102.57
262.409	86.19
262.626	39.08
262.842	69.8
263.058	20.65
263.274	10.41
263.49	39.08
263.707	80.04
263.923	53.42
264.139	30.89
264.355	16.55
264.571	75.95
264.787	61.61
265.004	80.04
265.22	16.55
265.436	45.23
265.652	55.47
265.868	12.46
266.084	24.75
266.3	90.28
266.516	-61.27
266.732	-36.69
266.948	30.89
267.164	94.38
267.38	75.95
267.596	43.18
267.812	102.57
268.028	96.43
268.244	118.95
268.46	77.99
268.676	57.51
268.892	-1.88
269.108	53.42
269.324	30.89
269.54	-8.02
269.756	96.43
269.972	69.8
270.188	53.42
270.403	94.38
270.619	55.47
270.835	-24.4
271.051	49.32
271.267	34.99
271.483	55.47
271.698	116.9
271.914	2.22
272.13	-12.12
272.346	8.36
272.562	53.42
272.777	37.03
272.993	94.38
273.209	-32.6
273.425	32.94
273.64	28.84
273.856	65.71
274.072	12.46
274.287	75.95
274.503	123.05
274.719	82.09
274.934	65.71
275.15	-75.6
275.366	12.46
275.581	20.65
275.797	4.27
276.012	28.84
276.228	-10.07
276.444	53.42
276.659	14.51
276.875	-53.08
277.09	12.46
277.306	77.99
277.521	73.9
277.737	-20.31
277.952	47.27
278.168	28.84
278.383	71.85
278.599	37.03
278.814	30.89
279.03	61.61
279.245	30.89
279.461	108.71
279.676	86.19
279.892	4.27
280.107	41.13
280.322	6.31
280.538	102.57
280.753	61.61
280.969	53.42
281.184	135.34
281.399	51.37
281.615	69.8
281.83	53.42
282.045	12.46
282.26	8.36
282.476	12.46
282.691	86.19
282.906	28.84
283.122	69.8
283.337	30.89
283.552	102.57
283.767	6.31
283.983	98.47
284.198	22.7
284.413	104.62
284.628	73.9
284.843	104.62
285.058	-10.07
285.274	55.47
285.489	41.13
285.704	63.66
285.919	37.03
286.134	12.46
286.349	-26.45
286.564	-12.12
286.779	-10.07
286.995	-1.88
287.21	61.61
287.425	80.04
287.64	24.75
287.855	61.61
288.07	-20.31
288.285	37.03
288.5	73.9
288.715	86.19
288.93	20.65
289.145	61.61
289.36	20.65
289.575	53.42
289.79	53.42
290.004	14.51
290.219	80.04
290.434	-18.26
290.649	47.27
290.864	22.7
291.079	-28.5
291.294	-1.88
291.509	61.61
291.724	14.51
291.938	8.36
292.153	71.85
292.368	53.42
292.583	114.86
292.798	37.03
293.012	20.65
293.227	37.03
293.442	37.03
293.657	110.76
293.871	112.81
294.086	12.46
294.301	77.99
294.516	100.52
294.73	82.09
294.945	4.27
295.16	86.19
295.374	65.71
295.589	106.67
295.804	37.03
296.018	37.03
296.233	139.43
296.447	-5.97
296.662	37.03
296.877	45.23
297.091	104.62
297.306	69.8
297.52	102.57
297.735	77.99
297.949	100.52
298.164	6.31
298.378	-55.12
298.593	-46.93
298.807	69.8
299.022	71.85
299.236	49.32
299.451	24.75
299.665	53.42
299.88	121
300.094	151.72
300.309	12.46
300.523	116.9
300.737	37.03
300.952	80.04
301.166	65.71
301.381	18.6
301.595	43.18
301.809	63.66
302.024	43.18
302.238	94.38
302.452	71.85
302.667	82.09
302.881	114.86
303.095	94.38
303.309	55.47
303.524	2.22
303.738	63.66
303.952	-28.5
304.166	4.27
304.381	-12.12
304.595	61.61
304.809	28.84
305.023	24.75
305.237	47.27
305.452	20.65
305.666	47.27
305.88	20.65
306.094	94.38
306.308	-8.02
306.522	98.47
306.736	41.13
306.95	24.75
307.164	32.94
307.379	55.47
307.593	22.7
307.807	63.66
308.021	112.81
308.235	53.42
308.449	6.31
308.663	18.6
308.877	143.53
309.091	47.27
309.305	-12.12
309.519	6.31
309.733	57.51
309.947	4.27
310.161	96.43
310.374	8.36
310.588	100.52
310.802	37.03
311.016	96.43
311.23	20.65
311.444	57.51
311.658	26.79
311.872	53.42
312.085	-3.93
312.299	88.23
312.513	65.71
312.727	24.75
312.941	55.47
313.154	41.13
313.368	57.51
313.582	71.85
313.796	118.95
314.009	88.23
314.223	118.95
314.437	53.42
314.651	94.38
314.864	102.57
315.078	61.61
315.292	104.62
315.505	39.08
315.719	63.66
315.933	45.23
316.146	88.23
316.36	16.55
316.573	94.38
316.787	92.33
317.001	75.95
317.214	45.23
317.428	86.19
317.641	55.47
317.855	2.22
318.068	65.71
318.282	112.81
318.495	84.14
318.709	6.31
318.922	-34.64
319.136	90.28
319.349	96.43
319.563	82.09
319.776	16.55
319.99	145.58
320.203	102.57
320.417	96.43
320.63	57.51
320.843	127.14
321.057	77.99
321.27	45.23
321.483	-1.88
321.697	32.94
321.91	55.47
322.124	-1.88
322.337	53.42
322.55	53.42
322.763	53.42
322.977	41.13
323.19	108.71
323.403	63.66
323.617	69.8
323.83	-18.26
324.043	16.55
324.256	86.19
324.469	96.43
324.683	69.8
324.896	34.99
325.109	65.71
325.322	22.7
325.535	88.23
325.748	147.62
325.962	28.84
326.175	24.75
326.388	125.1
326.601	20.65
326.814	104.62
327.027	151.72
327.24	129.19
327.453	-36.69
327.666	45.23
327.879	37.03
328.092	69.8
328.305	127.14
328.518	-73.56
328.731	45.23
328.944	34.99
329.157	-32.6
329.37	61.61
329.583	69.8
329.796	88.23
330.009	-26.45
330.222	18.6
330.435	28.84
330.648	12.46
330.861	28.84
331.073	94.38
331.286	4.27
331.499	20.65
331.712	84.14
331.925	53.42
332.138	63.66
332.35	98.47
332.563	53.42
332.776	71.85
332.989	20.65
333.202	88.23
333.414	61.61
333.627	37.03
333.84	39.08
334.053	77.99
334.265	61.61
334.478	129.19
334.691	104.62
334.903	98.47
335.116	45.23
335.329	63.66
335.541	80.04
335.754	69.8
335.966	18.6
336.179	104.62
336.392	135.34
336.604	28.84
336.817	65.71
337.029	4.27
337.242	-16.21
337.454	37.03
337.667	71.85
337.88	41.13
338.092	104.62
338.305	55.47
338.517	49.32
338.729	53.42
338.942	84.14
339.154	86.19
339.367	24.75
339.579	12.46
339.792	45.23
340.004	86.19
340.217	4.27
340.429	12.46
340.641	61.61
340.854	-5.97
341.066	-3.93
341.278	37.03
341.491	28.84
341.703	69.8
341.915	53.42
342.128	147.62
342.34	69.8
342.552	49.32
342.764	41.13
342.977	63.66
343.189	69.8
343.401	61.61
343.613	51.37
343.826	16.55
344.038	77.99
344.25	32.94
344.462	4.27
344.674	73.9
344.886	14.51
345.099	94.38
345.311	57.51
345.523	127.14
345.735	-10.07
345.947	94.38
346.159	86.19
346.371	94.38
346.583	-3.93
346.795	143.53
347.007	47.27
347.219	69.8
347.431	37.03
347.643	57.51
347.855	24.75
348.067	80.04
348.279	12.46
348.491	51.37
348.703	94.38
348.915	-1.88
349.127	65.71
349.339	-42.84
349.551	-1.88
349.763	55.47
349.975	28.84
350.187	98.47
350.399	12.46
350.61	100.52
350.822	14.51
351.034	88.23
351.246	57.51
351.458	45.23
351.669	30.89
351.881	-18.26
352.093	45.23
352.305	82.09
352.517	51.37
352.728	65.71
352.94	69.8
353.152	104.62
353.363	32.94
353.575	30.89
353.787	145.58
353.999	53.42
354.21	37.03
354.422	-20.31
354.633	65.71
354.845	57.51
355.057	32.94
355.268	61.61
355.48	77.99
355.692	69.8
355.903	-5.97
356.115	41.13
356.326	-1.88
356.538	110.76
356.749	22.7
356.961	86.19
357.172	-34.64
357.384	37.03
357.595	71.85
357.807	49.32
358.018	63.66
358.23	53.42
358.441	37.03
358.653	69.8
358.864	4.27
359.075	-12.12
359.287	106.67
359.498	112.81
359.709	45.23
359.921	112.81
360.132	47.27
360.344	37.03
360.555	4.27
360.766	63.66
360.977	53.42
361.189	69.8
361.4	86.19
361.611	90.28
361.823	28.84
362.034	110.76
362.245	57.51
362.456	69.8
362.667	96.43
362.879	77.99
363.09	51.37
363.301	86.19
363.512	45.23
363.723	53.42
363.935	-46.93
364.146	61.61
364.357	75.95
364.568	104.62
364.779	82.09
364.99	20.65
365.201	37.03
365.412	77.99
365.623	-26.45
365.834	86.19
366.045	24.75
366.256	129.19
366.467	80.04
366.678	30.89
366.889	73.9
367.1	-36.69
367.311	61.61
367.522	20.65
367.733	51.37
367.944	57.51
368.155	20.65
368.366	55.47
368.577	67.75
368.788	88.23
368.999	-12.12
369.209	53.42
369.42	37.03
369.631	80.04
369.842	135.34
370.053	32.94
370.264	39.08
370.474	8.36
370.685	39.08
370.896	96.43
371.107	47.27
371.317	22.7
371.528	88.23
371.739	77.99
371.95	104.62
372.16	59.56
372.371	47.27
372.582	53.42
372.792	86.19
373.003	88.23
373.214	14.51
373.424	143.53
373.635	22.7
373.846	63.66
374.056	123.05
374.267	47.27
374.477	4.27
374.688	69.8
374.898	-3.93
375.109	41.13
375.319	63.66
375.53	53.42
375.74	69.8
375.951	63.66
376.161	104.62
376.372	129.19
376.582	88.23
376.793	118.95
377.003	77.99
377.214	102.57
377.424	86.19
377.635	30.89
377.845	24.75
378.055	94.38
378.266	77.99
378.476	45.23
378.686	53.42
378.897	55.47
379.107	153.77
379.317	71.85
379.528	69.8
379.738	102.57
379.948	55.47
380.158	127.14
380.369	80.04
380.579	90.28
380.789	129.19
380.999	104.62
381.21	96.43
381.42	102.57
381.63	6.31
381.84	28.84
382.05	16.55
382.261	77.99
382.471	94.38
382.681	118.95
382.891	94.38
383.101	94.38
383.311	30.89
383.521	4.27
383.731	77.99
383.941	28.84
384.151	84.14
384.361	86.19
384.571	53.42
384.781	86.19
384.991	112.81
385.201	47.27
385.411	39.08
385.621	77.99
385.831	47.27
386.041	26.79
386.251	49.32
386.461	96.43
386.671	53.42
386.881	45.23
387.091	73.9
387.301	71.85
387.511	86.19
387.72	94.38
387.93	90.28
388.14	37.03
388.35	82.09
388.56	102.57
388.769	98.47
388.979	88.23
389.189	6.31
389.399	20.65
389.609	77.99
389.818	28.84
390.028	28.84
390.238	94.38
390.447	49.32
390.657	80.04
390.867	102.57
391.076	45.23
391.286	30.89
391.496	77.99
391.705	2.22
391.915	123.05
392.125	102.57
392.334	14.51
392.544	96.43
392.753	121
392.963	61.61
393.172	90.28
393.382	90.28
393.591	96.43
393.801	100.52
394.01	121
394.22	123.05
394.429	14.51
394.639	47.27
394.848	45.23
395.058	133.29
395.267	104.62
395.477	80.04
395.686	57.51
395.895	61.61
396.105	82.09
396.314	53.42
396.524	20.65
396.733	104.62
396.942	102.57
397.152	65.71
397.361	131.24
397.57	127.14
397.78	65.71
397.989	118.95
398.198	118.95
398.407	121
398.617	100.52
398.826	45.23
399.035	49.32
399.244	127.14
399.453	88.23
399.663	118.95
399.872	118.95
400.081	18.6
400.29	129.19
400.499	28.84
400.708	155.82
400.917	114.86
401.127	73.9
401.336	55.47
401.545	172.2
401.754	137.38
401.963	153.77
402.172	118.95
402.381	125.1
402.59	92.33
402.799	96.43
403.008	102.57
403.217	77.99
403.426	98.47
403.635	77.99
403.844	127.14
404.053	231.59
404.262	100.52
404.471	170.15
404.68	100.52
404.888	153.77
405.097	90.28
405.306	65.71
405.515	168.1
405.724	98.47
405.933	129.19
406.142	149.67
406.35	149.67
406.559	112.81
406.768	69.8
406.977	217.26
407.185	194.73
407.394	170.15
407.603	151.72
407.812	147.62
408.02	198.82
408.229	131.24
408.438	166.06
408.646	116.9
408.855	231.59
409.064	276.65
409.272	159.91
409.481	192.68
409.69	217.26
409.898	209.06
410.107	227.5
410.315	202.92
410.524	282.79
410.733	262.31
410.941	217.26
411.15	379.04
411.358	323.75
411.567	346.28
411.775	342.18
411.984	297.13
412.192	315.56
412.401	317.61
412.609	413.86
412.818	383.14
413.026	436.39
413.234	360.61
413.443	422.05
413.651	393.38
413.86	366.76
414.068	450.72
414.276	463.01
414.485	493.73
414.693	559.27
414.901	528.55
415.11	491.68
415.318	481.44
415.526	551.07
415.734	596.13
415.943	602.27
416.151	647.33
416.359	575.65
416.567	667.81
416.776	702.62
416.984	714.91
417.192	753.82
417.4	729.25
417.608	749.73
417.817	766.11
418.025	802.97
418.233	831.65
418.441	854.17
418.649	829.6
418.857	929.95
419.065	932
419.273	975
419.481	999.58
419.689	1061.02
419.897	1075.35
420.105	1052.83
420.313	1194.14
420.521	1161.37
420.729	1151.13
420.937	1167.51
421.145	1314.97
421.353	1317.01
421.561	1380.5
421.769	1398.93
421.977	1472.66
422.185	1491.09
422.393	1487
422.601	1708.18
422.809	1659.03
423.017	1683.6
423.224	1839.25
423.432	1859.73
423.64	1773.71
423.848	1921.17
424.056	1953.93
424.263	2058.38
424.471	1972.36
424.679	2107.53
424.887	2195.59
425.094	2209.93
425.302	2283.66
425.51	2422.92
425.718	2482.31
425.925	2357.38
426.133	2519.17
426.341	2631.81
426.548	2703.49
426.756	2793.6
426.964	2877.57
427.171	3119.23
427.379	3006.59
427.586	3168.38
427.794	3174.52
428.001	3211.39
428.209	3442.81
428.417	3362.94
428.624	3752.05
428.832	3788.91
429.039	3745.91
429.247	3616.88
429.454	4083.82
429.662	4251.75
429.869	3954.8
430.076	4218.99
430.284	4163.69
430.491	4311.14
430.699	4591.72
430.906	4737.12
431.114	4733.03
431.321	4872.29
431.528	4970.59
431.736	5199.96
431.943	5425.24
432.15	5238.87
432.358	5361.75
432.565	5693.52
432.772	5505.11
432.979	6164.56
433.187	5929.04
433.394	6021.2
433.601	6316.11
433.808	6496.33
434.016	6545.48
434.223	6697.03
434.43	7163.97
434.637	7051.33
434.844	7252.03
435.052	7491.64
435.259	7565.37
435.466	7505.98
435.673	7499.83
435.88	8073.26
436.087	8468.52
436.294	8474.67
436.501	8228.91
436.708	8351.79
436.915	8435.75
437.122	8878.12
437.329	8802.34
437.537	9121.82
437.743	9377.82
437.95	9302.04
438.157	9764.89
438.364	10047.51
438.571	10104.85
438.778	10102.8
438.985	11100.16
439.192	10741.77
439.399	10905.6
439.606	10442.76
439.813	11479.04
440.02	11909.11
440.227	11876.34
440.433	11669.5
440.64	12113.91
440.847	12003.32
441.054	12218.35
441.261	13189.09
441.467	12967.91
441.674	13160.42
441.881	13694.94
442.088	13557.72
442.294	13285.34
442.501	13854.68
442.708	14319.57
442.914	14692.3
443.121	15327.17
443.328	14929.86
443.534	15796.15
443.741	15435.71
443.948	15089.6
444.154	16385.97
444.361	16138.16
444.568	16498.61
444.774	16371.63
444.981	16568.24
445.187	17039.27
445.394	17670.05
445.6	17786.78
445.807	19189.64
446.013	18370.45
446.22	18868.11
446.426	19369.86
446.633	19646.33
446.839	20221.81
447.046	19339.14
447.252	20371.32
447.459	20442.99
447.665	20320.12
447.871	21389.16
448.078	22140.76
448.284	21409.64
448.491	21806.94
448.697	22601.55
448.903	22925.13
449.11	23117.64
449.316	22482.77
449.522	23140.17
449.728	23789.38
449.935	24037.18
450.141	23750.46
450.347	24350.52
450.553	23830.34
450.76	24153.91
450.966	24657.71
451.172	24510.26
451.378	25110.32
451.584	24772.4
451.791	25358.12
451.997	25411.37
452.203	25949.98
452.409	25716.51
452.615	25532.2
452.821	24446.77
453.027	24344.38
453.233	25849.63
453.44	24688.43
453.646	25089.84
453.852	25157.42
454.058	25448.23
454.264	24794.93
454.47	25657.12
454.676	24577.84
454.882	25628.45
455.088	23322.44
455.294	23582.53
455.5	23992.12
455.705	24246.07
455.911	23349.06
456.117	22998.86
456.323	22560.59
456.529	21829.47
456.735	22619.99
456.941	21843.81
457.147	21786.46
457.352	21086.06
457.558	20789.1
457.764	20803.44
457.97	20244.34
458.176	19918.71
458.381	20127.61
458.587	18939.79
458.793	18935.69
458.999	18096.02
459.204	19036.04
459.41	18745.23
459.616	17588.13
459.821	17489.82
460.027	17502.11
460.233	17289.12
460.438	16232.37
460.644	16517.04
460.85	15701.95
461.055	15421.38
461.261	15634.36
461.466	14342.1
461.672	13770.71
461.878	14708.68
462.083	14012.37
462.289	13692.89
462.494	13350.88
462.7	12935.14
462.905	12582.89
463.111	12845.03
463.316	13088.74
463.522	12629.99
463.727	12818.41
463.932	12879.85
464.138	12492.78
464.343	12636.14
464.549	12367.85
464.754	12449.77
464.959	12423.15
465.165	12341.23
465.37	11964.4
465.575	11657.21
465.781	12216.3
465.986	12181.49
466.191	11503.61
466.397	11546.62
466.602	11046.91
466.807	11524.09
467.012	11268.09
467.218	11284.48
467.423	11169.79
467.628	11169.79
