Data from USB4F104151__229__14-45-37-205.txt Node

Date: Thu Mar 13 14:45:37 EDT 2025
User: louis
Spectrometer: USB4F10415
Trigger mode: 4
Integration Time (sec): 2.000000E-2
Scans to average: 1
Electric dark correction enabled: true
Nonlinearity correction enabled: false
Boxcar width: 0
XAxis mode: Wavelengths
Number of Pixels in Spectrum: 3648
>>>>>Begin Spectral Data<<<<<
178.204	-124.58
178.424	-124.58
178.644	-124.58
178.864	-132.78
179.084	-110.25
179.304	-36.52
179.524	-91.82
179.744	43.35
179.964	26.96
180.184	47.44
180.404	49.49
180.624	0.34
180.844	14.68
181.064	-26.28
181.283	18.77
181.503	-46.76
181.723	0.34
181.943	-40.62
182.163	125.27
182.383	-18.09
182.602	18.77
182.822	35.16
183.042	-36.52
183.262	10.58
183.482	24.92
183.701	-5.8
183.921	108.88
184.141	-124.58
184.361	29.01
184.58	29.01
184.8	22.87
185.02	41.3
185.239	51.54
185.459	43.35
185.679	2.39
185.898	-26.28
186.118	47.44
186.338	0.34
186.557	47.44
186.777	-50.86
186.997	6.49
187.216	24.92
187.436	0.34
187.655	-26.28
187.875	106.84
188.095	-48.81
188.314	-1.71
188.534	51.54
188.753	-40.62
188.973	51.54
189.192	57.68
189.412	-7.85
189.631	53.59
189.851	-3.75
190.07	104.79
190.29	16.73
190.509	43.35
190.729	0.34
190.948	67.92
191.168	100.69
191.387	76.12
191.607	8.53
191.826	14.68
192.045	2.39
192.265	45.4
192.484	18.77
192.704	-28.33
192.923	14.68
193.142	22.87
193.362	63.83
193.581	49.49
193.8	-46.76
194.02	63.83
194.239	24.92
194.458	59.73
194.678	6.49
194.897	31.06
195.116	-24.23
195.335	47.44
195.555	55.64
195.774	47.44
195.993	96.6
196.212	37.2
196.432	31.06
196.651	61.78
196.87	-24.23
197.089	135.51
197.308	35.16
197.528	-38.57
197.747	-18.09
197.966	39.25
198.185	0.34
198.404	0.34
198.623	31.06
198.842	-34.47
199.062	43.35
199.281	96.6
199.5	45.4
199.719	-42.67
199.938	49.49
200.157	104.79
200.376	-1.71
200.595	43.35
200.814	88.4
201.033	-11.95
201.252	0.34
201.471	6.49
201.69	41.3
201.909	117.08
202.128	2.39
202.347	80.21
202.566	57.68
202.785	4.44
203.004	2.39
203.223	104.79
203.442	10.58
203.661	63.83
203.879	14.68
204.098	22.87
204.317	-91.82
204.536	20.82
204.755	53.59
204.974	24.92
205.193	-40.62
205.411	61.78
205.63	88.4
205.849	0.34
206.068	14.68
206.287	-26.28
206.505	2.39
206.724	-83.63
206.943	-63.15
207.162	39.25
207.381	-5.8
207.599	-7.85
207.818	-5.8
208.037	0.34
208.255	8.53
208.474	39.25
208.693	49.49
208.911	10.58
209.13	41.3
209.349	-22.19
209.567	10.58
209.786	24.92
210.005	39.25
210.223	-20.14
210.442	-89.77
210.661	4.44
210.879	37.2
211.098	90.45
211.316	57.68
211.535	59.73
211.753	-40.62
211.972	49.49
212.191	-22.19
212.409	0.34
212.628	37.2
212.846	14.68
213.065	22.87
213.283	33.11
213.502	41.3
213.72	31.06
213.938	63.83
214.157	-11.95
214.375	4.44
214.594	41.3
214.812	37.2
215.031	39.25
215.249	33.11
215.467	80.21
215.686	47.44
215.904	47.44
216.122	59.73
216.341	88.4
216.559	29.01
216.778	63.83
216.996	-16.04
217.214	39.25
217.432	10.58
217.651	4.44
217.869	51.54
218.087	31.06
218.306	47.44
218.524	43.35
218.742	22.87
218.96	115.03
219.179	-1.71
219.397	10.58
219.615	14.68
219.833	96.6
220.051	2.39
220.27	92.5
220.488	31.06
220.706	96.6
220.924	8.53
221.142	16.73
221.36	39.25
221.578	14.68
221.796	8.53
222.015	-11.95
222.233	47.44
222.451	-18.09
222.669	-13.99
222.887	16.73
223.105	-30.38
223.323	31.06
223.541	41.3
223.759	-18.09
223.977	-24.23
224.195	31.06
224.413	61.78
224.631	104.79
224.849	74.07
225.067	125.27
225.285	10.58
225.503	-18.09
225.721	-22.19
225.939	-1.71
226.157	6.49
226.375	121.17
226.592	-22.19
226.81	6.49
227.028	26.96
227.246	22.87
227.464	-24.23
227.682	10.58
227.9	57.68
228.117	-5.8
228.335	10.58
228.553	69.97
228.771	31.06
228.989	26.96
229.206	63.83
229.424	108.88
229.642	-1.71
229.86	98.64
230.077	67.92
230.295	57.68
230.513	22.87
230.731	41.3
230.948	90.45
231.166	51.54
231.384	10.58
231.601	-24.23
231.819	49.49
232.037	2.39
232.254	-9.9
232.472	-28.33
232.689	-7.85
232.907	72.02
233.125	-9.9
233.342	-9.9
233.56	2.39
233.777	31.06
233.995	106.84
234.213	86.36
234.43	69.97
234.648	-9.9
234.865	2.39
235.083	69.97
235.3	14.68
235.518	57.68
235.735	90.45
235.953	-18.09
236.17	74.07
236.388	47.44
236.605	-13.99
236.822	0.34
237.04	31.06
237.257	37.2
237.475	39.25
237.692	8.53
237.909	43.35
238.127	20.82
238.344	24.92
238.562	45.4
238.779	72.02
238.996	-7.85
239.214	31.06
239.431	24.92
239.648	31.06
239.865	8.53
240.083	72.02
240.3	8.53
240.517	-42.67
240.735	-18.09
240.952	90.45
241.169	6.49
241.386	-7.85
241.603	-46.76
241.821	-9.9
242.038	22.87
242.255	39.25
242.472	-1.71
242.689	-26.28
242.907	88.4
243.124	51.54
243.341	0.34
243.558	0.34
243.775	76.12
243.992	-28.33
244.209	57.68
244.426	39.25
244.643	47.44
244.86	-1.71
245.078	35.16
245.295	39.25
245.512	31.06
245.729	-40.62
245.946	49.49
246.163	39.25
246.38	26.96
246.597	-59.05
246.814	-1.71
247.031	31.06
247.248	31.06
247.464	43.35
247.681	74.07
247.898	63.83
248.115	39.25
248.332	-38.57
248.549	74.07
248.766	35.16
248.983	61.78
249.2	0.34
249.417	10.58
249.633	41.3
249.85	-34.47
250.067	-13.99
250.284	-59.05
250.501	53.59
250.717	39.25
250.934	-34.47
251.151	80.21
251.368	18.77
251.585	82.26
251.801	2.39
252.018	33.11
252.235	12.63
252.451	6.49
252.668	-32.43
252.885	18.77
253.102	31.06
253.318	55.64
253.535	-48.81
253.752	22.87
253.968	-34.47
254.185	26.96
254.401	69.97
254.618	8.53
254.835	-73.39
255.051	88.4
255.268	33.11
255.484	-9.9
255.701	-1.71
255.917	8.53
256.134	2.39
256.351	57.68
256.567	-1.71
256.784	74.07
257	2.39
257.217	24.92
257.433	74.07
257.65	-9.9
257.866	18.77
258.082	-26.28
258.299	-1.71
258.515	63.83
258.732	-40.62
258.948	-34.47
259.165	16.73
259.381	31.06
259.597	47.44
259.814	63.83
260.03	33.11
260.246	41.3
260.463	84.31
260.679	57.68
260.895	-13.99
261.112	69.97
261.328	31.06
261.544	-1.71
261.761	92.5
261.977	0.34
262.193	-59.05
262.409	-65.19
262.626	2.39
262.842	41.3
263.058	-5.8
263.274	51.54
263.49	8.53
263.707	63.83
263.923	41.3
264.139	-24.23
264.355	-24.23
264.571	88.4
264.787	63.83
265.004	39.25
265.22	-18.09
265.436	63.83
265.652	-5.8
265.868	-32.43
266.084	24.92
266.3	72.02
266.516	51.54
266.732	33.11
266.948	-30.38
267.164	6.49
267.38	-34.47
267.596	10.58
267.812	49.49
268.028	26.96
268.244	-34.47
268.46	39.25
268.676	45.4
268.892	8.53
269.108	49.49
269.324	10.58
269.54	55.64
269.756	47.44
269.972	8.53
270.188	22.87
270.403	24.92
270.619	2.39
270.835	14.68
271.051	35.16
271.267	-9.9
271.483	-1.71
271.698	63.83
271.914	22.87
272.13	-5.8
272.346	49.49
272.562	74.07
272.777	53.59
272.993	16.73
273.209	10.58
273.425	-1.71
273.64	47.44
273.856	39.25
274.072	8.53
274.287	-20.14
274.503	84.31
274.719	-30.38
274.934	-44.71
275.15	-18.09
275.366	22.87
275.581	-22.19
275.797	41.3
276.012	-71.34
276.228	-46.76
276.444	22.87
276.659	41.3
276.875	-18.09
277.09	-32.43
277.306	-40.62
277.521	35.16
277.737	43.35
277.952	67.92
278.168	-5.8
278.383	49.49
278.599	10.58
278.814	41.3
279.03	88.4
279.245	29.01
279.461	76.12
279.676	24.92
279.892	33.11
280.107	90.45
280.322	-22.19
280.538	55.64
280.753	-65.19
280.969	47.44
281.184	35.16
281.399	98.64
281.615	-34.47
281.83	4.44
282.045	14.68
282.26	-13.99
282.476	-54.95
282.691	24.92
282.906	4.44
283.122	8.53
283.337	39.25
283.552	31.06
283.767	-1.71
283.983	10.58
284.198	45.4
284.413	10.58
284.628	-13.99
284.843	51.54
285.058	-71.34
285.274	76.12
285.489	6.49
285.704	33.11
285.919	57.68
286.134	-5.8
286.349	26.96
286.564	47.44
286.779	115.03
286.995	18.77
287.21	65.88
287.425	12.63
287.64	35.16
287.855	41.3
288.07	-42.67
288.285	63.83
288.5	22.87
288.715	90.45
288.93	49.49
289.145	-42.67
289.36	-18.09
289.575	31.06
289.79	41.3
290.004	-9.9
290.219	26.96
290.434	-34.47
290.649	10.58
290.864	-13.99
291.079	6.49
291.294	24.92
291.509	90.45
291.724	-28.33
291.938	-1.71
292.153	14.68
292.368	-18.09
292.583	31.06
292.798	63.83
293.012	65.88
293.227	29.01
293.442	-1.71
293.657	10.58
293.871	80.21
294.086	-42.67
294.301	57.68
294.516	8.53
294.73	72.02
294.945	18.77
295.16	88.4
295.374	67.92
295.589	-9.9
295.804	31.06
296.018	31.06
296.233	14.68
296.447	26.96
296.662	-46.76
296.877	96.6
297.091	-1.71
297.306	88.4
297.52	-7.85
297.735	-5.8
297.949	4.44
298.164	39.25
298.378	47.44
298.593	8.53
298.807	-9.9
299.022	-11.95
299.236	92.5
299.451	43.35
299.665	-30.38
299.88	22.87
300.094	35.16
300.309	-9.9
300.523	47.44
300.737	6.49
300.952	-1.71
301.166	67.92
301.381	14.68
301.595	22.87
301.809	-24.23
302.024	47.44
302.238	-34.47
302.452	29.01
302.667	-34.47
302.881	74.07
303.095	100.69
303.309	20.82
303.524	43.35
303.738	35.16
303.952	14.68
304.166	41.3
304.381	-48.81
304.595	39.25
304.809	26.96
305.023	53.59
305.237	-77.48
305.452	76.12
305.666	-18.09
305.88	-1.71
306.094	65.88
306.308	45.4
306.522	59.73
306.736	63.83
306.95	47.44
307.164	41.3
307.379	37.2
307.593	39.25
307.807	33.11
308.021	8.53
308.235	24.92
308.449	6.49
308.663	49.49
308.877	67.92
309.091	43.35
309.305	59.73
309.519	4.44
309.733	51.54
309.947	2.39
310.161	10.58
310.374	31.06
310.588	55.64
310.802	0.34
311.016	51.54
311.23	-16.04
311.444	86.36
311.658	24.92
311.872	57.68
312.085	55.64
312.299	47.44
312.513	49.49
312.727	-5.8
312.941	14.68
313.154	45.4
313.368	33.11
313.582	26.96
313.796	16.73
314.009	6.49
314.223	35.16
314.437	12.63
314.651	14.68
314.864	-9.9
315.078	31.06
315.292	10.58
315.505	-5.8
315.719	45.4
315.933	22.87
316.146	39.25
316.36	-13.99
316.573	33.11
316.787	6.49
317.001	92.5
317.214	0.34
317.428	96.6
317.641	4.44
317.855	-34.47
318.068	47.44
318.282	-1.71
318.495	123.22
318.709	-30.38
318.922	-18.09
319.136	31.06
319.349	117.08
319.563	8.53
319.776	43.35
319.99	-13.99
320.203	74.07
320.417	51.54
320.63	-1.71
320.843	72.02
321.057	59.73
321.27	55.64
321.483	72.02
321.697	72.02
321.91	33.11
322.124	-18.09
322.337	-32.43
322.55	-16.04
322.763	45.4
322.977	24.92
323.19	18.77
323.403	22.87
323.617	76.12
323.83	39.25
324.043	47.44
324.256	88.4
324.469	18.77
324.683	115.03
324.896	26.96
325.109	6.49
325.322	-24.23
325.535	35.16
325.748	-50.86
325.962	31.06
326.175	108.88
326.388	80.21
326.601	33.11
326.814	16.73
327.027	33.11
327.24	14.68
327.453	-48.81
327.666	-18.09
327.879	76.12
328.092	6.49
328.305	-5.8
328.518	-18.09
328.731	8.53
328.944	16.73
329.157	43.35
329.37	24.92
329.583	47.44
329.796	74.07
330.009	-63.15
330.222	90.45
330.435	57.68
330.648	59.73
330.861	129.36
331.073	0.34
331.286	-30.38
331.499	8.53
331.712	2.39
331.925	53.59
332.138	72.02
332.35	-24.23
332.563	22.87
332.776	104.79
332.989	35.16
333.202	31.06
333.414	2.39
333.627	-57
333.84	-52.91
334.053	55.64
334.265	39.25
334.478	-32.43
334.691	-9.9
334.903	31.06
335.116	35.16
335.329	2.39
335.541	80.21
335.754	125.27
335.966	-5.8
336.179	-7.85
336.392	-24.23
336.604	51.54
336.817	33.11
337.029	92.5
337.242	-13.99
337.454	61.78
337.667	26.96
337.88	59.73
338.092	45.4
338.305	47.44
338.517	12.63
338.729	106.84
338.942	67.92
339.154	6.49
339.367	-40.62
339.579	63.83
339.792	-63.15
340.004	-16.04
340.217	-42.67
340.429	10.58
340.641	55.64
340.854	-26.28
341.066	78.16
341.278	26.96
341.491	115.03
341.703	80.21
341.915	41.3
342.128	14.68
342.34	8.53
342.552	39.25
342.764	67.92
342.977	16.73
343.189	61.78
343.401	72.02
343.613	26.96
343.826	20.82
344.038	37.2
344.25	-13.99
344.462	-34.47
344.674	-5.8
344.886	-7.85
345.099	8.53
345.311	31.06
345.523	14.68
345.735	-57
345.947	-26.28
346.159	22.87
346.371	0.34
346.583	-11.95
346.795	96.6
347.007	14.68
347.219	129.36
347.431	37.2
347.643	129.36
347.855	-7.85
348.067	-5.8
348.279	-59.05
348.491	18.77
348.703	-7.85
348.915	63.83
349.127	14.68
349.339	47.44
349.551	-22.19
349.763	31.06
349.975	-40.62
350.187	49.49
350.399	63.83
350.61	43.35
350.822	-38.57
351.034	72.02
351.246	31.06
351.458	10.58
351.669	-18.09
351.881	41.3
352.093	125.27
352.305	26.96
352.517	88.4
352.728	47.44
352.94	31.06
353.152	39.25
353.363	-42.67
353.575	6.49
353.787	47.44
353.999	65.88
354.21	43.35
354.422	-42.67
354.633	-1.71
354.845	104.79
355.057	31.06
355.268	39.25
355.48	22.87
355.692	57.68
355.903	-5.8
356.115	6.49
356.326	-7.85
356.538	82.26
356.749	14.68
356.961	69.97
357.172	14.68
357.384	6.49
357.595	94.55
357.807	6.49
358.018	6.49
358.23	8.53
358.441	67.92
358.653	80.21
358.864	6.49
359.075	59.73
359.287	72.02
359.498	65.88
359.709	86.36
359.921	20.82
360.132	67.92
360.344	39.25
360.555	16.73
360.766	-34.47
360.977	37.2
361.189	104.79
361.4	16.73
361.611	14.68
361.823	39.25
362.034	67.92
362.245	-9.9
362.456	22.87
362.667	24.92
362.879	24.92
363.09	100.69
363.301	49.49
363.512	24.92
363.723	-18.09
363.935	43.35
364.146	72.02
364.357	16.73
364.568	90.45
364.779	31.06
364.99	57.68
365.201	72.02
365.412	55.64
365.623	-1.71
365.834	14.68
366.045	-9.9
366.256	16.73
366.467	31.06
366.678	43.35
366.889	29.01
367.1	74.07
367.311	-18.09
367.522	43.35
367.733	0.34
367.944	12.63
368.155	-7.85
368.366	6.49
368.577	35.16
368.788	84.31
368.999	-24.23
369.209	98.64
369.42	80.21
369.631	104.79
369.842	-11.95
370.053	18.77
370.264	-18.09
370.474	0.34
370.685	-30.38
370.896	18.77
371.107	47.44
371.317	14.68
371.528	22.87
371.739	45.4
371.95	63.83
372.16	88.4
372.371	-38.57
372.582	16.73
372.792	84.31
373.003	39.25
373.214	88.4
373.424	92.5
373.635	14.68
373.846	63.83
374.056	2.39
374.267	57.68
374.477	108.88
374.688	57.68
374.898	74.07
375.109	26.96
375.319	33.11
375.53	47.44
375.74	43.35
375.951	-16.04
376.161	-18.09
376.372	14.68
376.582	43.35
376.793	14.68
377.003	16.73
377.214	8.53
377.424	-32.43
377.635	-24.23
377.845	33.11
378.055	35.16
378.266	-7.85
378.476	55.64
378.686	16.73
378.897	39.25
379.107	-34.47
379.317	31.06
379.528	51.54
379.738	63.83
379.948	-28.33
380.158	4.44
380.369	35.16
380.579	72.02
380.789	51.54
380.999	0.34
381.21	14.68
381.42	86.36
381.63	-16.04
381.84	43.35
382.05	82.26
382.261	39.25
382.471	-9.9
382.681	55.64
382.891	47.44
383.101	35.16
383.311	-73.39
383.521	39.25
383.731	14.68
383.941	74.07
384.151	-24.23
384.361	104.79
384.571	29.01
384.781	67.92
384.991	76.12
385.201	74.07
385.411	39.25
385.621	2.39
385.831	31.06
386.041	22.87
386.251	84.31
386.461	43.35
386.671	78.16
386.881	104.79
387.091	78.16
387.301	112.98
387.511	14.68
387.72	98.64
387.93	47.44
388.14	-34.47
388.35	69.97
388.56	88.4
388.769	41.3
388.979	67.92
389.189	-50.86
389.399	39.25
389.609	-13.99
389.818	-7.85
390.028	80.21
390.238	55.64
390.447	55.64
390.657	10.58
390.867	6.49
391.076	39.25
391.286	31.06
391.496	47.44
391.705	26.96
391.915	41.3
392.125	33.11
392.334	29.01
392.544	61.78
392.753	33.11
392.963	51.54
393.172	47.44
393.382	47.44
393.591	74.07
393.801	35.16
394.01	96.6
394.22	37.2
394.429	53.59
394.639	37.2
394.848	-9.9
395.058	20.82
395.267	26.96
395.477	14.68
395.686	63.83
395.895	104.79
396.105	112.98
396.314	102.74
396.524	-5.8
396.733	39.25
396.942	69.97
397.152	0.34
397.361	45.4
397.57	106.84
397.78	74.07
397.989	94.55
398.198	123.22
398.407	35.16
398.617	16.73
398.826	100.69
399.035	-42.67
399.244	123.22
399.453	72.02
399.663	117.08
399.872	43.35
400.081	49.49
400.29	84.31
400.499	14.68
400.708	49.49
400.917	72.02
401.127	88.4
401.336	39.25
401.545	139.6
401.754	121.17
401.963	139.6
402.172	82.26
402.381	51.54
402.59	115.03
402.799	49.49
403.008	47.44
403.217	76.12
403.426	67.92
403.635	55.64
403.844	59.73
404.053	57.68
404.262	55.64
404.471	129.36
404.68	98.64
404.888	90.45
405.097	39.25
405.306	164.18
405.515	100.69
405.724	129.36
405.933	158.03
406.142	129.36
406.35	131.41
406.559	84.31
406.768	123.22
406.977	145.75
407.185	166.23
407.394	170.32
407.603	129.36
407.812	166.23
408.02	170.32
408.229	170.32
408.438	213.33
408.646	80.21
408.855	158.03
409.064	84.31
409.272	211.28
409.481	194.9
409.69	188.75
409.898	178.51
410.107	160.08
410.315	211.28
410.524	174.42
410.733	186.71
410.941	221.52
411.15	282.96
411.358	252.24
411.567	289.1
411.775	262.48
411.984	260.43
412.192	362.83
412.401	237.91
412.609	325.97
412.818	352.59
413.026	205.14
413.234	317.78
413.443	391.5
413.651	295.25
413.86	360.78
414.068	371.02
414.276	446.8
414.485	352.59
414.693	498
414.901	432.46
415.11	416.08
415.318	465.23
415.526	424.27
415.734	461.13
415.943	469.33
416.151	489.81
416.359	491.85
416.567	579.92
416.776	588.11
416.984	504.14
417.192	672.08
417.4	594.25
417.608	502.09
417.817	694.6
418.025	665.93
418.233	799.05
418.441	788.81
418.649	731.47
418.857	741.71
419.065	805.19
419.273	739.66
419.481	960.84
419.689	878.92
419.897	1014.09
420.105	1020.23
420.313	983.37
420.521	966.98
420.729	1048.9
420.937	1057.09
421.145	1079.62
421.353	1130.82
421.561	1306.95
421.769	1149.25
421.977	1259.84
422.185	1399.1
422.393	1374.53
422.601	1456.45
422.809	1347.9
423.017	1460.54
423.224	1476.93
423.432	1513.79
423.64	1491.26
423.848	1702.2
424.056	1677.63
424.263	1837.37
424.471	1759.55
424.679	1775.93
424.887	1820.99
425.094	2076.98
425.302	1952.06
425.51	2021.69
425.718	2119.99
425.925	2206
426.133	2261.3
426.341	2339.12
426.548	2543.92
426.756	2382.13
426.964	2531.63
427.171	2636.08
427.379	2650.41
427.586	2713.9
427.794	2818.35
428.001	2840.87
428.209	3068.2
428.417	3086.63
428.624	3254.56
428.832	3252.52
429.039	3129.64
429.247	3123.49
429.454	3465.5
429.662	3643.68
429.869	3455.26
430.076	3840.28
430.284	3629.34
430.491	3858.71
430.699	3993.88
430.906	4055.32
431.114	4053.27
431.321	4145.43
431.528	4266.26
431.736	4442.39
431.943	4774.16
432.15	4677.9
432.358	4548.88
432.565	4970.76
432.772	4950.28
432.979	5163.27
433.187	5306.63
433.394	5169.41
433.601	5613.82
433.808	5654.78
434.016	5701.89
434.223	5800.19
434.43	6076.66
434.637	6021.37
434.844	6263.03
435.052	6570.23
435.259	6566.13
435.466	6697.2
435.673	6521.07
435.88	6969.58
436.087	7381.22
436.294	7260.39
436.501	7264.49
436.708	7352.55
436.915	7475.43
437.122	7846.11
437.329	7715.04
437.537	8118.49
437.743	8186.07
437.95	8167.64
438.157	8630.48
438.364	8890.57
438.571	8657.11
438.778	8968.4
438.985	9740.48
439.192	9312.46
439.399	9599.17
439.606	9601.22
439.813	9799.87
440.02	10416.31
440.227	10387.64
440.433	10150.07
440.64	10582.2
440.847	10430.65
441.054	10799.28
441.261	11356.33
441.467	11425.96
441.674	11483.3
441.881	11915.42
442.088	11911.33
442.294	11772.07
442.501	12066.97
442.708	12425.37
442.914	12859.54
443.121	13539.46
443.328	12974.22
443.534	13887.62
443.741	13516.94
443.948	13154.44
444.154	14235.77
444.361	14133.37
444.568	14368.89
444.774	14231.68
444.981	14334.07
445.187	14899.31
445.394	15452.27
445.6	15186.03
445.807	16844.88
446.013	16068.7
446.22	16412.76
446.426	17184.85
446.633	17369.16
446.839	17659.98
447.046	16965.71
447.252	17991.75
447.459	18006.08
447.665	18145.34
447.871	18681.91
448.078	19531.82
448.284	18526.27
448.491	18944.05
448.697	19804.2
448.903	20344.86
449.11	20295.71
449.316	19793.96
449.522	20394.01
449.728	21159.95
449.935	21135.38
450.141	21047.32
450.347	21587.98
450.553	20822.04
450.76	21153.81
450.966	21913.61
451.172	21657.61
451.378	22468.61
451.584	21606.41
451.791	22075.4
451.997	21866.5
452.203	22562.81
452.409	22413.31
452.615	22593.53
452.821	21923.85
453.027	21547.02
453.233	22706.17
453.44	21829.64
453.646	22491.13
453.852	21968.9
454.058	22343.68
454.264	21641.23
454.47	22736.89
454.676	21774.35
454.882	22484.99
455.088	20602.91
455.294	20559.9
455.5	21491.73
455.705	21307.41
455.911	20391.97
456.117	20240.42
456.323	20039.72
456.529	18855.99
456.735	20115.49
456.941	19185.71
457.147	19120.18
457.352	18475.07
457.558	18022.47
457.764	18376.76
457.97	18049.09
458.176	17631.3
458.381	17641.54
458.587	16760.92
458.793	16642.14
458.999	16048.22
459.204	16930.9
459.41	16699.48
459.616	15587.43
459.821	15470.7
460.027	15466.6
460.233	15327.34
460.438	14559.35
460.644	14680.18
460.85	13809.79
461.055	13860.99
461.261	13768.84
461.466	12769.43
461.672	12314.78
461.878	13203.6
462.083	12241.05
462.289	12083.36
462.494	11847.84
462.7	11428.01
462.905	11034.8
463.111	11628.71
463.316	11339.94
463.522	11305.13
463.727	11331.75
463.932	11270.31
464.138	11118.76
464.343	11182.25
464.549	10932.4
464.754	11212.97
464.959	11055.28
465.165	10995.89
465.37	10531
465.575	10346.68
465.781	10631.35
465.986	10782.9
466.191	10217.66
466.397	10053.82
466.602	9502.92
466.807	9982.14
467.012	10115.26
467.218	10041.53
467.423	9846.98
467.628	9922.75
467.833	10107.07
468.038	9914.56
468.244	9611.46
468.449	9834.69
468.654	9584.84
468.859	9640.13
