Data from USB4F104151__299__14-46-32-772.txt Node

Date: Thu Mar 13 14:46:32 EDT 2025
User: louis
Spectrometer: USB4F10415
Trigger mode: 4
Integration Time (sec): 2.000000E-2
Scans to average: 1
Electric dark correction enabled: true
Nonlinearity correction enabled: false
Boxcar width: 0
XAxis mode: Wavelengths
Number of Pixels in Spectrum: 3648
>>>>>Begin Spectral Data<<<<<
178.204	-159.57
178.424	-159.57
178.644	-159.57
178.864	-143.19
179.084	-126.8
179.304	37.03
179.524	-8.02
179.744	-40.79
179.964	-3.93
180.184	14.51
180.404	-44.88
180.624	41.13
180.844	28.84
181.064	-34.64
181.283	6.31
181.503	-16.21
181.723	20.65
181.943	-53.08
182.163	30.89
182.383	2.22
182.602	20.65
182.822	-67.41
183.042	16.55
183.262	-12.12
183.482	-44.88
183.701	75.95
183.921	28.84
184.141	71.85
184.361	65.71
184.58	-61.27
184.8	-36.69
185.02	-28.5
185.239	102.57
185.459	20.65
185.679	28.84
185.898	-42.84
186.118	20.65
186.338	26.79
186.557	102.57
186.777	37.03
186.997	-69.46
187.216	-3.93
187.436	94.38
187.655	34.99
187.875	-12.12
188.095	8.36
188.314	-28.5
188.534	20.65
188.753	-30.55
188.973	51.37
189.192	34.99
189.412	37.03
189.631	14.51
189.851	-3.93
190.07	8.36
190.29	-18.26
190.509	94.38
190.729	63.66
190.948	37.03
191.168	139.43
191.387	100.52
191.607	10.41
191.826	32.94
192.045	-28.5
192.265	73.9
192.484	-20.31
192.704	80.04
192.923	37.03
193.142	45.23
193.362	16.55
193.581	37.03
193.8	12.46
194.02	135.34
194.239	2.22
194.458	45.23
194.678	12.46
194.897	43.18
195.116	39.08
195.335	84.14
195.555	53.42
195.774	41.13
195.993	26.79
196.212	30.89
196.432	8.36
196.651	37.03
196.87	4.27
197.089	71.85
197.308	57.51
197.528	53.42
197.747	-44.88
197.966	-3.93
198.185	45.23
198.404	-30.55
198.623	65.71
198.842	82.09
199.062	14.51
199.281	63.66
199.5	20.65
199.719	-26.45
199.938	10.41
200.157	43.18
200.376	49.32
200.595	61.61
200.814	57.51
201.033	-3.93
201.252	22.7
201.471	16.55
201.69	32.94
201.909	-12.12
202.128	-14.17
202.347	-10.07
202.566	-30.55
202.785	24.75
203.004	37.03
203.223	61.61
203.442	84.14
203.661	41.13
203.879	137.38
204.098	45.23
204.317	-16.21
204.536	-61.27
204.755	75.95
204.974	67.75
205.193	53.42
205.411	94.38
205.63	32.94
205.849	45.23
206.068	71.85
206.287	-1.88
206.505	39.08
206.724	53.42
206.943	-16.21
207.162	-57.17
207.381	-67.41
207.599	-12.12
207.818	45.23
208.037	96.43
208.255	-32.6
208.474	37.03
208.693	-44.88
208.911	-79.7
209.13	67.75
209.349	92.33
209.567	37.03
209.786	71.85
210.005	-14.17
210.223	32.94
210.442	-34.64
210.661	4.27
210.879	-8.02
211.098	37.03
211.316	16.55
211.535	65.71
211.753	30.89
211.972	-26.45
212.191	-12.12
212.409	-28.5
212.628	61.61
212.846	0.17
213.065	20.65
213.283	116.9
213.502	45.23
213.72	-16.21
213.938	-14.17
214.157	20.65
214.375	37.03
214.594	-28.5
214.812	53.42
215.031	55.47
215.249	30.89
215.467	12.46
215.686	102.57
215.904	63.66
216.122	-12.12
216.341	69.8
216.559	28.84
216.778	100.52
216.996	53.42
217.214	4.27
217.432	-34.64
217.651	-53.08
217.869	30.89
218.087	102.57
218.306	-12.12
218.524	71.85
218.742	0.17
218.96	14.51
219.179	41.13
219.397	24.75
219.615	-8.02
219.833	71.85
220.051	41.13
220.27	30.89
220.488	49.32
220.706	118.95
220.924	4.27
221.142	57.51
221.36	69.8
221.578	47.27
221.796	20.65
222.015	39.08
222.233	-48.98
222.451	30.89
222.669	20.65
222.887	43.18
223.105	8.36
223.323	63.66
223.541	51.37
223.759	0.17
223.977	86.19
224.195	102.57
224.413	16.55
224.631	12.46
224.849	8.36
225.067	14.51
225.285	-40.79
225.503	-3.93
225.721	-3.93
225.939	32.94
226.157	20.65
226.375	96.43
226.592	0.17
226.81	4.27
227.028	28.84
227.246	63.66
227.464	37.03
227.682	45.23
227.9	-12.12
228.117	12.46
228.335	20.65
228.553	90.28
228.771	55.47
228.989	69.8
229.206	20.65
229.424	-26.45
229.642	32.94
229.86	6.31
230.077	45.23
230.295	28.84
230.513	20.65
230.731	-24.4
230.948	14.51
231.166	39.08
231.384	4.27
231.601	45.23
231.819	80.04
232.037	-12.12
232.254	-20.31
232.472	-40.79
232.689	2.22
232.907	90.28
233.125	-61.27
233.342	0.17
233.56	47.27
233.777	43.18
233.995	51.37
234.213	32.94
234.43	-3.93
234.648	55.47
234.865	2.22
235.083	4.27
235.3	-28.5
235.518	24.75
235.735	4.27
235.953	69.8
236.17	-40.79
236.388	106.67
236.605	-30.55
236.822	86.19
237.04	69.8
237.257	92.33
237.475	26.79
237.692	32.94
237.909	28.84
238.127	53.42
238.344	6.31
238.562	61.61
238.779	55.47
238.996	6.31
239.214	77.99
239.431	28.84
239.648	-10.07
239.865	20.65
240.083	30.89
240.3	80.04
240.517	-59.22
240.735	-1.88
240.952	65.71
241.169	55.47
241.386	-46.93
241.603	-3.93
241.821	-10.07
242.038	28.84
242.255	-12.12
242.472	-3.93
242.689	-12.12
242.907	102.57
243.124	32.94
243.341	-3.93
243.558	20.65
243.775	45.23
243.992	-44.88
244.209	55.47
244.426	110.76
244.643	39.08
244.86	12.46
245.078	47.27
245.295	69.8
245.512	10.41
245.729	-32.6
245.946	118.95
246.163	-36.69
246.38	71.85
246.597	37.03
246.814	8.36
247.031	22.7
247.248	20.65
247.464	4.27
247.681	4.27
247.898	41.13
248.115	45.23
248.332	-14.17
248.549	-8.02
248.766	57.51
248.983	28.84
249.2	14.51
249.417	41.13
249.633	4.27
249.85	39.08
250.067	28.84
250.284	12.46
250.501	57.51
250.717	-16.21
250.934	34.99
251.151	-5.97
251.368	-12.12
251.585	6.31
251.801	82.09
252.018	28.84
252.235	71.85
252.451	-73.56
252.668	71.85
252.885	20.65
253.102	-38.74
253.318	14.51
253.535	16.55
253.752	32.94
253.968	14.51
254.185	-51.03
254.401	55.47
254.618	-28.5
254.835	-65.36
255.051	80.04
255.268	24.75
255.484	63.66
255.701	-3.93
255.917	49.32
256.134	-16.21
256.351	32.94
256.567	14.51
256.784	61.61
257	14.51
257.217	47.27
257.433	55.47
257.65	45.23
257.866	59.56
258.082	63.66
258.299	14.51
258.515	39.08
258.732	39.08
258.948	0.17
259.165	45.23
259.381	69.8
259.597	-40.79
259.814	41.13
260.03	59.56
260.246	61.61
260.463	12.46
260.679	61.61
260.895	-8.02
261.112	-28.5
261.328	47.27
261.544	32.94
261.761	-3.93
261.977	-12.12
262.193	-100.18
262.409	16.55
262.626	86.19
262.842	20.65
263.058	-8.02
263.274	12.46
263.49	-20.31
263.707	55.47
263.923	-85.84
264.139	-36.69
264.355	47.27
264.571	77.99
264.787	73.9
265.004	16.55
265.22	12.46
265.436	94.38
265.652	12.46
265.868	30.89
266.084	84.14
266.3	22.7
266.516	-75.6
266.732	47.27
266.948	90.28
267.164	67.75
267.38	26.79
267.596	-16.21
267.812	37.03
268.028	-28.5
268.244	39.08
268.46	8.36
268.676	14.51
268.892	61.61
269.108	-36.69
269.324	59.56
269.54	20.65
269.756	63.66
269.972	53.42
270.188	-12.12
270.403	-28.5
270.619	14.51
270.835	39.08
271.051	4.27
271.267	-20.31
271.483	12.46
271.698	10.41
271.914	28.84
272.13	-12.12
272.346	10.41
272.562	-30.55
272.777	6.31
272.993	-40.79
273.209	-36.69
273.425	77.99
273.64	8.36
273.856	20.65
274.072	67.75
274.287	12.46
274.503	-32.6
274.719	6.31
274.934	-51.03
275.15	0.17
275.366	102.57
275.581	6.31
275.797	86.19
276.012	-18.26
276.228	4.27
276.444	-12.12
276.659	43.18
276.875	-28.5
277.09	61.61
277.306	4.27
277.521	4.27
277.737	-8.02
277.952	71.85
278.168	-3.93
278.383	49.32
278.599	-34.64
278.814	53.42
279.03	47.27
279.245	-34.64
279.461	41.13
279.676	30.89
279.892	-110.42
280.107	-26.45
280.322	41.13
280.538	2.22
280.753	-18.26
280.969	121
281.184	32.94
281.399	86.19
281.615	71.85
281.83	24.75
282.045	-1.88
282.26	63.66
282.476	-53.08
282.691	96.43
282.906	22.7
283.122	22.7
283.337	-77.65
283.552	8.36
283.767	28.84
283.983	65.71
284.198	20.65
284.413	69.8
284.628	0.17
284.843	32.94
285.058	39.08
285.274	77.99
285.489	8.36
285.704	32.94
285.919	41.13
286.134	37.03
286.349	57.51
286.564	24.75
286.779	39.08
286.995	45.23
287.21	-44.88
287.425	94.38
287.64	-3.93
287.855	39.08
288.07	57.51
288.285	32.94
288.5	53.42
288.715	96.43
288.93	73.9
289.145	20.65
289.36	28.84
289.575	-42.84
289.79	123.05
290.004	4.27
290.219	-34.64
290.434	39.08
290.649	-32.6
290.864	-3.93
291.079	16.55
291.294	0.17
291.509	16.55
291.724	4.27
291.938	69.8
292.153	-14.17
292.368	47.27
292.583	63.66
292.798	10.41
293.012	20.65
293.227	8.36
293.442	14.51
293.657	106.67
293.871	28.84
294.086	-3.93
294.301	98.47
294.516	0.17
294.73	16.55
294.945	-36.69
295.16	37.03
295.374	69.8
295.589	110.76
295.804	53.42
296.018	47.27
296.233	82.09
296.447	90.28
296.662	28.84
296.877	121
297.091	30.89
297.306	-22.36
297.52	8.36
297.735	69.8
297.949	30.89
298.164	61.61
298.378	8.36
298.593	41.13
298.807	-40.79
299.022	100.52
299.236	80.04
299.451	37.03
299.665	41.13
299.88	53.42
300.094	63.66
300.309	4.27
300.523	-28.5
300.737	14.51
300.952	-26.45
301.166	37.03
301.381	-22.36
301.595	2.22
301.809	32.94
302.024	24.75
302.238	-36.69
302.452	12.46
302.667	-59.22
302.881	73.9
303.095	-3.93
303.309	84.14
303.524	16.55
303.738	80.04
303.952	80.04
304.166	49.32
304.381	4.27
304.595	112.81
304.809	61.61
305.023	55.47
305.237	63.66
305.452	71.85
305.666	12.46
305.88	22.7
306.094	75.95
306.308	6.31
306.522	90.28
306.736	73.9
306.95	24.75
307.164	-8.02
307.379	-3.93
307.593	14.51
307.807	8.36
308.021	37.03
308.235	-44.88
308.449	20.65
308.663	22.7
308.877	63.66
309.091	80.04
309.305	57.51
309.519	-12.12
309.733	39.08
309.947	-51.03
310.161	30.89
310.374	22.7
310.588	61.61
310.802	14.51
311.016	14.51
311.23	41.13
311.444	-16.21
311.658	12.46
311.872	16.55
312.085	55.47
312.299	22.7
312.513	37.03
312.727	16.55
312.941	6.31
313.154	94.38
313.368	14.51
313.582	12.46
313.796	20.65
314.009	6.31
314.223	53.42
314.437	20.65
314.651	-1.88
314.864	12.46
315.078	-46.93
315.292	20.65
315.505	-36.69
315.719	47.27
315.933	61.61
316.146	14.51
316.36	-20.31
316.573	200.87
316.787	2.22
317.001	41.13
317.214	57.51
317.428	57.51
317.641	-14.17
317.855	39.08
318.068	4.27
318.282	28.84
318.495	55.47
318.709	2.22
318.922	14.51
319.136	77.99
319.349	24.75
319.563	73.9
319.776	6.31
319.99	-12.12
320.203	20.65
320.417	37.03
320.63	92.33
320.843	-28.5
321.057	41.13
321.27	28.84
321.483	20.65
321.697	39.08
321.91	94.38
322.124	-20.31
322.337	37.03
322.55	8.36
322.763	49.32
322.977	88.23
323.19	0.17
323.403	20.65
323.617	98.47
323.83	45.23
324.043	-20.31
324.256	-28.5
324.469	86.19
324.683	65.71
324.896	-3.93
325.109	80.04
325.322	-20.31
325.535	71.85
325.748	41.13
325.962	-53.08
326.175	73.9
326.388	53.42
326.601	24.75
326.814	37.03
327.027	6.31
327.24	41.13
327.453	-14.17
327.666	49.32
327.879	10.41
328.092	47.27
328.305	41.13
328.518	39.08
328.731	0.17
328.944	65.71
329.157	14.51
329.37	12.46
329.583	123.05
329.796	86.19
330.009	28.84
330.222	108.71
330.435	16.55
330.648	-44.88
330.861	102.57
331.073	39.08
331.286	-1.88
331.499	30.89
331.712	26.79
331.925	30.89
332.138	49.32
332.35	61.61
332.563	-75.6
332.776	55.47
332.989	71.85
333.202	-28.5
333.414	-28.5
333.627	2.22
333.84	-12.12
334.053	41.13
334.265	-8.02
334.478	41.13
334.691	61.61
334.903	53.42
335.116	20.65
335.329	67.75
335.541	24.75
335.754	57.51
335.966	-51.03
336.179	77.99
336.392	6.31
336.604	24.75
336.817	30.89
337.029	6.31
337.242	100.52
337.454	32.94
337.667	32.94
337.88	131.24
338.092	84.14
338.305	102.57
338.517	57.51
338.729	73.9
338.942	59.56
339.154	2.22
339.367	28.84
339.579	39.08
339.792	39.08
340.004	41.13
340.217	-24.4
340.429	28.84
340.641	28.84
340.854	0.17
341.066	90.28
341.278	18.6
341.491	108.71
341.703	37.03
341.915	20.65
342.128	53.42
342.34	-16.21
342.552	-10.07
342.764	94.38
342.977	-44.88
343.189	-53.08
343.401	67.75
343.613	61.61
343.826	39.08
344.038	4.27
344.25	-34.64
344.462	12.46
344.674	28.84
344.886	55.47
345.099	4.27
345.311	51.37
345.523	0.17
345.735	20.65
345.947	12.46
346.159	4.27
346.371	30.89
346.583	12.46
346.795	110.76
347.007	4.27
347.219	34.99
347.431	-44.88
347.643	90.28
347.855	-30.55
348.067	82.09
348.279	88.23
348.491	30.89
348.703	26.79
348.915	94.38
349.127	4.27
349.339	53.42
349.551	20.65
349.763	41.13
349.975	-8.02
350.187	30.89
350.399	22.7
350.61	-28.5
350.822	61.61
351.034	82.09
351.246	-44.88
351.458	24.75
351.669	-5.97
351.881	20.65
352.093	43.18
352.305	55.47
352.517	16.55
352.728	104.62
352.94	12.46
353.152	10.41
353.363	-3.93
353.575	39.08
353.787	49.32
353.999	24.75
354.21	104.62
354.422	39.08
354.633	61.61
354.845	47.27
355.057	39.08
355.268	59.56
355.48	-40.79
355.692	45.23
355.903	-1.88
356.115	69.8
356.326	-36.69
356.538	53.42
356.749	39.08
356.961	53.42
357.172	18.6
357.384	-16.21
357.595	82.09
357.807	-1.88
358.018	-3.93
358.23	49.32
358.441	47.27
358.653	10.41
358.864	61.61
359.075	37.03
359.287	-12.12
359.498	63.66
359.709	28.84
359.921	-8.02
360.132	28.84
360.344	0.17
360.555	12.46
360.766	39.08
360.977	-28.5
361.189	61.61
361.4	45.23
361.611	47.27
361.823	41.13
362.034	49.32
362.245	-65.36
362.456	49.32
362.667	63.66
362.879	22.7
363.09	0.17
363.301	73.9
363.512	-36.69
363.723	12.46
363.935	12.46
364.146	37.03
364.357	94.38
364.568	41.13
364.779	-3.93
364.99	45.23
365.201	47.27
365.412	2.22
365.623	-59.22
365.834	41.13
366.045	-77.65
366.256	61.61
366.467	59.56
366.678	-34.64
366.889	24.75
367.1	-12.12
367.311	28.84
367.522	47.27
367.733	45.23
367.944	49.32
368.155	-61.27
368.366	57.51
368.577	71.85
368.788	37.03
368.999	-3.93
369.209	63.66
369.42	104.62
369.631	170.15
369.842	69.8
370.053	77.99
370.264	41.13
370.474	12.46
370.685	-14.17
370.896	77.99
371.107	45.23
371.317	61.61
371.528	-22.36
371.739	77.99
371.95	86.19
372.16	47.27
372.371	28.84
372.582	6.31
372.792	143.53
373.003	6.31
373.214	45.23
373.424	30.89
373.635	-48.98
373.846	71.85
374.056	47.27
374.267	37.03
374.477	59.56
374.688	30.89
374.898	0.17
375.109	4.27
375.319	71.85
375.53	71.85
375.74	-34.64
375.951	-1.88
376.161	12.46
376.372	88.23
376.582	8.36
376.793	32.94
377.003	12.46
377.214	61.61
377.424	67.75
377.635	77.99
377.845	61.61
378.055	45.23
378.266	-81.75
378.476	22.7
378.686	59.56
378.897	55.47
379.107	55.47
379.317	45.23
379.528	41.13
379.738	69.8
379.948	71.85
380.158	6.31
380.369	30.89
380.579	71.85
380.789	-24.4
380.999	39.08
381.21	34.99
381.42	61.61
381.63	20.65
381.84	8.36
382.05	32.94
382.261	77.99
382.471	65.71
382.681	45.23
382.891	39.08
383.101	100.52
383.311	-24.4
383.521	10.41
383.731	92.33
383.941	-28.5
384.151	-20.31
384.361	16.55
384.571	37.03
384.781	-3.93
384.991	39.08
385.201	112.81
385.411	73.9
385.621	20.65
385.831	69.8
386.041	102.57
386.251	43.18
386.461	39.08
386.671	73.9
386.881	55.47
387.091	45.23
387.301	77.99
387.511	-20.31
387.72	73.9
387.93	84.14
388.14	8.36
388.35	73.9
388.56	71.85
388.769	39.08
388.979	47.27
389.189	12.46
389.399	14.51
389.609	77.99
389.818	26.79
390.028	20.65
390.238	20.65
390.447	6.31
390.657	57.51
390.867	16.55
391.076	37.03
391.286	80.04
391.496	-14.17
391.705	-34.64
391.915	80.04
392.125	100.52
392.334	12.46
392.544	61.61
392.753	47.27
392.963	28.84
393.172	77.99
393.382	26.79
393.591	61.61
393.801	26.79
394.01	88.23
394.22	37.03
394.429	41.13
394.639	16.55
394.848	137.38
395.058	24.75
395.267	77.99
395.477	61.61
395.686	8.36
395.895	94.38
396.105	141.48
396.314	28.84
396.524	96.43
396.733	51.37
396.942	26.79
397.152	45.23
397.361	47.27
397.57	88.23
397.78	63.66
397.989	22.7
398.198	45.23
398.407	-12.12
398.617	53.42
398.826	0.17
399.035	4.27
399.244	28.84
399.453	4.27
399.663	53.42
399.872	45.23
400.081	96.43
400.29	67.75
400.499	45.23
400.708	39.08
400.917	53.42
401.127	94.38
401.336	106.67
401.545	69.8
401.754	94.38
401.963	77.99
402.172	20.65
402.381	0.17
402.59	14.51
402.799	86.19
403.008	100.52
403.217	86.19
403.426	32.94
403.635	86.19
403.844	53.42
404.053	102.57
404.262	92.33
404.471	143.53
404.68	80.04
404.888	151.72
405.097	8.36
405.306	104.62
405.515	121
405.724	106.67
405.933	94.38
406.142	145.58
406.35	51.37
406.559	41.13
406.768	20.65
406.977	153.77
407.185	123.05
407.394	153.77
407.603	143.53
407.812	118.95
408.02	135.34
408.229	45.23
408.438	135.34
408.646	118.95
408.855	98.47
409.064	184.49
409.272	168.1
409.481	147.62
409.69	207.02
409.898	123.05
410.107	190.63
410.315	129.19
410.524	127.14
410.733	233.64
410.941	176.3
411.15	161.96
411.358	170.15
411.567	204.97
411.775	112.81
411.984	186.54
412.192	303.27
412.401	186.54
412.609	252.07
412.818	290.98
413.026	299.17
413.234	258.21
413.443	241.83
413.651	258.21
413.86	274.6
414.068	254.12
414.276	290.98
414.485	323.75
414.693	348.33
414.901	350.37
415.11	409.76
415.318	364.71
415.526	274.6
415.734	454.82
415.943	329.89
416.151	377
416.359	391.33
416.567	458.92
416.776	479.4
416.984	520.35
417.192	483.49
417.4	534.69
417.608	463.01
417.817	503.97
418.025	602.27
418.233	645.28
418.441	610.47
418.649	587.94
418.857	737.44
419.065	698.53
419.273	626.85
419.481	727.2
419.689	735.39
419.897	786.59
420.105	780.45
420.313	823.45
420.521	839.84
420.729	782.49
420.937	809.12
421.145	872.61
421.353	895.13
421.561	1003.68
421.769	968.86
421.977	1110.17
422.185	1044.63
422.393	1110.17
422.601	1177.75
422.809	1196.18
423.017	1216.66
423.224	1245.34
423.432	1228.95
423.64	1319.06
423.848	1368.21
424.056	1319.06
424.263	1431.7
424.471	1458.32
424.679	1587.35
424.887	1546.39
425.094	1702.03
425.302	1695.89
425.51	1585.3
425.718	1712.27
425.925	1747.09
426.133	1876.11
426.341	1822.86
426.548	2050.19
426.756	1972.36
426.964	2039.95
427.171	2062.48
427.379	2119.82
427.586	2236.55
427.794	2205.83
428.001	2404.49
428.209	2588.8
428.417	2556.04
428.624	2537.6
428.832	2510.98
429.039	2625.67
429.247	2627.71
429.454	2863.23
429.662	3027.07
429.869	2887.81
430.076	3147.9
430.284	3045.5
430.491	3072.12
430.699	3276.92
430.906	3203.19
431.114	3301.5
431.321	3479.67
431.528	3434.61
431.736	3846.26
431.943	3840.11
432.15	3807.34
432.358	3805.3
432.565	4028.53
432.772	3942.51
432.979	4118.64
433.187	4247.66
433.394	4249.71
433.601	4577.38
433.808	4642.92
434.016	4546.66
434.223	4870.24
434.43	5050.46
434.637	5034.08
434.844	5253.21
435.052	5337.18
435.259	5349.47
435.466	5451.86
435.673	5240.92
435.88	5703.76
436.087	5894.22
436.294	5918.8
436.501	5720.15
436.708	5935.18
436.915	6148.17
437.122	6291.53
437.329	6262.86
437.537	6533.19
437.743	6639.69
437.95	6664.26
438.157	7041.09
438.364	7401.53
438.571	7051.33
438.778	7272.51
438.985	8071.22
439.192	7573.56
439.399	7852.08
439.606	7622.71
439.813	8120.37
440.02	8601.64
440.227	8280.11
440.433	8347.69
440.64	8675.37
440.847	8552.49
441.054	8693.8
441.261	9275.42
441.467	9195.55
441.674	9447.45
441.881	9617.43
442.088	9758.74
442.294	9834.52
442.501	9990.16
442.708	10008.59
442.914	10319.89
443.121	10969.09
443.328	10549.26
443.534	11425.79
443.741	10948.61
443.948	10709
444.154	11644.92
444.361	11548.67
444.568	11687.93
444.774	11710.46
444.981	11972.6
445.187	12251.12
445.394	12543.98
445.6	12580.84
445.807	13715.42
446.013	13182.95
446.22	13463.52
446.426	13762.52
446.633	14217.17
446.839	14493.65
447.046	13633.5
447.252	14794.7
447.459	14686.15
447.665	14731.21
447.871	15128.52
448.078	15783.87
448.284	15298.5
448.491	15605.69
448.697	15916.98
448.903	16488.37
449.11	16510.89
449.316	16148.4
449.522	16371.63
449.728	17180.58
449.935	17002.41
450.141	17313.7
450.347	17436.58
450.553	16998.31
450.76	17338.27
450.966	17827.74
451.172	17774.49
451.378	18030.49
451.584	17887.13
451.791	18098.07
451.997	18182.04
452.203	18378.64
452.409	18272.15
452.615	18302.87
452.821	17741.72
453.027	17379.23
453.233	18411.41
453.44	17536.93
453.646	17973.14
453.852	18116.5
454.058	18263.96
454.264	17821.59
454.47	18407.31
454.676	18024.34
454.882	18528.14
455.088	16826.28
455.294	17276.84
455.5	17584.03
455.705	17813.4
455.911	16822.19
456.117	16461.74
456.323	16373.68
456.529	15628.22
456.735	16498.61
456.941	15767.48
457.147	15519.68
457.352	15060.93
457.558	15142.85
457.764	14876.62
457.97	14749.64
458.176	14579.66
458.381	14520.27
458.587	13854.68
458.793	13826.01
458.999	13176.8
459.204	14186.45
459.41	13604.83
459.616	12838.89
459.821	12754.92
460.027	12664.81
460.233	12519.4
460.438	11859.96
460.644	12081.14
460.85	11313.15
461.055	11096.07
461.261	11343.87
461.466	10418.19
461.672	10158.1
461.878	10731.53
462.083	9981.97
462.289	9719.83
462.494	9840.66
462.7	9502.75
462.905	9277.47
463.111	9566.23
463.316	9472.03
463.522	9343
463.727	9300
463.932	9469.98
464.138	9138.21
464.343	9283.61
464.549	8990.75
464.754	9293.85
464.959	9017.38
465.165	9138.21
465.37	8593.45
465.575	8413.23
465.781	9023.52
465.986	8876.07
466.191	8433.71
466.397	8214.57
466.602	7909.43
466.807	8380.46
467.012	8372.27
467.218	8192.05
467.423	7944.24
467.628	7991.34
467.833	8441.9
468.038	8124.46
468.244	7845.94
468.449	8220.72
468.654	8028.21
468.859	7921.71
