Data from USB4F104151__309__14-46-42-870.txt Node

Date: Thu Mar 13 14:46:42 EDT 2025
User: louis
Spectrometer: USB4F10415
Trigger mode: 4
Integration Time (sec): 2.000000E-2
Scans to average: 1
Electric dark correction enabled: true
Nonlinearity correction enabled: false
Boxcar width: 0
XAxis mode: Wavelengths
Number of Pixels in Spectrum: 3648
>>>>>Begin Spectral Data<<<<<
178.204	-124.76
178.424	-124.76
178.644	-124.76
178.864	-157.52
179.084	-128.85
179.304	-5.97
179.524	39.08
179.744	0.17
179.964	57.51
180.184	-42.84
180.404	-38.74
180.624	37.03
180.844	-26.45
181.064	-83.8
181.283	45.23
181.503	14.51
181.723	4.27
181.943	22.7
182.163	10.41
182.383	2.22
182.602	65.71
182.822	96.43
183.042	63.66
183.262	-16.21
183.482	39.08
183.701	-18.26
183.921	-16.21
184.141	55.47
184.361	63.66
184.58	34.99
184.8	39.08
185.02	-24.4
185.239	65.71
185.459	14.51
185.679	43.18
185.898	45.23
186.118	106.67
186.338	-22.36
186.557	67.75
186.777	22.7
186.997	-34.64
187.216	39.08
187.436	88.23
187.655	75.95
187.875	39.08
188.095	-1.88
188.314	47.27
188.534	92.33
188.753	24.75
188.973	-10.07
189.192	116.9
189.412	14.51
189.631	10.41
189.851	-18.26
190.07	147.62
190.29	-1.88
190.509	6.31
190.729	-12.12
190.948	53.42
191.168	123.05
191.387	96.43
191.607	41.13
191.826	-14.17
192.045	34.99
192.265	-24.4
192.484	-40.79
192.704	96.43
192.923	18.6
193.142	71.85
193.362	22.7
193.581	71.85
193.8	43.18
194.02	90.28
194.239	-5.97
194.458	-42.84
194.678	8.36
194.897	37.03
195.116	-14.17
195.335	22.7
195.555	14.51
195.774	30.89
195.993	0.17
196.212	22.7
196.432	-42.84
196.651	55.47
196.87	24.75
197.089	57.51
197.308	30.89
197.528	51.37
197.747	-42.84
197.966	-5.97
198.185	121
198.404	-16.21
198.623	39.08
198.842	37.03
199.062	14.51
199.281	43.18
199.5	-1.88
199.719	16.55
199.938	6.31
200.157	84.14
200.376	4.27
200.595	-38.74
200.814	-26.45
201.033	-5.97
201.252	149.67
201.471	82.09
201.69	65.71
201.909	-30.55
202.128	22.7
202.347	-3.93
202.566	2.22
202.785	0.17
203.004	-48.98
203.223	123.05
203.442	10.41
203.661	77.99
203.879	34.99
204.098	12.46
204.317	6.31
204.536	43.18
204.755	-51.03
204.974	-5.97
205.193	41.13
205.411	92.33
205.63	37.03
205.849	51.37
206.068	32.94
206.287	-1.88
206.505	18.6
206.724	53.42
206.943	-5.97
207.162	-48.98
207.381	67.75
207.599	24.75
207.818	61.61
208.037	-1.88
208.255	-22.36
208.474	49.32
208.693	30.89
208.911	63.66
209.13	63.66
209.349	92.33
209.567	47.27
209.786	69.8
210.005	-18.26
210.223	75.95
210.442	16.55
210.661	-10.07
210.879	104.62
211.098	6.31
211.316	18.6
211.535	30.89
211.753	10.41
211.972	86.19
212.191	34.99
212.409	75.95
212.628	96.43
212.846	26.79
213.065	-14.17
213.283	69.8
213.502	-28.5
213.72	39.08
213.938	73.9
214.157	39.08
214.375	14.51
214.594	-14.17
214.812	14.51
215.031	55.47
215.249	22.7
215.467	-22.36
215.686	-10.07
215.904	32.94
216.122	82.09
216.341	-24.4
216.559	6.31
216.778	63.66
216.996	63.66
217.214	-3.93
217.432	-18.26
217.651	-16.21
217.869	22.7
218.087	-18.26
218.306	18.6
218.524	30.89
218.742	12.46
218.96	61.61
219.179	12.46
219.397	55.47
219.615	98.47
219.833	90.28
220.051	-3.93
220.27	98.47
220.488	24.75
220.706	59.56
220.924	88.23
221.142	-34.64
221.36	-24.4
221.578	67.75
221.796	71.85
222.015	82.09
222.233	2.22
222.451	69.8
222.669	-8.02
222.887	55.47
223.105	34.99
223.323	-1.88
223.541	-34.64
223.759	49.32
223.977	41.13
224.195	39.08
224.413	-16.21
224.631	20.65
224.849	-26.45
225.067	96.43
225.285	-10.07
225.503	2.22
225.721	-55.12
225.939	28.84
226.157	-34.64
226.375	22.7
226.592	-10.07
226.81	47.27
227.028	108.71
227.246	28.84
227.464	22.7
227.682	65.71
227.9	28.84
228.117	104.62
228.335	22.7
228.553	47.27
228.771	82.09
228.989	24.75
229.206	39.08
229.424	16.55
229.642	-14.17
229.86	37.03
230.077	39.08
230.295	41.13
230.513	63.66
230.731	49.32
230.948	22.7
231.166	88.23
231.384	22.7
231.601	49.32
231.819	39.08
232.037	-18.26
232.254	2.22
232.472	10.41
232.689	-63.32
232.907	73.9
233.125	-16.21
233.342	65.71
233.56	71.85
233.777	-18.26
233.995	8.36
234.213	22.7
234.43	-40.79
234.648	26.79
234.865	28.84
235.083	-10.07
235.3	30.89
235.518	55.47
235.735	100.52
235.953	57.51
236.17	-24.4
236.388	32.94
236.605	47.27
236.822	20.65
237.04	71.85
237.257	71.85
237.475	32.94
237.692	12.46
237.909	43.18
238.127	-1.88
238.344	0.17
238.562	63.66
238.779	-40.79
238.996	8.36
239.214	43.18
239.431	88.23
239.648	-36.69
239.865	6.31
240.083	43.18
240.3	-8.02
240.517	71.85
240.735	-22.36
240.952	47.27
241.169	96.43
241.386	53.42
241.603	-14.17
241.821	-24.4
242.038	-32.6
242.255	137.38
242.472	-30.55
242.689	26.79
242.907	-67.41
243.124	14.51
243.341	116.9
243.558	16.55
243.775	30.89
243.992	-10.07
244.209	139.43
244.426	30.89
244.643	39.08
244.86	-46.93
245.078	30.89
245.295	63.66
245.512	18.6
245.729	39.08
245.946	32.94
246.163	88.23
246.38	22.7
246.597	28.84
246.814	16.55
247.031	61.61
247.248	-24.4
247.464	-42.84
247.681	26.79
247.898	-14.17
248.115	90.28
248.332	47.27
248.549	88.23
248.766	71.85
248.983	51.37
249.2	57.51
249.417	73.9
249.633	178.34
249.85	22.7
250.067	-48.98
250.284	39.08
250.501	37.03
250.717	98.47
250.934	-40.79
251.151	43.18
251.368	26.79
251.585	16.55
251.801	22.7
252.018	-48.98
252.235	-10.07
252.451	45.23
252.668	-32.6
252.885	75.95
253.102	16.55
253.318	51.37
253.535	-16.21
253.752	94.38
253.968	22.7
254.185	73.9
254.401	-38.74
254.618	63.66
254.835	6.31
255.051	96.43
255.268	-51.03
255.484	-48.98
255.701	84.14
255.917	49.32
256.134	39.08
256.351	45.23
256.567	-5.97
256.784	55.47
257	55.47
257.217	34.99
257.433	14.51
257.65	-10.07
257.866	-10.07
258.082	32.94
258.299	6.31
258.515	-8.02
258.732	90.28
258.948	30.89
259.165	-38.74
259.381	-22.36
259.597	49.32
259.814	96.43
260.03	71.85
260.246	-5.97
260.463	75.95
260.679	30.89
260.895	12.46
261.112	57.51
261.328	90.28
261.544	-26.45
261.761	102.57
261.977	2.22
262.193	-91.99
262.409	16.55
262.626	47.27
262.842	-10.07
263.058	28.84
263.274	6.31
263.49	-34.64
263.707	32.94
263.923	-51.03
264.139	39.08
264.355	-34.64
264.571	114.86
264.787	14.51
265.004	69.8
265.22	-59.22
265.436	-10.07
265.652	-14.17
265.868	-10.07
266.084	-5.97
266.3	43.18
266.516	-20.31
266.732	10.41
266.948	100.52
267.164	16.55
267.38	71.85
267.596	-24.4
267.812	67.75
268.028	43.18
268.244	-51.03
268.46	51.37
268.676	32.94
268.892	39.08
269.108	-20.31
269.324	-26.45
269.54	-22.36
269.756	12.46
269.972	10.41
270.188	39.08
270.403	-40.79
270.619	-8.02
270.835	18.6
271.051	71.85
271.267	63.66
271.483	-1.88
271.698	104.62
271.914	43.18
272.13	39.08
272.346	-8.02
272.562	-5.97
272.777	88.23
272.993	-1.88
273.209	6.31
273.425	6.31
273.64	-8.02
273.856	39.08
274.072	96.43
274.287	-38.74
274.503	67.75
274.719	47.27
274.934	-24.4
275.15	47.27
275.366	71.85
275.581	43.18
275.797	26.79
276.012	49.32
276.228	10.41
276.444	2.22
276.659	55.47
276.875	86.19
277.09	96.43
277.306	-1.88
277.521	8.36
277.737	26.79
277.952	6.31
278.168	71.85
278.383	22.7
278.599	94.38
278.814	43.18
279.03	22.7
279.245	16.55
279.461	-1.88
279.676	43.18
279.892	34.99
280.107	-1.88
280.322	55.47
280.538	41.13
280.753	-42.84
280.969	98.47
281.184	28.84
281.399	102.57
281.615	37.03
281.83	39.08
282.045	-65.36
282.26	-38.74
282.476	2.22
282.691	55.47
282.906	-1.88
283.122	24.75
283.337	65.71
283.552	90.28
283.767	-16.21
283.983	82.09
284.198	12.46
284.413	63.66
284.628	-91.99
284.843	-16.21
285.058	39.08
285.274	71.85
285.489	41.13
285.704	63.66
285.919	43.18
286.134	-3.93
286.349	92.33
286.564	59.56
286.779	67.75
286.995	18.6
287.21	10.41
287.425	8.36
287.64	82.09
287.855	80.04
288.07	-42.84
288.285	125.1
288.5	43.18
288.715	129.19
288.93	57.51
289.145	43.18
289.36	22.7
289.575	28.84
289.79	34.99
290.004	55.47
290.219	49.32
290.434	88.23
290.649	-1.88
290.864	59.56
291.079	22.7
291.294	39.08
291.509	-59.22
291.724	24.75
291.938	-18.26
292.153	82.09
292.368	37.03
292.583	88.23
292.798	63.66
293.012	73.9
293.227	39.08
293.442	-12.12
293.657	45.23
293.871	104.62
294.086	-10.07
294.301	-26.45
294.516	75.95
294.73	51.37
294.945	32.94
295.16	49.32
295.374	59.56
295.589	16.55
295.804	39.08
296.018	127.14
296.233	82.09
296.447	24.75
296.662	-30.55
296.877	65.71
297.091	28.84
297.306	41.13
297.52	63.66
297.735	63.66
297.949	-3.93
298.164	12.46
298.378	104.62
298.593	73.9
298.807	30.89
299.022	49.32
299.236	22.7
299.451	80.04
299.665	4.27
299.88	47.27
300.094	12.46
300.309	6.31
300.523	39.08
300.737	10.41
300.952	80.04
301.166	80.04
301.381	49.32
301.595	63.66
301.809	30.89
302.024	-1.88
302.238	14.51
302.452	30.89
302.667	34.99
302.881	75.95
303.095	125.1
303.309	88.23
303.524	8.36
303.738	10.41
303.952	30.89
304.166	12.46
304.381	-8.02
304.595	39.08
304.809	80.04
305.023	57.51
305.237	2.22
305.452	45.23
305.666	39.08
305.88	63.66
306.094	82.09
306.308	73.9
306.522	88.23
306.736	47.27
306.95	61.61
307.164	51.37
307.379	57.51
307.593	51.37
307.807	28.84
308.021	39.08
308.235	82.09
308.449	-44.88
308.663	47.27
308.877	139.43
309.091	-8.02
309.305	125.1
309.519	-16.21
309.733	28.84
309.947	-57.17
310.161	90.28
310.374	55.47
310.588	63.66
310.802	-16.21
311.016	-14.17
311.23	6.31
311.444	37.03
311.658	30.89
311.872	63.66
312.085	6.31
312.299	51.37
312.513	80.04
312.727	41.13
312.941	51.37
313.154	88.23
313.368	-8.02
313.582	34.99
313.796	37.03
314.009	-10.07
314.223	63.66
314.437	84.14
314.651	57.51
314.864	94.38
315.078	-59.22
315.292	30.89
315.505	67.75
315.719	98.47
315.933	63.66
316.146	61.61
316.36	57.51
316.573	80.04
316.787	0.17
317.001	-18.26
317.214	47.27
317.428	8.36
317.641	94.38
317.855	63.66
318.068	-26.45
318.282	-18.26
318.495	43.18
318.709	77.99
318.922	41.13
319.136	104.62
319.349	47.27
319.563	47.27
319.776	30.89
319.99	57.51
320.203	-10.07
320.417	98.47
320.63	55.47
320.843	77.99
321.057	14.51
321.27	39.08
321.483	16.55
321.697	98.47
321.91	65.71
322.124	55.47
322.337	59.56
322.55	61.61
322.763	18.6
322.977	-3.93
323.19	6.31
323.403	14.51
323.617	47.27
323.83	32.94
324.043	6.31
324.256	80.04
324.469	47.27
324.683	-26.45
324.896	-3.93
325.109	22.7
325.322	2.22
325.535	8.36
325.748	47.27
325.962	22.7
326.175	71.85
326.388	73.9
326.601	77.99
326.814	77.99
327.027	2.22
327.24	65.71
327.453	-40.79
327.666	41.13
327.879	71.85
328.092	61.61
328.305	53.42
328.518	61.61
328.731	-3.93
328.944	69.8
329.157	75.95
329.37	71.85
329.583	80.04
329.796	55.47
330.009	-24.4
330.222	112.81
330.435	112.81
330.648	73.9
330.861	22.7
331.073	6.31
331.286	77.99
331.499	63.66
331.712	-22.36
331.925	37.03
332.138	41.13
332.35	125.1
332.563	49.32
332.776	63.66
332.989	8.36
333.202	37.03
333.414	51.37
333.627	6.31
333.84	55.47
334.053	92.33
334.265	51.37
334.478	16.55
334.691	30.89
334.903	-26.45
335.116	-14.17
335.329	104.62
335.541	41.13
335.754	57.51
335.966	-1.88
336.179	28.84
336.392	30.89
336.604	65.71
336.817	53.42
337.029	-34.64
337.242	12.46
337.454	43.18
337.667	51.37
337.88	98.47
338.092	67.75
338.305	22.7
338.517	-26.45
338.729	49.32
338.942	75.95
339.154	-5.97
339.367	2.22
339.579	61.61
339.792	14.51
340.004	63.66
340.217	71.85
340.429	24.75
340.641	8.36
340.854	-38.74
341.066	67.75
341.278	112.81
341.491	90.28
341.703	-8.02
341.915	41.13
342.128	51.37
342.34	49.32
342.552	41.13
342.764	-5.97
342.977	6.31
343.189	88.23
343.401	104.62
343.613	8.36
343.826	47.27
344.038	-10.07
344.25	49.32
344.462	-3.93
344.674	16.55
344.886	41.13
345.099	53.42
345.311	22.7
345.523	14.51
345.735	10.41
345.947	39.08
346.159	-3.93
346.371	8.36
346.583	30.89
346.795	88.23
347.007	96.43
347.219	10.41
347.431	49.32
347.643	59.56
347.855	-61.27
348.067	92.33
348.279	2.22
348.491	16.55
348.703	55.47
348.915	24.75
349.127	22.7
349.339	16.55
349.551	45.23
349.763	22.7
349.975	39.08
350.187	75.95
350.399	-5.97
350.61	14.51
350.822	47.27
351.034	-42.84
351.246	22.7
351.458	39.08
351.669	57.51
351.881	88.23
352.093	26.79
352.305	112.81
352.517	71.85
352.728	55.47
352.94	80.04
353.152	80.04
353.363	0.17
353.575	73.9
353.787	90.28
353.999	14.51
354.21	92.33
354.422	65.71
354.633	55.47
354.845	32.94
355.057	-8.02
355.268	94.38
355.48	32.94
355.692	-16.21
355.903	20.65
356.115	82.09
356.326	47.27
356.538	114.86
356.749	43.18
356.961	63.66
357.172	6.31
357.384	16.55
357.595	6.31
357.807	30.89
358.018	39.08
358.23	18.6
358.441	88.23
358.653	129.19
358.864	22.7
359.075	0.17
359.287	71.85
359.498	55.47
359.709	106.67
359.921	73.9
360.132	18.6
360.344	61.61
360.555	-61.27
360.766	55.47
360.977	112.81
361.189	-1.88
361.4	37.03
361.611	133.29
361.823	34.99
362.034	112.81
362.245	32.94
362.456	34.99
362.667	2.22
362.879	-1.88
363.09	71.85
363.301	34.99
363.512	71.85
363.723	-1.88
363.935	0.17
364.146	57.51
364.357	43.18
364.568	108.71
364.779	37.03
364.99	39.08
365.201	-26.45
365.412	114.86
365.623	34.99
365.834	49.32
366.045	22.7
366.256	102.57
366.467	71.85
366.678	39.08
366.889	45.23
367.1	0.17
367.311	80.04
367.522	69.8
367.733	47.27
367.944	67.75
368.155	47.27
368.366	24.75
368.577	106.67
368.788	176.3
368.999	41.13
369.209	-10.07
369.42	96.43
369.631	129.19
369.842	71.85
370.053	63.66
370.264	125.1
370.474	39.08
370.685	30.89
370.896	49.32
371.107	34.99
371.317	86.19
371.528	16.55
371.739	65.71
371.95	2.22
372.16	129.19
372.371	-18.26
372.582	45.23
372.792	8.36
373.003	8.36
373.214	39.08
373.424	121
373.635	20.65
373.846	98.47
374.056	67.75
374.267	32.94
374.477	41.13
374.688	37.03
374.898	96.43
375.109	161.96
375.319	-10.07
375.53	116.9
375.74	32.94
375.951	-1.88
376.161	47.27
376.372	84.14
376.582	67.75
376.793	114.86
377.003	96.43
377.214	24.75
377.424	32.94
377.635	14.51
377.845	47.27
378.055	108.71
378.266	26.79
378.476	14.51
378.686	-42.84
378.897	55.47
379.107	43.18
379.317	10.41
379.528	30.89
379.738	49.32
379.948	26.79
380.158	104.62
380.369	34.99
380.579	4.27
380.789	22.7
380.999	65.71
381.21	86.19
381.42	63.66
381.63	43.18
381.84	10.41
382.05	16.55
382.261	102.57
382.471	112.81
382.681	32.94
382.891	51.37
383.101	84.14
383.311	22.7
383.521	41.13
383.731	55.47
383.941	39.08
384.151	65.71
384.361	73.9
384.571	96.43
384.781	82.09
384.991	123.05
385.201	73.9
385.411	8.36
385.621	39.08
385.831	63.66
386.041	80.04
386.251	82.09
386.461	63.66
386.671	-32.6
386.881	82.09
387.091	63.66
387.301	47.27
387.511	125.1
387.72	51.37
387.93	67.75
388.14	24.75
388.35	0.17
388.56	73.9
388.769	69.8
388.979	39.08
389.189	22.7
389.399	108.71
389.609	96.43
389.818	22.7
390.028	106.67
390.238	41.13
390.447	75.95
390.657	96.43
390.867	63.66
391.076	8.36
391.286	51.37
391.496	2.22
391.705	69.8
391.915	30.89
392.125	80.04
392.334	14.51
392.544	67.75
392.753	121
392.963	24.75
393.172	61.61
393.382	73.9
393.591	129.19
393.801	-26.45
394.01	245.93
394.22	137.38
394.429	71.85
394.639	106.67
394.848	110.76
395.058	106.67
395.267	39.08
395.477	30.89
395.686	127.14
395.895	53.42
396.105	49.32
396.314	100.52
396.524	63.66
396.733	28.84
396.942	80.04
397.152	133.29
397.361	75.95
397.57	137.38
397.78	69.8
397.989	63.66
398.198	147.62
398.407	55.47
398.617	55.47
398.826	80.04
399.035	53.42
399.244	71.85
399.453	28.84
399.663	164.01
399.872	80.04
400.081	63.66
400.29	145.58
400.499	53.42
400.708	161.96
400.917	30.89
401.127	55.47
401.336	80.04
401.545	88.23
401.754	164.01
401.963	147.62
402.172	116.9
402.381	110.76
402.59	166.06
402.799	106.67
403.008	174.25
403.217	121
403.426	141.48
403.635	67.75
403.844	135.34
404.053	-20.31
404.262	123.05
404.471	172.2
404.68	164.01
404.888	82.09
405.097	108.71
405.306	98.47
405.515	131.24
405.724	215.21
405.933	157.86
406.142	104.62
406.35	190.63
406.559	172.2
406.768	262.31
406.977	182.44
407.185	260.26
407.394	112.81
407.603	204.97
407.812	129.19
408.02	178.34
408.229	194.73
408.438	225.45
408.646	190.63
408.855	217.26
409.064	260.26
409.272	192.68
409.481	299.17
409.69	245.93
409.898	256.17
410.107	229.54
410.315	252.07
410.524	309.41
410.733	243.88
410.941	303.27
411.15	295.08
411.358	354.47
411.567	422.05
411.775	350.37
411.984	362.66
412.192	385.19
412.401	377
412.609	377
412.818	516.26
413.026	370.85
413.234	465.06
413.443	434.34
413.651	489.64
413.86	526.5
414.068	598.18
414.276	645.28
414.485	516.26
414.693	692.38
414.901	575.65
415.11	592.03
415.318	549.03
415.526	702.62
415.734	686.24
415.943	682.14
416.151	776.35
416.359	682.14
416.567	739.49
416.776	800.93
416.984	819.36
417.192	766.11
417.4	854.17
417.608	876.7
417.817	901.28
418.025	1022.11
418.233	1011.87
418.441	981.15
418.649	1026.2
418.857	1155.23
419.065	1165.46
419.273	1095.83
419.481	1292.44
419.689	1224.86
419.897	1261.72
420.105	1255.58
420.313	1448.08
420.521	1427.6
420.729	1521.81
420.937	1554.58
421.145	1499.28
421.353	1562.77
421.561	1767.57
421.769	1718.42
421.977	1794.19
422.185	1722.51
422.393	1845.39
422.601	2123.91
422.809	2013.32
423.017	1927.31
423.224	2033.8
423.432	2205.83
423.64	2277.51
423.848	2302.09
424.056	2306.18
424.263	2508.93
424.471	2517.12
424.679	2531.46
424.887	2709.63
425.094	2656.39
425.302	2799.74
425.51	2900.09
425.718	3008.64
425.925	2990.21
426.133	2992.25
426.341	3260.54
426.548	3489.91
426.756	3307.64
426.964	3381.37
427.171	3690.61
427.379	3750
427.586	3713.14
427.794	3858.54
428.001	4208.75
428.209	4210.79
428.417	4274.28
428.624	4511.85
428.832	4444.26
429.039	4419.69
429.247	4393.06
429.454	4841.57
429.662	5159
429.869	4776.03
430.076	5261.4
430.284	5034.08
430.491	5240.92
430.699	5578.84
430.906	5728.34
431.114	5595.22
431.321	5935.18
431.528	6113.36
431.736	6234.19
431.943	6694.98
432.15	6389.83
432.358	6572.1
432.565	6946.88
432.772	6772.8
432.979	7159.87
433.187	7284.8
433.394	7252.03
433.601	7909.43
433.808	8159.28
434.016	7915.57
434.223	7960.63
434.43	8460.33
434.637	8282.16
434.844	8966.18
435.052	9117.73
435.259	9050.14
435.466	9168.93
435.673	9093.15
435.88	9658.39
436.087	10078.22
436.294	10043.41
436.501	9730.07
436.708	10237.97
436.915	10377.23
437.122	10954.76
437.329	10942.47
437.537	11171.84
437.743	11317.25
437.95	11407.36
438.157	11753.46
438.364	12271.6
438.571	12380.14
438.778	12193.78
438.985	13576.16
439.192	13109.22
439.399	13260.77
439.606	12990.44
439.813	13948.89
440.02	14692.3
440.227	14047.19
440.433	14327.76
440.64	14776.27
440.847	14587.85
441.054	15024.07
441.261	15962.04
441.467	15689.66
441.674	15990.71
441.881	16369.58
442.088	16361.39
442.294	16418.74
442.501	16764.84
442.708	17135.53
442.914	18044.82
443.121	18519.95
443.328	18118.55
443.534	19201.93
443.741	18745.23
443.948	18329.49
444.154	19906.43
444.361	19834.75
444.568	19920.76
444.774	19847.04
444.981	20113.27
445.187	20721.52
445.394	21405.54
445.6	21239.65
445.807	23334.73
446.013	22280.02
446.22	22384.47
446.426	23484.23
446.633	23889.73
446.839	24835.89
447.046	23306.06
447.252	24940.33
447.459	24760.11
447.665	24696.63
447.871	25796.39
448.078	26937.1
448.284	25745.19
448.491	26701.59
448.697	27356.94
448.903	28219.13
449.11	28405.5
449.316	27346.7
449.522	27989.76
449.728	28862.19
449.935	29183.73
450.141	28991.22
450.347	29714.15
450.553	28745.46
450.76	29124.33
450.966	30215.9
451.172	29705.96
451.378	30504.67
451.584	29677.29
451.791	30691.03
451.997	30813.91
452.203	31043.28
452.409	31252.17
452.615	31188.69
452.821	29933.28
453.027	29753.06
453.233	31074
453.44	30031.58
453.646	30535.38
453.852	30572.25
454.058	31098.58
454.264	30093.02
454.47	30639.83
454.676	29863.65
454.882	31227.6
455.088	28598.01
455.294	29347.56
455.5	29302.51
455.705	29628.13
455.911	28399.35
456.117	28006.14
456.323	27502.34
456.529	26113.82
456.735	27309.83
456.941	26449.69
457.147	26179.36
457.352	25644.84
457.558	25071.4
457.764	25354.02
457.97	25083.69
458.176	24399.67
458.381	24162.11
458.587	23232.33
458.793	23236.42
458.999	22021.98
459.204	23338.82
459.41	22699.86
459.616	21237.61
459.821	21641.06
460.027	21612.38
460.233	21034.86
460.438	19926.91
460.644	20340.6
460.85	19355.52
461.055	18556.82
461.261	18765.71
461.466	17493.92
461.672	16873.39
461.878	18257.81
462.083	16871.34
462.289	16736.17
462.494	16504.75
462.7	15769.53
462.905	15398.85
463.111	15945.66
463.316	16052.15
463.522	15275.97
463.727	15230.91
463.932	15613.88
464.138	15271.87
464.343	15548.35
464.549	14903.24
464.754	15437.76
464.959	15357.89
465.165	15130.56
465.37	14540.75
465.575	14155.73
465.781	14532.56
465.986	14858.18
466.191	14413.77
466.397	14067.67
466.602	13213.67
466.807	13862.87
467.012	13764.57
467.218	13748.18
467.423	13457.37
467.628	13660.12
