Data from USB4F104151__224__14-45-33-686.txt Node

Date: Thu Mar 13 14:45:33 EDT 2025
User: louis
Spectrometer: USB4F10415
Trigger mode: 4
Integration Time (sec): 2.000000E-2
Scans to average: 1
Electric dark correction enabled: true
Nonlinearity correction enabled: false
Boxcar width: 0
XAxis mode: Wavelengths
Number of Pixels in Spectrum: 3648
>>>>>Begin Spectral Data<<<<<
178.204	-131.41
178.424	-131.41
178.644	-131.41
178.864	-92.5
179.084	-119.12
179.304	-22.87
179.524	54.95
179.744	-37.2
179.964	85.67
180.184	-37.2
180.404	22.19
180.624	-39.25
180.844	11.95
181.064	-29.01
181.283	-2.39
181.503	-35.16
181.723	28.33
181.943	44.71
182.163	61.1
182.383	-4.44
182.602	63.15
182.822	63.15
183.042	40.62
183.262	3.75
183.482	-8.53
183.701	-45.4
183.921	-26.96
184.141	18.09
184.361	63.15
184.58	-2.39
184.8	63.15
185.02	22.19
185.239	100.01
185.459	20.14
185.679	67.24
185.898	24.23
186.118	24.23
186.338	-20.82
186.557	61.1
186.777	-33.11
186.997	87.72
187.216	-20.82
187.436	91.82
187.655	13.99
187.875	20.14
188.095	13.99
188.314	46.76
188.534	52.91
188.753	57
188.973	67.24
189.192	120.49
189.412	77.48
189.631	3.75
189.851	50.86
190.07	69.29
190.29	32.43
190.509	75.43
190.729	-59.73
190.948	20.14
191.168	175.78
191.387	79.53
191.607	30.38
191.826	59.05
192.045	42.67
192.265	36.52
192.484	63.15
192.704	38.57
192.923	11.95
193.142	134.82
193.362	36.52
193.581	63.15
193.8	69.29
194.02	110.25
194.239	16.04
194.458	9.9
194.678	11.95
194.897	69.29
195.116	38.57
195.335	9.9
195.555	36.52
195.774	-37.2
195.993	-8.53
196.212	3.75
196.432	89.77
196.651	106.15
196.87	77.48
197.089	114.34
197.308	46.76
197.528	44.71
197.747	-12.63
197.966	46.76
198.185	65.19
198.404	69.29
198.623	89.77
198.842	7.85
199.062	54.95
199.281	13.99
199.5	20.14
199.719	114.34
199.938	61.1
200.157	87.72
200.376	52.91
200.595	-0.34
200.814	28.33
201.033	5.8
201.252	61.1
201.471	3.75
201.69	73.39
201.909	93.87
202.128	20.14
202.347	3.75
202.566	11.95
202.785	71.34
203.004	22.19
203.223	63.15
203.442	61.1
203.661	5.8
203.879	67.24
204.098	100.01
204.317	-35.16
204.536	71.34
204.755	40.62
204.974	13.99
205.193	71.34
205.411	128.68
205.63	79.53
205.849	61.1
206.068	-12.63
206.287	5.8
206.505	13.99
206.724	-8.53
206.943	-2.39
207.162	28.33
207.381	-4.44
207.599	3.75
207.818	-4.44
208.037	36.52
208.255	-33.11
208.474	38.57
208.693	36.52
208.911	38.57
209.13	50.86
209.349	93.87
209.567	59.05
209.786	85.67
210.005	61.1
210.223	42.67
210.442	-29.01
210.661	81.58
210.879	89.77
211.098	34.47
211.316	-2.39
211.535	34.47
211.753	24.23
211.972	38.57
212.191	-20.82
212.409	91.82
212.628	61.1
212.846	34.47
213.065	122.54
213.283	42.67
213.502	44.71
213.72	13.99
213.938	52.91
214.157	13.99
214.375	34.47
214.594	57
214.812	36.52
215.031	48.81
215.249	-35.16
215.467	-78.16
215.686	34.47
215.904	61.1
216.122	20.14
216.341	61.1
216.559	32.43
216.778	24.23
216.996	3.75
217.214	104.11
217.432	-78.16
217.651	30.38
217.869	-39.25
218.087	40.62
218.306	63.15
218.524	59.05
218.742	-0.34
218.96	73.39
219.179	46.76
219.397	44.71
219.615	63.15
219.833	22.19
220.051	36.52
220.27	89.77
220.488	9.9
220.706	9.9
220.924	-65.88
221.142	-14.68
221.36	77.48
221.578	-10.58
221.796	20.14
222.015	30.38
222.233	-8.53
222.451	1.71
222.669	30.38
222.887	110.25
223.105	95.91
223.323	63.15
223.541	16.04
223.759	44.71
223.977	-12.63
224.195	69.29
224.413	114.34
224.631	79.53
224.849	-10.58
225.067	85.67
225.285	-55.64
225.503	77.48
225.721	-51.54
225.939	-10.58
226.157	3.75
226.375	118.44
226.592	61.1
226.81	16.04
227.028	3.75
227.246	71.34
227.464	81.58
227.682	52.91
227.9	59.05
228.117	38.57
228.335	77.48
228.553	61.1
228.771	77.48
228.989	73.39
229.206	69.29
229.424	9.9
229.642	71.34
229.86	28.33
230.077	46.76
230.295	20.14
230.513	7.85
230.731	77.48
230.948	44.71
231.166	63.15
231.384	3.75
231.601	9.9
231.819	36.52
232.037	85.67
232.254	48.81
232.472	-0.34
232.689	57
232.907	95.91
233.125	81.58
233.342	36.52
233.56	44.71
233.777	20.14
233.995	85.67
234.213	75.43
234.43	59.05
234.648	59.05
234.865	20.14
235.083	81.58
235.3	38.57
235.518	9.9
235.735	77.48
235.953	61.1
236.17	11.95
236.388	40.62
236.605	-12.63
236.822	-2.39
237.04	38.57
237.257	30.38
237.475	11.95
237.692	13.99
237.909	28.33
238.127	22.19
238.344	44.71
238.562	102.06
238.779	46.76
238.996	20.14
239.214	18.09
239.431	36.52
239.648	-57.68
239.865	-16.73
240.083	20.14
240.3	50.86
240.517	-45.4
240.735	28.33
240.952	52.91
241.169	52.91
241.386	44.71
241.603	61.1
241.821	-55.64
242.038	28.33
242.255	28.33
242.472	-20.82
242.689	50.86
242.907	102.06
243.124	61.1
243.341	118.44
243.558	42.67
243.775	61.1
243.992	-2.39
244.209	5.8
244.426	46.76
244.643	32.43
244.86	54.95
245.078	20.14
245.295	20.14
245.512	77.48
245.729	3.75
245.946	28.33
246.163	5.8
246.38	13.99
246.597	77.48
246.814	20.14
247.031	44.71
247.248	93.87
247.464	77.48
247.681	-18.77
247.898	106.15
248.115	73.39
248.332	-53.59
248.549	48.81
248.766	28.33
248.983	87.72
249.2	77.48
249.417	71.34
249.633	11.95
249.85	69.29
250.067	57
250.284	44.71
250.501	75.43
250.717	52.91
250.934	-4.44
251.151	63.15
251.368	93.87
251.585	36.52
251.801	30.38
252.018	46.76
252.235	110.25
252.451	-14.68
252.668	5.8
252.885	69.29
253.102	-20.82
253.318	95.91
253.535	102.06
253.752	65.19
253.968	20.14
254.185	-14.68
254.401	52.91
254.618	75.43
254.835	-26.96
255.051	77.48
255.268	42.67
255.484	63.15
255.701	-16.73
255.917	16.04
256.134	-43.35
256.351	93.87
256.567	-22.87
256.784	11.95
257	-41.3
257.217	20.14
257.433	50.86
257.65	42.67
257.866	7.85
258.082	16.04
258.299	5.8
258.515	69.29
258.732	11.95
258.948	95.91
259.165	44.71
259.381	30.38
259.597	-24.92
259.814	73.39
260.03	40.62
260.246	46.76
260.463	18.09
260.679	20.14
260.895	38.57
261.112	161.45
261.328	38.57
261.544	1.71
261.761	57
261.977	24.23
262.193	-24.92
262.409	-6.49
262.626	46.76
262.842	54.95
263.058	32.43
263.274	44.71
263.49	-37.2
263.707	48.81
263.923	36.52
264.139	-20.82
264.355	85.67
264.571	38.57
264.787	-8.53
265.004	54.95
265.22	52.91
265.436	7.85
265.652	77.48
265.868	102.06
266.084	26.28
266.3	77.48
266.516	-12.63
266.732	61.1
266.948	81.58
267.164	-8.53
267.38	-6.49
267.596	52.91
267.812	75.43
268.028	3.75
268.244	46.76
268.46	85.67
268.676	69.29
268.892	63.15
269.108	36.52
269.324	-4.44
269.54	118.44
269.756	36.52
269.972	-12.63
270.188	-35.16
270.403	3.75
270.619	71.34
270.835	75.43
271.051	50.86
271.267	-10.58
271.483	11.95
271.698	20.14
271.914	22.19
272.13	48.81
272.346	36.52
272.562	16.04
272.777	97.96
272.993	24.23
273.209	89.77
273.425	67.24
273.64	52.91
273.856	97.96
274.072	28.33
274.287	34.47
274.503	104.11
274.719	61.1
274.934	11.95
275.15	-10.58
275.366	-41.3
275.581	-16.73
275.797	128.68
276.012	7.85
276.228	97.96
276.444	36.52
276.659	69.29
276.875	-43.35
277.09	44.71
277.306	48.81
277.521	9.9
277.737	93.87
277.952	44.71
278.168	-0.34
278.383	16.04
278.599	3.75
278.814	81.58
279.03	87.72
279.245	110.25
279.461	57
279.676	95.91
279.892	65.19
280.107	69.29
280.322	36.52
280.538	65.19
280.753	-14.68
280.969	104.11
281.184	3.75
281.399	95.91
281.615	73.39
281.83	61.1
282.045	-35.16
282.26	48.81
282.476	61.1
282.691	22.19
282.906	-4.44
283.122	71.34
283.337	7.85
283.552	46.76
283.767	79.53
283.983	120.49
284.198	-8.53
284.413	104.11
284.628	-57.68
284.843	106.15
285.058	3.75
285.274	44.71
285.489	65.19
285.704	65.19
285.919	52.91
286.134	28.33
286.349	28.33
286.564	57
286.779	85.67
286.995	30.38
287.21	52.91
287.425	-12.63
287.64	7.85
287.855	20.14
288.07	32.43
288.285	87.72
288.5	77.48
288.715	44.71
288.93	44.71
289.145	-2.39
289.36	79.53
289.575	57
289.79	28.33
290.004	-0.34
290.219	65.19
290.434	-18.77
290.649	-12.63
290.864	-12.63
291.079	106.15
291.294	36.52
291.509	81.58
291.724	3.75
291.938	32.43
292.153	61.1
292.368	-2.39
292.583	22.19
292.798	42.67
293.012	40.62
293.227	87.72
293.442	104.11
293.657	18.09
293.871	52.91
294.086	5.8
294.301	128.68
294.516	36.52
294.73	-20.82
294.945	-12.63
295.16	28.33
295.374	61.1
295.589	38.57
295.804	36.52
296.018	48.81
296.233	44.71
296.447	81.58
296.662	38.57
296.877	32.43
297.091	85.67
297.306	52.91
297.52	106.15
297.735	65.19
297.949	77.48
298.164	114.34
298.378	38.57
298.593	-45.4
298.807	42.67
299.022	61.1
299.236	102.06
299.451	-8.53
299.665	95.91
299.88	57
300.094	79.53
300.309	95.91
300.523	104.11
300.737	28.33
300.952	3.75
301.166	-35.16
301.381	46.76
301.595	75.43
301.809	-4.44
302.024	57
302.238	1.71
302.452	110.25
302.667	34.47
302.881	61.1
303.095	102.06
303.309	3.75
303.524	13.99
303.738	46.76
303.952	-16.73
304.166	79.53
304.381	-10.58
304.595	143.02
304.809	50.86
305.023	81.58
305.237	-12.63
305.452	-2.39
305.666	-10.58
305.88	36.52
306.094	20.14
306.308	122.54
306.522	48.81
306.736	44.71
306.95	52.91
307.164	81.58
307.379	30.38
307.593	91.82
307.807	61.1
308.021	89.77
308.235	102.06
308.449	3.75
308.663	40.62
308.877	116.39
309.091	42.67
309.305	5.8
309.519	-37.2
309.733	63.15
309.947	-0.34
310.161	69.29
310.374	16.04
310.588	81.58
310.802	-43.35
311.016	44.71
311.23	16.04
311.444	-18.77
311.658	69.29
311.872	118.44
312.085	118.44
312.299	32.43
312.513	40.62
312.727	52.91
312.941	87.72
313.154	136.87
313.368	34.47
313.582	48.81
313.796	102.06
314.009	50.86
314.223	83.63
314.437	54.95
314.651	87.72
314.864	124.58
315.078	11.95
315.292	30.38
315.505	-10.58
315.719	100.01
315.933	-12.63
316.146	52.91
316.36	46.76
316.573	128.68
316.787	65.19
317.001	112.3
317.214	-0.34
317.428	26.28
317.641	-29.01
317.855	67.24
318.068	67.24
318.282	67.24
318.495	69.29
318.709	57
318.922	-8.53
319.136	-16.73
319.349	91.82
319.563	30.38
319.776	20.14
319.99	13.99
320.203	110.25
320.417	65.19
320.63	48.81
320.843	122.54
321.057	97.96
321.27	20.14
321.483	11.95
321.697	63.15
321.91	24.23
322.124	93.87
322.337	91.82
322.55	75.43
322.763	-6.49
322.977	79.53
323.19	44.71
323.403	85.67
323.617	83.63
323.83	81.58
324.043	5.8
324.256	50.86
324.469	26.28
324.683	5.8
324.896	30.38
325.109	28.33
325.322	13.99
325.535	44.71
325.748	38.57
325.962	13.99
326.175	73.39
326.388	61.1
326.601	52.91
326.814	28.33
327.027	28.33
327.24	143.02
327.453	44.71
327.666	44.71
327.879	59.05
328.092	34.47
328.305	-12.63
328.518	61.1
328.731	112.3
328.944	44.71
329.157	73.39
329.37	61.1
329.583	16.04
329.796	30.38
330.009	-8.53
330.222	73.39
330.435	-12.63
330.648	73.39
330.861	44.71
331.073	16.04
331.286	69.29
331.499	89.77
331.712	-57.68
331.925	93.87
332.138	38.57
332.35	59.05
332.563	44.71
332.776	36.52
332.989	38.57
333.202	13.99
333.414	52.91
333.627	44.71
333.84	20.14
334.053	30.38
334.265	63.15
334.478	104.11
334.691	95.91
334.903	48.81
335.116	28.33
335.329	77.48
335.541	26.28
335.754	97.96
335.966	-2.39
336.179	44.71
336.392	-0.34
336.604	71.34
336.817	106.15
337.029	42.67
337.242	61.1
337.454	81.58
337.667	118.44
337.88	79.53
338.092	81.58
338.305	69.29
338.517	46.76
338.729	81.58
338.942	40.62
339.154	-18.77
339.367	-37.2
339.579	79.53
339.792	30.38
340.004	77.48
340.217	61.1
340.429	73.39
340.641	16.04
340.854	36.52
341.066	63.15
341.278	52.91
341.491	114.34
341.703	3.75
341.915	40.62
342.128	52.91
342.34	89.77
342.552	-47.44
342.764	44.71
342.977	65.19
343.189	48.81
343.401	-4.44
343.613	-16.73
343.826	-0.34
344.038	120.49
344.25	69.29
344.462	54.95
344.674	9.9
344.886	34.47
345.099	91.82
345.311	34.47
345.523	38.57
345.735	36.52
345.947	34.47
346.159	77.48
346.371	110.25
346.583	112.3
346.795	36.52
347.007	-2.39
347.219	77.48
347.431	16.04
347.643	57
347.855	20.14
348.067	134.82
348.279	40.62
348.491	20.14
348.703	52.91
348.915	77.48
349.127	3.75
349.339	57
349.551	22.19
349.763	122.54
349.975	77.48
350.187	63.15
350.399	73.39
350.61	46.76
350.822	89.77
351.034	155.3
351.246	16.04
351.458	46.76
351.669	48.81
351.881	34.47
352.093	52.91
352.305	85.67
352.517	-10.58
352.728	140.97
352.94	22.19
353.152	-16.73
353.363	85.67
353.575	69.29
353.787	102.06
353.999	120.49
354.21	26.28
354.422	77.48
354.633	13.99
354.845	18.09
355.057	16.04
355.268	40.62
355.48	106.15
355.692	46.76
355.903	-18.77
356.115	-24.92
356.326	38.57
356.538	159.4
356.749	118.44
356.961	136.87
357.172	40.62
357.384	-12.63
357.595	120.49
357.807	104.11
358.018	-18.77
358.23	77.48
358.441	87.72
358.653	34.47
358.864	24.23
359.075	3.75
359.287	61.1
359.498	122.54
359.709	104.11
359.921	71.34
360.132	93.87
360.344	73.39
360.555	77.48
360.766	44.71
360.977	85.67
361.189	63.15
361.4	11.95
361.611	106.15
361.823	118.44
362.034	40.62
362.245	-20.82
362.456	91.82
362.667	69.29
362.879	-10.58
363.09	102.06
363.301	77.48
363.512	59.05
363.723	28.33
363.935	65.19
364.146	40.62
364.357	13.99
364.568	63.15
364.779	7.85
364.99	95.91
365.201	22.19
365.412	128.68
365.623	61.1
365.834	71.34
366.045	34.47
366.256	85.67
366.467	106.15
366.678	38.57
366.889	28.33
367.1	13.99
367.311	95.91
367.522	57
367.733	69.29
367.944	59.05
368.155	40.62
368.366	89.77
368.577	97.96
368.788	57
368.999	36.52
369.209	40.62
369.42	110.25
369.631	138.92
369.842	57
370.053	52.91
370.264	79.53
370.474	48.81
370.685	118.44
370.896	20.14
371.107	36.52
371.317	89.77
371.528	36.52
371.739	46.76
371.95	71.34
372.16	63.15
372.371	-45.4
372.582	102.06
372.792	149.16
373.003	20.14
373.214	11.95
373.424	3.75
373.635	18.09
373.846	44.71
374.056	85.67
374.267	97.96
374.477	102.06
374.688	-29.01
374.898	89.77
375.109	48.81
375.319	118.44
375.53	77.48
375.74	79.53
375.951	44.71
376.161	110.25
376.372	112.3
376.582	-20.82
376.793	32.43
377.003	44.71
377.214	36.52
377.424	5.8
377.635	114.34
377.845	77.48
378.055	138.92
378.266	48.81
378.476	85.67
378.686	16.04
378.897	20.14
379.107	50.86
379.317	134.82
379.528	100.01
379.738	136.87
379.948	77.48
380.158	69.29
380.369	69.29
380.579	73.39
380.789	75.43
380.999	114.34
381.21	69.29
381.42	126.63
381.63	13.99
381.84	77.48
382.05	71.34
382.261	110.25
382.471	104.11
382.681	73.39
382.891	95.91
383.101	71.34
383.311	44.71
383.521	-22.87
383.731	3.75
383.941	85.67
384.151	106.15
384.361	63.15
384.571	95.91
384.781	126.63
384.991	183.98
385.201	157.35
385.411	134.82
385.621	83.63
385.831	34.47
386.041	63.15
386.251	52.91
386.461	118.44
386.671	36.52
386.881	69.29
387.091	22.19
387.301	132.78
387.511	-24.92
387.72	106.15
387.93	40.62
388.14	114.34
388.35	61.1
388.56	132.78
388.769	102.06
388.979	114.34
389.189	24.23
389.399	61.1
389.609	102.06
389.818	71.34
390.028	120.49
390.238	97.96
390.447	79.53
390.657	71.34
390.867	28.33
391.076	32.43
391.286	69.29
391.496	67.24
391.705	100.01
391.915	118.44
392.125	194.22
392.334	69.29
392.544	54.95
392.753	104.11
392.963	57
393.172	46.76
393.382	112.3
393.591	108.2
393.801	48.81
394.01	120.49
394.22	118.44
394.429	20.14
394.639	93.87
394.848	89.77
395.058	93.87
395.267	18.09
395.477	44.71
395.686	93.87
395.895	79.53
396.105	118.44
396.314	95.91
396.524	169.64
396.733	77.48
396.942	89.77
397.152	149.16
397.361	95.91
397.57	63.15
397.78	97.96
397.989	163.5
398.198	167.59
398.407	147.11
398.617	122.54
398.826	132.78
399.035	65.19
399.244	171.69
399.453	126.63
399.663	75.43
399.872	104.11
400.081	91.82
400.29	138.92
400.499	138.92
400.708	175.78
400.917	112.3
401.127	151.21
401.336	83.63
401.545	136.87
401.754	202.41
401.963	169.64
402.172	169.64
402.381	61.1
402.59	81.58
402.799	153.26
403.008	188.07
403.217	167.59
403.426	192.17
403.635	143.02
403.844	200.36
404.053	183.98
404.262	220.84
404.471	212.65
404.68	224.94
404.888	147.11
405.097	132.78
405.306	177.83
405.515	192.17
405.724	167.59
405.933	241.32
406.142	216.74
406.35	224.94
406.559	241.32
406.768	212.65
406.977	210.6
407.185	161.45
407.394	255.65
407.603	177.83
407.812	216.74
408.02	269.99
408.229	284.33
408.438	263.85
408.646	202.41
408.855	286.37
409.064	323.24
409.272	265.89
409.481	347.81
409.69	319.14
409.898	286.37
410.107	341.67
410.315	315.05
410.524	290.47
410.733	411.3
410.941	442.02
411.15	437.92
411.358	417.44
411.567	462.5
411.775	419.49
411.984	446.12
412.192	437.92
412.401	423.59
412.609	448.16
412.818	566.95
413.026	460.45
413.234	511.65
413.443	612
413.651	622.24
413.86	597.67
414.068	732.83
414.276	691.87
414.485	609.95
414.693	700.06
414.901	757.41
415.11	738.98
415.318	749.22
415.526	792.22
415.734	777.89
415.943	886.43
416.151	954.01
416.359	906.91
416.567	937.63
416.776	1044.12
416.984	962.2
417.192	1027.74
417.4	1031.83
417.608	1048.22
417.817	1187.48
418.025	1187.48
418.233	1263.26
418.441	1298.07
418.649	1283.74
418.857	1363.61
419.065	1386.13
419.273	1453.72
419.481	1537.68
419.689	1603.22
419.897	1658.51
420.105	1730.19
420.313	1738.38
420.521	1822.35
420.729	1816.21
420.937	1799.82
421.145	1830.54
421.353	2100.87
421.561	2199.18
421.769	2086.54
421.977	2207.37
422.185	2211.46
422.393	2412.17
422.601	2483.84
422.809	2455.17
423.017	2477.7
423.224	2668.16
423.432	2836.1
423.64	2764.42
423.848	3042.94
424.056	2895.49
424.263	3237.5
424.471	3090.04
424.679	3171.96
424.887	3343.99
425.094	3491.45
425.302	3575.41
425.51	3628.66
425.718	3772.02
425.925	3855.98
426.133	3968.62
426.341	4247.15
426.548	4359.78
426.756	4363.88
426.964	4367.98
427.171	4714.08
427.379	4789.86
427.586	4787.81
427.794	4974.17
428.001	5176.92
428.209	5355.1
428.417	5340.76
428.624	5699.16
428.832	5791.31
429.039	5797.46
429.247	5729.88
429.454	6344.27
429.662	6622.79
429.869	6237.77
430.076	6807.11
430.284	6583.88
430.491	6782.53
430.699	7306.81
430.906	7233.08
431.114	7450.17
431.321	7527.99
431.528	7665.21
431.736	8044.08
431.943	8580.65
432.15	8326.7
432.358	8445.48
432.565	8891.94
432.772	8707.62
432.979	9319.96
433.187	9524.76
433.394	9434.65
433.601	10223.12
433.808	10331.66
434.016	10178.06
434.223	10653.19
434.43	11357.69
434.637	10939.91
434.844	11910.64
435.052	11939.32
435.259	11824.63
435.466	12060.15
435.673	12031.48
435.88	12553.71
436.087	13510.11
436.294	13336.03
436.501	12983.78
436.708	13295.07
436.915	13581.79
437.122	14407.12
437.329	14552.52
437.537	14704.07
437.743	14949.83
437.95	15050.18
438.157	15687.1
438.364	16203.19
438.571	16168.37
438.778	16326.07
438.985	17872.28
439.192	17159.59
439.399	17552.8
439.606	17403.3
439.813	18363.79
440.02	19512.7
440.227	18890.12
440.433	18642.32
440.64	19357.06
440.847	19338.63
441.054	19455.36
441.261	20964.71
441.467	20667.76
441.674	21142.89
441.881	21955.93
442.088	21732.7
442.294	21921.12
442.501	22412.63
442.708	22871.37
442.914	23823.68
443.121	24849.71
443.328	24026.43
443.534	25603.36
443.741	24792.37
443.948	24542.52
444.154	27016.46
444.361	26303.77
444.568	26395.93
444.774	26391.83
444.981	26735.89
445.187	27544.84
445.394	28835.06
445.6	28357.88
445.807	31188.17
446.013	29758.69
446.22	30242.01
446.426	31589.58
446.633	31728.84
446.839	33012.91
447.046	31655.11
447.252	33389.74
447.459	33461.42
447.665	33152.18
447.871	34587.8
448.078	36222.08
448.284	34096.29
448.491	35421.33
448.697	36797.56
448.903	37203.06
449.11	37608.56
449.316	36881.53
449.522	37786.73
449.728	38673.5
449.935	39117.91
450.141	38890.59
450.347	39390.29
450.553	38902.87
450.76	38966.36
450.966	40477.76
451.172	39658.57
451.378	41210.93
451.584	40275.01
451.791	41088.06
451.997	41169.97
452.203	41788.46
452.409	42202.15
452.615	41571.38
452.821	40170.57
453.027	40057.93
453.233	41923.63
453.44	40309.83
453.646	40694.85
453.852	40739.9
454.058	41638.96
454.264	40203.33
454.47	41239.61
454.676	40338.5
454.882	41950.25
455.088	37835.88
455.294	38632.54
455.5	39842.89
455.705	39771.21
455.911	38278.24
456.117	37387.38
456.323	37168.24
456.529	35298.45
456.735	36541.57
456.941	35775.62
457.147	35591.31
457.352	34301.09
457.558	34004.13
457.764	33752.23
457.97	33277.1
458.176	32773.3
458.381	32543.93
458.587	31093.97
458.793	30930.13
458.999	29611.24
459.204	31669.45
459.41	30858.45
459.616	29000.94
459.821	28880.11
460.027	28736.76
460.233	28091.65
460.438	26858.77
460.644	27337.99
460.85	26029.34
461.055	25570.6
461.261	25455.91
461.466	23541.06
461.672	22883.66
461.878	24554.8
462.083	22934.86
462.289	22824.27
462.494	22371.67
462.7	21450.08
462.905	20702.57
463.111	21581.15
463.316	21704.03
463.522	21173.61
463.727	21132.65
463.932	21161.32
464.138	20764.01
464.343	21253.48
464.549	20391.28
464.754	21026.15
464.959	21044.59
465.165	20839.79
465.37	19959.16
465.575	19443.07
465.781	20381.04
465.986	20331.89
466.191	19707.26
466.397	19139.97
466.602	18460.05
466.807	19058.06
467.012	19096.97
467.218	18974.09
