Data from USB4F104151__228__14-45-36-865.txt Node

Date: Thu Mar 13 14:45:36 EDT 2025
User: louis
Spectrometer: USB4F10415
Trigger mode: 4
Integration Time (sec): 2.000000E-2
Scans to average: 1
Electric dark correction enabled: true
Nonlinearity correction enabled: false
Boxcar width: 0
XAxis mode: Wavelengths
Number of Pixels in Spectrum: 3648
>>>>>Begin Spectral Data<<<<<
178.204	-109.91
178.424	-109.91
178.644	-109.91
178.864	-85.33
179.084	-144.72
179.304	12.97
179.524	25.26
179.744	2.73
179.964	6.83
180.184	-9.56
180.404	-58.71
180.624	6.83
180.844	-13.65
181.064	29.35
181.283	76.46
181.503	-64.85
181.723	-13.65
181.943	-27.99
182.163	37.55
182.383	78.51
182.602	33.45
182.822	-17.75
183.042	-25.94
183.262	-48.47
183.482	-21.85
183.701	27.31
183.921	-7.51
184.141	-11.61
184.361	43.69
184.58	17.07
184.8	21.16
185.02	17.07
185.239	55.98
185.459	-9.56
185.679	15.02
185.898	-11.61
186.118	39.59
186.338	-11.61
186.557	45.74
186.777	-7.51
186.997	-81.24
187.216	27.31
187.436	86.7
187.655	29.35
187.875	23.21
188.095	-38.23
188.314	45.74
188.534	148.14
188.753	-17.75
188.973	47.79
189.192	37.55
189.412	-79.19
189.631	37.55
189.851	-23.89
190.07	15.02
190.29	-23.89
190.509	-64.85
190.729	45.74
190.948	37.55
191.168	88.75
191.387	25.26
191.607	-3.41
191.826	4.78
192.045	-25.94
192.265	-36.18
192.484	-1.37
192.704	49.83
192.923	-1.37
193.142	86.7
193.362	39.59
193.581	74.41
193.8	58.03
194.02	37.55
194.239	4.78
194.458	12.97
194.678	45.74
194.897	-50.52
195.116	-9.56
195.335	10.92
195.555	12.97
195.774	90.79
195.993	-34.13
196.212	2.73
196.432	-5.46
196.651	4.78
196.87	12.97
197.089	39.59
197.308	53.93
197.528	-1.37
197.747	-1.37
197.966	4.78
198.185	82.6
198.404	-42.32
198.623	96.94
198.842	15.02
199.062	23.21
199.281	41.64
199.5	-32.08
199.719	88.75
199.938	2.73
200.157	76.46
200.376	25.26
200.595	53.93
200.814	37.55
201.033	-34.13
201.252	105.13
201.471	-17.75
201.69	53.93
201.909	0.68
202.128	-11.61
202.347	33.45
202.566	70.31
202.785	8.87
203.004	29.35
203.223	72.36
203.442	55.98
203.661	-21.85
203.879	-1.37
204.098	21.16
204.317	6.83
204.536	21.16
204.755	78.51
204.974	133.8
205.193	23.21
205.411	74.41
205.63	-27.99
205.849	37.55
206.068	80.55
206.287	-15.7
206.505	58.03
206.724	-21.85
206.943	-50.52
207.162	53.93
207.381	47.79
207.599	-25.94
207.818	55.98
208.037	47.79
208.255	-15.7
208.474	-9.56
208.693	29.35
208.911	-32.08
209.13	31.4
209.349	27.31
209.567	29.35
209.786	49.83
210.005	10.92
210.223	29.35
210.442	-9.56
210.661	-21.85
210.879	88.75
211.098	-23.89
211.316	-34.13
211.535	-25.94
211.753	12.97
211.972	53.93
212.191	53.93
212.409	-3.41
212.628	0.68
212.846	-17.75
213.065	-40.28
213.283	-27.99
213.502	-13.65
213.72	8.87
213.938	4.78
214.157	49.83
214.375	29.35
214.594	37.55
214.812	21.16
215.031	-13.65
215.249	21.16
215.467	23.21
215.686	-32.08
215.904	17.07
216.122	-62.8
216.341	86.7
216.559	47.79
216.778	4.78
216.996	125.61
217.214	15.02
217.432	-27.99
217.651	-44.37
217.869	6.83
218.087	39.59
218.306	17.07
218.524	8.87
218.742	21.16
218.96	41.64
219.179	-32.08
219.397	66.22
219.615	17.07
219.833	55.98
220.051	62.12
220.27	-9.56
220.488	39.59
220.706	-56.66
220.924	62.12
221.142	-1.37
221.36	80.55
221.578	33.45
221.796	-36.18
222.015	47.79
222.233	21.16
222.451	94.89
222.669	-15.7
222.887	25.26
223.105	60.07
223.323	-7.51
223.541	-11.61
223.759	58.03
223.977	0.68
224.195	64.17
224.413	105.13
224.631	35.5
224.849	29.35
225.067	70.31
225.285	-11.61
225.503	-105.81
225.721	-17.75
225.939	-11.61
226.157	15.02
226.375	15.02
226.592	-17.75
226.81	162.47
227.028	41.64
227.246	103.08
227.464	31.4
227.682	58.03
227.9	60.07
228.117	45.74
228.335	-32.08
228.553	43.69
228.771	78.51
228.989	41.64
229.206	4.78
229.424	0.68
229.642	51.88
229.86	-52.56
230.077	70.31
230.295	-34.13
230.513	53.93
230.731	82.6
230.948	103.08
231.166	17.07
231.384	37.55
231.601	41.64
231.819	78.51
232.037	80.55
232.254	-11.61
232.472	-48.47
232.689	21.16
232.907	66.22
233.125	4.78
233.342	-1.37
233.56	15.02
233.777	-52.56
233.995	6.83
234.213	37.55
234.43	70.31
234.648	17.07
234.865	17.07
235.083	-3.41
235.3	47.79
235.518	84.65
235.735	-40.28
235.953	86.7
236.17	45.74
236.388	-25.94
236.605	-23.89
236.822	33.45
237.04	41.64
237.257	62.12
237.475	-9.56
237.692	12.97
237.909	62.12
238.127	-7.51
238.344	29.35
238.562	25.26
238.779	15.02
238.996	-44.37
239.214	78.51
239.431	139.94
239.648	41.64
239.865	-19.8
240.083	-17.75
240.3	-9.56
240.517	-36.18
240.735	47.79
240.952	66.22
241.169	82.6
241.386	29.35
241.603	-23.89
241.821	-50.52
242.038	94.89
242.255	12.97
242.472	-36.18
242.689	62.12
242.907	-19.8
243.124	21.16
243.341	-60.76
243.558	-38.23
243.775	-15.7
243.992	-17.75
244.209	45.74
244.426	53.93
244.643	23.21
244.86	12.97
245.078	-19.8
245.295	41.64
245.512	39.59
245.729	4.78
245.946	70.31
246.163	-44.37
246.38	-19.8
246.597	-17.75
246.814	41.64
247.031	-34.13
247.248	-23.89
247.464	60.07
247.681	17.07
247.898	-9.56
248.115	37.55
248.332	-11.61
248.549	45.74
248.766	10.92
248.983	78.51
249.2	37.55
249.417	78.51
249.633	-13.65
249.85	58.03
250.067	-19.8
250.284	45.74
250.501	51.88
250.717	51.88
250.934	25.26
251.151	74.41
251.368	33.45
251.585	39.59
251.801	17.07
252.018	29.35
252.235	15.02
252.451	6.83
252.668	39.59
252.885	88.75
253.102	8.87
253.318	-7.51
253.535	-38.23
253.752	-11.61
253.968	43.69
254.185	17.07
254.401	33.45
254.618	137.9
254.835	-3.41
255.051	70.31
255.268	94.89
255.484	12.97
255.701	21.16
255.917	76.46
256.134	-7.51
256.351	33.45
256.567	33.45
256.784	82.6
257	-91.48
257.217	8.87
257.433	-7.51
257.65	23.21
257.866	98.99
258.082	37.55
258.299	15.02
258.515	88.75
258.732	-9.56
258.948	-19.8
259.165	74.41
259.381	37.55
259.597	29.35
259.814	37.55
260.03	-25.94
260.246	-7.51
260.463	15.02
260.679	45.74
260.895	94.89
261.112	-11.61
261.328	70.31
261.544	-52.56
261.761	27.31
261.977	23.21
262.193	15.02
262.409	96.94
262.626	-17.75
262.842	-27.99
263.058	-25.94
263.274	21.16
263.49	68.27
263.707	37.55
263.923	158.38
264.139	49.83
264.355	10.92
264.571	70.31
264.787	60.07
265.004	86.7
265.22	-9.56
265.436	49.83
265.652	-40.28
265.868	96.94
266.084	12.97
266.3	51.88
266.516	-75.09
266.732	-7.51
266.948	23.21
267.164	33.45
267.38	27.31
267.596	-25.94
267.812	66.22
268.028	-19.8
268.244	72.36
268.46	-52.56
268.676	23.21
268.892	-11.61
269.108	45.74
269.324	-32.08
269.54	-9.56
269.756	84.65
269.972	43.69
270.188	-3.41
270.403	-11.61
270.619	-15.7
270.835	29.35
271.051	12.97
271.267	23.21
271.483	10.92
271.698	15.02
271.914	-1.37
272.13	64.17
272.346	-11.61
272.562	0.68
272.777	62.12
272.993	29.35
273.209	17.07
273.425	-11.61
273.64	35.5
273.856	60.07
274.072	-3.41
274.287	-5.46
274.503	12.97
274.719	37.55
274.934	17.07
275.15	-3.41
275.366	78.51
275.581	-13.65
275.797	37.55
276.012	29.35
276.228	45.74
276.444	72.36
276.659	66.22
276.875	12.97
277.09	6.83
277.306	41.64
277.521	82.6
277.737	-68.95
277.952	4.78
278.168	-116.05
278.383	74.41
278.599	39.59
278.814	49.83
279.03	31.4
279.245	62.12
279.461	49.83
279.676	37.55
279.892	-19.8
280.107	-32.08
280.322	21.16
280.538	55.98
280.753	-7.51
280.969	19.11
281.184	31.4
281.399	45.74
281.615	37.55
281.83	8.87
282.045	-9.56
282.26	-17.75
282.476	70.31
282.691	-1.37
282.906	-50.52
283.122	37.55
283.337	23.21
283.552	-19.8
283.767	-9.56
283.983	25.26
284.198	23.21
284.413	17.07
284.628	-56.66
284.843	8.87
285.058	10.92
285.274	-54.61
285.489	-36.18
285.704	121.51
285.919	-60.76
286.134	21.16
286.349	17.07
286.564	-19.8
286.779	64.17
286.995	80.55
287.21	6.83
287.425	37.55
287.64	0.68
287.855	-27.99
288.07	19.11
288.285	70.31
288.5	-23.89
288.715	-1.37
288.93	33.45
289.145	-25.94
289.36	27.31
289.575	39.59
289.79	105.13
290.004	-42.32
290.219	53.93
290.434	-34.13
290.649	47.79
290.864	-11.61
291.079	12.97
291.294	31.4
291.509	39.59
291.724	58.03
291.938	-25.94
292.153	39.59
292.368	-62.8
292.583	70.31
292.798	53.93
293.012	2.73
293.227	12.97
293.442	49.83
293.657	43.69
293.871	47.79
294.086	-15.7
294.301	45.74
294.516	33.45
294.73	23.21
294.945	-68.95
295.16	45.74
295.374	45.74
295.589	55.98
295.804	-7.51
296.018	-48.47
296.233	4.78
296.447	4.78
296.662	-32.08
296.877	74.41
297.091	37.55
297.306	-25.94
297.52	68.27
297.735	51.88
297.949	-19.8
298.164	19.11
298.378	2.73
298.593	23.21
298.807	45.74
299.022	53.93
299.236	31.4
299.451	-3.41
299.665	-5.46
299.88	37.55
300.094	72.36
300.309	-13.65
300.523	37.55
300.737	-11.61
300.952	21.16
301.166	4.78
301.381	45.74
301.595	-27.99
301.809	6.83
302.024	66.22
302.238	-27.99
302.452	55.98
302.667	31.4
302.881	45.74
303.095	-73.04
303.309	39.59
303.524	-32.08
303.738	-3.41
303.952	-7.51
304.166	49.83
304.381	-132.44
304.595	23.21
304.809	72.36
305.023	39.59
305.237	25.26
305.452	15.02
305.666	45.74
305.88	66.22
306.094	-60.76
306.308	103.08
306.522	27.31
306.736	-32.08
306.95	19.11
307.164	-25.94
307.379	47.79
307.593	31.4
307.807	45.74
308.021	6.83
308.235	58.03
308.449	29.35
308.663	29.35
308.877	23.21
309.091	-7.51
309.305	37.55
309.519	-11.61
309.733	21.16
309.947	-7.51
310.161	27.31
310.374	17.07
310.588	41.64
310.802	8.87
311.016	12.97
311.23	37.55
311.444	-19.8
311.658	-1.37
311.872	12.97
312.085	-13.65
312.299	49.83
312.513	21.16
312.727	-7.51
312.941	41.64
313.154	62.12
313.368	12.97
313.582	0.68
313.796	23.21
314.009	37.55
314.223	17.07
314.437	37.55
314.651	-7.51
314.864	58.03
315.078	55.98
315.292	-11.61
315.505	117.42
315.719	-19.8
315.933	-11.61
316.146	17.07
316.36	-17.75
316.573	62.12
316.787	84.65
317.001	39.59
317.214	-15.7
317.428	2.73
317.641	-52.56
317.855	-32.08
318.068	27.31
318.282	29.35
318.495	41.64
318.709	8.87
318.922	37.55
319.136	129.7
319.349	33.45
319.563	29.35
319.776	31.4
319.99	-36.18
320.203	45.74
320.417	86.7
320.63	45.74
320.843	-3.41
321.057	113.32
321.27	-17.75
321.483	35.5
321.697	66.22
321.91	-27.99
322.124	53.93
322.337	-19.8
322.55	-36.18
322.763	47.79
322.977	31.4
323.19	49.83
323.403	8.87
323.617	-17.75
323.83	2.73
324.043	-11.61
324.256	4.78
324.469	12.97
324.683	53.93
324.896	4.78
325.109	33.45
325.322	68.27
325.535	37.55
325.748	62.12
325.962	-3.41
326.175	17.07
326.388	37.55
326.601	12.97
326.814	82.6
327.027	12.97
327.24	121.51
327.453	33.45
327.666	-81.24
327.879	25.26
328.092	12.97
328.305	4.78
328.518	37.55
328.731	12.97
328.944	21.16
329.157	23.21
329.37	49.83
329.583	62.12
329.796	109.22
330.009	2.73
330.222	47.79
330.435	27.31
330.648	39.59
330.861	94.89
331.073	29.35
331.286	17.07
331.499	45.74
331.712	8.87
331.925	78.51
332.138	51.88
332.35	17.07
332.563	-11.61
332.776	31.4
332.989	-30.04
333.202	-15.7
333.414	-27.99
333.627	62.12
333.84	0.68
334.053	6.83
334.265	78.51
334.478	21.16
334.691	0.68
334.903	47.79
335.116	-36.18
335.329	19.11
335.541	47.79
335.754	80.55
335.966	-30.04
336.179	37.55
336.392	12.97
336.604	-19.8
336.817	21.16
337.029	53.93
337.242	33.45
337.454	107.18
337.667	37.55
337.88	29.35
338.092	-66.9
338.305	6.83
338.517	62.12
338.729	33.45
338.942	62.12
339.154	-27.99
339.367	4.78
339.579	47.79
339.792	-7.51
340.004	-1.37
340.217	-23.89
340.429	41.64
340.641	-23.89
340.854	37.55
341.066	-19.8
341.278	37.55
341.491	150.18
341.703	-1.37
341.915	-23.89
342.128	53.93
342.34	4.78
342.552	8.87
342.764	21.16
342.977	23.21
343.189	37.55
343.401	127.66
343.613	-75.09
343.826	23.21
344.038	-19.8
344.25	-3.41
344.462	-5.46
344.674	68.27
344.886	-7.51
345.099	12.97
345.311	8.87
345.523	0.68
345.735	-11.61
345.947	4.78
346.159	-11.61
346.371	-30.04
346.583	6.83
346.795	33.45
347.007	-44.37
347.219	21.16
347.431	-11.61
347.643	8.87
347.855	51.88
348.067	86.7
348.279	2.73
348.491	51.88
348.703	58.03
348.915	62.12
349.127	37.55
349.339	-48.47
349.551	53.93
349.763	88.75
349.975	47.79
350.187	47.79
350.399	76.46
350.61	27.31
350.822	27.31
351.034	-19.8
351.246	47.79
351.458	70.31
351.669	96.94
351.881	33.45
352.093	-11.61
352.305	47.79
352.517	25.26
352.728	31.4
352.94	-58.71
353.152	21.16
353.363	-25.94
353.575	29.35
353.787	111.27
353.999	78.51
354.21	2.73
354.422	-5.46
354.633	-15.7
354.845	15.02
355.057	55.98
355.268	25.26
355.48	37.55
355.692	21.16
355.903	98.99
356.115	-17.75
356.326	-27.99
356.538	94.89
356.749	41.64
356.961	70.31
357.172	23.21
357.384	-46.42
357.595	49.83
357.807	31.4
358.018	-27.99
358.23	12.97
358.441	82.6
358.653	45.74
358.864	49.83
359.075	21.16
359.287	103.08
359.498	17.07
359.709	6.83
359.921	15.02
360.132	17.07
360.344	25.26
360.555	-11.61
360.766	25.26
360.977	-34.13
361.189	78.51
361.4	-52.56
361.611	4.78
361.823	62.12
362.034	39.59
362.245	58.03
362.456	53.93
362.667	70.31
362.879	15.02
363.09	78.51
363.301	53.93
363.512	-3.41
363.723	25.26
363.935	-11.61
364.146	-44.37
364.357	-30.04
364.568	12.97
364.779	-21.85
364.99	23.21
365.201	-27.99
365.412	70.31
365.623	-32.08
365.834	0.68
366.045	4.78
366.256	62.12
366.467	45.74
366.678	53.93
366.889	27.31
367.1	33.45
367.311	29.35
367.522	4.78
367.733	43.69
367.944	39.59
368.155	-27.99
368.366	37.55
368.577	123.56
368.788	117.42
368.999	6.83
369.209	58.03
369.42	29.35
369.631	45.74
369.842	12.97
370.053	-5.46
370.264	19.11
370.474	-46.42
370.685	29.35
370.896	-25.94
371.107	78.51
371.317	45.74
371.528	-15.7
371.739	74.41
371.95	31.4
372.16	-1.37
372.371	51.88
372.582	12.97
372.792	41.64
373.003	-66.9
373.214	41.64
373.424	37.55
373.635	15.02
373.846	33.45
374.056	62.12
374.267	58.03
374.477	15.02
374.688	4.78
374.898	17.07
375.109	12.97
375.319	96.94
375.53	64.17
375.74	115.37
375.951	-9.56
376.161	-81.24
376.372	29.35
376.582	62.12
376.793	15.02
377.003	-34.13
377.214	-27.99
377.424	29.35
377.635	-27.99
377.845	-7.51
378.055	86.7
378.266	19.11
378.476	43.69
378.686	0.68
378.897	-11.61
379.107	109.22
379.317	107.18
379.528	-1.37
379.738	43.69
379.948	33.45
380.158	15.02
380.369	-34.13
380.579	68.27
380.789	12.97
380.999	23.21
381.21	62.12
381.42	103.08
381.63	17.07
381.84	45.74
382.05	-23.89
382.261	6.83
382.471	66.22
382.681	-40.28
382.891	70.31
383.101	88.75
383.311	-42.32
383.521	21.16
383.731	129.7
383.941	115.37
384.151	62.12
384.361	62.12
384.571	53.93
384.781	12.97
384.991	12.97
385.201	80.55
385.411	47.79
385.621	94.89
385.831	-7.51
386.041	-11.61
386.251	49.83
386.461	78.51
386.671	58.03
386.881	64.17
387.091	-11.61
387.301	35.5
387.511	88.75
387.72	25.26
387.93	70.31
388.14	31.4
388.35	17.07
388.56	58.03
388.769	80.55
388.979	31.4
389.189	-3.41
389.399	51.88
389.609	-25.94
389.818	23.21
390.028	-11.61
390.238	70.31
390.447	-11.61
390.657	111.27
390.867	-3.41
391.076	53.93
391.286	25.26
391.496	47.79
391.705	-38.23
391.915	39.59
392.125	41.64
392.334	119.46
392.544	58.03
392.753	4.78
392.963	55.98
393.172	-21.85
393.382	-19.8
393.591	41.64
393.801	29.35
394.01	90.79
394.22	160.42
394.429	0.68
394.639	78.51
394.848	86.7
395.058	60.07
395.267	12.97
395.477	148.14
395.686	70.31
395.895	115.37
396.105	113.32
396.314	55.98
396.524	53.93
396.733	62.12
396.942	123.56
397.152	62.12
397.361	45.74
397.57	-38.23
397.78	80.55
397.989	90.79
398.198	137.9
398.407	70.31
398.617	70.31
398.826	47.79
399.035	27.31
399.244	21.16
399.453	86.7
399.663	70.31
399.872	78.51
400.081	-7.51
400.29	103.08
400.499	103.08
400.708	72.36
400.917	58.03
401.127	55.98
401.336	45.74
401.545	64.17
401.754	70.31
401.963	70.31
402.172	80.55
402.381	82.6
402.59	70.31
402.799	82.6
403.008	12.97
403.217	74.41
403.426	45.74
403.635	15.02
403.844	37.55
404.053	144.04
404.262	80.55
404.471	146.09
404.68	37.55
404.888	105.13
405.097	51.88
405.306	148.14
405.515	139.94
405.724	111.27
405.933	148.14
406.142	172.71
406.35	96.94
406.559	76.46
406.768	111.27
406.977	170.66
407.185	178.86
407.394	146.09
407.603	0.68
407.812	160.42
408.02	109.22
408.229	117.42
408.438	88.75
408.646	219.82
408.855	162.47
409.064	189.1
409.272	76.46
409.481	131.75
409.69	135.85
409.898	86.7
410.107	185
410.315	205.48
410.524	191.14
410.733	238.25
410.941	146.09
411.15	260.77
411.358	215.72
411.567	223.91
411.775	271.01
411.984	348.84
412.192	303.78
412.401	277.16
412.609	252.58
412.818	299.69
413.026	342.69
413.234	299.69
413.443	367.27
413.651	326.31
413.86	348.84
414.068	414.37
414.276	447.14
414.485	400.04
414.693	428.71
414.901	467.62
415.11	447.14
415.318	397.99
415.526	467.62
415.734	469.67
415.943	559.78
416.151	539.3
416.359	475.81
416.567	545.44
416.776	561.83
416.984	696.99
417.192	623.27
417.4	643.74
417.608	606.88
417.817	602.79
418.025	684.7
418.233	848.54
418.441	660.13
418.649	821.92
418.857	774.81
419.065	930.46
419.273	813.73
419.481	862.88
419.689	918.17
419.897	926.36
420.105	928.41
420.313	963.23
420.521	1069.72
420.729	1088.15
420.937	1174.17
421.145	1127.07
421.353	1147.55
421.561	1202.84
421.769	1196.7
421.977	1184.41
422.185	1311.38
422.393	1381.01
422.601	1405.59
422.809	1399.45
423.017	1475.22
423.224	1532.56
423.432	1567.38
423.64	1512.08
423.848	1731.22
424.056	1634.96
424.263	1817.23
424.471	1667.73
424.679	1870.48
424.887	1841.81
425.094	1925.77
425.302	2003.6
425.51	2132.62
425.718	2081.42
425.925	2235.02
426.133	2153.1
426.341	2392.71
426.548	2462.34
426.756	2437.77
426.964	2505.35
427.171	2601.6
427.379	2585.22
427.586	2704
427.794	2734.72
428.001	2978.43
428.209	3027.58
428.417	2896.51
428.624	3308.15
428.832	3213.95
429.039	3183.23
429.247	3256.95
429.454	3453.56
429.662	3650.16
429.869	3527.28
430.076	3721.84
430.284	3596.92
430.491	3805.81
430.699	3895.92
430.906	3998.32
431.114	3947.12
431.321	4256.36
431.528	4428.39
431.736	4631.14
431.943	4682.34
432.15	4510.31
432.358	4608.61
432.565	4956.77
432.772	4788.83
432.979	5057.12
433.187	5263.96
433.394	5276.25
433.601	5456.47
433.808	5730.9
434.016	5571.16
434.223	5829.2
434.43	6195.79
434.637	6009.42
434.844	6447.69
435.052	6488.65
435.259	6527.56
435.466	6533.7
435.673	6435.4
435.88	6953.54
436.087	7336.51
436.294	7172.67
436.501	7139.9
436.708	7172.67
436.915	7443
437.122	7967.28
437.329	7742
437.537	8127.02
437.743	8153.65
437.95	8360.49
438.157	8542.76
438.364	8712.74
438.571	8854.05
438.778	8835.62
438.985	9744.92
439.192	9310.75
439.399	9681.43
439.606	9318.94
439.813	9835.03
440.02	10754.57
440.227	10426.89
440.433	10261.01
440.64	10508.81
440.847	10773
441.054	10865.16
441.261	11583.99
441.467	11268.61
441.674	11520.51
441.881	12098.03
442.088	11876.85
442.294	11721.21
442.501	12169.71
442.708	12268.02
442.914	12702.18
443.121	13398.49
443.328	13056.48
443.534	14004.69
443.741	13455.84
443.948	13165.03
444.154	14272.98
444.361	14293.46
444.568	14256.59
444.774	14471.63
444.981	14485.97
445.187	14674.38
445.394	15401.41
445.6	15364.54
445.807	16585.13
446.013	16236.98
446.22	16495.02
446.426	16972.2
446.633	17408.42
446.839	17844.63
447.046	16918.95
447.252	18082.2
447.459	17893.79
447.665	17865.11
447.871	18612.62
448.078	19241.35
448.284	18510.22
448.491	19042.7
448.697	19628.42
448.903	20328.82
449.11	20267.38
449.316	19739.01
449.522	20134.26
449.728	20924.78
449.935	21137.77
450.141	20932.97
450.347	21535.07
450.553	20773.23
450.76	21191.02
450.966	21655.9
451.172	21623.14
451.378	22151.51
451.584	21469.54
451.791	22266.2
451.997	22124.89
452.203	22372.69
452.409	22544.72
452.615	22311.25
452.821	21571.94
453.027	21619.04
453.233	22524.24
453.44	21778.78
453.646	21971.29
453.852	22002.01
454.058	22538.58
454.264	21844.32
454.47	22540.63
454.676	21641.57
454.882	22186.33
455.088	20681.07
455.294	20719.98
455.5	21180.78
455.705	21473.63
455.911	20599.15
456.117	20455.79
456.323	19964.28
456.529	18889.1
456.735	19700.09
456.941	19122.57
457.147	18878.86
457.352	18557.33
457.558	18121.11
457.764	18370.96
457.97	18074.01
458.176	17490.34
458.381	17760.67
458.587	16720.3
458.793	16763.31
458.999	15774.14
459.204	17271.2
459.41	16472.5
459.616	15458.75
459.821	15534.53
460.027	15499.71
460.233	15194.56
460.438	14365.14
460.644	14682.57
460.85	13824.47
461.055	13726.17
461.261	13672.92
461.466	12612.07
461.672	12188.14
461.878	13062.63
462.083	12415.47
462.289	12001.78
462.494	11823.61
462.7	11244.03
462.905	11112.96
463.111	11315.71
463.316	11520.51
463.522	11268.61
463.727	11344.38
463.932	11127.3
464.138	11051.52
464.343	11067.91
464.549	10846.73
464.754	11135.49
464.959	11260.41
465.165	10684.94
465.37	10492.43
465.575	10283.53
465.781	10625.54
465.986	10732.04
466.191	10406.41
466.397	10318.35
466.602	9609.75
466.807	10045.97
467.012	10011.15
467.218	9941.52
467.423	9720.34
