Data from USB4F104151__297__14-46-32-153.txt Node

Date: Thu Mar 13 14:46:32 EDT 2025
User: louis
Spectrometer: USB4F10415
Trigger mode: 4
Integration Time (sec): 2.000000E-2
Scans to average: 1
Electric dark correction enabled: true
Nonlinearity correction enabled: false
Boxcar width: 0
XAxis mode: Wavelengths
Number of Pixels in Spectrum: 3648
>>>>>Begin Spectral Data<<<<<
178.204	-104.11
178.424	-104.11
178.644	-104.11
178.864	-106.15
179.084	-93.87
179.304	-28.33
179.524	-24.23
179.744	16.73
179.964	29.01
180.184	2.39
180.404	57.68
180.624	-91.82
180.844	61.78
181.064	18.77
181.283	-3.75
181.503	-50.86
181.723	12.63
181.943	-65.19
182.163	-24.23
182.383	-7.85
182.602	51.54
182.822	-20.14
183.042	31.06
183.262	90.45
183.482	29.01
183.701	-13.99
183.921	-3.75
184.141	4.44
184.361	-20.14
184.58	57.68
184.8	20.82
185.02	57.68
185.239	57.68
185.459	33.11
185.679	18.77
185.898	8.53
186.118	51.54
186.338	8.53
186.557	35.16
186.777	-32.43
186.997	18.77
187.216	6.49
187.436	33.11
187.655	18.77
187.875	16.73
188.095	-26.28
188.314	110.93
188.534	59.73
188.753	-63.15
188.973	-1.71
189.192	76.12
189.412	45.4
189.631	8.53
189.851	0.34
190.07	43.35
190.29	-32.43
190.509	14.68
190.729	-20.14
190.948	59.73
191.168	160.08
191.387	14.68
191.607	20.82
191.826	24.92
192.045	22.87
192.265	-1.71
192.484	-24.23
192.704	80.21
192.923	-28.33
193.142	4.44
193.362	31.06
193.581	-3.75
193.8	49.49
194.02	41.3
194.239	39.25
194.458	61.78
194.678	22.87
194.897	51.54
195.116	-1.71
195.335	-24.23
195.555	6.49
195.774	119.12
195.993	47.44
196.212	4.44
196.432	-24.23
196.651	-18.09
196.87	-18.09
197.089	82.26
197.308	-7.85
197.528	78.16
197.747	-40.62
197.966	16.73
198.185	76.12
198.404	-13.99
198.623	88.4
198.842	86.36
199.062	43.35
199.281	92.5
199.5	43.35
199.719	-38.57
199.938	-11.95
200.157	98.64
200.376	4.44
200.595	61.78
200.814	41.3
201.033	26.96
201.252	16.73
201.471	26.96
201.69	55.64
201.909	16.73
202.128	69.97
202.347	24.92
202.566	-5.8
202.785	-22.19
203.004	-24.23
203.223	20.82
203.442	96.6
203.661	2.39
203.879	0.34
204.098	67.92
204.317	10.58
204.536	43.35
204.755	-38.57
204.974	53.59
205.193	59.73
205.411	33.11
205.63	-32.43
205.849	98.64
206.068	45.4
206.287	16.73
206.505	26.96
206.724	-32.43
206.943	8.53
207.162	61.78
207.381	65.88
207.599	33.11
207.818	29.01
208.037	74.07
208.255	16.73
208.474	-24.23
208.693	16.73
208.911	-20.14
209.13	-22.19
209.349	14.68
209.567	31.06
209.786	49.49
210.005	45.4
210.223	74.07
210.442	-24.23
210.661	35.16
210.879	16.73
211.098	94.55
211.316	12.63
211.535	41.3
211.753	41.3
211.972	43.35
212.191	20.82
212.409	47.44
212.628	2.39
212.846	10.58
213.065	10.58
213.283	45.4
213.502	2.39
213.72	84.31
213.938	18.77
214.157	12.63
214.375	57.68
214.594	-16.04
214.812	2.39
215.031	117.08
215.249	-16.04
215.467	-11.95
215.686	-20.14
215.904	125.27
216.122	51.54
216.341	74.07
216.559	41.3
216.778	55.64
216.996	-5.8
217.214	37.2
217.432	-7.85
217.651	8.53
217.869	-89.77
218.087	31.06
218.306	-16.04
218.524	-1.71
218.742	-32.43
218.96	16.73
219.179	-18.09
219.397	-20.14
219.615	61.78
219.833	45.4
220.051	10.58
220.27	151.89
220.488	-13.99
220.706	24.92
220.924	24.92
221.142	53.59
221.36	69.97
221.578	65.88
221.796	8.53
222.015	33.11
222.233	0.34
222.451	16.73
222.669	98.64
222.887	63.83
223.105	82.26
223.323	35.16
223.541	35.16
223.759	47.44
223.977	-24.23
224.195	29.01
224.413	65.88
224.631	10.58
224.849	-24.23
225.067	65.88
225.285	0.34
225.503	8.53
225.721	-16.04
225.939	57.68
226.157	74.07
226.375	53.59
226.592	41.3
226.81	-50.86
227.028	41.3
227.246	100.69
227.464	20.82
227.682	26.96
227.9	57.68
228.117	8.53
228.335	65.88
228.553	-40.62
228.771	26.96
228.989	100.69
229.206	24.92
229.424	-22.19
229.642	67.92
229.86	-40.62
230.077	92.5
230.295	108.88
230.513	20.82
230.731	61.78
230.948	53.59
231.166	76.12
231.384	78.16
231.601	-9.9
231.819	-24.23
232.037	24.92
232.254	20.82
232.472	41.3
232.689	-13.99
232.907	49.49
233.125	-22.19
233.342	39.25
233.56	16.73
233.777	8.53
233.995	14.68
234.213	35.16
234.43	61.78
234.648	94.55
234.865	51.54
235.083	41.3
235.3	-7.85
235.518	18.77
235.735	119.12
235.953	8.53
236.17	20.82
236.388	61.78
236.605	0.34
236.822	10.58
237.04	41.3
237.257	22.87
237.475	-7.85
237.692	16.73
237.909	20.82
238.127	0.34
238.344	57.68
238.562	-7.85
238.779	-46.76
238.996	-34.47
239.214	12.63
239.431	41.3
239.648	67.92
239.865	12.63
240.083	49.49
240.3	57.68
240.517	55.64
240.735	74.07
240.952	2.39
241.169	31.06
241.386	80.21
241.603	59.73
241.821	20.82
242.038	90.45
242.255	45.4
242.472	2.39
242.689	10.58
242.907	84.31
243.124	31.06
243.341	-3.75
243.558	-13.99
243.775	90.45
243.992	-52.91
244.209	88.4
244.426	20.82
244.643	57.68
244.86	12.63
245.078	0.34
245.295	8.53
245.512	41.3
245.729	26.96
245.946	-3.75
246.163	55.64
246.38	-26.28
246.597	51.54
246.814	2.39
247.031	39.25
247.248	41.3
247.464	74.07
247.681	29.01
247.898	45.4
248.115	57.68
248.332	-16.04
248.549	76.12
248.766	37.2
248.983	49.49
249.2	76.12
249.417	57.68
249.633	-77.48
249.85	-1.71
250.067	-36.52
250.284	-7.85
250.501	80.21
250.717	26.96
250.934	-40.62
251.151	12.63
251.368	-40.62
251.585	78.16
251.801	2.39
252.018	37.2
252.235	86.36
252.451	-16.04
252.668	24.92
252.885	16.73
253.102	8.53
253.318	8.53
253.535	-42.67
253.752	51.54
253.968	41.3
254.185	-16.04
254.401	24.92
254.618	61.78
254.835	35.16
255.051	16.73
255.268	84.31
255.484	115.03
255.701	74.07
255.917	67.92
256.134	14.68
256.351	31.06
256.567	69.97
256.784	22.87
257	-34.47
257.217	94.55
257.433	69.97
257.65	51.54
257.866	131.41
258.082	8.53
258.299	8.53
258.515	43.35
258.732	10.58
258.948	8.53
259.165	35.16
259.381	16.73
259.597	41.3
259.814	-3.75
260.03	41.3
260.246	-28.33
260.463	-30.38
260.679	43.35
260.895	-7.85
261.112	47.44
261.328	0.34
261.544	6.49
261.761	53.59
261.977	-13.99
262.193	47.44
262.409	90.45
262.626	24.92
262.842	-18.09
263.058	10.58
263.274	102.74
263.49	106.84
263.707	43.35
263.923	45.4
264.139	-16.04
264.355	0.34
264.571	90.45
264.787	26.96
265.004	78.16
265.22	84.31
265.436	6.49
265.652	-18.09
265.868	65.88
266.084	-69.29
266.3	53.59
266.516	35.16
266.732	-3.75
266.948	65.88
267.164	-7.85
267.38	-13.99
267.596	-11.95
267.812	45.4
268.028	4.44
268.244	-46.76
268.46	-5.8
268.676	6.49
268.892	49.49
269.108	-16.04
269.324	16.73
269.54	-16.04
269.756	26.96
269.972	-7.85
270.188	18.77
270.403	76.12
270.619	65.88
270.835	-3.75
271.051	-9.9
271.267	41.3
271.483	-22.19
271.698	-61.1
271.914	53.59
272.13	-16.04
272.346	8.53
272.562	4.44
272.777	-16.04
272.993	33.11
273.209	-57
273.425	-20.14
273.64	-36.52
273.856	67.92
274.072	-38.57
274.287	-13.99
274.503	57.68
274.719	115.03
274.934	45.4
275.15	10.58
275.366	82.26
275.581	-30.38
275.797	2.39
276.012	98.64
276.228	24.92
276.444	31.06
276.659	43.35
276.875	-30.38
277.09	67.92
277.306	10.58
277.521	8.53
277.737	-5.8
277.952	8.53
278.168	-61.1
278.383	0.34
278.599	-24.23
278.814	82.26
279.03	31.06
279.245	72.02
279.461	31.06
279.676	-7.85
279.892	43.35
280.107	53.59
280.322	57.68
280.538	74.07
280.753	78.16
280.969	-5.8
281.184	-48.81
281.399	18.77
281.615	12.63
281.83	29.01
282.045	-46.76
282.26	2.39
282.476	-7.85
282.691	117.08
282.906	35.16
283.122	-32.43
283.337	10.58
283.552	65.88
283.767	12.63
283.983	8.53
284.198	26.96
284.413	49.49
284.628	20.82
284.843	16.73
285.058	0.34
285.274	53.59
285.489	-13.99
285.704	35.16
285.919	-18.09
286.134	33.11
286.349	20.82
286.564	33.11
286.779	4.44
286.995	8.53
287.21	-22.19
287.425	39.25
287.64	-16.04
287.855	-7.85
288.07	74.07
288.285	69.97
288.5	57.68
288.715	72.02
288.93	63.83
289.145	-32.43
289.36	37.2
289.575	8.53
289.79	76.12
290.004	24.92
290.219	59.73
290.434	24.92
290.649	4.44
290.864	41.3
291.079	108.88
291.294	57.68
291.509	12.63
291.724	20.82
291.938	-24.23
292.153	18.77
292.368	-40.62
292.583	100.69
292.798	35.16
293.012	57.68
293.227	-24.23
293.442	-63.15
293.657	29.01
293.871	0.34
294.086	29.01
294.301	33.11
294.516	49.49
294.73	67.92
294.945	16.73
295.16	59.73
295.374	37.2
295.589	69.97
295.804	8.53
296.018	0.34
296.233	57.68
296.447	-30.38
296.662	18.77
296.877	-11.95
297.091	82.26
297.306	67.92
297.52	-46.76
297.735	90.45
297.949	0.34
298.164	16.73
298.378	49.49
298.593	65.88
298.807	-7.85
299.022	49.49
299.236	24.92
299.451	-36.52
299.665	59.73
299.88	151.89
300.094	22.87
300.309	121.17
300.523	45.4
300.737	-65.19
300.952	-61.1
301.166	67.92
301.381	0.34
301.595	8.53
301.809	-20.14
302.024	8.53
302.238	43.35
302.452	82.26
302.667	0.34
302.881	63.83
303.095	41.3
303.309	-9.9
303.524	-24.23
303.738	-13.99
303.952	-16.04
304.166	31.06
304.381	-16.04
304.595	65.88
304.809	82.26
305.023	61.78
305.237	35.16
305.452	33.11
305.666	26.96
305.88	90.45
306.094	115.03
306.308	88.4
306.522	108.88
306.736	-54.95
306.95	57.68
307.164	37.2
307.379	20.82
307.593	55.64
307.807	24.92
308.021	14.68
308.235	8.53
308.449	10.58
308.663	-16.04
308.877	55.64
309.091	-7.85
309.305	61.78
309.519	8.53
309.733	57.68
309.947	6.49
310.161	41.3
310.374	41.3
310.588	29.01
310.802	-44.71
311.016	-3.75
311.23	29.01
311.444	18.77
311.658	-18.09
311.872	59.73
312.085	0.34
312.299	29.01
312.513	35.16
312.727	67.92
312.941	-3.75
313.154	-18.09
313.368	4.44
313.582	84.31
313.796	39.25
314.009	72.02
314.223	72.02
314.437	65.88
314.651	49.49
314.864	-24.23
315.078	-28.33
315.292	29.01
315.505	-3.75
315.719	55.64
315.933	16.73
316.146	41.3
316.36	12.63
316.573	72.02
316.787	41.3
317.001	69.97
317.214	41.3
317.428	84.31
317.641	-7.85
317.855	106.84
318.068	-38.57
318.282	88.4
318.495	10.58
318.709	-79.53
318.922	76.12
319.136	18.77
319.349	76.12
319.563	94.55
319.776	-20.14
319.99	67.92
320.203	0.34
320.417	43.35
320.63	-85.67
320.843	61.78
321.057	51.54
321.27	33.11
321.483	98.64
321.697	82.26
321.91	-44.71
322.124	65.88
322.337	24.92
322.55	-40.62
322.763	65.88
322.977	24.92
323.19	31.06
323.403	8.53
323.617	16.73
323.83	65.88
324.043	65.88
324.256	78.16
324.469	-11.95
324.683	39.25
324.896	6.49
325.109	41.3
325.322	-28.33
325.535	133.46
325.748	49.49
325.962	31.06
326.175	-24.23
326.388	41.3
326.601	53.59
326.814	-16.04
327.027	49.49
327.24	49.49
327.453	-34.47
327.666	14.68
327.879	2.39
328.092	57.68
328.305	29.01
328.518	0.34
328.731	45.4
328.944	43.35
329.157	78.16
329.37	74.07
329.583	-20.14
329.796	92.5
330.009	-3.75
330.222	18.77
330.435	-11.95
330.648	-16.04
330.861	59.73
331.073	49.49
331.286	-7.85
331.499	24.92
331.712	-28.33
331.925	53.59
332.138	74.07
332.35	24.92
332.563	53.59
332.776	74.07
332.989	4.44
333.202	-48.81
333.414	33.11
333.627	16.73
333.84	51.54
334.053	65.88
334.265	-36.52
334.478	24.92
334.691	-40.62
334.903	47.44
335.116	18.77
335.329	-28.33
335.541	61.78
335.754	84.31
335.966	47.44
336.179	22.87
336.392	45.4
336.604	-30.38
336.817	35.16
337.029	106.84
337.242	-30.38
337.454	49.49
337.667	-1.71
337.88	43.35
338.092	41.3
338.305	26.96
338.517	0.34
338.729	74.07
338.942	12.63
339.154	29.01
339.367	6.49
339.579	18.77
339.792	-11.95
340.004	20.82
340.217	24.92
340.429	-30.38
340.641	24.92
340.854	-18.09
341.066	57.68
341.278	127.32
341.491	45.4
341.703	16.73
341.915	51.54
342.128	86.36
342.34	-11.95
342.552	35.16
342.764	78.16
342.977	4.44
343.189	8.53
343.401	-9.9
343.613	-5.8
343.826	8.53
344.038	-97.96
344.25	78.16
344.462	-65.19
344.674	41.3
344.886	37.2
345.099	45.4
345.311	63.83
345.523	-5.8
345.735	8.53
345.947	53.59
346.159	37.2
346.371	39.25
346.583	-11.95
346.795	100.69
347.007	43.35
347.219	8.53
347.431	74.07
347.643	123.22
347.855	33.11
348.067	49.49
348.279	74.07
348.491	14.68
348.703	72.02
348.915	33.11
349.127	-7.85
349.339	53.59
349.551	-5.8
349.763	61.78
349.975	74.07
350.187	100.69
350.399	41.3
350.61	106.84
350.822	-40.62
351.034	22.87
351.246	-22.19
351.458	31.06
351.669	12.63
351.881	74.07
352.093	53.59
352.305	65.88
352.517	51.54
352.728	115.03
352.94	45.4
353.152	65.88
353.363	8.53
353.575	98.64
353.787	84.31
353.999	10.58
354.21	65.88
354.422	94.55
354.633	-57
354.845	33.11
355.057	49.49
355.268	-7.85
355.48	20.82
355.692	2.39
355.903	16.73
356.115	-16.04
356.326	-32.43
356.538	94.55
356.749	88.4
356.961	37.2
357.172	4.44
357.384	20.82
357.595	53.59
357.807	69.97
358.018	29.01
358.23	8.53
358.441	59.73
358.653	47.44
358.864	41.3
359.075	37.2
359.287	49.49
359.498	67.92
359.709	29.01
359.921	55.64
360.132	26.96
360.344	74.07
360.555	6.49
360.766	20.82
360.977	84.31
361.189	94.55
361.4	65.88
361.611	82.26
361.823	45.4
362.034	-30.38
362.245	2.39
362.456	98.64
362.667	78.16
362.879	0.34
363.09	12.63
363.301	-28.33
363.512	-36.52
363.723	67.92
363.935	51.54
364.146	16.73
364.357	-40.62
364.568	90.45
364.779	-24.23
364.99	104.79
365.201	65.88
365.412	41.3
365.623	0.34
365.834	65.88
366.045	18.77
366.256	41.3
366.467	41.3
366.678	65.88
366.889	0.34
367.1	84.31
367.311	-16.04
367.522	18.77
367.733	45.4
367.944	65.88
368.155	45.4
368.366	74.07
368.577	29.01
368.788	57.68
368.999	26.96
369.209	67.92
369.42	41.3
369.631	106.84
369.842	18.77
370.053	43.35
370.264	65.88
370.474	-7.85
370.685	59.73
370.896	-3.75
371.107	74.07
371.317	61.78
371.528	-13.99
371.739	84.31
371.95	57.68
372.16	-1.71
372.371	-48.81
372.582	-71.34
372.792	29.01
373.003	49.49
373.214	24.92
373.424	-22.19
373.635	-3.75
373.846	78.16
374.056	-16.04
374.267	51.54
374.477	55.64
374.688	24.92
374.898	72.02
375.109	35.16
375.319	0.34
375.53	-5.8
375.74	-36.52
375.951	22.87
376.161	33.11
376.372	106.84
376.582	61.78
376.793	-40.62
377.003	-20.14
377.214	14.68
377.424	10.58
377.635	16.73
377.845	16.73
378.055	24.92
378.266	-44.71
378.476	26.96
378.686	14.68
378.897	82.26
379.107	98.64
379.317	92.5
379.528	29.01
379.738	47.44
379.948	0.34
380.158	72.02
380.369	31.06
380.579	35.16
380.789	33.11
380.999	96.6
381.21	82.26
381.42	49.49
381.63	24.92
381.84	76.12
382.05	67.92
382.261	14.68
382.471	45.4
382.681	49.49
382.891	24.92
383.101	37.2
383.311	12.63
383.521	-7.85
383.731	8.53
383.941	22.87
384.151	10.58
384.361	49.49
384.571	24.92
384.781	41.3
384.991	45.4
385.201	74.07
385.411	47.44
385.621	98.64
385.831	102.74
386.041	74.07
386.251	59.73
386.461	-3.75
386.671	16.73
386.881	65.88
387.091	-16.04
387.301	45.4
387.511	10.58
387.72	24.92
387.93	33.11
388.14	-30.38
388.35	98.64
388.56	57.68
388.769	45.4
388.979	16.73
389.189	-13.99
389.399	72.02
389.609	82.26
389.818	10.58
390.028	74.07
390.238	82.26
390.447	98.64
390.657	24.92
390.867	10.58
391.076	41.3
391.286	-5.8
391.496	100.69
391.705	39.25
391.915	29.01
392.125	53.59
392.334	-79.53
392.544	90.45
392.753	106.84
392.963	6.49
393.172	65.88
393.382	10.58
393.591	88.4
393.801	43.35
394.01	82.26
394.22	53.59
394.429	41.3
394.639	-34.47
394.848	98.64
395.058	-32.43
395.267	33.11
395.477	166.23
395.686	57.68
395.895	131.41
396.105	100.69
396.314	102.74
396.524	49.49
396.733	-16.04
396.942	69.97
397.152	90.45
397.361	82.26
397.57	41.3
397.78	78.16
397.989	131.41
398.198	127.32
398.407	29.01
398.617	41.3
398.826	102.74
399.035	49.49
399.244	74.07
399.453	76.12
399.663	59.73
399.872	67.92
400.081	69.97
400.29	74.07
400.499	20.82
400.708	84.31
400.917	149.84
401.127	67.92
401.336	-5.8
401.545	170.32
401.754	51.54
401.963	76.12
402.172	29.01
402.381	61.78
402.59	57.68
402.799	16.73
403.008	76.12
403.217	59.73
403.426	-32.43
403.635	18.77
403.844	96.6
404.053	39.25
404.262	82.26
404.471	133.46
404.68	153.94
404.888	94.55
405.097	168.27
405.306	65.88
405.515	121.17
405.724	90.45
405.933	74.07
406.142	84.31
406.35	106.84
406.559	82.26
406.768	135.51
406.977	98.64
407.185	127.32
407.394	65.88
407.603	92.5
407.812	127.32
408.02	151.89
408.229	76.12
408.438	149.84
408.646	190.8
408.855	74.07
409.064	287.06
409.272	168.27
409.481	108.88
409.69	131.41
409.898	180.56
410.107	164.18
410.315	180.56
410.524	160.08
410.733	164.18
410.941	180.56
411.15	246.1
411.358	239.95
411.567	239.95
411.775	246.1
411.984	313.68
412.192	131.41
412.401	182.61
412.609	256.34
412.818	242
413.026	217.43
413.234	315.73
413.443	311.63
413.651	289.1
413.86	256.34
414.068	303.44
414.276	332.11
414.485	334.16
414.693	336.21
414.901	354.64
415.11	389.46
415.318	395.6
415.526	360.78
415.734	409.94
415.943	430.41
416.151	467.28
416.359	426.32
416.567	452.94
416.776	469.33
416.984	549.2
417.192	469.33
417.4	483.66
417.608	471.37
417.817	469.33
418.025	534.86
418.233	633.16
418.441	614.73
418.649	606.54
418.857	575.82
419.065	717.13
419.273	614.73
419.481	737.61
419.689	676.17
419.897	813.38
420.105	762.19
420.313	827.72
420.521	880.97
420.729	848.2
420.937	833.86
421.145	901.45
421.353	928.07
421.561	987.46
421.769	983.37
421.977	991.56
422.185	1028.42
422.393	1077.57
422.601	1198.4
422.809	1194.31
423.017	1220.93
423.224	1208.64
423.432	1241.41
423.64	1229.12
423.848	1442.11
424.056	1343.81
424.263	1372.48
424.471	1485.12
424.679	1524.03
424.887	1605.95
425.094	1577.28
425.302	1630.52
425.51	1739.07
425.718	1657.15
425.925	1679.68
426.133	1730.87
426.341	1861.94
426.548	1950.01
426.756	1988.92
426.964	1931.58
427.171	2189.62
427.379	2142.52
427.586	2206
427.794	2378.03
428.001	2263.35
428.209	2556.21
428.417	2408.75
428.624	2674.99
428.832	2535.73
429.039	2662.7
429.247	2658.6
429.454	2847.02
429.662	3023.14
429.869	2869.55
430.076	2943.27
430.284	3105.06
430.491	3014.95
430.699	3158.31
430.906	3289.38
431.114	3363.11
431.321	3408.16
431.528	3473.7
431.736	3787.04
431.943	3909.91
432.15	3641.63
432.358	3711.26
432.565	3926.3
432.772	3899.67
432.979	4247.83
433.187	4194.58
433.394	4235.54
433.601	4655.37
433.808	4604.18
434.016	4423.95
434.223	4741.39
434.43	5087.5
434.637	4911.37
434.844	5312.77
435.052	5261.57
435.259	5261.57
435.466	5277.96
435.673	5353.73
435.88	5613.82
436.087	6072.57
436.294	6062.33
436.501	5794.04
436.708	5871.87
436.915	6213.88
437.122	6496.5
437.329	6463.73
437.537	6631.66
437.743	6686.96
437.95	6555.89
438.157	6920.43
438.364	7151.85
438.571	7129.32
438.778	7153.9
438.985	8100.06
439.192	7567.59
439.399	7784.67
439.606	7629.02
439.813	8134.87
440.02	8517.84
440.227	8372.44
440.433	8464.6
440.64	8814.8
440.847	8476.88
441.054	8653.01
441.261	9375.94
441.467	9251.02
441.674	9306.31
441.881	9629.89
442.088	9554.12
442.294	9636.03
442.501	9760.96
442.708	10234.04
442.914	10373.3
443.121	10948.78
443.328	10262.71
443.534	11196.59
443.741	11038.89
443.948	10643.63
444.154	11540.65
444.361	11702.43
444.568	11841.7
444.774	11847.84
444.981	11587.75
445.187	12169.37
445.394	12443.8
445.6	12462.23
445.807	13619.33
446.013	12898.45
446.22	13181.07
446.426	13625.48
446.633	13926.53
446.839	14583.93
447.046	13963.39
447.252	14428.28
447.459	14592.12
447.665	14471.29
447.871	15212.65
448.078	15845.48
448.284	15356.01
448.491	15470.7
448.697	16109.66
448.903	16355.42
449.11	16437.34
449.316	16179.29
449.522	16380
449.728	17088.59
449.935	17207.37
450.141	17121.36
450.347	17645.64
450.553	17049.68
450.76	17217.61
450.966	17760.33
451.172	17752.13
451.378	18053.19
451.584	17750.09
451.791	18270.27
451.997	18337.85
452.203	18335.81
452.409	18358.33
452.615	18604.09
452.821	17494.09
453.027	17625.16
453.233	18643
453.44	17985.6
453.646	17879.11
453.852	18120.77
454.058	18049.09
454.264	17729.61
454.47	18114.62
454.676	17768.52
454.882	18595.9
455.088	16629.85
455.294	17123.41
455.5	17571.91
455.705	17612.87
455.911	16754.77
456.117	16775.25
456.323	16425.05
456.529	15616.1
456.735	16130.14
456.941	15888.48
457.147	15523.94
457.352	14973.04
457.558	14768.24
457.764	15046.77
457.97	14927.99
458.176	14506.1
458.381	14444.66
458.587	13887.62
458.793	13686.92
458.999	13017.23
459.204	14147.71
459.41	13543.56
459.616	12607.64
459.821	12714.13
460.027	12656.79
460.233	12415.13
460.438	11722.91
460.644	12105.88
460.85	11591.84
461.055	11276.46
461.261	11354.28
461.466	10449.08
461.672	10029.24
461.878	10875.06
462.083	10305.72
462.289	9971.9
462.494	9806.02
462.7	9357.51
462.905	9230.54
463.111	9570.5
463.316	9439.43
463.522	9144.52
463.727	9371.85
463.932	9216.2
464.138	9216.2
464.343	9035.98
464.549	8843.47
464.754	9273.54
464.959	9023.69
465.165	8818.89
465.37	8661.2
465.575	8368.34
465.781	8673.49
465.986	8724.69
466.191	8569.04
466.397	8214.74
466.602	7952.6
466.807	8095.96
467.012	8358.1
467.218	8235.22
467.423	8003.8
467.628	8196.31
467.833	8585.43
468.038	8138.97
468.244	7897.31
468.449	8169.69
468.654	8028.38
468.859	7741.66
469.064	7911.64
469.269	7370.98
