Data from USB4F104151__130__14-44-04-208.txt Node

Date: Thu Mar 13 14:44:04 EDT 2025
User: louis
Spectrometer: USB4F10415
Trigger mode: 4
Integration Time (sec): 2.000000E-2
Scans to average: 1
Electric dark correction enabled: true
Nonlinearity correction enabled: false
Boxcar width: 0
XAxis mode: Wavelengths
Number of Pixels in Spectrum: 3648
>>>>>Begin Spectral Data<<<<<
178.204	-93.87
178.424	-93.87
178.644	-93.87
178.864	-157.35
179.084	-118.44
179.304	49.49
179.524	-22.19
179.744	-79.53
179.964	-7.85
180.184	-32.43
180.404	-81.58
180.624	43.35
180.844	65.88
181.064	-46.76
181.283	24.92
181.503	16.73
181.723	69.97
181.943	-13.99
182.163	26.96
182.383	24.92
182.602	49.49
182.822	57.68
183.042	74.07
183.262	6.49
183.482	76.12
183.701	90.45
183.921	76.12
184.141	-40.62
184.361	115.03
184.58	59.73
184.8	69.97
185.02	8.53
185.239	8.53
185.459	24.92
185.679	41.3
185.898	61.78
186.118	80.21
186.338	24.92
186.557	92.5
186.777	76.12
186.997	18.77
187.216	-52.91
187.436	8.53
187.655	59.73
187.875	53.59
188.095	2.39
188.314	-16.04
188.534	43.35
188.753	-5.8
188.973	69.97
189.192	145.75
189.412	51.54
189.631	108.88
189.851	59.73
190.07	100.69
190.29	16.73
190.509	69.97
190.729	59.73
190.948	33.11
191.168	94.55
191.387	53.59
191.607	-24.23
191.826	65.88
192.045	31.06
192.265	106.84
192.484	55.64
192.704	80.21
192.923	10.58
193.142	84.31
193.362	51.54
193.581	35.16
193.8	49.49
194.02	74.07
194.239	-48.81
194.458	41.3
194.678	117.08
194.897	74.07
195.116	26.96
195.335	-3.75
195.555	8.53
195.774	51.54
195.993	18.77
196.212	-7.85
196.432	45.4
196.651	16.73
196.87	24.92
197.089	94.55
197.308	29.01
197.528	151.89
197.747	-16.04
197.966	-7.85
198.185	78.16
198.404	-3.75
198.623	-3.75
198.842	84.31
199.062	49.49
199.281	-16.04
199.5	65.88
199.719	100.69
199.938	63.83
200.157	59.73
200.376	57.68
200.595	-7.85
200.814	-44.71
201.033	-9.9
201.252	76.12
201.471	24.92
201.69	67.92
201.909	98.64
202.128	80.21
202.347	94.55
202.566	29.01
202.785	4.44
203.004	26.96
203.223	90.45
203.442	20.82
203.661	86.36
203.879	41.3
204.098	117.08
204.317	-22.19
204.536	51.54
204.755	82.26
204.974	16.73
205.193	29.01
205.411	82.26
205.63	47.44
205.849	12.63
206.068	8.53
206.287	35.16
206.505	41.3
206.724	10.58
206.943	115.03
207.162	74.07
207.381	69.97
207.599	65.88
207.818	24.92
208.037	65.88
208.255	47.44
208.474	37.2
208.693	49.49
208.911	16.73
209.13	0.34
209.349	49.49
209.567	98.64
209.786	84.31
210.005	24.92
210.223	26.96
210.442	2.39
210.661	24.92
210.879	26.96
211.098	98.64
211.316	31.06
211.535	24.92
211.753	49.49
211.972	49.49
212.191	108.88
212.409	84.31
212.628	74.07
212.846	24.92
213.065	61.78
213.283	76.12
213.502	-11.95
213.72	0.34
213.938	-3.75
214.157	43.35
214.375	37.2
214.594	84.31
214.812	16.73
215.031	35.16
215.249	24.92
215.467	37.2
215.686	-40.62
215.904	37.2
216.122	94.55
216.341	-24.23
216.559	4.44
216.778	55.64
216.996	78.16
217.214	33.11
217.432	-24.23
217.651	82.26
217.869	4.44
218.087	14.68
218.306	41.3
218.524	45.4
218.742	51.54
218.96	-18.09
219.179	57.68
219.397	35.16
219.615	78.16
219.833	65.88
220.051	26.96
220.27	125.27
220.488	67.92
220.706	90.45
220.924	-69.29
221.142	22.87
221.36	29.01
221.578	61.78
221.796	24.92
222.015	43.35
222.233	0.34
222.451	147.8
222.669	18.77
222.887	33.11
223.105	84.31
223.323	35.16
223.541	45.4
223.759	-34.47
223.977	4.44
224.195	49.49
224.413	59.73
224.631	104.79
224.849	24.92
225.067	41.3
225.285	14.68
225.503	61.78
225.721	49.49
225.939	78.16
226.157	37.2
226.375	82.26
226.592	63.83
226.81	4.44
227.028	-7.85
227.246	108.88
227.464	18.77
227.682	51.54
227.9	45.4
228.117	86.36
228.335	143.7
228.553	55.64
228.771	61.78
228.989	37.2
229.206	37.2
229.424	63.83
229.642	-7.85
229.86	2.39
230.077	20.82
230.295	6.49
230.513	82.26
230.731	49.49
230.948	98.64
231.166	129.36
231.384	20.82
231.601	33.11
231.819	51.54
232.037	-22.19
232.254	8.53
232.472	41.3
232.689	61.78
232.907	100.69
233.125	39.25
233.342	16.73
233.56	45.4
233.777	24.92
233.995	24.92
234.213	55.64
234.43	59.73
234.648	65.88
234.865	55.64
235.083	16.73
235.3	100.69
235.518	31.06
235.735	88.4
235.953	82.26
236.17	65.88
236.388	2.39
236.605	-30.38
236.822	35.16
237.04	35.16
237.257	55.64
237.475	24.92
237.692	41.3
237.909	94.55
238.127	16.73
238.344	53.59
238.562	82.26
238.779	14.68
238.996	74.07
239.214	31.06
239.431	35.16
239.648	100.69
239.865	74.07
240.083	94.55
240.3	16.73
240.517	-63.15
240.735	57.68
240.952	35.16
241.169	92.5
241.386	98.64
241.603	57.68
241.821	18.77
242.038	125.27
242.255	43.35
242.472	-71.34
242.689	-20.14
242.907	61.78
243.124	-7.85
243.341	-11.95
243.558	26.96
243.775	43.35
243.992	-54.95
244.209	102.74
244.426	47.44
244.643	61.78
244.86	-1.71
245.078	67.92
245.295	49.49
245.512	41.3
245.729	0.34
245.946	12.63
246.163	86.36
246.38	8.53
246.597	29.01
246.814	61.78
247.031	-38.57
247.248	43.35
247.464	67.92
247.681	-65.19
247.898	12.63
248.115	49.49
248.332	57.68
248.549	74.07
248.766	16.73
248.983	35.16
249.2	125.27
249.417	100.69
249.633	31.06
249.85	57.68
250.067	63.83
250.284	74.07
250.501	-26.28
250.717	65.88
250.934	8.53
251.151	8.53
251.368	4.44
251.585	57.68
251.801	76.12
252.018	18.77
252.235	-1.71
252.451	-22.19
252.668	12.63
252.885	82.26
253.102	-30.38
253.318	69.97
253.535	47.44
253.752	41.3
253.968	49.49
254.185	37.2
254.401	55.64
254.618	49.49
254.835	65.88
255.051	16.73
255.268	14.68
255.484	76.12
255.701	-9.9
255.917	82.26
256.134	37.2
256.351	74.07
256.567	69.97
256.784	76.12
257	-48.81
257.217	43.35
257.433	26.96
257.65	133.46
257.866	90.45
258.082	4.44
258.299	-38.57
258.515	82.26
258.732	24.92
258.948	24.92
259.165	16.73
259.381	16.73
259.597	24.92
259.814	61.78
260.03	24.92
260.246	57.68
260.463	69.97
260.679	43.35
260.895	65.88
261.112	57.68
261.328	49.49
261.544	74.07
261.761	53.59
261.977	10.58
262.193	20.82
262.409	45.4
262.626	-13.99
262.842	-5.8
263.058	16.73
263.274	31.06
263.49	143.7
263.707	16.73
263.923	59.73
264.139	0.34
264.355	51.54
264.571	102.74
264.787	65.88
265.004	67.92
265.22	59.73
265.436	26.96
265.652	16.73
265.868	72.02
266.084	-11.95
266.3	57.68
266.516	-26.28
266.732	35.16
266.948	51.54
267.164	43.35
267.38	88.4
267.596	74.07
267.812	125.27
268.028	-71.34
268.244	0.34
268.46	78.16
268.676	67.92
268.892	35.16
269.108	12.63
269.324	35.16
269.54	-57
269.756	110.93
269.972	20.82
270.188	57.68
270.403	14.68
270.619	65.88
270.835	84.31
271.051	59.73
271.267	24.92
271.483	86.36
271.698	51.54
271.914	88.4
272.13	2.39
272.346	24.92
272.562	102.74
272.777	51.54
272.993	-5.8
273.209	102.74
273.425	86.36
273.64	35.16
273.856	26.96
274.072	29.01
274.287	33.11
274.503	82.26
274.719	94.55
274.934	82.26
275.15	18.77
275.366	16.73
275.581	61.78
275.797	-22.19
276.012	90.45
276.228	-5.8
276.444	61.78
276.659	115.03
276.875	20.82
277.09	49.49
277.306	-18.09
277.521	26.96
277.737	-32.43
277.952	49.49
278.168	86.36
278.383	-3.75
278.599	-3.75
278.814	82.26
279.03	-16.04
279.245	65.88
279.461	57.68
279.676	65.88
279.892	2.39
280.107	14.68
280.322	4.44
280.538	16.73
280.753	37.2
280.969	-48.81
281.184	65.88
281.399	67.92
281.615	65.88
281.83	65.88
282.045	22.87
282.26	37.2
282.476	45.4
282.691	92.5
282.906	65.88
283.122	51.54
283.337	4.44
283.552	33.11
283.767	57.68
283.983	49.49
284.198	22.87
284.413	59.73
284.628	29.01
284.843	33.11
285.058	51.54
285.274	24.92
285.489	16.73
285.704	59.73
285.919	-13.99
286.134	43.35
286.349	-26.28
286.564	4.44
286.779	98.64
286.995	-32.43
287.21	-24.23
287.425	63.83
287.64	24.92
287.855	33.11
288.07	92.5
288.285	-5.8
288.5	18.77
288.715	92.5
288.93	57.68
289.145	-20.14
289.36	-9.9
289.575	20.82
289.79	137.56
290.004	26.96
290.219	90.45
290.434	-1.71
290.649	10.58
290.864	41.3
291.079	26.96
291.294	-48.81
291.509	33.11
291.724	94.55
291.938	24.92
292.153	106.84
292.368	37.2
292.583	164.18
292.798	59.73
293.012	20.82
293.227	51.54
293.442	-13.99
293.657	86.36
293.871	43.35
294.086	72.02
294.301	131.41
294.516	35.16
294.73	74.07
294.945	-16.04
295.16	29.01
295.374	33.11
295.589	65.88
295.804	24.92
296.018	125.27
296.233	69.97
296.447	59.73
296.662	10.58
296.877	59.73
297.091	-9.9
297.306	90.45
297.52	82.26
297.735	88.4
297.949	78.16
298.164	51.54
298.378	65.88
298.593	-7.85
298.807	-42.67
299.022	63.83
299.236	43.35
299.451	35.16
299.665	31.06
299.88	57.68
300.094	88.4
300.309	0.34
300.523	61.78
300.737	43.35
300.952	24.92
301.166	24.92
301.381	82.26
301.595	-36.52
301.809	45.4
302.024	-13.99
302.238	37.2
302.452	108.88
302.667	41.3
302.881	65.88
303.095	35.16
303.309	51.54
303.524	26.96
303.738	108.88
303.952	78.16
304.166	65.88
304.381	24.92
304.595	67.92
304.809	65.88
305.023	24.92
305.237	69.97
305.452	57.68
305.666	67.92
305.88	84.31
306.094	98.64
306.308	-16.04
306.522	37.2
306.736	119.12
306.95	84.31
307.164	67.92
307.379	59.73
307.593	37.2
307.807	115.03
308.021	-7.85
308.235	125.27
308.449	-65.19
308.663	57.68
308.877	74.07
309.091	74.07
309.305	59.73
309.519	8.53
309.733	82.26
309.947	-75.43
310.161	147.8
310.374	76.12
310.588	45.4
310.802	24.92
311.016	8.53
311.23	16.73
311.444	61.78
311.658	53.59
311.872	74.07
312.085	74.07
312.299	8.53
312.513	80.21
312.727	43.35
312.941	41.3
313.154	41.3
313.368	33.11
313.582	86.36
313.796	6.49
314.009	98.64
314.223	106.84
314.437	24.92
314.651	47.44
314.864	57.68
315.078	67.92
315.292	53.59
315.505	-7.85
315.719	59.73
315.933	86.36
316.146	10.58
316.36	0.34
316.573	74.07
316.787	51.54
317.001	57.68
317.214	55.64
317.428	0.34
317.641	35.16
317.855	94.55
318.068	45.4
318.282	61.78
318.495	55.64
318.709	33.11
318.922	-38.57
319.136	127.32
319.349	59.73
319.563	76.12
319.776	0.34
319.99	131.41
320.203	24.92
320.417	41.3
320.63	24.92
320.843	65.88
321.057	24.92
321.27	26.96
321.483	57.68
321.697	57.68
321.91	57.68
322.124	-7.85
322.337	80.21
322.55	-24.23
322.763	67.92
322.977	-42.67
323.19	-40.62
323.403	94.55
323.617	35.16
323.83	61.78
324.043	-18.09
324.256	61.78
324.469	29.01
324.683	94.55
324.896	29.01
325.109	0.34
325.322	12.63
325.535	67.92
325.748	63.83
325.962	96.6
326.175	67.92
326.388	6.49
326.601	98.64
326.814	8.53
327.027	96.6
327.24	98.64
327.453	-13.99
327.666	94.55
327.879	0.34
328.092	57.68
328.305	90.45
328.518	29.01
328.731	-3.75
328.944	65.88
329.157	98.64
329.37	51.54
329.583	139.6
329.796	67.92
330.009	47.44
330.222	67.92
330.435	123.22
330.648	147.8
330.861	43.35
331.073	18.77
331.286	69.97
331.499	88.4
331.712	-7.85
331.925	-16.04
332.138	-22.19
332.35	131.41
332.563	24.92
332.776	35.16
332.989	106.84
333.202	16.73
333.414	-44.71
333.627	35.16
333.84	98.64
334.053	69.97
334.265	31.06
334.478	-3.75
334.691	74.07
334.903	16.73
335.116	102.74
335.329	16.73
335.541	102.74
335.754	102.74
335.966	20.82
336.179	45.4
336.392	74.07
336.604	69.97
336.817	35.16
337.029	45.4
337.242	43.35
337.454	57.68
337.667	57.68
337.88	41.3
338.092	88.4
338.305	43.35
338.517	-16.04
338.729	117.08
338.942	33.11
339.154	45.4
339.367	35.16
339.579	94.55
339.792	-16.04
340.004	78.16
340.217	80.21
340.429	92.5
340.641	41.3
340.854	-44.71
341.066	4.44
341.278	29.01
341.491	65.88
341.703	33.11
341.915	18.77
342.128	90.45
342.34	35.16
342.552	41.3
342.764	16.73
342.977	49.49
343.189	61.78
343.401	24.92
343.613	10.58
343.826	49.49
344.038	59.73
344.25	0.34
344.462	4.44
344.674	39.25
344.886	74.07
345.099	65.88
345.311	57.68
345.523	82.26
345.735	-11.95
345.947	94.55
346.159	53.59
346.371	74.07
346.583	8.53
346.795	127.32
347.007	2.39
347.219	12.63
347.431	49.49
347.643	65.88
347.855	24.92
348.067	59.73
348.279	-7.85
348.491	96.6
348.703	31.06
348.915	-3.75
349.127	41.3
349.339	35.16
349.551	10.58
349.763	74.07
349.975	-65.19
350.187	86.36
350.399	84.31
350.61	86.36
350.822	8.53
351.034	115.03
351.246	16.73
351.458	49.49
351.669	43.35
351.881	33.11
352.093	98.64
352.305	74.07
352.517	2.39
352.728	100.69
352.94	26.96
353.152	88.4
353.363	8.53
353.575	61.78
353.787	110.93
353.999	-16.04
354.21	147.8
354.422	29.01
354.633	-38.57
354.845	43.35
355.057	108.88
355.268	67.92
355.48	26.96
355.692	86.36
355.903	45.4
356.115	8.53
356.326	4.44
356.538	147.8
356.749	4.44
356.961	57.68
357.172	-13.99
357.384	57.68
357.595	153.94
357.807	53.59
358.018	-32.43
358.23	123.22
358.441	90.45
358.653	61.78
358.864	61.78
359.075	82.26
359.287	37.2
359.498	51.54
359.709	82.26
359.921	63.83
360.132	55.64
360.344	57.68
360.555	-38.57
360.766	8.53
360.977	0.34
361.189	131.41
361.4	-24.23
361.611	110.93
361.823	117.08
362.034	69.97
362.245	65.88
362.456	49.49
362.667	96.6
362.879	74.07
363.09	143.7
363.301	106.84
363.512	98.64
363.723	-30.38
363.935	18.77
364.146	123.22
364.357	59.73
364.568	33.11
364.779	35.16
364.99	-3.75
365.201	69.97
365.412	106.84
365.623	51.54
365.834	74.07
366.045	-48.81
366.256	-11.95
366.467	41.3
366.678	133.46
366.889	29.01
367.1	61.78
367.311	37.2
367.522	78.16
367.733	96.6
367.944	51.54
368.155	18.77
368.366	16.73
368.577	82.26
368.788	108.88
368.999	8.53
369.209	82.26
369.42	65.88
369.631	69.97
369.842	12.63
370.053	49.49
370.264	51.54
370.474	16.73
370.685	80.21
370.896	41.3
371.107	129.36
371.317	33.11
371.528	49.49
371.739	43.35
371.95	49.49
372.16	86.36
372.371	20.82
372.582	39.25
372.792	65.88
373.003	98.64
373.214	90.45
373.424	33.11
373.635	-57
373.846	67.92
374.056	49.49
374.267	63.83
374.477	51.54
374.688	86.36
374.898	98.64
375.109	90.45
375.319	51.54
375.53	43.35
375.74	53.59
375.951	26.96
376.161	82.26
376.372	8.53
376.582	-3.75
376.793	153.94
377.003	37.2
377.214	51.54
377.424	57.68
377.635	53.59
377.845	51.54
378.055	90.45
378.266	33.11
378.476	94.55
378.686	-7.85
378.897	94.55
379.107	84.31
379.317	98.64
379.528	78.16
379.738	69.97
379.948	41.3
380.158	49.49
380.369	88.4
380.579	76.12
380.789	-22.19
380.999	74.07
381.21	22.87
381.42	131.41
381.63	74.07
381.84	84.31
382.05	33.11
382.261	67.92
382.471	82.26
382.681	51.54
382.891	90.45
383.101	33.11
383.311	78.16
383.521	12.63
383.731	53.59
383.941	18.77
384.151	67.92
384.361	2.39
384.571	100.69
384.781	26.96
384.991	131.41
385.201	92.5
385.411	41.3
385.621	76.12
385.831	10.58
386.041	16.73
386.251	82.26
386.461	92.5
386.671	-20.14
386.881	123.22
387.091	18.77
387.301	137.56
387.511	90.45
387.72	10.58
387.93	37.2
388.14	-11.95
388.35	72.02
388.56	90.45
388.769	18.77
388.979	-9.9
389.189	29.01
389.399	49.49
389.609	-24.23
389.818	127.32
390.028	57.68
390.238	57.68
390.447	74.07
390.657	59.73
390.867	90.45
391.076	-7.85
391.286	80.21
391.496	57.68
391.705	59.73
391.915	86.36
392.125	33.11
392.334	82.26
392.544	67.92
392.753	74.07
392.963	-44.71
393.172	82.26
393.382	-13.99
393.591	117.08
393.801	67.92
394.01	100.69
394.22	24.92
394.429	65.88
394.639	8.53
394.848	82.26
395.058	45.4
395.267	69.97
395.477	125.27
395.686	117.08
395.895	49.49
396.105	155.99
396.314	137.56
396.524	102.74
396.733	24.92
396.942	127.32
397.152	207.19
397.361	155.99
397.57	127.32
397.78	12.63
397.989	115.03
398.198	153.94
398.407	20.82
398.617	65.88
398.826	63.83
399.035	76.12
399.244	123.22
399.453	67.92
399.663	49.49
399.872	115.03
400.081	94.55
400.29	123.22
400.499	65.88
400.708	133.46
400.917	55.64
401.127	29.01
401.336	90.45
401.545	221.52
401.754	84.31
401.963	139.6
402.172	145.75
402.381	127.32
402.59	84.31
402.799	106.84
403.008	205.14
403.217	82.26
403.426	135.51
403.635	82.26
403.844	190.8
404.053	141.65
404.262	110.93
404.471	209.23
404.68	133.46
404.888	106.84
405.097	76.12
405.306	153.94
405.515	151.89
405.724	137.56
405.933	108.88
406.142	147.8
406.35	194.9
406.559	100.69
406.768	106.84
406.977	217.43
407.185	176.47
407.394	166.23
407.603	123.22
407.812	258.39
408.02	270.67
408.229	174.42
408.438	227.67
408.646	151.89
408.855	172.37
409.064	242
409.272	182.61
409.481	229.71
409.69	209.23
409.898	270.67
410.107	213.33
410.315	299.34
410.524	285.01
410.733	266.58
410.941	285.01
411.15	321.87
411.358	303.44
411.567	328.02
411.775	311.63
411.984	360.78
412.192	381.26
412.401	381.26
412.609	401.74
412.818	377.17
413.026	430.41
413.234	467.28
413.443	364.88
413.651	373.07
413.86	538.96
414.068	483.66
414.276	491.85
414.485	471.37
414.693	545.1
414.901	598.35
415.11	622.92
415.318	551.24
415.526	557.39
415.734	553.29
415.943	561.48
416.151	706.89
416.359	569.68
416.567	647.5
416.776	659.79
416.984	694.6
417.192	756.04
417.4	708.94
417.608	733.51
417.817	823.62
418.025	741.71
418.233	874.82
418.441	844.1
418.649	913.74
418.857	915.78
419.065	993.61
419.273	942.41
419.481	995.65
419.689	1063.24
419.897	1098.05
420.105	995.65
420.313	1069.38
420.521	1214.79
420.729	1139.01
420.937	1239.36
421.145	1282.37
421.353	1276.23
421.561	1507.65
421.769	1450.3
421.977	1421.63
422.185	1435.97
422.393	1636.67
422.601	1782.07
422.809	1655.1
423.017	1728.83
423.224	1726.78
423.432	1814.84
423.64	1769.79
423.848	1868.09
424.056	1900.86
424.263	2083.13
424.471	1995.06
424.679	2187.57
424.887	2287.92
425.094	2320.69
425.302	2318.64
425.51	2345.27
425.718	2531.63
425.925	2556.21
426.133	2720.04
426.341	2656.56
426.548	2900.27
426.756	2756.91
426.964	2777.39
427.171	2930.98
427.379	3129.64
427.586	3174.69
427.794	3279.14
428.001	3424.55
428.209	3619.1
428.417	3514.66
428.624	3629.34
428.832	3737.88
429.039	3592.48
429.247	3737.88
429.454	3932.44
429.662	4428.05
429.869	3950.87
430.076	4256.02
430.284	4163.86
430.491	4550.93
430.699	4473.11
430.906	4686.09
431.114	4509.97
431.321	4753.68
431.528	5081.35
431.736	5132.55
431.943	5370.12
432.15	5216.52
432.358	5464.32
432.565	5570.82
432.772	5581.06
432.979	5869.82
433.187	5957.88
433.394	6123.77
433.601	6351.09
433.808	6525.17
434.016	6414.58
434.223	6555.89
434.43	7131.37
434.637	6916.33
434.844	7483.62
435.052	7409.89
435.259	7409.89
435.466	7737.57
435.673	7450.85
435.88	8001.76
436.087	8167.64
436.294	8390.87
436.501	8069.34
436.708	8300.76
436.915	8675.54
437.122	8964.3
437.329	9109.71
437.537	9185.48
437.743	9445.57
437.95	9277.64
438.157	9785.54
438.364	10123.45
438.571	10160.31
438.778	10195.13
438.985	11192.49
439.192	10729.65
439.399	11174.06
439.606	10901.68
439.813	11352.23
440.02	12116.12
440.227	11886.75
440.433	11720.87
440.64	12269.72
440.847	12023.97
441.054	12288.15
441.261	13162.64
441.467	13002.89
441.674	13185.16
441.881	13758.6
442.088	13803.65
442.294	13527.17
442.501	13901.95
442.708	13987.97
442.914	14706.8
443.121	15108.21
443.328	14901.36
443.534	15997.03
443.741	15851.62
443.948	15149.17
444.154	16359.52
444.361	16506.97
444.568	16490.59
444.774	16474.2
444.981	16564.31
445.187	17229.9
445.394	17915.97
445.6	17494.09
445.807	19132.47
446.013	18284.61
446.22	18868.28
446.426	19431.47
446.633	19705.9
446.839	20242.46
447.046	19236.91
447.252	20639.77
447.459	20807.7
447.665	20629.53
447.871	21202.96
448.078	22419.46
448.284	21098.52
448.491	21860.36
448.697	22751.23
448.903	22917.11
449.11	23240.69
449.316	22783.99
449.522	23375.86
449.728	24059.88
449.935	24358.88
450.141	24008.68
450.347	24592.35
450.553	23977.96
450.76	24164.32
450.966	25114.58
451.172	24637.41
451.378	25405.39
451.584	24645.6
451.791	25538.51
451.997	25497.55
452.203	25817.04
452.409	25771.98
452.615	25853.9
452.821	24690.65
453.027	24348.64
453.233	25980.87
453.44	24911.83
453.646	25153.49
453.852	25391.06
454.058	25616.33
454.264	24960.98
454.47	25294.8
454.676	24690.65
454.882	25622.48
455.088	23633.9
455.294	23965.67
455.5	24164.32
455.705	24422.37
455.911	23437.3
456.117	23388.14
456.323	22722.55
456.529	21610.51
456.735	22374.4
456.941	21733.39
457.147	21663.75
457.352	20566.04
457.558	20568.09
457.764	20717.59
457.97	20496.41
458.176	19943.46
458.381	20142.11
458.587	19005.49
458.793	18855.99
458.999	18194.5
459.204	19431.47
459.41	18782.26
459.616	17555.53
459.821	17631.3
460.027	17510.47
460.233	17248.33
460.438	16334.94
460.644	16605.27
460.85	15749.22
461.055	15319.15
461.261	15624.29
461.466	14547.06
461.672	13944.96
461.878	14723.19
462.083	13828.23
462.289	13707.4
462.494	13648.01
462.7	13025.42
462.905	12734.61
463.111	13152.4
463.316	13068.43
463.522	12673.17
463.727	12740.75
463.932	12845.2
464.138	12560.53
464.343	12531.86
464.549	12269.72
464.754	12681.36
464.959	12525.72
465.165	12451.99
465.37	11989.15
465.575	11638.95
465.781	12066.97
465.986	12222.62
466.191	11880.61
466.397	11606.18
466.602	10868.91
466.807	11477.16
467.012	11403.43
467.218	11362.47
467.423	11356.33
467.628	11358.38
467.833	11610.28
468.038	11389.1
