Data from USB4F104151__212__14-45-27-148.txt Node

Date: Thu Mar 13 14:45:27 EDT 2025
User: louis
Spectrometer: USB4F10415
Trigger mode: 4
Integration Time (sec): 2.000000E-2
Scans to average: 1
Electric dark correction enabled: true
Nonlinearity correction enabled: false
Boxcar width: 0
XAxis mode: Wavelengths
Number of Pixels in Spectrum: 3648
>>>>>Begin Spectral Data<<<<<
178.204	-23.55
178.424	-23.55
178.644	-23.55
178.864	-97.28
179.084	-48.13
179.304	-3.07
179.524	-39.94
179.744	19.46
179.964	3.07
180.184	68.61
180.404	-23.55
180.624	93.18
180.844	-84.99
181.064	-15.36
181.283	19.46
181.503	-54.27
181.723	17.41
181.943	-9.22
182.163	64.51
182.383	17.41
182.602	11.26
182.822	101.37
183.042	39.94
183.262	37.89
183.482	1.02
183.701	-23.55
183.921	-1.02
184.141	58.37
184.361	128
184.58	111.61
184.8	1.02
185.02	41.98
185.239	39.94
185.459	56.32
185.679	101.37
185.898	-60.42
186.118	17.41
186.338	115.71
186.557	109.57
186.777	17.41
186.997	76.8
187.216	50.18
187.436	107.52
187.655	-29.7
187.875	54.27
188.095	1.02
188.314	78.85
188.534	-21.5
188.753	44.03
188.973	82.94
189.192	76.8
189.412	41.98
189.631	44.03
189.851	99.33
190.07	93.18
190.29	-3.07
190.509	25.6
190.729	19.46
190.948	82.94
191.168	173.05
191.387	13.31
191.607	91.13
191.826	99.33
192.045	87.04
192.265	62.46
192.484	35.84
192.704	95.23
192.923	-3.07
193.142	87.04
193.362	70.65
193.581	78.85
193.8	107.52
194.02	41.98
194.239	54.27
194.458	33.79
194.678	52.22
194.897	66.56
195.116	91.13
195.335	84.99
195.555	95.23
195.774	35.84
195.993	66.56
196.212	35.84
196.432	29.7
196.651	11.26
196.87	37.89
197.089	132.09
197.308	87.04
197.528	101.37
197.747	50.18
197.966	-41.98
198.185	101.37
198.404	62.46
198.623	109.57
198.842	68.61
199.062	44.03
199.281	125.95
199.5	87.04
199.719	9.22
199.938	-44.03
200.157	52.22
200.376	25.6
200.595	78.85
200.814	158.72
201.033	25.6
201.252	99.33
201.471	66.56
201.69	62.46
201.909	46.08
202.128	70.65
202.347	15.36
202.566	41.98
202.785	35.84
203.004	33.79
203.223	123.9
203.442	66.56
203.661	25.6
203.879	125.95
204.098	48.13
204.317	-1.02
204.536	89.09
204.755	78.85
204.974	9.22
205.193	82.94
205.411	117.76
205.63	70.65
205.849	91.13
206.068	62.46
206.287	19.46
206.505	130.05
206.724	78.85
206.943	52.22
207.162	5.12
207.381	37.89
207.599	41.98
207.818	15.36
208.037	29.7
208.255	29.7
208.474	25.6
208.693	103.42
208.911	-5.12
209.13	140.29
209.349	68.61
209.567	82.94
209.786	74.75
210.005	-3.07
210.223	9.22
210.442	1.02
210.661	33.79
210.879	5.12
211.098	41.98
211.316	152.57
211.535	140.29
211.753	13.31
211.972	82.94
212.191	52.22
212.409	35.84
212.628	72.7
212.846	-19.46
213.065	25.6
213.283	76.8
213.502	168.96
213.72	11.26
213.938	62.46
214.157	17.41
214.375	82.94
214.594	33.79
214.812	103.42
215.031	64.51
215.249	25.6
215.467	74.75
215.686	25.6
215.904	91.13
216.122	-13.31
216.341	95.23
216.559	78.85
216.778	82.94
216.996	95.23
217.214	15.36
217.432	62.46
217.651	-7.17
217.869	66.56
218.087	5.12
218.306	25.6
218.524	15.36
218.742	41.98
218.96	166.91
219.179	115.71
219.397	99.33
219.615	107.52
219.833	66.56
220.051	27.65
220.27	62.46
220.488	-15.36
220.706	27.65
220.924	82.94
221.142	60.42
221.36	-29.7
221.578	33.79
221.796	99.33
222.015	91.13
222.233	84.99
222.451	33.79
222.669	58.37
222.887	33.79
223.105	82.94
223.323	41.98
223.541	9.22
223.759	78.85
223.977	-21.5
224.195	9.22
224.413	113.66
224.631	125.95
224.849	48.13
225.067	132.09
225.285	3.07
225.503	19.46
225.721	-33.79
225.939	-23.55
226.157	107.52
226.375	132.09
226.592	33.79
226.81	107.52
227.028	78.85
227.246	146.43
227.464	68.61
227.682	117.76
227.9	33.79
228.117	13.31
228.335	44.03
228.553	54.27
228.771	-37.89
228.989	66.56
229.206	62.46
229.424	21.5
229.642	11.26
229.86	54.27
230.077	117.76
230.295	27.65
230.513	62.46
230.731	31.74
230.948	19.46
231.166	13.31
231.384	-15.36
231.601	7.17
231.819	52.22
232.037	95.23
232.254	17.41
232.472	35.84
232.689	-7.17
232.907	76.8
233.125	56.32
233.342	101.37
233.56	68.61
233.777	68.61
233.995	91.13
234.213	123.9
234.43	41.98
234.648	78.85
234.865	56.32
235.083	74.75
235.3	91.13
235.518	91.13
235.735	148.48
235.953	33.79
236.17	35.84
236.388	125.95
236.605	70.65
236.822	58.37
237.04	130.05
237.257	41.98
237.475	-78.85
237.692	95.23
237.909	70.65
238.127	7.17
238.344	-23.55
238.562	99.33
238.779	58.37
238.996	87.04
239.214	146.43
239.431	54.27
239.648	78.85
239.865	99.33
240.083	132.09
240.3	5.12
240.517	21.5
240.735	37.89
240.952	41.98
241.169	68.61
241.386	52.22
241.603	41.98
241.821	-23.55
242.038	25.6
242.255	35.84
242.472	27.65
242.689	44.03
242.907	-11.26
243.124	70.65
243.341	66.56
243.558	68.61
243.775	-3.07
243.992	17.41
244.209	27.65
244.426	37.89
244.643	62.46
244.86	84.99
245.078	50.18
245.295	13.31
245.512	93.18
245.729	123.9
245.946	41.98
246.163	-7.17
246.38	107.52
246.597	33.79
246.814	54.27
247.031	101.37
247.248	115.71
247.464	82.94
247.681	125.95
247.898	9.22
248.115	64.51
248.332	27.65
248.549	193.53
248.766	72.7
248.983	76.8
249.2	11.26
249.417	66.56
249.633	54.27
249.85	107.52
250.067	1.02
250.284	35.84
250.501	25.6
250.717	-1.02
250.934	37.89
251.151	13.31
251.368	17.41
251.585	41.98
251.801	66.56
252.018	39.94
252.235	82.94
252.451	33.79
252.668	56.32
252.885	117.76
253.102	64.51
253.318	140.29
253.535	37.89
253.752	3.07
253.968	41.98
254.185	5.12
254.401	58.37
254.618	103.42
254.835	54.27
255.051	128
255.268	95.23
255.484	128
255.701	19.46
255.917	50.18
256.134	7.17
256.351	97.28
256.567	-17.41
256.784	-48.13
257	46.08
257.217	52.22
257.433	119.81
257.65	123.9
257.866	82.94
258.082	39.94
258.299	23.55
258.515	11.26
258.732	1.02
258.948	-5.12
259.165	66.56
259.381	41.98
259.597	-3.07
259.814	82.94
260.03	41.98
260.246	41.98
260.463	142.33
260.679	72.7
260.895	-15.36
261.112	58.37
261.328	-7.17
261.544	33.79
261.761	152.57
261.977	25.6
262.193	-15.36
262.409	70.65
262.626	68.61
262.842	46.08
263.058	48.13
263.274	60.42
263.49	89.09
263.707	44.03
263.923	70.65
264.139	29.7
264.355	84.99
264.571	74.75
264.787	52.22
265.004	115.71
265.22	7.17
265.436	76.8
265.652	50.18
265.868	78.85
266.084	84.99
266.3	66.56
266.516	50.18
266.732	1.02
266.948	68.61
267.164	70.65
267.38	140.29
267.596	66.56
267.812	125.95
268.028	97.28
268.244	1.02
268.46	82.94
268.676	97.28
268.892	111.61
269.108	84.99
269.324	66.56
269.54	41.98
269.756	66.56
269.972	31.74
270.188	-7.17
270.403	66.56
270.619	17.41
270.835	87.04
271.051	117.76
271.267	33.79
271.483	82.94
271.698	52.22
271.914	64.51
272.13	5.12
272.346	103.42
272.562	58.37
272.777	46.08
272.993	62.46
273.209	25.6
273.425	70.65
273.64	35.84
273.856	91.13
274.072	50.18
274.287	1.02
274.503	19.46
274.719	91.13
274.934	66.56
275.15	82.94
275.366	39.94
275.581	25.6
275.797	-31.74
276.012	37.89
276.228	44.03
276.444	17.41
276.659	113.66
276.875	41.98
277.09	66.56
277.306	64.51
277.521	50.18
277.737	78.85
277.952	109.57
278.168	-5.12
278.383	82.94
278.599	82.94
278.814	15.36
279.03	109.57
279.245	41.98
279.461	27.65
279.676	33.79
279.892	-58.37
280.107	27.65
280.322	74.75
280.538	117.76
280.753	68.61
280.969	95.23
281.184	70.65
281.399	115.71
281.615	66.56
281.83	58.37
282.045	13.31
282.26	-15.36
282.476	91.13
282.691	60.42
282.906	-7.17
283.122	41.98
283.337	41.98
283.552	56.32
283.767	27.65
283.983	93.18
284.198	52.22
284.413	41.98
284.628	46.08
284.843	138.24
285.058	44.03
285.274	125.95
285.489	62.46
285.704	50.18
285.919	87.04
286.134	107.52
286.349	82.94
286.564	91.13
286.779	107.52
286.995	76.8
287.21	23.55
287.425	125.95
287.64	33.79
287.855	25.6
288.07	7.17
288.285	13.31
288.5	95.23
288.715	33.79
288.93	-17.41
289.145	84.99
289.36	76.8
289.575	70.65
289.79	33.79
290.004	-19.46
290.219	37.89
290.434	-23.55
290.649	25.6
290.864	-11.26
291.079	25.6
291.294	21.5
291.509	132.09
291.724	41.98
291.938	60.42
292.153	19.46
292.368	41.98
292.583	13.31
292.798	9.22
293.012	87.04
293.227	76.8
293.442	91.13
293.657	91.13
293.871	33.79
294.086	76.8
294.301	97.28
294.516	132.09
294.73	31.74
294.945	3.07
295.16	60.42
295.374	128
295.589	168.96
295.804	15.36
296.018	19.46
296.233	91.13
296.447	84.99
296.662	3.07
296.877	62.46
297.091	70.65
297.306	84.99
297.52	13.31
297.735	68.61
297.949	91.13
298.164	44.03
298.378	33.79
298.593	33.79
298.807	33.79
299.022	99.33
299.236	-7.17
299.451	41.98
299.665	17.41
299.88	9.22
300.094	1.02
300.309	80.89
300.523	93.18
300.737	72.7
300.952	115.71
301.166	76.8
301.381	74.75
301.595	68.61
301.809	107.52
302.024	66.56
302.238	41.98
302.452	123.9
302.667	29.7
302.881	80.89
303.095	46.08
303.309	44.03
303.524	50.18
303.738	5.12
303.952	19.46
304.166	50.18
304.381	-15.36
304.595	125.95
304.809	-66.56
305.023	62.46
305.237	50.18
305.452	82.94
305.666	101.37
305.88	91.13
306.094	17.41
306.308	62.46
306.522	68.61
306.736	50.18
306.95	54.27
307.164	5.12
307.379	-5.12
307.593	50.18
307.807	93.18
308.021	76.8
308.235	56.32
308.449	56.32
308.663	-39.94
308.877	103.42
309.091	62.46
309.305	58.37
309.519	13.31
309.733	125.95
309.947	54.27
310.161	31.74
310.374	99.33
310.588	130.05
310.802	-5.12
311.016	54.27
311.23	-37.89
311.444	41.98
311.658	84.99
311.872	64.51
312.085	109.57
312.299	21.5
312.513	91.13
312.727	58.37
312.941	52.22
313.154	115.71
313.368	58.37
313.582	74.75
313.796	76.8
314.009	144.38
314.223	54.27
314.437	82.94
314.651	105.47
314.864	62.46
315.078	52.22
315.292	58.37
315.505	95.23
315.719	66.56
315.933	52.22
316.146	66.56
316.36	5.12
316.573	89.09
316.787	35.84
317.001	54.27
317.214	33.79
317.428	50.18
317.641	80.89
317.855	25.6
318.068	37.89
318.282	52.22
318.495	91.13
318.709	82.94
318.922	39.94
319.136	56.32
319.349	33.79
319.563	52.22
319.776	3.07
319.99	17.41
320.203	46.08
320.417	91.13
320.63	91.13
320.843	58.37
321.057	17.41
321.27	82.94
321.483	62.46
321.697	107.52
321.91	11.26
322.124	37.89
322.337	13.31
322.55	41.98
322.763	-15.36
322.977	33.79
323.19	78.85
323.403	140.29
323.617	50.18
323.83	29.7
324.043	-3.07
324.256	48.13
324.469	64.51
324.683	82.94
324.896	5.12
325.109	29.7
325.322	39.94
325.535	89.09
325.748	50.18
325.962	107.52
326.175	74.75
326.388	91.13
326.601	142.33
326.814	60.42
327.027	25.6
327.24	97.28
327.453	3.07
327.666	140.29
327.879	54.27
328.092	107.52
328.305	76.8
328.518	54.27
328.731	107.52
328.944	80.89
329.157	68.61
329.37	70.65
329.583	128
329.796	99.33
330.009	84.99
330.222	134.14
330.435	107.52
330.648	56.32
330.861	25.6
331.073	89.09
331.286	136.19
331.499	50.18
331.712	37.89
331.925	19.46
332.138	25.6
332.35	82.94
332.563	50.18
332.776	27.65
332.989	25.6
333.202	95.23
333.414	52.22
333.627	52.22
333.84	93.18
334.053	17.41
334.265	101.37
334.478	25.6
334.691	37.89
334.903	44.03
335.116	1.02
335.329	15.36
335.541	80.89
335.754	82.94
335.966	74.75
336.179	48.13
336.392	33.79
336.604	66.56
336.817	50.18
337.029	46.08
337.242	68.61
337.454	72.7
337.667	68.61
337.88	89.09
338.092	89.09
338.305	13.31
338.517	27.65
338.729	78.85
338.942	105.47
339.154	66.56
339.367	46.08
339.579	87.04
339.792	-60.42
340.004	76.8
340.217	66.56
340.429	46.08
340.641	41.98
340.854	78.85
341.066	66.56
341.278	44.03
341.491	140.29
341.703	41.98
341.915	-9.22
342.128	162.81
342.34	68.61
342.552	21.5
342.764	50.18
342.977	82.94
343.189	62.46
343.401	25.6
343.613	35.84
343.826	9.22
344.038	84.99
344.25	84.99
344.462	52.22
344.674	173.05
344.886	58.37
345.099	115.71
345.311	91.13
345.523	44.03
345.735	-19.46
345.947	113.66
346.159	99.33
346.371	78.85
346.583	31.74
346.795	132.09
347.007	91.13
347.219	33.79
347.431	89.09
347.643	37.89
347.855	52.22
348.067	123.9
348.279	-39.94
348.491	52.22
348.703	87.04
348.915	41.98
349.127	82.94
349.339	-3.07
349.551	11.26
349.763	121.85
349.975	41.98
350.187	95.23
350.399	93.18
350.61	84.99
350.822	115.71
351.034	93.18
351.246	31.74
351.458	41.98
351.669	76.8
351.881	46.08
352.093	117.76
352.305	74.75
352.517	58.37
352.728	99.33
352.94	48.13
353.152	74.75
353.363	119.81
353.575	68.61
353.787	54.27
353.999	134.14
354.21	132.09
354.422	7.17
354.633	41.98
354.845	78.85
355.057	50.18
355.268	35.84
355.48	84.99
355.692	91.13
355.903	74.75
356.115	-11.26
356.326	5.12
356.538	41.98
356.749	105.47
356.961	82.94
357.172	-17.41
357.384	25.6
357.595	148.48
357.807	-11.26
358.018	66.56
358.23	117.76
358.441	115.71
358.653	46.08
358.864	64.51
359.075	31.74
359.287	95.23
359.498	115.71
359.709	50.18
359.921	74.75
360.132	74.75
360.344	33.79
360.555	52.22
360.766	15.36
360.977	68.61
361.189	134.14
361.4	23.55
361.611	99.33
361.823	146.43
362.034	66.56
362.245	11.26
362.456	132.09
362.667	76.8
362.879	27.65
363.09	33.79
363.301	58.37
363.512	41.98
363.723	99.33
363.935	82.94
364.146	76.8
364.357	66.56
364.568	117.76
364.779	15.36
364.99	111.61
365.201	-5.12
365.412	37.89
365.623	87.04
365.834	111.61
366.045	70.65
366.256	80.89
366.467	138.24
366.678	111.61
366.889	152.57
367.1	41.98
367.311	142.33
367.522	52.22
367.733	87.04
367.944	60.42
368.155	66.56
368.366	91.13
368.577	99.33
368.788	58.37
368.999	37.89
369.209	21.5
369.42	134.14
369.631	50.18
369.842	-3.07
370.053	68.61
370.264	93.18
370.474	41.98
370.685	70.65
370.896	93.18
371.107	95.23
371.317	82.94
371.528	95.23
371.739	68.61
371.95	87.04
372.16	107.52
372.371	62.46
372.582	87.04
372.792	41.98
373.003	58.37
373.214	107.52
373.424	84.99
373.635	105.47
373.846	119.81
374.056	41.98
374.267	58.37
374.477	99.33
374.688	107.52
374.898	89.09
375.109	74.75
375.319	9.22
375.53	136.19
375.74	33.79
375.951	107.52
376.161	76.8
376.372	52.22
376.582	-11.26
376.793	115.71
377.003	1.02
377.214	60.42
377.424	91.13
377.635	91.13
377.845	41.98
378.055	158.72
378.266	50.18
378.476	84.99
378.686	41.98
378.897	150.53
379.107	91.13
379.317	19.46
379.528	84.99
379.738	78.85
379.948	27.65
380.158	148.48
380.369	91.13
380.579	123.9
380.789	95.23
380.999	134.14
381.21	60.42
381.42	160.77
381.63	50.18
381.84	148.48
382.05	80.89
382.261	156.67
382.471	66.56
382.681	76.8
382.891	119.81
383.101	46.08
383.311	70.65
383.521	134.14
383.731	84.99
383.941	60.42
384.151	91.13
384.361	50.18
384.571	52.22
384.781	115.71
384.991	76.8
385.201	78.85
385.411	52.22
385.621	58.37
385.831	109.57
386.041	80.89
386.251	95.23
386.461	132.09
386.671	3.07
386.881	68.61
387.091	91.13
387.301	189.44
387.511	74.75
387.72	134.14
387.93	66.56
388.14	35.84
388.35	107.52
388.56	164.86
388.769	58.37
388.979	119.81
389.189	52.22
389.399	27.65
389.609	101.37
389.818	82.94
390.028	148.48
390.238	109.57
390.447	50.18
390.657	150.53
390.867	58.37
391.076	111.61
391.286	80.89
391.496	119.81
391.705	134.14
391.915	99.33
392.125	82.94
392.334	99.33
392.544	140.29
392.753	74.75
392.963	25.6
393.172	101.37
393.382	50.18
393.591	76.8
393.801	74.75
394.01	146.43
394.22	41.98
394.429	117.76
394.639	29.7
394.848	99.33
395.058	140.29
395.267	50.18
395.477	132.09
395.686	193.53
395.895	142.33
396.105	171.01
396.314	66.56
396.524	58.37
396.733	97.28
396.942	125.95
397.152	31.74
397.361	113.66
397.57	91.13
397.78	130.05
397.989	148.48
398.198	177.15
398.407	74.75
398.617	123.9
398.826	84.99
399.035	107.52
399.244	103.42
399.453	13.31
399.663	105.47
399.872	175.1
400.081	33.79
400.29	95.23
400.499	93.18
400.708	111.61
400.917	89.09
401.127	115.71
401.336	183.29
401.545	144.38
401.754	146.43
401.963	164.86
402.172	123.9
402.381	74.75
402.59	123.9
402.799	95.23
403.008	142.33
403.217	132.09
403.426	201.72
403.635	37.89
403.844	91.13
404.053	84.99
404.262	107.52
404.471	177.15
404.68	168.96
404.888	99.33
405.097	103.42
405.306	201.72
405.515	189.44
405.724	197.63
405.933	156.67
406.142	197.63
406.35	205.82
406.559	164.86
406.768	140.29
406.977	207.87
407.185	300.03
407.394	234.49
407.603	99.33
407.812	224.25
408.02	222.2
408.229	304.12
408.438	226.3
408.646	140.29
408.855	214.01
409.064	273.4
409.272	197.63
409.481	340.99
409.69	199.68
409.898	320.51
410.107	304.12
410.315	238.59
410.524	330.75
410.733	254.97
410.941	273.4
411.15	396.28
411.358	314.36
411.567	281.6
411.775	386.04
411.984	418.81
412.192	422.91
412.401	388.09
412.609	439.29
412.818	455.67
413.026	445.43
413.234	402.43
413.443	470.01
413.651	504.82
413.86	402.43
414.068	519.16
414.276	553.98
414.485	560.12
414.693	521.21
414.901	545.78
415.11	642.04
415.318	517.11
415.526	660.47
415.734	664.57
415.943	728.05
416.151	715.77
416.359	664.57
416.567	707.57
416.776	736.24
416.984	828.4
417.192	877.55
417.4	828.4
417.608	840.69
417.817	879.6
418.025	951.28
418.233	1100.78
418.441	967.67
418.649	1012.72
418.857	1070.06
419.065	1104.88
419.273	1084.4
419.481	1061.87
419.689	1229.81
419.897	1188.85
420.105	1250.28
420.313	1332.2
420.521	1276.91
420.729	1344.49
420.937	1422.31
421.145	1457.13
421.353	1506.28
421.561	1676.26
421.769	1606.63
421.977	1651.69
422.185	1764.33
422.393	1797.09
422.601	1887.2
422.809	1862.63
423.017	1883.11
423.224	2024.42
423.432	2063.33
423.64	2073.57
423.848	2302.94
424.056	2155.49
424.263	2350.04
424.471	2266.08
424.679	2388.96
424.887	2540.51
425.094	2597.85
425.302	2616.28
425.51	2724.82
425.718	2765.78
425.925	2788.31
426.133	2919.38
426.341	3023.83
426.548	3183.57
426.756	3253.2
426.964	3158.99
427.171	3578.83
427.379	3539.91
427.586	3531.72
427.794	3611.59
428.001	3820.49
428.209	3892.16
428.417	3941.32
428.624	4336.57
428.832	4203.46
429.039	4244.42
429.247	4223.94
429.454	4555.71
429.662	4787.13
429.869	4551.61
430.076	4965.3
430.284	4717.5
430.491	4953.01
430.699	5190.58
430.906	5227.44
431.114	5344.17
431.321	5536.68
431.528	5659.56
431.736	5895.08
431.943	6185.89
432.15	6058.92
432.358	6126.5
432.565	6464.41
432.772	6456.22
432.979	6771.61
433.187	6857.62
433.394	6892.44
433.601	7271.31
433.808	7277.46
434.016	7279.5
434.223	7750.54
434.43	8141.7
434.637	8047.49
434.844	8352.64
435.052	8467.33
435.259	8489.85
435.466	8504.19
435.673	8672.12
435.88	9053.05
436.087	9472.88
436.294	9532.27
436.501	9339.76
436.708	9636.72
436.915	9861.99
437.122	10109.8
437.329	10173.28
437.537	10492.77
437.743	10732.38
437.95	10654.56
438.157	11166.55
438.364	11555.66
438.571	11645.77
438.778	11723.6
438.985	12501.83
439.192	12002.12
439.399	12503.87
439.606	12272.45
439.813	12995.39
440.02	13687.6
440.227	13609.78
440.433	13447.99
440.64	13699.89
440.847	13898.54
441.054	14107.43
441.261	15184.66
441.467	14793.5
441.674	15184.66
441.881	15895.31
442.088	15590.16
442.294	15246.1
442.501	15948.56
442.708	16306.95
442.914	16552.71
443.121	17636.08
443.328	17011.45
443.534	18279.15
443.741	17707.76
443.948	17406.71
444.154	18739.94
444.361	18477.8
444.568	18811.62
444.774	18647.78
444.981	18891.49
445.187	19514.07
445.394	20110.03
445.6	20036.3
445.807	21748.4
446.013	20894.4
446.22	21596.85
446.426	22237.87
446.633	22418.09
446.839	23323.29
447.046	22244.01
447.252	23513.75
447.459	23472.79
447.665	23163.55
447.871	24435.34
448.078	25709.18
448.284	24218.25
448.491	24705.67
448.697	25911.92
448.903	26354.29
449.11	26108.53
449.316	26163.82
449.522	26342
449.728	27320.93
449.935	27595.35
450.141	27538.01
450.347	27884.12
450.553	27488.86
450.76	27605.59
450.966	28262.99
451.172	28287.57
451.378	28852.81
451.584	28351.06
451.791	29350.46
451.997	29100.61
452.203	29305.41
452.409	29508.16
452.615	29405.76
452.821	28056.15
453.027	28025.43
453.233	29624.89
453.44	28201.55
453.646	28912.2
453.852	29016.65
454.058	29186.63
454.264	28418.64
454.47	29153.86
454.676	28033.62
454.882	29340.22
455.088	26911.33
455.294	27167.33
455.5	27902.55
455.705	27669.08
455.911	26597.99
456.117	26677.86
456.323	25778.81
456.529	24705.67
456.735	25743.99
456.941	24933
457.147	24732.29
457.352	23804.56
457.558	23669.4
457.764	24093.33
457.97	23501.47
458.176	23032.48
458.381	22667.94
458.587	21459.64
458.793	21775.03
458.999	20742.85
459.204	22297.26
459.41	21627.57
459.616	20181.71
459.821	20105.93
460.027	20046.54
460.233	19503.83
460.438	18850.53
460.644	18828
460.85	18148.08
461.055	17728.24
461.261	17947.37
461.466	16407.3
461.672	16055.05
461.878	16896.77
462.083	15926.03
462.289	15559.44
462.494	15268.63
462.7	14699.3
462.905	14320.42
463.111	14900
463.316	15010.59
463.522	14557.99
463.727	14533.41
463.932	14529.31
464.138	14437.16
464.343	14492.45
464.549	14095.14
464.754	14770.97
464.959	14396.2
465.165	14345
465.37	13536.05
465.575	13206.33
465.781	13693.74
465.986	13892.4
466.191	13587.25
466.397	13284.15
466.602	12526.4
466.807	12958.52
467.012	13237.05
467.218	12870.46
