Data from USB4F104151__272__14-46-10-457.txt Node

Date: Thu Mar 13 14:46:10 EDT 2025
User: louis
Spectrometer: USB4F10415
Trigger mode: 4
Integration Time (sec): 2.000000E-2
Scans to average: 1
Electric dark correction enabled: true
Nonlinearity correction enabled: false
Boxcar width: 0
XAxis mode: Wavelengths
Number of Pixels in Spectrum: 3648
>>>>>Begin Spectral Data<<<<<
178.204	-132.61
178.424	-132.61
178.644	-132.61
178.864	-140.8
179.084	-99.84
179.304	-56.83
179.524	-28.16
179.744	31.23
179.964	51.71
180.184	29.18
180.404	-15.87
180.624	-19.97
180.844	-32.26
181.064	14.85
181.283	-11.78
181.503	-1.54
181.723	39.42
181.943	20.99
182.163	33.28
182.383	-44.54
182.602	-36.35
182.822	45.57
183.042	88.57
183.262	57.86
183.482	137.73
183.701	12.8
183.921	41.47
184.141	98.81
184.361	45.57
184.58	-1.54
184.8	23.04
185.02	-15.87
185.239	47.62
185.459	47.62
185.679	94.72
185.898	12.8
186.118	113.15
186.338	53.76
186.557	33.28
186.777	-22.02
186.997	-9.73
187.216	33.28
187.436	-11.78
187.655	43.52
187.875	14.85
188.095	16.9
188.314	135.68
188.534	129.53
188.753	-7.68
188.973	86.53
189.192	70.14
189.412	23.04
189.631	-3.58
189.851	-15.87
190.07	125.44
190.29	-58.88
190.509	16.9
190.729	102.91
190.948	70.14
191.168	70.14
191.387	41.47
191.607	86.53
191.826	39.42
192.045	23.04
192.265	-22.02
192.484	-5.63
192.704	66.05
192.923	-11.78
193.142	160.25
193.362	6.66
193.581	4.61
193.8	29.18
194.02	23.04
194.239	-17.92
194.458	51.71
194.678	47.62
194.897	25.09
195.116	-5.63
195.335	10.75
195.555	-7.68
195.774	16.9
195.993	74.24
196.212	0.51
196.432	55.81
196.651	18.94
196.87	64
197.089	123.39
197.308	78.33
197.528	-22.02
197.747	-11.78
197.966	-15.87
198.185	33.28
198.404	6.66
198.623	45.57
198.842	23.04
199.062	39.42
199.281	51.71
199.5	94.72
199.719	61.95
199.938	-7.68
200.157	55.81
200.376	80.38
200.595	70.14
200.814	88.57
201.033	-24.06
201.252	90.62
201.471	4.61
201.69	154.11
201.909	82.43
202.128	2.56
202.347	47.62
202.566	-11.78
202.785	-17.92
203.004	23.04
203.223	72.19
203.442	-1.54
203.661	37.38
203.879	41.47
204.098	80.38
204.317	-26.11
204.536	104.96
204.755	29.18
204.974	16.9
205.193	39.42
205.411	135.68
205.63	49.66
205.849	41.47
206.068	59.9
206.287	70.14
206.505	61.95
206.724	-17.92
206.943	8.7
207.162	39.42
207.381	41.47
207.599	49.66
207.818	-28.16
208.037	88.57
208.255	-3.58
208.474	37.38
208.693	-36.35
208.911	-24.06
209.13	61.95
209.349	70.14
209.567	102.91
209.786	66.05
210.005	-26.11
210.223	8.7
210.442	-1.54
210.661	113.15
210.879	61.95
211.098	113.15
211.316	-17.92
211.535	107.01
211.753	16.9
211.972	41.47
212.191	78.33
212.409	-19.97
212.628	29.18
212.846	-24.06
213.065	53.76
213.283	143.87
213.502	25.09
213.72	61.95
213.938	39.42
214.157	-19.97
214.375	88.57
214.594	-28.16
214.812	-1.54
215.031	29.18
215.249	102.91
215.467	72.19
215.686	82.43
215.904	49.66
216.122	16.9
216.341	102.91
216.559	4.61
216.778	70.14
216.996	6.66
217.214	39.42
217.432	37.38
217.651	-28.16
217.869	6.66
218.087	70.14
218.306	72.19
218.524	133.63
218.742	23.04
218.96	66.05
219.179	55.81
219.397	29.18
219.615	80.38
219.833	135.68
220.051	-3.58
220.27	129.53
220.488	88.57
220.706	35.33
220.924	20.99
221.142	-3.58
221.36	72.19
221.578	14.85
221.796	86.53
222.015	-3.58
222.233	14.85
222.451	41.47
222.669	45.57
222.887	82.43
223.105	4.61
223.323	78.33
223.541	-3.58
223.759	-44.54
223.977	55.81
224.195	107.01
224.413	76.29
224.631	45.57
224.849	4.61
225.067	27.14
225.285	0.51
225.503	113.15
225.721	20.99
225.939	-11.78
226.157	31.23
226.375	188.93
226.592	68.09
226.81	-3.58
227.028	61.95
227.246	76.29
227.464	-15.87
227.682	78.33
227.9	119.29
228.117	39.42
228.335	49.66
228.553	-13.82
228.771	61.95
228.989	61.95
229.206	23.04
229.424	33.28
229.642	12.8
229.86	-75.26
230.077	45.57
230.295	8.7
230.513	86.53
230.731	-3.58
230.948	152.06
231.166	98.81
231.384	29.18
231.601	0.51
231.819	29.18
232.037	0.51
232.254	-30.21
232.472	49.66
232.689	41.47
232.907	57.86
233.125	-26.11
233.342	78.33
233.56	53.76
233.777	-9.73
233.995	37.38
234.213	39.42
234.43	-19.97
234.648	-11.78
234.865	82.43
235.083	57.86
235.3	82.43
235.518	20.99
235.735	84.48
235.953	70.14
236.17	98.81
236.388	39.42
236.605	35.33
236.822	16.9
237.04	31.23
237.257	94.72
237.475	-13.82
237.692	4.61
237.909	70.14
238.127	33.28
238.344	20.99
238.562	104.96
238.779	25.09
238.996	-24.06
239.214	66.05
239.431	57.86
239.648	-7.68
239.865	61.95
240.083	-1.54
240.3	64
240.517	47.62
240.735	23.04
240.952	33.28
241.169	29.18
241.386	57.86
241.603	82.43
241.821	49.66
242.038	59.9
242.255	57.86
242.472	45.57
242.689	64
242.907	78.33
243.124	20.99
243.341	20.99
243.558	14.85
243.775	12.8
243.992	-11.78
244.209	66.05
244.426	129.53
244.643	33.28
244.86	55.81
245.078	16.9
245.295	100.86
245.512	16.9
245.729	37.38
245.946	82.43
246.163	117.25
246.38	53.76
246.597	45.57
246.814	45.57
247.031	6.66
247.248	84.48
247.464	61.95
247.681	55.81
247.898	0.51
248.115	16.9
248.332	-26.11
248.549	23.04
248.766	119.29
248.983	49.66
249.2	31.23
249.417	51.71
249.633	29.18
249.85	37.38
250.067	-7.68
250.284	-34.3
250.501	80.38
250.717	14.85
250.934	2.56
251.151	55.81
251.368	88.57
251.585	29.18
251.801	6.66
252.018	33.28
252.235	70.14
252.451	78.33
252.668	20.99
252.885	49.66
253.102	102.91
253.318	78.33
253.535	41.47
253.752	29.18
253.968	37.38
254.185	-17.92
254.401	20.99
254.618	61.95
254.835	20.99
255.051	70.14
255.268	-1.54
255.484	25.09
255.701	29.18
255.917	12.8
256.134	41.47
256.351	49.66
256.567	18.94
256.784	14.85
257	-15.87
257.217	20.99
257.433	49.66
257.65	90.62
257.866	23.04
258.082	94.72
258.299	12.8
258.515	23.04
258.732	72.19
258.948	-3.58
259.165	-3.58
259.381	-9.73
259.597	64
259.814	35.33
260.03	86.53
260.246	-3.58
260.463	16.9
260.679	94.72
260.895	-7.68
261.112	70.14
261.328	51.71
261.544	66.05
261.761	86.53
261.977	55.81
262.193	-3.58
262.409	55.81
262.626	74.24
262.842	14.85
263.058	-7.68
263.274	64
263.49	39.42
263.707	61.95
263.923	78.33
264.139	-9.73
264.355	61.95
264.571	78.33
264.787	80.38
265.004	31.23
265.22	104.96
265.436	45.57
265.652	33.28
265.868	53.76
266.084	20.99
266.3	115.2
266.516	8.7
266.732	57.86
266.948	61.95
267.164	88.57
267.38	82.43
267.596	96.77
267.812	74.24
268.028	107.01
268.244	55.81
268.46	80.38
268.676	121.34
268.892	70.14
269.108	-11.78
269.324	4.61
269.54	4.61
269.756	86.53
269.972	39.42
270.188	-24.06
270.403	6.66
270.619	23.04
270.835	20.99
271.051	4.61
271.267	84.48
271.483	0.51
271.698	104.96
271.914	119.29
272.13	-42.5
272.346	88.57
272.562	-3.58
272.777	61.95
272.993	23.04
273.209	23.04
273.425	45.57
273.64	53.76
273.856	-13.82
274.072	29.18
274.287	23.04
274.503	117.25
274.719	78.33
274.934	90.62
275.15	-9.73
275.366	78.33
275.581	16.9
275.797	47.62
276.012	8.7
276.228	68.09
276.444	20.99
276.659	53.76
276.875	78.33
277.09	78.33
277.306	84.48
277.521	78.33
277.737	12.8
277.952	66.05
278.168	4.61
278.383	0.51
278.599	12.8
278.814	41.47
279.03	20.99
279.245	82.43
279.461	23.04
279.676	94.72
279.892	41.47
280.107	-28.16
280.322	39.42
280.538	84.48
280.753	70.14
280.969	66.05
281.184	57.86
281.399	164.35
281.615	49.66
281.83	78.33
282.045	49.66
282.26	16.9
282.476	20.99
282.691	80.38
282.906	4.61
283.122	102.91
283.337	104.96
283.552	39.42
283.767	-11.78
283.983	-22.02
284.198	12.8
284.413	33.28
284.628	-11.78
284.843	74.24
285.058	4.61
285.274	37.38
285.489	115.2
285.704	70.14
285.919	8.7
286.134	59.9
286.349	35.33
286.564	-26.11
286.779	94.72
286.995	-15.87
287.21	12.8
287.425	70.14
287.64	74.24
287.855	37.38
288.07	16.9
288.285	39.42
288.5	80.38
288.715	74.24
288.93	12.8
289.145	45.57
289.36	39.42
289.575	88.57
289.79	82.43
290.004	-42.5
290.219	61.95
290.434	16.9
290.649	4.61
290.864	37.38
291.079	41.47
291.294	16.9
291.509	53.76
291.724	47.62
291.938	39.42
292.153	43.52
292.368	-1.54
292.583	0.51
292.798	23.04
293.012	86.53
293.227	0.51
293.442	16.9
293.657	98.81
293.871	92.67
294.086	78.33
294.301	53.76
294.516	45.57
294.73	70.14
294.945	59.9
295.16	147.97
295.374	53.76
295.589	45.57
295.804	55.81
296.018	88.57
296.233	156.16
296.447	8.7
296.662	61.95
296.877	96.77
297.091	113.15
297.306	113.15
297.52	53.76
297.735	31.23
297.949	27.14
298.164	33.28
298.378	94.72
298.593	29.18
298.807	-11.78
299.022	90.62
299.236	45.57
299.451	-17.92
299.665	14.85
299.88	45.57
300.094	61.95
300.309	86.53
300.523	109.05
300.737	8.7
300.952	18.94
301.166	37.38
301.381	98.81
301.595	39.42
301.809	2.56
302.024	88.57
302.238	27.14
302.452	23.04
302.667	29.18
302.881	78.33
303.095	29.18
303.309	14.85
303.524	-11.78
303.738	20.99
303.952	16.9
304.166	86.53
304.381	-65.02
304.595	123.39
304.809	12.8
305.023	-7.68
305.237	31.23
305.452	100.86
305.666	115.2
305.88	4.61
306.094	20.99
306.308	-28.16
306.522	53.76
306.736	29.18
306.95	53.76
307.164	45.57
307.379	25.09
307.593	107.01
307.807	59.9
308.021	49.66
308.235	94.72
308.449	-28.16
308.663	45.57
308.877	96.77
309.091	-46.59
309.305	131.58
309.519	-11.78
309.733	29.18
309.947	61.95
310.161	129.53
310.374	53.76
310.588	70.14
310.802	16.9
311.016	55.81
311.23	70.14
311.444	111.1
311.658	80.38
311.872	139.77
312.085	-3.58
312.299	4.61
312.513	119.29
312.727	61.95
312.941	20.99
313.154	45.57
313.368	49.66
313.582	80.38
313.796	61.95
314.009	16.9
314.223	10.75
314.437	64
314.651	84.48
314.864	31.23
315.078	-28.16
315.292	-17.92
315.505	25.09
315.719	16.9
315.933	70.14
316.146	31.23
316.36	31.23
316.573	-3.58
316.787	98.81
317.001	23.04
317.214	20.99
317.428	70.14
317.641	47.62
317.855	23.04
318.068	96.77
318.282	12.8
318.495	61.95
318.709	41.47
318.922	31.23
319.136	41.47
319.349	96.77
319.563	12.8
319.776	37.38
319.99	68.09
320.203	61.95
320.417	92.67
320.63	41.47
320.843	115.2
321.057	74.24
321.27	33.28
321.483	61.95
321.697	96.77
321.91	57.86
322.124	129.53
322.337	4.61
322.55	72.19
322.763	33.28
322.977	78.33
323.19	53.76
323.403	104.96
323.617	64
323.83	49.66
324.043	70.14
324.256	55.81
324.469	4.61
324.683	96.77
324.896	80.38
325.109	66.05
325.322	61.95
325.535	53.76
325.748	82.43
325.962	-3.58
326.175	45.57
326.388	25.09
326.601	88.57
326.814	74.24
327.027	68.09
327.24	29.18
327.453	76.29
327.666	61.95
327.879	29.18
328.092	88.57
328.305	18.94
328.518	25.09
328.731	107.01
328.944	45.57
329.157	59.9
329.37	129.53
329.583	64
329.796	160.25
330.009	-3.58
330.222	25.09
330.435	47.62
330.648	29.18
330.861	90.62
331.073	88.57
331.286	109.05
331.499	111.1
331.712	57.86
331.925	72.19
332.138	33.28
332.35	107.01
332.563	20.99
332.776	88.57
332.989	25.09
333.202	49.66
333.414	33.28
333.627	-15.87
333.84	10.75
334.053	143.87
334.265	6.66
334.478	4.61
334.691	123.39
334.903	78.33
335.116	20.99
335.329	53.76
335.541	82.43
335.754	94.72
335.966	35.33
336.179	113.15
336.392	4.61
336.604	10.75
336.817	41.47
337.029	55.81
337.242	123.39
337.454	80.38
337.667	25.09
337.88	88.57
338.092	45.57
338.305	74.24
338.517	70.14
338.729	43.52
338.942	29.18
339.154	78.33
339.367	0.51
339.579	111.1
339.792	88.57
340.004	113.15
340.217	74.24
340.429	55.81
340.641	0.51
340.854	25.09
341.066	37.38
341.278	45.57
341.491	133.63
341.703	94.72
341.915	64
342.128	113.15
342.34	47.62
342.552	90.62
342.764	16.9
342.977	51.71
343.189	94.72
343.401	66.05
343.613	16.9
343.826	70.14
344.038	113.15
344.25	94.72
344.462	-1.54
344.674	49.66
344.886	-13.82
345.099	61.95
345.311	127.49
345.523	33.28
345.735	39.42
345.947	45.57
346.159	18.94
346.371	23.04
346.583	16.9
346.795	152.06
347.007	70.14
347.219	51.71
347.431	61.95
347.643	66.05
347.855	-19.97
348.067	102.91
348.279	-3.58
348.491	4.61
348.703	70.14
348.915	84.48
349.127	-9.73
349.339	31.23
349.551	61.95
349.763	66.05
349.975	12.8
350.187	152.06
350.399	53.76
350.61	2.56
350.822	29.18
351.034	66.05
351.246	55.81
351.458	57.86
351.669	29.18
351.881	86.53
352.093	41.47
352.305	49.66
352.517	74.24
352.728	107.01
352.94	41.47
353.152	29.18
353.363	80.38
353.575	78.33
353.787	70.14
353.999	29.18
354.21	135.68
354.422	39.42
354.633	37.38
354.845	41.47
355.057	88.57
355.268	37.38
355.48	29.18
355.692	10.75
355.903	57.86
356.115	-28.16
356.326	-9.73
356.538	64
356.749	45.57
356.961	94.72
357.172	47.62
357.384	35.33
357.595	80.38
357.807	43.52
358.018	82.43
358.23	72.19
358.441	31.23
358.653	66.05
358.864	61.95
359.075	20.99
359.287	66.05
359.498	35.33
359.709	127.49
359.921	31.23
360.132	119.29
360.344	111.1
360.555	8.7
360.766	16.9
360.977	92.67
361.189	102.91
361.4	80.38
361.611	152.06
361.823	57.86
362.034	25.09
362.245	-15.87
362.456	61.95
362.667	57.86
362.879	37.38
363.09	35.33
363.301	61.95
363.512	49.66
363.723	82.43
363.935	49.66
364.146	-17.92
364.357	66.05
364.568	-7.68
364.779	14.85
364.99	113.15
365.201	0.51
365.412	72.19
365.623	18.94
365.834	14.85
366.045	113.15
366.256	61.95
366.467	4.61
366.678	47.62
366.889	72.19
367.1	57.86
367.311	64
367.522	111.1
367.733	33.28
367.944	47.62
368.155	-9.73
368.366	43.52
368.577	61.95
368.788	57.86
368.999	66.05
369.209	72.19
369.42	80.38
369.631	80.38
369.842	55.81
370.053	-11.78
370.264	94.72
370.474	35.33
370.685	82.43
370.896	-1.54
371.107	68.09
371.317	16.9
371.528	90.62
371.739	39.42
371.95	51.71
372.16	102.91
372.371	-13.82
372.582	20.99
372.792	10.75
373.003	111.1
373.214	102.91
373.424	86.53
373.635	45.57
373.846	113.15
374.056	68.09
374.267	37.38
374.477	113.15
374.688	37.38
374.898	74.24
375.109	53.76
375.319	111.1
375.53	98.81
375.74	47.62
375.951	96.77
376.161	51.71
376.372	23.04
376.582	86.53
376.793	64
377.003	12.8
377.214	68.09
377.424	18.94
377.635	115.2
377.845	37.38
378.055	154.11
378.266	74.24
378.476	96.77
378.686	70.14
378.897	39.42
379.107	76.29
379.317	45.57
379.528	70.14
379.738	143.87
379.948	121.34
380.158	27.14
380.369	90.62
380.579	127.49
380.789	49.66
380.999	111.1
381.21	74.24
381.42	72.19
381.63	41.47
381.84	20.99
382.05	55.81
382.261	123.39
382.471	53.76
382.681	47.62
382.891	111.1
383.101	111.1
383.311	74.24
383.521	-7.68
383.731	31.23
383.941	72.19
384.151	-5.63
384.361	94.72
384.571	33.28
384.781	76.29
384.991	125.44
385.201	131.58
385.411	-3.58
385.621	70.14
385.831	127.49
386.041	45.57
386.251	53.76
386.461	45.57
386.671	23.04
386.881	88.57
387.091	47.62
387.301	29.18
387.511	33.28
387.72	135.68
387.93	123.39
388.14	23.04
388.35	29.18
388.56	68.09
388.769	82.43
388.979	113.15
389.189	78.33
389.399	64
389.609	-1.54
389.818	135.68
390.028	72.19
390.238	78.33
390.447	90.62
390.657	82.43
390.867	61.95
391.076	4.61
391.286	51.71
391.496	94.72
391.705	70.14
391.915	45.57
392.125	111.1
392.334	86.53
392.544	127.49
392.753	29.18
392.963	98.81
393.172	80.38
393.382	82.43
393.591	111.1
393.801	100.86
394.01	74.24
394.22	90.62
394.429	70.14
394.639	14.85
394.848	80.38
395.058	64
395.267	23.04
395.477	74.24
395.686	113.15
395.895	127.49
396.105	131.58
396.314	121.34
396.524	45.57
396.733	123.39
396.942	143.87
397.152	92.67
397.361	113.15
397.57	61.95
397.78	37.38
397.989	201.21
398.198	154.11
398.407	14.85
398.617	35.33
398.826	102.91
399.035	129.53
399.244	68.09
399.453	86.53
399.663	164.35
399.872	102.91
400.081	158.21
400.29	117.25
400.499	94.72
400.708	102.91
400.917	53.76
401.127	88.57
401.336	127.49
401.545	209.4
401.754	88.57
401.963	53.76
402.172	59.9
402.381	111.1
402.59	72.19
402.799	168.45
403.008	137.73
403.217	111.1
403.426	182.78
403.635	133.63
403.844	217.6
404.053	143.87
404.262	78.33
404.471	193.02
404.68	127.49
404.888	143.87
405.097	184.83
405.306	143.87
405.515	111.1
405.724	129.53
405.933	209.4
406.142	184.83
406.35	168.45
406.559	154.11
406.768	190.97
406.977	217.6
407.185	172.54
407.394	201.21
407.603	193.02
407.812	217.6
408.02	193.02
408.229	246.27
408.438	209.4
408.646	238.08
408.855	242.17
409.064	250.36
409.272	170.49
409.481	324.09
409.69	272.89
409.898	324.09
410.107	266.75
410.315	360.95
410.524	248.32
410.733	367.1
410.941	254.46
411.15	299.52
411.358	344.57
411.567	383.48
411.775	365.05
411.984	283.13
412.192	471.54
412.401	367.1
412.609	504.31
412.818	412.15
413.026	418.3
413.234	496.12
413.443	383.48
413.651	504.31
413.86	514.55
414.068	487.93
414.276	592.37
414.485	578.04
414.693	590.33
414.901	623.09
415.11	563.7
415.318	569.85
415.526	637.43
415.734	684.53
415.943	680.44
416.151	733.68
416.359	754.16
416.567	760.31
416.776	791.03
416.984	850.42
417.192	836.08
417.4	881.14
417.608	907.76
417.817	918
418.025	1014.26
418.233	995.82
418.441	995.82
418.649	975.35
418.857	1178.09
419.065	1042.93
419.273	1114.61
419.481	1114.61
419.689	1274.35
419.897	1391.08
420.105	1352.17
420.313	1339.88
420.521	1462.76
420.729	1429.99
420.937	1520.1
421.145	1569.26
421.353	1610.22
421.561	1606.12
421.769	1612.26
421.977	1819.11
422.185	1651.17
422.393	1929.7
422.601	2015.71
422.809	1948.13
423.017	2003.43
423.224	2130.4
423.432	2109.92
423.64	2175.45
423.848	2404.83
424.056	2238.94
424.263	2413.02
424.471	2425.31
424.679	2564.57
424.887	2691.54
425.094	2752.98
425.302	2888.15
425.51	2871.76
425.718	2865.62
425.925	2974.16
426.133	3183.06
426.341	3338.7
426.548	3422.67
426.756	3443.15
426.964	3432.91
427.171	3549.64
427.379	3803.59
427.586	3897.8
427.794	3903.94
428.001	4178.37
428.209	4338.11
428.417	4346.3
428.624	4719.03
428.832	4362.69
429.039	4436.41
429.247	4456.89
429.454	4872.63
429.662	5259.7
429.869	4772.28
430.076	5265.84
430.284	4944.31
430.491	5241.26
430.699	5558.7
430.906	5476.78
431.114	5591.47
431.321	5771.69
431.528	5890.47
431.736	6177.19
431.943	6656.41
432.15	6492.57
432.358	6615.45
432.565	6830.49
432.772	6709.66
432.979	7172.5
433.187	7375.25
433.394	7328.14
433.601	7895.43
433.808	7836.04
434.016	7842.18
434.223	8073.6
434.43	8573.31
434.637	8540.54
434.844	9073.01
435.052	9081.21
435.259	9105.78
435.466	9322.87
435.673	9116.02
435.88	9699.69
436.087	10187.11
436.294	10047.85
436.501	10111.33
436.708	10295.65
436.915	10588.51
437.122	11014.49
437.329	10948.95
437.537	11413.84
437.743	11553.1
437.95	11319.64
438.157	12120.39
438.364	12341.57
438.571	12413.25
438.778	12581.18
438.985	13535.54
439.192	13328.69
439.399	13506.87
439.606	13181.24
439.813	13861.16
440.02	14571.81
440.227	14383.4
440.433	14229.8
440.64	14848.29
440.847	14663.97
441.054	15151.38
441.261	16044.3
441.467	16109.83
441.674	16371.97
441.881	16570.63
442.088	16875.77
442.294	16814.34
442.501	17019.13
442.708	17328.38
442.914	18088.17
443.121	19128.54
443.328	18381.03
443.534	19511.51
443.741	19273.95
443.948	18862.3
444.154	20443.34
444.361	19998.93
444.568	20177.1
444.774	20281.55
444.981	20283.59
445.187	20891.84
445.394	21704.88
445.6	21643.45
445.807	23869.59
446.013	23046.3
446.22	23175.33
446.426	24334.48
446.633	24635.53
446.839	25407.61
447.046	24240.27
447.252	25688.18
447.459	25641.08
447.665	25489.53
447.871	26443.88
448.078	28106.84
448.284	26789.99
448.491	27316.32
448.697	28368.98
448.903	28704.84
449.11	29069.38
449.316	28602.44
449.522	29261.89
449.728	29868.09
449.935	30040.12
450.141	30095.41
450.347	31109.16
450.553	29888.57
450.76	30535.73
450.966	31580.19
451.172	30711.85
451.378	32002.07
451.584	31225.89
451.791	31784.99
451.997	31649.82
452.203	32526.35
452.409	32407.57
452.615	32417.81
452.821	31082.53
453.027	30916.65
453.233	32905.23
453.44	31084.58
453.646	31469.6
453.852	31479.84
454.058	32417.81
454.264	31916.06
454.47	32028.7
454.676	31127.59
454.882	32249.88
455.088	29685.82
455.294	30425.14
455.5	30677.04
455.705	30744.62
455.911	29644.86
456.117	29280.32
456.323	29022.28
456.529	27435.1
456.735	28764.23
456.941	27824.22
457.147	27721.82
457.352	26581.1
457.558	26577
457.764	26507.37
457.97	26071.15
458.176	25440.38
458.381	25534.59
458.587	24299.66
458.793	24318.09
458.999	23048.35
459.204	24653.96
459.41	24402.06
459.616	22560.94
459.821	22509.74
460.027	22444.2
460.233	21905.59
460.438	21070.01
460.644	21352.63
460.85	20494.54
461.055	19937.49
461.261	19685.59
461.466	18391.27
461.672	17889.52
461.878	19187.93
462.083	18116.84
462.289	17445.11
462.494	17387.77
462.7	16484.61
462.905	16314.63
463.111	16756.99
463.316	16861.44
463.522	16337.16
463.727	16572.68
463.932	16236.81
464.138	16365.83
464.343	16429.32
464.549	15798.54
464.754	16376.07
464.959	16156.94
465.165	16003.34
465.37	15718.67
465.575	15182.1
465.781	15915.28
465.986	15995.15
466.191	15350.04
466.397	15012.12
466.602	14092.58
466.807	14872.86
467.012	14930.2
467.218	14874.91
467.423	14299.43
467.628	14711.07
467.833	15102.23
