Data from USB4F104151__203__14-45-20-589.txt Node

Date: Thu Mar 13 14:45:20 EDT 2025
User: louis
Spectrometer: USB4F10415
Trigger mode: 4
Integration Time (sec): 2.000000E-2
Scans to average: 1
Electric dark correction enabled: true
Nonlinearity correction enabled: false
Boxcar width: 0
XAxis mode: Wavelengths
Number of Pixels in Spectrum: 3648
>>>>>Begin Spectral Data<<<<<
178.204	-80.04
178.424	-80.04
178.644	-80.04
178.864	-116.9
179.084	-149.67
179.304	18.26
179.524	-10.41
179.744	59.22
179.964	3.93
180.184	30.55
180.404	-67.75
180.624	-4.27
180.844	-34.99
181.064	-47.27
181.283	-6.31
181.503	3.93
181.723	55.12
181.943	-14.51
182.163	28.5
182.383	10.07
182.602	36.69
182.822	-4.27
183.042	-4.27
183.262	-65.71
183.482	-47.27
183.701	28.5
183.921	-49.32
184.141	-65.71
184.361	26.45
184.58	-2.22
184.8	42.84
185.02	-14.51
185.239	63.32
185.459	81.75
185.679	53.08
185.898	-28.84
186.118	91.99
186.338	30.55
186.557	20.31
186.777	10.07
186.997	44.88
187.216	-22.7
187.436	38.74
187.655	42.84
187.875	-39.08
188.095	26.45
188.314	55.12
188.534	16.21
188.753	44.88
188.973	20.31
189.192	38.74
189.412	-4.27
189.631	75.6
189.851	53.08
190.07	-14.51
190.29	-49.32
190.509	75.6
190.729	-10.41
190.948	75.6
191.168	128.85
191.387	63.32
191.607	20.31
191.826	53.08
192.045	75.6
192.265	-14.51
192.484	-6.31
192.704	-59.56
192.923	-61.61
193.142	108.37
193.362	100.18
193.581	116.56
193.8	53.08
194.02	34.64
194.239	34.64
194.458	10.07
194.678	18.26
194.897	67.41
195.116	48.98
195.335	5.97
195.555	10.07
195.774	-22.7
195.993	10.07
196.212	30.55
196.432	-6.31
196.651	-47.27
196.87	63.32
197.089	28.5
197.308	30.55
197.528	-30.89
197.747	55.12
197.966	59.22
198.185	-22.7
198.404	-6.31
198.623	18.26
198.842	24.4
199.062	12.12
199.281	59.22
199.5	28.5
199.719	108.37
199.938	46.93
200.157	42.84
200.376	34.64
200.595	112.47
200.814	38.74
201.033	26.45
201.252	61.27
201.471	61.27
201.69	75.6
201.909	61.27
202.128	-28.84
202.347	87.89
202.566	-51.37
202.785	38.74
203.004	-34.99
203.223	85.84
203.442	32.6
203.661	55.12
203.879	8.02
204.098	67.41
204.317	40.79
204.536	55.12
204.755	-45.23
204.974	1.88
205.193	22.36
205.411	18.26
205.63	96.08
205.849	44.88
206.068	100.18
206.287	55.12
206.505	28.5
206.724	30.55
206.943	-88.23
207.162	51.03
207.381	91.99
207.599	34.64
207.818	18.26
208.037	3.93
208.255	-43.18
208.474	73.56
208.693	26.45
208.911	51.03
209.13	42.84
209.349	51.03
209.567	30.55
209.786	51.03
210.005	42.84
210.223	122.71
210.442	55.12
210.661	-6.31
210.879	51.03
211.098	69.46
211.316	51.03
211.535	83.8
211.753	42.84
211.972	85.84
212.191	-30.89
212.409	46.93
212.628	20.31
212.846	51.03
213.065	51.03
213.283	46.93
213.502	-73.9
213.72	46.93
213.938	10.07
214.157	38.74
214.375	-14.51
214.594	-2.22
214.812	-30.89
215.031	36.69
215.249	-6.31
215.467	67.41
215.686	-4.27
215.904	42.84
216.122	30.55
216.341	94.04
216.559	26.45
216.778	30.55
216.996	116.56
217.214	55.12
217.432	18.26
217.651	55.12
217.869	-18.6
218.087	71.51
218.306	32.6
218.524	96.08
218.742	-2.22
218.96	67.41
219.179	26.45
219.397	89.94
219.615	51.03
219.833	3.93
220.051	-8.36
220.27	30.55
220.488	-4.27
220.706	8.02
220.924	-75.95
221.142	51.03
221.36	51.03
221.578	10.07
221.796	79.7
222.015	67.41
222.233	59.22
222.451	96.08
222.669	34.64
222.887	51.03
223.105	59.22
223.323	-12.46
223.541	55.12
223.759	79.7
223.977	-39.08
224.195	67.41
224.413	22.36
224.631	59.22
224.849	42.84
225.067	132.95
225.285	10.07
225.503	42.84
225.721	-22.7
225.939	28.5
226.157	83.8
226.375	132.95
226.592	-39.08
226.81	61.27
227.028	51.03
227.246	96.08
227.464	51.03
227.682	10.07
227.9	40.79
228.117	59.22
228.335	-32.94
228.553	83.8
228.771	77.65
228.989	81.75
229.206	26.45
229.424	12.12
229.642	-12.46
229.86	10.07
230.077	67.41
230.295	63.32
230.513	48.98
230.731	91.99
230.948	132.95
231.166	120.66
231.384	57.17
231.601	-6.31
231.819	1.88
232.037	-61.61
232.254	-45.23
232.472	36.69
232.689	28.5
232.907	-0.17
233.125	28.5
233.342	61.27
233.56	67.41
233.777	34.64
233.995	22.36
234.213	22.36
234.43	83.8
234.648	100.18
234.865	38.74
235.083	116.56
235.3	5.97
235.518	1.88
235.735	34.64
235.953	28.5
236.17	67.41
236.388	10.07
236.605	65.36
236.822	83.8
237.04	-4.27
237.257	18.26
237.475	34.64
237.692	10.07
237.909	5.97
238.127	59.22
238.344	71.51
238.562	36.69
238.779	5.97
238.996	36.69
239.214	12.12
239.431	42.84
239.648	85.84
239.865	42.84
240.083	36.69
240.3	59.22
240.517	12.12
240.735	-2.22
240.952	46.93
241.169	14.17
241.386	63.32
241.603	108.37
241.821	-73.9
242.038	-45.23
242.255	-10.41
242.472	-24.75
242.689	91.99
242.907	44.88
243.124	3.93
243.341	18.26
243.558	3.93
243.775	3.93
243.992	-53.42
244.209	14.17
244.426	100.18
244.643	-41.13
244.86	-14.51
245.078	14.17
245.295	73.56
245.512	42.84
245.729	-2.22
245.946	36.69
246.163	42.84
246.38	-30.89
246.597	42.84
246.814	32.6
247.031	-14.51
247.248	51.03
247.464	55.12
247.681	-2.22
247.898	63.32
248.115	38.74
248.332	18.26
248.549	102.23
248.766	42.84
248.983	67.41
249.2	-37.03
249.417	3.93
249.633	3.93
249.85	65.36
250.067	30.55
250.284	65.36
250.501	94.04
250.717	36.69
250.934	67.41
251.151	46.93
251.368	12.12
251.585	102.23
251.801	51.03
252.018	22.36
252.235	42.84
252.451	-28.84
252.668	55.12
252.885	46.93
253.102	32.6
253.318	34.64
253.535	10.07
253.752	46.93
253.968	-10.41
254.185	20.31
254.401	-55.47
254.618	22.36
254.835	36.69
255.051	96.08
255.268	38.74
255.484	20.31
255.701	46.93
255.917	34.64
256.134	-2.22
256.351	42.84
256.567	16.21
256.784	42.84
257	-63.66
257.217	59.22
257.433	83.8
257.65	-10.41
257.866	55.12
258.082	3.93
258.299	1.88
258.515	12.12
258.732	-10.41
258.948	-4.27
259.165	63.32
259.381	36.69
259.597	42.84
259.814	-14.51
260.03	71.51
260.246	12.12
260.463	63.32
260.679	34.64
260.895	40.79
261.112	59.22
261.328	22.36
261.544	-34.99
261.761	79.7
261.977	10.07
262.193	3.93
262.409	42.84
262.626	73.56
262.842	94.04
263.058	-20.65
263.274	79.7
263.49	26.45
263.707	71.51
263.923	22.36
264.139	-26.79
264.355	18.26
264.571	61.27
264.787	20.31
265.004	98.13
265.22	69.46
265.436	34.64
265.652	22.36
265.868	34.64
266.084	22.36
266.3	75.6
266.516	-47.27
266.732	67.41
266.948	34.64
267.164	14.17
267.38	53.08
267.596	3.93
267.812	67.41
268.028	61.27
268.244	-4.27
268.46	42.84
268.676	71.51
268.892	71.51
269.108	-12.46
269.324	51.03
269.54	28.5
269.756	26.45
269.972	-49.32
270.188	26.45
270.403	-30.89
270.619	61.27
270.835	26.45
271.051	85.84
271.267	12.12
271.483	34.64
271.698	3.93
271.914	51.03
272.13	10.07
272.346	-22.7
272.562	55.12
272.777	87.89
272.993	24.4
273.209	59.22
273.425	51.03
273.64	-47.27
273.856	69.46
274.072	75.6
274.287	10.07
274.503	18.26
274.719	8.02
274.934	-14.51
275.15	-2.22
275.366	34.64
275.581	12.12
275.797	44.88
276.012	18.26
276.228	57.17
276.444	14.17
276.659	28.5
276.875	-14.51
277.09	110.42
277.306	57.17
277.521	-22.7
277.737	63.32
277.952	94.04
278.168	30.55
278.383	46.93
278.599	-10.41
278.814	-4.27
279.03	3.93
279.245	3.93
279.461	-6.31
279.676	132.95
279.892	-59.56
280.107	34.64
280.322	-55.47
280.538	28.5
280.753	63.32
280.969	100.18
281.184	34.64
281.399	126.8
281.615	-34.99
281.83	40.79
282.045	5.97
282.26	-53.42
282.476	-39.08
282.691	63.32
282.906	36.69
283.122	83.8
283.337	42.84
283.552	69.46
283.767	53.08
283.983	30.55
284.198	10.07
284.413	51.03
284.628	-28.84
284.843	12.12
285.058	10.07
285.274	-6.31
285.489	-34.99
285.704	85.84
285.919	-45.23
286.134	10.07
286.349	57.17
286.564	91.99
286.779	30.55
286.995	-77.99
287.21	36.69
287.425	53.08
287.64	-112.81
287.855	-14.51
288.07	14.17
288.285	51.03
288.5	42.84
288.715	44.88
288.93	83.8
289.145	-0.17
289.36	51.03
289.575	-20.65
289.79	26.45
290.004	-14.51
290.219	87.89
290.434	53.08
290.649	-43.18
290.864	87.89
291.079	38.74
291.294	46.93
291.509	8.02
291.724	46.93
291.938	10.07
292.153	79.7
292.368	-0.17
292.583	1.88
292.798	48.98
293.012	3.93
293.227	3.93
293.442	26.45
293.657	137.04
293.871	40.79
294.086	59.22
294.301	132.95
294.516	34.64
294.73	26.45
294.945	12.12
295.16	30.55
295.374	53.08
295.589	36.69
295.804	18.26
296.018	24.4
296.233	26.45
296.447	26.45
296.662	51.03
296.877	18.26
297.091	10.07
297.306	59.22
297.52	71.51
297.735	-14.51
297.949	12.12
298.164	55.12
298.378	-10.41
298.593	-67.75
298.807	55.12
299.022	40.79
299.236	51.03
299.451	102.23
299.665	83.8
299.88	94.04
300.094	-6.31
300.309	55.12
300.523	69.46
300.737	42.84
300.952	51.03
301.166	69.46
301.381	59.22
301.595	26.45
301.809	53.08
302.024	-14.51
302.238	53.08
302.452	42.84
302.667	34.64
302.881	3.93
303.095	67.41
303.309	26.45
303.524	34.64
303.738	61.27
303.952	16.21
304.166	-14.51
304.381	5.97
304.595	-14.51
304.809	28.5
305.023	20.31
305.237	-28.84
305.452	42.84
305.666	-0.17
305.88	28.5
306.094	30.55
306.308	106.32
306.522	67.41
306.736	87.89
306.95	114.52
307.164	36.69
307.379	51.03
307.593	30.55
307.807	128.85
308.021	79.7
308.235	26.45
308.449	10.07
308.663	26.45
308.877	94.04
309.091	20.31
309.305	36.69
309.519	26.45
309.733	100.18
309.947	-12.46
310.161	75.6
310.374	67.41
310.588	38.74
310.802	75.6
311.016	-10.41
311.23	30.55
311.444	3.93
311.658	3.93
311.872	118.61
312.085	26.45
312.299	79.7
312.513	22.36
312.727	114.52
312.941	-8.36
313.154	46.93
313.368	89.94
313.582	53.08
313.796	87.89
314.009	8.02
314.223	83.8
314.437	-14.51
314.651	26.45
314.864	69.46
315.078	85.84
315.292	10.07
315.505	42.84
315.719	34.64
315.933	16.21
316.146	-22.7
316.36	-12.46
316.573	34.64
316.787	63.32
317.001	87.89
317.214	12.12
317.428	24.4
317.641	26.45
317.855	34.64
318.068	59.22
318.282	34.64
318.495	104.28
318.709	-22.7
318.922	34.64
319.136	69.46
319.349	91.99
319.563	51.03
319.776	53.08
319.99	51.03
320.203	-16.55
320.417	94.04
320.63	-24.75
320.843	89.94
321.057	-39.08
321.27	22.36
321.483	75.6
321.697	83.8
321.91	-34.99
322.124	63.32
322.337	85.84
322.55	5.97
322.763	51.03
322.977	36.69
323.19	51.03
323.403	-28.84
323.617	108.37
323.83	34.64
324.043	91.99
324.256	5.97
324.469	-14.51
324.683	26.45
324.896	85.84
325.109	102.23
325.322	-18.6
325.535	77.65
325.748	110.42
325.962	-6.31
326.175	51.03
326.388	42.84
326.601	63.32
326.814	61.27
327.027	28.5
327.24	91.99
327.453	-6.31
327.666	46.93
327.879	30.55
328.092	51.03
328.305	55.12
328.518	75.6
328.731	38.74
328.944	61.27
329.157	73.56
329.37	5.97
329.583	67.41
329.796	34.64
330.009	10.07
330.222	159.57
330.435	5.97
330.648	102.23
330.861	-26.79
331.073	5.97
331.286	40.79
331.499	34.64
331.712	42.84
331.925	32.6
332.138	-2.22
332.35	69.46
332.563	20.31
332.776	59.22
332.989	-6.31
333.202	55.12
333.414	-12.46
333.627	26.45
333.84	51.03
334.053	61.27
334.265	-47.27
334.478	91.99
334.691	-4.27
334.903	-18.6
335.116	59.22
335.329	67.41
335.541	79.7
335.754	87.89
335.966	-4.27
336.179	-28.84
336.392	-6.31
336.604	36.69
336.817	44.88
337.029	75.6
337.242	85.84
337.454	26.45
337.667	71.51
337.88	77.65
338.092	38.74
338.305	141.14
338.517	34.64
338.729	59.22
338.942	26.45
339.154	28.5
339.367	-2.22
339.579	-4.27
339.792	10.07
340.004	36.69
340.217	-10.41
340.429	-67.75
340.641	-39.08
340.854	14.17
341.066	51.03
341.278	59.22
341.491	69.46
341.703	42.84
341.915	42.84
342.128	30.55
342.34	34.64
342.552	30.55
342.764	20.31
342.977	44.88
343.189	59.22
343.401	32.6
343.613	53.08
343.826	94.04
344.038	20.31
344.25	44.88
344.462	36.69
344.674	91.99
344.886	10.07
345.099	53.08
345.311	28.5
345.523	42.84
345.735	24.4
345.947	91.99
346.159	38.74
346.371	26.45
346.583	48.98
346.795	85.84
347.007	69.46
347.219	51.03
347.431	20.31
347.643	71.51
347.855	16.21
348.067	83.8
348.279	42.84
348.491	38.74
348.703	-14.51
348.915	94.04
349.127	42.84
349.339	1.88
349.551	-22.7
349.763	55.12
349.975	51.03
350.187	1.88
350.399	67.41
350.61	83.8
350.822	91.99
351.034	71.51
351.246	42.84
351.458	42.84
351.669	53.08
351.881	91.99
352.093	42.84
352.305	85.84
352.517	3.93
352.728	94.04
352.94	30.55
353.152	44.88
353.363	53.08
353.575	-0.17
353.787	34.64
353.999	1.88
354.21	42.84
354.422	20.31
354.633	75.6
354.845	89.94
355.057	42.84
355.268	81.75
355.48	22.36
355.692	3.93
355.903	53.08
356.115	-12.46
356.326	61.27
356.538	42.84
356.749	141.14
356.961	104.28
357.172	42.84
357.384	8.02
357.595	87.89
357.807	-30.89
358.018	38.74
358.23	42.84
358.441	32.6
358.653	79.7
358.864	42.84
359.075	42.84
359.287	104.28
359.498	18.26
359.709	24.4
359.921	12.12
360.132	67.41
360.344	-28.84
360.555	91.99
360.766	55.12
360.977	53.08
361.189	83.8
361.4	69.46
361.611	69.46
361.823	40.79
362.034	102.23
362.245	14.17
362.456	10.07
362.667	36.69
362.879	44.88
363.09	83.8
363.301	75.6
363.512	67.41
363.723	-22.7
363.935	-2.22
364.146	-12.46
364.357	55.12
364.568	28.5
364.779	40.79
364.99	67.41
365.201	34.64
365.412	83.8
365.623	-10.41
365.834	69.46
366.045	59.22
366.256	42.84
366.467	14.17
366.678	122.71
366.889	34.64
367.1	-24.75
367.311	38.74
367.522	85.84
367.733	44.88
367.944	71.51
368.155	141.14
368.366	14.17
368.577	116.56
368.788	69.46
368.999	36.69
369.209	30.55
369.42	63.32
369.631	132.95
369.842	98.13
370.053	61.27
370.264	59.22
370.474	73.56
370.685	-39.08
370.896	73.56
371.107	1.88
371.317	100.18
371.528	-47.27
371.739	67.41
371.95	-2.22
372.16	34.64
372.371	-22.7
372.582	-4.27
372.792	26.45
373.003	118.61
373.214	85.84
373.424	85.84
373.635	48.98
373.846	59.22
374.056	34.64
374.267	61.27
374.477	51.03
374.688	28.5
374.898	-4.27
375.109	-14.51
375.319	110.42
375.53	126.8
375.74	71.51
375.951	63.32
376.161	51.03
376.372	83.8
376.582	18.26
376.793	63.32
377.003	30.55
377.214	-6.31
377.424	67.41
377.635	42.84
377.845	22.36
378.055	89.94
378.266	5.97
378.476	10.07
378.686	34.64
378.897	69.46
379.107	-20.65
379.317	108.37
379.528	79.7
379.738	124.76
379.948	44.88
380.158	110.42
380.369	79.7
380.579	65.36
380.789	-14.51
380.999	79.7
381.21	67.41
381.42	69.46
381.63	96.08
381.84	100.18
382.05	151.38
382.261	48.98
382.471	10.07
382.681	8.02
382.891	63.32
383.101	63.32
383.311	63.32
383.521	44.88
383.731	59.22
383.941	79.7
384.151	94.04
384.361	79.7
384.571	104.28
384.781	34.64
384.991	94.04
385.201	91.99
385.411	67.41
385.621	83.8
385.831	28.5
386.041	83.8
386.251	61.27
386.461	153.43
386.671	57.17
386.881	147.28
387.091	51.03
387.301	36.69
387.511	10.07
387.72	67.41
387.93	38.74
388.14	30.55
388.35	85.84
388.56	36.69
388.769	67.41
388.979	28.5
389.189	46.93
389.399	79.7
389.609	67.41
389.818	57.17
390.028	116.56
390.238	69.46
390.447	61.27
390.657	102.23
390.867	42.84
391.076	53.08
391.286	128.85
391.496	44.88
391.705	53.08
391.915	128.85
392.125	114.52
392.334	81.75
392.544	30.55
392.753	53.08
392.963	28.5
393.172	137.04
393.382	79.7
393.591	108.37
393.801	87.89
394.01	120.66
394.22	61.27
394.429	44.88
394.639	81.75
394.848	77.65
395.058	67.41
395.267	22.36
395.477	77.65
395.686	128.85
395.895	36.69
396.105	63.32
396.314	85.84
396.524	71.51
396.733	106.32
396.942	126.8
397.152	100.18
397.361	190.29
397.57	77.65
397.78	83.8
397.989	196.43
398.198	116.56
398.407	108.37
398.617	102.23
398.826	132.95
399.035	73.56
399.244	96.08
399.453	112.47
399.663	28.5
399.872	91.99
400.081	10.07
400.29	157.52
400.499	104.28
400.708	165.71
400.917	79.7
401.127	130.9
401.336	75.6
401.545	128.85
401.754	130.9
401.963	145.24
402.172	208.72
402.381	79.7
402.59	71.51
402.799	143.19
403.008	77.65
403.217	59.22
403.426	118.61
403.635	175.95
403.844	161.62
404.053	24.4
404.262	157.52
404.471	186.19
404.68	175.95
404.888	141.14
405.097	235.35
405.306	83.8
405.515	214.87
405.724	218.96
405.933	143.19
406.142	200.53
406.35	264.02
406.559	216.91
406.768	192.34
406.977	214.87
407.185	198.48
407.394	255.83
407.603	210.77
407.812	292.69
408.02	184.15
408.229	223.06
408.438	231.25
408.646	218.96
408.855	204.63
409.064	243.54
409.272	304.98
409.481	296.78
409.69	298.83
409.898	264.02
410.107	317.26
410.315	329.55
410.524	274.26
410.733	370.51
410.941	296.78
411.15	413.52
411.358	429.9
411.567	429.9
411.775	462.67
411.984	444.24
412.192	462.67
412.401	431.95
412.609	450.38
412.818	509.77
413.026	440.14
413.234	538.45
413.443	495.44
413.651	544.59
413.86	599.88
414.068	720.71
414.276	587.6
414.485	626.51
414.693	634.7
414.901	763.72
415.11	735.05
415.318	673.61
415.526	788.3
415.734	722.76
415.943	923.46
416.151	823.11
416.359	870.22
416.567	886.6
416.776	872.26
416.984	978.76
417.192	1019.72
417.4	1009.48
417.608	945.99
417.817	1023.81
418.025	1140.55
418.233	1283.91
418.441	1197.89
418.649	1273.67
418.857	1328.96
419.065	1265.47
419.273	1230.66
419.481	1417.02
419.689	1505.09
419.897	1509.18
420.105	1627.96
420.313	1677.12
420.521	1705.79
420.729	1656.64
420.937	1738.55
421.145	1750.84
421.353	1791.8
421.561	1984.31
421.769	2053.94
421.977	2074.42
422.185	2090.81
422.393	2256.69
422.601	2379.57
422.809	2322.23
423.017	2365.23
423.224	2455.34
423.432	2441.01
423.64	2459.44
423.848	2748.2
424.056	2705.2
424.263	2889.51
424.471	2959.14
424.679	3028.78
424.887	3077.93
425.094	3155.75
425.302	3254.05
425.51	3376.93
425.718	3499.81
425.925	3477.28
426.133	3667.74
426.341	3901.21
426.548	4073.24
426.756	4081.43
426.964	3950.36
427.171	4275.99
427.379	4359.95
427.586	4511.5
427.794	4589.33
428.001	4863.76
428.209	5084.94
428.417	4925.19
428.624	5355.27
428.832	5517.06
429.039	5113.61
429.247	5232.39
429.454	5781.25
429.662	6262.52
429.869	5607.17
430.076	6024.95
430.284	5959.42
430.491	6209.27
430.699	6670.06
430.906	6588.14
431.114	6743.79
431.321	6979.31
431.528	6989.55
431.736	7630.56
431.943	8109.79
432.15	7507.68
432.358	7952.09
432.565	8183.51
432.772	8163.03
432.979	8701.65
433.187	8556.24
433.394	8812.24
433.601	9393.86
433.808	9307.85
434.016	9234.12
434.223	9694.91
434.43	10282.68
434.637	10186.43
434.844	10645.17
435.052	10868.4
435.259	10727.09
435.466	10929.84
435.673	10700.47
435.88	11466.41
436.087	11986.59
436.294	12220.06
436.501	11884.19
436.708	12125.85
436.915	12367.51
437.122	13133.45
437.329	13211.28
437.537	13483.66
437.743	13608.58
437.95	13633.16
438.157	14177.92
438.364	14757.49
438.571	14841.46
438.778	14702.2
438.985	16045.66
439.192	15353.45
439.399	15976.03
439.606	15568.49
439.813	16682.58
440.02	17454.67
440.227	17286.73
440.433	16762.45
440.64	17667.66
440.847	17348.17
441.054	17892.93
441.261	18918.96
441.467	18855.48
441.674	19172.91
441.881	19977.76
442.088	19955.24
442.294	19877.41
442.501	20174.37
442.708	20653.59
442.914	21091.86
443.121	22451.71
443.328	21554.7
443.534	23309.81
443.741	22523.39
443.948	22425.09
444.154	23973.35
444.361	23580.14
444.568	23948.78
444.774	23834.09
444.981	24237.54
445.187	24733.15
445.394	26133.96
445.6	25748.94
445.807	28089.77
446.013	26811.84
446.22	27221.43
446.426	28591.52
446.633	28997.02
446.839	29816.21
447.046	28542.37
447.252	30358.92
447.459	30328.2
447.665	29943.18
447.871	31556.98
448.078	32972.13
448.284	31161.72
448.491	32120.17
448.697	33391.96
448.903	34104.65
449.11	34155.85
449.316	33469.78
449.522	34082.13
449.728	35474.74
449.935	35546.42
450.141	35571
450.347	36281.64
450.553	34745.67
450.76	35982.64
450.966	36904.23
451.172	36316.46
451.378	37512.47
451.584	36773.16
451.791	37698.84
451.997	37451.03
452.203	38163.73
452.409	38143.25
452.615	38284.56
452.821	36392.23
453.027	36568.36
453.233	38341.9
453.44	37272.86
453.646	37287.2
453.852	37266.72
454.058	37821.72
454.264	36631.85
454.47	37631.26
454.676	37356.83
454.882	38120.72
455.088	34786.63
455.294	35398.97
455.5	35917.11
455.705	36678.95
455.911	34671.94
456.117	34096.46
456.323	33889.62
456.529	31864.18
456.735	33557.85
456.941	32453.99
457.147	32394.6
457.352	31448.44
457.558	31053.18
457.764	31016.32
457.97	30477.7
458.176	29666.7
458.381	29865.36
458.587	28190.12
458.793	28827.04
458.999	27018.68
459.204	28884.38
459.41	28007.85
459.616	26445.25
459.821	26389.95
460.027	26314.18
460.233	25587.15
460.438	24315.36
460.644	24896.99
460.85	23797.23
461.055	23539.18
461.261	23361.01
461.466	21407.25
461.672	20780.57
461.878	22369.79
462.083	20852.25
462.289	20481.56
462.494	20305.44
462.7	19428.91
462.905	19090.99
463.111	19682.86
463.316	19734.06
463.522	19369.52
463.727	19301.93
463.932	19467.82
464.138	19111.47
464.343	19297.84
464.549	18679.35
464.754	19324.46
464.959	19168.82
465.165	18736.7
465.37	18056.77
465.575	17696.33
465.781	18239.04
465.986	18652.73
466.191	17860.16
466.397	17655.37
466.602	16606.81
466.807	17122.9
467.012	17270.35
467.218	17296.97
