Data from USB4F104151__183__14-45-07-752.txt Node

Date: Thu Mar 13 14:45:07 EDT 2025
User: louis
Spectrometer: USB4F10415
Trigger mode: 4
Integration Time (sec): 2.000000E-2
Scans to average: 1
Electric dark correction enabled: true
Nonlinearity correction enabled: false
Boxcar width: 0
XAxis mode: Wavelengths
Number of Pixels in Spectrum: 3648
>>>>>Begin Spectral Data<<<<<
178.204	-76.8
178.424	-76.8
178.644	-76.8
178.864	-140.29
179.084	-105.47
179.304	-15.36
179.524	39.94
179.744	41.98
179.964	74.75
180.184	31.74
180.404	-13.31
180.624	-66.56
180.844	-33.79
181.064	-31.74
181.283	37.89
181.503	-48.13
181.723	-17.41
181.943	-13.31
182.163	78.85
182.383	-39.94
182.602	68.61
182.822	132.09
183.042	-1.02
183.262	-25.6
183.482	-50.18
183.701	35.84
183.921	44.03
184.141	9.22
184.361	87.04
184.58	-1.02
184.8	9.22
185.02	31.74
185.239	66.56
185.459	52.22
185.679	7.17
185.898	31.74
186.118	19.46
186.338	1.02
186.557	142.33
186.777	9.22
186.997	68.61
187.216	48.13
187.436	66.56
187.655	25.6
187.875	72.7
188.095	-54.27
188.314	52.22
188.534	37.89
188.753	-11.26
188.973	-25.6
189.192	58.37
189.412	60.42
189.631	19.46
189.851	-13.31
190.07	68.61
190.29	62.46
190.509	-13.31
190.729	56.32
190.948	107.52
191.168	109.57
191.387	50.18
191.607	-29.7
191.826	-1.02
192.045	-35.84
192.265	48.13
192.484	23.55
192.704	31.74
192.923	-99.33
193.142	-7.17
193.362	50.18
193.581	56.32
193.8	66.56
194.02	-1.02
194.239	25.6
194.458	31.74
194.678	50.18
194.897	80.89
195.116	-17.41
195.335	39.94
195.555	-9.22
195.774	1.02
195.993	19.46
196.212	11.26
196.432	-21.5
196.651	-9.22
196.87	5.12
197.089	76.8
197.308	-13.31
197.528	50.18
197.747	-23.55
197.966	1.02
198.185	52.22
198.404	17.41
198.623	15.36
198.842	19.46
199.062	-23.55
199.281	82.94
199.5	15.36
199.719	11.26
199.938	19.46
200.157	93.18
200.376	9.22
200.595	21.5
200.814	15.36
201.033	105.47
201.252	35.84
201.471	39.94
201.69	41.98
201.909	33.79
202.128	97.28
202.347	138.24
202.566	-41.98
202.785	25.6
203.004	70.65
203.223	130.05
203.442	64.51
203.661	52.22
203.879	-1.02
204.098	84.99
204.317	-29.7
204.536	136.19
204.755	64.51
204.974	74.75
205.193	27.65
205.411	121.85
205.63	64.51
205.849	-1.02
206.068	66.56
206.287	-62.46
206.505	64.51
206.724	52.22
206.943	-5.12
207.162	23.55
207.381	46.08
207.599	19.46
207.818	15.36
208.037	46.08
208.255	68.61
208.474	82.94
208.693	56.32
208.911	25.6
209.13	56.32
209.349	-1.02
209.567	64.51
209.786	39.94
210.005	39.94
210.223	48.13
210.442	-46.08
210.661	-9.22
210.879	11.26
211.098	68.61
211.316	-5.12
211.535	35.84
211.753	74.75
211.972	9.22
212.191	74.75
212.409	-7.17
212.628	48.13
212.846	-19.46
213.065	19.46
213.283	64.51
213.502	-19.46
213.72	3.07
213.938	15.36
214.157	62.46
214.375	-9.22
214.594	23.55
214.812	17.41
215.031	15.36
215.249	-23.55
215.467	46.08
215.686	-91.13
215.904	-7.17
216.122	27.65
216.341	41.98
216.559	76.8
216.778	89.09
216.996	72.7
217.214	35.84
217.432	72.7
217.651	-15.36
217.869	64.51
218.087	56.32
218.306	39.94
218.524	87.04
218.742	-9.22
218.96	-17.41
219.179	76.8
219.397	-5.12
219.615	76.8
219.833	48.13
220.051	-60.42
220.27	56.32
220.488	23.55
220.706	48.13
220.924	33.79
221.142	25.6
221.36	3.07
221.578	-68.61
221.796	7.17
222.015	23.55
222.233	72.7
222.451	39.94
222.669	25.6
222.887	39.94
223.105	-27.65
223.323	31.74
223.541	-3.07
223.759	56.32
223.977	31.74
224.195	48.13
224.413	-9.22
224.631	1.02
224.849	31.74
225.067	130.05
225.285	23.55
225.503	56.32
225.721	-33.79
225.939	-23.55
226.157	23.55
226.375	64.51
226.592	7.17
226.81	89.09
227.028	64.51
227.246	105.47
227.464	48.13
227.682	64.51
227.9	39.94
228.117	39.94
228.335	11.26
228.553	84.99
228.771	35.84
228.989	76.8
229.206	17.41
229.424	-13.31
229.642	13.31
229.86	56.32
230.077	19.46
230.295	76.8
230.513	60.42
230.731	44.03
230.948	91.13
231.166	111.61
231.384	31.74
231.601	39.94
231.819	87.04
232.037	19.46
232.254	35.84
232.472	17.41
232.689	7.17
232.907	9.22
233.125	25.6
233.342	-37.89
233.56	89.09
233.777	82.94
233.995	-11.26
234.213	80.89
234.43	-25.6
234.648	-33.79
234.865	44.03
235.083	15.36
235.3	-39.94
235.518	121.85
235.735	72.7
235.953	17.41
236.17	25.6
236.388	23.55
236.605	-1.02
236.822	109.57
237.04	148.48
237.257	-13.31
237.475	7.17
237.692	72.7
237.909	-33.79
238.127	41.98
238.344	15.36
238.562	21.5
238.779	23.55
238.996	7.17
239.214	23.55
239.431	91.13
239.648	44.03
239.865	105.47
240.083	173.05
240.3	15.36
240.517	48.13
240.735	-1.02
240.952	41.98
241.169	31.74
241.386	25.6
241.603	54.27
241.821	-74.75
242.038	99.33
242.255	52.22
242.472	58.37
242.689	97.28
242.907	64.51
243.124	19.46
243.341	-39.94
243.558	-17.41
243.775	-13.31
243.992	56.32
244.209	15.36
244.426	99.33
244.643	70.65
244.86	33.79
245.078	82.94
245.295	-17.41
245.512	-11.26
245.729	-1.02
245.946	97.28
246.163	-25.6
246.38	44.03
246.597	72.7
246.814	31.74
247.031	72.7
247.248	15.36
247.464	64.51
247.681	91.13
247.898	56.32
248.115	31.74
248.332	41.98
248.549	62.46
248.766	91.13
248.983	121.85
249.2	39.94
249.417	66.56
249.633	-33.79
249.85	1.02
250.067	117.76
250.284	33.79
250.501	89.09
250.717	7.17
250.934	-78.85
251.151	7.17
251.368	72.7
251.585	72.7
251.801	19.46
252.018	-3.07
252.235	72.7
252.451	-1.02
252.668	-7.17
252.885	87.04
253.102	95.23
253.318	33.79
253.535	7.17
253.752	-13.31
253.968	72.7
254.185	-25.6
254.401	33.79
254.618	-19.46
254.835	82.94
255.051	74.75
255.268	25.6
255.484	7.17
255.701	60.42
255.917	41.98
256.134	-9.22
256.351	-50.18
256.567	-33.79
256.784	7.17
257	-7.17
257.217	68.61
257.433	23.55
257.65	58.37
257.866	78.85
258.082	105.47
258.299	7.17
258.515	72.7
258.732	7.17
258.948	-17.41
259.165	44.03
259.381	3.07
259.597	82.94
259.814	-9.22
260.03	17.41
260.246	64.51
260.463	58.37
260.679	66.56
260.895	56.32
261.112	39.94
261.328	1.02
261.544	5.12
261.761	93.18
261.977	56.32
262.193	7.17
262.409	64.51
262.626	11.26
262.842	72.7
263.058	-46.08
263.274	72.7
263.49	7.17
263.707	146.43
263.923	82.94
264.139	68.61
264.355	-7.17
264.571	119.81
264.787	97.28
265.004	3.07
265.22	-21.5
265.436	130.05
265.652	97.28
265.868	89.09
266.084	52.22
266.3	25.6
266.516	-21.5
266.732	33.79
266.948	76.8
267.164	101.37
267.38	82.94
267.596	78.85
267.812	95.23
268.028	78.85
268.244	11.26
268.46	130.05
268.676	23.55
268.892	25.6
269.108	31.74
269.324	72.7
269.54	39.94
269.756	154.62
269.972	27.65
270.188	64.51
270.403	-1.02
270.619	68.61
270.835	64.51
271.051	72.7
271.267	76.8
271.483	-17.41
271.698	25.6
271.914	74.75
272.13	35.84
272.346	-50.18
272.562	-9.22
272.777	33.79
272.993	89.09
273.209	66.56
273.425	-9.22
273.64	58.37
273.856	72.7
274.072	48.13
274.287	-9.22
274.503	23.55
274.719	11.26
274.934	52.22
275.15	-48.13
275.366	1.02
275.581	31.74
275.797	50.18
276.012	64.51
276.228	-3.07
276.444	27.65
276.659	48.13
276.875	74.75
277.09	62.46
277.306	-1.02
277.521	87.04
277.737	-33.79
277.952	87.04
278.168	-72.7
278.383	52.22
278.599	35.84
278.814	37.89
279.03	21.5
279.245	101.37
279.461	-15.36
279.676	39.94
279.892	48.13
280.107	60.42
280.322	31.74
280.538	-1.02
280.753	50.18
280.969	39.94
281.184	-52.22
281.399	99.33
281.615	41.98
281.83	41.98
282.045	-37.89
282.26	35.84
282.476	44.03
282.691	56.32
282.906	-11.26
283.122	25.6
283.337	13.31
283.552	39.94
283.767	72.7
283.983	17.41
284.198	33.79
284.413	29.7
284.628	23.55
284.843	46.08
285.058	-9.22
285.274	23.55
285.489	91.13
285.704	64.51
285.919	-13.31
286.134	17.41
286.349	-9.22
286.564	37.89
286.779	-1.02
286.995	3.07
287.21	-7.17
287.425	66.56
287.64	58.37
287.855	52.22
288.07	21.5
288.285	44.03
288.5	93.18
288.715	29.7
288.93	33.79
289.145	-25.6
289.36	58.37
289.575	37.89
289.79	68.61
290.004	41.98
290.219	80.89
290.434	89.09
290.649	72.7
290.864	-58.37
291.079	11.26
291.294	-21.5
291.509	15.36
291.724	33.79
291.938	58.37
292.153	80.89
292.368	50.18
292.583	50.18
292.798	89.09
293.012	48.13
293.227	39.94
293.442	39.94
293.657	37.89
293.871	19.46
294.086	101.37
294.301	87.04
294.516	97.28
294.73	3.07
294.945	72.7
295.16	27.65
295.374	74.75
295.589	21.5
295.804	-25.6
296.018	25.6
296.233	64.51
296.447	44.03
296.662	23.55
296.877	66.56
297.091	31.74
297.306	60.42
297.52	25.6
297.735	33.79
297.949	5.12
298.164	13.31
298.378	56.32
298.593	23.55
298.807	33.79
299.022	9.22
299.236	31.74
299.451	19.46
299.665	3.07
299.88	80.89
300.094	1.02
300.309	66.56
300.523	76.8
300.737	-1.02
300.952	35.84
301.166	3.07
301.381	5.12
301.595	58.37
301.809	33.79
302.024	1.02
302.238	62.46
302.452	54.27
302.667	27.65
302.881	48.13
303.095	97.28
303.309	48.13
303.524	23.55
303.738	31.74
303.952	33.79
304.166	-3.07
304.381	58.37
304.595	54.27
304.809	15.36
305.023	1.02
305.237	-7.17
305.452	1.02
305.666	119.81
305.88	82.94
306.094	9.22
306.308	39.94
306.522	-15.36
306.736	33.79
306.95	48.13
307.164	33.79
307.379	-17.41
307.593	64.51
307.807	44.03
308.021	72.7
308.235	7.17
308.449	41.98
308.663	21.5
308.877	123.9
309.091	-1.02
309.305	17.41
309.519	60.42
309.733	97.28
309.947	-23.55
310.161	31.74
310.374	56.32
310.588	31.74
310.802	84.99
311.016	41.98
311.23	-21.5
311.444	35.84
311.658	-7.17
311.872	91.13
312.085	50.18
312.299	58.37
312.513	105.47
312.727	37.89
312.941	7.17
313.154	99.33
313.368	3.07
313.582	113.66
313.796	84.99
314.009	68.61
314.223	-7.17
314.437	3.07
314.651	125.95
314.864	115.71
315.078	-64.51
315.292	35.84
315.505	33.79
315.719	25.6
315.933	78.85
316.146	58.37
316.36	-33.79
316.573	99.33
316.787	89.09
317.001	-56.32
317.214	29.7
317.428	80.89
317.641	23.55
317.855	39.94
318.068	68.61
318.282	95.23
318.495	68.61
318.709	-9.22
318.922	-17.41
319.136	117.76
319.349	56.32
319.563	50.18
319.776	23.55
319.99	-11.26
320.203	-1.02
320.417	27.65
320.63	-13.31
320.843	80.89
321.057	80.89
321.27	27.65
321.483	56.32
321.697	44.03
321.91	58.37
322.124	3.07
322.337	56.32
322.55	39.94
322.763	48.13
322.977	35.84
323.19	-25.6
323.403	41.98
323.617	68.61
323.83	91.13
324.043	23.55
324.256	41.98
324.469	25.6
324.683	31.74
324.896	72.7
325.109	58.37
325.322	1.02
325.535	60.42
325.748	56.32
325.962	66.56
326.175	72.7
326.388	70.65
326.601	-25.6
326.814	64.51
327.027	-9.22
327.24	138.24
327.453	29.7
327.666	64.51
327.879	54.27
328.092	11.26
328.305	11.26
328.518	-7.17
328.731	-7.17
328.944	19.46
329.157	17.41
329.37	7.17
329.583	138.24
329.796	89.09
330.009	9.22
330.222	66.56
330.435	97.28
330.648	66.56
330.861	-23.55
331.073	89.09
331.286	64.51
331.499	66.56
331.712	74.75
331.925	48.13
332.138	46.08
332.35	72.7
332.563	46.08
332.776	31.74
332.989	121.85
333.202	27.65
333.414	82.94
333.627	80.89
333.84	52.22
334.053	7.17
334.265	76.8
334.478	101.37
334.691	39.94
334.903	91.13
335.116	48.13
335.329	99.33
335.541	56.32
335.754	89.09
335.966	29.7
336.179	64.51
336.392	39.94
336.604	56.32
336.817	121.85
337.029	39.94
337.242	46.08
337.454	37.89
337.667	-9.22
337.88	48.13
338.092	58.37
338.305	54.27
338.517	-9.22
338.729	82.94
338.942	107.52
339.154	-33.79
339.367	54.27
339.579	52.22
339.792	23.55
340.004	64.51
340.217	15.36
340.429	60.42
340.641	91.13
340.854	-15.36
341.066	44.03
341.278	17.41
341.491	80.89
341.703	95.23
341.915	41.98
342.128	41.98
342.34	60.42
342.552	130.05
342.764	35.84
342.977	58.37
343.189	89.09
343.401	121.85
343.613	-62.46
343.826	33.79
344.038	9.22
344.25	113.66
344.462	-33.79
344.674	70.65
344.886	19.46
345.099	44.03
345.311	5.12
345.523	11.26
345.735	15.36
345.947	68.61
346.159	39.94
346.371	-13.31
346.583	-1.02
346.795	50.18
347.007	105.47
347.219	68.61
347.431	121.85
347.643	82.94
347.855	33.79
348.067	25.6
348.279	-7.17
348.491	-1.02
348.703	15.36
348.915	50.18
349.127	25.6
349.339	41.98
349.551	68.61
349.763	68.61
349.975	23.55
350.187	72.7
350.399	130.05
350.61	70.65
350.822	-5.12
351.034	19.46
351.246	15.36
351.458	41.98
351.669	25.6
351.881	23.55
352.093	48.13
352.305	132.09
352.517	76.8
352.728	97.28
352.94	76.8
353.152	-7.17
353.363	64.51
353.575	35.84
353.787	-1.02
353.999	66.56
354.21	93.18
354.422	76.8
354.633	48.13
354.845	80.89
355.057	-1.02
355.268	97.28
355.48	33.79
355.692	21.5
355.903	35.84
356.115	35.84
356.326	48.13
356.538	27.65
356.749	17.41
356.961	130.05
357.172	52.22
357.384	35.84
357.595	84.99
357.807	66.56
358.018	31.74
358.23	72.7
358.441	101.37
358.653	93.18
358.864	17.41
359.075	66.56
359.287	1.02
359.498	44.03
359.709	58.37
359.921	25.6
360.132	91.13
360.344	39.94
360.555	37.89
360.766	125.95
360.977	-9.22
361.189	54.27
361.4	-41.98
361.611	50.18
361.823	82.94
362.034	-21.5
362.245	33.79
362.456	56.32
362.667	48.13
362.879	23.55
363.09	76.8
363.301	60.42
363.512	82.94
363.723	9.22
363.935	33.79
364.146	9.22
364.357	41.98
364.568	113.66
364.779	48.13
364.99	146.43
365.201	-19.46
365.412	68.61
365.623	23.55
365.834	115.71
366.045	93.18
366.256	25.6
366.467	56.32
366.678	66.56
366.889	-17.41
367.1	31.74
367.311	56.32
367.522	3.07
367.733	52.22
367.944	68.61
368.155	117.76
368.366	33.79
368.577	66.56
368.788	39.94
368.999	15.36
369.209	39.94
369.42	115.71
369.631	35.84
369.842	87.04
370.053	31.74
370.264	66.56
370.474	41.98
370.685	123.9
370.896	97.28
371.107	70.65
371.317	56.32
371.528	25.6
371.739	74.75
371.95	41.98
372.16	66.56
372.371	64.51
372.582	44.03
372.792	56.32
373.003	11.26
373.214	101.37
373.424	50.18
373.635	35.84
373.846	97.28
374.056	17.41
374.267	60.42
374.477	44.03
374.688	52.22
374.898	-31.74
375.109	105.47
375.319	58.37
375.53	23.55
375.74	95.23
375.951	48.13
376.161	5.12
376.372	76.8
376.582	41.98
376.793	23.55
377.003	50.18
377.214	23.55
377.424	80.89
377.635	41.98
377.845	-101.37
378.055	62.46
378.266	15.36
378.476	89.09
378.686	37.89
378.897	-15.36
379.107	68.61
379.317	9.22
379.528	17.41
379.738	76.8
379.948	70.65
380.158	87.04
380.369	64.51
380.579	121.85
380.789	72.7
380.999	89.09
381.21	41.98
381.42	66.56
381.63	74.75
381.84	113.66
382.05	91.13
382.261	72.7
382.471	99.33
382.681	23.55
382.891	64.51
383.101	9.22
383.311	107.52
383.521	11.26
383.731	76.8
383.941	9.22
384.151	99.33
384.361	-15.36
384.571	60.42
384.781	58.37
384.991	76.8
385.201	113.66
385.411	134.14
385.621	121.85
385.831	39.94
386.041	109.57
386.251	76.8
386.461	84.99
386.671	1.02
386.881	142.33
387.091	7.17
387.301	138.24
387.511	7.17
387.72	115.71
387.93	97.28
388.14	48.13
388.35	89.09
388.56	64.51
388.769	33.79
388.979	80.89
389.189	35.84
389.399	15.36
389.609	162.81
389.818	66.56
390.028	50.18
390.238	9.22
390.447	41.98
390.657	84.99
390.867	119.81
391.076	39.94
391.286	35.84
391.496	89.09
391.705	84.99
391.915	105.47
392.125	64.51
392.334	101.37
392.544	99.33
392.753	76.8
392.963	72.7
393.172	138.24
393.382	15.36
393.591	113.66
393.801	115.71
394.01	41.98
394.22	91.13
394.429	15.36
394.639	60.42
394.848	115.71
395.058	48.13
395.267	84.99
395.477	35.84
395.686	89.09
395.895	205.82
396.105	97.28
396.314	52.22
396.524	144.38
396.733	82.94
396.942	203.77
397.152	97.28
397.361	203.77
397.57	80.89
397.78	97.28
397.989	181.25
398.198	156.67
398.407	105.47
398.617	89.09
398.826	105.47
399.035	121.85
399.244	113.66
399.453	105.47
399.663	154.62
399.872	72.7
400.081	3.07
400.29	177.15
400.499	72.7
400.708	121.85
400.917	156.67
401.127	121.85
401.336	105.47
401.545	134.14
401.754	150.53
401.963	179.2
402.172	105.47
402.381	80.89
402.59	115.71
402.799	80.89
403.008	107.52
403.217	162.81
403.426	80.89
403.635	60.42
403.844	162.81
404.053	146.43
404.262	101.37
404.471	236.54
404.68	99.33
404.888	156.67
405.097	154.62
405.306	107.52
405.515	158.72
405.724	197.63
405.933	142.33
406.142	99.33
406.35	244.73
406.559	183.29
406.768	228.35
406.977	265.21
407.185	199.68
407.394	236.54
407.603	211.96
407.812	216.06
408.02	293.88
408.229	263.16
408.438	197.63
408.646	275.45
408.855	297.98
409.064	285.69
409.272	263.16
409.481	302.08
409.69	336.89
409.898	271.36
410.107	322.56
410.315	345.08
410.524	308.22
410.733	371.71
410.941	388.09
411.15	383.99
411.358	336.89
411.567	396.28
411.775	402.43
411.984	367.61
412.192	517.11
412.401	535.54
412.609	594.93
412.818	566.26
413.026	510.97
413.234	400.38
413.443	486.39
413.651	506.87
413.86	592.89
414.068	574.46
414.276	672.76
414.485	674.81
414.693	635.89
414.901	777.2
415.11	697.33
415.318	683
415.526	769.01
415.734	785.4
415.943	893.94
416.151	861.17
416.359	887.79
416.567	941.04
416.776	955.38
416.984	1022.96
417.192	1094.64
417.4	1139.69
417.608	1080.3
417.817	1141.74
418.025	1129.45
418.233	1301.48
418.441	1172.46
418.649	1309.68
418.857	1391.59
419.065	1350.64
419.273	1283.05
419.481	1407.98
419.689	1483.75
419.897	1592.3
420.105	1547.24
420.313	1588.2
420.521	1727.46
420.729	1735.65
420.937	1844.2
421.145	1850.34
421.353	1940.45
421.561	1946.59
421.769	2055.14
421.977	2124.77
422.185	2128.86
422.393	2227.17
422.601	2448.35
422.809	2184.16
423.017	2440.15
423.224	2495.45
423.432	2610.14
423.64	2595.8
423.848	2972.63
424.056	2636.76
424.263	2843.6
424.471	2800.6
424.679	3062.74
424.887	3255.25
425.094	3242.96
425.302	3369.93
425.51	3482.57
425.718	3546.06
425.925	3546.06
426.133	3605.45
426.341	3814.34
426.548	4037.57
426.756	4197.31
426.964	4078.53
427.171	4346.81
427.379	4365.25
427.586	4340.67
427.794	4680.63
428.001	4901.81
428.209	5125.04
428.417	5020.6
428.624	5372.85
428.832	5395.37
429.039	5192.62
429.247	5327.79
429.454	5778.34
429.662	6153.12
429.869	5682.09
430.076	6167.46
430.284	6007.72
430.491	6239.14
430.699	6650.78
430.906	6556.57
431.114	6898.58
431.321	6988.69
431.528	6968.21
431.736	7408.53
431.943	7793.55
432.15	7553.93
432.358	7787.4
432.565	8160.13
432.772	8229.76
432.979	8498.05
433.187	8858.49
433.394	8870.78
433.601	9317.23
433.808	9468.78
434.016	9378.67
434.223	9718.64
434.43	10271.59
434.637	10050.41
434.844	10738.52
435.052	10908.51
435.259	10746.72
435.466	10980.18
435.673	10883.93
435.88	11572.05
436.087	12098.38
436.294	12180.29
436.501	12104.52
436.708	12264.26
436.915	12639.04
437.122	13167.42
437.329	12950.33
437.537	13351.73
437.743	13622.06
437.95	13638.45
438.157	14326.57
438.364	14734.11
438.571	15020.83
438.778	15096.6
438.985	16128.78
439.192	15747.86
439.399	16024.33
439.606	15661.84
439.813	16651.01
440.02	17758.96
440.227	17562.36
440.433	17165.05
440.64	17902.32
440.847	17523.44
441.054	17867.5
441.261	19079.9
441.467	18907.87
441.674	19219.16
441.881	20032.21
442.088	20024.01
442.294	19618.52
442.501	20099.79
442.708	20617.93
442.914	21662.39
443.121	22364.84
443.328	21924.53
443.534	23329.44
443.741	22674.09
443.948	22170.29
444.154	24011.41
444.361	24009.36
444.568	24230.54
444.774	23949.97
444.981	24302.22
445.187	24877.7
445.394	25977.46
445.6	25649.78
445.807	28293.71
446.013	26931.81
446.22	27478.62
446.426	28369.49
446.633	28916.29
446.839	29751.87
447.046	28605
447.252	30151.22
447.459	30235.19
447.665	30216.75
447.871	31250.98
448.078	32901.64
448.284	31156.77
448.491	32047.64
448.697	33266.18
448.903	33958.39
449.11	33839.61
449.316	33563.14
449.522	33892.86
449.728	35219.94
449.935	35680.74
450.141	35162.6
450.347	36106.71
450.553	34720.24
450.76	35387.88
450.966	36389.33
451.172	36176.34
451.378	37204.42
451.584	36717.01
451.791	37491.14
451.997	37204.42
452.203	37763.52
452.409	37810.62
452.615	38347.19
452.821	36499.92
453.027	35801.57
453.233	38031.8
453.44	36516.31
453.646	37155.27
453.852	37450.18
454.058	37863.87
454.264	36614.61
454.47	37456.32
454.676	36397.52
454.882	37718.46
455.088	34587.12
455.294	35092.97
455.5	35783.13
455.705	36147.67
455.911	34662.9
456.117	34111.99
456.323	33612.29
456.529	31992.34
456.735	33661.44
456.941	32610.83
457.147	32115.22
457.352	31441.44
457.558	30691.88
457.764	30700.08
457.97	30601.77
458.176	29817.4
458.381	30106.16
458.587	28215.89
458.793	28506.7
458.999	26829.41
459.204	28566.09
459.41	27851.35
459.616	26333.81
459.821	26561.13
460.027	26057.33
460.233	25707.13
460.438	24492.68
460.644	25107.07
460.85	23304.86
461.055	23181.98
461.261	23261.85
461.466	21535.42
461.672	20728.52
461.878	22297.26
462.083	20837.06
462.289	20597.45
462.494	20200.14
462.7	19387.1
462.905	18762.47
463.111	19653.33
463.316	19526.36
463.522	19086.04
463.727	19073.76
463.932	19045.09
464.138	18993.89
464.343	18791.14
464.549	18582.24
464.754	18887.39
464.959	18977.5
465.165	18569.96
465.37	17898.22
465.575	17251.06
465.781	18219.75
465.986	18234.09
466.191	17545.97
466.397	17126.14
466.602	16157.45
466.807	16894.72
467.012	17195.77
467.218	16878.33
467.423	16616.19
467.628	16886.53
