Data from USB4F104151__237__14-45-44-484.txt Node

Date: Thu Mar 13 14:45:44 EDT 2025
User: louis
Spectrometer: USB4F10415
Trigger mode: 4
Integration Time (sec): 2.000000E-2
Scans to average: 1
Electric dark correction enabled: true
Nonlinearity correction enabled: false
Boxcar width: 0
XAxis mode: Wavelengths
Number of Pixels in Spectrum: 3648
>>>>>Begin Spectral Data<<<<<
178.204	-127.83
178.424	-127.83
178.644	-127.83
178.864	-97.11
179.084	-101.2
179.304	21.67
179.524	-62.29
179.744	3.24
179.964	66.73
180.184	7.34
180.404	-17.24
180.624	40.11
180.844	-11.09
181.064	-93.01
181.283	19.63
181.503	3.24
181.723	21.67
181.943	11.43
182.163	40.11
182.383	11.43
182.602	68.78
182.822	76.97
183.042	21.67
183.262	3.24
183.482	-7
183.701	44.2
183.921	27.82
184.141	-2.9
184.361	52.39
184.58	-33.62
184.8	-70.48
185.02	11.43
185.239	76.97
185.459	68.78
185.679	46.25
185.898	5.29
186.118	76.97
186.338	44.2
186.557	27.82
186.777	29.87
186.997	27.82
187.216	-37.72
187.436	-68.44
187.655	85.16
187.875	15.53
188.095	60.59
188.314	29.87
188.534	19.63
188.753	11.43
188.973	68.78
189.192	83.11
189.412	-43.86
189.631	3.24
189.851	21.67
190.07	27.82
190.29	46.25
190.509	-9.05
190.729	60.59
190.948	-21.33
191.168	109.74
191.387	89.26
191.607	-2.9
191.826	-66.39
192.045	3.24
192.265	-2.9
192.484	7.34
192.704	31.91
192.923	-21.33
193.142	40.11
193.362	93.35
193.581	-17.24
193.8	60.59
194.02	56.49
194.239	109.74
194.458	21.67
194.678	-50
194.897	25.77
195.116	81.07
195.335	-0.85
195.555	-7
195.774	-11.09
195.993	97.45
196.212	17.58
196.432	40.11
196.651	-13.14
196.87	-50
197.089	56.49
197.308	40.11
197.528	56.49
197.747	27.82
197.966	-21.33
198.185	101.55
198.404	5.29
198.623	52.39
198.842	3.24
199.062	46.25
199.281	54.44
199.5	21.67
199.719	-17.24
199.938	36.01
200.157	130.22
200.376	68.78
200.595	29.87
200.814	-43.86
201.033	-13.14
201.252	60.59
201.471	31.91
201.69	19.63
201.909	5.29
202.128	9.39
202.347	5.29
202.566	-60.24
202.785	44.2
203.004	-15.19
203.223	105.64
203.442	27.82
203.661	87.21
203.879	48.3
204.098	-17.24
204.317	54.44
204.536	85.16
204.755	-2.9
204.974	36.01
205.193	11.43
205.411	48.3
205.63	9.39
205.849	27.82
206.068	33.96
206.287	11.43
206.505	5.29
206.724	-27.48
206.943	-52.05
207.162	44.2
207.381	44.2
207.599	38.06
207.818	-17.24
208.037	-21.33
208.255	-43.86
208.474	-21.33
208.693	105.64
208.911	-4.95
209.13	72.87
209.349	13.48
209.567	60.59
209.786	21.67
210.005	3.24
210.223	36.01
210.442	-68.44
210.661	15.53
210.879	19.63
211.098	85.16
211.316	5.29
211.535	33.96
211.753	62.63
211.972	-2.9
212.191	60.59
212.409	19.63
212.628	89.26
212.846	-0.85
213.065	54.44
213.283	60.59
213.502	-19.29
213.72	-2.9
213.938	60.59
214.157	15.53
214.375	-7
214.594	93.35
214.812	74.92
215.031	13.48
215.249	64.68
215.467	48.3
215.686	27.82
215.904	62.63
216.122	56.49
216.341	130.22
216.559	-29.52
216.778	72.87
216.996	134.31
217.214	11.43
217.432	1.19
217.651	74.92
217.869	60.59
218.087	13.48
218.306	9.39
218.524	101.55
218.742	-13.14
218.96	-7
219.179	-29.52
219.397	27.82
219.615	-25.43
219.833	64.68
220.051	19.63
220.27	-0.85
220.488	33.96
220.706	23.72
220.924	-29.52
221.142	-90.96
221.36	48.3
221.578	15.53
221.796	13.48
222.015	-21.33
222.233	-13.14
222.451	38.06
222.669	44.2
222.887	38.06
223.105	-33.62
223.323	9.39
223.541	-4.95
223.759	25.77
223.977	-43.86
224.195	64.68
224.413	-33.62
224.631	81.07
224.849	27.82
225.067	36.01
225.285	-19.29
225.503	13.48
225.721	-4.95
225.939	-0.85
226.157	7.34
226.375	11.43
226.592	-68.44
226.81	52.39
227.028	60.59
227.246	85.16
227.464	31.91
227.682	76.97
227.9	50.35
228.117	52.39
228.335	60.59
228.553	50.35
228.771	-29.52
228.989	11.43
229.206	21.67
229.424	-2.9
229.642	19.63
229.86	-0.85
230.077	44.2
230.295	27.82
230.513	76.97
230.731	-9.05
230.948	36.01
231.166	-17.24
231.384	15.53
231.601	5.29
231.819	3.24
232.037	23.72
232.254	-21.33
232.472	132.26
232.689	21.67
232.907	48.3
233.125	11.43
233.342	46.25
233.56	29.87
233.777	-4.95
233.995	-19.29
234.213	31.91
234.43	40.11
234.648	15.53
234.865	27.82
235.083	52.39
235.3	-11.09
235.518	72.87
235.735	31.91
235.953	56.49
236.17	44.2
236.388	-9.05
236.605	-13.14
236.822	52.39
237.04	52.39
237.257	-21.33
237.475	-21.33
237.692	36.01
237.909	-7
238.127	46.25
238.344	36.01
238.562	-29.52
238.779	-13.14
238.996	13.48
239.214	13.48
239.431	46.25
239.648	-58.2
239.865	-56.15
240.083	160.94
240.3	58.54
240.517	-19.29
240.735	76.97
240.952	33.96
241.169	27.82
241.386	19.63
241.603	27.82
241.821	-33.62
242.038	62.63
242.255	-43.86
242.472	-21.33
242.689	60.59
242.907	36.01
243.124	76.97
243.341	60.59
243.558	1.19
243.775	-11.09
243.992	3.24
244.209	58.54
244.426	101.55
244.643	76.97
244.86	44.2
245.078	36.01
245.295	-37.72
245.512	44.2
245.729	11.43
245.946	38.06
246.163	15.53
246.38	17.58
246.597	40.11
246.814	70.83
247.031	19.63
247.248	97.45
247.464	54.44
247.681	7.34
247.898	23.72
248.115	68.78
248.332	-39.76
248.549	27.82
248.766	19.63
248.983	40.11
249.2	7.34
249.417	79.02
249.633	38.06
249.85	38.06
250.067	-43.86
250.284	62.63
250.501	79.02
250.717	68.78
250.934	109.74
251.151	27.82
251.368	-25.43
251.585	62.63
251.801	29.87
252.018	23.72
252.235	79.02
252.451	15.53
252.668	17.58
252.885	52.39
253.102	44.2
253.318	44.2
253.535	-47.96
253.752	-0.85
253.968	19.63
254.185	-54.1
254.401	-2.9
254.618	11.43
254.835	-21.33
255.051	79.02
255.268	76.97
255.484	95.4
255.701	79.02
255.917	85.16
256.134	-29.52
256.351	25.77
256.567	-60.24
256.784	36.01
257	-21.33
257.217	103.59
257.433	5.29
257.65	76.97
257.866	42.15
258.082	-2.9
258.299	5.29
258.515	85.16
258.732	-27.48
258.948	27.82
259.165	46.25
259.381	85.16
259.597	60.59
259.814	-35.67
260.03	13.48
260.246	5.29
260.463	93.35
260.679	48.3
260.895	85.16
261.112	27.82
261.328	52.39
261.544	58.54
261.761	-29.52
261.977	11.43
262.193	3.24
262.409	117.93
262.626	50.35
262.842	7.34
263.058	-4.95
263.274	54.44
263.49	87.21
263.707	85.16
263.923	33.96
264.139	68.78
264.355	29.87
264.571	52.39
264.787	17.58
265.004	79.02
265.22	27.82
265.436	-25.43
265.652	46.25
265.868	70.83
266.084	13.48
266.3	46.25
266.516	-0.85
266.732	79.02
266.948	-13.14
267.164	52.39
267.38	68.78
267.596	-60.24
267.812	105.64
268.028	36.01
268.244	7.34
268.46	52.39
268.676	36.01
268.892	60.59
269.108	3.24
269.324	-0.85
269.54	17.58
269.756	-4.95
269.972	-41.81
270.188	-4.95
270.403	-13.14
270.619	46.25
270.835	64.68
271.051	60.59
271.267	1.19
271.483	-7
271.698	19.63
271.914	60.59
272.13	-4.95
272.346	-7
272.562	36.01
272.777	97.45
272.993	52.39
273.209	23.72
273.425	36.01
273.64	97.45
273.856	3.24
274.072	11.43
274.287	-70.48
274.503	9.39
274.719	107.69
274.934	-37.72
275.15	19.63
275.366	31.91
275.581	-70.48
275.797	5.29
276.012	-41.81
276.228	27.82
276.444	40.11
276.659	93.35
276.875	44.2
277.09	-37.72
277.306	-13.14
277.521	-11.09
277.737	-25.43
277.952	89.26
278.168	36.01
278.383	85.16
278.599	68.78
278.814	64.68
279.03	44.2
279.245	5.29
279.461	-9.05
279.676	15.53
279.892	-27.48
280.107	5.29
280.322	5.29
280.538	44.2
280.753	3.24
280.969	23.72
281.184	-19.29
281.399	19.63
281.615	40.11
281.83	79.02
282.045	1.19
282.26	-13.14
282.476	5.29
282.691	33.96
282.906	50.35
283.122	9.39
283.337	9.39
283.552	76.97
283.767	-13.14
283.983	27.82
284.198	21.67
284.413	111.78
284.628	-17.24
284.843	5.29
285.058	113.83
285.274	48.3
285.489	-21.33
285.704	36.01
285.919	60.59
286.134	13.48
286.349	11.43
286.564	-4.95
286.779	48.3
286.995	36.01
287.21	3.24
287.425	-37.72
287.64	-19.29
287.855	105.64
288.07	-11.09
288.285	29.87
288.5	29.87
288.715	17.58
288.93	79.02
289.145	60.59
289.36	99.5
289.575	117.93
289.79	85.16
290.004	-37.72
290.219	85.16
290.434	83.11
290.649	-17.24
290.864	44.2
291.079	-4.95
291.294	56.49
291.509	5.29
291.724	-11.09
291.938	21.67
292.153	5.29
292.368	79.02
292.583	3.24
292.798	64.68
293.012	-13.14
293.227	109.74
293.442	-52.05
293.657	113.83
293.871	44.2
294.086	56.49
294.301	113.83
294.516	33.96
294.73	-9.05
294.945	-2.9
295.16	-13.14
295.374	103.59
295.589	-2.9
295.804	31.91
296.018	76.97
296.233	111.78
296.447	60.59
296.662	-31.57
296.877	38.06
297.091	21.67
297.306	-41.81
297.52	70.83
297.735	79.02
297.949	95.4
298.164	50.35
298.378	70.83
298.593	48.3
298.807	-27.48
299.022	36.01
299.236	19.63
299.451	89.26
299.665	27.82
299.88	54.44
300.094	42.15
300.309	-2.9
300.523	-9.05
300.737	27.82
300.952	7.34
301.166	40.11
301.381	-35.67
301.595	-68.44
301.809	38.06
302.024	-13.14
302.238	-19.29
302.452	79.02
302.667	36.01
302.881	38.06
303.095	19.63
303.309	97.45
303.524	-0.85
303.738	46.25
303.952	23.72
304.166	46.25
304.381	-41.81
304.595	21.67
304.809	70.83
305.023	36.01
305.237	58.54
305.452	-11.09
305.666	85.16
305.88	33.96
306.094	33.96
306.308	56.49
306.522	89.26
306.736	31.91
306.95	44.2
307.164	5.29
307.379	-45.91
307.593	31.91
307.807	74.92
308.021	5.29
308.235	15.53
308.449	-43.86
308.663	7.34
308.877	62.63
309.091	79.02
309.305	38.06
309.519	-0.85
309.733	5.29
309.947	-76.63
310.161	44.2
310.374	46.25
310.588	29.87
310.802	-21.33
311.016	-54.1
311.23	95.4
311.444	40.11
311.658	52.39
311.872	72.87
312.085	-0.85
312.299	105.64
312.513	36.01
312.727	3.24
312.941	29.87
313.154	60.59
313.368	27.82
313.582	25.77
313.796	81.07
314.009	19.63
314.223	-2.9
314.437	11.43
314.651	29.87
314.864	15.53
315.078	44.2
315.292	44.2
315.505	5.29
315.719	3.24
315.933	38.06
316.146	-35.67
316.36	42.15
316.573	-17.24
316.787	72.87
317.001	11.43
317.214	-19.29
317.428	40.11
317.641	-27.48
317.855	-11.09
318.068	27.82
318.282	87.21
318.495	162.98
318.709	13.48
318.922	-58.2
319.136	85.16
319.349	23.72
319.563	-25.43
319.776	3.24
319.99	-41.81
320.203	11.43
320.417	19.63
320.63	48.3
320.843	48.3
321.057	-13.14
321.27	29.87
321.483	-19.29
321.697	62.63
321.91	89.26
322.124	62.63
322.337	27.82
322.55	-2.9
322.763	76.97
322.977	79.02
323.19	13.48
323.403	68.78
323.617	-7
323.83	3.24
324.043	68.78
324.256	36.01
324.469	52.39
324.683	85.16
324.896	5.29
325.109	9.39
325.322	-4.95
325.535	15.53
325.748	97.45
325.962	85.16
326.175	91.31
326.388	-0.85
326.601	62.63
326.814	93.35
327.027	68.78
327.24	-13.14
327.453	38.06
327.666	109.74
327.879	19.63
328.092	52.39
328.305	56.49
328.518	-2.9
328.731	29.87
328.944	33.96
329.157	27.82
329.37	19.63
329.583	31.91
329.796	-17.24
330.009	36.01
330.222	60.59
330.435	79.02
330.648	46.25
330.861	-64.34
331.073	54.44
331.286	-17.24
331.499	31.91
331.712	-23.38
331.925	27.82
332.138	44.2
332.35	101.55
332.563	17.58
332.776	36.01
332.989	-43.86
333.202	54.44
333.414	60.59
333.627	15.53
333.84	27.82
334.053	64.68
334.265	-4.95
334.478	52.39
334.691	23.72
334.903	38.06
335.116	52.39
335.329	-13.14
335.541	9.39
335.754	48.3
335.966	44.2
336.179	29.87
336.392	52.39
336.604	42.15
336.817	31.91
337.029	40.11
337.242	-9.05
337.454	-66.39
337.667	5.29
337.88	62.63
338.092	85.16
338.305	72.87
338.517	-29.52
338.729	64.68
338.942	33.96
339.154	17.58
339.367	19.63
339.579	38.06
339.792	68.78
340.004	81.07
340.217	29.87
340.429	15.53
340.641	25.77
340.854	68.78
341.066	13.48
341.278	111.78
341.491	62.63
341.703	54.44
341.915	38.06
342.128	13.48
342.34	79.02
342.552	7.34
342.764	27.82
342.977	44.2
343.189	46.25
343.401	23.72
343.613	11.43
343.826	87.21
344.038	11.43
344.25	27.82
344.462	-52.05
344.674	89.26
344.886	70.83
345.099	105.64
345.311	23.72
345.523	79.02
345.735	13.48
345.947	3.24
346.159	46.25
346.371	-9.05
346.583	13.48
346.795	56.49
347.007	-13.14
347.219	11.43
347.431	-19.29
347.643	19.63
347.855	-37.72
348.067	60.59
348.279	54.44
348.491	13.48
348.703	19.63
348.915	5.29
349.127	-9.05
349.339	103.59
349.551	-29.52
349.763	36.01
349.975	-95.06
350.187	-19.29
350.399	44.2
350.61	7.34
350.822	38.06
351.034	79.02
351.246	29.87
351.458	44.2
351.669	66.73
351.881	70.83
352.093	52.39
352.305	52.39
352.517	103.59
352.728	-7
352.94	38.06
353.152	27.82
353.363	-25.43
353.575	36.01
353.787	-31.57
353.999	87.21
354.21	5.29
354.422	13.48
354.633	-37.72
354.845	-23.38
355.057	66.73
355.268	15.53
355.48	-4.95
355.692	76.97
355.903	52.39
356.115	29.87
356.326	-37.72
356.538	38.06
356.749	60.59
356.961	19.63
357.172	56.49
357.384	-47.96
357.595	93.35
357.807	19.63
358.018	40.11
358.23	76.97
358.441	107.69
358.653	74.92
358.864	48.3
359.075	64.68
359.287	3.24
359.498	56.49
359.709	40.11
359.921	52.39
360.132	74.92
360.344	74.92
360.555	-25.43
360.766	19.63
360.977	29.87
361.189	62.63
361.4	5.29
361.611	70.83
361.823	81.07
362.034	-4.95
362.245	-37.72
362.456	74.92
362.667	13.48
362.879	60.59
363.09	79.02
363.301	3.24
363.512	54.44
363.723	36.01
363.935	38.06
364.146	21.67
364.357	13.48
364.568	72.87
364.779	29.87
364.99	46.25
365.201	-43.86
365.412	70.83
365.623	31.91
365.834	54.44
366.045	21.67
366.256	-25.43
366.467	17.58
366.678	-23.38
366.889	31.91
367.1	21.67
367.311	52.39
367.522	-11.09
367.733	33.96
367.944	44.2
368.155	-54.1
368.366	60.59
368.577	-21.33
368.788	52.39
368.999	11.43
369.209	27.82
369.42	74.92
369.631	95.4
369.842	42.15
370.053	-54.1
370.264	50.35
370.474	-0.85
370.685	48.3
370.896	3.24
371.107	27.82
371.317	89.26
371.528	21.67
371.739	64.68
371.95	11.43
372.16	74.92
372.371	27.82
372.582	23.72
372.792	60.59
373.003	60.59
373.214	19.63
373.424	-54.1
373.635	-54.1
373.846	93.35
374.056	-13.14
374.267	93.35
374.477	146.6
374.688	27.82
374.898	36.01
375.109	60.59
375.319	52.39
375.53	44.2
375.74	38.06
375.951	60.59
376.161	23.72
376.372	29.87
376.582	36.01
376.793	-4.95
377.003	3.24
377.214	36.01
377.424	72.87
377.635	13.48
377.845	21.67
378.055	60.59
378.266	21.67
378.476	89.26
378.686	21.67
378.897	44.2
379.107	95.4
379.317	56.49
379.528	36.01
379.738	60.59
379.948	68.78
380.158	93.35
380.369	87.21
380.579	91.31
380.789	5.29
380.999	124.07
381.21	-0.85
381.42	40.11
381.63	-2.9
381.84	85.16
382.05	36.01
382.261	64.68
382.471	58.54
382.681	40.11
382.891	36.01
383.101	81.07
383.311	3.24
383.521	29.87
383.731	36.01
383.941	95.4
384.151	-7
384.361	97.45
384.571	130.22
384.781	52.39
384.991	87.21
385.201	109.74
385.411	21.67
385.621	52.39
385.831	68.78
386.041	17.58
386.251	15.53
386.461	48.3
386.671	97.45
386.881	15.53
387.091	101.55
387.301	115.88
387.511	19.63
387.72	85.16
387.93	58.54
388.14	23.72
388.35	36.01
388.56	52.39
388.769	79.02
388.979	64.68
389.189	40.11
389.399	38.06
389.609	87.21
389.818	31.91
390.028	23.72
390.238	44.2
390.447	93.35
390.657	97.45
390.867	52.39
391.076	7.34
391.286	117.93
391.496	60.59
391.705	50.35
391.915	76.97
392.125	109.74
392.334	27.82
392.544	66.73
392.753	-11.09
392.963	60.59
393.172	81.07
393.382	29.87
393.591	136.36
393.801	60.59
394.01	111.78
394.22	150.7
394.429	134.31
394.639	23.72
394.848	11.43
395.058	93.35
395.267	68.78
395.477	11.43
395.686	31.91
395.895	85.16
396.105	117.93
396.314	56.49
396.524	89.26
396.733	70.83
396.942	81.07
397.152	85.16
397.361	50.35
397.57	31.91
397.78	136.36
397.989	105.64
398.198	113.83
398.407	136.36
398.617	19.63
398.826	21.67
399.035	76.97
399.244	83.11
399.453	109.74
399.663	87.21
399.872	117.93
400.081	76.97
400.29	54.44
400.499	31.91
400.708	140.46
400.917	97.45
401.127	85.16
401.336	46.25
401.545	203.94
401.754	95.4
401.963	62.63
402.172	109.74
402.381	105.64
402.59	52.39
402.799	44.2
403.008	167.08
403.217	160.94
403.426	48.3
403.635	27.82
403.844	101.55
404.053	27.82
404.262	130.22
404.471	167.08
404.68	91.31
404.888	105.64
405.097	154.79
405.306	95.4
405.515	167.08
405.724	152.74
405.933	189.61
406.142	177.32
406.35	171.18
406.559	144.55
406.768	128.17
406.977	257.19
407.185	128.17
407.394	109.74
407.603	214.18
407.812	201.9
408.02	214.18
408.229	179.37
408.438	244.9
408.646	154.79
408.855	195.75
409.064	224.42
409.272	195.75
409.481	242.85
409.69	238.76
409.898	218.28
410.107	232.62
410.315	146.6
410.524	216.23
410.733	306.34
410.941	210.09
411.15	285.86
411.358	292.01
411.567	314.53
411.775	275.62
411.984	330.92
412.192	375.97
412.401	423.08
412.609	457.89
412.818	414.88
413.026	310.44
413.234	365.73
413.443	367.78
413.651	410.79
413.86	363.69
414.068	453.8
414.276	509.09
414.485	527.52
414.693	474.28
414.901	625.83
415.11	480.42
415.318	609.44
415.526	519.33
415.734	554.15
415.943	523.43
416.151	629.92
416.359	722.08
416.567	672.93
416.776	679.07
416.984	777.37
417.192	830.62
417.4	840.86
417.608	810.14
417.817	717.98
418.025	861.34
418.233	980.12
418.441	908.44
418.649	945.31
418.857	930.97
419.065	1027.23
419.273	969.88
419.481	994.46
419.689	1152.15
419.897	1197.21
420.105	1227.93
420.313	1201.3
420.521	1309.85
420.729	1352.85
420.937	1297.56
421.145	1428.63
421.353	1502.36
421.561	1547.41
421.769	1621.14
421.977	1578.13
422.185	1649.81
422.393	1774.74
422.601	1780.88
422.809	1782.93
423.017	1842.32
423.224	1928.33
423.432	2112.65
423.64	2018.44
423.848	2182.28
424.056	2126.99
424.263	2266.25
424.471	2296.97
424.679	2382.98
424.887	2430.09
425.094	2567.3
425.302	2575.49
425.51	2641.03
425.718	2686.08
425.925	2837.63
426.133	2765.95
426.341	3114.11
426.548	3202.17
426.756	3052.67
426.964	3193.98
427.171	3300.47
427.379	3527.8
427.586	3443.83
427.794	3714.16
428.001	3878
428.209	4035.69
428.417	3921.01
428.624	4107.37
428.832	4117.61
429.039	4158.57
429.247	4158.57
429.454	4617.32
429.662	4742.24
429.869	4586.6
430.076	4791.39
430.284	4639.84
430.491	4934.75
430.699	5182.56
430.906	5155.93
431.114	5217.37
431.321	5403.74
431.528	5588.05
431.736	5831.76
431.943	6315.08
432.15	5983.31
432.358	5860.43
432.565	6200.4
432.772	6222.92
432.979	6782.02
433.187	6730.82
433.394	6870.08
433.601	7167.04
433.808	7224.38
434.016	7134.27
434.223	7517.24
434.43	8152.11
434.637	8014.9
434.844	8420.39
435.052	8408.11
435.259	8336.43
435.466	8576.04
435.673	8473.64
435.88	9010.21
436.087	9540.63
436.294	9309.21
436.501	9215.01
436.708	9382.94
436.915	9939.99
437.122	10191.89
437.329	9987.09
437.537	10423.31
437.743	10654.73
437.95	10656.78
438.157	11031.55
438.364	11598.84
438.571	11443.2
438.778	11572.22
438.985	12727.27
439.192	12098.55
439.399	12708.84
439.606	12184.56
439.813	13147.11
440.02	13818.84
440.227	13480.92
440.433	13353.95
440.64	13552.6
440.847	13788.12
441.054	13888.47
441.261	14726.09
441.467	14689.23
441.674	15016.9
441.881	15666.11
442.088	15723.45
442.294	15457.21
442.501	15745.98
442.708	16255.92
442.914	16823.21
443.121	17421.22
443.328	16944.04
443.534	18029.46
443.741	17488.8
443.948	17402.79
444.154	18584.46
444.361	18623.37
444.568	18693.01
444.774	18598.8
444.981	18776.97
445.187	19493.76
445.394	20315
445.6	20042.62
445.807	21920.6
446.013	21080.94
446.22	21304.17
446.426	22350.68
446.633	22422.36
446.839	23188.3
447.046	22326.1
447.252	23644.99
447.459	23382.85
447.665	23499.59
447.871	24447.8
448.078	25672.48
448.284	24159.03
448.491	24951.6
448.697	25678.63
448.903	26444.57
449.11	26614.55
449.316	26258.2
449.522	26589.97
449.728	27140.88
449.935	27511.56
450.141	27431.69
450.347	28287.74
450.553	27230.99
450.76	27724.55
450.966	28943.09
451.172	28105.47
451.378	29065.97
451.584	28175.1
451.791	29375.21
451.997	28709.62
452.203	29491.94
452.409	29561.58
452.615	29520.62
452.821	28128
453.027	28080.89
453.233	29563.62
453.44	28455.67
453.646	28795.64
453.852	29025.01
454.058	29119.21
454.264	28531.45
454.47	29053.68
454.676	28259.07
454.882	29455.08
455.088	27015.95
455.294	26901.26
455.5	27673.35
455.705	27955.97
455.911	26878.74
456.117	26196.76
456.323	26280.73
456.529	24711.99
456.735	25959.2
456.941	25115.44
457.147	24671.03
457.352	23935.81
457.558	23857.98
457.764	23667.52
457.97	23573.31
458.176	22989.64
458.381	22930.25
458.587	21707.62
458.793	21801.82
458.999	20724.59
459.204	22221.66
459.41	21500.77
459.616	20011.9
459.821	20153.21
460.027	20026.23
460.233	19583.87
460.438	18772.88
460.644	19057.54
460.85	18080.66
461.055	17755.04
461.261	17896.35
461.466	16378.8
461.672	16202.68
461.878	17025.96
462.083	15858.62
462.289	15637.44
462.494	15600.57
462.7	15008.71
462.905	14517.2
463.111	14998.47
463.316	15209.41
463.522	14554.06
463.727	14695.37
463.932	14988.23
464.138	14412.75
464.343	14652.36
464.549	14253.01
464.754	14721.99
464.959	14484.43
465.165	14500.81
465.37	13888.47
465.575	13421.53
465.781	14197.71
465.986	14040.02
466.191	13560.8
466.397	13237.22
466.602	12723.18
466.807	13304.8
467.012	13241.31
467.218	13095.91
467.423	13013.99
467.628	13032.42
467.833	13566.94
468.038	12872.68
