Data from USB4F104151__156__14-44-40-679.txt Node

Date: Thu Mar 13 14:44:40 EDT 2025
User: louis
Spectrometer: USB4F10415
Trigger mode: 4
Integration Time (sec): 2.000000E-2
Scans to average: 1
Electric dark correction enabled: true
Nonlinearity correction enabled: false
Boxcar width: 0
XAxis mode: Wavelengths
Number of Pixels in Spectrum: 3648
>>>>>Begin Spectral Data<<<<<
178.204	-116.22
178.424	-116.22
178.644	-116.22
178.864	-198.14
179.084	-71.17
179.304	-34.3
179.524	43.52
179.744	-19.97
179.964	10.75
180.184	-83.45
180.404	35.33
180.624	16.9
180.844	18.94
181.064	-3.58
181.283	-5.63
181.503	-62.98
181.723	84.48
181.943	-38.4
182.163	78.33
182.383	25.09
182.602	61.95
182.822	49.66
183.042	27.14
183.262	33.28
183.482	-7.68
183.701	10.75
183.921	100.86
184.141	47.62
184.361	35.33
184.58	27.14
184.8	35.33
185.02	45.57
185.239	-22.02
185.459	84.48
185.679	70.14
185.898	-22.02
186.118	68.09
186.338	64
186.557	72.19
186.777	-13.82
186.997	-30.21
187.216	6.66
187.436	96.77
187.655	78.33
187.875	113.15
188.095	43.52
188.314	35.33
188.534	94.72
188.753	45.57
188.973	27.14
189.192	55.81
189.412	43.52
189.631	6.66
189.851	4.61
190.07	96.77
190.29	-34.3
190.509	45.57
190.729	-50.69
190.948	43.52
191.168	129.53
191.387	43.52
191.607	59.9
191.826	18.94
192.045	-22.02
192.265	29.18
192.484	47.62
192.704	-1.54
192.923	-62.98
193.142	109.05
193.362	4.61
193.581	8.7
193.8	53.76
194.02	127.49
194.239	8.7
194.458	53.76
194.678	55.81
194.897	-46.59
195.116	-3.58
195.335	4.61
195.555	76.29
195.774	109.05
195.993	20.99
196.212	39.42
196.432	16.9
196.651	37.38
196.87	10.75
197.089	113.15
197.308	70.14
197.528	39.42
197.747	14.85
197.966	10.75
198.185	45.57
198.404	37.38
198.623	27.14
198.842	18.94
199.062	102.91
199.281	59.9
199.5	29.18
199.719	18.94
199.938	76.29
200.157	68.09
200.376	49.66
200.595	53.76
200.814	92.67
201.033	49.66
201.252	53.76
201.471	27.14
201.69	117.25
201.909	-30.21
202.128	-9.73
202.347	45.57
202.566	-34.3
202.785	-3.58
203.004	39.42
203.223	174.59
203.442	37.38
203.661	37.38
203.879	53.76
204.098	29.18
204.317	10.75
204.536	64
204.755	35.33
204.974	-58.88
205.193	12.8
205.411	133.63
205.63	29.18
205.849	-26.11
206.068	100.86
206.287	29.18
206.505	76.29
206.724	-58.88
206.943	37.38
207.162	2.56
207.381	2.56
207.599	45.57
207.818	92.67
208.037	10.75
208.255	41.47
208.474	45.57
208.693	-5.63
208.911	31.23
209.13	59.9
209.349	10.75
209.567	90.62
209.786	-56.83
210.005	12.8
210.223	45.57
210.442	-28.16
210.661	-36.35
210.879	41.47
211.098	66.05
211.316	92.67
211.535	23.04
211.753	-1.54
211.972	35.33
212.191	43.52
212.409	-5.63
212.628	33.28
212.846	98.81
213.065	51.71
213.283	102.91
213.502	6.66
213.72	35.33
213.938	-17.92
214.157	-44.54
214.375	33.28
214.594	18.94
214.812	53.76
215.031	84.48
215.249	8.7
215.467	-1.54
215.686	78.33
215.904	4.61
216.122	64
216.341	61.95
216.559	-24.06
216.778	76.29
216.996	64
217.214	51.71
217.432	23.04
217.651	78.33
217.869	6.66
218.087	37.38
218.306	27.14
218.524	18.94
218.742	6.66
218.96	39.42
219.179	27.14
219.397	12.8
219.615	90.62
219.833	92.67
220.051	-26.11
220.27	43.52
220.488	39.42
220.706	-13.82
220.924	-13.82
221.142	25.09
221.36	25.09
221.578	16.9
221.796	14.85
222.015	-3.58
222.233	-5.63
222.451	70.14
222.669	-7.68
222.887	84.48
223.105	59.9
223.323	94.72
223.541	70.14
223.759	84.48
223.977	35.33
224.195	117.25
224.413	51.71
224.631	45.57
224.849	29.18
225.067	61.95
225.285	10.75
225.503	-34.3
225.721	23.04
225.939	33.28
226.157	51.71
226.375	100.86
226.592	-30.21
226.81	100.86
227.028	55.81
227.246	51.71
227.464	4.61
227.682	2.56
227.9	10.75
228.117	70.14
228.335	4.61
228.553	59.9
228.771	-11.78
228.989	-9.73
229.206	29.18
229.424	20.99
229.642	61.95
229.86	33.28
230.077	35.33
230.295	18.94
230.513	70.14
230.731	86.53
230.948	39.42
231.166	18.94
231.384	59.9
231.601	-3.58
231.819	100.86
232.037	35.33
232.254	-28.16
232.472	53.76
232.689	-22.02
232.907	31.23
233.125	0.51
233.342	-30.21
233.56	-13.82
233.777	53.76
233.995	12.8
234.213	59.9
234.43	-22.02
234.648	-3.58
234.865	-11.78
235.083	43.52
235.3	59.9
235.518	76.29
235.735	84.48
235.953	23.04
236.17	20.99
236.388	23.04
236.605	20.99
236.822	-5.63
237.04	51.71
237.257	-22.02
237.475	14.85
237.692	53.76
237.909	53.76
238.127	70.14
238.344	74.24
238.562	72.19
238.779	-52.74
238.996	45.57
239.214	6.66
239.431	43.52
239.648	-50.69
239.865	59.9
240.083	84.48
240.3	76.29
240.517	68.09
240.735	10.75
240.952	43.52
241.169	98.81
241.386	70.14
241.603	27.14
241.821	78.33
242.038	68.09
242.255	23.04
242.472	-46.59
242.689	-1.54
242.907	43.52
243.124	18.94
243.341	78.33
243.558	84.48
243.775	4.61
243.992	10.75
244.209	51.71
244.426	57.86
244.643	6.66
244.86	4.61
245.078	61.95
245.295	102.91
245.512	12.8
245.729	18.94
245.946	102.91
246.163	53.76
246.38	-69.12
246.597	84.48
246.814	78.33
247.031	-13.82
247.248	-32.26
247.464	102.91
247.681	-34.3
247.898	59.9
248.115	-9.73
248.332	-13.82
248.549	92.67
248.766	43.52
248.983	-50.69
249.2	68.09
249.417	20.99
249.633	20.99
249.85	43.52
250.067	20.99
250.284	-26.11
250.501	27.14
250.717	43.52
250.934	-60.93
251.151	31.23
251.368	80.38
251.585	10.75
251.801	-13.82
252.018	-13.82
252.235	84.48
252.451	84.48
252.668	-38.4
252.885	133.63
253.102	35.33
253.318	27.14
253.535	27.14
253.752	59.9
253.968	29.18
254.185	27.14
254.401	20.99
254.618	92.67
254.835	47.62
255.051	-17.92
255.268	33.28
255.484	14.85
255.701	61.95
255.917	39.42
256.134	18.94
256.351	86.53
256.567	-38.4
256.784	-5.63
257	14.85
257.217	74.24
257.433	39.42
257.65	88.57
257.866	39.42
258.082	61.95
258.299	-77.31
258.515	51.71
258.732	6.66
258.948	-11.78
259.165	41.47
259.381	-3.58
259.597	-24.06
259.814	25.09
260.03	-22.02
260.246	35.33
260.463	-5.63
260.679	2.56
260.895	68.09
261.112	107.01
261.328	68.09
261.544	53.76
261.761	72.19
261.977	10.75
262.193	16.9
262.409	55.81
262.626	2.56
262.842	27.14
263.058	-3.58
263.274	55.81
263.49	51.71
263.707	18.94
263.923	2.56
264.139	-5.63
264.355	35.33
264.571	102.91
264.787	23.04
265.004	117.25
265.22	37.38
265.436	76.29
265.652	-46.59
265.868	-50.69
266.084	2.56
266.3	102.91
266.516	-7.68
266.732	-62.98
266.948	18.94
267.164	-19.97
267.38	59.9
267.596	35.33
267.812	80.38
268.028	55.81
268.244	-17.92
268.46	-5.63
268.676	66.05
268.892	2.56
269.108	29.18
269.324	41.47
269.54	-13.82
269.756	-7.68
269.972	35.33
270.188	64
270.403	20.99
270.619	80.38
270.835	51.71
271.051	-13.82
271.267	23.04
271.483	31.23
271.698	86.53
271.914	18.94
272.13	41.47
272.346	23.04
272.562	25.09
272.777	35.33
272.993	-11.78
273.209	23.04
273.425	119.29
273.64	-30.21
273.856	10.75
274.072	18.94
274.287	18.94
274.503	-34.3
274.719	27.14
274.934	10.75
275.15	-34.3
275.366	68.09
275.581	23.04
275.797	12.8
276.012	72.19
276.228	-9.73
276.444	78.33
276.659	45.57
276.875	-17.92
277.09	45.57
277.306	37.38
277.521	2.56
277.737	-15.87
277.952	51.71
278.168	64
278.383	43.52
278.599	43.52
278.814	92.67
279.03	14.85
279.245	76.29
279.461	51.71
279.676	59.9
279.892	-19.97
280.107	-28.16
280.322	16.9
280.538	23.04
280.753	-22.02
280.969	29.18
281.184	37.38
281.399	51.71
281.615	20.99
281.83	70.14
282.045	12.8
282.26	-28.16
282.476	-19.97
282.691	49.66
282.906	20.99
283.122	92.67
283.337	18.94
283.552	68.09
283.767	43.52
283.983	-9.73
284.198	-5.63
284.413	92.67
284.628	-5.63
284.843	47.62
285.058	45.57
285.274	29.18
285.489	31.23
285.704	35.33
285.919	51.71
286.134	4.61
286.349	53.76
286.564	-30.21
286.779	47.62
286.995	59.9
287.21	109.05
287.425	47.62
287.64	37.38
287.855	-11.78
288.07	39.42
288.285	10.75
288.5	86.53
288.715	14.85
288.93	35.33
289.145	2.56
289.36	86.53
289.575	61.95
289.79	31.23
290.004	51.71
290.219	74.24
290.434	94.72
290.649	-44.54
290.864	23.04
291.079	18.94
291.294	78.33
291.509	2.56
291.724	51.71
291.938	-44.54
292.153	18.94
292.368	16.9
292.583	-30.21
292.798	18.94
293.012	55.81
293.227	61.95
293.442	16.9
293.657	88.57
293.871	43.52
294.086	10.75
294.301	35.33
294.516	53.76
294.73	-5.63
294.945	-17.92
295.16	68.09
295.374	70.14
295.589	68.09
295.804	6.66
296.018	-9.73
296.233	72.19
296.447	53.76
296.662	-32.26
296.877	55.81
297.091	61.95
297.306	55.81
297.52	64
297.735	39.42
297.949	-52.74
298.164	43.52
298.378	59.9
298.593	78.33
298.807	68.09
299.022	37.38
299.236	61.95
299.451	20.99
299.665	86.53
299.88	4.61
300.094	-1.54
300.309	55.81
300.523	55.81
300.737	39.42
300.952	92.67
301.166	43.52
301.381	76.29
301.595	76.29
301.809	41.47
302.024	-26.11
302.238	-44.54
302.452	59.9
302.667	51.71
302.881	109.05
303.095	-11.78
303.309	27.14
303.524	33.28
303.738	35.33
303.952	51.71
304.166	59.9
304.381	-62.98
304.595	86.53
304.809	64
305.023	37.38
305.237	84.48
305.452	64
305.666	29.18
305.88	86.53
306.094	51.71
306.308	-7.68
306.522	72.19
306.736	100.86
306.95	47.62
307.164	37.38
307.379	-5.63
307.593	51.71
307.807	104.96
308.021	35.33
308.235	45.57
308.449	-9.73
308.663	-7.68
308.877	68.09
309.091	6.66
309.305	23.04
309.519	4.61
309.733	92.67
309.947	-5.63
310.161	68.09
310.374	117.25
310.588	133.63
310.802	-71.17
311.016	12.8
311.23	14.85
311.444	61.95
311.658	-19.97
311.872	37.38
312.085	68.09
312.299	14.85
312.513	45.57
312.727	53.76
312.941	55.81
313.154	47.62
313.368	25.09
313.582	53.76
313.796	39.42
314.009	27.14
314.223	20.99
314.437	14.85
314.651	39.42
314.864	57.86
315.078	-15.87
315.292	8.7
315.505	-9.73
315.719	23.04
315.933	59.9
316.146	27.14
316.36	27.14
316.573	80.38
316.787	88.57
317.001	10.75
317.214	-5.63
317.428	150.01
317.641	-46.59
317.855	35.33
318.068	23.04
318.282	-22.02
318.495	76.29
318.709	51.71
318.922	80.38
319.136	39.42
319.349	35.33
319.563	23.04
319.776	6.66
319.99	-54.78
320.203	2.56
320.417	78.33
320.63	-28.16
320.843	107.01
321.057	14.85
321.27	43.52
321.483	133.63
321.697	-1.54
321.91	51.71
322.124	2.56
322.337	6.66
322.55	59.9
322.763	53.76
322.977	31.23
323.19	-13.82
323.403	59.9
323.617	10.75
323.83	104.96
324.043	92.67
324.256	-15.87
324.469	59.9
324.683	131.58
324.896	100.86
325.109	20.99
325.322	-50.69
325.535	100.86
325.748	59.9
325.962	35.33
326.175	51.71
326.388	59.9
326.601	74.24
326.814	82.43
327.027	68.09
327.24	37.38
327.453	-13.82
327.666	20.99
327.879	59.9
328.092	55.81
328.305	51.71
328.518	-22.02
328.731	-17.92
328.944	66.05
329.157	-22.02
329.37	18.94
329.583	37.38
329.796	76.29
330.009	-67.07
330.222	100.86
330.435	31.23
330.648	18.94
330.861	-36.35
331.073	47.62
331.286	80.38
331.499	45.57
331.712	-22.02
331.925	68.09
332.138	-22.02
332.35	125.44
332.563	53.76
332.776	10.75
332.989	43.52
333.202	39.42
333.414	90.62
333.627	31.23
333.84	45.57
334.053	43.52
334.265	61.95
334.478	84.48
334.691	84.48
334.903	76.29
335.116	43.52
335.329	74.24
335.541	8.7
335.754	121.34
335.966	-11.78
336.179	96.77
336.392	6.66
336.604	59.9
336.817	72.19
337.029	33.28
337.242	31.23
337.454	35.33
337.667	25.09
337.88	88.57
338.092	43.52
338.305	78.33
338.517	-24.06
338.729	74.24
338.942	72.19
339.154	35.33
339.367	43.52
339.579	94.72
339.792	-22.02
340.004	-5.63
340.217	23.04
340.429	59.9
340.641	47.62
340.854	-9.73
341.066	-42.5
341.278	104.96
341.491	100.86
341.703	35.33
341.915	-13.82
342.128	68.09
342.34	43.52
342.552	6.66
342.764	53.76
342.977	88.57
343.189	70.14
343.401	35.33
343.613	43.52
343.826	68.09
344.038	-13.82
344.25	12.8
344.462	27.14
344.674	57.86
344.886	43.52
345.099	37.38
345.311	37.38
345.523	45.57
345.735	-38.4
345.947	55.81
346.159	8.7
346.371	16.9
346.583	23.04
346.795	137.73
347.007	14.85
347.219	76.29
347.431	74.24
347.643	59.9
347.855	2.56
348.067	107.01
348.279	14.85
348.491	29.18
348.703	35.33
348.915	74.24
349.127	43.52
349.339	78.33
349.551	78.33
349.763	-1.54
349.975	33.28
350.187	76.29
350.399	12.8
350.61	55.81
350.822	14.85
351.034	59.9
351.246	14.85
351.458	88.57
351.669	51.71
351.881	64
352.093	39.42
352.305	68.09
352.517	117.25
352.728	55.81
352.94	10.75
353.152	158.21
353.363	27.14
353.575	43.52
353.787	90.62
353.999	53.76
354.21	59.9
354.422	25.09
354.633	43.52
354.845	27.14
355.057	86.53
355.268	76.29
355.48	27.14
355.692	-58.88
355.903	-54.78
356.115	39.42
356.326	49.66
356.538	27.14
356.749	49.66
356.961	100.86
357.172	47.62
357.384	-52.74
357.595	111.1
357.807	109.05
358.018	68.09
358.23	2.56
358.441	80.38
358.653	154.11
358.864	64
359.075	72.19
359.287	18.94
359.498	64
359.709	4.61
359.921	12.8
360.132	78.33
360.344	113.15
360.555	23.04
360.766	86.53
360.977	10.75
361.189	78.33
361.4	82.43
361.611	61.95
361.823	109.05
362.034	76.29
362.245	-60.93
362.456	47.62
362.667	-13.82
362.879	61.95
363.09	12.8
363.301	-13.82
363.512	102.91
363.723	6.66
363.935	-22.02
364.146	4.61
364.357	41.47
364.568	80.38
364.779	-36.35
364.99	49.66
365.201	33.28
365.412	100.86
365.623	-22.02
365.834	100.86
366.045	121.34
366.256	90.62
366.467	80.38
366.678	-42.5
366.889	53.76
367.1	35.33
367.311	14.85
367.522	25.09
367.733	45.57
367.944	70.14
368.155	23.04
368.366	18.94
368.577	43.52
368.788	68.09
368.999	14.85
369.209	8.7
369.42	64
369.631	109.05
369.842	59.9
370.053	18.94
370.264	-9.73
370.474	-65.02
370.685	47.62
370.896	84.48
371.107	59.9
371.317	119.29
371.528	39.42
371.739	47.62
371.95	88.57
372.16	111.1
372.371	-38.4
372.582	-24.06
372.792	92.67
373.003	43.52
373.214	68.09
373.424	-9.73
373.635	0.51
373.846	111.1
374.056	2.56
374.267	100.86
374.477	16.9
374.688	43.52
374.898	53.76
375.109	10.75
375.319	92.67
375.53	72.19
375.74	59.9
375.951	55.81
376.161	10.75
376.372	92.67
376.582	51.71
376.793	59.9
377.003	27.14
377.214	35.33
377.424	41.47
377.635	35.33
377.845	72.19
378.055	82.43
378.266	-54.78
378.476	-17.92
378.686	43.52
378.897	-13.82
379.107	76.29
379.317	51.71
379.528	80.38
379.738	35.33
379.948	33.28
380.158	6.66
380.369	53.76
380.579	104.96
380.789	61.95
380.999	45.57
381.21	41.47
381.42	164.35
381.63	18.94
381.84	8.7
382.05	55.81
382.261	35.33
382.471	55.81
382.681	35.33
382.891	125.44
383.101	100.86
383.311	45.57
383.521	64
383.731	-26.11
383.941	121.34
384.151	14.85
384.361	10.75
384.571	35.33
384.781	98.81
384.991	39.42
385.201	43.52
385.411	10.75
385.621	27.14
385.831	90.62
386.041	92.67
386.251	-1.54
386.461	70.14
386.671	0.51
386.881	182.78
387.091	53.76
387.301	92.67
387.511	39.42
387.72	70.14
387.93	31.23
388.14	31.23
388.35	53.76
388.56	35.33
388.769	100.86
388.979	55.81
389.189	20.99
389.399	20.99
389.609	39.42
389.818	59.9
390.028	84.48
390.238	-5.63
390.447	-3.58
390.657	23.04
390.867	-1.54
391.076	78.33
391.286	14.85
391.496	68.09
391.705	68.09
391.915	84.48
392.125	121.34
392.334	45.57
392.544	68.09
392.753	68.09
392.963	70.14
393.172	115.2
393.382	31.23
393.591	59.9
393.801	53.76
394.01	137.73
394.22	68.09
394.429	-5.63
394.639	-9.73
394.848	47.62
395.058	55.81
395.267	64
395.477	84.48
395.686	109.05
395.895	133.63
396.105	125.44
396.314	12.8
396.524	59.9
396.733	98.81
396.942	84.48
397.152	100.86
397.361	113.15
397.57	68.09
397.78	143.87
397.989	102.91
398.198	104.96
398.407	107.01
398.617	86.53
398.826	29.18
399.035	84.48
399.244	51.71
399.453	27.14
399.663	2.56
399.872	111.1
400.081	78.33
400.29	84.48
400.499	117.25
400.708	43.52
400.917	96.77
401.127	150.01
401.336	51.71
401.545	64
401.754	127.49
401.963	123.39
402.172	109.05
402.381	61.95
402.59	100.86
402.799	25.09
403.008	199.16
403.217	53.76
403.426	53.76
403.635	100.86
403.844	94.72
404.053	150.01
404.262	158.21
404.471	133.63
404.68	182.78
404.888	143.87
405.097	98.81
405.306	88.57
405.515	162.3
405.724	96.77
405.933	111.1
406.142	88.57
406.35	242.17
406.559	133.63
406.768	141.82
406.977	135.68
407.185	160.25
407.394	193.02
407.603	68.09
407.812	178.69
408.02	217.6
408.229	201.21
408.438	223.74
408.646	141.82
408.855	258.56
409.064	174.59
409.272	231.93
409.481	242.17
409.69	199.16
409.898	340.47
410.107	223.74
410.315	301.56
410.524	281.08
410.733	281.08
410.941	272.89
411.15	412.15
411.358	320
411.567	309.76
411.775	289.28
411.984	299.52
412.192	338.43
412.401	346.62
412.609	457.21
412.818	403.96
413.026	367.1
413.234	436.73
413.443	403.96
413.651	416.25
413.86	461.3
414.068	528.89
414.276	506.36
414.485	426.49
414.693	428.54
414.901	600.57
415.11	535.03
415.318	506.36
415.526	567.8
415.734	735.73
415.943	639.48
416.151	676.34
416.359	713.21
416.567	633.33
416.776	657.91
416.984	711.16
417.192	764.4
417.4	717.3
417.608	731.64
417.817	756.21
418.025	961.01
418.233	842.23
418.441	952.82
418.649	952.82
418.857	1075.7
419.065	985.58
419.273	1001.97
419.481	1010.16
419.689	1047.02
419.897	1204.72
420.105	1079.79
420.313	1147.37
420.521	1202.67
420.729	1237.49
420.937	1350.12
421.145	1264.11
421.353	1429.99
421.561	1436.14
421.769	1464.81
421.977	1522.15
422.185	1602.02
422.393	1645.03
422.601	1798.63
422.809	1747.43
423.017	1731.05
423.224	1935.84
423.432	2021.86
423.64	1776.1
423.848	2034.14
424.056	2021.86
424.263	2206.17
424.471	2073.06
424.679	2275.81
424.887	2365.92
425.094	2361.82
425.302	2318.81
425.51	2539.99
425.718	2634.2
425.925	2605.53
426.133	2718.17
426.341	2855.38
426.548	2970.07
426.756	2836.95
426.964	2918.87
427.171	3230.16
427.379	3262.93
427.586	3273.17
427.794	3490.25
428.001	3459.53
428.209	3627.46
428.417	3680.71
428.624	3932.61
428.832	3901.89
429.039	3860.93
429.247	3975.62
429.454	4344.25
429.662	4565.43
429.869	4331.97
430.076	4549.05
430.284	4317.63
430.491	4778.42
430.699	4786.61
430.906	4897.21
431.114	4925.88
431.321	5165.49
431.528	5124.53
431.736	5523.88
431.943	5769.64
432.15	5507.5
432.358	5685.67
432.565	6060.45
432.772	5999.01
432.979	6242.72
433.187	6484.38
433.394	6453.66
433.601	6830.49
433.808	6779.29
434.016	6836.63
434.223	7145.87
434.43	7612.81
434.637	7338.38
434.844	7877
435.052	8108.42
435.259	7930.25
435.466	7895.43
435.673	7809.42
435.88	8372.61
436.087	8884.6
436.294	8790.39
436.501	8739.19
436.708	8950.14
436.915	9046.39
437.122	9578.86
437.329	9351.54
437.537	9728.36
437.743	9935.21
437.95	9949.54
438.157	10498.4
438.364	10725.72
438.571	10709.34
438.778	10606.94
438.985	11876.68
439.192	11354.45
439.399	11673.93
439.606	11358.55
439.813	12116.3
440.02	12773.69
440.227	12298.56
440.433	12529.98
440.64	12874.04
440.847	12826.94
441.054	13054.26
441.261	13965.61
441.467	14043.43
441.674	13979.95
441.881	14827.81
442.088	14614.82
442.294	14362.92
442.501	14764.32
442.708	14928.16
442.914	15606.03
443.121	16472.32
443.328	15958.28
443.534	16779.52
443.741	16222.47
443.948	16083.21
444.154	17576.18
444.361	17182.97
444.568	17438.97
444.774	17346.81
444.981	17500.4
445.187	17959.15
445.394	19030.24
445.6	18600.16
445.807	20691.14
446.013	19656.92
446.22	19800.27
446.426	20555.97
446.633	20730.05
446.839	21805.24
447.046	20809.92
447.252	21790.9
447.459	22050.99
447.665	21860.53
447.871	22532.26
448.078	23607.45
448.284	22614.18
448.491	23117.98
448.697	24141.97
448.903	24387.72
449.11	24701.06
449.316	24301.71
449.522	24651.91
449.728	25204.86
449.935	25624.7
450.141	25450.62
450.347	26198.13
450.553	25573.5
450.76	25798.77
450.966	26777.7
451.172	26255.47
451.378	27017.32
451.584	26554.47
451.791	27099.23
451.997	26738.79
452.203	27474.01
452.409	27361.37
452.615	27269.22
452.821	26243.18
453.027	26015.86
453.233	27531.36
453.44	26185.84
453.646	26617.96
453.852	26695.78
454.058	27357.28
454.264	26577
454.47	27037.8
454.676	26237.04
454.882	27306.08
455.088	24725.64
455.294	25108.61
455.5	25727.1
455.705	26065.01
455.911	24858.76
456.117	24565.9
456.323	23992.47
456.529	22722.73
456.735	24113.3
456.941	23267.48
457.147	22802.6
457.352	22339.76
457.558	22214.83
457.764	22089.9
457.97	21811.38
458.176	21020.86
458.381	21135.55
458.587	20074.7
458.793	19992.78
458.999	19065.05
459.204	20512.97
459.41	19994.83
459.616	18692.32
459.821	18880.74
460.027	18716.9
460.233	18204.91
460.438	17445.11
460.644	17684.72
460.85	16759.04
461.055	16515.33
461.261	16230.66
461.466	15401.24
461.672	14842.14
461.878	15831.31
462.083	14602.53
462.289	14496.03
462.494	14244.13
462.7	13959.47
462.905	13279.54
463.111	13799.73
463.316	13881.64
463.522	13488.43
463.727	13707.57
463.932	13789.49
464.138	13338.93
464.343	13517.11
464.549	13211.96
464.754	13248.82
464.959	13537.59
465.165	13033.79
465.37	12702.01
465.575	12429.63
465.781	12884.28
465.986	13111.61
466.191	12317
466.397	12353.86
466.602	11514.19
466.807	12177.73
467.012	12161.35
467.218	12179.78
467.423	11673.93
467.628	11958.6
467.833	12452.16
468.038	11927.88
