Data from USB4F104151__21__14-42-42-607.txt Node

Date: Thu Mar 13 14:42:42 EDT 2025
User: louis
Spectrometer: USB4F10415
Trigger mode: 4
Integration Time (sec): 2.000000E-2
Scans to average: 1
Electric dark correction enabled: true
Nonlinearity correction enabled: false
Boxcar width: 0
XAxis mode: Wavelengths
Number of Pixels in Spectrum: 3648
>>>>>Begin Spectral Data<<<<<
178.204	-34.3
178.424	-34.3
178.644	-34.3
178.864	-153.09
179.084	-93.69
179.304	-52.74
179.524	23.04
179.744	25.09
179.964	16.9
180.184	12.8
180.404	31.23
180.624	-22.02
180.844	33.28
181.064	-28.16
181.283	8.7
181.503	-60.93
181.723	12.8
181.943	-108.03
182.163	45.57
182.383	61.95
182.602	16.9
182.822	12.8
183.042	37.38
183.262	-19.97
183.482	12.8
183.701	64
183.921	-40.45
184.141	6.66
184.361	61.95
184.58	33.28
184.8	47.62
185.02	2.56
185.239	29.18
185.459	64
185.679	86.53
185.898	-13.82
186.118	37.38
186.338	53.76
186.557	12.8
186.777	96.77
186.997	35.33
187.216	23.04
187.436	107.01
187.655	33.28
187.875	51.71
188.095	55.81
188.314	88.57
188.534	-15.87
188.753	20.99
188.973	88.57
189.192	31.23
189.412	20.99
189.631	-17.92
189.851	-60.93
190.07	45.57
190.29	25.09
190.509	8.7
190.729	33.28
190.948	74.24
191.168	180.73
191.387	29.18
191.607	-3.58
191.826	23.04
192.045	12.8
192.265	-15.87
192.484	0.51
192.704	66.05
192.923	27.14
193.142	39.42
193.362	-11.78
193.581	94.72
193.8	74.24
194.02	64
194.239	-28.16
194.458	64
194.678	0.51
194.897	94.72
195.116	29.18
195.335	61.95
195.555	29.18
195.774	70.14
195.993	41.47
196.212	53.76
196.432	82.43
196.651	131.58
196.87	39.42
197.089	29.18
197.308	12.8
197.528	37.38
197.747	-34.3
197.966	4.61
198.185	37.38
198.404	-7.68
198.623	70.14
198.842	70.14
199.062	49.66
199.281	104.96
199.5	23.04
199.719	25.09
199.938	72.19
200.157	70.14
200.376	-19.97
200.595	53.76
200.814	121.34
201.033	53.76
201.252	29.18
201.471	-7.68
201.69	-5.63
201.909	-32.26
202.128	109.05
202.347	-22.02
202.566	74.24
202.785	12.8
203.004	20.99
203.223	164.35
203.442	25.09
203.661	-24.06
203.879	72.19
204.098	39.42
204.317	70.14
204.536	29.18
204.755	86.53
204.974	152.06
205.193	70.14
205.411	152.06
205.63	78.33
205.849	25.09
206.068	-24.06
206.287	4.61
206.505	78.33
206.724	14.85
206.943	-36.35
207.162	4.61
207.381	49.66
207.599	-1.54
207.818	10.75
208.037	23.04
208.255	29.18
208.474	45.57
208.693	29.18
208.911	78.33
209.13	-40.45
209.349	23.04
209.567	35.33
209.786	64
210.005	12.8
210.223	53.76
210.442	-77.31
210.661	45.57
210.879	29.18
211.098	39.42
211.316	16.9
211.535	37.38
211.753	12.8
211.972	45.57
212.191	-75.26
212.409	-22.02
212.628	49.66
212.846	-44.54
213.065	66.05
213.283	61.95
213.502	0.51
213.72	23.04
213.938	-7.68
214.157	61.95
214.375	51.71
214.594	47.62
214.812	33.28
215.031	70.14
215.249	12.8
215.467	53.76
215.686	29.18
215.904	45.57
216.122	-13.82
216.341	47.62
216.559	70.14
216.778	64
216.996	68.09
217.214	-42.5
217.432	33.28
217.651	-36.35
217.869	20.99
218.087	86.53
218.306	41.47
218.524	70.14
218.742	10.75
218.96	88.57
219.179	57.86
219.397	4.61
219.615	12.8
219.833	45.57
220.051	41.47
220.27	20.99
220.488	72.19
220.706	-17.92
220.924	12.8
221.142	57.86
221.36	-9.73
221.578	96.77
221.796	57.86
222.015	64
222.233	115.2
222.451	66.05
222.669	-17.92
222.887	18.94
223.105	51.71
223.323	45.57
223.541	6.66
223.759	-1.54
223.977	-48.64
224.195	80.38
224.413	92.67
224.631	31.23
224.849	61.95
225.067	25.09
225.285	45.57
225.503	-15.87
225.721	-7.68
225.939	-24.06
226.157	-50.69
226.375	127.49
226.592	43.52
226.81	37.38
227.028	45.57
227.246	94.72
227.464	-3.58
227.682	59.9
227.9	72.19
228.117	27.14
228.335	-19.97
228.553	-15.87
228.771	78.33
228.989	41.47
229.206	-36.35
229.424	53.76
229.642	37.38
229.86	12.8
230.077	43.52
230.295	64
230.513	-19.97
230.731	104.96
230.948	55.81
231.166	33.28
231.384	27.14
231.601	-24.06
231.819	61.95
232.037	16.9
232.254	-11.78
232.472	10.75
232.689	20.99
232.907	139.77
233.125	88.57
233.342	78.33
233.56	51.71
233.777	37.38
233.995	41.47
234.213	66.05
234.43	29.18
234.648	115.2
234.865	31.23
235.083	6.66
235.3	4.61
235.518	104.96
235.735	55.81
235.953	70.14
236.17	61.95
236.388	20.99
236.605	-11.78
236.822	23.04
237.04	53.76
237.257	39.42
237.475	-77.31
237.692	27.14
237.909	102.91
238.127	-30.21
238.344	131.58
238.562	10.75
238.779	-32.26
238.996	-44.54
239.214	25.09
239.431	94.72
239.648	90.62
239.865	86.53
240.083	82.43
240.3	4.61
240.517	0.51
240.735	20.99
240.952	72.19
241.169	27.14
241.386	14.85
241.603	43.52
241.821	45.57
242.038	43.52
242.255	78.33
242.472	4.61
242.689	107.01
242.907	29.18
243.124	45.57
243.341	104.96
243.558	-9.73
243.775	-58.88
243.992	-1.54
244.209	41.47
244.426	147.97
244.643	66.05
244.86	43.52
245.078	64
245.295	66.05
245.512	14.85
245.729	4.61
245.946	29.18
246.163	57.86
246.38	29.18
246.597	35.33
246.814	6.66
247.031	23.04
247.248	20.99
247.464	64
247.681	6.66
247.898	35.33
248.115	-34.3
248.332	-26.11
248.549	6.66
248.766	131.58
248.983	-24.06
249.2	20.99
249.417	0.51
249.633	-36.35
249.85	102.91
250.067	33.28
250.284	70.14
250.501	61.95
250.717	98.81
250.934	41.47
251.151	-9.73
251.368	-11.78
251.585	53.76
251.801	12.8
252.018	33.28
252.235	78.33
252.451	80.38
252.668	39.42
252.885	6.66
253.102	37.38
253.318	23.04
253.535	25.09
253.752	84.48
253.968	-24.06
254.185	-58.88
254.401	-67.07
254.618	23.04
254.835	-24.06
255.051	16.9
255.268	37.38
255.484	29.18
255.701	-30.21
255.917	82.43
256.134	4.61
256.351	-9.73
256.567	39.42
256.784	37.38
257	-44.54
257.217	39.42
257.433	66.05
257.65	-3.58
257.866	20.99
258.082	-46.59
258.299	14.85
258.515	10.75
258.732	70.14
258.948	12.8
259.165	-28.16
259.381	-5.63
259.597	12.8
259.814	-44.54
260.03	41.47
260.246	47.62
260.463	57.86
260.679	80.38
260.895	-17.92
261.112	23.04
261.328	-60.93
261.544	55.81
261.761	72.19
261.977	12.8
262.193	25.09
262.409	31.23
262.626	18.94
262.842	180.73
263.058	-7.68
263.274	45.57
263.49	29.18
263.707	74.24
263.923	53.76
264.139	29.18
264.355	-9.73
264.571	70.14
264.787	88.57
265.004	4.61
265.22	88.57
265.436	49.66
265.652	20.99
265.868	29.18
266.084	68.09
266.3	29.18
266.516	39.42
266.732	-19.97
266.948	-24.06
267.164	78.33
267.38	31.23
267.596	90.62
267.812	59.9
268.028	16.9
268.244	33.28
268.46	-11.78
268.676	-11.78
268.892	-3.58
269.108	43.52
269.324	49.66
269.54	102.91
269.756	-52.74
269.972	-3.58
270.188	12.8
270.403	33.28
270.619	25.09
270.835	70.14
271.051	47.62
271.267	-30.21
271.483	37.38
271.698	70.14
271.914	33.28
272.13	41.47
272.346	96.77
272.562	37.38
272.777	45.57
272.993	-26.11
273.209	70.14
273.425	127.49
273.64	-3.58
273.856	86.53
274.072	-1.54
274.287	12.8
274.503	45.57
274.719	29.18
274.934	49.66
275.15	2.56
275.366	53.76
275.581	12.8
275.797	107.01
276.012	64
276.228	6.66
276.444	55.81
276.659	117.25
276.875	-44.54
277.09	6.66
277.306	72.19
277.521	41.47
277.737	64
277.952	61.95
278.168	78.33
278.383	-15.87
278.599	57.86
278.814	37.38
279.03	88.57
279.245	66.05
279.461	78.33
279.676	12.8
279.892	4.61
280.107	6.66
280.322	-32.26
280.538	29.18
280.753	-34.3
280.969	55.81
281.184	18.94
281.399	70.14
281.615	-34.3
281.83	49.66
282.045	39.42
282.26	-11.78
282.476	-58.88
282.691	41.47
282.906	45.57
283.122	61.95
283.337	-19.97
283.552	72.19
283.767	10.75
283.983	12.8
284.198	8.7
284.413	61.95
284.628	-3.58
284.843	111.1
285.058	4.61
285.274	47.62
285.489	98.81
285.704	23.04
285.919	-40.45
286.134	47.62
286.349	47.62
286.564	-44.54
286.779	39.42
286.995	70.14
287.21	25.09
287.425	-17.92
287.64	37.38
287.855	53.76
288.07	53.76
288.285	94.72
288.5	39.42
288.715	35.33
288.93	-38.4
289.145	20.99
289.36	104.96
289.575	37.38
289.79	39.42
290.004	0.51
290.219	94.72
290.434	45.57
290.649	61.95
290.864	55.81
291.079	14.85
291.294	47.62
291.509	29.18
291.724	4.61
291.938	-7.68
292.153	-1.54
292.368	12.8
292.583	51.71
292.798	80.38
293.012	53.76
293.227	-1.54
293.442	-50.69
293.657	35.33
293.871	72.19
294.086	-28.16
294.301	92.67
294.516	41.47
294.73	57.86
294.945	29.18
295.16	6.66
295.374	0.51
295.589	41.47
295.804	45.57
296.018	-11.78
296.233	94.72
296.447	45.57
296.662	33.28
296.877	45.57
297.091	57.86
297.306	31.23
297.52	-52.74
297.735	78.33
297.949	31.23
298.164	72.19
298.378	20.99
298.593	4.61
298.807	80.38
299.022	45.57
299.236	-7.68
299.451	-28.16
299.665	-19.97
299.88	-11.78
300.094	66.05
300.309	-3.58
300.523	-13.82
300.737	20.99
300.952	49.66
301.166	14.85
301.381	70.14
301.595	31.23
301.809	74.24
302.024	45.57
302.238	-30.21
302.452	86.53
302.667	20.99
302.881	49.66
303.095	37.38
303.309	18.94
303.524	23.04
303.738	129.53
303.952	8.7
304.166	127.49
304.381	20.99
304.595	70.14
304.809	4.61
305.023	-1.54
305.237	72.19
305.452	20.99
305.666	20.99
305.88	33.28
306.094	61.95
306.308	37.38
306.522	90.62
306.736	70.14
306.95	68.09
307.164	64
307.379	25.09
307.593	98.81
307.807	47.62
308.021	45.57
308.235	61.95
308.449	-9.73
308.663	127.49
308.877	127.49
309.091	-17.92
309.305	31.23
309.519	-46.59
309.733	37.38
309.947	6.66
310.161	39.42
310.374	35.33
310.588	39.42
310.802	31.23
311.016	59.9
311.23	37.38
311.444	-13.82
311.658	80.38
311.872	39.42
312.085	-17.92
312.299	107.01
312.513	37.38
312.727	12.8
312.941	53.76
313.154	61.95
313.368	119.29
313.582	61.95
313.796	66.05
314.009	-48.64
314.223	-17.92
314.437	33.28
314.651	20.99
314.864	33.28
315.078	61.95
315.292	12.8
315.505	-24.06
315.719	113.15
315.933	57.86
316.146	78.33
316.36	23.04
316.573	20.99
316.787	66.05
317.001	43.52
317.214	0.51
317.428	53.76
317.641	29.18
317.855	16.9
318.068	57.86
318.282	-48.64
318.495	203.26
318.709	94.72
318.922	53.76
319.136	111.1
319.349	12.8
319.563	37.38
319.776	39.42
319.99	-11.78
320.203	-24.06
320.417	8.7
320.63	53.76
320.843	66.05
321.057	10.75
321.27	14.85
321.483	92.67
321.697	12.8
321.91	61.95
322.124	45.57
322.337	-13.82
322.55	49.66
322.763	70.14
322.977	49.66
323.19	14.85
323.403	-17.92
323.617	53.76
323.83	66.05
324.043	25.09
324.256	61.95
324.469	23.04
324.683	74.24
324.896	23.04
325.109	90.62
325.322	14.85
325.535	55.81
325.748	45.57
325.962	12.8
326.175	43.52
326.388	61.95
326.601	68.09
326.814	29.18
327.027	23.04
327.24	76.29
327.453	12.8
327.666	29.18
327.879	72.19
328.092	6.66
328.305	14.85
328.518	14.85
328.731	25.09
328.944	82.43
329.157	53.76
329.37	127.49
329.583	-11.78
329.796	78.33
330.009	-7.68
330.222	57.86
330.435	8.7
330.648	61.95
330.861	43.52
331.073	20.99
331.286	102.91
331.499	100.86
331.712	12.8
331.925	-3.58
332.138	82.43
332.35	37.38
332.563	-15.87
332.776	-3.58
332.989	115.2
333.202	53.76
333.414	29.18
333.627	61.95
333.84	27.14
334.053	-5.63
334.265	0.51
334.478	12.8
334.691	14.85
334.903	61.95
335.116	18.94
335.329	18.94
335.541	41.47
335.754	80.38
335.966	27.14
336.179	119.29
336.392	33.28
336.604	33.28
336.817	43.52
337.029	86.53
337.242	37.38
337.454	25.09
337.667	57.86
337.88	47.62
338.092	94.72
338.305	45.57
338.517	55.81
338.729	4.61
338.942	-11.78
339.154	16.9
339.367	45.57
339.579	57.86
339.792	29.18
340.004	55.81
340.217	14.85
340.429	37.38
340.641	-17.92
340.854	55.81
341.066	61.95
341.278	111.1
341.491	80.38
341.703	8.7
341.915	6.66
342.128	14.85
342.34	8.7
342.552	104.96
342.764	25.09
342.977	61.95
343.189	70.14
343.401	12.8
343.613	-19.97
343.826	12.8
344.038	20.99
344.25	168.45
344.462	-3.58
344.674	39.42
344.886	-28.16
345.099	70.14
345.311	70.14
345.523	0.51
345.735	-28.16
345.947	53.76
346.159	39.42
346.371	23.04
346.583	45.57
346.795	152.06
347.007	-9.73
347.219	16.9
347.431	84.48
347.643	137.73
347.855	37.38
348.067	-3.58
348.279	-36.35
348.491	72.19
348.703	49.66
348.915	45.57
349.127	39.42
349.339	53.76
349.551	-3.58
349.763	113.15
349.975	-34.3
350.187	168.45
350.399	137.73
350.61	47.62
350.822	-3.58
351.034	4.61
351.246	-1.54
351.458	-44.54
351.669	66.05
351.881	152.06
352.093	88.57
352.305	188.93
352.517	94.72
352.728	33.28
352.94	-52.74
353.152	88.57
353.363	-17.92
353.575	53.76
353.787	53.76
353.999	78.33
354.21	115.2
354.422	45.57
354.633	-5.63
354.845	0.51
355.057	47.62
355.268	23.04
355.48	18.94
355.692	-52.74
355.903	-7.68
356.115	18.94
356.326	-15.87
356.538	70.14
356.749	61.95
356.961	37.38
357.172	53.76
357.384	49.66
357.595	-11.78
357.807	61.95
358.018	18.94
358.23	53.76
358.441	82.43
358.653	8.7
358.864	41.47
359.075	29.18
359.287	-11.78
359.498	94.72
359.709	61.95
359.921	-65.02
360.132	84.48
360.344	14.85
360.555	2.56
360.766	119.29
360.977	-5.63
361.189	88.57
361.4	88.57
361.611	4.61
361.823	33.28
362.034	-1.54
362.245	-15.87
362.456	14.85
362.667	41.47
362.879	-11.78
363.09	33.28
363.301	96.77
363.512	45.57
363.723	29.18
363.935	12.8
364.146	94.72
364.357	-28.16
364.568	4.61
364.779	74.24
364.99	23.04
365.201	8.7
365.412	135.68
365.623	23.04
365.834	61.95
366.045	18.94
366.256	51.71
366.467	100.86
366.678	53.76
366.889	20.99
367.1	80.38
367.311	170.49
367.522	59.9
367.733	61.95
367.944	70.14
368.155	70.14
368.366	4.61
368.577	133.63
368.788	49.66
368.999	70.14
369.209	66.05
369.42	-1.54
369.631	35.33
369.842	14.85
370.053	61.95
370.264	23.04
370.474	66.05
370.685	86.53
370.896	29.18
371.107	74.24
371.317	45.57
371.528	55.81
371.739	41.47
371.95	-36.35
372.16	55.81
372.371	41.47
372.582	78.33
372.792	80.38
373.003	37.38
373.214	57.86
373.424	61.95
373.635	-32.26
373.846	113.15
374.056	-7.68
374.267	78.33
374.477	84.48
374.688	0.51
374.898	47.62
375.109	20.99
375.319	61.95
375.53	111.1
375.74	8.7
375.951	64
376.161	33.28
376.372	94.72
376.582	39.42
376.793	49.66
377.003	4.61
377.214	92.67
377.424	86.53
377.635	76.29
377.845	25.09
378.055	113.15
378.266	-67.07
378.476	47.62
378.686	14.85
378.897	104.96
379.107	39.42
379.317	-19.97
379.528	66.05
379.738	20.99
379.948	-34.3
380.158	131.58
380.369	23.04
380.579	41.47
380.789	20.99
380.999	55.81
381.21	72.19
381.42	119.29
381.63	16.9
381.84	127.49
382.05	111.1
382.261	35.33
382.471	53.76
382.681	25.09
382.891	94.72
383.101	64
383.311	0.51
383.521	113.15
383.731	78.33
383.941	102.91
384.151	45.57
384.361	61.95
384.571	70.14
384.781	61.95
384.991	78.33
385.201	61.95
385.411	72.19
385.621	127.49
385.831	53.76
386.041	53.76
386.251	-17.92
386.461	137.73
386.671	25.09
386.881	45.57
387.091	96.77
387.301	70.14
387.511	-5.63
387.72	80.38
387.93	107.01
388.14	-34.3
388.35	43.52
388.56	64
388.769	12.8
388.979	94.72
389.189	-26.11
389.399	33.28
389.609	86.53
389.818	74.24
390.028	41.47
390.238	55.81
390.447	137.73
390.657	113.15
390.867	8.7
391.076	53.76
391.286	98.81
391.496	53.76
391.705	61.95
391.915	109.05
392.125	117.25
392.334	-42.5
392.544	47.62
392.753	72.19
392.963	-7.68
393.172	94.72
393.382	53.76
393.591	80.38
393.801	78.33
394.01	86.53
394.22	45.57
394.429	90.62
394.639	90.62
394.848	96.77
395.058	37.38
395.267	70.14
395.477	107.01
395.686	4.61
395.895	109.05
396.105	121.34
396.314	61.95
396.524	49.66
396.733	14.85
396.942	158.21
397.152	96.77
397.361	96.77
397.57	119.29
397.78	74.24
397.989	145.92
398.198	201.21
398.407	64
398.617	82.43
398.826	74.24
399.035	78.33
399.244	64
399.453	29.18
399.663	92.67
399.872	143.87
400.081	72.19
400.29	145.92
400.499	53.76
400.708	49.66
400.917	78.33
401.127	53.76
401.336	176.64
401.545	133.63
401.754	119.29
401.963	80.38
402.172	45.57
402.381	61.95
402.59	104.96
402.799	82.43
403.008	127.49
403.217	82.43
403.426	55.81
403.635	111.1
403.844	168.45
404.053	64
404.262	64
404.471	223.74
404.68	76.29
404.888	49.66
405.097	29.18
405.306	80.38
405.515	127.49
405.724	135.68
405.933	61.95
406.142	182.78
406.35	119.29
406.559	107.01
406.768	104.96
406.977	174.59
407.185	172.54
407.394	94.72
407.603	86.53
407.812	121.34
408.02	254.46
408.229	219.64
408.438	178.69
408.646	127.49
408.855	104.96
409.064	242.17
409.272	170.49
409.481	201.21
409.69	147.97
409.898	178.69
410.107	158.21
410.315	242.17
410.524	217.6
410.733	274.94
410.941	266.75
411.15	217.6
411.358	276.99
411.567	258.56
411.775	227.84
411.984	279.04
412.192	301.56
412.401	262.65
412.609	336.38
412.818	336.38
413.026	242.17
413.234	344.57
413.443	375.29
413.651	356.86
413.86	410.11
414.068	432.63
414.276	358.91
414.485	375.29
414.693	471.54
414.901	508.41
415.11	489.98
415.318	459.26
415.526	504.31
415.734	440.83
415.943	522.74
416.151	375.29
416.359	526.84
416.567	557.56
416.776	625.14
416.984	602.61
417.192	629.24
417.4	647.67
417.608	625.14
417.817	692.73
418.025	702.97
418.233	739.83
418.441	651.77
418.649	750.07
418.857	848.37
419.065	784.88
419.273	836.08
419.481	891.38
419.689	827.89
419.897	899.57
420.105	952.82
420.313	922.1
420.521	997.87
420.729	987.63
420.937	1079.79
421.145	1110.51
421.353	1092.08
421.561	1260.01
421.769	1212.91
421.977	1284.59
422.185	1288.68
422.393	1315.31
422.601	1491.43
422.809	1405.42
423.017	1364.46
423.224	1554.92
423.432	1538.54
423.64	1597.93
423.848	1780.2
424.056	1548.78
424.263	1774.05
424.471	1888.74
424.679	1815.01
424.887	1810.92
425.094	2003.43
425.302	2062.82
425.51	1991.14
425.718	2169.31
425.925	2150.88
426.133	2111.97
426.341	2437.59
426.548	2431.45
426.756	2404.83
426.964	2445.79
427.171	2570.71
427.379	2679.26
427.586	2662.87
427.794	2683.35
428.001	2920.92
428.209	2990.55
428.417	3056.08
428.624	3191.25
428.832	3267.02
429.039	3166.67
429.247	3178.96
429.454	3404.24
429.662	3674.57
429.869	3453.39
430.076	3719.62
430.284	3592.65
430.491	3748.29
430.699	3936.71
430.906	4039.11
431.114	3924.42
431.321	4090.31
431.528	4116.93
431.736	4522.43
431.943	4676.02
432.15	4481.47
432.358	4612.54
432.565	4837.81
432.772	4839.86
432.979	5075.38
433.187	5243.31
433.394	5190.06
433.601	5591.47
433.808	5570.99
434.016	5577.13
434.223	5652.91
434.43	6019.49
434.637	5953.96
434.844	6373.79
435.052	6543.77
435.259	6351.26
435.466	6441.37
435.673	6449.57
435.88	6863.26
436.087	7115.16
436.294	7299.47
436.501	7088.53
436.708	7246.23
436.915	7346.58
437.122	7795.08
437.329	7864.71
437.537	7879.05
437.743	7995.78
437.95	8243.59
438.157	8554.88
438.364	8737.15
438.571	8706.43
438.778	8823.16
438.985	9601.39
439.192	9210.23
439.399	9386.35
439.606	9286
439.813	9695.6
440.02	10479.97
440.227	10484.06
440.433	10137.96
440.64	10639.71
440.847	10326.37
441.054	10686.81
441.261	11417.94
441.467	11202.9
441.674	11571.54
441.881	11911.5
442.088	11583.82
442.294	11866.44
442.501	12011.85
442.708	12458.31
442.914	12722.49
443.121	13373.75
443.328	13044.02
443.534	13971.75
443.741	13396.28
443.948	13490.48
444.154	14418.21
444.361	14346.53
444.568	14393.64
444.774	14563.62
444.981	14455.08
445.187	15128.86
445.394	15485.2
445.6	15368.47
445.807	17015.04
446.013	16187.66
446.22	16445.7
446.426	17195.26
446.633	17330.42
446.839	18243.82
447.046	17060.09
447.252	18223.34
447.459	18043.12
447.665	18051.31
447.871	18917.6
448.078	19724.5
448.284	18923.74
448.491	19548.37
448.697	20203.72
448.903	20654.28
449.11	20799.68
449.316	20347.08
449.522	20598.98
449.728	21182.65
449.935	21577.91
450.141	21487.8
450.347	21926.07
450.553	21323.96
450.76	21645.49
450.966	22511.78
451.172	22212.78
451.378	22573.22
451.584	22124.72
451.791	22937.76
451.997	22878.37
452.203	23011.49
452.409	23144.61
452.615	23099.55
452.821	21956.78
453.027	21962.93
453.233	23224.48
453.44	22180.01
453.646	22773.92
453.852	22911.14
454.058	23042.21
454.264	22458.54
454.47	22888.61
454.676	22016.18
454.882	23240.86
455.088	21199.04
455.294	21627.06
455.5	21723.32
455.705	21901.49
455.911	20981.95
456.117	20762.82
456.323	20578.5
456.529	19603.67
456.735	20197.58
456.941	19806.42
457.147	19912.91
457.352	19005.66
457.558	18690.27
457.764	18741.47
457.97	18634.98
458.176	18079.98
458.381	18317.54
458.587	17236.22
458.793	16914.69
458.999	16353.54
459.204	17608.95
459.41	17088.76
459.616	15765.78
459.821	16038.16
460.027	15999.24
460.233	15622.42
460.438	14856.48
460.644	14821.66
460.85	14209.32
461.055	13992.23
461.261	13981.99
461.466	12941.63
461.672	12706.11
461.878	13470
462.083	12628.29
462.289	12505.41
462.494	12400.96
462.7	11874.63
462.905	11383.12
463.111	11845.96
463.316	12083.53
463.522	11520.34
463.727	11551.06
463.932	11594.06
464.138	11557.2
464.343	11762
464.549	11262.29
464.754	11563.34
464.959	11536.72
465.165	11503.95
465.37	11204.95
465.575	10803.55
465.781	11034.97
465.986	11309.4
466.191	10711.39
466.397	10615.13
466.602	10068.33
466.807	10684.76
467.012	10522.98
467.218	10551.65
467.423	10168.68
467.628	10504.54
467.833	10840.41
468.038	10318.18
468.244	10211.68
468.449	10684.76
