Data from USB4F104151__277__14-46-19-576.txt Node

Date: Thu Mar 13 14:46:19 EDT 2025
User: louis
Spectrometer: USB4F10415
Trigger mode: 4
Integration Time (sec): 2.000000E-2
Scans to average: 1
Electric dark correction enabled: true
Nonlinearity correction enabled: false
Boxcar width: 0
XAxis mode: Wavelengths
Number of Pixels in Spectrum: 3648
>>>>>Begin Spectral Data<<<<<
178.204	-126.63
178.424	-126.63
178.644	-126.63
178.864	-163.5
179.084	-179.88
179.304	-30.38
179.524	-3.75
179.744	-20.14
179.964	43.35
180.184	12.63
180.404	12.63
180.624	-16.04
180.844	49.49
181.064	-54.95
181.283	-9.9
181.503	2.39
181.723	14.68
181.943	-46.76
182.163	78.16
182.383	35.16
182.602	55.64
182.822	6.49
183.042	2.39
183.262	100.69
183.482	84.31
183.701	16.73
183.921	67.92
184.141	-67.24
184.361	65.88
184.58	10.58
184.8	16.73
185.02	20.82
185.239	88.4
185.459	41.3
185.679	39.25
185.898	-57
186.118	-18.09
186.338	45.4
186.557	-28.33
186.777	37.2
186.997	6.49
187.216	39.25
187.436	102.74
187.655	47.44
187.875	65.88
188.095	-52.91
188.314	80.21
188.534	26.96
188.753	12.63
188.973	-7.85
189.192	61.78
189.412	26.96
189.631	55.64
189.851	51.54
190.07	12.63
190.29	-20.14
190.509	49.49
190.729	6.49
190.948	2.39
191.168	117.08
191.387	-42.67
191.607	-5.8
191.826	67.92
192.045	-54.95
192.265	35.16
192.484	88.4
192.704	0.34
192.923	-44.71
193.142	67.92
193.362	-22.19
193.581	112.98
193.8	-44.71
194.02	78.16
194.239	-22.19
194.458	-3.75
194.678	4.44
194.897	-63.15
195.116	35.16
195.335	14.68
195.555	6.49
195.774	76.12
195.993	4.44
196.212	-3.75
196.432	6.49
196.651	33.11
196.87	-11.95
197.089	18.77
197.308	63.83
197.528	-1.71
197.747	35.16
197.966	-18.09
198.185	45.4
198.404	35.16
198.623	37.2
198.842	45.4
199.062	16.73
199.281	16.73
199.5	-38.57
199.719	86.36
199.938	43.35
200.157	100.69
200.376	-11.95
200.595	110.93
200.814	53.59
201.033	53.59
201.252	53.59
201.471	47.44
201.69	51.54
201.909	2.39
202.128	33.11
202.347	16.73
202.566	10.58
202.785	-26.28
203.004	4.44
203.223	72.02
203.442	-44.71
203.661	51.54
203.879	45.4
204.098	35.16
204.317	80.21
204.536	53.59
204.755	45.4
204.974	39.25
205.193	43.35
205.411	59.73
205.63	69.97
205.849	14.68
206.068	41.3
206.287	92.5
206.505	45.4
206.724	51.54
206.943	20.82
207.162	20.82
207.381	10.58
207.599	2.39
207.818	-28.33
208.037	6.49
208.255	67.92
208.474	-97.96
208.693	80.21
208.911	-24.23
209.13	53.59
209.349	22.87
209.567	35.16
209.786	10.58
210.005	-18.09
210.223	51.54
210.442	-36.52
210.661	-13.99
210.879	22.87
211.098	26.96
211.316	55.64
211.535	94.55
211.753	39.25
211.972	35.16
212.191	-13.99
212.409	20.82
212.628	39.25
212.846	37.2
213.065	49.49
213.283	33.11
213.502	18.77
213.72	26.96
213.938	-22.19
214.157	20.82
214.375	80.21
214.594	-42.67
214.812	22.87
215.031	-20.14
215.249	2.39
215.467	31.06
215.686	8.53
215.904	49.49
216.122	63.83
216.341	4.44
216.559	112.98
216.778	-13.99
216.996	-26.28
217.214	-44.71
217.432	-13.99
217.651	18.77
217.869	-24.23
218.087	-20.14
218.306	-46.76
218.524	10.58
218.742	45.4
218.96	-1.71
219.179	-5.8
219.397	-30.38
219.615	51.54
219.833	12.63
220.051	-16.04
220.27	84.31
220.488	20.82
220.706	-5.8
220.924	10.58
221.142	67.92
221.36	10.58
221.578	41.3
221.796	55.64
222.015	35.16
222.233	43.35
222.451	117.08
222.669	24.92
222.887	67.92
223.105	-20.14
223.323	74.07
223.541	98.64
223.759	43.35
223.977	26.96
224.195	72.02
224.413	133.46
224.631	80.21
224.849	53.59
225.067	57.68
225.285	43.35
225.503	26.96
225.721	43.35
225.939	35.16
226.157	31.06
226.375	61.78
226.592	18.77
226.81	51.54
227.028	-42.67
227.246	100.69
227.464	20.82
227.682	29.01
227.9	-5.8
228.117	82.26
228.335	37.2
228.553	84.31
228.771	20.82
228.989	31.06
229.206	84.31
229.424	10.58
229.642	22.87
229.86	76.12
230.077	-18.09
230.295	94.55
230.513	-28.33
230.731	84.31
230.948	133.46
231.166	72.02
231.384	4.44
231.601	84.31
231.819	45.4
232.037	35.16
232.254	69.97
232.472	-5.8
232.689	24.92
232.907	41.3
233.125	45.4
233.342	45.4
233.56	22.87
233.777	43.35
233.995	35.16
234.213	37.2
234.43	84.31
234.648	-46.76
234.865	-11.95
235.083	61.78
235.3	4.44
235.518	82.26
235.735	59.73
235.953	-13.99
236.17	-16.04
236.388	59.73
236.605	20.82
236.822	96.6
237.04	35.16
237.257	-11.95
237.475	10.58
237.692	10.58
237.909	4.44
238.127	14.68
238.344	78.16
238.562	45.4
238.779	16.73
238.996	10.58
239.214	84.31
239.431	2.39
239.648	51.54
239.865	67.92
240.083	88.4
240.3	96.6
240.517	6.49
240.735	26.96
240.952	88.4
241.169	102.74
241.386	18.77
241.603	55.64
241.821	69.97
242.038	100.69
242.255	-20.14
242.472	18.77
242.689	47.44
242.907	102.74
243.124	29.01
243.341	-1.71
243.558	-3.75
243.775	-5.8
243.992	-22.19
244.209	-48.81
244.426	59.73
244.643	-22.19
244.86	35.16
245.078	10.58
245.295	6.49
245.512	37.2
245.729	-3.75
245.946	29.01
246.163	2.39
246.38	18.77
246.597	55.64
246.814	35.16
247.031	82.26
247.248	47.44
247.464	35.16
247.681	72.02
247.898	22.87
248.115	2.39
248.332	-54.95
248.549	-13.99
248.766	100.69
248.983	92.5
249.2	67.92
249.417	37.2
249.633	-5.8
249.85	22.87
250.067	55.64
250.284	37.2
250.501	10.58
250.717	53.59
250.934	4.44
251.151	31.06
251.368	29.01
251.585	31.06
251.801	63.83
252.018	57.68
252.235	39.25
252.451	4.44
252.668	61.78
252.885	35.16
253.102	45.4
253.318	-13.99
253.535	18.77
253.752	18.77
253.968	26.96
254.185	31.06
254.401	2.39
254.618	2.39
254.835	51.54
255.051	78.16
255.268	80.21
255.484	16.73
255.701	18.77
255.917	39.25
256.134	-38.57
256.351	106.84
256.567	18.77
256.784	88.4
257	14.68
257.217	55.64
257.433	88.4
257.65	-3.75
257.866	22.87
258.082	-1.71
258.299	-34.47
258.515	37.2
258.732	-24.23
258.948	10.58
259.165	67.92
259.381	10.58
259.597	10.58
259.814	14.68
260.03	-11.95
260.246	59.73
260.463	35.16
260.679	-3.75
260.895	14.68
261.112	29.01
261.328	26.96
261.544	51.54
261.761	-1.71
261.977	-3.75
262.193	26.96
262.409	61.78
262.626	-20.14
262.842	76.12
263.058	51.54
263.274	-36.52
263.49	35.16
263.707	69.97
263.923	20.82
264.139	10.58
264.355	88.4
264.571	121.17
264.787	14.68
265.004	26.96
265.22	18.77
265.436	18.77
265.652	-5.8
265.868	47.44
266.084	-5.8
266.3	43.35
266.516	-16.04
266.732	67.92
266.948	6.49
267.164	108.88
267.38	14.68
267.596	117.08
267.812	100.69
268.028	35.16
268.244	-50.86
268.46	39.25
268.676	31.06
268.892	92.5
269.108	8.53
269.324	-67.24
269.54	14.68
269.756	78.16
269.972	-20.14
270.188	-5.8
270.403	-26.28
270.619	49.49
270.835	-16.04
271.051	10.58
271.267	22.87
271.483	-44.71
271.698	18.77
271.914	10.58
272.13	39.25
272.346	-18.09
272.562	18.77
272.777	123.22
272.993	-34.47
273.209	59.73
273.425	45.4
273.64	41.3
273.856	-7.85
274.072	20.82
274.287	26.96
274.503	47.44
274.719	31.06
274.934	41.3
275.15	-26.28
275.366	10.58
275.581	53.59
275.797	-50.86
276.012	41.3
276.228	76.12
276.444	49.49
276.659	-34.47
276.875	82.26
277.09	18.77
277.306	12.63
277.521	47.44
277.737	37.2
277.952	69.97
278.168	-13.99
278.383	10.58
278.599	51.54
278.814	29.01
279.03	4.44
279.245	88.4
279.461	6.49
279.676	45.4
279.892	43.35
280.107	-5.8
280.322	-28.33
280.538	51.54
280.753	86.36
280.969	-28.33
281.184	67.92
281.399	110.93
281.615	2.39
281.83	24.92
282.045	29.01
282.26	18.77
282.476	2.39
282.691	102.74
282.906	45.4
283.122	51.54
283.337	-3.75
283.552	92.5
283.767	43.35
283.983	59.73
284.198	125.27
284.413	76.12
284.628	12.63
284.843	108.88
285.058	-1.71
285.274	4.44
285.489	47.44
285.704	80.21
285.919	18.77
286.134	47.44
286.349	57.68
286.564	35.16
286.779	98.64
286.995	29.01
287.21	76.12
287.425	4.44
287.64	2.39
287.855	-13.99
288.07	0.34
288.285	76.12
288.5	47.44
288.715	43.35
288.93	39.25
289.145	18.77
289.36	35.16
289.575	4.44
289.79	26.96
290.004	108.88
290.219	26.96
290.434	51.54
290.649	61.78
290.864	29.01
291.079	4.44
291.294	37.2
291.509	67.92
291.724	18.77
291.938	53.59
292.153	4.44
292.368	20.82
292.583	53.59
292.798	33.11
293.012	100.69
293.227	16.73
293.442	55.64
293.657	-3.75
293.871	57.68
294.086	39.25
294.301	86.36
294.516	45.4
294.73	29.01
294.945	4.44
295.16	14.68
295.374	69.97
295.589	72.02
295.804	22.87
296.018	-1.71
296.233	35.16
296.447	59.73
296.662	24.92
296.877	51.54
297.091	76.12
297.306	39.25
297.52	45.4
297.735	49.49
297.949	-9.9
298.164	102.74
298.378	51.54
298.593	-13.99
298.807	-26.28
299.022	-20.14
299.236	69.97
299.451	-22.19
299.665	-5.8
299.88	-20.14
300.094	61.78
300.309	-1.71
300.523	12.63
300.737	24.92
300.952	33.11
301.166	45.4
301.381	-22.19
301.595	-40.62
301.809	51.54
302.024	47.44
302.238	2.39
302.452	2.39
302.667	-11.95
302.881	121.17
303.095	67.92
303.309	-1.71
303.524	45.4
303.738	35.16
303.952	39.25
304.166	35.16
304.381	-9.9
304.595	51.54
304.809	84.31
305.023	94.55
305.237	45.4
305.452	-18.09
305.666	37.2
305.88	78.16
306.094	110.93
306.308	-7.85
306.522	-3.75
306.736	12.63
306.95	18.77
307.164	6.49
307.379	29.01
307.593	26.96
307.807	45.4
308.021	49.49
308.235	78.16
308.449	-18.09
308.663	45.4
308.877	108.88
309.091	-50.86
309.305	-16.04
309.519	35.16
309.733	39.25
309.947	26.96
310.161	14.68
310.374	51.54
310.588	29.01
310.802	20.82
311.016	65.88
311.23	72.02
311.444	18.77
311.658	37.2
311.872	69.97
312.085	88.4
312.299	2.39
312.513	-20.14
312.727	-11.95
312.941	63.83
313.154	45.4
313.368	10.58
313.582	59.73
313.796	29.01
314.009	78.16
314.223	22.87
314.437	26.96
314.651	-7.85
314.864	47.44
315.078	10.58
315.292	4.44
315.505	78.16
315.719	26.96
315.933	22.87
316.146	26.96
316.36	10.58
316.573	65.88
316.787	65.88
317.001	-20.14
317.214	22.87
317.428	65.88
317.641	31.06
317.855	57.68
318.068	35.16
318.282	2.39
318.495	69.97
318.709	18.77
318.922	6.49
319.136	47.44
319.349	31.06
319.563	61.78
319.776	96.6
319.99	35.16
320.203	26.96
320.417	29.01
320.63	76.12
320.843	67.92
321.057	-5.8
321.27	63.83
321.483	29.01
321.697	76.12
321.91	37.2
322.124	-26.28
322.337	33.11
322.55	-11.95
322.763	14.68
322.977	-13.99
323.19	12.63
323.403	-28.33
323.617	33.11
323.83	55.64
324.043	61.78
324.256	59.73
324.469	96.6
324.683	61.78
324.896	-3.75
325.109	37.2
325.322	49.49
325.535	-34.47
325.748	92.5
325.962	6.49
326.175	76.12
326.388	59.73
326.601	26.96
326.814	24.92
327.027	24.92
327.24	78.16
327.453	-20.14
327.666	45.4
327.879	133.46
328.092	24.92
328.305	35.16
328.518	43.35
328.731	-95.91
328.944	35.16
329.157	12.63
329.37	-3.75
329.583	35.16
329.796	55.64
330.009	-77.48
330.222	92.5
330.435	45.4
330.648	-26.28
330.861	18.77
331.073	31.06
331.286	29.01
331.499	35.16
331.712	18.77
331.925	35.16
332.138	59.73
332.35	80.21
332.563	20.82
332.776	88.4
332.989	12.63
333.202	88.4
333.414	-26.28
333.627	104.79
333.84	51.54
334.053	74.07
334.265	12.63
334.478	14.68
334.691	2.39
334.903	-30.38
335.116	-22.19
335.329	35.16
335.541	65.88
335.754	112.98
335.966	-26.28
336.179	51.54
336.392	2.39
336.604	37.2
336.817	-26.28
337.029	74.07
337.242	20.82
337.454	59.73
337.667	88.4
337.88	74.07
338.092	35.16
338.305	43.35
338.517	18.77
338.729	76.12
338.942	72.02
339.154	10.58
339.367	2.39
339.579	20.82
339.792	26.96
340.004	76.12
340.217	22.87
340.429	26.96
340.641	22.87
340.854	12.63
341.066	-30.38
341.278	117.08
341.491	59.73
341.703	51.54
341.915	-18.09
342.128	51.54
342.34	82.26
342.552	-44.71
342.764	29.01
342.977	37.2
343.189	18.77
343.401	29.01
343.613	2.39
343.826	37.2
344.038	47.44
344.25	18.77
344.462	10.58
344.674	35.16
344.886	26.96
345.099	127.32
345.311	-52.91
345.523	12.63
345.735	35.16
345.947	127.32
346.159	-1.71
346.371	45.4
346.583	-13.99
346.795	37.2
347.007	33.11
347.219	20.82
347.431	45.4
347.643	18.77
347.855	86.36
348.067	61.78
348.279	31.06
348.491	76.12
348.703	133.46
348.915	4.44
349.127	20.82
349.339	12.63
349.551	6.49
349.763	76.12
349.975	-1.71
350.187	92.5
350.399	115.03
350.61	4.44
350.822	88.4
351.034	43.35
351.246	-22.19
351.458	135.51
351.669	67.92
351.881	72.02
352.093	-7.85
352.305	67.92
352.517	84.31
352.728	29.01
352.94	35.16
353.152	127.32
353.363	29.01
353.575	-30.38
353.787	104.79
353.999	-5.8
354.21	86.36
354.422	61.78
354.633	-1.71
354.845	12.63
355.057	-13.99
355.268	102.74
355.48	-22.19
355.692	-11.95
355.903	96.6
356.115	59.73
356.326	31.06
356.538	16.73
356.749	57.68
356.961	137.56
357.172	-24.23
357.384	37.2
357.595	133.46
357.807	-79.53
358.018	-5.8
358.23	16.73
358.441	61.78
358.653	123.22
358.864	51.54
359.075	35.16
359.287	88.4
359.498	92.5
359.709	35.16
359.921	2.39
360.132	-5.8
360.344	12.63
360.555	43.35
360.766	61.78
360.977	76.12
361.189	43.35
361.4	84.31
361.611	55.64
361.823	67.92
362.034	45.4
362.245	-54.95
362.456	43.35
362.667	39.25
362.879	51.54
363.09	26.96
363.301	-5.8
363.512	37.2
363.723	72.02
363.935	-32.43
364.146	80.21
364.357	67.92
364.568	18.77
364.779	10.58
364.99	-18.09
365.201	61.78
365.412	84.31
365.623	10.58
365.834	100.69
366.045	94.55
366.256	35.16
366.467	39.25
366.678	-9.9
366.889	20.82
367.1	-5.8
367.311	102.74
367.522	74.07
367.733	67.92
367.944	43.35
368.155	-1.71
368.366	133.46
368.577	125.27
368.788	61.78
368.999	43.35
369.209	37.2
369.42	117.08
369.631	78.16
369.842	26.96
370.053	61.78
370.264	45.4
370.474	4.44
370.685	-5.8
370.896	10.58
371.107	110.93
371.317	108.88
371.528	-30.38
371.739	57.68
371.95	84.31
372.16	63.83
372.371	-13.99
372.582	51.54
372.792	4.44
373.003	55.64
373.214	69.97
373.424	10.58
373.635	6.49
373.846	51.54
374.056	-1.71
374.267	67.92
374.477	69.97
374.688	4.44
374.898	61.78
375.109	-11.95
375.319	94.55
375.53	88.4
375.74	35.16
375.951	43.35
376.161	43.35
376.372	92.5
376.582	-22.19
376.793	24.92
377.003	0.34
377.214	-16.04
377.424	4.44
377.635	43.35
377.845	94.55
378.055	108.88
378.266	-20.14
378.476	78.16
378.686	18.77
378.897	108.88
379.107	20.82
379.317	18.77
379.528	88.4
379.738	-26.28
379.948	67.92
380.158	-26.28
380.369	10.58
380.579	158.03
380.789	35.16
380.999	67.92
381.21	69.97
381.42	112.98
381.63	-38.57
381.84	80.21
382.05	53.59
382.261	59.73
382.471	43.35
382.681	35.16
382.891	133.46
383.101	63.83
383.311	-75.43
383.521	-5.8
383.731	76.12
383.941	119.12
384.151	61.78
384.361	82.26
384.571	74.07
384.781	108.88
384.991	59.73
385.201	119.12
385.411	76.12
385.621	76.12
385.831	41.3
386.041	92.5
386.251	76.12
386.461	55.64
386.671	22.87
386.881	63.83
387.091	22.87
387.301	86.36
387.511	-32.43
387.72	53.59
387.93	16.73
388.14	53.59
388.35	43.35
388.56	59.73
388.769	76.12
388.979	6.49
389.189	33.11
389.399	72.02
389.609	61.78
389.818	92.5
390.028	49.49
390.238	67.92
390.447	51.54
390.657	47.44
390.867	18.77
391.076	-3.75
391.286	43.35
391.496	45.4
391.705	45.4
391.915	86.36
392.125	100.69
392.334	-5.8
392.544	24.92
392.753	98.64
392.963	10.58
393.172	26.96
393.382	90.45
393.591	158.03
393.801	51.54
394.01	80.21
394.22	39.25
394.429	69.97
394.639	61.78
394.848	69.97
395.058	76.12
395.267	49.49
395.477	98.64
395.686	82.26
395.895	92.5
396.105	106.84
396.314	143.7
396.524	84.31
396.733	94.55
396.942	43.35
397.152	61.78
397.361	76.12
397.57	12.63
397.78	41.3
397.989	112.98
398.198	153.94
398.407	55.64
398.617	67.92
398.826	65.88
399.035	92.5
399.244	92.5
399.453	123.22
399.663	24.92
399.872	96.6
400.081	33.11
400.29	129.36
400.499	63.83
400.708	158.03
400.917	141.65
401.127	61.78
401.336	96.6
401.545	176.47
401.754	155.99
401.963	203.09
402.172	141.65
402.381	76.12
402.59	80.21
402.799	137.56
403.008	86.36
403.217	123.22
403.426	149.84
403.635	80.21
403.844	59.73
404.053	63.83
404.262	55.64
404.471	160.08
404.68	108.88
404.888	145.75
405.097	72.02
405.306	147.8
405.515	102.74
405.724	133.46
405.933	119.12
406.142	141.65
406.35	166.23
406.559	135.51
406.768	139.6
406.977	239.95
407.185	211.28
407.394	242
407.603	110.93
407.812	133.46
408.02	168.27
408.229	209.23
408.438	160.08
408.646	209.23
408.855	190.8
409.064	176.47
409.272	207.19
409.481	192.85
409.69	252.24
409.898	252.24
410.107	280.91
410.315	256.34
410.524	239.95
410.733	276.82
410.941	260.43
411.15	346.45
411.358	285.01
411.567	295.25
411.775	334.16
411.984	295.25
412.192	395.6
412.401	317.78
412.609	377.17
412.818	424.27
413.026	432.46
413.234	422.22
413.443	397.65
413.651	387.41
413.86	411.98
414.068	471.37
414.276	553.29
414.485	545.1
414.693	551.24
414.901	647.5
415.11	498
415.318	571.72
415.526	536.91
415.734	584.01
415.943	657.74
416.151	678.22
416.359	592.2
416.567	674.12
416.776	690.51
416.984	778.57
417.192	891.21
417.4	743.75
417.608	717.13
417.817	776.52
418.025	872.78
418.233	960.84
418.441	956.74
418.649	948.55
418.857	956.74
419.065	1014.09
419.273	995.65
419.481	1044.81
419.689	1136.96
419.897	1177.92
420.105	1161.54
420.313	1165.64
420.521	1308.99
420.729	1282.37
420.937	1417.54
421.145	1386.82
421.353	1448.26
421.561	1610.04
421.769	1577.28
421.977	1585.47
422.185	1583.42
422.393	1712.44
422.601	1886.52
422.809	1739.07
423.017	1780.03
423.224	1851.71
423.432	1911.1
423.64	1929.53
423.848	2150.71
424.056	1956.15
424.263	2214.2
424.471	2255.15
424.679	2253.11
424.887	2582.83
425.094	2515.25
425.302	2537.77
425.51	2468.14
425.718	2595.12
425.925	2718
426.133	2828.59
426.341	2824.49
426.548	2951.46
426.756	3123.49
426.964	3107.11
427.171	3275.04
427.379	3402.02
427.586	3436.83
427.794	3608.86
428.001	3721.5
428.209	3762.46
428.417	3827.99
428.624	3985.69
428.832	4051.22
429.039	3920.15
429.247	4028.7
429.454	4385.04
429.662	4714.77
429.869	4426
430.076	4550.93
430.284	4684.05
430.491	4763.92
430.699	5126.41
430.906	5144.84
431.114	5099.78
431.321	5204.23
431.528	5294.34
431.736	5863.68
431.943	5998.84
432.15	5853.44
432.358	5935.35
432.565	6146.3
432.772	6064.38
432.979	6523.12
433.187	6686.96
433.394	6637.81
433.601	6981.87
433.808	7055.59
434.016	7108.84
434.223	7368.93
434.43	7848.16
434.637	7686.37
434.844	8188.12
435.052	8317.14
435.259	8161.5
435.466	8437.97
435.673	8261.85
435.88	8734.93
436.087	9218.25
436.294	9251.02
436.501	9023.69
436.708	9085.13
436.915	9423.05
437.122	10045.63
437.329	9701.57
437.537	10008.76
437.743	10301.62
437.95	10250.42
438.157	10703.03
438.364	11198.63
438.571	11284.65
438.778	11333.8
438.985	12175.52
439.192	11810.98
439.399	12159.13
439.606	11741.35
439.813	12644.5
440.02	13373.58
440.227	12882.06
440.433	12865.68
440.64	13299.85
440.847	13219.98
441.054	13635.72
441.261	14536.82
441.467	14311.55
441.674	14803.06
441.881	15263.85
442.088	15044.72
442.294	14954.61
442.501	15401.07
442.708	15706.21
442.914	16269.41
443.121	17147.98
443.328	16277.6
443.534	17860.68
443.741	17422.41
443.948	16836.69
444.154	18208.83
444.361	18249.79
444.568	18202.69
444.774	18305.09
444.981	18352.19
445.187	18835.51
445.394	19994.66
445.6	19728.42
445.807	21893.13
446.013	20516.89
446.22	20922.39
446.426	21958.66
446.633	22175.75
446.839	22951.93
447.046	22099.97
447.252	22949.88
447.459	23128.05
447.665	22896.63
447.871	23908.33
448.078	24907.74
448.284	24225.76
448.491	24821.72
448.697	25679.82
448.903	26134.47
449.11	26197.96
449.316	25913.29
449.522	26271.68
449.728	26967.99
449.935	27236.28
450.141	27363.25
450.347	27752.37
450.553	27131.83
450.76	27600.82
450.966	28290.98
451.172	28137.38
451.378	28604.32
451.584	28075.94
451.791	29007.77
451.997	28903.32
452.203	29132.7
452.409	29620.11
452.615	29247.38
452.821	27979.69
453.027	27836.33
453.233	29687.7
453.44	28331.94
453.646	28692.38
453.852	28493.73
454.058	29276.05
454.264	28190.63
454.47	28921.76
454.676	28395.43
454.882	29200.28
455.088	26507.2
455.294	27099.06
455.5	27551.66
455.705	28020.65
455.911	26861.5
456.117	26333.12
456.323	26179.53
456.529	24584.16
456.735	25651.15
456.941	25047
457.147	24561.63
457.352	23994.34
457.558	23904.23
457.764	23896.04
457.97	23447.54
458.176	23015.41
458.381	22872.06
458.587	21530.64
458.793	22102.02
458.999	20406.3
459.204	22011.91
459.41	21405.71
459.616	20240.42
459.821	20277.28
460.027	19892.26
460.233	19855.4
460.438	18714.68
460.644	18866.23
460.85	18032.71
461.055	17758.28
461.261	17829.96
461.466	16523.35
461.672	16035.94
461.878	17242.19
462.083	15964.26
462.289	15706.21
462.494	15646.82
462.7	14917.75
462.905	14512.25
463.111	15143.02
463.316	15214.7
463.522	14782.58
463.727	15046.77
463.932	14821.49
464.138	14911.6
464.343	15016.05
464.549	14411.9
464.754	14778.48
464.959	14831.73
465.165	14518.39
465.37	13977.73
465.575	13586.57
465.781	14305.4
465.986	14149.76
466.191	13852.8
466.397	13406.34
466.602	12822.67
466.807	13387.91
467.012	13416.58
467.218	13269.13
467.423	13041.81
467.628	13027.47
467.833	13740.16
468.038	13119.63
468.244	12871.82
