Data from USB4F104151__280__14-46-20-656.txt Node

Date: Thu Mar 13 14:46:20 EDT 2025
User: louis
Spectrometer: USB4F10415
Trigger mode: 4
Integration Time (sec): 2.000000E-2
Scans to average: 1
Electric dark correction enabled: true
Nonlinearity correction enabled: false
Boxcar width: 0
XAxis mode: Wavelengths
Number of Pixels in Spectrum: 3648
>>>>>Begin Spectral Data<<<<<
178.204	-91.48
178.424	-91.48
178.644	-91.48
178.864	-13.65
179.084	-132.44
179.304	8.87
179.524	66.22
179.744	-25.94
179.964	21.16
180.184	-38.23
180.404	-52.56
180.624	-11.61
180.844	23.21
181.064	-21.85
181.283	-3.41
181.503	8.87
181.723	25.26
181.943	-36.18
182.163	-27.99
182.383	-54.61
182.602	23.21
182.822	-21.85
183.042	31.4
183.262	45.74
183.482	21.16
183.701	-5.46
183.921	-36.18
184.141	0.68
184.361	43.69
184.58	72.36
184.8	4.78
185.02	35.5
185.239	-19.8
185.459	29.35
185.679	0.68
185.898	8.87
186.118	17.07
186.338	86.7
186.557	72.36
186.777	76.46
186.997	6.83
187.216	146.09
187.436	45.74
187.655	27.31
187.875	31.4
188.095	23.21
188.314	33.45
188.534	53.93
188.753	-27.99
188.973	49.83
189.192	111.27
189.412	53.93
189.631	-9.56
189.851	70.31
190.07	41.64
190.29	-27.99
190.509	58.03
190.729	86.7
190.948	33.45
191.168	103.08
191.387	64.17
191.607	-11.61
191.826	55.98
192.045	-1.37
192.265	49.83
192.484	-54.61
192.704	27.31
192.923	-15.7
193.142	58.03
193.362	64.17
193.581	53.93
193.8	0.68
194.02	70.31
194.239	-32.08
194.458	23.21
194.678	-36.18
194.897	-75.09
195.116	27.31
195.335	-19.8
195.555	70.31
195.774	-42.32
195.993	70.31
196.212	-52.56
196.432	19.11
196.651	70.31
196.87	-50.52
197.089	58.03
197.308	-19.8
197.528	-58.71
197.747	-52.56
197.966	-25.94
198.185	78.51
198.404	19.11
198.623	37.55
198.842	70.31
199.062	41.64
199.281	-19.8
199.5	23.21
199.719	31.4
199.938	2.73
200.157	86.7
200.376	58.03
200.595	33.45
200.814	21.16
201.033	-11.61
201.252	35.5
201.471	41.64
201.69	6.83
201.909	-1.37
202.128	25.26
202.347	105.13
202.566	23.21
202.785	53.93
203.004	-44.37
203.223	64.17
203.442	-52.56
203.661	-1.37
203.879	-11.61
204.098	53.93
204.317	23.21
204.536	-27.99
204.755	53.93
204.974	27.31
205.193	31.4
205.411	98.99
205.63	41.64
205.849	53.93
206.068	33.45
206.287	12.97
206.505	25.26
206.724	-89.43
206.943	51.88
207.162	6.83
207.381	33.45
207.599	6.83
207.818	25.26
208.037	47.79
208.255	-25.94
208.474	25.26
208.693	74.41
208.911	92.84
209.13	27.31
209.349	62.12
209.567	8.87
209.786	6.83
210.005	-17.75
210.223	-7.51
210.442	25.26
210.661	62.12
210.879	78.51
211.098	-50.52
211.316	12.97
211.535	19.11
211.753	8.87
211.972	96.94
212.191	-44.37
212.409	105.13
212.628	10.92
212.846	-44.37
213.065	37.55
213.283	94.89
213.502	-17.75
213.72	-25.94
213.938	21.16
214.157	-93.52
214.375	55.98
214.594	37.55
214.812	49.83
215.031	21.16
215.249	4.78
215.467	4.78
215.686	-3.41
215.904	88.75
216.122	-17.75
216.341	21.16
216.559	-3.41
216.778	-9.56
216.996	37.55
217.214	-23.89
217.432	51.88
217.651	49.83
217.869	-3.41
218.087	21.16
218.306	72.36
218.524	66.22
218.742	-52.56
218.96	25.26
219.179	-38.23
219.397	29.35
219.615	90.79
219.833	88.75
220.051	-30.04
220.27	4.78
220.488	45.74
220.706	15.02
220.924	-17.75
221.142	74.41
221.36	4.78
221.578	-1.37
221.796	-11.61
222.015	15.02
222.233	-3.41
222.451	-3.41
222.669	47.79
222.887	21.16
223.105	49.83
223.323	29.35
223.541	-11.61
223.759	86.7
223.977	58.03
224.195	-15.7
224.413	66.22
224.631	180.9
224.849	33.45
225.067	45.74
225.285	31.4
225.503	-1.37
225.721	-11.61
225.939	-75.09
226.157	62.12
226.375	119.46
226.592	-1.37
226.81	4.78
227.028	58.03
227.246	47.79
227.464	62.12
227.682	19.11
227.9	78.51
228.117	49.83
228.335	-56.66
228.553	21.16
228.771	70.31
228.989	70.31
229.206	-3.41
229.424	-27.99
229.642	27.31
229.86	-19.8
230.077	8.87
230.295	31.4
230.513	58.03
230.731	53.93
230.948	-42.32
231.166	45.74
231.384	-11.61
231.601	68.27
231.819	33.45
232.037	51.88
232.254	6.83
232.472	-11.61
232.689	-13.65
232.907	37.55
233.125	-11.61
233.342	-64.85
233.56	31.4
233.777	41.64
233.995	111.27
234.213	2.73
234.43	80.55
234.648	12.97
234.865	12.97
235.083	53.93
235.3	37.55
235.518	78.51
235.735	86.7
235.953	103.08
236.17	-17.75
236.388	21.16
236.605	-68.95
236.822	152.23
237.04	117.42
237.257	23.21
237.475	6.83
237.692	49.83
237.909	86.7
238.127	58.03
238.344	-1.37
238.562	74.41
238.779	-44.37
238.996	10.92
239.214	-1.37
239.431	94.89
239.648	-11.61
239.865	90.79
240.083	49.83
240.3	-11.61
240.517	-21.85
240.735	-1.37
240.952	41.64
241.169	25.26
241.386	31.4
241.603	-23.89
241.821	4.78
242.038	78.51
242.255	-11.61
242.472	-5.46
242.689	-79.19
242.907	76.46
243.124	23.21
243.341	-3.41
243.558	-1.37
243.775	39.59
243.992	-44.37
244.209	-3.41
244.426	135.85
244.643	15.02
244.86	21.16
245.078	-11.61
245.295	53.93
245.512	21.16
245.729	80.55
245.946	29.35
246.163	10.92
246.38	-1.37
246.597	70.31
246.814	37.55
247.031	60.07
247.248	51.88
247.464	41.64
247.681	-19.8
247.898	27.31
248.115	-7.51
248.332	-13.65
248.549	29.35
248.766	15.02
248.983	12.97
249.2	41.64
249.417	33.45
249.633	17.07
249.85	15.02
250.067	-3.41
250.284	0.68
250.501	60.07
250.717	12.97
250.934	23.21
251.151	12.97
251.368	-19.8
251.585	66.22
251.801	72.36
252.018	31.4
252.235	2.73
252.451	-99.67
252.668	0.68
252.885	43.69
253.102	39.59
253.318	64.17
253.535	-7.51
253.752	12.97
253.968	29.35
254.185	68.27
254.401	-52.56
254.618	62.12
254.835	-38.23
255.051	-15.7
255.268	-15.7
255.484	39.59
255.701	-25.94
255.917	37.55
256.134	-23.89
256.351	21.16
256.567	29.35
256.784	12.97
257	21.16
257.217	29.35
257.433	12.97
257.65	10.92
257.866	47.79
258.082	-48.47
258.299	12.97
258.515	-19.8
258.732	12.97
258.948	37.55
259.165	6.83
259.381	-1.37
259.597	-32.08
259.814	33.45
260.03	-3.41
260.246	31.4
260.463	29.35
260.679	70.31
260.895	70.31
261.112	90.79
261.328	21.16
261.544	6.83
261.761	111.27
261.977	8.87
262.193	-9.56
262.409	37.55
262.626	39.59
262.842	53.93
263.058	27.31
263.274	49.83
263.49	-1.37
263.707	-19.8
263.923	45.74
264.139	17.07
264.355	-17.75
264.571	25.26
264.787	53.93
265.004	88.75
265.22	-27.99
265.436	-17.75
265.652	19.11
265.868	33.45
266.084	17.07
266.3	68.27
266.516	37.55
266.732	62.12
266.948	86.7
267.164	6.83
267.38	94.89
267.596	-27.99
267.812	21.16
268.028	37.55
268.244	-42.32
268.46	53.93
268.676	-9.56
268.892	6.83
269.108	-54.61
269.324	8.87
269.54	-19.8
269.756	-34.13
269.972	-23.89
270.188	64.17
270.403	80.55
270.619	33.45
270.835	23.21
271.051	23.21
271.267	41.64
271.483	-66.9
271.698	29.35
271.914	62.12
272.13	-11.61
272.346	55.98
272.562	70.31
272.777	2.73
272.993	-25.94
273.209	-38.23
273.425	43.69
273.64	53.93
273.856	64.17
274.072	101.03
274.287	17.07
274.503	94.89
274.719	82.6
274.934	21.16
275.15	29.35
275.366	23.21
275.581	15.02
275.797	21.16
276.012	-40.28
276.228	51.88
276.444	-3.41
276.659	76.46
276.875	-27.99
277.09	86.7
277.306	-11.61
277.521	23.21
277.737	17.07
277.952	86.7
278.168	-17.75
278.383	39.59
278.599	62.12
278.814	111.27
279.03	78.51
279.245	82.6
279.461	31.4
279.676	66.22
279.892	-36.18
280.107	12.97
280.322	-7.51
280.538	53.93
280.753	-52.56
280.969	55.98
281.184	4.78
281.399	111.27
281.615	21.16
281.83	47.79
282.045	-13.65
282.26	8.87
282.476	0.68
282.691	-11.61
282.906	37.55
283.122	37.55
283.337	37.55
283.552	-7.51
283.767	41.64
283.983	0.68
284.198	-13.65
284.413	94.89
284.628	-15.7
284.843	-11.61
285.058	19.11
285.274	82.6
285.489	0.68
285.704	15.02
285.919	72.36
286.134	-50.52
286.349	-58.71
286.564	21.16
286.779	55.98
286.995	-46.42
287.21	23.21
287.425	55.98
287.64	23.21
287.855	80.55
288.07	-7.51
288.285	-3.41
288.5	74.41
288.715	37.55
288.93	-40.28
289.145	12.97
289.36	37.55
289.575	27.31
289.79	80.55
290.004	-11.61
290.219	86.7
290.434	-27.99
290.649	39.59
290.864	72.36
291.079	4.78
291.294	-11.61
291.509	31.4
291.724	82.6
291.938	-13.65
292.153	62.12
292.368	37.55
292.583	37.55
292.798	80.55
293.012	-9.56
293.227	58.03
293.442	-17.75
293.657	4.78
293.871	-25.94
294.086	53.93
294.301	111.27
294.516	19.11
294.73	37.55
294.945	58.03
295.16	168.62
295.374	62.12
295.589	33.45
295.804	78.51
296.018	21.16
296.233	78.51
296.447	37.55
296.662	-3.41
296.877	70.31
297.091	12.97
297.306	-3.41
297.52	25.26
297.735	55.98
297.949	-19.8
298.164	49.83
298.378	45.74
298.593	8.87
298.807	58.03
299.022	55.98
299.236	78.51
299.451	21.16
299.665	-25.94
299.88	-40.28
300.094	76.46
300.309	29.35
300.523	8.87
300.737	-19.8
300.952	6.83
301.166	-19.8
301.381	21.16
301.595	-21.85
301.809	4.78
302.024	4.78
302.238	4.78
302.452	12.97
302.667	-58.71
302.881	76.46
303.095	21.16
303.309	37.55
303.524	-52.56
303.738	-11.61
303.952	-9.56
304.166	84.65
304.381	0.68
304.595	29.35
304.809	17.07
305.023	121.51
305.237	-11.61
305.452	-68.95
305.666	70.31
305.88	62.12
306.094	41.64
306.308	45.74
306.522	35.5
306.736	-15.7
306.95	-7.51
307.164	47.79
307.379	2.73
307.593	45.74
307.807	-27.99
308.021	127.66
308.235	31.4
308.449	-15.7
308.663	-27.99
308.877	113.32
309.091	49.83
309.305	37.55
309.519	-44.37
309.733	-27.99
309.947	-11.61
310.161	27.31
310.374	-25.94
310.588	21.16
310.802	-13.65
311.016	21.16
311.23	10.92
311.444	23.21
311.658	4.78
311.872	55.98
312.085	-34.13
312.299	55.98
312.513	15.02
312.727	-3.41
312.941	45.74
313.154	23.21
313.368	47.79
313.582	29.35
313.796	64.17
314.009	35.5
314.223	64.17
314.437	55.98
314.651	-40.28
314.864	-3.41
315.078	-15.7
315.292	-50.52
315.505	31.4
315.719	66.22
315.933	62.12
316.146	-42.32
316.36	53.93
316.573	47.79
316.787	84.65
317.001	31.4
317.214	-38.23
317.428	21.16
317.641	-11.61
317.855	12.97
318.068	86.7
318.282	45.74
318.495	27.31
318.709	-19.8
318.922	-75.09
319.136	29.35
319.349	-19.8
319.563	-66.9
319.776	15.02
319.99	49.83
320.203	45.74
320.417	47.79
320.63	55.98
320.843	17.07
321.057	53.93
321.27	27.31
321.483	80.55
321.697	90.79
321.91	49.83
322.124	-25.94
322.337	66.22
322.55	41.64
322.763	105.13
322.977	-46.42
323.19	-11.61
323.403	6.83
323.617	-34.13
323.83	103.08
324.043	17.07
324.256	70.31
324.469	37.55
324.683	53.93
324.896	-23.89
325.109	96.94
325.322	35.5
325.535	72.36
325.748	12.97
325.962	29.35
326.175	-54.61
326.388	-52.56
326.601	29.35
326.814	68.27
327.027	41.64
327.24	84.65
327.453	19.11
327.666	72.36
327.879	33.45
328.092	4.78
328.305	0.68
328.518	-11.61
328.731	37.55
328.944	-9.56
329.157	12.97
329.37	86.7
329.583	58.03
329.796	-11.61
330.009	6.83
330.222	-1.37
330.435	49.83
330.648	47.79
330.861	53.93
331.073	64.17
331.286	45.74
331.499	117.42
331.712	47.79
331.925	-19.8
332.138	-42.32
332.35	70.31
332.563	86.7
332.776	74.41
332.989	-27.99
333.202	25.26
333.414	21.16
333.627	96.94
333.84	-9.56
334.053	-44.37
334.265	-17.75
334.478	-3.41
334.691	55.98
334.903	72.36
335.116	-23.89
335.329	53.93
335.541	21.16
335.754	58.03
335.966	6.83
336.179	45.74
336.392	6.83
336.604	43.69
336.817	23.21
337.029	-3.41
337.242	12.97
337.454	49.83
337.667	17.07
337.88	123.56
338.092	58.03
338.305	33.45
338.517	-23.89
338.729	47.79
338.942	31.4
339.154	-25.94
339.367	25.26
339.579	29.35
339.792	-11.61
340.004	53.93
340.217	37.55
340.429	33.45
340.641	55.98
340.854	-27.99
341.066	-40.28
341.278	45.74
341.491	82.6
341.703	4.78
341.915	-38.23
342.128	58.03
342.34	41.64
342.552	-23.89
342.764	0.68
342.977	72.36
343.189	80.55
343.401	37.55
343.613	31.4
343.826	41.64
344.038	15.02
344.25	64.17
344.462	33.45
344.674	-19.8
344.886	58.03
345.099	119.46
345.311	10.92
345.523	-9.56
345.735	-1.37
345.947	-7.51
346.159	55.98
346.371	51.88
346.583	29.35
346.795	80.55
347.007	-97.62
347.219	39.59
347.431	62.12
347.643	0.68
347.855	-64.85
348.067	74.41
348.279	62.12
348.491	55.98
348.703	62.12
348.915	60.07
349.127	37.55
349.339	6.83
349.551	-23.89
349.763	51.88
349.975	-11.61
350.187	-11.61
350.399	19.11
350.61	88.75
350.822	58.03
351.034	45.74
351.246	76.46
351.458	39.59
351.669	29.35
351.881	101.03
352.093	98.99
352.305	25.26
352.517	60.07
352.728	86.7
352.94	47.79
353.152	0.68
353.363	53.93
353.575	53.93
353.787	25.26
353.999	86.7
354.21	15.02
354.422	55.98
354.633	45.74
354.845	88.75
355.057	39.59
355.268	82.6
355.48	98.99
355.692	21.16
355.903	19.11
356.115	17.07
356.326	-3.41
356.538	68.27
356.749	101.03
356.961	98.99
357.172	78.51
357.384	29.35
357.595	23.21
357.807	86.7
358.018	4.78
358.23	70.31
358.441	111.27
358.653	86.7
358.864	39.59
359.075	15.02
359.287	10.92
359.498	127.66
359.709	23.21
359.921	78.51
360.132	92.84
360.344	45.74
360.555	37.55
360.766	45.74
360.977	98.99
361.189	47.79
361.4	12.97
361.611	76.46
361.823	-95.57
362.034	49.83
362.245	-19.8
362.456	15.02
362.667	47.79
362.879	72.36
363.09	-44.37
363.301	37.55
363.512	53.93
363.723	37.55
363.935	-3.41
364.146	21.16
364.357	25.26
364.568	49.83
364.779	-1.37
364.99	4.78
365.201	39.59
365.412	-1.37
365.623	-3.41
365.834	-9.56
366.045	-1.37
366.256	10.92
366.467	96.94
366.678	21.16
366.889	51.88
367.1	49.83
367.311	53.93
367.522	37.55
367.733	45.74
367.944	49.83
368.155	-25.94
368.366	23.21
368.577	29.35
368.788	-19.8
368.999	-3.41
369.209	19.11
369.42	137.9
369.631	121.51
369.842	6.83
370.053	35.5
370.264	31.4
370.474	31.4
370.685	-5.46
370.896	58.03
371.107	111.27
371.317	19.11
371.528	58.03
371.739	-1.37
371.95	43.69
372.16	29.35
372.371	-93.52
372.582	25.26
372.792	129.7
373.003	119.46
373.214	4.78
373.424	47.79
373.635	60.07
373.846	117.42
374.056	41.64
374.267	55.98
374.477	29.35
374.688	0.68
374.898	70.31
375.109	90.79
375.319	23.21
375.53	70.31
375.74	39.59
375.951	55.98
376.161	70.31
376.372	39.59
376.582	31.4
376.793	55.98
377.003	-52.56
377.214	74.41
377.424	49.83
377.635	-77.14
377.845	23.21
378.055	70.31
378.266	51.88
378.476	47.79
378.686	47.79
378.897	-11.61
379.107	12.97
379.317	-23.89
379.528	90.79
379.738	86.7
379.948	-68.95
380.158	78.51
380.369	-3.41
380.579	41.64
380.789	94.89
380.999	33.45
381.21	60.07
381.42	111.27
381.63	-11.61
381.84	70.31
382.05	107.18
382.261	74.41
382.471	68.27
382.681	8.87
382.891	92.84
383.101	53.93
383.311	47.79
383.521	-1.37
383.731	17.07
383.941	113.32
384.151	15.02
384.361	64.17
384.571	51.88
384.781	72.36
384.991	127.66
385.201	72.36
385.411	35.5
385.621	29.35
385.831	33.45
386.041	4.78
386.251	23.21
386.461	39.59
386.671	41.64
386.881	37.55
387.091	51.88
387.301	94.89
387.511	117.42
387.72	27.31
387.93	41.64
388.14	6.83
388.35	58.03
388.56	96.94
388.769	121.51
388.979	70.31
389.189	-1.37
389.399	58.03
389.609	23.21
389.818	70.31
390.028	-11.61
390.238	37.55
390.447	74.41
390.657	107.18
390.867	139.94
391.076	33.45
391.286	62.12
391.496	62.12
391.705	55.98
391.915	78.51
392.125	88.75
392.334	31.4
392.544	35.5
392.753	53.93
392.963	-36.18
393.172	10.92
393.382	29.35
393.591	66.22
393.801	41.64
394.01	129.7
394.22	25.26
394.429	47.79
394.639	-5.46
394.848	101.03
395.058	37.55
395.267	70.31
395.477	33.45
395.686	49.83
395.895	96.94
396.105	203.43
396.314	80.55
396.524	-38.23
396.733	80.55
396.942	53.93
397.152	58.03
397.361	123.56
397.57	137.9
397.78	139.94
397.989	105.13
398.198	80.55
398.407	96.94
398.617	12.97
398.826	78.51
399.035	62.12
399.244	47.79
399.453	64.17
399.663	109.22
399.872	125.61
400.081	62.12
400.29	121.51
400.499	43.69
400.708	72.36
400.917	94.89
401.127	103.08
401.336	101.03
401.545	113.32
401.754	127.66
401.963	62.12
402.172	6.83
402.381	68.27
402.59	182.95
402.799	94.89
403.008	101.03
403.217	125.61
403.426	113.32
403.635	17.07
403.844	62.12
404.053	80.55
404.262	125.61
404.471	152.23
404.68	92.84
404.888	80.55
405.097	74.41
405.306	98.99
405.515	131.75
405.724	78.51
405.933	156.33
406.142	119.46
406.35	209.58
406.559	123.56
406.768	131.75
406.977	221.86
407.185	131.75
407.394	197.29
407.603	113.32
407.812	154.28
408.02	135.85
408.229	125.61
408.438	211.62
408.646	238.25
408.855	191.14
409.064	185
409.272	174.76
409.481	238.25
409.69	250.53
409.898	250.53
410.107	201.38
410.315	342.69
410.524	213.67
410.733	264.87
410.941	242.34
411.15	275.11
411.358	307.88
411.567	283.3
411.775	316.07
411.984	334.5
412.192	357.03
412.401	283.3
412.609	348.84
412.818	318.12
413.026	400.04
413.234	391.84
413.443	357.03
413.651	449.19
413.86	490.15
414.068	406.18
414.276	490.15
414.485	490.15
414.693	658.08
414.901	578.21
415.11	574.11
415.318	580.26
415.526	580.26
415.734	643.74
415.943	617.12
416.151	707.23
416.359	660.13
416.567	754.34
416.776	727.71
416.984	766.62
417.192	821.92
417.4	811.68
417.608	696.99
417.817	711.33
418.025	866.97
418.233	916.12
418.441	858.78
418.649	948.89
418.857	940.7
419.065	975.52
419.273	1036.95
419.481	1104.54
419.689	1163.93
419.897	1045.15
420.105	1284.76
420.313	1315.48
420.521	1180.31
420.729	1333.91
420.937	1321.62
421.145	1381.01
421.353	1448.6
421.561	1497.75
421.769	1503.89
421.977	1645.2
422.185	1684.11
422.393	1637.01
422.601	1768.08
422.809	1903.25
423.017	1763.98
423.224	1843.85
423.432	1962.64
423.64	1991.31
423.848	2251.4
424.056	2138.76
424.263	2282.12
424.471	2249.35
424.679	2282.12
424.887	2470.53
425.094	2519.68
425.302	2577.03
425.51	2591.36
425.718	2648.71
425.925	2740.86
426.133	2853.5
426.341	2964.09
426.548	3138.17
426.756	3134.07
426.964	3019.39
427.171	3232.38
427.379	3289.72
427.586	3404.41
427.794	3537.52
428.001	3588.72
428.209	3908.21
428.417	3879.54
428.624	3998.32
428.832	4029.04
429.039	4004.46
429.247	4029.04
429.454	4387.43
429.662	4676.2
429.869	4428.39
430.076	4766.31
430.284	4604.52
430.491	4856.42
430.699	5102.17
430.906	5235.29
431.114	5169.76
431.321	5214.81
431.528	5356.12
431.736	5694.04
431.943	6091.34
432.15	5909.07
432.358	5988.94
432.565	6193.74
432.772	6283.85
432.979	6480.46
433.187	6648.39
433.394	6599.24
433.601	7213.63
433.808	7336.51
434.016	7273.02
434.223	7334.46
434.43	8008.24
434.637	7516.73
434.844	8167.98
435.052	8210.99
435.259	8182.32
435.466	8393.26
435.673	8432.17
435.88	8753.7
436.087	9157.15
436.294	9249.31
436.501	9163.29
436.708	9314.84
436.915	9517.59
437.122	10039.83
437.329	9861.65
437.537	10220.05
437.743	10371.6
437.95	10248.72
438.157	10953.22
438.364	11336.19
438.571	11201.02
438.778	11311.61
438.985	12354.03
439.192	11803.13
439.399	12435.95
439.606	12014.07
439.813	12802.54
440.02	13322.72
440.227	13081.06
440.433	13175.27
440.64	13545.95
440.847	13316.58
441.054	13744.6
441.261	14576.08
441.467	14610.89
441.674	14844.36
441.881	15126.98
442.088	15141.32
442.294	14954.95
442.501	15727.03
442.708	15950.26
442.914	16454.06
443.121	17439.14
443.328	16699.82
443.534	17830.3
443.741	17398.18
443.948	16982.44
444.154	18569.62
444.361	18356.63
444.568	18424.21
444.774	18231.7
444.981	18842
445.187	18917.77
445.394	20058.49
445.6	19771.77
445.807	21539.17
446.013	20732.27
446.22	21240.17
446.426	22143.32
446.633	22522.19
446.839	22827.34
447.046	21866.84
447.252	23286.09
447.459	23161.16
447.665	23435.59
447.871	24158.52
448.078	25522.47
448.284	24066.36
448.491	24840.5
448.697	25903.39
448.903	26378.52
449.11	26261.79
449.316	25809.18
449.522	26329.37
449.728	27050.25
449.935	27046.16
450.141	27517.19
450.347	28369.15
450.553	26994.96
450.76	27748.61
450.966	28352.76
451.172	28092.67
451.378	29051.12
451.584	28104.96
451.791	29044.98
451.997	28973.3
452.203	29714.66
452.409	29546.73
452.615	29485.29
452.821	28260.6
453.027	28096.77
453.233	29554.92
453.44	28670.2
453.646	28928.24
453.852	28924.15
454.058	29401.32
454.264	28629.24
454.47	29018.35
454.676	28322.04
454.882	29337.83
455.088	26767.63
455.294	27515.14
455.5	27590.92
455.705	27904.26
455.911	27042.06
456.117	26657.04
456.323	25827.62
456.529	24811.82
456.735	26251.55
456.941	25407.78
457.147	24748.34
457.352	24144.19
457.558	23791.94
457.764	24107.32
457.97	23693.63
458.176	22974.8
458.381	23069
458.587	21932.38
458.793	21819.74
458.999	20984.17
459.204	22182.23
459.41	21801.31
459.616	20246.9
459.821	20386.16
460.027	20078.97
460.233	20140.41
460.438	18794.89
460.644	19421.57
460.85	18250.13
461.055	18266.52
461.261	18045.34
461.466	16724.4
461.672	16218.55
461.878	17283.49
462.083	16486.83
462.289	15876.54
462.494	15866.3
462.7	15100.36
462.905	14832.07
463.111	15129.03
463.316	15274.43
463.522	14741.96
463.727	14997.96
463.932	14920.14
464.138	14920.14
464.343	15020.49
464.549	14567.88
464.754	14832.07
464.959	14811.59
465.165	14776.78
465.37	14256.59
465.575	13826.52
465.781	14318.03
465.986	14279.12
466.191	13908.44
466.397	13408.73
466.602	12923.37
466.807	13251.04
467.012	13359.58
467.218	13351.39
