Data from USB4F104151__93__12-28-17-987.txt Node

Date: Fri Mar 14 12:28:17 EDT 2025
User: louis
Spectrometer: USB4F10415
Trigger mode: 4
Integration Time (sec): 2.000000E-2
Scans to average: 1
Electric dark correction enabled: true
Nonlinearity correction enabled: false
Boxcar width: 0
XAxis mode: Wavelengths
Number of Pixels in Spectrum: 3648
>>>>>Begin Spectral Data<<<<<
178.204	-39.42
178.424	-39.42
178.644	-39.42
178.864	-139.77
179.084	-43.52
179.304	-107.01
179.524	-37.38
179.744	-18.94
179.964	-10.75
180.184	-33.28
180.404	38.4
180.624	114.17
180.844	62.98
181.064	5.63
181.283	-20.99
181.503	-4.61
181.723	11.78
181.943	-39.42
182.163	15.87
182.383	-2.56
182.602	-8.7
182.822	62.98
183.042	5.63
183.262	-16.9
183.482	-12.8
183.701	-12.8
183.921	32.26
184.141	-74.24
184.361	46.59
184.58	-16.9
184.8	19.97
185.02	11.78
185.239	38.4
185.459	22.02
185.679	-4.61
185.898	81.41
186.118	-23.04
186.338	58.88
186.557	79.36
186.777	60.93
186.997	54.78
187.216	-43.52
187.436	62.98
187.655	17.92
187.875	-39.42
188.095	-12.8
188.314	112.13
188.534	-14.85
188.753	65.02
188.973	24.06
189.192	97.79
189.412	38.4
189.631	-23.04
189.851	1.54
190.07	85.5
190.29	69.12
190.509	-53.76
190.729	7.68
190.948	30.21
191.168	79.36
191.387	50.69
191.607	28.16
191.826	32.26
192.045	-23.04
192.265	-4.61
192.484	42.5
192.704	11.78
192.923	9.73
193.142	71.17
193.362	-45.57
193.581	77.31
193.8	5.63
194.02	9.73
194.239	-23.04
194.458	9.73
194.678	130.56
194.897	-4.61
195.116	-25.09
195.335	17.92
195.555	-10.75
195.774	-20.99
195.993	42.5
196.212	91.65
196.432	75.26
196.651	67.07
196.87	-37.38
197.089	62.98
197.308	7.68
197.528	22.02
197.747	-49.66
197.966	-94.72
198.185	11.78
198.404	19.97
198.623	108.03
198.842	17.92
199.062	22.02
199.281	-31.23
199.5	-59.9
199.719	-2.56
199.938	-31.23
200.157	-10.75
200.376	-25.09
200.595	79.36
200.814	22.02
201.033	-12.8
201.252	79.36
201.471	99.84
201.69	19.97
201.909	-20.99
202.128	69.12
202.347	-16.9
202.566	28.16
202.785	-70.14
203.004	-6.66
203.223	136.7
203.442	-109.05
203.661	34.3
203.879	58.88
204.098	19.97
204.317	9.73
204.536	-23.04
204.755	24.06
204.974	54.78
205.193	-14.85
205.411	13.82
205.63	-10.75
205.849	15.87
206.068	-41.47
206.287	-27.14
206.505	58.88
206.724	50.69
206.943	-31.23
207.162	-12.8
207.381	44.54
207.599	-18.94
207.818	30.21
208.037	44.54
208.255	-31.23
208.474	48.64
208.693	34.3
208.911	40.45
209.13	36.35
209.349	17.92
209.567	77.31
209.786	110.08
210.005	91.65
210.223	62.98
210.442	1.54
210.661	-90.62
210.879	9.73
211.098	17.92
211.316	54.78
211.535	79.36
211.753	-31.23
211.972	83.45
212.191	15.87
212.409	-37.38
212.628	1.54
212.846	-37.38
213.065	-45.57
213.283	-4.61
213.502	-6.66
213.72	-18.94
213.938	36.35
214.157	-0.51
214.375	73.21
214.594	77.31
214.812	65.02
215.031	19.97
215.249	5.63
215.467	62.98
215.686	-41.47
215.904	5.63
216.122	58.88
216.341	75.26
216.559	24.06
216.778	-12.8
216.996	-10.75
217.214	-2.56
217.432	36.35
217.651	-64
217.869	-0.51
218.087	28.16
218.306	62.98
218.524	34.3
218.742	-0.51
218.96	-8.7
219.179	-57.86
219.397	17.92
219.615	-0.51
219.833	-12.8
220.051	5.63
220.27	40.45
220.488	65.02
220.706	71.17
220.924	36.35
221.142	42.5
221.36	71.17
221.578	95.74
221.796	-68.09
222.015	-23.04
222.233	32.26
222.451	-8.7
222.669	5.63
222.887	40.45
223.105	81.41
223.323	17.92
223.541	-0.51
223.759	-2.56
223.977	52.74
224.195	50.69
224.413	52.74
224.631	42.5
224.849	44.54
225.067	28.16
225.285	36.35
225.503	36.35
225.721	3.58
225.939	52.74
226.157	22.02
226.375	110.08
226.592	36.35
226.81	-10.75
227.028	22.02
227.246	75.26
227.464	-16.9
227.682	11.78
227.9	69.12
228.117	-23.04
228.335	38.4
228.553	65.02
228.771	24.06
228.989	38.4
229.206	-49.66
229.424	-43.52
229.642	1.54
229.86	42.5
230.077	-31.23
230.295	9.73
230.513	3.58
230.731	-43.52
230.948	-6.66
231.166	-23.04
231.384	40.45
231.601	5.63
231.819	108.03
232.037	-6.66
232.254	13.82
232.472	-31.23
232.689	9.73
232.907	58.88
233.125	15.87
233.342	22.02
233.56	-37.38
233.777	-4.61
233.995	52.74
234.213	34.3
234.43	1.54
234.648	36.35
234.865	-16.9
235.083	7.68
235.3	52.74
235.518	7.68
235.735	69.12
235.953	-16.9
236.17	-6.66
236.388	17.92
236.605	3.58
236.822	83.45
237.04	-27.14
237.257	7.68
237.475	-10.75
237.692	-18.94
237.909	42.5
238.127	69.12
238.344	-6.66
238.562	32.26
238.779	-0.51
238.996	40.45
239.214	5.63
239.431	28.16
239.648	7.68
239.865	60.93
240.083	36.35
240.3	-35.33
240.517	-20.99
240.735	-10.75
240.952	67.07
241.169	69.12
241.386	81.41
241.603	-45.57
241.821	28.16
242.038	65.02
242.255	-59.9
242.472	-6.66
242.689	-2.56
242.907	19.97
243.124	-2.56
243.341	54.78
243.558	81.41
243.775	-41.47
243.992	-10.75
244.209	34.3
244.426	-33.28
244.643	83.45
244.86	13.82
245.078	-16.9
245.295	30.21
245.512	3.58
245.729	50.69
245.946	58.88
246.163	28.16
246.38	42.5
246.597	40.45
246.814	46.59
247.031	11.78
247.248	46.59
247.464	13.82
247.681	85.5
247.898	24.06
248.115	-25.09
248.332	-4.61
248.549	46.59
248.766	42.5
248.983	91.65
249.2	32.26
249.417	24.06
249.633	44.54
249.85	118.27
250.067	-12.8
250.284	19.97
250.501	32.26
250.717	-20.99
250.934	58.88
251.151	9.73
251.368	-10.75
251.585	36.35
251.801	38.4
252.018	54.78
252.235	112.13
252.451	28.16
252.668	9.73
252.885	40.45
253.102	-8.7
253.318	-29.18
253.535	58.88
253.752	60.93
253.968	34.3
254.185	-29.18
254.401	-23.04
254.618	38.4
254.835	-4.61
255.051	42.5
255.268	28.16
255.484	36.35
255.701	83.45
255.917	91.65
256.134	22.02
256.351	-23.04
256.567	-18.94
256.784	19.97
257	-14.85
257.217	44.54
257.433	120.32
257.65	62.98
257.866	-33.28
258.082	60.93
258.299	-29.18
258.515	22.02
258.732	30.21
258.948	50.69
259.165	22.02
259.381	-59.9
259.597	32.26
259.814	40.45
260.03	-20.99
260.246	52.74
260.463	56.83
260.679	73.21
260.895	-2.56
261.112	-31.23
261.328	-10.75
261.544	15.87
261.761	44.54
261.977	-8.7
262.193	-6.66
262.409	67.07
262.626	24.06
262.842	56.83
263.058	-14.85
263.274	99.84
263.49	50.69
263.707	26.11
263.923	-18.94
264.139	11.78
264.355	-20.99
264.571	13.82
264.787	-25.09
265.004	50.69
265.22	44.54
265.436	19.97
265.652	-68.09
265.868	99.84
266.084	46.59
266.3	34.3
266.516	-31.23
266.732	-4.61
266.948	-18.94
267.164	17.92
267.38	56.83
267.596	5.63
267.812	28.16
268.028	-27.14
268.244	13.82
268.46	13.82
268.676	-57.86
268.892	34.3
269.108	101.89
269.324	-25.09
269.54	17.92
269.756	22.02
269.972	-20.99
270.188	60.93
270.403	-8.7
270.619	-39.42
270.835	42.5
271.051	62.98
271.267	-6.66
271.483	-8.7
271.698	-10.75
271.914	58.88
272.13	17.92
272.346	32.26
272.562	75.26
272.777	114.17
272.993	65.02
273.209	-25.09
273.425	-35.33
273.64	13.82
273.856	79.36
274.072	-29.18
274.287	15.87
274.503	73.21
274.719	22.02
274.934	60.93
275.15	-10.75
275.366	-4.61
275.581	-37.38
275.797	-31.23
276.012	-16.9
276.228	-66.05
276.444	30.21
276.659	36.35
276.875	9.73
277.09	-8.7
277.306	1.54
277.521	44.54
277.737	-53.76
277.952	46.59
278.168	-39.42
278.383	15.87
278.599	3.58
278.814	38.4
279.03	44.54
279.245	7.68
279.461	-6.66
279.676	42.5
279.892	-23.04
280.107	67.07
280.322	81.41
280.538	54.78
280.753	28.16
280.969	22.02
281.184	24.06
281.399	52.74
281.615	13.82
281.83	32.26
282.045	-2.56
282.26	-78.33
282.476	15.87
282.691	1.54
282.906	-68.09
283.122	-43.52
283.337	13.82
283.552	9.73
283.767	5.63
283.983	-10.75
284.198	42.5
284.413	67.07
284.628	1.54
284.843	65.02
285.058	79.36
285.274	40.45
285.489	-14.85
285.704	-12.8
285.919	93.69
286.134	3.58
286.349	38.4
286.564	87.55
286.779	42.5
286.995	60.93
287.21	62.98
287.425	60.93
287.64	-8.7
287.855	-23.04
288.07	-25.09
288.285	50.69
288.5	79.36
288.715	75.26
288.93	56.83
289.145	17.92
289.36	9.73
289.575	-10.75
289.79	81.41
290.004	-35.33
290.219	-14.85
290.434	30.21
290.649	-43.52
290.864	-27.14
291.079	38.4
291.294	-4.61
291.509	-4.61
291.724	9.73
291.938	24.06
292.153	56.83
292.368	22.02
292.583	34.3
292.798	15.87
293.012	89.6
293.227	-16.9
293.442	77.31
293.657	24.06
293.871	77.31
294.086	19.97
294.301	-12.8
294.516	75.26
294.73	38.4
294.945	30.21
295.16	-23.04
295.374	73.21
295.589	28.16
295.804	-8.7
296.018	54.78
296.233	-29.18
296.447	-55.81
296.662	69.12
296.877	-12.8
297.091	28.16
297.306	30.21
297.52	54.78
297.735	-4.61
297.949	7.68
298.164	28.16
298.378	9.73
298.593	-37.38
298.807	103.93
299.022	52.74
299.236	46.59
299.451	58.88
299.665	3.58
299.88	32.26
300.094	40.45
300.309	34.3
300.523	-16.9
300.737	19.97
300.952	7.68
301.166	7.68
301.381	28.16
301.595	-12.8
301.809	-10.75
302.024	36.35
302.238	-18.94
302.452	95.74
302.667	7.68
302.881	54.78
303.095	126.46
303.309	56.83
303.524	50.69
303.738	60.93
303.952	34.3
304.166	13.82
304.381	40.45
304.595	40.45
304.809	5.63
305.023	19.97
305.237	19.97
305.452	-74.24
305.666	-6.66
305.88	-6.66
306.094	62.98
306.308	36.35
306.522	42.5
306.736	46.59
306.95	-12.8
307.164	-33.28
307.379	13.82
307.593	42.5
307.807	46.59
308.021	22.02
308.235	36.35
308.449	-39.42
308.663	15.87
308.877	-12.8
309.091	32.26
309.305	30.21
309.519	7.68
309.733	22.02
309.947	28.16
310.161	67.07
310.374	11.78
310.588	-23.04
310.802	67.07
311.016	50.69
311.23	67.07
311.444	91.65
311.658	28.16
311.872	30.21
312.085	81.41
312.299	69.12
312.513	-10.75
312.727	52.74
312.941	15.87
313.154	11.78
313.368	28.16
313.582	28.16
313.796	28.16
314.009	42.5
314.223	-4.61
314.437	19.97
314.651	-25.09
314.864	-23.04
315.078	34.3
315.292	-12.8
315.505	-18.94
315.719	-16.9
315.933	17.92
316.146	-82.43
316.36	-10.75
316.573	32.26
316.787	-14.85
317.001	-18.94
317.214	-35.33
317.428	42.5
317.641	-6.66
317.855	60.93
318.068	5.63
318.282	24.06
318.495	126.46
318.709	-10.75
318.922	46.59
319.136	120.32
319.349	48.64
319.563	124.41
319.776	-4.61
319.99	11.78
320.203	89.6
320.417	60.93
320.63	71.17
320.843	56.83
321.057	38.4
321.27	77.31
321.483	-8.7
321.697	-8.7
321.91	32.26
322.124	-4.61
322.337	69.12
322.55	42.5
322.763	17.92
322.977	-25.09
323.19	-14.85
323.403	85.5
323.617	-33.28
323.83	103.93
324.043	13.82
324.256	46.59
324.469	-10.75
324.683	81.41
324.896	5.63
325.109	40.45
325.322	-31.23
325.535	9.73
325.748	1.54
325.962	3.58
326.175	28.16
326.388	36.35
326.601	-18.94
326.814	-23.04
327.027	93.69
327.24	54.78
327.453	-43.52
327.666	7.68
327.879	62.98
328.092	73.21
328.305	87.55
328.518	19.97
328.731	30.21
328.944	62.98
329.157	7.68
329.37	-14.85
329.583	75.26
329.796	144.89
330.009	-25.09
330.222	-0.51
330.435	22.02
330.648	15.87
330.861	-14.85
331.073	73.21
331.286	24.06
331.499	65.02
331.712	-31.23
331.925	9.73
332.138	-59.9
332.35	48.64
332.563	-0.51
332.776	77.31
332.989	17.92
333.202	-14.85
333.414	-12.8
333.627	11.78
333.84	13.82
334.053	58.88
334.265	-8.7
334.478	54.78
334.691	99.84
334.903	17.92
335.116	60.93
335.329	26.11
335.541	3.58
335.754	-0.51
335.966	42.5
336.179	7.68
336.392	7.68
336.604	38.4
336.817	3.58
337.029	91.65
337.242	-55.81
337.454	50.69
337.667	5.63
337.88	36.35
338.092	24.06
338.305	38.4
338.517	50.69
338.729	91.65
338.942	40.45
339.154	26.11
339.367	15.87
339.579	58.88
339.792	30.21
340.004	13.82
340.217	-20.99
340.429	26.11
340.641	-51.71
340.854	22.02
341.066	11.78
341.278	60.93
341.491	62.98
341.703	60.93
341.915	1.54
342.128	52.74
342.34	-0.51
342.552	24.06
342.764	46.59
342.977	81.41
343.189	24.06
343.401	24.06
343.613	-57.86
343.826	32.26
344.038	19.97
344.25	5.63
344.462	13.82
344.674	40.45
344.886	58.88
345.099	75.26
345.311	38.4
345.523	28.16
345.735	30.21
345.947	26.11
346.159	79.36
346.371	52.74
346.583	3.58
346.795	60.93
347.007	-12.8
347.219	-12.8
347.431	-37.38
347.643	91.65
347.855	-96.77
348.067	75.26
348.279	9.73
348.491	24.06
348.703	67.07
348.915	1.54
349.127	-12.8
349.339	5.63
349.551	-8.7
349.763	60.93
349.975	52.74
350.187	132.61
350.399	34.3
350.61	-29.18
350.822	-2.56
351.034	-47.62
351.246	62.98
351.458	75.26
351.669	-8.7
351.881	114.17
352.093	30.21
352.305	58.88
352.517	40.45
352.728	42.5
352.94	34.3
353.152	73.21
353.363	-18.94
353.575	38.4
353.787	99.84
353.999	-4.61
354.21	60.93
354.422	48.64
354.633	17.92
354.845	1.54
355.057	38.4
355.268	58.88
355.48	-4.61
355.692	120.32
355.903	-12.8
356.115	75.26
356.326	26.11
356.538	77.31
356.749	-0.51
356.961	73.21
357.172	7.68
357.384	24.06
357.595	56.83
357.807	1.54
358.018	-4.61
358.23	-6.66
358.441	54.78
358.653	85.5
358.864	71.17
359.075	58.88
359.287	52.74
359.498	77.31
359.709	65.02
359.921	7.68
360.132	77.31
360.344	93.69
360.555	73.21
360.766	44.54
360.977	30.21
361.189	124.41
361.4	24.06
361.611	46.59
361.823	54.78
362.034	-29.18
362.245	-45.57
362.456	44.54
362.667	42.5
362.879	-14.85
363.09	46.59
363.301	1.54
363.512	44.54
363.723	-25.09
363.935	-2.56
364.146	60.93
364.357	28.16
364.568	24.06
364.779	-31.23
364.99	157.18
365.201	9.73
365.412	75.26
365.623	-37.38
365.834	91.65
366.045	60.93
366.256	101.89
366.467	73.21
366.678	22.02
366.889	32.26
367.1	-8.7
367.311	62.98
367.522	-55.81
367.733	38.4
367.944	38.4
368.155	15.87
368.366	73.21
368.577	13.82
368.788	116.22
368.999	-16.9
369.209	-72.19
369.42	46.59
369.631	108.03
369.842	19.97
370.053	40.45
370.264	67.07
370.474	30.21
370.685	-31.23
370.896	36.35
371.107	52.74
371.317	38.4
371.528	87.55
371.739	48.64
371.95	46.59
372.16	71.17
372.371	17.92
372.582	17.92
372.792	13.82
373.003	48.64
373.214	-2.56
373.424	13.82
373.635	-16.9
373.846	-39.42
374.056	15.87
374.267	32.26
374.477	75.26
374.688	112.13
374.898	46.59
375.109	19.97
375.319	17.92
375.53	75.26
375.74	-10.75
375.951	40.45
376.161	75.26
376.372	75.26
376.582	30.21
376.793	34.3
377.003	15.87
377.214	36.35
377.424	32.26
377.635	65.02
377.845	-2.56
378.055	99.84
378.266	34.3
378.476	44.54
378.686	42.5
378.897	9.73
379.107	9.73
379.317	15.87
379.528	22.02
379.738	73.21
379.948	-57.86
380.158	108.03
380.369	24.06
380.579	52.74
380.789	38.4
380.999	5.63
381.21	11.78
381.42	17.92
381.63	15.87
381.84	-8.7
382.05	3.58
382.261	101.89
382.471	79.36
382.681	36.35
382.891	73.21
383.101	26.11
383.311	34.3
383.521	-8.7
383.731	89.6
383.941	71.17
384.151	15.87
384.361	-57.86
384.571	105.98
384.781	19.97
384.991	120.32
385.201	99.84
385.411	34.3
385.621	-14.85
385.831	75.26
386.041	30.21
386.251	22.02
386.461	91.65
386.671	17.92
386.881	11.78
387.091	26.11
387.301	93.69
387.511	36.35
387.72	19.97
387.93	81.41
388.14	44.54
388.35	-70.14
388.56	-2.56
388.769	13.82
388.979	56.83
389.189	32.26
389.399	-51.71
389.609	-43.52
389.818	52.74
390.028	71.17
390.238	-2.56
390.447	65.02
390.657	40.45
390.867	-8.7
391.076	62.98
391.286	56.83
391.496	85.5
391.705	28.16
391.915	97.79
392.125	34.3
392.334	97.79
392.544	17.92
392.753	11.78
392.963	38.4
393.172	34.3
393.382	17.92
393.591	67.07
393.801	28.16
394.01	101.89
394.22	15.87
394.429	9.73
394.639	48.64
394.848	46.59
395.058	73.21
395.267	24.06
395.477	-12.8
395.686	50.69
395.895	69.12
396.105	44.54
396.314	24.06
396.524	46.59
396.733	11.78
396.942	60.93
397.152	95.74
397.361	99.84
397.57	62.98
397.78	108.03
397.989	116.22
398.198	81.41
398.407	83.45
398.617	30.21
398.826	50.69
399.035	126.46
399.244	75.26
399.453	83.45
399.663	93.69
399.872	101.89
400.081	89.6
400.29	126.46
400.499	46.59
400.708	67.07
400.917	32.26
401.127	97.79
401.336	58.88
401.545	87.55
401.754	30.21
401.963	112.13
402.172	71.17
402.381	-0.51
402.59	95.74
402.799	124.41
403.008	95.74
403.217	52.74
403.426	60.93
403.635	222.72
403.844	101.89
404.053	30.21
404.262	89.6
404.471	124.41
404.68	60.93
404.888	89.6
405.097	87.55
405.306	75.26
405.515	153.09
405.724	77.31
405.933	163.33
406.142	118.27
406.35	114.17
406.559	101.89
406.768	81.41
406.977	105.98
407.185	110.08
407.394	148.99
407.603	120.32
407.812	132.61
408.02	214.52
408.229	194.05
408.438	189.95
408.646	169.47
408.855	114.17
409.064	169.47
409.272	157.18
409.481	163.33
409.69	214.52
409.898	269.82
410.107	157.18
410.315	222.72
410.524	171.52
410.733	292.35
410.941	245.24
411.15	239.1
411.358	239.1
411.567	282.11
411.775	216.57
411.984	282.11
412.192	284.16
412.401	306.68
412.609	325.12
412.818	325.12
413.026	288.25
413.234	359.93
413.443	361.98
413.651	329.21
413.86	398.84
414.068	337.4
414.276	409.08
414.485	335.35
414.693	460.28
414.901	486.9
415.11	499.19
415.318	447.99
415.526	509.43
415.734	519.67
415.943	515.58
416.151	558.58
416.359	552.44
416.567	595.45
416.776	587.26
416.984	689.65
417.192	689.65
417.4	650.74
417.608	640.5
417.817	656.89
418.025	818.68
418.233	812.53
418.441	798.2
418.649	779.76
418.857	802.29
419.065	849.4
419.273	857.59
419.481	923.12
419.689	941.55
419.897	970.23
420.105	1002.99
420.313	1076.72
420.521	1070.58
420.729	1121.77
420.937	1125.87
421.145	1226.22
421.353	1258.99
421.561	1320.43
421.769	1398.25
421.977	1302
422.185	1295.85
422.393	1445.35
422.601	1566.18
422.809	1641.96
423.017	1431.02
423.224	1666.53
423.432	1678.82
423.64	1658.34
423.848	1805.8
424.056	1617.38
424.263	1961.44
424.471	2037.22
424.679	1934.82
424.887	2002.4
425.094	2110.94
425.302	2112.99
425.51	2217.44
425.718	2239.97
425.925	2405.85
426.133	2309.6
426.341	2528.73
426.548	2592.22
426.756	2596.31
426.964	2704.85
427.171	2784.73
427.379	2864.6
427.586	3063.25
427.794	2964.95
428.001	3177.94
428.209	3304.91
428.417	3268.05
428.624	3423.69
428.832	3521.99
429.039	3521.99
429.247	3507.66
429.454	3777.99
429.662	4013.51
429.869	3722.7
430.076	4130.24
430.284	4007.36
430.491	4150.72
430.699	4353.47
430.906	4351.42
431.114	4345.28
431.321	4627.9
431.528	4720.06
431.736	4908.47
431.943	5066.16
432.15	5127.6
432.358	5027.25
432.565	5348.78
432.772	5496.24
432.979	5563.82
433.187	5623.21
433.394	5866.92
433.601	6135.2
433.808	6233.5
434.016	6051.24
434.223	6473.12
434.43	6849.94
434.637	6563.23
434.844	7005.59
435.052	7214.48
435.259	7222.67
435.466	7339.41
435.673	7163.28
435.88	7638.41
436.087	8150.4
436.294	8000.9
436.501	7865.74
436.708	8045.96
436.915	8195.46
437.122	8510.85
437.329	8562.05
437.537	8879.48
437.743	9133.43
437.95	8775.03
438.157	9368.95
438.364	9706.86
438.571	9852.27
438.778	9985.38
438.985	10806.62
439.192	10446.18
439.399	10675.55
439.606	10425.7
439.813	10790.24
440.02	11517.26
440.227	11414.87
440.433	11279.7
440.64	11949.39
440.847	11595.09
441.054	11898.19
441.261	12584.26
441.467	12703.04
441.674	12821.82
441.881	13276.47
442.088	13155.64
442.294	13231.41
442.501	13577.52
442.708	13790.51
442.914	14273.83
443.121	14755.1
443.328	14445.86
443.534	15695.12
443.741	15097.11
443.948	14871.84
444.154	15873.29
444.361	16022.8
444.568	16045.32
444.774	16203.02
444.981	16329.99
445.187	16665.86
445.394	17468.66
445.6	17204.47
445.807	18875.62
446.013	18029.8
446.22	18375.91
446.426	19135.71
446.633	19258.59
446.839	19946.7
447.046	19178.72
447.252	20233.42
447.459	20194.51
447.665	20153.55
447.871	21318.84
448.078	22070.45
448.284	21087.42
448.491	21208.25
448.697	22367.4
448.903	22908.07
449.11	22938.79
449.316	22377.64
449.522	22955.17
449.728	23635.1
449.935	23710.87
450.141	23663.77
450.347	24302.73
450.553	23395.48
450.76	23749.78
450.966	24747.14
451.172	24272.01
451.378	24648.84
451.584	24296.59
451.791	24818.82
451.997	25093.25
452.203	25447.55
452.409	25283.71
452.615	25560.19
452.821	24511.63
453.027	23954.58
453.233	25246.85
453.44	24331.4
453.646	24442
453.852	25044.1
454.058	25158.78
454.264	24407.18
454.47	25207.94
454.676	24280.21
454.882	25445.5
455.088	22963.36
455.294	23202.97
455.5	23440.54
455.705	23858.32
455.911	23237.79
456.117	22758.56
456.323	22467.75
456.529	20960.45
456.735	22197.42
456.941	21490.87
457.147	21060.8
457.352	20208.84
457.558	20374.73
457.764	20411.59
457.97	20151.5
458.176	19391.7
458.381	19412.18
458.587	18504.93
458.793	18633.96
458.999	17597.68
459.204	18752.74
459.41	18523.37
459.616	17016.06
459.821	17294.58
460.027	16991.48
460.233	16704.77
460.438	16065.8
460.644	16194.82
460.85	15224.09
461.055	15099.16
461.261	15252.76
461.466	14085.42
461.672	13485.36
461.878	14306.6
462.083	13278.52
462.289	13198.65
462.494	12852.54
462.7	12721.47
462.905	12346.69
463.111	12444.99
463.316	12737.85
463.522	12416.32
463.727	12453.19
463.932	12459.33
464.138	12270.92
464.343	12291.4
464.549	12078.41
464.754	12397.89
464.959	12195.14
465.165	12082.5
465.37	11683.15
465.575	11175.25
465.781	11640.14
465.986	11892.04
466.191	11337.04
466.397	11294.04
466.602	10585.44
466.807	11091.29
467.012	11115.86
467.218	10898.78
467.423	11021.66
467.628	11007.32
467.833	11513.17
468.038	11165.01
468.244	10597.73
