Data from USB4F104151__77__12-27-51-911.txt Node

Date: Fri Mar 14 12:27:51 EDT 2025
User: louis
Spectrometer: USB4F10415
Trigger mode: 4
Integration Time (sec): 2.000000E-2
Scans to average: 1
Electric dark correction enabled: true
Nonlinearity correction enabled: false
Boxcar width: 0
XAxis mode: Wavelengths
Number of Pixels in Spectrum: 3648
>>>>>Begin Spectral Data<<<<<
178.204	-95.06
178.424	-95.06
178.644	-95.06
178.864	-88.92
179.084	-72.53
179.304	-25.43
179.524	-74.58
179.744	17.58
179.964	31.91
180.184	25.77
180.404	1.19
180.624	-9.05
180.844	50.35
181.064	-41.81
181.283	9.39
181.503	-39.76
181.723	54.44
181.943	-50
182.163	50.35
182.383	48.3
182.602	64.68
182.822	89.26
183.042	85.16
183.262	-23.38
183.482	66.73
183.701	7.34
183.921	54.44
184.141	-25.43
184.361	130.22
184.58	11.43
184.8	31.91
185.02	68.78
185.239	44.2
185.459	115.88
185.679	132.26
185.898	19.63
186.118	9.39
186.338	-29.52
186.557	62.63
186.777	17.58
186.997	-0.85
187.216	-4.95
187.436	156.84
187.655	13.48
187.875	68.78
188.095	68.78
188.314	31.91
188.534	36.01
188.753	-13.14
188.973	-2.9
189.192	79.02
189.412	19.63
189.631	17.58
189.851	-43.86
190.07	85.16
190.29	-7
190.509	66.73
190.729	31.91
190.948	97.45
191.168	140.46
191.387	38.06
191.607	42.15
191.826	109.74
192.045	64.68
192.265	81.07
192.484	46.25
192.704	76.97
192.923	3.24
193.142	93.35
193.362	42.15
193.581	48.3
193.8	7.34
194.02	23.72
194.239	9.39
194.458	70.83
194.678	29.87
194.897	-0.85
195.116	-17.24
195.335	97.45
195.555	79.02
195.774	33.96
195.993	-82.77
196.212	7.34
196.432	3.24
196.651	7.34
196.87	33.96
197.089	99.5
197.308	38.06
197.528	60.59
197.747	68.78
197.966	64.68
198.185	130.22
198.404	52.39
198.623	36.01
198.842	33.96
199.062	64.68
199.281	-0.85
199.5	81.07
199.719	91.31
199.938	48.3
200.157	-2.9
200.376	-2.9
200.595	60.59
200.814	-7
201.033	113.83
201.252	29.87
201.471	11.43
201.69	111.78
201.909	1.19
202.128	54.44
202.347	97.45
202.566	-7
202.785	48.3
203.004	19.63
203.223	42.15
203.442	29.87
203.661	11.43
203.879	68.78
204.098	60.59
204.317	-2.9
204.536	83.11
204.755	-17.24
204.974	93.35
205.193	11.43
205.411	85.16
205.63	70.83
205.849	-41.81
206.068	-15.19
206.287	48.3
206.505	99.5
206.724	-13.14
206.943	13.48
207.162	130.22
207.381	5.29
207.599	58.54
207.818	15.53
208.037	130.22
208.255	72.87
208.474	66.73
208.693	13.48
208.911	46.25
209.13	29.87
209.349	-7
209.567	60.59
209.786	134.31
210.005	33.96
210.223	56.49
210.442	17.58
210.661	95.4
210.879	-9.05
211.098	11.43
211.316	-31.57
211.535	31.91
211.753	81.07
211.972	95.4
212.191	31.91
212.409	27.82
212.628	56.49
212.846	36.01
213.065	50.35
213.283	52.39
213.502	52.39
213.72	9.39
213.938	95.4
214.157	-13.14
214.375	68.78
214.594	66.73
214.812	126.12
215.031	-0.85
215.249	-17.24
215.467	93.35
215.686	50.35
215.904	124.07
216.122	15.53
216.341	64.68
216.559	97.45
216.778	40.11
216.996	85.16
217.214	19.63
217.432	-37.72
217.651	-2.9
217.869	58.54
218.087	23.72
218.306	-23.38
218.524	68.78
218.742	17.58
218.96	91.31
219.179	62.63
219.397	89.26
219.615	42.15
219.833	64.68
220.051	-2.9
220.27	72.87
220.488	-21.33
220.706	-33.62
220.924	81.07
221.142	74.92
221.36	74.92
221.578	-7
221.796	-76.63
222.015	48.3
222.233	25.77
222.451	87.21
222.669	9.39
222.887	25.77
223.105	-25.43
223.323	27.82
223.541	60.59
223.759	115.88
223.977	-25.43
224.195	70.83
224.413	50.35
224.631	66.73
224.849	38.06
225.067	83.11
225.285	13.48
225.503	83.11
225.721	-31.57
225.939	3.24
226.157	21.67
226.375	156.84
226.592	-60.24
226.81	31.91
227.028	40.11
227.246	158.89
227.464	99.5
227.682	33.96
227.9	5.29
228.117	103.59
228.335	66.73
228.553	66.73
228.771	23.72
228.989	21.67
229.206	-25.43
229.424	44.2
229.642	36.01
229.86	89.26
230.077	74.92
230.295	122.02
230.513	76.97
230.731	79.02
230.948	36.01
231.166	23.72
231.384	17.58
231.601	23.72
231.819	44.2
232.037	27.82
232.254	23.72
232.472	25.77
232.689	62.63
232.907	38.06
233.125	-0.85
233.342	54.44
233.56	40.11
233.777	-41.81
233.995	17.58
234.213	54.44
234.43	83.11
234.648	54.44
234.865	21.67
235.083	38.06
235.3	79.02
235.518	7.34
235.735	117.93
235.953	42.15
236.17	124.07
236.388	33.96
236.605	103.59
236.822	128.17
237.04	56.49
237.257	54.44
237.475	58.54
237.692	111.78
237.909	85.16
238.127	-11.09
238.344	31.91
238.562	68.78
238.779	33.96
238.996	-50
239.214	56.49
239.431	-9.05
239.648	-25.43
239.865	36.01
240.083	89.26
240.3	68.78
240.517	36.01
240.735	66.73
240.952	27.82
241.169	25.77
241.386	42.15
241.603	83.11
241.821	48.3
242.038	27.82
242.255	95.4
242.472	5.29
242.689	113.83
242.907	48.3
243.124	13.48
243.341	72.87
243.558	19.63
243.775	3.24
243.992	-4.95
244.209	50.35
244.426	62.63
244.643	74.92
244.86	48.3
245.078	38.06
245.295	-31.57
245.512	54.44
245.729	64.68
245.946	60.59
246.163	97.45
246.38	70.83
246.597	21.67
246.814	99.5
247.031	58.54
247.248	-27.48
247.464	64.68
247.681	54.44
247.898	-25.43
248.115	15.53
248.332	-50
248.549	54.44
248.766	42.15
248.983	23.72
249.2	93.35
249.417	-4.95
249.633	38.06
249.85	11.43
250.067	79.02
250.284	46.25
250.501	50.35
250.717	64.68
250.934	-13.14
251.151	58.54
251.368	-47.96
251.585	50.35
251.801	52.39
252.018	54.44
252.235	15.53
252.451	48.3
252.668	64.68
252.885	-33.62
253.102	42.15
253.318	9.39
253.535	62.63
253.752	60.59
253.968	3.24
254.185	-15.19
254.401	-2.9
254.618	-17.24
254.835	76.97
255.051	122.02
255.268	48.3
255.484	66.73
255.701	-9.05
255.917	87.21
256.134	36.01
256.351	-13.14
256.567	40.11
256.784	36.01
257	-99.16
257.217	68.78
257.433	68.78
257.65	91.31
257.866	87.21
258.082	60.59
258.299	11.43
258.515	72.87
258.732	56.49
258.948	79.02
259.165	-25.43
259.381	46.25
259.597	46.25
259.814	70.83
260.03	42.15
260.246	46.25
260.463	46.25
260.679	29.87
260.895	46.25
261.112	25.77
261.328	23.72
261.544	72.87
261.761	60.59
261.977	56.49
262.193	36.01
262.409	76.97
262.626	54.44
262.842	62.63
263.058	5.29
263.274	148.65
263.49	5.29
263.707	66.73
263.923	29.87
264.139	85.16
264.355	58.54
264.571	68.78
264.787	79.02
265.004	60.59
265.22	74.92
265.436	79.02
265.652	79.02
265.868	15.53
266.084	29.87
266.3	87.21
266.516	38.06
266.732	42.15
266.948	46.25
267.164	9.39
267.38	79.02
267.596	17.58
267.812	93.35
268.028	74.92
268.244	25.77
268.46	74.92
268.676	109.74
268.892	93.35
269.108	74.92
269.324	9.39
269.54	-0.85
269.756	60.59
269.972	-15.19
270.188	-58.2
270.403	68.78
270.619	15.53
270.835	33.96
271.051	58.54
271.267	109.74
271.483	52.39
271.698	85.16
271.914	56.49
272.13	38.06
272.346	1.19
272.562	31.91
272.777	76.97
272.993	21.67
273.209	89.26
273.425	-68.44
273.64	40.11
273.856	142.5
274.072	-50
274.287	87.21
274.503	23.72
274.719	40.11
274.934	36.01
275.15	-13.14
275.366	56.49
275.581	56.49
275.797	11.43
276.012	126.12
276.228	87.21
276.444	23.72
276.659	95.4
276.875	44.2
277.09	68.78
277.306	97.45
277.521	7.34
277.737	21.67
277.952	-37.72
278.168	66.73
278.383	132.26
278.599	13.48
278.814	42.15
279.03	-2.9
279.245	76.97
279.461	23.72
279.676	58.54
279.892	15.53
280.107	74.92
280.322	44.2
280.538	54.44
280.753	-13.14
280.969	29.87
281.184	15.53
281.399	95.4
281.615	19.63
281.83	60.59
282.045	38.06
282.26	-7
282.476	21.67
282.691	85.16
282.906	44.2
283.122	79.02
283.337	76.97
283.552	74.92
283.767	31.91
283.983	64.68
284.198	76.97
284.413	103.59
284.628	66.73
284.843	76.97
285.058	23.72
285.274	54.44
285.489	21.67
285.704	31.91
285.919	48.3
286.134	85.16
286.349	9.39
286.564	-7
286.779	56.49
286.995	81.07
287.21	25.77
287.425	115.88
287.64	87.21
287.855	40.11
288.07	-0.85
288.285	33.96
288.5	83.11
288.715	-23.38
288.93	-43.86
289.145	13.48
289.36	83.11
289.575	64.68
289.79	103.59
290.004	13.48
290.219	42.15
290.434	46.25
290.649	13.48
290.864	7.34
291.079	42.15
291.294	66.73
291.509	79.02
291.724	46.25
291.938	72.87
292.153	111.78
292.368	62.63
292.583	117.93
292.798	148.65
293.012	31.91
293.227	64.68
293.442	19.63
293.657	-29.52
293.871	97.45
294.086	-13.14
294.301	165.03
294.516	95.4
294.73	54.44
294.945	62.63
295.16	50.35
295.374	50.35
295.589	72.87
295.804	3.24
296.018	-11.09
296.233	64.68
296.447	54.44
296.662	68.78
296.877	119.98
297.091	38.06
297.306	54.44
297.52	13.48
297.735	91.31
297.949	21.67
298.164	-0.85
298.378	36.01
298.593	29.87
298.807	87.21
299.022	91.31
299.236	50.35
299.451	13.48
299.665	38.06
299.88	85.16
300.094	-21.33
300.309	79.02
300.523	48.3
300.737	54.44
300.952	46.25
301.166	58.54
301.381	54.44
301.595	-11.09
301.809	3.24
302.024	23.72
302.238	74.92
302.452	89.26
302.667	-27.48
302.881	103.59
303.095	11.43
303.309	50.35
303.524	-2.9
303.738	38.06
303.952	36.01
304.166	115.88
304.381	9.39
304.595	101.55
304.809	72.87
305.023	-4.95
305.237	107.69
305.452	9.39
305.666	81.07
305.88	119.98
306.094	85.16
306.308	101.55
306.522	97.45
306.736	48.3
306.95	33.96
307.164	27.82
307.379	50.35
307.593	62.63
307.807	62.63
308.021	70.83
308.235	27.82
308.449	-4.95
308.663	33.96
308.877	128.17
309.091	-11.09
309.305	42.15
309.519	-9.05
309.733	29.87
309.947	29.87
310.161	89.26
310.374	-11.09
310.588	81.07
310.802	42.15
311.016	64.68
311.23	81.07
311.444	9.39
311.658	40.11
311.872	27.82
312.085	115.88
312.299	74.92
312.513	-27.48
312.727	74.92
312.941	9.39
313.154	46.25
313.368	111.78
313.582	97.45
313.796	60.59
314.009	97.45
314.223	19.63
314.437	130.22
314.651	-15.19
314.864	46.25
315.078	46.25
315.292	38.06
315.505	52.39
315.719	13.48
315.933	44.2
316.146	27.82
316.36	46.25
316.573	40.11
316.787	11.43
317.001	99.5
317.214	21.67
317.428	15.53
317.641	85.16
317.855	29.87
318.068	89.26
318.282	117.93
318.495	70.83
318.709	66.73
318.922	7.34
319.136	89.26
319.349	50.35
319.563	62.63
319.776	62.63
319.99	44.2
320.203	-7
320.417	40.11
320.63	-35.67
320.843	50.35
321.057	138.41
321.27	25.77
321.483	9.39
321.697	-7
321.91	33.96
322.124	50.35
322.337	38.06
322.55	66.73
322.763	29.87
322.977	48.3
323.19	99.5
323.403	52.39
323.617	9.39
323.83	58.54
324.043	87.21
324.256	85.16
324.469	-15.19
324.683	9.39
324.896	38.06
325.109	56.49
325.322	33.96
325.535	97.45
325.748	97.45
325.962	9.39
326.175	31.91
326.388	54.44
326.601	105.64
326.814	-7
327.027	3.24
327.24	25.77
327.453	3.24
327.666	3.24
327.879	58.54
328.092	113.83
328.305	99.5
328.518	42.15
328.731	33.96
328.944	66.73
329.157	156.84
329.37	33.96
329.583	144.55
329.796	33.96
330.009	54.44
330.222	36.01
330.435	62.63
330.648	40.11
330.861	38.06
331.073	13.48
331.286	50.35
331.499	56.49
331.712	-29.52
331.925	70.83
332.138	5.29
332.35	52.39
332.563	38.06
332.776	83.11
332.989	33.96
333.202	56.49
333.414	36.01
333.627	93.35
333.84	70.83
334.053	40.11
334.265	74.92
334.478	48.3
334.691	38.06
334.903	99.5
335.116	52.39
335.329	31.91
335.541	5.29
335.754	33.96
335.966	105.64
336.179	25.77
336.392	42.15
336.604	101.55
336.817	56.49
337.029	111.78
337.242	-19.29
337.454	50.35
337.667	-64.34
337.88	138.41
338.092	103.59
338.305	85.16
338.517	68.78
338.729	13.48
338.942	89.26
339.154	101.55
339.367	25.77
339.579	38.06
339.792	25.77
340.004	89.26
340.217	44.2
340.429	58.54
340.641	93.35
340.854	-9.05
341.066	54.44
341.278	54.44
341.491	3.24
341.703	42.15
341.915	83.11
342.128	119.98
342.34	1.19
342.552	58.54
342.764	-25.43
342.977	-19.29
343.189	99.5
343.401	11.43
343.613	74.92
343.826	44.2
344.038	5.29
344.25	66.73
344.462	107.69
344.674	111.78
344.886	70.83
345.099	66.73
345.311	109.74
345.523	138.41
345.735	99.5
345.947	66.73
346.159	132.26
346.371	107.69
346.583	25.77
346.795	74.92
347.007	13.48
347.219	54.44
347.431	156.84
347.643	81.07
347.855	19.63
348.067	58.54
348.279	-25.43
348.491	60.59
348.703	101.55
348.915	48.3
349.127	-39.76
349.339	79.02
349.551	19.63
349.763	58.54
349.975	-4.95
350.187	138.41
350.399	171.18
350.61	117.93
350.822	68.78
351.034	54.44
351.246	115.88
351.458	79.02
351.669	44.2
351.881	38.06
352.093	-25.43
352.305	136.36
352.517	5.29
352.728	81.07
352.94	27.82
353.152	29.87
353.363	33.96
353.575	103.59
353.787	66.73
353.999	-17.24
354.21	74.92
354.422	85.16
354.633	68.78
354.845	25.77
355.057	154.79
355.268	115.88
355.48	40.11
355.692	60.59
355.903	31.91
356.115	124.07
356.326	13.48
356.538	97.45
356.749	29.87
356.961	68.78
357.172	64.68
357.384	68.78
357.595	76.97
357.807	3.24
358.018	13.48
358.23	50.35
358.441	175.27
358.653	136.36
358.864	-23.38
359.075	44.2
359.287	152.74
359.498	21.67
359.709	85.16
359.921	54.44
360.132	33.96
360.344	91.31
360.555	11.43
360.766	76.97
360.977	40.11
361.189	68.78
361.4	62.63
361.611	70.83
361.823	38.06
362.034	107.69
362.245	44.2
362.456	50.35
362.667	72.87
362.879	62.63
363.09	40.11
363.301	66.73
363.512	105.64
363.723	54.44
363.935	-4.95
364.146	64.68
364.357	46.25
364.568	5.29
364.779	-2.9
364.99	148.65
365.201	68.78
365.412	115.88
365.623	17.58
365.834	148.65
366.045	5.29
366.256	81.07
366.467	36.01
366.678	87.21
366.889	76.97
367.1	40.11
367.311	36.01
367.522	13.48
367.733	95.4
367.944	44.2
368.155	64.68
368.366	74.92
368.577	58.54
368.788	70.83
368.999	103.59
369.209	23.72
369.42	76.97
369.631	85.16
369.842	54.44
370.053	68.78
370.264	23.72
370.474	76.97
370.685	44.2
370.896	97.45
371.107	109.74
371.317	9.39
371.528	97.45
371.739	132.26
371.95	76.97
372.16	46.25
372.371	66.73
372.582	23.72
372.792	56.49
373.003	81.07
373.214	79.02
373.424	99.5
373.635	54.44
373.846	105.64
374.056	81.07
374.267	72.87
374.477	99.5
374.688	40.11
374.898	89.26
375.109	66.73
375.319	107.69
375.53	95.4
375.74	50.35
375.951	81.07
376.161	33.96
376.372	95.4
376.582	68.78
376.793	48.3
377.003	68.78
377.214	107.69
377.424	15.53
377.635	42.15
377.845	58.54
378.055	140.46
378.266	23.72
378.476	91.31
378.686	62.63
378.897	50.35
379.107	25.77
379.317	101.55
379.528	46.25
379.738	113.83
379.948	68.78
380.158	56.49
380.369	132.26
380.579	117.93
380.789	64.68
380.999	146.6
381.21	148.65
381.42	136.36
381.63	19.63
381.84	42.15
382.05	58.54
382.261	85.16
382.471	46.25
382.681	29.87
382.891	79.02
383.101	-27.48
383.311	1.19
383.521	21.67
383.731	87.21
383.941	117.93
384.151	31.91
384.361	56.49
384.571	64.68
384.781	68.78
384.991	44.2
385.201	148.65
385.411	93.35
385.621	13.48
385.831	42.15
386.041	48.3
386.251	60.59
386.461	126.12
386.671	23.72
386.881	93.35
387.091	9.39
387.301	83.11
387.511	38.06
387.72	15.53
387.93	115.88
388.14	13.48
388.35	29.87
388.56	103.59
388.769	87.21
388.979	115.88
389.189	54.44
389.399	113.83
389.609	81.07
389.818	21.67
390.028	83.11
390.238	36.01
390.447	62.63
390.657	50.35
390.867	-27.48
391.076	36.01
391.286	74.92
391.496	101.55
391.705	56.49
391.915	81.07
392.125	52.39
392.334	99.5
392.544	128.17
392.753	119.98
392.963	128.17
393.172	5.29
393.382	81.07
393.591	124.07
393.801	38.06
394.01	33.96
394.22	95.4
394.429	74.92
394.639	76.97
394.848	99.5
395.058	101.55
395.267	85.16
395.477	79.02
395.686	101.55
395.895	109.74
396.105	132.26
396.314	64.68
396.524	119.98
396.733	50.35
396.942	193.7
397.152	44.2
397.361	76.97
397.57	117.93
397.78	95.4
397.989	68.78
398.198	169.13
398.407	115.88
398.617	99.5
398.826	85.16
399.035	81.07
399.244	134.31
399.453	111.78
399.663	83.11
399.872	97.45
400.081	97.45
400.29	134.31
400.499	50.35
400.708	95.4
400.917	95.4
401.127	144.55
401.336	36.01
401.545	189.61
401.754	175.27
401.963	130.22
402.172	101.55
402.381	224.42
402.59	60.59
402.799	171.18
403.008	134.31
403.217	152.74
403.426	236.71
403.635	93.35
403.844	126.12
404.053	152.74
404.262	83.11
404.471	148.65
404.68	87.21
404.888	128.17
405.097	95.4
405.306	134.31
405.515	191.66
405.724	185.51
405.933	138.41
406.142	210.09
406.35	132.26
406.559	220.33
406.768	199.85
406.977	210.09
407.185	230.57
407.394	205.99
407.603	158.89
407.812	228.52
408.02	263.33
408.229	167.08
408.438	281.77
408.646	246.95
408.855	249
409.064	281.77
409.272	277.67
409.481	316.58
409.69	281.77
409.898	306.34
410.107	355.49
410.315	296.1
410.524	423.08
410.733	504.99
410.941	353.45
411.15	314.53
411.358	402.6
411.567	494.76
411.775	351.4
411.984	482.47
412.192	386.21
412.401	543.91
412.609	531.62
412.818	500.9
413.026	570.53
413.234	498.85
413.443	478.37
413.651	554.15
413.86	595.11
414.068	586.91
414.276	548
414.485	617.63
414.693	631.97
414.901	699.55
415.11	617.63
415.318	664.74
415.526	730.27
415.734	750.75
415.943	804
416.151	900.25
416.359	863.39
416.567	892.06
416.776	920.73
416.984	973.98
417.192	1037.47
417.4	1016.99
417.608	1029.27
417.817	994.46
418.025	1105.05
418.233	1135.77
418.441	1143.96
418.649	1250.46
418.857	1309.85
419.065	1270.94
419.273	1254.55
419.481	1344.66
419.689	1467.54
419.897	1473.68
420.105	1498.26
420.313	1553.55
420.521	1647.76
420.729	1639.57
420.937	1756.3
421.145	1713.3
421.353	1840.27
421.561	2004.11
421.769	1952.91
421.977	2126.99
422.185	2014.35
422.393	2141.32
422.601	2342.02
422.809	2303.11
423.017	2434.18
423.224	2466.95
423.432	2520.2
423.64	2557.06
423.848	2724.99
424.056	2741.38
424.263	2872.45
424.471	2962.56
424.679	2937.98
424.887	3110.01
425.094	3159.16
425.302	3273.85
425.51	3452.02
425.718	3456.12
425.925	3529.84
426.133	3603.57
426.341	3728.5
426.548	3902.58
426.756	4027.5
426.964	3955.82
427.171	4269.16
427.379	4404.33
427.586	4406.38
427.794	4422.76
428.001	4787.3
428.209	5016.67
428.417	4916.32
428.624	5205.08
428.832	5393.5
429.039	5344.35
429.247	5192.8
429.454	5737.56
429.662	6110.29
429.869	5665.88
430.076	6194.25
430.284	6009.93
430.491	6366.28
430.699	6620.23
430.906	6638.66
431.114	6683.72
431.321	6980.67
431.528	7183.42
431.736	7586.87
431.943	7756.85
432.15	7617.59
432.358	7910.45
432.565	8123.44
432.772	8166.45
432.979	8610.86
433.187	8614.95
433.394	8770.6
433.601	9309.21
433.808	9376.8
434.016	9397.28
434.223	9559.06
434.43	10320.91
434.637	10134.54
434.844	10746.89
435.052	10867.72
435.259	10927.11
435.466	10855.43
435.673	10775.56
435.88	11602.94
436.087	12327.92
436.294	11973.62
436.501	11824.12
436.708	12286.96
436.915	12585.96
437.122	13444.06
437.329	13245.41
437.537	13339.62
437.743	13761.5
437.95	13765.59
438.157	14382.03
438.364	15084.48
438.571	14922.69
438.778	14932.93
438.985	16634.8
439.192	15674.3
439.399	16333.75
439.606	16010.17
439.813	16763.82
440.02	17787.8
440.227	17392.55
440.433	17263.52
440.64	18068.37
440.847	17963.93
441.054	18228.12
441.261	19409.79
441.467	19176.33
441.674	19741.57
441.881	20175.73
442.088	20321.14
442.294	20171.64
442.501	20618.1
442.708	20839.28
442.914	22057.82
443.121	22643.54
443.328	22252.38
443.534	23741.25
443.741	23173.96
443.948	22903.63
444.154	24609.59
444.361	24322.87
444.568	24572.72
444.774	24574.77
444.981	24873.78
445.187	25617.19
445.394	26907.41
445.6	26663.7
445.807	28611.32
446.013	27577.09
446.22	28175.1
446.426	29510.38
446.633	29469.42
446.839	30530.26
447.046	29274.86
447.252	30835.41
447.459	31050.45
447.665	31046.35
447.871	32305.85
448.078	33727.14
448.284	32154.3
448.491	32989.88
448.697	34122.4
448.903	34833.05
449.11	34962.07
449.316	34583.19
449.522	35326.61
449.728	36084.36
449.935	36737.66
450.141	36002.44
450.347	37257.84
450.553	35979.91
450.76	36424.32
450.966	37902.95
451.172	37169.78
451.378	38414.94
451.584	37503.6
451.791	38423.14
451.997	38404.7
452.203	38834.78
452.409	38849.11
452.615	38492.77
452.821	37491.31
453.027	37094
453.233	39111.25
453.44	37243.51
453.646	37462.64
453.852	37878.38
454.058	38883.93
454.264	37726.83
454.47	38232.68
454.676	37280.37
454.882	38826.59
455.088	35476.11
455.294	35811.98
455.5	36459.13
455.705	36573.82
455.911	35398.29
456.117	34747.03
456.323	33915.56
456.529	32346.81
456.735	34017.96
456.941	32985.78
457.147	32187.07
457.352	31759.05
457.558	31302.35
457.764	31410.89
457.97	30608.09
458.176	29993.7
458.381	30005.98
458.587	28451.58
458.793	28347.13
458.999	27114.25
459.204	28922.61
459.41	28449.53
459.616	26137.37
459.821	26419.99
460.027	26053.41
460.233	25889.57
460.438	24279.86
460.644	24861.49
460.85	23671.62
461.055	23104.33
461.261	23284.55
461.466	21420.9
461.672	20794.22
461.878	22311.77
462.083	20753.26
462.289	20540.27
462.494	20185.97
462.7	19442.56
462.905	18721.68
463.111	19467.14
463.316	19598.21
463.522	19049.35
463.727	19264.39
463.932	19301.25
464.138	19268.48
464.343	19043.21
464.549	18504.59
464.754	19207.05
464.959	19057.54
465.165	18938.76
465.37	17927.07
465.575	17687.45
465.781	18197.4
465.986	18187.16
466.191	17337.25
466.397	17443.74
466.602	16567.21
466.807	17284
467.012	17197.99
467.218	16921.51
467.423	16870.31
467.628	16839.59
467.833	17705.88
