Data from USB4F104151__20__12-27-06-396.txt Node

Date: Fri Mar 14 12:27:06 EDT 2025
User: louis
Spectrometer: USB4F10415
Trigger mode: 4
Integration Time (sec): 2.000000E-2
Scans to average: 1
Electric dark correction enabled: true
Nonlinearity correction enabled: false
Boxcar width: 0
XAxis mode: Wavelengths
Number of Pixels in Spectrum: 3648
>>>>>Begin Spectral Data<<<<<
178.204	-82.43
178.424	-82.43
178.644	-82.43
178.864	-16.9
179.084	-90.62
179.304	-6.66
179.524	15.87
179.744	-16.9
179.964	-25.09
180.184	-16.9
180.404	50.69
180.624	-33.28
180.844	11.78
181.064	-23.04
181.283	17.92
181.503	-23.04
181.723	48.64
181.943	30.21
182.163	-4.61
182.383	24.06
182.602	83.45
182.822	56.83
183.042	73.21
183.262	22.02
183.482	46.59
183.701	52.74
183.921	83.45
184.141	-25.09
184.361	19.97
184.58	24.06
184.8	52.74
185.02	-14.85
185.239	-6.66
185.459	108.03
185.679	-6.66
185.898	-45.57
186.118	-14.85
186.338	5.63
186.557	56.83
186.777	-12.8
186.997	30.21
187.216	-31.23
187.436	79.36
187.655	67.07
187.875	65.02
188.095	22.02
188.314	42.5
188.534	34.3
188.753	7.68
188.973	36.35
189.192	19.97
189.412	40.45
189.631	-27.14
189.851	-4.61
190.07	95.74
190.29	-33.28
190.509	44.54
190.729	-12.8
190.948	13.82
191.168	73.21
191.387	42.5
191.607	-39.42
191.826	3.58
192.045	19.97
192.265	77.31
192.484	32.26
192.704	95.74
192.923	-12.8
193.142	28.16
193.362	40.45
193.581	71.17
193.8	5.63
194.02	56.83
194.239	-12.8
194.458	-12.8
194.678	-29.18
194.897	-18.94
195.116	62.98
195.335	34.3
195.555	42.5
195.774	-39.42
195.993	-43.52
196.212	28.16
196.432	-12.8
196.651	-8.7
196.87	-4.61
197.089	48.64
197.308	-8.7
197.528	65.02
197.747	-4.61
197.966	-55.81
198.185	38.4
198.404	60.93
198.623	79.36
198.842	126.46
199.062	11.78
199.281	67.07
199.5	30.21
199.719	69.12
199.938	62.98
200.157	69.12
200.376	30.21
200.595	67.07
200.814	-39.42
201.033	-57.86
201.252	54.78
201.471	120.32
201.69	24.06
201.909	40.45
202.128	87.55
202.347	81.41
202.566	-18.94
202.785	-20.99
203.004	11.78
203.223	58.88
203.442	-18.94
203.661	7.68
203.879	-4.61
204.098	95.74
204.317	26.11
204.536	26.11
204.755	32.26
204.974	65.02
205.193	13.82
205.411	54.78
205.63	134.65
205.849	30.21
206.068	-25.09
206.287	-47.62
206.505	56.83
206.724	1.54
206.943	56.83
207.162	-27.14
207.381	56.83
207.599	9.73
207.818	-12.8
208.037	22.02
208.255	52.74
208.474	56.83
208.693	48.64
208.911	46.59
209.13	13.82
209.349	46.59
209.567	-12.8
209.786	1.54
210.005	-0.51
210.223	3.58
210.442	22.02
210.661	36.35
210.879	-18.94
211.098	3.58
211.316	-33.28
211.535	-41.47
211.753	48.64
211.972	1.54
212.191	60.93
212.409	24.06
212.628	83.45
212.846	-27.14
213.065	-37.38
213.283	56.83
213.502	-47.62
213.72	87.55
213.938	44.54
214.157	60.93
214.375	79.36
214.594	-37.38
214.812	-2.56
215.031	15.87
215.249	32.26
215.467	79.36
215.686	1.54
215.904	36.35
216.122	13.82
216.341	24.06
216.559	40.45
216.778	13.82
216.996	3.58
217.214	58.88
217.432	3.58
217.651	-33.28
217.869	99.84
218.087	34.3
218.306	118.27
218.524	32.26
218.742	-4.61
218.96	48.64
219.179	38.4
219.397	-2.56
219.615	32.26
219.833	67.07
220.051	-12.8
220.27	52.74
220.488	-23.04
220.706	-64
220.924	-6.66
221.142	-18.94
221.36	13.82
221.578	11.78
221.796	32.26
222.015	-41.47
222.233	79.36
222.451	93.69
222.669	13.82
222.887	3.58
223.105	5.63
223.323	62.98
223.541	-2.56
223.759	93.69
223.977	56.83
224.195	71.17
224.413	-6.66
224.631	-18.94
224.849	36.35
225.067	32.26
225.285	26.11
225.503	32.26
225.721	13.82
225.939	95.74
226.157	38.4
226.375	62.98
226.592	36.35
226.81	-25.09
227.028	60.93
227.246	32.26
227.464	77.31
227.682	95.74
227.9	42.5
228.117	116.22
228.335	-14.85
228.553	44.54
228.771	11.78
228.989	-35.33
229.206	28.16
229.424	83.45
229.642	-25.09
229.86	-6.66
230.077	58.88
230.295	58.88
230.513	54.78
230.731	-2.56
230.948	36.35
231.166	-27.14
231.384	15.87
231.601	5.63
231.819	15.87
232.037	-0.51
232.254	-25.09
232.472	58.88
232.689	52.74
232.907	62.98
233.125	24.06
233.342	101.89
233.56	30.21
233.777	75.26
233.995	9.73
234.213	9.73
234.43	5.63
234.648	83.45
234.865	13.82
235.083	28.16
235.3	79.36
235.518	67.07
235.735	48.64
235.953	134.65
236.17	17.92
236.388	134.65
236.605	17.92
236.822	36.35
237.04	17.92
237.257	73.21
237.475	30.21
237.692	32.26
237.909	26.11
238.127	38.4
238.344	-20.99
238.562	36.35
238.779	-43.52
238.996	-8.7
239.214	-14.85
239.431	89.6
239.648	-51.71
239.865	22.02
240.083	32.26
240.3	15.87
240.517	-31.23
240.735	3.58
240.952	50.69
241.169	44.54
241.386	75.26
241.603	36.35
241.821	52.74
242.038	32.26
242.255	-12.8
242.472	-45.57
242.689	48.64
242.907	22.02
243.124	-33.28
243.341	62.98
243.558	42.5
243.775	-10.75
243.992	50.69
244.209	83.45
244.426	26.11
244.643	75.26
244.86	56.83
245.078	54.78
245.295	34.3
245.512	54.78
245.729	26.11
245.946	56.83
246.163	30.21
246.38	44.54
246.597	58.88
246.814	30.21
247.031	36.35
247.248	60.93
247.464	101.89
247.681	83.45
247.898	56.83
248.115	46.59
248.332	40.45
248.549	13.82
248.766	97.79
248.983	85.5
249.2	-25.09
249.417	26.11
249.633	-8.7
249.85	-20.99
250.067	-39.42
250.284	67.07
250.501	60.93
250.717	17.92
250.934	40.45
251.151	42.5
251.368	-33.28
251.585	36.35
251.801	67.07
252.018	112.13
252.235	138.75
252.451	24.06
252.668	-27.14
252.885	-18.94
253.102	-10.75
253.318	32.26
253.535	-102.91
253.752	56.83
253.968	-59.9
254.185	44.54
254.401	54.78
254.618	44.54
254.835	-35.33
255.051	56.83
255.268	87.55
255.484	67.07
255.701	77.31
255.917	22.02
256.134	-72.19
256.351	60.93
256.567	26.11
256.784	-12.8
257	13.82
257.217	-12.8
257.433	32.26
257.65	42.5
257.866	13.82
258.082	30.21
258.299	9.73
258.515	-25.09
258.732	40.45
258.948	-23.04
259.165	56.83
259.381	-23.04
259.597	22.02
259.814	36.35
260.03	95.74
260.246	17.92
260.463	15.87
260.679	-0.51
260.895	-6.66
261.112	32.26
261.328	52.74
261.544	48.64
261.761	-14.85
261.977	7.68
262.193	30.21
262.409	36.35
262.626	118.27
262.842	44.54
263.058	-29.18
263.274	67.07
263.49	-59.9
263.707	42.5
263.923	71.17
264.139	-55.81
264.355	-0.51
264.571	93.69
264.787	-4.61
265.004	36.35
265.22	50.69
265.436	24.06
265.652	9.73
265.868	50.69
266.084	34.3
266.3	-0.51
266.516	24.06
266.732	-23.04
266.948	-27.14
267.164	67.07
267.38	32.26
267.596	62.98
267.812	56.83
268.028	13.82
268.244	48.64
268.46	-18.94
268.676	44.54
268.892	73.21
269.108	15.87
269.324	48.64
269.54	32.26
269.756	75.26
269.972	54.78
270.188	91.65
270.403	9.73
270.619	-20.99
270.835	9.73
271.051	19.97
271.267	-68.09
271.483	-4.61
271.698	-25.09
271.914	28.16
272.13	-2.56
272.346	24.06
272.562	19.97
272.777	105.98
272.993	-37.38
273.209	34.3
273.425	58.88
273.64	28.16
273.856	-39.42
274.072	-45.57
274.287	32.26
274.503	5.63
274.719	71.17
274.934	40.45
275.15	42.5
275.366	-14.85
275.581	30.21
275.797	13.82
276.012	36.35
276.228	19.97
276.444	22.02
276.659	69.12
276.875	-14.85
277.09	28.16
277.306	19.97
277.521	36.35
277.737	19.97
277.952	85.5
278.168	95.74
278.383	11.78
278.599	67.07
278.814	22.02
279.03	-0.51
279.245	56.83
279.461	-41.47
279.676	30.21
279.892	56.83
280.107	73.21
280.322	38.4
280.538	3.58
280.753	-2.56
280.969	-2.56
281.184	34.3
281.399	40.45
281.615	58.88
281.83	-4.61
282.045	-35.33
282.26	65.02
282.476	-6.66
282.691	97.79
282.906	34.3
283.122	71.17
283.337	46.59
283.552	34.3
283.767	22.02
283.983	-25.09
284.198	50.69
284.413	44.54
284.628	13.82
284.843	32.26
285.058	15.87
285.274	11.78
285.489	60.93
285.704	42.5
285.919	62.98
286.134	54.78
286.349	15.87
286.564	-33.28
286.779	58.88
286.995	7.68
287.21	42.5
287.425	30.21
287.64	-0.51
287.855	34.3
288.07	-45.57
288.285	38.4
288.5	75.26
288.715	83.45
288.93	-43.52
289.145	56.83
289.36	97.79
289.575	30.21
289.79	-10.75
290.004	58.88
290.219	46.59
290.434	-4.61
290.649	13.82
290.864	9.73
291.079	11.78
291.294	3.58
291.509	11.78
291.724	13.82
291.938	-4.61
292.153	30.21
292.368	-23.04
292.583	40.45
292.798	69.12
293.012	52.74
293.227	62.98
293.442	60.93
293.657	48.64
293.871	87.55
294.086	65.02
294.301	36.35
294.516	26.11
294.73	58.88
294.945	24.06
295.16	77.31
295.374	101.89
295.589	24.06
295.804	32.26
296.018	73.21
296.233	77.31
296.447	38.4
296.662	38.4
296.877	17.92
297.091	60.93
297.306	40.45
297.52	-14.85
297.735	112.13
297.949	28.16
298.164	77.31
298.378	30.21
298.593	-23.04
298.807	-47.62
299.022	17.92
299.236	5.63
299.451	-8.7
299.665	34.3
299.88	42.5
300.094	22.02
300.309	28.16
300.523	69.12
300.737	19.97
300.952	15.87
301.166	58.88
301.381	28.16
301.595	11.78
301.809	71.17
302.024	30.21
302.238	65.02
302.452	24.06
302.667	24.06
302.881	89.6
303.095	52.74
303.309	-10.75
303.524	-45.57
303.738	-6.66
303.952	48.64
304.166	69.12
304.381	-8.7
304.595	48.64
304.809	-70.14
305.023	87.55
305.237	22.02
305.452	93.69
305.666	48.64
305.88	62.98
306.094	79.36
306.308	-53.76
306.522	34.3
306.736	9.73
306.95	50.69
307.164	32.26
307.379	-12.8
307.593	79.36
307.807	-10.75
308.021	24.06
308.235	7.68
308.449	-33.28
308.663	56.83
308.877	48.64
309.091	26.11
309.305	56.83
309.519	5.63
309.733	128.51
309.947	28.16
310.161	103.93
310.374	3.58
310.588	5.63
310.802	-68.09
311.016	-18.94
311.23	19.97
311.444	9.73
311.658	62.98
311.872	42.5
312.085	89.6
312.299	87.55
312.513	52.74
312.727	24.06
312.941	-35.33
313.154	40.45
313.368	52.74
313.582	48.64
313.796	5.63
314.009	11.78
314.223	56.83
314.437	71.17
314.651	17.92
314.864	69.12
315.078	52.74
315.292	17.92
315.505	5.63
315.719	60.93
315.933	-4.61
316.146	13.82
316.36	1.54
316.573	28.16
316.787	36.35
317.001	60.93
317.214	-27.14
317.428	89.6
317.641	11.78
317.855	11.78
318.068	13.82
318.282	-53.76
318.495	30.21
318.709	34.3
318.922	19.97
319.136	34.3
319.349	52.74
319.563	46.59
319.776	24.06
319.99	40.45
320.203	101.89
320.417	54.78
320.63	-0.51
320.843	42.5
321.057	-6.66
321.27	71.17
321.483	77.31
321.697	101.89
321.91	28.16
322.124	3.58
322.337	108.03
322.55	22.02
322.763	46.59
322.977	22.02
323.19	99.84
323.403	87.55
323.617	122.37
323.83	15.87
324.043	38.4
324.256	-43.52
324.469	73.21
324.683	32.26
324.896	50.69
325.109	40.45
325.322	24.06
325.535	22.02
325.748	26.11
325.962	28.16
326.175	62.98
326.388	3.58
326.601	32.26
326.814	75.26
327.027	79.36
327.24	15.87
327.453	11.78
327.666	52.74
327.879	79.36
328.092	9.73
328.305	11.78
328.518	36.35
328.731	77.31
328.944	34.3
329.157	97.79
329.37	67.07
329.583	69.12
329.796	13.82
330.009	44.54
330.222	36.35
330.435	36.35
330.648	32.26
330.861	34.3
331.073	44.54
331.286	103.93
331.499	32.26
331.712	5.63
331.925	40.45
332.138	9.73
332.35	46.59
332.563	1.54
332.776	128.51
332.989	-2.56
333.202	-18.94
333.414	71.17
333.627	77.31
333.84	60.93
334.053	7.68
334.265	50.69
334.478	7.68
334.691	34.3
334.903	77.31
335.116	-2.56
335.329	93.69
335.541	36.35
335.754	67.07
335.966	48.64
336.179	13.82
336.392	44.54
336.604	26.11
336.817	62.98
337.029	44.54
337.242	71.17
337.454	44.54
337.667	36.35
337.88	71.17
338.092	30.21
338.305	67.07
338.517	28.16
338.729	101.89
338.942	42.5
339.154	19.97
339.367	13.82
339.579	77.31
339.792	36.35
340.004	75.26
340.217	22.02
340.429	83.45
340.641	38.4
340.854	-0.51
341.066	-4.61
341.278	52.74
341.491	46.59
341.703	36.35
341.915	3.58
342.128	52.74
342.34	-16.9
342.552	42.5
342.764	103.93
342.977	67.07
343.189	71.17
343.401	22.02
343.613	28.16
343.826	-12.8
344.038	99.84
344.25	36.35
344.462	89.6
344.674	81.41
344.886	-4.61
345.099	5.63
345.311	19.97
345.523	7.68
345.735	-8.7
345.947	79.36
346.159	-2.56
346.371	44.54
346.583	77.31
346.795	91.65
347.007	44.54
347.219	-8.7
347.431	97.79
347.643	95.74
347.855	58.88
348.067	34.3
348.279	-45.57
348.491	50.69
348.703	65.02
348.915	101.89
349.127	75.26
349.339	40.45
349.551	85.5
349.763	48.64
349.975	-4.61
350.187	97.79
350.399	62.98
350.61	60.93
350.822	28.16
351.034	-6.66
351.246	26.11
351.458	65.02
351.669	1.54
351.881	3.58
352.093	52.74
352.305	40.45
352.517	103.93
352.728	50.69
352.94	79.36
353.152	32.26
353.363	-23.04
353.575	42.5
353.787	36.35
353.999	93.69
354.21	54.78
354.422	32.26
354.633	7.68
354.845	-4.61
355.057	54.78
355.268	69.12
355.48	120.32
355.692	91.65
355.903	60.93
356.115	-4.61
356.326	-27.14
356.538	146.94
356.749	58.88
356.961	108.03
357.172	52.74
357.384	56.83
357.595	95.74
357.807	-18.94
358.018	13.82
358.23	140.8
358.441	91.65
358.653	40.45
358.864	-10.75
359.075	-2.56
359.287	36.35
359.498	36.35
359.709	3.58
359.921	103.93
360.132	79.36
360.344	99.84
360.555	19.97
360.766	75.26
360.977	58.88
361.189	22.02
361.4	48.64
361.611	105.98
361.823	60.93
362.034	79.36
362.245	-64
362.456	-10.75
362.667	79.36
362.879	32.26
363.09	54.78
363.301	44.54
363.512	48.64
363.723	1.54
363.935	62.98
364.146	58.88
364.357	87.55
364.568	32.26
364.779	-2.56
364.99	101.89
365.201	13.82
365.412	62.98
365.623	19.97
365.834	48.64
366.045	60.93
366.256	48.64
366.467	77.31
366.678	67.07
366.889	73.21
367.1	-0.51
367.311	48.64
367.522	30.21
367.733	38.4
367.944	-8.7
368.155	56.83
368.366	54.78
368.577	28.16
368.788	89.6
368.999	69.12
369.209	69.12
369.42	112.13
369.631	17.92
369.842	-6.66
370.053	77.31
370.264	73.21
370.474	69.12
370.685	89.6
370.896	67.07
371.107	118.27
371.317	67.07
371.528	24.06
371.739	105.98
371.95	58.88
372.16	-16.9
372.371	69.12
372.582	85.5
372.792	13.82
373.003	56.83
373.214	19.97
373.424	30.21
373.635	32.26
373.846	122.37
374.056	22.02
374.267	50.69
374.477	52.74
374.688	73.21
374.898	56.83
375.109	19.97
375.319	91.65
375.53	65.02
375.74	97.79
375.951	9.73
376.161	24.06
376.372	89.6
376.582	36.35
376.793	30.21
377.003	36.35
377.214	-43.52
377.424	-25.09
377.635	91.65
377.845	30.21
378.055	38.4
378.266	60.93
378.476	85.5
378.686	75.26
378.897	116.22
379.107	69.12
379.317	-4.61
379.528	99.84
379.738	71.17
379.948	56.83
380.158	48.64
380.369	62.98
380.579	124.41
380.789	48.64
380.999	30.21
381.21	65.02
381.42	97.79
381.63	19.97
381.84	30.21
382.05	-8.7
382.261	79.36
382.471	52.74
382.681	15.87
382.891	79.36
383.101	93.69
383.311	40.45
383.521	-2.56
383.731	62.98
383.941	73.21
384.151	36.35
384.361	24.06
384.571	30.21
384.781	87.55
384.991	103.93
385.201	155.13
385.411	56.83
385.621	79.36
385.831	26.11
386.041	52.74
386.251	79.36
386.461	130.56
386.671	136.7
386.881	54.78
387.091	91.65
387.301	95.74
387.511	38.4
387.72	44.54
387.93	24.06
388.14	-23.04
388.35	91.65
388.56	81.41
388.769	128.51
388.979	85.5
389.189	15.87
389.399	50.69
389.609	42.5
389.818	101.89
390.028	22.02
390.238	56.83
390.447	34.3
390.657	13.82
390.867	73.21
391.076	79.36
391.286	52.74
391.496	56.83
391.705	17.92
391.915	87.55
392.125	89.6
392.334	177.66
392.544	56.83
392.753	44.54
392.963	103.93
393.172	95.74
393.382	112.13
393.591	118.27
393.801	71.17
394.01	105.98
394.22	120.32
394.429	114.17
394.639	71.17
394.848	48.64
395.058	-0.51
395.267	22.02
395.477	130.56
395.686	95.74
395.895	108.03
396.105	136.7
396.314	62.98
396.524	103.93
396.733	81.41
396.942	83.45
397.152	97.79
397.361	153.09
397.57	95.74
397.78	134.65
397.989	134.65
398.198	46.59
398.407	108.03
398.617	122.37
398.826	65.02
399.035	103.93
399.244	140.8
399.453	108.03
399.663	73.21
399.872	159.23
400.081	85.5
400.29	67.07
400.499	67.07
400.708	185.85
400.917	157.18
401.127	110.08
401.336	24.06
401.545	153.09
401.754	114.17
401.963	93.69
402.172	140.8
402.381	79.36
402.59	67.07
402.799	144.89
403.008	89.6
403.217	108.03
403.426	210.43
403.635	159.23
403.844	173.57
404.053	155.13
404.262	148.99
404.471	224.76
404.68	148.99
404.888	159.23
405.097	173.57
405.306	214.52
405.515	228.86
405.724	151.04
405.933	237.05
406.142	196.09
406.35	192
406.559	212.48
406.768	192
406.977	208.38
407.185	245.24
407.394	243.2
407.603	308.73
407.812	187.9
408.02	249.34
408.229	183.81
408.438	228.86
408.646	300.54
408.855	318.97
409.064	173.57
409.272	286.2
409.481	249.34
409.69	269.82
409.898	269.82
410.107	376.31
410.315	390.65
410.524	312.83
410.733	316.92
410.941	331.26
411.15	443.9
411.358	421.37
411.567	491
411.775	415.23
411.984	343.55
412.192	527.86
412.401	509.43
412.609	499.19
412.818	480.76
413.026	427.51
413.234	577.02
413.443	495.1
413.651	630.26
413.86	669.17
414.068	699.89
414.276	652.79
414.485	654.84
414.693	701.94
414.901	701.94
415.11	783.86
415.318	720.37
415.526	771.57
415.734	845.3
415.943	908.79
416.151	845.3
416.359	873.97
416.567	888.31
416.776	986.61
416.984	1013.23
417.192	1015.28
417.4	1074.67
417.608	1005.04
417.817	1134.06
418.025	1041.9
418.233	1281.52
418.441	1228.27
418.649	1285.61
418.857	1396.2
419.065	1312.24
419.273	1375.72
419.481	1439.21
419.689	1557.99
419.897	1512.94
420.105	1668.58
420.313	1609.19
420.521	1785.32
420.729	1758.69
420.937	1809.89
421.145	1834.47
421.353	2020.83
421.561	2020.83
421.769	2051.55
421.977	2227.68
422.185	2176.48
422.393	2291.17
422.601	2430.43
422.809	2430.43
423.017	2444.76
423.224	2549.21
423.432	2665.94
423.64	2692.57
423.848	2930.13
424.056	2885.08
424.263	3091.92
424.471	3112.4
424.679	3116.5
424.887	3331.53
425.094	3257.81
425.302	3343.82
425.51	3630.54
425.718	3667.4
425.925	3745.22
426.133	3821
426.341	4021.7
426.548	4208.06
426.756	4099.52
426.964	4222.4
427.171	4421.05
427.379	4715.96
427.586	4689.34
427.794	4812.21
428.001	5043.64
428.209	5270.96
428.417	5064.11
428.624	5602.73
428.832	5598.63
429.039	5561.77
429.247	5641.64
429.454	6081.96
429.662	6600.09
429.869	6055.33
430.076	6573.47
430.284	6260.13
430.491	6655.39
430.699	7011.73
430.906	6954.39
431.114	6960.53
431.321	7382.42
431.528	7355.79
431.736	7988.61
431.943	8435.07
432.15	8078.72
432.358	8187.27
432.565	8529.28
432.772	8742.27
432.979	9141.62
433.187	9254.26
433.394	9131.38
433.601	10106.21
433.808	9932.14
434.016	9708.91
434.223	10417.51
434.43	10968.41
434.637	10753.37
434.844	11511.12
435.052	11601.23
435.259	11527.5
435.466	11634
435.673	11513.17
435.88	12258.63
436.087	13014.33
436.294	13020.47
436.501	12647.74
436.708	12905.79
436.915	13253.94
437.122	14001.45
437.329	13804.85
437.537	14359.84
437.743	14722.34
437.95	14505.25
438.157	15410.45
438.364	15975.69
438.571	16117
438.778	15926.54
438.985	17087.74
439.192	16491.78
439.399	17165.56
439.606	16848.13
439.813	17831.15
440.02	18898.14
440.227	18498.79
440.433	18220.27
440.64	19012.83
440.847	18924.77
441.054	19483.86
441.261	20749.51
441.467	20192.46
441.674	20810.95
441.881	21499.06
442.088	21492.92
442.294	21324.99
442.501	21552.31
442.708	22383.79
442.914	23461.02
443.121	24280.21
443.328	23551.13
443.534	25232.51
443.741	24306.83
443.948	24794.25
444.154	26293.36
444.361	26127.47
444.568	26025.07
444.774	26080.37
444.981	26113.14
445.187	26940.52
445.394	28001.36
445.6	27907.16
445.807	30581.81
446.013	29058.12
446.22	29936.7
446.426	30809.13
446.633	31271.97
446.839	32345.11
447.046	30811.18
447.252	32795.66
447.459	32830.48
447.665	32820.24
447.871	34622.45
448.078	35568.61
448.284	34024.44
448.491	34741.23
448.697	36101.08
448.903	36764.62
449.11	36969.42
449.316	36590.55
449.522	37243.85
449.728	37669.83
449.935	38437.81
450.141	38304.7
450.347	39289.77
450.553	37915.58
450.76	38273.98
450.966	39893.92
451.172	39191.47
451.378	40151.96
451.584	39238.57
451.791	40131.48
451.997	40346.52
452.203	41139.08
452.409	41307.02
452.615	40840.08
452.821	39562.15
453.027	38769.58
453.233	40807.31
453.44	39058.35
453.646	40080.28
453.852	40184.73
454.058	40700.82
454.264	39277.48
454.47	39916.45
454.676	39312.3
454.882	40577.94
455.088	37077.96
455.294	37827.52
455.5	38335.42
455.705	38484.92
455.911	37223.37
456.117	36662.22
456.323	35693.54
456.529	34231.29
456.735	35496.93
456.941	34644.98
457.147	34171.89
457.352	33049.61
457.558	33016.84
457.764	32814.09
457.97	32414.74
458.176	31351.84
458.381	31317.03
458.587	29713.47
458.793	29819.96
458.999	28593.23
459.204	30700.59
459.41	29826.1
459.616	27409.5
459.821	27612.25
460.027	27520.09
460.233	26852.45
460.438	25793.65
460.644	25877.62
460.85	24673.42
461.055	24298.64
461.261	24251.53
461.466	22858.92
461.672	21943.47
461.878	23350.43
462.083	22133.93
462.289	21599.41
462.494	21191.87
462.7	20131.02
462.905	19504.34
463.111	20253.9
463.316	20309.19
463.522	20366.54
463.727	20337.87
463.932	20096.21
464.138	19881.17
464.343	20163.79
464.549	19393.75
464.754	19997.9
464.959	19926.22
465.165	19799.25
465.37	19109.08
465.575	18406.63
465.781	19162.33
465.986	19195.1
466.191	18633.96
466.397	17935.6
466.602	17300.73
466.807	18099.44
467.012	17886.45
467.218	17761.52
467.423	17906.93
467.628	17706.23
