Data from USB4F104151__83__12-27-56-310.txt Node

Date: Fri Mar 14 12:27:56 EDT 2025
User: louis
Spectrometer: USB4F10415
Trigger mode: 4
Integration Time (sec): 2.000000E-2
Scans to average: 1
Electric dark correction enabled: true
Nonlinearity correction enabled: false
Boxcar width: 0
XAxis mode: Wavelengths
Number of Pixels in Spectrum: 3648
>>>>>Begin Spectral Data<<<<<
178.204	-88.57
178.424	-88.57
178.644	-88.57
178.864	-107.01
179.084	-98.81
179.304	-27.14
179.524	-23.04
179.744	30.21
179.964	69.12
180.184	-12.8
180.404	54.78
180.624	-20.99
180.844	7.68
181.064	-78.33
181.283	-8.7
181.503	-4.61
181.723	13.82
181.943	-0.51
182.163	60.93
182.383	69.12
182.602	24.06
182.822	38.4
183.042	67.07
183.262	26.11
183.482	56.83
183.701	73.21
183.921	34.3
184.141	-14.85
184.361	62.98
184.58	73.21
184.8	56.83
185.02	-25.09
185.239	93.69
185.459	7.68
185.679	40.45
185.898	75.26
186.118	-4.61
186.338	38.4
186.557	36.35
186.777	-37.38
186.997	71.17
187.216	83.45
187.436	56.83
187.655	24.06
187.875	48.64
188.095	42.5
188.314	30.21
188.534	175.61
188.753	79.36
188.973	91.65
189.192	120.32
189.412	-0.51
189.631	-8.7
189.851	24.06
190.07	87.55
190.29	-0.51
190.509	34.3
190.729	65.02
190.948	24.06
191.168	73.21
191.387	11.78
191.607	48.64
191.826	3.58
192.045	22.02
192.265	67.07
192.484	38.4
192.704	30.21
192.923	1.54
193.142	87.55
193.362	26.11
193.581	89.6
193.8	99.84
194.02	97.79
194.239	42.5
194.458	97.79
194.678	-10.75
194.897	13.82
195.116	30.21
195.335	36.35
195.555	44.54
195.774	42.5
195.993	65.02
196.212	-27.14
196.432	-0.51
196.651	56.83
196.87	13.82
197.089	77.31
197.308	11.78
197.528	48.64
197.747	24.06
197.966	101.89
198.185	24.06
198.404	85.5
198.623	71.17
198.842	48.64
199.062	93.69
199.281	153.09
199.5	19.97
199.719	73.21
199.938	77.31
200.157	75.26
200.376	28.16
200.595	54.78
200.814	71.17
201.033	3.58
201.252	56.83
201.471	132.61
201.69	116.22
201.909	11.78
202.128	136.7
202.347	79.36
202.566	-29.18
202.785	-20.99
203.004	-16.9
203.223	114.17
203.442	83.45
203.661	120.32
203.879	38.4
204.098	138.75
204.317	36.35
204.536	77.31
204.755	-2.56
204.974	103.93
205.193	136.7
205.411	56.83
205.63	22.02
205.849	50.69
206.068	56.83
206.287	-8.7
206.505	26.11
206.724	28.16
206.943	89.6
207.162	19.97
207.381	120.32
207.599	22.02
207.818	13.82
208.037	1.54
208.255	77.31
208.474	28.16
208.693	83.45
208.911	28.16
209.13	38.4
209.349	24.06
209.567	114.17
209.786	-10.75
210.005	13.82
210.223	-8.7
210.442	56.83
210.661	50.69
210.879	-14.85
211.098	134.65
211.316	93.69
211.535	-4.61
211.753	34.3
211.972	-18.94
212.191	126.46
212.409	58.88
212.628	44.54
212.846	7.68
213.065	62.98
213.283	108.03
213.502	28.16
213.72	155.13
213.938	87.55
214.157	89.6
214.375	148.99
214.594	-23.04
214.812	22.02
215.031	54.78
215.249	75.26
215.467	-51.71
215.686	60.93
215.904	69.12
216.122	32.26
216.341	130.56
216.559	44.54
216.778	85.5
216.996	83.45
217.214	15.87
217.432	22.02
217.651	1.54
217.869	48.64
218.087	11.78
218.306	40.45
218.524	73.21
218.742	52.74
218.96	-8.7
219.179	69.12
219.397	3.58
219.615	46.59
219.833	-20.99
220.051	7.68
220.27	75.26
220.488	28.16
220.706	26.11
220.924	11.78
221.142	-33.28
221.36	36.35
221.578	38.4
221.796	87.55
222.015	105.98
222.233	17.92
222.451	99.84
222.669	56.83
222.887	38.4
223.105	19.97
223.323	69.12
223.541	-41.47
223.759	65.02
223.977	50.69
224.195	75.26
224.413	38.4
224.631	42.5
224.849	-4.61
225.067	73.21
225.285	-18.94
225.503	50.69
225.721	36.35
225.939	101.89
226.157	42.5
226.375	146.94
226.592	22.02
226.81	89.6
227.028	-4.61
227.246	67.07
227.464	-8.7
227.682	24.06
227.9	11.78
228.117	140.8
228.335	48.64
228.553	120.32
228.771	81.41
228.989	62.98
229.206	-2.56
229.424	54.78
229.642	71.17
229.86	44.54
230.077	38.4
230.295	54.78
230.513	91.65
230.731	89.6
230.948	56.83
231.166	44.54
231.384	-4.61
231.601	99.84
231.819	42.5
232.037	28.16
232.254	26.11
232.472	13.82
232.689	13.82
232.907	26.11
233.125	58.88
233.342	7.68
233.56	50.69
233.777	36.35
233.995	67.07
234.213	83.45
234.43	19.97
234.648	42.5
234.865	-8.7
235.083	7.68
235.3	24.06
235.518	112.13
235.735	79.36
235.953	134.65
236.17	32.26
236.388	44.54
236.605	-12.8
236.822	146.94
237.04	60.93
237.257	95.74
237.475	46.59
237.692	114.17
237.909	71.17
238.127	38.4
238.344	46.59
238.562	32.26
238.779	1.54
238.996	54.78
239.214	5.63
239.431	40.45
239.648	15.87
239.865	142.85
240.083	62.98
240.3	97.79
240.517	26.11
240.735	62.98
240.952	75.26
241.169	79.36
241.386	1.54
241.603	48.64
241.821	-39.42
242.038	54.78
242.255	89.6
242.472	19.97
242.689	71.17
242.907	85.5
243.124	56.83
243.341	48.64
243.558	-31.23
243.775	15.87
243.992	65.02
244.209	-8.7
244.426	58.88
244.643	11.78
244.86	69.12
245.078	89.6
245.295	24.06
245.512	30.21
245.729	34.3
245.946	19.97
246.163	99.84
246.38	83.45
246.597	5.63
246.814	52.74
247.031	67.07
247.248	87.55
247.464	75.26
247.681	52.74
247.898	36.35
248.115	62.98
248.332	13.82
248.549	36.35
248.766	65.02
248.983	60.93
249.2	34.3
249.417	15.87
249.633	110.08
249.85	22.02
250.067	58.88
250.284	15.87
250.501	62.98
250.717	36.35
250.934	36.35
251.151	-23.04
251.368	19.97
251.585	65.02
251.801	36.35
252.018	34.3
252.235	89.6
252.451	114.17
252.668	28.16
252.885	75.26
253.102	44.54
253.318	30.21
253.535	83.45
253.752	71.17
253.968	54.78
254.185	11.78
254.401	62.98
254.618	-29.18
254.835	30.21
255.051	56.83
255.268	46.59
255.484	46.59
255.701	32.26
255.917	124.41
256.134	44.54
256.351	87.55
256.567	-14.85
256.784	-0.51
257	22.02
257.217	17.92
257.433	32.26
257.65	1.54
257.866	148.99
258.082	-2.56
258.299	38.4
258.515	22.02
258.732	46.59
258.948	1.54
259.165	56.83
259.381	32.26
259.597	103.93
259.814	83.45
260.03	48.64
260.246	58.88
260.463	99.84
260.679	65.02
260.895	15.87
261.112	67.07
261.328	54.78
261.544	3.58
261.761	85.5
261.977	108.03
262.193	1.54
262.409	15.87
262.626	50.69
262.842	52.74
263.058	58.88
263.274	71.17
263.49	42.5
263.707	48.64
263.923	15.87
264.139	28.16
264.355	79.36
264.571	91.65
264.787	62.98
265.004	69.12
265.22	-23.04
265.436	48.64
265.652	36.35
265.868	52.74
266.084	62.98
266.3	32.26
266.516	62.98
266.732	60.93
266.948	73.21
267.164	50.69
267.38	71.17
267.596	52.74
267.812	62.98
268.028	15.87
268.244	56.83
268.46	42.5
268.676	87.55
268.892	38.4
269.108	67.07
269.324	13.82
269.54	52.74
269.756	99.84
269.972	26.11
270.188	-10.75
270.403	54.78
270.619	83.45
270.835	79.36
271.051	46.59
271.267	-23.04
271.483	56.83
271.698	69.12
271.914	116.22
272.13	81.41
272.346	-2.56
272.562	73.21
272.777	89.6
272.993	38.4
273.209	42.5
273.425	130.56
273.64	50.69
273.856	83.45
274.072	58.88
274.287	1.54
274.503	67.07
274.719	85.5
274.934	77.31
275.15	62.98
275.366	34.3
275.581	-4.61
275.797	44.54
276.012	89.6
276.228	52.74
276.444	34.3
276.659	110.08
276.875	13.82
277.09	62.98
277.306	89.6
277.521	65.02
277.737	36.35
277.952	40.45
278.168	58.88
278.383	7.68
278.599	95.74
278.814	73.21
279.03	5.63
279.245	44.54
279.461	58.88
279.676	95.74
279.892	99.84
280.107	56.83
280.322	36.35
280.538	69.12
280.753	13.82
280.969	3.58
281.184	54.78
281.399	22.02
281.615	32.26
281.83	87.55
282.045	5.63
282.26	46.59
282.476	40.45
282.691	50.69
282.906	26.11
283.122	130.56
283.337	48.64
283.552	67.07
283.767	81.41
283.983	28.16
284.198	99.84
284.413	65.02
284.628	60.93
284.843	42.5
285.058	67.07
285.274	15.87
285.489	-2.56
285.704	28.16
285.919	103.93
286.134	62.98
286.349	19.97
286.564	24.06
286.779	148.99
286.995	22.02
287.21	83.45
287.425	17.92
287.64	7.68
287.855	54.78
288.07	71.17
288.285	77.31
288.5	62.98
288.715	58.88
288.93	65.02
289.145	65.02
289.36	30.21
289.575	62.98
289.79	40.45
290.004	-66.05
290.219	81.41
290.434	32.26
290.649	89.6
290.864	-4.61
291.079	77.31
291.294	24.06
291.509	54.78
291.724	7.68
291.938	65.02
292.153	58.88
292.368	-14.85
292.583	81.41
292.798	48.64
293.012	46.59
293.227	36.35
293.442	75.26
293.657	28.16
293.871	114.17
294.086	36.35
294.301	108.03
294.516	73.21
294.73	5.63
294.945	5.63
295.16	79.36
295.374	15.87
295.589	7.68
295.804	56.83
296.018	58.88
296.233	75.26
296.447	-0.51
296.662	19.97
296.877	3.58
297.091	65.02
297.306	151.04
297.52	30.21
297.735	36.35
297.949	81.41
298.164	81.41
298.378	40.45
298.593	138.75
298.807	52.74
299.022	77.31
299.236	108.03
299.451	38.4
299.665	-20.99
299.88	97.79
300.094	34.3
300.309	130.56
300.523	69.12
300.737	-49.66
300.952	-6.66
301.166	91.65
301.381	48.64
301.595	73.21
301.809	26.11
302.024	30.21
302.238	13.82
302.452	40.45
302.667	30.21
302.881	108.03
303.095	81.41
303.309	52.74
303.524	60.93
303.738	-16.9
303.952	46.59
304.166	101.89
304.381	-0.51
304.595	48.64
304.809	34.3
305.023	44.54
305.237	103.93
305.452	103.93
305.666	32.26
305.88	69.12
306.094	60.93
306.308	60.93
306.522	-0.51
306.736	-2.56
306.95	83.45
307.164	58.88
307.379	52.74
307.593	36.35
307.807	75.26
308.021	24.06
308.235	97.79
308.449	-18.94
308.663	112.13
308.877	114.17
309.091	-29.18
309.305	7.68
309.519	22.02
309.733	60.93
309.947	118.27
310.161	126.46
310.374	67.07
310.588	44.54
310.802	34.3
311.016	114.17
311.23	56.83
311.444	15.87
311.658	56.83
311.872	56.83
312.085	-0.51
312.299	128.51
312.513	58.88
312.727	44.54
312.941	69.12
313.154	65.02
313.368	110.08
313.582	54.78
313.796	50.69
314.009	95.74
314.223	48.64
314.437	44.54
314.651	42.5
314.864	46.59
315.078	13.82
315.292	44.54
315.505	32.26
315.719	130.56
315.933	56.83
316.146	75.26
316.36	73.21
316.573	69.12
316.787	69.12
317.001	97.79
317.214	26.11
317.428	46.59
317.641	38.4
317.855	126.46
318.068	32.26
318.282	58.88
318.495	60.93
318.709	52.74
318.922	40.45
319.136	163.33
319.349	52.74
319.563	32.26
319.776	30.21
319.99	69.12
320.203	40.45
320.417	48.64
320.63	105.98
320.843	91.65
321.057	77.31
321.27	77.31
321.483	71.17
321.697	83.45
321.91	32.26
322.124	77.31
322.337	54.78
322.55	9.73
322.763	85.5
322.977	-6.66
323.19	99.84
323.403	3.58
323.617	71.17
323.83	83.45
324.043	48.64
324.256	38.4
324.469	9.73
324.683	54.78
324.896	75.26
325.109	134.65
325.322	65.02
325.535	73.21
325.748	13.82
325.962	48.64
326.175	118.27
326.388	71.17
326.601	44.54
326.814	-10.75
327.027	36.35
327.24	134.65
327.453	65.02
327.666	75.26
327.879	75.26
328.092	54.78
328.305	48.64
328.518	46.59
328.731	42.5
328.944	52.74
329.157	60.93
329.37	71.17
329.583	81.41
329.796	87.55
330.009	30.21
330.222	89.6
330.435	112.13
330.648	56.83
330.861	46.59
331.073	56.83
331.286	32.26
331.499	114.17
331.712	83.45
331.925	15.87
332.138	93.69
332.35	24.06
332.563	81.41
332.776	93.69
332.989	56.83
333.202	87.55
333.414	73.21
333.627	134.65
333.84	52.74
334.053	87.55
334.265	-6.66
334.478	32.26
334.691	38.4
334.903	77.31
335.116	81.41
335.329	24.06
335.541	97.79
335.754	87.55
335.966	56.83
336.179	69.12
336.392	69.12
336.604	58.88
336.817	9.73
337.029	99.84
337.242	58.88
337.454	95.74
337.667	95.74
337.88	65.02
338.092	19.97
338.305	46.59
338.517	81.41
338.729	114.17
338.942	73.21
339.154	11.78
339.367	60.93
339.579	101.89
339.792	-25.09
340.004	60.93
340.217	34.3
340.429	93.69
340.641	103.93
340.854	83.45
341.066	-27.14
341.278	95.74
341.491	79.36
341.703	67.07
341.915	87.55
342.128	13.82
342.34	75.26
342.552	48.64
342.764	81.41
342.977	54.78
343.189	-20.99
343.401	44.54
343.613	-4.61
343.826	40.45
344.038	17.92
344.25	19.97
344.462	22.02
344.674	83.45
344.886	124.41
345.099	103.93
345.311	108.03
345.523	126.46
345.735	13.82
345.947	48.64
346.159	52.74
346.371	95.74
346.583	91.65
346.795	97.79
347.007	62.98
347.219	93.69
347.431	79.36
347.643	65.02
347.855	103.93
348.067	-2.56
348.279	75.26
348.491	26.11
348.703	62.98
348.915	79.36
349.127	13.82
349.339	89.6
349.551	38.4
349.763	114.17
349.975	26.11
350.187	46.59
350.399	60.93
350.61	79.36
350.822	-16.9
351.034	54.78
351.246	26.11
351.458	50.69
351.669	112.13
351.881	50.69
352.093	103.93
352.305	77.31
352.517	44.54
352.728	26.11
352.94	9.73
353.152	-0.51
353.363	3.58
353.575	85.5
353.787	46.59
353.999	87.55
354.21	65.02
354.422	36.35
354.633	32.26
354.845	87.55
355.057	38.4
355.268	50.69
355.48	75.26
355.692	71.17
355.903	93.69
356.115	75.26
356.326	65.02
356.538	99.84
356.749	60.93
356.961	54.78
357.172	28.16
357.384	-4.61
357.595	42.5
357.807	60.93
358.018	52.74
358.23	48.64
358.441	138.75
358.653	93.69
358.864	36.35
359.075	48.64
359.287	-18.94
359.498	62.98
359.709	40.45
359.921	69.12
360.132	-4.61
360.344	5.63
360.555	146.94
360.766	110.08
360.977	75.26
361.189	91.65
361.4	1.54
361.611	116.22
361.823	60.93
362.034	114.17
362.245	7.68
362.456	62.98
362.667	116.22
362.879	40.45
363.09	62.98
363.301	116.22
363.512	65.02
363.723	79.36
363.935	48.64
364.146	28.16
364.357	73.21
364.568	71.17
364.779	83.45
364.99	77.31
365.201	69.12
365.412	56.83
365.623	40.45
365.834	52.74
366.045	58.88
366.256	93.69
366.467	67.07
366.678	77.31
366.889	105.98
367.1	54.78
367.311	69.12
367.522	81.41
367.733	26.11
367.944	114.17
368.155	95.74
368.366	38.4
368.577	26.11
368.788	42.5
368.999	56.83
369.209	116.22
369.42	87.55
369.631	116.22
369.842	87.55
370.053	97.79
370.264	87.55
370.474	89.6
370.685	69.12
370.896	108.03
371.107	54.78
371.317	71.17
371.528	56.83
371.739	71.17
371.95	60.93
372.16	69.12
372.371	81.41
372.582	69.12
372.792	34.3
373.003	83.45
373.214	15.87
373.424	91.65
373.635	26.11
373.846	32.26
374.056	36.35
374.267	91.65
374.477	157.18
374.688	85.5
374.898	36.35
375.109	105.98
375.319	95.74
375.53	50.69
375.74	-0.51
375.951	26.11
376.161	105.98
376.372	79.36
376.582	101.89
376.793	103.93
377.003	97.79
377.214	52.74
377.424	58.88
377.635	69.12
377.845	169.47
378.055	58.88
378.266	34.3
378.476	99.84
378.686	83.45
378.897	38.4
379.107	151.04
379.317	97.79
379.528	52.74
379.738	151.04
379.948	97.79
380.158	60.93
380.369	46.59
380.579	71.17
380.789	-8.7
380.999	105.98
381.21	128.51
381.42	101.89
381.63	91.65
381.84	48.64
382.05	34.3
382.261	99.84
382.471	34.3
382.681	91.65
382.891	71.17
383.101	108.03
383.311	118.27
383.521	28.16
383.731	79.36
383.941	95.74
384.151	75.26
384.361	122.37
384.571	103.93
384.781	112.13
384.991	60.93
385.201	101.89
385.411	89.6
385.621	99.84
385.831	118.27
386.041	85.5
386.251	99.84
386.461	73.21
386.671	52.74
386.881	132.61
387.091	54.78
387.301	97.79
387.511	19.97
387.72	157.18
387.93	146.94
388.14	-0.51
388.35	62.98
388.56	19.97
388.769	181.76
388.979	122.37
389.189	38.4
389.399	1.54
389.609	73.21
389.818	81.41
390.028	79.36
390.238	79.36
390.447	101.89
390.657	17.92
390.867	103.93
391.076	71.17
391.286	130.56
391.496	58.88
391.705	52.74
391.915	62.98
392.125	179.71
392.334	87.55
392.544	161.28
392.753	93.69
392.963	52.74
393.172	108.03
393.382	32.26
393.591	114.17
393.801	138.75
394.01	155.13
394.22	85.5
394.429	120.32
394.639	118.27
394.848	122.37
395.058	101.89
395.267	93.69
395.477	77.31
395.686	130.56
395.895	136.7
396.105	148.99
396.314	110.08
396.524	161.28
396.733	79.36
396.942	83.45
397.152	95.74
397.361	101.89
397.57	95.74
397.78	50.69
397.989	208.38
398.198	132.61
398.407	67.07
398.617	140.8
398.826	116.22
399.035	105.98
399.244	165.37
399.453	99.84
399.663	132.61
399.872	108.03
400.081	108.03
400.29	173.57
400.499	120.32
400.708	126.46
400.917	71.17
401.127	140.8
401.336	142.85
401.545	155.13
401.754	216.57
401.963	155.13
402.172	153.09
402.381	144.89
402.59	165.37
402.799	93.69
403.008	144.89
403.217	151.04
403.426	167.42
403.635	163.33
403.844	169.47
404.053	142.85
404.262	185.85
404.471	134.65
404.68	126.46
404.888	110.08
405.097	177.66
405.306	235
405.515	116.22
405.724	144.89
405.933	148.99
406.142	200.19
406.35	210.43
406.559	243.2
406.768	216.57
406.977	247.29
407.185	278.01
407.394	163.33
407.603	189.95
407.812	247.29
408.02	265.72
408.229	208.38
408.438	292.35
408.646	220.67
408.855	343.55
409.064	282.11
409.272	198.14
409.481	325.12
409.69	292.35
409.898	296.44
410.107	370.17
410.315	368.12
410.524	388.6
410.733	396.79
410.941	382.46
411.15	343.55
411.358	415.23
411.567	480.76
411.775	427.51
411.984	398.84
412.192	470.52
412.401	435.71
412.609	527.86
412.818	505.34
413.026	607.73
413.234	534.01
413.443	513.53
413.651	548.34
413.86	572.92
414.068	779.76
414.276	632.31
414.485	640.5
414.693	712.18
414.901	663.03
415.11	736.76
415.318	706.04
415.526	695.8
415.734	833.01
415.943	818.68
416.151	906.74
416.359	851.44
416.567	923.12
416.776	927.22
416.984	964.08
417.192	1043.95
417.4	1037.81
417.608	1002.99
417.817	1089.01
418.025	1099.25
418.233	1222.13
418.441	1078.77
418.649	1056.24
418.857	1345
419.065	1338.86
419.273	1349.1
419.481	1351.15
419.689	1420.78
419.897	1514.98
420.105	1609.19
420.313	1525.22
420.521	1691.11
420.729	1680.87
420.937	1748.45
421.145	1787.36
421.353	1852.9
421.561	1965.54
421.769	1992.16
421.977	2143.71
422.185	2094.56
422.393	2201.05
422.601	2442.71
422.809	2307.55
423.017	2418.14
423.224	2438.62
423.432	2504.15
423.64	2477.53
423.848	2717.14
424.056	2729.43
424.263	2801.11
424.471	2829.78
424.679	3005.91
424.887	3053.01
425.094	3311.05
425.302	3143.12
425.51	3395.02
425.718	3329.49
425.925	3390.92
426.133	3511.75
426.341	3851.72
426.548	3978.69
426.756	3921.35
426.964	3999.17
427.171	4244.93
427.379	4382.14
427.586	4296.13
427.794	4435.39
428.001	4824.5
428.209	5094.83
428.417	4887.99
428.624	5205.42
428.832	5287.34
429.039	5375.41
429.247	5172.66
429.454	5737.9
429.662	6178.21
429.869	5553.58
430.076	6124.96
430.284	5940.65
430.491	6088.1
430.699	6632.86
430.906	6667.67
431.114	6808.98
431.321	6895
431.528	7021.97
431.736	7619.98
431.943	7781.77
432.15	7460.24
432.358	7669.13
432.565	7970.18
432.772	8183.17
432.979	8451.46
433.187	8631.68
433.394	8801.66
433.601	9426.29
433.808	9424.24
434.016	9334.13
434.223	9616.75
434.43	10233.19
434.637	10177.89
434.844	10693.98
435.052	10767.71
435.259	10818.91
435.466	11087.19
435.673	10741.08
435.88	11490.64
436.087	12035.4
436.294	12350.79
436.501	11777.36
436.708	12389.7
436.915	12490.05
437.122	13180.21
437.329	13270.33
437.537	13532.47
437.743	13733.17
437.95	13667.63
438.157	14415.14
438.364	15021.34
438.571	14851.36
438.778	15045.91
438.985	16069.9
439.192	15506.71
439.399	16227.59
439.606	15936.78
439.813	16921.85
440.02	17607.92
440.227	17302.78
440.433	17384.69
440.64	17888.5
440.847	17693.94
441.054	18124.01
441.261	19201.24
441.467	19006.69
441.674	19547.35
441.881	20245.71
442.088	20251.85
442.294	19690.71
442.501	20604.1
442.708	21013.7
442.914	21826.74
443.121	22674.6
443.328	21888.18
443.534	23383.2
443.741	23112.86
443.948	22584.49
444.154	24259.73
444.361	24140.94
444.568	24317.07
444.774	24525.96
444.981	24845.44
445.187	25525.37
445.394	26575.98
445.6	26096.75
445.807	28546.12
446.013	27415.65
446.22	27935.83
446.426	29150.28
446.633	29080.64
446.839	30358.58
447.046	29230.15
447.252	30802.99
447.459	30559.28
447.665	30665.77
447.871	32011.29
448.078	33246.21
448.284	31972.38
448.491	32539.66
448.697	33897.47
448.903	34806.76
449.11	34683.89
449.316	34210.81
449.522	34851.82
449.728	35587.04
449.935	36027.35
450.141	35623.9
450.347	36793.29
450.553	35720.16
450.76	36209.62
450.966	37123.02
451.172	37166.02
451.378	37583.81
451.584	37157.83
451.791	38130.62
451.997	37616.58
452.203	38642.61
452.409	38302.65
452.615	38353.85
452.821	37104.59
453.027	36408.28
453.233	38341.56
453.44	36965.32
453.646	37532.61
453.852	37665.73
454.058	38206.39
454.264	37161.93
454.47	37827.52
454.676	37034.95
454.882	38376.37
455.088	35089.38
455.294	34995.18
455.5	36019.16
455.705	36307.93
455.911	35068.9
456.117	34380.79
456.323	34100.22
456.529	31964.18
456.735	33328.13
456.941	32726.03
457.147	31745.05
457.352	31173.67
457.558	31022.12
457.764	31116.33
457.97	30440.5
458.176	29641.79
458.381	29670.46
458.587	28175.44
458.793	28228.69
458.999	26932.33
459.204	28693.58
459.41	27896.92
459.616	26023.03
459.821	25791.61
460.027	25951.35
460.233	25541.75
460.438	24495.24
460.644	24487.05
460.85	23176.35
461.055	22451.37
461.261	22764.71
461.466	21021.89
461.672	20724.93
461.878	22234.28
462.083	20468.94
462.289	20262.09
462.494	20128.97
462.7	18986.21
462.905	18701.54
463.111	18930.91
463.316	19344.6
463.522	18986.21
463.727	19012.83
463.932	18961.63
464.138	18732.26
464.343	18791.65
464.549	18191.59
464.754	18973.92
464.959	18513.13
465.165	18691.3
465.37	17536.24
465.575	17147.13
465.781	17878.26
465.986	18257.13
466.191	17388.79
466.397	17315.06
466.602	16295.18
466.807	16940.29
467.012	17003.77
467.218	16784.64
