Data from USB4F104151__11__12-27-01-636.txt Node

Date: Fri Mar 14 12:27:01 EDT 2025
User: louis
Spectrometer: USB4F10415
Trigger mode: 4
Integration Time (sec): 2.000000E-2
Scans to average: 1
Electric dark correction enabled: true
Nonlinearity correction enabled: false
Boxcar width: 0
XAxis mode: Wavelengths
Number of Pixels in Spectrum: 3648
>>>>>Begin Spectral Data<<<<<
178.204	-96.43
178.424	-96.43
178.644	-96.43
178.864	-135.34
179.084	-28.84
179.304	-12.46
179.524	12.12
179.744	-6.31
179.964	28.5
180.184	-8.36
180.404	51.03
180.624	-0.17
180.844	38.74
181.064	-61.61
181.283	-22.7
181.503	-39.08
181.723	20.31
181.943	-88.23
182.163	51.03
182.383	36.69
182.602	12.12
182.822	5.97
183.042	24.4
183.262	-41.13
183.482	-14.51
183.701	-16.55
183.921	10.07
184.141	3.93
184.361	32.6
184.58	22.36
184.8	96.08
185.02	65.36
185.239	98.13
185.459	71.51
185.679	16.21
185.898	-20.65
186.118	-16.55
186.338	40.79
186.557	-16.55
186.777	-8.36
186.997	91.99
187.216	-20.65
187.436	73.56
187.655	3.93
187.875	53.08
188.095	22.36
188.314	20.31
188.534	71.51
188.753	22.36
188.973	34.64
189.192	102.23
189.412	-0.17
189.631	34.64
189.851	30.55
190.07	26.45
190.29	26.45
190.509	5.97
190.729	-24.75
190.948	24.4
191.168	79.7
191.387	77.65
191.607	22.36
191.826	24.4
192.045	20.31
192.265	-2.22
192.484	30.55
192.704	1.88
192.923	-2.22
193.142	75.6
193.362	-26.79
193.581	24.4
193.8	-0.17
194.02	20.31
194.239	34.64
194.458	-20.65
194.678	42.84
194.897	-30.89
195.116	16.21
195.335	20.31
195.555	8.02
195.774	51.03
195.993	26.45
196.212	-14.51
196.432	-30.89
196.651	-0.17
196.87	3.93
197.089	132.95
197.308	-2.22
197.528	87.89
197.747	-22.7
197.966	1.88
198.185	38.74
198.404	69.46
198.623	32.6
198.842	75.6
199.062	-16.55
199.281	79.7
199.5	53.08
199.719	16.21
199.938	44.88
200.157	36.69
200.376	5.97
200.595	-14.51
200.814	106.32
201.033	3.93
201.252	3.93
201.471	10.07
201.69	51.03
201.909	20.31
202.128	-22.7
202.347	-26.79
202.566	5.97
202.785	-39.08
203.004	-96.43
203.223	124.76
203.442	69.46
203.661	-24.75
203.879	-22.7
204.098	38.74
204.317	22.36
204.536	16.21
204.755	36.69
204.974	-16.55
205.193	28.5
205.411	69.46
205.63	-2.22
205.849	44.88
206.068	83.8
206.287	3.93
206.505	26.45
206.724	1.88
206.943	79.7
207.162	71.51
207.381	-10.41
207.599	-22.7
207.818	-18.6
208.037	-49.32
208.255	28.5
208.474	-14.51
208.693	-2.22
208.911	-39.08
209.13	42.84
209.349	-24.75
209.567	-2.22
209.786	-41.13
210.005	-30.89
210.223	-8.36
210.442	1.88
210.661	42.84
210.879	85.84
211.098	-6.31
211.316	85.84
211.535	55.12
211.753	-8.36
211.972	-0.17
212.191	67.41
212.409	30.55
212.628	22.36
212.846	38.74
213.065	67.41
213.283	46.93
213.502	-16.55
213.72	69.46
213.938	42.84
214.157	77.65
214.375	-16.55
214.594	63.32
214.812	18.26
215.031	-22.7
215.249	8.02
215.467	83.8
215.686	-2.22
215.904	61.27
216.122	-16.55
216.341	67.41
216.559	-26.79
216.778	32.6
216.996	28.5
217.214	10.07
217.432	38.74
217.651	46.93
217.869	100.18
218.087	-22.7
218.306	59.22
218.524	69.46
218.742	44.88
218.96	18.26
219.179	-53.42
219.397	73.56
219.615	26.45
219.833	32.6
220.051	14.17
220.27	67.41
220.488	40.79
220.706	20.31
220.924	-2.22
221.142	-16.55
221.36	12.12
221.578	-16.55
221.796	40.79
222.015	20.31
222.233	81.75
222.451	65.36
222.669	61.27
222.887	34.64
223.105	-39.08
223.323	40.79
223.541	-12.46
223.759	96.08
223.977	20.31
224.195	53.08
224.413	32.6
224.631	71.51
224.849	-16.55
225.067	18.26
225.285	-10.41
225.503	79.7
225.721	14.17
225.939	32.6
226.157	-20.65
226.375	91.99
226.592	-10.41
226.81	26.45
227.028	65.36
227.246	57.17
227.464	22.36
227.682	-51.37
227.9	77.65
228.117	16.21
228.335	5.97
228.553	22.36
228.771	38.74
228.989	-16.55
229.206	51.03
229.424	44.88
229.642	32.6
229.86	28.5
230.077	44.88
230.295	28.5
230.513	110.42
230.731	-77.99
230.948	91.99
231.166	94.04
231.384	28.5
231.601	-2.22
231.819	112.47
232.037	-18.6
232.254	16.21
232.472	24.4
232.689	1.88
232.907	69.46
233.125	-59.56
233.342	67.41
233.56	10.07
233.777	100.18
233.995	20.31
234.213	57.17
234.43	46.93
234.648	69.46
234.865	12.12
235.083	5.97
235.3	-39.08
235.518	16.21
235.735	71.51
235.953	26.45
236.17	-30.89
236.388	36.69
236.605	12.12
236.822	24.4
237.04	85.84
237.257	8.02
237.475	26.45
237.692	-10.41
237.909	22.36
238.127	10.07
238.344	40.79
238.562	61.27
238.779	-2.22
238.996	36.69
239.214	-20.65
239.431	40.79
239.648	3.93
239.865	32.6
240.083	22.36
240.3	46.93
240.517	32.6
240.735	77.65
240.952	85.84
241.169	102.23
241.386	-34.99
241.603	57.17
241.821	-24.75
242.038	-6.31
242.255	96.08
242.472	32.6
242.689	46.93
242.907	87.89
243.124	24.4
243.341	53.08
243.558	8.02
243.775	3.93
243.992	-30.89
244.209	57.17
244.426	75.6
244.643	77.65
244.86	48.98
245.078	53.08
245.295	96.08
245.512	26.45
245.729	-47.27
245.946	10.07
246.163	10.07
246.38	14.17
246.597	16.21
246.814	69.46
247.031	71.51
247.248	91.99
247.464	79.7
247.681	32.6
247.898	26.45
248.115	42.84
248.332	-0.17
248.549	59.22
248.766	14.17
248.983	22.36
249.2	16.21
249.417	36.69
249.633	-10.41
249.85	67.41
250.067	59.22
250.284	12.12
250.501	20.31
250.717	48.98
250.934	28.5
251.151	-16.55
251.368	5.97
251.585	28.5
251.801	59.22
252.018	-2.22
252.235	91.99
252.451	51.03
252.668	53.08
252.885	8.02
253.102	63.32
253.318	79.7
253.535	-32.94
253.752	30.55
253.968	85.84
254.185	53.08
254.401	20.31
254.618	40.79
254.835	-0.17
255.051	69.46
255.268	22.36
255.484	87.89
255.701	8.02
255.917	-34.99
256.134	42.84
256.351	1.88
256.567	3.93
256.784	12.12
257	-30.89
257.217	-34.99
257.433	53.08
257.65	1.88
257.866	3.93
258.082	3.93
258.299	-6.31
258.515	22.36
258.732	28.5
258.948	-8.36
259.165	-2.22
259.381	22.36
259.597	-10.41
259.814	5.97
260.03	48.98
260.246	-10.41
260.463	85.84
260.679	51.03
260.895	20.31
261.112	12.12
261.328	85.84
261.544	44.88
261.761	40.79
261.977	94.04
262.193	-26.79
262.409	91.99
262.626	55.12
262.842	73.56
263.058	-47.27
263.274	-20.65
263.49	3.93
263.707	34.64
263.923	20.31
264.139	-32.94
264.355	20.31
264.571	96.08
264.787	-4.27
265.004	20.31
265.22	-0.17
265.436	-20.65
265.652	-41.13
265.868	59.22
266.084	69.46
266.3	48.98
266.516	1.88
266.732	34.64
266.948	14.17
267.164	44.88
267.38	3.93
267.596	-65.71
267.812	36.69
268.028	67.41
268.244	-12.46
268.46	59.22
268.676	-28.84
268.892	24.4
269.108	14.17
269.324	26.45
269.54	3.93
269.756	61.27
269.972	-37.03
270.188	128.85
270.403	-28.84
270.619	8.02
270.835	83.8
271.051	81.75
271.267	51.03
271.483	-12.46
271.698	28.5
271.914	-12.46
272.13	-10.41
272.346	-24.75
272.562	44.88
272.777	26.45
272.993	98.13
273.209	87.89
273.425	89.94
273.64	42.84
273.856	59.22
274.072	32.6
274.287	57.17
274.503	-20.65
274.719	30.55
274.934	-98.47
275.15	-6.31
275.366	81.75
275.581	-6.31
275.797	18.26
276.012	42.84
276.228	-0.17
276.444	42.84
276.659	77.65
276.875	-28.84
277.09	42.84
277.306	40.79
277.521	-14.51
277.737	89.94
277.952	14.17
278.168	10.07
278.383	22.36
278.599	-4.27
278.814	5.97
279.03	28.5
279.245	44.88
279.461	-61.61
279.676	71.51
279.892	48.98
280.107	18.26
280.322	-22.7
280.538	10.07
280.753	-2.22
280.969	26.45
281.184	46.93
281.399	91.99
281.615	32.6
281.83	75.6
282.045	-14.51
282.26	16.21
282.476	38.74
282.691	96.08
282.906	8.02
283.122	65.36
283.337	57.17
283.552	-6.31
283.767	12.12
283.983	34.64
284.198	-14.51
284.413	61.27
284.628	-67.75
284.843	10.07
285.058	51.03
285.274	38.74
285.489	-39.08
285.704	48.98
285.919	-59.56
286.134	34.64
286.349	48.98
286.564	38.74
286.779	3.93
286.995	28.5
287.21	57.17
287.425	85.84
287.64	48.98
287.855	85.84
288.07	22.36
288.285	24.4
288.5	55.12
288.715	-2.22
288.93	-12.46
289.145	20.31
289.36	-4.27
289.575	24.4
289.79	77.65
290.004	12.12
290.219	79.7
290.434	-47.27
290.649	-4.27
290.864	8.02
291.079	-0.17
291.294	130.9
291.509	5.97
291.724	75.6
291.938	-39.08
292.153	79.7
292.368	55.12
292.583	18.26
292.798	42.84
293.012	106.32
293.227	34.64
293.442	-8.36
293.657	38.74
293.871	114.52
294.086	-18.6
294.301	75.6
294.516	42.84
294.73	67.41
294.945	-10.41
295.16	81.75
295.374	71.51
295.589	46.93
295.804	-4.27
296.018	40.79
296.233	118.61
296.447	42.84
296.662	55.12
296.877	12.12
297.091	85.84
297.306	48.98
297.52	30.55
297.735	110.42
297.949	36.69
298.164	44.88
298.378	-26.79
298.593	20.31
298.807	28.5
299.022	96.08
299.236	77.65
299.451	-6.31
299.665	5.97
299.88	48.98
300.094	-14.51
300.309	42.84
300.523	30.55
300.737	-8.36
300.952	48.98
301.166	10.07
301.381	-41.13
301.595	24.4
301.809	24.4
302.024	-45.23
302.238	118.61
302.452	-16.55
302.667	-10.41
302.881	67.41
303.095	73.56
303.309	-14.51
303.524	40.79
303.738	85.84
303.952	-20.65
304.166	122.71
304.381	-14.51
304.595	65.36
304.809	-18.6
305.023	34.64
305.237	20.31
305.452	53.08
305.666	22.36
305.88	100.18
306.094	75.6
306.308	63.32
306.522	53.08
306.736	91.99
306.95	55.12
307.164	38.74
307.379	18.26
307.593	48.98
307.807	26.45
308.021	83.8
308.235	91.99
308.449	89.94
308.663	42.84
308.877	85.84
309.091	5.97
309.305	61.27
309.519	-0.17
309.733	20.31
309.947	-106.67
310.161	32.6
310.374	73.56
310.588	71.51
310.802	24.4
311.016	53.08
311.23	22.36
311.444	30.55
311.658	3.93
311.872	48.98
312.085	8.02
312.299	36.69
312.513	83.8
312.727	36.69
312.941	57.17
313.154	36.69
313.368	-39.08
313.582	26.45
313.796	-2.22
314.009	63.32
314.223	48.98
314.437	73.56
314.651	57.17
314.864	-16.55
315.078	61.27
315.292	53.08
315.505	1.88
315.719	102.23
315.933	18.26
316.146	67.41
316.36	3.93
316.573	65.36
316.787	40.79
317.001	57.17
317.214	-18.6
317.428	48.98
317.641	89.94
317.855	22.36
318.068	79.7
318.282	67.41
318.495	34.64
318.709	-0.17
318.922	79.7
319.136	59.22
319.349	67.41
319.563	89.94
319.776	73.56
319.99	34.64
320.203	32.6
320.417	24.4
320.63	120.66
320.843	48.98
321.057	83.8
321.27	-67.75
321.483	118.61
321.697	20.31
321.91	106.32
322.124	96.08
322.337	-20.65
322.55	8.02
322.763	16.21
322.977	36.69
323.19	59.22
323.403	-37.03
323.617	55.12
323.83	61.27
324.043	26.45
324.256	96.08
324.469	-39.08
324.683	112.47
324.896	104.28
325.109	-10.41
325.322	-12.46
325.535	139.09
325.748	81.75
325.962	108.37
326.175	63.32
326.388	-24.75
326.601	135
326.814	67.41
327.027	59.22
327.24	48.98
327.453	85.84
327.666	44.88
327.879	46.93
328.092	81.75
328.305	122.71
328.518	96.08
328.731	-30.89
328.944	-18.6
329.157	53.08
329.37	-2.22
329.583	30.55
329.796	139.09
330.009	59.22
330.222	98.13
330.435	22.36
330.648	-47.27
330.861	53.08
331.073	63.32
331.286	67.41
331.499	69.46
331.712	-6.31
331.925	163.67
332.138	34.64
332.35	100.18
332.563	-10.41
332.776	-4.27
332.989	94.04
333.202	57.17
333.414	1.88
333.627	91.99
333.84	44.88
334.053	-16.55
334.265	44.88
334.478	1.88
334.691	10.07
334.903	81.75
335.116	-2.22
335.329	3.93
335.541	-12.46
335.754	69.46
335.966	10.07
336.179	63.32
336.392	5.97
336.604	48.98
336.817	81.75
337.029	42.84
337.242	-14.51
337.454	53.08
337.667	46.93
337.88	38.74
338.092	53.08
338.305	65.36
338.517	22.36
338.729	71.51
338.942	67.41
339.154	59.22
339.367	-8.36
339.579	-20.65
339.792	28.5
340.004	114.52
340.217	59.22
340.429	81.75
340.641	22.36
340.854	20.31
341.066	51.03
341.278	100.18
341.491	57.17
341.703	81.75
341.915	-6.31
342.128	53.08
342.34	100.18
342.552	51.03
342.764	83.8
342.977	67.41
343.189	57.17
343.401	34.64
343.613	-10.41
343.826	26.45
344.038	77.65
344.25	59.22
344.462	114.52
344.674	24.4
344.886	-6.31
345.099	14.17
345.311	94.04
345.523	40.79
345.735	30.55
345.947	20.31
346.159	61.27
346.371	59.22
346.583	36.69
346.795	116.56
347.007	28.5
347.219	53.08
347.431	57.17
347.643	116.56
347.855	32.6
348.067	36.69
348.279	106.32
348.491	22.36
348.703	-30.89
348.915	24.4
349.127	79.7
349.339	81.75
349.551	53.08
349.763	67.41
349.975	-30.89
350.187	87.89
350.399	22.36
350.61	26.45
350.822	-14.51
351.034	38.74
351.246	-2.22
351.458	-12.46
351.669	65.36
351.881	22.36
352.093	36.69
352.305	51.03
352.517	28.5
352.728	69.46
352.94	26.45
353.152	100.18
353.363	65.36
353.575	89.94
353.787	141.14
353.999	83.8
354.21	48.98
354.422	34.64
354.633	30.55
354.845	81.75
355.057	53.08
355.268	98.13
355.48	96.08
355.692	14.17
355.903	51.03
356.115	-47.27
356.326	94.04
356.538	85.84
356.749	94.04
356.961	26.45
357.172	-41.13
357.384	34.64
357.595	73.56
357.807	91.99
358.018	-16.55
358.23	59.22
358.441	137.04
358.653	87.89
358.864	89.94
359.075	124.76
359.287	42.84
359.498	128.85
359.709	20.31
359.921	10.07
360.132	16.21
360.344	-6.31
360.555	75.6
360.766	22.36
360.977	59.22
361.189	81.75
361.4	38.74
361.611	77.65
361.823	81.75
362.034	122.71
362.245	46.93
362.456	34.64
362.667	55.12
362.879	14.17
363.09	14.17
363.301	77.65
363.512	18.26
363.723	85.84
363.935	32.6
364.146	118.61
364.357	34.64
364.568	22.36
364.779	-12.46
364.99	91.99
365.201	18.26
365.412	85.84
365.623	-10.41
365.834	71.51
366.045	42.84
366.256	98.13
366.467	75.6
366.678	28.5
366.889	81.75
367.1	-22.7
367.311	12.12
367.522	1.88
367.733	51.03
367.944	20.31
368.155	30.55
368.366	73.56
368.577	114.52
368.788	100.18
368.999	24.4
369.209	73.56
369.42	67.41
369.631	24.4
369.842	20.31
370.053	-0.17
370.264	120.66
370.474	18.26
370.685	42.84
370.896	22.36
371.107	16.21
371.317	51.03
371.528	32.6
371.739	149.33
371.95	63.32
372.16	102.23
372.371	87.89
372.582	-8.36
372.792	-28.84
373.003	71.51
373.214	42.84
373.424	85.84
373.635	63.32
373.846	135
374.056	44.88
374.267	57.17
374.477	94.04
374.688	139.09
374.898	118.61
375.109	85.84
375.319	85.84
375.53	42.84
375.74	130.9
375.951	137.04
376.161	55.12
376.372	69.46
376.582	-4.27
376.793	85.84
377.003	22.36
377.214	46.93
377.424	55.12
377.635	28.5
377.845	75.6
378.055	63.32
378.266	63.32
378.476	16.21
378.686	32.6
378.897	79.7
379.107	61.27
379.317	116.56
379.528	63.32
379.738	53.08
379.948	-6.31
380.158	20.31
380.369	-0.17
380.579	83.8
380.789	89.94
380.999	16.21
381.21	81.75
381.42	87.89
381.63	59.22
381.84	36.69
382.05	61.27
382.261	55.12
382.471	96.08
382.681	96.08
382.891	104.28
383.101	67.41
383.311	85.84
383.521	79.7
383.731	91.99
383.941	108.37
384.151	24.4
384.361	106.32
384.571	59.22
384.781	151.38
384.991	71.51
385.201	46.93
385.411	132.95
385.621	161.62
385.831	116.56
386.041	-14.51
386.251	145.24
386.461	85.84
386.671	-20.65
386.881	30.55
387.091	-16.55
387.301	46.93
387.511	77.65
387.72	18.26
387.93	67.41
388.14	61.27
388.35	34.64
388.56	89.94
388.769	57.17
388.979	34.64
389.189	51.03
389.399	102.23
389.609	94.04
389.818	157.52
390.028	57.17
390.238	63.32
390.447	102.23
390.657	14.17
390.867	73.56
391.076	61.27
391.286	65.36
391.496	79.7
391.705	63.32
391.915	102.23
392.125	57.17
392.334	106.32
392.544	89.94
392.753	83.8
392.963	83.8
393.172	91.99
393.382	18.26
393.591	163.67
393.801	38.74
394.01	110.42
394.22	38.74
394.429	46.93
394.639	85.84
394.848	18.26
395.058	91.99
395.267	87.89
395.477	36.69
395.686	151.38
395.895	200.53
396.105	153.43
396.314	42.84
396.524	184.15
396.733	139.09
396.942	139.09
397.152	28.5
397.361	124.76
397.57	175.95
397.78	184.15
397.989	104.28
398.198	153.43
398.407	75.6
398.617	106.32
398.826	40.79
399.035	51.03
399.244	79.7
399.453	194.39
399.663	59.22
399.872	141.14
400.081	89.94
400.29	120.66
400.499	79.7
400.708	135
400.917	126.8
401.127	178
401.336	132.95
401.545	202.58
401.754	110.42
401.963	155.47
402.172	122.71
402.381	91.99
402.59	149.33
402.799	194.39
403.008	124.76
403.217	116.56
403.426	120.66
403.635	51.03
403.844	137.04
404.053	145.24
404.262	94.04
404.471	163.67
404.68	145.24
404.888	151.38
405.097	194.39
405.306	69.46
405.515	141.14
405.724	171.86
405.933	194.39
406.142	178
406.35	223.06
406.559	223.06
406.768	227.15
406.977	350.03
407.185	270.16
407.394	286.54
407.603	276.31
407.812	239.44
408.02	268.11
408.229	229.2
408.438	245.59
408.646	313.17
408.855	261.97
409.064	292.69
409.272	266.07
409.481	313.17
409.69	372.56
409.898	421.71
410.107	274.26
410.315	403.28
410.524	380.75
410.733	366.42
410.941	333.65
411.15	429.9
411.358	411.47
411.567	522.06
411.775	479.05
411.984	485.2
412.192	497.49
412.401	454.48
412.609	579.4
412.818	567.12
413.026	587.6
413.234	638.8
413.443	603.98
413.651	651.08
413.86	657.23
414.068	692.04
414.276	712.52
414.485	599.88
414.693	696.14
414.901	753.48
415.11	833.35
415.318	839.5
415.526	909.13
415.734	937.8
415.943	923.46
416.151	978.76
416.359	964.42
416.567	976.71
416.776	1036.1
416.984	1097.54
417.192	1077.06
417.4	1087.3
417.608	1025.86
417.817	1206.08
418.025	1331.01
418.233	1306.43
418.441	1394.5
418.649	1484.61
418.857	1486.65
419.065	1576.77
419.273	1439.55
419.481	1509.18
419.689	1648.44
419.897	1748.79
420.105	1814.33
420.313	1865.53
420.521	1894.2
420.729	1931.06
420.937	1941.3
421.145	2090.81
421.353	2047.8
421.561	2197.3
421.769	2377.52
421.977	2404.14
422.185	2314.03
422.393	2631.47
422.601	2670.38
422.809	2629.42
423.017	2582.32
423.224	2768.68
423.432	2905.9
423.64	2922.28
423.848	3090.21
424.056	3094.31
424.263	3432.22
424.471	3399.46
424.679	3495.71
424.887	3628.83
425.094	3682.08
425.302	3827.48
425.51	3804.96
425.718	3931.93
425.925	4001.56
426.133	4302.61
426.341	4429.59
426.548	4550.42
426.756	4562.7
426.964	4740.88
427.171	4734.73
427.379	5168.9
427.586	5029.64
427.794	5338.88
428.001	5523.2
428.209	5904.12
428.417	5865.21
428.624	6192.89
428.832	6250.23
429.039	6047.48
429.247	6127.35
429.454	6727.41
429.662	7024.36
429.869	6729.45
430.076	7335.65
430.284	6952.68
430.491	7321.32
430.699	7796.45
430.906	7689.95
431.114	7634.66
431.321	8013.53
431.528	8357.59
431.736	8670.93
431.943	9340.61
432.15	8799.95
432.358	9004.75
432.565	9547.46
432.772	9656
432.979	10112.7
433.187	10245.82
433.394	10311.35
433.601	10786.48
433.808	10882.74
434.016	10835.63
434.223	11202.22
434.43	12172.96
434.637	11806.37
434.844	12359.32
435.052	12785.3
435.259	12697.24
435.466	12826.26
435.673	12906.13
435.88	13692.55
436.087	14380.67
436.294	14425.72
436.501	14147.2
436.708	14433.91
436.915	14628.47
437.122	15646.31
437.329	15423.08
437.537	15787.62
437.743	16293.47
437.95	16139.87
438.157	16838.23
438.364	17524.3
438.571	17458.76
438.778	17587.78
438.985	19062.32
439.192	18501.18
439.399	18966.07
439.606	18554.43
439.813	19777.06
440.02	20788.76
440.227	20125.22
440.433	20237.86
440.64	21179.92
440.847	21011.99
441.054	21335.57
441.261	22873.59
441.467	22541.82
441.674	23145.97
441.881	23854.57
442.088	23743.98
442.294	23504.37
442.501	24284.64
442.708	24884.7
442.914	25611.73
443.121	26983.87
443.328	26074.57
443.534	27837.87
443.741	27282.87
443.948	26772.92
444.154	28970.4
444.361	28474.79
444.568	28792.22
444.774	29091.23
444.981	29527.44
445.187	30217.61
445.394	31524.21
445.6	31378.81
445.807	33881.42
446.013	32765.28
446.22	32980.32
446.426	34354.51
446.633	34426.18
446.839	35951.92
447.046	34286.92
447.252	36273.45
447.459	36318.51
447.665	36627.75
447.871	37801.24
448.078	39228.67
448.284	37926.16
448.491	38483.21
448.697	39939.32
448.903	40633.58
449.11	40705.26
449.316	40479.98
449.522	41088.23
449.728	42048.72
449.935	42321.1
450.141	42538.19
450.347	43310.27
450.553	42126.55
450.76	42521.8
450.966	43975.86
451.172	43427.01
451.378	44584.11
451.584	44012.73
451.791	45264.03
451.997	45167.78
452.203	45950.1
452.409	45401.25
452.615	45266.08
452.821	43818.17
453.027	43136.2
453.233	45690.01
453.44	43859.13
453.646	44342.45
453.852	44690.6
454.058	45221.03
454.264	43683
454.47	44704.94
454.676	43572.41
454.882	45190.31
455.088	41385.18
455.294	42138.83
455.5	42616.01
455.705	42972.36
455.911	41123.04
456.117	40555.75
456.323	39918.84
456.529	37915.92
456.735	39353.6
456.941	38255.89
457.147	38085.9
457.352	36578.6
457.558	36629.8
457.764	36572.46
457.97	35863.86
458.176	35253.56
458.381	35347.77
458.587	33342.81
458.793	33809.75
458.999	31896.94
459.204	33699.16
459.41	32937.31
459.616	30762.37
459.821	30719.36
460.027	30494.08
460.233	30047.63
460.438	28564.9
460.644	29334.93
460.85	27643.31
461.055	27411.89
461.261	27426.23
461.466	25320.91
461.672	24593.89
461.878	26443.2
462.083	24344.03
462.289	24014.31
462.494	23782.89
462.7	22844.92
462.905	22035.97
463.111	23399.92
463.316	22920.7
463.522	22855.16
463.727	22783.48
463.932	22521.34
464.138	22312.45
464.343	22494.72
464.549	21509.65
464.754	22533.63
464.959	22257.15
465.165	22115.84
465.37	21313.04
465.575	20774.42
465.781	21292.56
465.986	21798.41
466.191	20874.77
466.397	20510.24
466.602	19349.04
466.807	20401.69
467.012	20287.01
467.218	20051.49
