Data from USB4F104151__29__12-27-14-035.txt Node

Date: Fri Mar 14 12:27:14 EDT 2025
User: louis
Spectrometer: USB4F10415
Trigger mode: 4
Integration Time (sec): 2.000000E-2
Scans to average: 1
Electric dark correction enabled: true
Nonlinearity correction enabled: false
Boxcar width: 0
XAxis mode: Wavelengths
Number of Pixels in Spectrum: 3648
>>>>>Begin Spectral Data<<<<<
178.204	-70.65
178.424	-70.65
178.644	-70.65
178.864	-113.66
179.084	-97.28
179.304	-99.33
179.524	9.22
179.744	33.79
179.964	-9.22
180.184	29.7
180.404	-3.07
180.624	1.02
180.844	37.89
181.064	-29.7
181.283	-1.02
181.503	-31.74
181.723	62.46
181.943	-13.31
182.163	76.8
182.383	29.7
182.602	56.32
182.822	91.13
183.042	35.84
183.262	-17.41
183.482	46.08
183.701	44.03
183.921	41.98
184.141	-31.74
184.361	31.74
184.58	52.22
184.8	64.51
185.02	5.12
185.239	-13.31
185.459	25.6
185.679	-1.02
185.898	56.32
186.118	103.42
186.338	48.13
186.557	31.74
186.777	-76.8
186.997	-21.5
187.216	-7.17
187.436	-13.31
187.655	60.42
187.875	115.71
188.095	31.74
188.314	23.55
188.534	37.89
188.753	9.22
188.973	29.7
189.192	37.89
189.412	27.65
189.631	44.03
189.851	-19.46
190.07	33.79
190.29	-11.26
190.509	46.08
190.729	23.55
190.948	50.18
191.168	103.42
191.387	1.02
191.607	-1.02
191.826	113.66
192.045	25.6
192.265	23.55
192.484	44.03
192.704	97.28
192.923	95.23
193.142	9.22
193.362	44.03
193.581	119.81
193.8	9.22
194.02	44.03
194.239	52.22
194.458	19.46
194.678	82.94
194.897	17.41
195.116	33.79
195.335	41.98
195.555	123.9
195.774	58.37
195.993	37.89
196.212	87.04
196.432	19.46
196.651	72.7
196.87	19.46
197.089	78.85
197.308	56.32
197.528	9.22
197.747	23.55
197.966	39.94
198.185	66.56
198.404	-27.65
198.623	70.65
198.842	25.6
199.062	37.89
199.281	39.94
199.5	27.65
199.719	54.27
199.938	23.55
200.157	58.37
200.376	80.89
200.595	15.36
200.814	7.17
201.033	52.22
201.252	21.5
201.471	107.52
201.69	91.13
201.909	27.65
202.128	87.04
202.347	72.7
202.566	33.79
202.785	27.65
203.004	29.7
203.223	52.22
203.442	1.02
203.661	39.94
203.879	58.37
204.098	60.42
204.317	72.7
204.536	-46.08
204.755	44.03
204.974	11.26
205.193	52.22
205.411	13.31
205.63	-37.89
205.849	25.6
206.068	52.22
206.287	-33.79
206.505	-64.51
206.724	-21.5
206.943	-5.12
207.162	31.74
207.381	31.74
207.599	31.74
207.818	48.13
208.037	11.26
208.255	-15.36
208.474	48.13
208.693	-25.6
208.911	72.7
209.13	9.22
209.349	-23.55
209.567	66.56
209.786	37.89
210.005	72.7
210.223	17.41
210.442	-50.18
210.661	-35.84
210.879	107.52
211.098	25.6
211.316	39.94
211.535	62.46
211.753	7.17
211.972	-11.26
212.191	44.03
212.409	66.56
212.628	87.04
212.846	117.76
213.065	72.7
213.283	35.84
213.502	46.08
213.72	99.33
213.938	29.7
214.157	58.37
214.375	48.13
214.594	13.31
214.812	76.8
215.031	64.51
215.249	46.08
215.467	60.42
215.686	97.28
215.904	-17.41
216.122	5.12
216.341	66.56
216.559	-13.31
216.778	-39.94
216.996	64.51
217.214	23.55
217.432	46.08
217.651	80.89
217.869	48.13
218.087	11.26
218.306	-1.02
218.524	97.28
218.742	-31.74
218.96	9.22
219.179	-25.6
219.397	-1.02
219.615	93.18
219.833	-1.02
220.051	35.84
220.27	48.13
220.488	93.18
220.706	-9.22
220.924	109.57
221.142	19.46
221.36	87.04
221.578	52.22
221.796	35.84
222.015	93.18
222.233	-7.17
222.451	99.33
222.669	-3.07
222.887	41.98
223.105	5.12
223.323	54.27
223.541	33.79
223.759	1.02
223.977	80.89
224.195	113.66
224.413	13.31
224.631	9.22
224.849	-21.5
225.067	41.98
225.285	56.32
225.503	7.17
225.721	-33.79
225.939	35.84
226.157	29.7
226.375	50.18
226.592	-17.41
226.81	21.5
227.028	19.46
227.246	70.65
227.464	-23.55
227.682	13.31
227.9	101.37
228.117	105.47
228.335	31.74
228.553	7.17
228.771	-35.84
228.989	62.46
229.206	33.79
229.424	7.17
229.642	54.27
229.86	87.04
230.077	117.76
230.295	62.46
230.513	29.7
230.731	58.37
230.948	52.22
231.166	91.13
231.384	31.74
231.601	-27.65
231.819	93.18
232.037	23.55
232.254	95.23
232.472	95.23
232.689	-9.22
232.907	19.46
233.125	25.6
233.342	111.61
233.56	-54.27
233.777	25.6
233.995	21.5
234.213	74.75
234.43	-37.89
234.648	74.75
234.865	31.74
235.083	97.28
235.3	82.94
235.518	107.52
235.735	41.98
235.953	113.66
236.17	74.75
236.388	13.31
236.605	80.89
236.822	105.47
237.04	72.7
237.257	29.7
237.475	7.17
237.692	58.37
237.909	37.89
238.127	82.94
238.344	31.74
238.562	15.36
238.779	-17.41
238.996	39.94
239.214	89.09
239.431	72.7
239.648	52.22
239.865	89.09
240.083	64.51
240.3	93.18
240.517	35.84
240.735	82.94
240.952	99.33
241.169	46.08
241.386	37.89
241.603	23.55
241.821	76.8
242.038	41.98
242.255	-5.12
242.472	-33.79
242.689	35.84
242.907	87.04
243.124	-37.89
243.341	95.23
243.558	58.37
243.775	41.98
243.992	13.31
244.209	9.22
244.426	15.36
244.643	97.28
244.86	5.12
245.078	46.08
245.295	107.52
245.512	46.08
245.729	5.12
245.946	48.13
246.163	-21.5
246.38	-17.41
246.597	-7.17
246.814	56.32
247.031	-54.27
247.248	54.27
247.464	68.61
247.681	50.18
247.898	-7.17
248.115	41.98
248.332	-15.36
248.549	74.75
248.766	78.85
248.983	70.65
249.2	35.84
249.417	-11.26
249.633	35.84
249.85	132.09
250.067	82.94
250.284	66.56
250.501	15.36
250.717	76.8
250.934	41.98
251.151	80.89
251.368	3.07
251.585	33.79
251.801	-33.79
252.018	19.46
252.235	72.7
252.451	-19.46
252.668	-29.7
252.885	44.03
253.102	11.26
253.318	41.98
253.535	19.46
253.752	52.22
253.968	39.94
254.185	44.03
254.401	80.89
254.618	123.9
254.835	19.46
255.051	9.22
255.268	46.08
255.484	64.51
255.701	48.13
255.917	99.33
256.134	33.79
256.351	82.94
256.567	13.31
256.784	58.37
257	70.65
257.217	21.5
257.433	44.03
257.65	3.07
257.866	23.55
258.082	-27.65
258.299	89.09
258.515	66.56
258.732	31.74
258.948	41.98
259.165	11.26
259.381	3.07
259.597	64.51
259.814	44.03
260.03	56.32
260.246	35.84
260.463	46.08
260.679	91.13
260.895	25.6
261.112	48.13
261.328	-3.07
261.544	-3.07
261.761	89.09
261.977	64.51
262.193	54.27
262.409	15.36
262.626	64.51
262.842	56.32
263.058	56.32
263.274	50.18
263.49	-29.7
263.707	78.85
263.923	1.02
264.139	37.89
264.355	109.57
264.571	54.27
264.787	56.32
265.004	21.5
265.22	103.42
265.436	25.6
265.652	76.8
265.868	5.12
266.084	3.07
266.3	46.08
266.516	9.22
266.732	19.46
266.948	37.89
267.164	72.7
267.38	64.51
267.596	68.61
267.812	84.99
268.028	-11.26
268.244	21.5
268.46	-41.98
268.676	105.47
268.892	66.56
269.108	33.79
269.324	113.66
269.54	15.36
269.756	111.61
269.972	50.18
270.188	62.46
270.403	68.61
270.619	15.36
270.835	50.18
271.051	19.46
271.267	60.42
271.483	13.31
271.698	35.84
271.914	48.13
272.13	11.26
272.346	35.84
272.562	-27.65
272.777	9.22
272.993	-27.65
273.209	62.46
273.425	9.22
273.64	64.51
273.856	60.42
274.072	27.65
274.287	60.42
274.503	-3.07
274.719	37.89
274.934	70.65
275.15	37.89
275.366	78.85
275.581	1.02
275.797	70.65
276.012	7.17
276.228	39.94
276.444	60.42
276.659	37.89
276.875	60.42
277.09	64.51
277.306	95.23
277.521	66.56
277.737	25.6
277.952	1.02
278.168	52.22
278.383	97.28
278.599	41.98
278.814	105.47
279.03	31.74
279.245	58.37
279.461	21.5
279.676	68.61
279.892	37.89
280.107	-15.36
280.322	-21.5
280.538	31.74
280.753	70.65
280.969	80.89
281.184	29.7
281.399	46.08
281.615	56.32
281.83	48.13
282.045	3.07
282.26	21.5
282.476	23.55
282.691	27.65
282.906	13.31
283.122	25.6
283.337	19.46
283.552	123.9
283.767	78.85
283.983	119.81
284.198	9.22
284.413	99.33
284.628	-19.46
284.843	56.32
285.058	107.52
285.274	123.9
285.489	68.61
285.704	56.32
285.919	91.13
286.134	-1.02
286.349	78.85
286.564	5.12
286.779	46.08
286.995	64.51
287.21	-44.03
287.425	19.46
287.64	9.22
287.855	111.61
288.07	7.17
288.285	-3.07
288.5	44.03
288.715	13.31
288.93	39.94
289.145	41.98
289.36	74.75
289.575	50.18
289.79	80.89
290.004	101.37
290.219	44.03
290.434	44.03
290.649	9.22
290.864	72.7
291.079	78.85
291.294	107.52
291.509	82.94
291.724	50.18
291.938	76.8
292.153	113.66
292.368	25.6
292.583	39.94
292.798	82.94
293.012	19.46
293.227	41.98
293.442	41.98
293.657	103.42
293.871	91.13
294.086	62.46
294.301	11.26
294.516	82.94
294.73	41.98
294.945	60.42
295.16	93.18
295.374	50.18
295.589	119.81
295.804	15.36
296.018	136.19
296.233	62.46
296.447	25.6
296.662	11.26
296.877	46.08
297.091	-1.02
297.306	17.41
297.52	66.56
297.735	56.32
297.949	25.6
298.164	74.75
298.378	60.42
298.593	89.09
298.807	140.29
299.022	44.03
299.236	19.46
299.451	78.85
299.665	72.7
299.88	72.7
300.094	-37.89
300.309	109.57
300.523	3.07
300.737	-1.02
300.952	-21.5
301.166	39.94
301.381	52.22
301.595	64.51
301.809	76.8
302.024	27.65
302.238	37.89
302.452	21.5
302.667	-9.22
302.881	44.03
303.095	23.55
303.309	62.46
303.524	9.22
303.738	39.94
303.952	23.55
304.166	76.8
304.381	27.65
304.595	125.95
304.809	13.31
305.023	80.89
305.237	19.46
305.452	80.89
305.666	52.22
305.88	46.08
306.094	35.84
306.308	41.98
306.522	111.61
306.736	33.79
306.95	68.61
307.164	-21.5
307.379	5.12
307.593	70.65
307.807	46.08
308.021	66.56
308.235	46.08
308.449	17.41
308.663	123.9
308.877	84.99
309.091	11.26
309.305	31.74
309.519	82.94
309.733	76.8
309.947	-29.7
310.161	39.94
310.374	31.74
310.588	74.75
310.802	56.32
311.016	74.75
311.23	46.08
311.444	93.18
311.658	48.13
311.872	70.65
312.085	66.56
312.299	93.18
312.513	103.42
312.727	132.09
312.941	68.61
313.154	46.08
313.368	80.89
313.582	37.89
313.796	97.28
314.009	37.89
314.223	50.18
314.437	58.37
314.651	17.41
314.864	146.43
315.078	5.12
315.292	-25.6
315.505	13.31
315.719	44.03
315.933	44.03
316.146	-19.46
316.36	3.07
316.573	74.75
316.787	35.84
317.001	99.33
317.214	13.31
317.428	46.08
317.641	15.36
317.855	48.13
318.068	93.18
318.282	87.04
318.495	72.7
318.709	21.5
318.922	91.13
319.136	48.13
319.349	31.74
319.563	113.66
319.776	60.42
319.99	62.46
320.203	52.22
320.417	48.13
320.63	82.94
320.843	132.09
321.057	74.75
321.27	3.07
321.483	44.03
321.697	56.32
321.91	70.65
322.124	78.85
322.337	-1.02
322.55	-11.26
322.763	13.31
322.977	70.65
323.19	115.71
323.403	33.79
323.617	101.37
323.83	60.42
324.043	117.76
324.256	41.98
324.469	82.94
324.683	87.04
324.896	66.56
325.109	80.89
325.322	48.13
325.535	95.23
325.748	11.26
325.962	-13.31
326.175	97.28
326.388	44.03
326.601	138.24
326.814	84.99
327.027	5.12
327.24	117.76
327.453	-3.07
327.666	97.28
327.879	31.74
328.092	27.65
328.305	15.36
328.518	84.99
328.731	27.65
328.944	93.18
329.157	89.09
329.37	60.42
329.583	52.22
329.796	107.52
330.009	17.41
330.222	48.13
330.435	5.12
330.648	74.75
330.861	101.37
331.073	44.03
331.286	68.61
331.499	87.04
331.712	39.94
331.925	115.71
332.138	76.8
332.35	35.84
332.563	-15.36
332.776	41.98
332.989	56.32
333.202	64.51
333.414	19.46
333.627	-3.07
333.84	17.41
334.053	27.65
334.265	68.61
334.478	111.61
334.691	7.17
334.903	50.18
335.116	50.18
335.329	9.22
335.541	52.22
335.754	111.61
335.966	56.32
336.179	82.94
336.392	50.18
336.604	23.55
336.817	29.7
337.029	54.27
337.242	99.33
337.454	66.56
337.667	19.46
337.88	72.7
338.092	72.7
338.305	9.22
338.517	70.65
338.729	62.46
338.942	56.32
339.154	39.94
339.367	9.22
339.579	52.22
339.792	76.8
340.004	-3.07
340.217	48.13
340.429	72.7
340.641	13.31
340.854	3.07
341.066	62.46
341.278	68.61
341.491	123.9
341.703	19.46
341.915	7.17
342.128	52.22
342.34	11.26
342.552	15.36
342.764	74.75
342.977	19.46
343.189	60.42
343.401	91.13
343.613	1.02
343.826	66.56
344.038	52.22
344.25	130.05
344.462	78.85
344.674	107.52
344.886	48.13
345.099	97.28
345.311	105.47
345.523	9.22
345.735	99.33
345.947	50.18
346.159	72.7
346.371	25.6
346.583	44.03
346.795	84.99
347.007	72.7
347.219	11.26
347.431	29.7
347.643	-13.31
347.855	27.65
348.067	31.74
348.279	156.67
348.491	80.89
348.703	91.13
348.915	21.5
349.127	60.42
349.339	23.55
349.551	37.89
349.763	74.75
349.975	134.14
350.187	84.99
350.399	54.27
350.61	91.13
350.822	64.51
351.034	89.09
351.246	48.13
351.458	78.85
351.669	82.94
351.881	60.42
352.093	31.74
352.305	84.99
352.517	58.37
352.728	134.14
352.94	35.84
353.152	78.85
353.363	50.18
353.575	52.22
353.787	130.05
353.999	95.23
354.21	76.8
354.422	91.13
354.633	27.65
354.845	37.89
355.057	27.65
355.268	33.79
355.48	58.37
355.692	117.76
355.903	11.26
356.115	23.55
356.326	-9.22
356.538	19.46
356.749	17.41
356.961	128
357.172	13.31
357.384	95.23
357.595	119.81
357.807	97.28
358.018	99.33
358.23	109.57
358.441	35.84
358.653	54.27
358.864	66.56
359.075	99.33
359.287	27.65
359.498	58.37
359.709	35.84
359.921	70.65
360.132	33.79
360.344	-1.02
360.555	82.94
360.766	93.18
360.977	23.55
361.189	52.22
361.4	91.13
361.611	58.37
361.823	82.94
362.034	119.81
362.245	11.26
362.456	84.99
362.667	37.89
362.879	11.26
363.09	52.22
363.301	111.61
363.512	17.41
363.723	27.65
363.935	74.75
364.146	130.05
364.357	91.13
364.568	89.09
364.779	5.12
364.99	78.85
365.201	-29.7
365.412	80.89
365.623	33.79
365.834	99.33
366.045	62.46
366.256	95.23
366.467	1.02
366.678	78.85
366.889	7.17
367.1	50.18
367.311	54.27
367.522	19.46
367.733	93.18
367.944	50.18
368.155	74.75
368.366	113.66
368.577	58.37
368.788	54.27
368.999	84.99
369.209	107.52
369.42	148.48
369.631	125.95
369.842	52.22
370.053	41.98
370.264	87.04
370.474	11.26
370.685	87.04
370.896	48.13
371.107	1.02
371.317	103.42
371.528	52.22
371.739	160.77
371.95	58.37
372.16	97.28
372.371	56.32
372.582	39.94
372.792	29.7
373.003	125.95
373.214	103.42
373.424	68.61
373.635	68.61
373.846	60.42
374.056	58.37
374.267	31.74
374.477	66.56
374.688	-27.65
374.898	9.22
375.109	19.46
375.319	39.94
375.53	74.75
375.74	64.51
375.951	138.24
376.161	87.04
376.372	130.05
376.582	35.84
376.793	39.94
377.003	87.04
377.214	80.89
377.424	60.42
377.635	84.99
377.845	76.8
378.055	84.99
378.266	35.84
378.476	80.89
378.686	89.09
378.897	123.9
379.107	68.61
379.317	58.37
379.528	54.27
379.738	58.37
379.948	46.08
380.158	101.37
380.369	66.56
380.579	95.23
380.789	105.47
380.999	52.22
381.21	70.65
381.42	150.53
381.63	101.37
381.84	119.81
382.05	134.14
382.261	78.85
382.471	87.04
382.681	62.46
382.891	37.89
383.101	87.04
383.311	52.22
383.521	70.65
383.731	111.61
383.941	68.61
384.151	56.32
384.361	35.84
384.571	56.32
384.781	119.81
384.991	19.46
385.201	99.33
385.411	23.55
385.621	132.09
385.831	87.04
386.041	41.98
386.251	52.22
386.461	39.94
386.671	78.85
386.881	7.17
387.091	82.94
387.301	115.71
387.511	193.53
387.72	89.09
387.93	31.74
388.14	15.36
388.35	105.47
388.56	107.52
388.769	60.42
388.979	87.04
389.189	95.23
389.399	109.57
389.609	93.18
389.818	84.99
390.028	105.47
390.238	91.13
390.447	76.8
390.657	156.67
390.867	23.55
391.076	62.46
391.286	111.61
391.496	107.52
391.705	21.5
391.915	138.24
392.125	115.71
392.334	-5.12
392.544	39.94
392.753	152.57
392.963	105.47
393.172	44.03
393.382	35.84
393.591	144.38
393.801	54.27
394.01	164.86
394.22	134.14
394.429	175.1
394.639	78.85
394.848	87.04
395.058	70.65
395.267	101.37
395.477	74.75
395.686	101.37
395.895	140.29
396.105	123.9
396.314	117.76
396.524	125.95
396.733	115.71
396.942	109.57
397.152	156.67
397.361	160.77
397.57	146.43
397.78	70.65
397.989	197.63
398.198	87.04
398.407	144.38
398.617	150.53
398.826	72.7
399.035	50.18
399.244	103.42
399.453	158.72
399.663	150.53
399.872	164.86
400.081	150.53
400.29	144.38
400.499	119.81
400.708	82.94
400.917	142.33
401.127	138.24
401.336	113.66
401.545	107.52
401.754	164.86
401.963	197.63
402.172	158.72
402.381	91.13
402.59	146.43
402.799	158.72
403.008	111.61
403.217	132.09
403.426	101.37
403.635	181.25
403.844	160.77
404.053	111.61
404.262	101.37
404.471	168.96
404.68	146.43
404.888	207.87
405.097	187.39
405.306	271.36
405.515	193.53
405.724	250.88
405.933	304.12
406.142	263.16
406.35	203.77
406.559	222.2
406.768	168.96
406.977	220.16
407.185	289.79
407.394	205.82
407.603	226.3
407.812	211.96
408.02	244.73
408.229	244.73
408.438	265.21
408.646	222.2
408.855	250.88
409.064	304.12
409.272	287.74
409.481	359.42
409.69	283.64
409.898	316.41
410.107	410.62
410.315	377.85
410.524	287.74
410.733	402.43
410.941	371.71
411.15	496.63
411.358	422.91
411.567	506.87
411.775	533.5
411.984	441.34
412.192	465.91
412.401	439.29
412.609	570.36
412.818	603.13
413.026	693.24
413.234	662.52
413.443	537.59
413.651	596.98
413.86	588.79
414.068	779.25
414.276	723.96
414.485	783.35
414.693	713.72
414.901	836.6
415.11	771.06
415.318	910.32
415.526	828.4
415.734	900.08
415.943	887.79
416.151	902.13
416.359	936.95
416.567	984.05
416.776	1096.69
416.984	1094.64
417.192	1115.12
417.4	994.29
417.608	1121.26
417.817	1209.33
418.025	1256.43
418.233	1336.3
418.441	1317.87
418.649	1446.89
418.857	1379.31
419.065	1461.23
419.273	1463.27
419.481	1614.82
419.689	1594.34
419.897	1627.11
420.105	1725.41
420.313	1735.65
420.521	1909.73
420.729	1883.11
420.937	2016.23
421.145	2073.57
421.353	2081.76
421.561	2311.13
421.769	2274.27
421.977	2276.32
422.185	2284.51
422.393	2579.42
422.601	2524.12
422.809	2571.22
423.017	2628.57
423.224	2759.64
423.432	2907.09
423.64	2876.37
423.848	3302.35
424.056	2913.24
424.263	3208.14
424.471	3251.15
424.679	3394.51
424.887	3554.25
425.094	3603.4
425.302	3517.39
425.51	3822.53
425.718	3816.39
425.925	4043.71
426.133	4082.63
426.341	4305.85
426.548	4551.61
426.756	4613.05
426.964	4492.22
427.171	4850.61
427.379	4996.02
427.586	5227.44
427.794	5108.66
428.001	5415.85
428.209	5753.77
428.417	5532.59
428.624	5743.53
428.832	5995.43
429.039	5807.02
429.247	5936.04
429.454	6630.3
429.662	7025.56
429.869	6554.52
430.076	7050.13
430.284	6644.63
430.491	7087
430.699	7457.68
430.906	7504.78
431.114	7617.42
431.321	7891.85
431.528	8094.6
431.736	8649.6
431.943	8780.67
432.15	8698.75
432.358	8809.34
432.565	9352.05
432.772	9409.39
432.979	9489.26
433.187	9909.1
433.394	9978.73
433.601	10494.82
433.808	10654.56
434.016	10566.49
434.223	11017.05
434.43	11778.89
434.637	11518.8
434.844	12186.44
435.052	12544.83
435.259	12370.76
435.466	12485.44
435.673	12483.39
435.88	13177.65
436.087	13845.29
436.294	14002.99
436.501	13566.77
436.708	13878.06
436.915	14281.51
437.122	14940.96
437.329	14969.63
437.537	15219.48
437.743	15694.61
437.95	15661.84
438.157	16472.84
438.364	16818.94
438.571	16749.31
438.778	16947.97
438.985	18760.42
439.192	18205.42
439.399	18410.22
439.606	17926.89
439.813	19069.66
440.02	20247.24
440.227	19847.89
440.433	19745.49
440.64	20366.03
440.847	19991.25
441.054	20613.83
441.261	22053.55
441.467	21811.89
441.674	22465.19
441.881	23083.68
442.088	22905.51
442.294	22780.58
442.501	23442.07
442.708	24296.08
442.914	25041.54
443.121	25997.94
443.328	24863.36
443.534	26899.05
443.741	26118.77
443.948	25952.88
444.154	28068.44
444.361	27503.2
444.568	27867.73
444.774	27861.59
444.981	28099.16
445.187	28844.62
445.394	30034.49
445.6	30014.01
445.807	32985.61
446.013	31427.1
446.22	31851.03
446.426	33104.39
446.633	33311.24
446.839	34646.51
447.046	33573.38
447.252	34824.68
447.459	35492.32
447.665	34904.56
447.871	36633.04
448.078	38422.97
448.284	36284.89
448.491	37200.33
448.697	38525.36
448.903	39348.65
449.11	39119.28
449.316	38689.2
449.522	39344.55
449.728	40622.48
449.935	40880.53
450.141	41163.15
450.347	41982.34
450.553	40356.25
450.76	41099.66
450.966	42350.97
451.172	42033.53
451.378	42703.22
451.584	42281.34
451.791	43145.58
451.997	43213.16
452.203	43759.97
452.409	43897.19
452.615	43553.13
452.821	42066.3
453.027	41609.61
453.233	43768.16
453.44	42203.52
453.646	42389.88
453.852	42834.29
454.058	43530.6
454.264	41742.72
454.47	43063.66
454.676	41982.34
454.882	43501.93
455.088	39938.46
455.294	40417.69
455.5	40731.03
455.705	41335.18
455.911	39561.64
456.117	39217.58
456.323	38054.33
456.529	36205.02
456.735	38300.09
456.941	37009.87
457.147	36458.96
457.352	35031.53
457.558	35209.7
457.764	35086.82
457.97	34241.01
458.176	33604.1
458.381	33720.83
458.587	32059.93
458.793	32008.73
458.999	30288.43
459.204	32510.48
459.41	31543.84
459.616	29751.87
459.821	29770.3
460.027	29635.13
460.233	28719.69
460.438	27279.97
460.644	27890.26
460.85	26643.05
461.055	26036.85
461.261	25909.88
461.466	24058.51
461.672	23546.52
461.878	24943.24
462.083	23376.54
462.289	23167.65
462.494	22629.03
462.7	21836.47
462.905	21162.69
463.111	21979.82
463.316	22098.61
463.522	21629.62
463.727	21484.22
463.932	21412.54
464.138	20931.26
464.343	21539.51
464.549	20648.64
464.754	21494.46
464.959	21134.01
465.165	21084.86
465.37	20175.56
465.575	19733.2
465.781	20630.21
465.986	20732.61
466.191	19802.83
466.397	19069.66
466.602	18645.73
466.807	19487.45
467.012	19333.85
467.218	18883.3
467.423	18889.44
