Data from USB4F104151__30__12-27-14-302.txt Node

Date: Fri Mar 14 12:27:14 EDT 2025
User: louis
Spectrometer: USB4F10415
Trigger mode: 4
Integration Time (sec): 2.000000E-2
Scans to average: 1
Electric dark correction enabled: true
Nonlinearity correction enabled: false
Boxcar width: 0
XAxis mode: Wavelengths
Number of Pixels in Spectrum: 3648
>>>>>Begin Spectral Data<<<<<
178.204	-58.88
178.424	-58.88
178.644	-58.88
178.864	-85.5
179.084	-52.74
179.304	-148.99
179.524	2.56
179.744	41.47
179.964	74.24
180.184	-3.58
180.404	12.8
180.624	-28.16
180.844	-9.73
181.064	59.9
181.283	-7.68
181.503	-32.26
181.723	39.42
181.943	-42.5
182.163	121.34
182.383	14.85
182.602	88.57
182.822	37.38
183.042	72.19
183.262	-15.87
183.482	33.28
183.701	16.9
183.921	61.95
184.141	2.56
184.361	64
184.58	-15.87
184.8	23.04
185.02	6.66
185.239	35.33
185.459	27.14
185.679	68.09
185.898	-28.16
186.118	39.42
186.338	53.76
186.557	57.86
186.777	41.47
186.997	10.75
187.216	25.09
187.436	53.76
187.655	37.38
187.875	109.05
188.095	31.23
188.314	131.58
188.534	6.66
188.753	66.05
188.973	6.66
189.192	94.72
189.412	29.18
189.631	-30.21
189.851	-19.97
190.07	20.99
190.29	94.72
190.509	109.05
190.729	35.33
190.948	-1.54
191.168	109.05
191.387	45.57
191.607	-9.73
191.826	57.86
192.045	59.9
192.265	-34.3
192.484	27.14
192.704	23.04
192.923	31.23
193.142	111.1
193.362	33.28
193.581	31.23
193.8	35.33
194.02	29.18
194.239	49.66
194.458	31.23
194.678	33.28
194.897	35.33
195.116	78.33
195.335	113.15
195.555	127.49
195.774	88.57
195.993	57.86
196.212	10.75
196.432	49.66
196.651	4.61
196.87	12.8
197.089	74.24
197.308	-3.58
197.528	45.57
197.747	4.61
197.966	35.33
198.185	76.29
198.404	-40.45
198.623	82.43
198.842	74.24
199.062	133.63
199.281	78.33
199.5	20.99
199.719	70.14
199.938	135.68
200.157	51.71
200.376	27.14
200.595	23.04
200.814	2.56
201.033	2.56
201.252	82.43
201.471	125.44
201.69	102.91
201.909	102.91
202.128	20.99
202.347	49.66
202.566	16.9
202.785	-17.92
203.004	-13.82
203.223	33.28
203.442	66.05
203.661	25.09
203.879	125.44
204.098	104.96
204.317	14.85
204.536	12.8
204.755	57.86
204.974	68.09
205.193	43.52
205.411	14.85
205.63	59.9
205.849	57.86
206.068	59.9
206.287	104.96
206.505	18.94
206.724	-5.63
206.943	31.23
207.162	8.7
207.381	35.33
207.599	45.57
207.818	31.23
208.037	25.09
208.255	-48.64
208.474	45.57
208.693	72.19
208.911	25.09
209.13	29.18
209.349	51.71
209.567	-19.97
209.786	31.23
210.005	145.92
210.223	51.71
210.442	61.95
210.661	20.99
210.879	98.81
211.098	53.76
211.316	20.99
211.535	59.9
211.753	0.51
211.972	49.66
212.191	68.09
212.409	59.9
212.628	41.47
212.846	18.94
213.065	33.28
213.283	45.57
213.502	8.7
213.72	37.38
213.938	-17.92
214.157	-1.54
214.375	18.94
214.594	-3.58
214.812	14.85
215.031	98.81
215.249	39.42
215.467	66.05
215.686	-26.11
215.904	59.9
216.122	72.19
216.341	113.15
216.559	-32.26
216.778	104.96
216.996	49.66
217.214	72.19
217.432	-38.4
217.651	49.66
217.869	66.05
218.087	86.53
218.306	68.09
218.524	82.43
218.742	80.38
218.96	80.38
219.179	12.8
219.397	25.09
219.615	41.47
219.833	53.76
220.051	49.66
220.27	33.28
220.488	12.8
220.706	90.62
220.924	35.33
221.142	61.95
221.36	35.33
221.578	37.38
221.796	84.48
222.015	-9.73
222.233	10.75
222.451	125.44
222.669	8.7
222.887	4.61
223.105	51.71
223.323	8.7
223.541	41.47
223.759	107.01
223.977	76.29
224.195	127.49
224.413	94.72
224.631	53.76
224.849	-5.63
225.067	141.82
225.285	27.14
225.503	6.66
225.721	29.18
225.939	10.75
226.157	84.48
226.375	117.25
226.592	18.94
226.81	31.23
227.028	72.19
227.246	47.62
227.464	16.9
227.682	23.04
227.9	66.05
228.117	18.94
228.335	39.42
228.553	53.76
228.771	-1.54
228.989	16.9
229.206	59.9
229.424	119.29
229.642	-13.82
229.86	47.62
230.077	25.09
230.295	82.43
230.513	31.23
230.731	100.86
230.948	68.09
231.166	25.09
231.384	-75.26
231.601	66.05
231.819	64
232.037	-54.78
232.254	78.33
232.472	14.85
232.689	64
232.907	64
233.125	76.29
233.342	39.42
233.56	4.61
233.777	45.57
233.995	90.62
234.213	94.72
234.43	78.33
234.648	23.04
234.865	8.7
235.083	16.9
235.3	-11.78
235.518	23.04
235.735	82.43
235.953	39.42
236.17	6.66
236.388	94.72
236.605	-28.16
236.822	76.29
237.04	23.04
237.257	39.42
237.475	104.96
237.692	18.94
237.909	14.85
238.127	29.18
238.344	55.81
238.562	96.77
238.779	8.7
238.996	14.85
239.214	74.24
239.431	29.18
239.648	-19.97
239.865	55.81
240.083	59.9
240.3	14.85
240.517	-7.68
240.735	59.9
240.952	100.86
241.169	117.25
241.386	27.14
241.603	59.9
241.821	-15.87
242.038	143.87
242.255	76.29
242.472	-26.11
242.689	90.62
242.907	68.09
243.124	29.18
243.341	4.61
243.558	59.9
243.775	14.85
243.992	-5.63
244.209	-1.54
244.426	35.33
244.643	80.38
244.86	76.29
245.078	68.09
245.295	-3.58
245.512	31.23
245.729	51.71
245.946	27.14
246.163	43.52
246.38	51.71
246.597	35.33
246.814	53.76
247.031	27.14
247.248	139.77
247.464	78.33
247.681	-3.58
247.898	23.04
248.115	84.48
248.332	-46.59
248.549	66.05
248.766	104.96
248.983	84.48
249.2	8.7
249.417	-87.55
249.633	-9.73
249.85	6.66
250.067	14.85
250.284	39.42
250.501	47.62
250.717	76.29
250.934	20.99
251.151	92.67
251.368	43.52
251.585	8.7
251.801	20.99
252.018	0.51
252.235	72.19
252.451	-28.16
252.668	57.86
252.885	84.48
253.102	49.66
253.318	35.33
253.535	-5.63
253.752	33.28
253.968	57.86
254.185	-5.63
254.401	72.19
254.618	-46.59
254.835	14.85
255.051	45.57
255.268	80.38
255.484	35.33
255.701	-1.54
255.917	20.99
256.134	-7.68
256.351	84.48
256.567	0.51
256.784	55.81
257	55.81
257.217	86.53
257.433	10.75
257.65	37.38
257.866	53.76
258.082	-9.73
258.299	76.29
258.515	68.09
258.732	47.62
258.948	20.99
259.165	59.9
259.381	57.86
259.597	-7.68
259.814	0.51
260.03	82.43
260.246	107.01
260.463	-19.97
260.679	49.66
260.895	64
261.112	16.9
261.328	84.48
261.544	31.23
261.761	70.14
261.977	8.7
262.193	-11.78
262.409	80.38
262.626	-36.35
262.842	6.66
263.058	70.14
263.274	10.75
263.49	45.57
263.707	-28.16
263.923	76.29
264.139	10.75
264.355	37.38
264.571	76.29
264.787	53.76
265.004	90.62
265.22	6.66
265.436	23.04
265.652	72.19
265.868	72.19
266.084	27.14
266.3	64
266.516	-38.4
266.732	68.09
266.948	-19.97
267.164	12.8
267.38	31.23
267.596	45.57
267.812	41.47
268.028	29.18
268.244	-15.87
268.46	59.9
268.676	12.8
268.892	14.85
269.108	70.14
269.324	37.38
269.54	66.05
269.756	94.72
269.972	31.23
270.188	68.09
270.403	10.75
270.619	-5.63
270.835	66.05
271.051	68.09
271.267	39.42
271.483	94.72
271.698	43.52
271.914	39.42
272.13	23.04
272.346	-52.74
272.562	-5.63
272.777	174.59
272.993	109.05
273.209	10.75
273.425	-22.02
273.64	133.63
273.856	61.95
274.072	31.23
274.287	6.66
274.503	66.05
274.719	88.57
274.934	59.9
275.15	6.66
275.366	33.28
275.581	6.66
275.797	53.76
276.012	57.86
276.228	10.75
276.444	57.86
276.659	61.95
276.875	-40.45
277.09	37.38
277.306	76.29
277.521	59.9
277.737	39.42
277.952	98.81
278.168	61.95
278.383	-3.58
278.599	45.57
278.814	10.75
279.03	-3.58
279.245	107.01
279.461	59.9
279.676	41.47
279.892	33.28
280.107	29.18
280.322	12.8
280.538	25.09
280.753	72.19
280.969	37.38
281.184	20.99
281.399	39.42
281.615	57.86
281.83	51.71
282.045	10.75
282.26	92.67
282.476	74.24
282.691	29.18
282.906	16.9
283.122	80.38
283.337	10.75
283.552	135.68
283.767	23.04
283.983	127.49
284.198	59.9
284.413	6.66
284.628	-62.98
284.843	2.56
285.058	57.86
285.274	23.04
285.489	-7.68
285.704	33.28
285.919	23.04
286.134	39.42
286.349	113.15
286.564	35.33
286.779	20.99
286.995	74.24
287.21	66.05
287.425	64
287.64	-1.54
287.855	96.77
288.07	49.66
288.285	57.86
288.5	43.52
288.715	51.71
288.93	2.56
289.145	39.42
289.36	109.05
289.575	37.38
289.79	76.29
290.004	-9.73
290.219	-17.92
290.434	49.66
290.649	20.99
290.864	76.29
291.079	27.14
291.294	-13.82
291.509	88.57
291.724	55.81
291.938	23.04
292.153	115.2
292.368	55.81
292.583	55.81
292.798	43.52
293.012	92.67
293.227	18.94
293.442	41.47
293.657	107.01
293.871	123.39
294.086	70.14
294.301	61.95
294.516	4.61
294.73	35.33
294.945	6.66
295.16	0.51
295.374	45.57
295.589	51.71
295.804	10.75
296.018	66.05
296.233	49.66
296.447	23.04
296.662	39.42
296.877	55.81
297.091	59.9
297.306	53.76
297.52	-1.54
297.735	-9.73
297.949	41.47
298.164	121.34
298.378	12.8
298.593	45.57
298.807	-3.58
299.022	-5.63
299.236	37.38
299.451	66.05
299.665	2.56
299.88	53.76
300.094	61.95
300.309	88.57
300.523	78.33
300.737	4.61
300.952	86.53
301.166	0.51
301.381	4.61
301.595	64
301.809	88.57
302.024	23.04
302.238	-32.26
302.452	78.33
302.667	-42.5
302.881	131.58
303.095	8.7
303.309	102.91
303.524	31.23
303.738	16.9
303.952	68.09
304.166	113.15
304.381	-26.11
304.595	49.66
304.809	18.94
305.023	59.9
305.237	76.29
305.452	-15.87
305.666	-5.63
305.88	113.15
306.094	125.44
306.308	64
306.522	20.99
306.736	33.28
306.95	92.67
307.164	-32.26
307.379	47.62
307.593	29.18
307.807	59.9
308.021	66.05
308.235	47.62
308.449	57.86
308.663	49.66
308.877	25.09
309.091	41.47
309.305	49.66
309.519	29.18
309.733	45.57
309.947	45.57
310.161	49.66
310.374	111.1
310.588	102.91
310.802	59.9
311.016	-26.11
311.23	84.48
311.444	72.19
311.658	-5.63
311.872	123.39
312.085	74.24
312.299	72.19
312.513	74.24
312.727	-1.54
312.941	33.28
313.154	53.76
313.368	72.19
313.582	125.44
313.796	68.09
314.009	-95.74
314.223	43.52
314.437	49.66
314.651	104.96
314.864	-1.54
315.078	86.53
315.292	-3.58
315.505	35.33
315.719	47.62
315.933	61.95
316.146	82.43
316.36	2.56
316.573	96.77
316.787	92.67
317.001	12.8
317.214	35.33
317.428	115.2
317.641	37.38
317.855	31.23
318.068	37.38
318.282	16.9
318.495	113.15
318.709	70.14
318.922	57.86
319.136	121.34
319.349	57.86
319.563	37.38
319.776	0.51
319.99	-22.02
320.203	57.86
320.417	31.23
320.63	29.18
320.843	64
321.057	78.33
321.27	45.57
321.483	94.72
321.697	70.14
321.91	72.19
322.124	51.71
322.337	55.81
322.55	61.95
322.763	18.94
322.977	113.15
323.19	23.04
323.403	76.29
323.617	78.33
323.83	35.33
324.043	0.51
324.256	61.95
324.469	6.66
324.683	16.9
324.896	-19.97
325.109	-1.54
325.322	14.85
325.535	18.94
325.748	47.62
325.962	39.42
326.175	39.42
326.388	37.38
326.601	29.18
326.814	18.94
327.027	88.57
327.24	117.25
327.453	51.71
327.666	70.14
327.879	92.67
328.092	61.95
328.305	68.09
328.518	14.85
328.731	45.57
328.944	49.66
329.157	35.33
329.37	8.7
329.583	39.42
329.796	84.48
330.009	12.8
330.222	59.9
330.435	-42.5
330.648	90.62
330.861	57.86
331.073	6.66
331.286	8.7
331.499	90.62
331.712	-38.4
331.925	68.09
332.138	8.7
332.35	70.14
332.563	68.09
332.776	49.66
332.989	47.62
333.202	49.66
333.414	49.66
333.627	45.57
333.84	27.14
334.053	47.62
334.265	64
334.478	18.94
334.691	127.49
334.903	131.58
335.116	20.99
335.329	78.33
335.541	47.62
335.754	6.66
335.966	18.94
336.179	45.57
336.392	111.1
336.604	88.57
336.817	59.9
337.029	41.47
337.242	-1.54
337.454	23.04
337.667	-17.92
337.88	43.52
338.092	84.48
338.305	59.9
338.517	51.71
338.729	39.42
338.942	70.14
339.154	55.81
339.367	45.57
339.579	39.42
339.792	133.63
340.004	76.29
340.217	8.7
340.429	43.52
340.641	53.76
340.854	-15.87
341.066	76.29
341.278	33.28
341.491	51.71
341.703	78.33
341.915	6.66
342.128	72.19
342.34	90.62
342.552	-19.97
342.764	35.33
342.977	57.86
343.189	2.56
343.401	64
343.613	-48.64
343.826	80.38
344.038	57.86
344.25	82.43
344.462	64
344.674	113.15
344.886	8.7
345.099	25.09
345.311	92.67
345.523	20.99
345.735	37.38
345.947	96.77
346.159	20.99
346.371	-3.58
346.583	53.76
346.795	115.2
347.007	59.9
347.219	-19.97
347.431	-1.54
347.643	47.62
347.855	31.23
348.067	-26.11
348.279	6.66
348.491	33.28
348.703	64
348.915	49.66
349.127	23.04
349.339	64
349.551	37.38
349.763	117.25
349.975	35.33
350.187	12.8
350.399	111.1
350.61	-1.54
350.822	78.33
351.034	74.24
351.246	80.38
351.458	90.62
351.669	27.14
351.881	45.57
352.093	33.28
352.305	80.38
352.517	55.81
352.728	107.01
352.94	111.1
353.152	111.1
353.363	39.42
353.575	70.14
353.787	61.95
353.999	68.09
354.21	-15.87
354.422	123.39
354.633	39.42
354.845	66.05
355.057	51.71
355.268	39.42
355.48	68.09
355.692	43.52
355.903	90.62
356.115	-58.88
356.326	51.71
356.538	154.11
356.749	145.92
356.961	57.86
357.172	96.77
357.384	64
357.595	94.72
357.807	53.76
358.018	68.09
358.23	29.18
358.441	102.91
358.653	121.34
358.864	57.86
359.075	39.42
359.287	16.9
359.498	90.62
359.709	86.53
359.921	20.99
360.132	121.34
360.344	74.24
360.555	61.95
360.766	-38.4
360.977	8.7
361.189	129.53
361.4	-28.16
361.611	92.67
361.823	14.85
362.034	66.05
362.245	39.42
362.456	68.09
362.667	27.14
362.879	100.86
363.09	14.85
363.301	55.81
363.512	70.14
363.723	64
363.935	76.29
364.146	6.66
364.357	25.09
364.568	49.66
364.779	43.52
364.99	88.57
365.201	51.71
365.412	45.57
365.623	80.38
365.834	29.18
366.045	37.38
366.256	8.7
366.467	66.05
366.678	102.91
366.889	100.86
367.1	51.71
367.311	37.38
367.522	66.05
367.733	41.47
367.944	45.57
368.155	45.57
368.366	90.62
368.577	25.09
368.788	66.05
368.999	104.96
369.209	45.57
369.42	37.38
369.631	76.29
369.842	31.23
370.053	115.2
370.264	33.28
370.474	18.94
370.685	70.14
370.896	45.57
371.107	117.25
371.317	92.67
371.528	76.29
371.739	35.33
371.95	127.49
372.16	86.53
372.371	45.57
372.582	57.86
372.792	115.2
373.003	41.47
373.214	49.66
373.424	61.95
373.635	74.24
373.846	109.05
374.056	59.9
374.267	64
374.477	53.76
374.688	25.09
374.898	59.9
375.109	31.23
375.319	43.52
375.53	156.16
375.74	16.9
375.951	127.49
376.161	55.81
376.372	41.47
376.582	102.91
376.793	25.09
377.003	2.56
377.214	115.2
377.424	53.76
377.635	33.28
377.845	4.61
378.055	84.48
378.266	88.57
378.476	45.57
378.686	59.9
378.897	29.18
379.107	96.77
379.317	45.57
379.528	64
379.738	127.49
379.948	76.29
380.158	102.91
380.369	43.52
380.579	51.71
380.789	88.57
380.999	-17.92
381.21	100.86
381.42	121.34
381.63	23.04
381.84	66.05
382.05	111.1
382.261	100.86
382.471	70.14
382.681	61.95
382.891	131.58
383.101	72.19
383.311	55.81
383.521	98.81
383.731	78.33
383.941	72.19
384.151	8.7
384.361	135.68
384.571	80.38
384.781	78.33
384.991	113.15
385.201	100.86
385.411	102.91
385.621	49.66
385.831	92.67
386.041	78.33
386.251	51.71
386.461	92.67
386.671	45.57
386.881	109.05
387.091	72.19
387.301	92.67
387.511	92.67
387.72	94.72
387.93	96.77
388.14	-7.68
388.35	74.24
388.56	109.05
388.769	127.49
388.979	119.29
389.189	86.53
389.399	135.68
389.609	23.04
389.818	51.71
390.028	104.96
390.238	43.52
390.447	31.23
390.657	41.47
390.867	45.57
391.076	55.81
391.286	82.43
391.496	102.91
391.705	123.39
391.915	72.19
392.125	90.62
392.334	111.1
392.544	143.87
392.753	80.38
392.963	94.72
393.172	127.49
393.382	72.19
393.591	111.1
393.801	43.52
394.01	119.29
394.22	139.77
394.429	127.49
394.639	172.54
394.848	129.53
395.058	78.33
395.267	143.87
395.477	115.2
395.686	107.01
395.895	115.2
396.105	137.73
396.314	111.1
396.524	92.67
396.733	137.73
396.942	154.11
397.152	92.67
397.361	113.15
397.57	219.64
397.78	131.58
397.989	37.38
398.198	59.9
398.407	121.34
398.617	133.63
398.826	80.38
399.035	176.64
399.244	172.54
399.453	74.24
399.663	45.57
399.872	199.16
400.081	145.92
400.29	107.01
400.499	121.34
400.708	205.31
400.917	135.68
401.127	205.31
401.336	123.39
401.545	164.35
401.754	176.64
401.963	139.77
402.172	117.25
402.381	143.87
402.59	135.68
402.799	55.81
403.008	180.73
403.217	125.44
403.426	172.54
403.635	100.86
403.844	107.01
404.053	188.93
404.262	125.44
404.471	252.41
404.68	188.93
404.888	178.69
405.097	117.25
405.306	242.17
405.515	147.97
405.724	115.2
405.933	207.36
406.142	205.31
406.35	252.41
406.559	160.25
406.768	250.36
406.977	231.93
407.185	258.56
407.394	203.26
407.603	172.54
407.812	242.17
408.02	268.8
408.229	274.94
408.438	371.19
408.646	256.51
408.855	305.66
409.064	326.14
409.272	334.33
409.481	326.14
409.69	330.23
409.898	350.71
410.107	307.71
410.315	406.01
410.524	346.62
410.733	455.16
410.941	369.15
411.15	422.39
411.358	418.3
411.567	469.5
411.775	522.74
411.984	477.69
412.192	526.84
412.401	522.74
412.609	600.57
412.818	563.7
413.026	578.04
413.234	608.76
413.443	592.37
413.651	641.53
413.86	709.11
414.068	721.4
414.276	733.68
414.485	711.16
414.693	700.92
414.901	791.03
415.11	782.84
415.318	748.02
415.526	883.19
415.734	813.56
415.943	862.71
416.151	1047.02
416.359	979.44
416.567	977.39
416.776	1059.31
416.984	1184.24
417.192	1114.61
417.4	1079.79
417.608	1155.57
417.817	1198.57
418.025	1239.53
418.233	1214.96
418.441	1300.97
418.649	1409.51
418.857	1450.47
419.065	1554.92
419.273	1446.38
419.481	1591.78
419.689	1642.98
419.897	1655.27
420.105	1724.9
420.313	1821.16
420.521	1855.97
420.729	1872.36
420.937	1935.84
421.145	1958.37
421.353	2046.43
421.561	2134.5
421.769	2240.99
421.977	2245.09
422.185	2327
422.393	2566.62
422.601	2595.29
422.809	2556.38
423.017	2628.06
423.224	2761.17
423.432	2828.76
423.64	2906.58
423.848	3099.09
424.056	3033.55
424.263	3232.21
424.471	3176.91
424.679	3281.36
424.887	3543.5
425.094	3570.12
425.302	3740.1
425.51	3660.23
425.718	3860.93
425.925	3953.09
426.133	4061.63
426.341	4342.21
426.548	4487.61
426.756	4467.13
426.964	4598.2
427.171	4878.77
427.379	5005.75
427.586	5036.47
427.794	5040.56
428.001	5390.77
428.209	5706.15
428.417	5581.23
428.624	6058.4
428.832	6062.5
429.039	5951.91
429.247	5939.62
429.454	6537.63
429.662	6887.83
429.869	6445.47
430.076	6943.13
430.284	6693.27
430.491	7008.66
430.699	7524.75
430.906	7512.46
431.114	7559.56
431.321	7879.05
431.528	8253.83
431.736	8442.24
431.943	8745.34
432.15	8614.27
432.358	8743.29
432.565	9259.38
432.772	9322.87
432.979	9908.58
433.187	9861.48
433.394	9789.8
433.601	10522.98
433.808	10637.66
434.016	10709.34
434.223	10801.5
434.43	11671.89
434.637	11516.24
434.844	11983.18
435.052	12306.76
435.259	12273.99
435.466	12478.79
435.673	12288.32
435.88	13240.63
436.087	13838.64
436.294	13830.44
436.501	13564.21
436.708	13766.96
436.915	14362.92
437.122	15149.34
437.329	15116.57
437.537	15417.62
437.743	15663.38
437.95	15548.69
438.157	16275.72
438.364	16879.87
438.571	16982.27
438.778	16976.12
438.985	18473.19
439.192	17725.68
439.399	18612.45
439.606	18129.13
439.813	18938.08
440.02	20015.31
440.227	19777.75
440.433	19370.2
440.64	20291.79
440.847	20226.25
441.054	20674.76
441.261	21854.39
441.467	21921.97
441.674	22171.82
441.881	22841.51
442.088	22827.17
442.294	22849.7
442.501	23586.97
442.708	24078.48
442.914	24598.66
443.121	25796.73
443.328	25016.45
443.534	26687.59
443.741	25888.88
443.948	25815.16
444.154	27986
444.361	27496.54
444.568	27928.66
444.774	27721.82
444.981	27899.99
445.187	28758.09
445.394	30603.31
445.6	29982.77
445.807	32731.15
446.013	31293.47
446.22	31754.27
446.426	32952.33
446.633	33421.31
446.839	34557.94
447.046	32872.46
447.252	35016.68
447.459	35182.57
447.665	34996.2
447.871	36497.36
448.078	37425.09
448.284	36349.91
448.491	37212.1
448.697	38436.79
448.903	39270.31
449.11	39327.66
449.316	38637.49
449.522	39417.77
449.728	40564.63
449.935	40746.9
450.141	40947.6
450.347	41875.33
450.553	40327.06
450.76	41381.77
450.966	42682.23
451.172	41881.47
451.378	42940.27
451.584	42164.09
451.791	42747.76
451.997	42739.57
452.203	43634.53
452.409	44052.32
452.615	43468.65
452.821	42289.02
453.027	41230.22
453.233	43517.8
453.44	42227.58
453.646	42217.34
453.852	42962.8
454.058	43671.4
454.264	42418.04
454.47	42704.76
454.676	41682.82
454.882	43192.17
455.088	39354.28
455.294	40177.56
455.5	40662.93
455.705	41146.25
455.911	39675.81
456.117	38979.5
456.323	38186.94
456.529	36261.85
456.735	38033.34
456.941	36876.24
457.147	36405.2
457.352	35084.26
457.558	34846.7
457.764	34746.35
457.97	34174.97
458.176	33765.37
458.381	33527.81
458.587	31969.3
458.793	32317.46
458.999	30300.21
459.204	32485.39
459.41	31473.7
459.616	29587.52
459.821	29374.53
460.027	29483.07
460.233	28704.84
460.438	27533.4
460.644	27566.17
460.85	26456.17
461.055	26101.87
461.261	26026.1
461.466	24072.34
461.672	23105.7
461.878	24897.67
462.083	23435.42
462.289	23056.54
462.494	22683.81
462.7	21450.94
462.905	21016.77
463.111	21459.13
463.316	22073.52
463.522	21481.66
463.727	21708.98
463.932	21500.09
464.138	21033.15
464.343	21119.17
464.549	20486.34
464.754	21502.14
464.959	21176.51
465.165	21158.08
465.37	20213.96
465.575	19753.17
465.781	20420.81
465.986	20248.78
466.191	19839.19
466.397	19275.99
466.602	18421.99
466.807	19181.79
467.012	19011.81
467.218	18913.5
467.423	18843.87
467.628	18901.22
467.833	19751.12
468.038	19054.81
