Data from USB4F104151__75__12-27-49-271.txt Node

Date: Fri Mar 14 12:27:49 EDT 2025
User: louis
Spectrometer: USB4F10415
Trigger mode: 4
Integration Time (sec): 2.000000E-2
Scans to average: 1
Electric dark correction enabled: true
Nonlinearity correction enabled: false
Boxcar width: 0
XAxis mode: Wavelengths
Number of Pixels in Spectrum: 3648
>>>>>Begin Spectral Data<<<<<
178.204	-105.98
178.424	-105.98
178.644	-105.98
178.864	-157.18
179.084	-22.02
179.304	-17.92
179.524	41.47
179.744	45.57
179.964	68.09
180.184	16.9
180.404	29.18
180.624	-11.78
180.844	-24.06
181.064	-26.11
181.283	-3.58
181.503	-112.13
181.723	-5.63
181.943	41.47
182.163	14.85
182.383	-3.58
182.602	-22.02
182.822	10.75
183.042	49.66
183.262	-46.59
183.482	-5.63
183.701	-52.74
183.921	-56.83
184.141	0.51
184.361	39.42
184.58	80.38
184.8	-7.68
185.02	2.56
185.239	-58.88
185.459	59.9
185.679	61.95
185.898	-22.02
186.118	-15.87
186.338	35.33
186.557	57.86
186.777	-38.4
186.997	-36.35
187.216	6.66
187.436	20.99
187.655	68.09
187.875	2.56
188.095	18.94
188.314	14.85
188.534	70.14
188.753	-7.68
188.973	66.05
189.192	72.19
189.412	16.9
189.631	-7.68
189.851	35.33
190.07	35.33
190.29	0.51
190.509	-22.02
190.729	2.56
190.948	16.9
191.168	84.48
191.387	35.33
191.607	0.51
191.826	111.1
192.045	-5.63
192.265	45.57
192.484	-46.59
192.704	47.62
192.923	-30.21
193.142	33.28
193.362	-17.92
193.581	49.66
193.8	23.04
194.02	12.8
194.239	6.66
194.458	8.7
194.678	-7.68
194.897	39.42
195.116	-3.58
195.335	41.47
195.555	66.05
195.774	-26.11
195.993	39.42
196.212	53.76
196.432	-24.06
196.651	-34.3
196.87	20.99
197.089	90.62
197.308	8.7
197.528	25.09
197.747	-34.3
197.966	-5.63
198.185	4.61
198.404	20.99
198.623	4.61
198.842	-50.69
199.062	18.94
199.281	61.95
199.5	20.99
199.719	49.66
199.938	55.81
200.157	55.81
200.376	-40.45
200.595	2.56
200.814	-3.58
201.033	-5.63
201.252	23.04
201.471	37.38
201.69	12.8
201.909	37.38
202.128	43.52
202.347	37.38
202.566	2.56
202.785	-54.78
203.004	-79.36
203.223	90.62
203.442	4.61
203.661	12.8
203.879	8.7
204.098	2.56
204.317	-28.16
204.536	29.18
204.755	135.68
204.974	-28.16
205.193	2.56
205.411	76.29
205.63	-19.97
205.849	-7.68
206.068	2.56
206.287	-13.82
206.505	35.33
206.724	6.66
206.943	53.76
207.162	-38.4
207.381	-26.11
207.599	-3.58
207.818	-15.87
208.037	84.48
208.255	25.09
208.474	20.99
208.693	-11.78
208.911	-42.5
209.13	43.52
209.349	41.47
209.567	18.94
209.786	-1.54
210.005	51.71
210.223	59.9
210.442	-73.21
210.661	-7.68
210.879	4.61
211.098	41.47
211.316	-83.45
211.535	12.8
211.753	-30.21
211.972	33.28
212.191	10.75
212.409	-11.78
212.628	8.7
212.846	-5.63
213.065	-48.64
213.283	45.57
213.502	-67.07
213.72	-15.87
213.938	-13.82
214.157	-36.35
214.375	-7.68
214.594	47.62
214.812	14.85
215.031	-17.92
215.249	-28.16
215.467	8.7
215.686	-11.78
215.904	16.9
216.122	14.85
216.341	-13.82
216.559	-26.11
216.778	-15.87
216.996	-28.16
217.214	0.51
217.432	-22.02
217.651	4.61
217.869	0.51
218.087	14.85
218.306	16.9
218.524	18.94
218.742	41.47
218.96	16.9
219.179	-13.82
219.397	-34.3
219.615	-5.63
219.833	25.09
220.051	12.8
220.27	-40.45
220.488	-56.83
220.706	20.99
220.924	-7.68
221.142	2.56
221.36	-26.11
221.578	-24.06
221.796	2.56
222.015	39.42
222.233	47.62
222.451	6.66
222.669	10.75
222.887	-1.54
223.105	-69.12
223.323	-30.21
223.541	4.61
223.759	51.71
223.977	-19.97
224.195	51.71
224.413	-38.4
224.631	90.62
224.849	-48.64
225.067	92.67
225.285	-44.54
225.503	47.62
225.721	31.23
225.939	88.57
226.157	-40.45
226.375	35.33
226.592	-38.4
226.81	47.62
227.028	41.47
227.246	-3.58
227.464	14.85
227.682	29.18
227.9	2.56
228.117	39.42
228.335	33.28
228.553	61.95
228.771	33.28
228.989	-30.21
229.206	86.53
229.424	-36.35
229.642	35.33
229.86	10.75
230.077	-15.87
230.295	-32.26
230.513	-24.06
230.731	41.47
230.948	59.9
231.166	-30.21
231.384	6.66
231.601	-36.35
231.819	0.51
232.037	-9.73
232.254	-42.5
232.472	-42.5
232.689	-7.68
232.907	64
233.125	2.56
233.342	-50.69
233.56	-67.07
233.777	10.75
233.995	39.42
234.213	53.76
234.43	-1.54
234.648	27.14
234.865	10.75
235.083	4.61
235.3	4.61
235.518	-46.59
235.735	90.62
235.953	16.9
236.17	-11.78
236.388	141.82
236.605	-1.54
236.822	82.43
237.04	41.47
237.257	66.05
237.475	23.04
237.692	14.85
237.909	20.99
238.127	20.99
238.344	59.9
238.562	53.76
238.779	12.8
238.996	-9.73
239.214	55.81
239.431	47.62
239.648	4.61
239.865	20.99
240.083	43.52
240.3	61.95
240.517	29.18
240.735	-30.21
240.952	14.85
241.169	-5.63
241.386	53.76
241.603	-56.83
241.821	-11.78
242.038	72.19
242.255	49.66
242.472	10.75
242.689	12.8
242.907	-1.54
243.124	35.33
243.341	76.29
243.558	10.75
243.775	45.57
243.992	12.8
244.209	64
244.426	41.47
244.643	55.81
244.86	-1.54
245.078	64
245.295	-17.92
245.512	18.94
245.729	23.04
245.946	2.56
246.163	27.14
246.38	96.77
246.597	64
246.814	-52.74
247.031	59.9
247.248	-24.06
247.464	0.51
247.681	-11.78
247.898	6.66
248.115	94.72
248.332	-30.21
248.549	-26.11
248.766	41.47
248.983	-26.11
249.2	61.95
249.417	23.04
249.633	8.7
249.85	31.23
250.067	37.38
250.284	-46.59
250.501	47.62
250.717	33.28
250.934	10.75
251.151	14.85
251.368	-5.63
251.585	64
251.801	6.66
252.018	-1.54
252.235	-24.06
252.451	100.86
252.668	33.28
252.885	20.99
253.102	-11.78
253.318	-22.02
253.535	-40.45
253.752	-42.5
253.968	-32.26
254.185	49.66
254.401	4.61
254.618	29.18
254.835	-75.26
255.051	33.28
255.268	0.51
255.484	-40.45
255.701	-9.73
255.917	25.09
256.134	-48.64
256.351	2.56
256.567	23.04
256.784	-40.45
257	14.85
257.217	-3.58
257.433	-22.02
257.65	43.52
257.866	12.8
258.082	47.62
258.299	37.38
258.515	68.09
258.732	8.7
258.948	-3.58
259.165	-17.92
259.381	70.14
259.597	82.43
259.814	12.8
260.03	2.56
260.246	-9.73
260.463	84.48
260.679	-9.73
260.895	-32.26
261.112	10.75
261.328	-71.17
261.544	8.7
261.761	92.67
261.977	33.28
262.193	-30.21
262.409	51.71
262.626	100.86
262.842	66.05
263.058	-50.69
263.274	55.81
263.49	0.51
263.707	41.47
263.923	49.66
264.139	-60.93
264.355	18.94
264.571	10.75
264.787	-30.21
265.004	57.86
265.22	47.62
265.436	41.47
265.652	10.75
265.868	-24.06
266.084	10.75
266.3	-17.92
266.516	-13.82
266.732	39.42
266.948	-11.78
267.164	20.99
267.38	6.66
267.596	10.75
267.812	8.7
268.028	20.99
268.244	-54.78
268.46	47.62
268.676	45.57
268.892	61.95
269.108	-24.06
269.324	-7.68
269.54	-26.11
269.756	37.38
269.972	-62.98
270.188	-19.97
270.403	92.67
270.619	-15.87
270.835	107.01
271.051	45.57
271.267	4.61
271.483	20.99
271.698	4.61
271.914	45.57
272.13	-1.54
272.346	-5.63
272.562	-42.5
272.777	80.38
272.993	-101.89
273.209	47.62
273.425	23.04
273.64	-26.11
273.856	47.62
274.072	-22.02
274.287	-52.74
274.503	64
274.719	16.9
274.934	27.14
275.15	-36.35
275.366	2.56
275.581	74.24
275.797	6.66
276.012	-5.63
276.228	-34.3
276.444	12.8
276.659	18.94
276.875	-15.87
277.09	-9.73
277.306	2.56
277.521	23.04
277.737	-17.92
277.952	0.51
278.168	-15.87
278.383	14.85
278.599	37.38
278.814	10.75
279.03	-32.26
279.245	49.66
279.461	29.18
279.676	4.61
279.892	16.9
280.107	-34.3
280.322	-7.68
280.538	64
280.753	-42.5
280.969	51.71
281.184	8.7
281.399	100.86
281.615	-79.36
281.83	-15.87
282.045	2.56
282.26	25.09
282.476	16.9
282.691	76.29
282.906	31.23
283.122	45.57
283.337	0.51
283.552	45.57
283.767	-30.21
283.983	8.7
284.198	-13.82
284.413	57.86
284.628	31.23
284.843	33.28
285.058	-50.69
285.274	10.75
285.489	-44.54
285.704	78.33
285.919	8.7
286.134	35.33
286.349	8.7
286.564	18.94
286.779	16.9
286.995	-17.92
287.21	16.9
287.425	-28.16
287.64	43.52
287.855	-17.92
288.07	-56.83
288.285	16.9
288.5	64
288.715	20.99
288.93	2.56
289.145	-13.82
289.36	51.71
289.575	-44.54
289.79	16.9
290.004	31.23
290.219	76.29
290.434	16.9
290.649	61.95
290.864	-13.82
291.079	-19.97
291.294	10.75
291.509	49.66
291.724	12.8
291.938	59.9
292.153	51.71
292.368	66.05
292.583	10.75
292.798	16.9
293.012	6.66
293.227	-28.16
293.442	45.57
293.657	-24.06
293.871	45.57
294.086	20.99
294.301	12.8
294.516	-13.82
294.73	-42.5
294.945	-9.73
295.16	6.66
295.374	41.47
295.589	76.29
295.804	61.95
296.018	68.09
296.233	-9.73
296.447	-5.63
296.662	70.14
296.877	-19.97
297.091	-22.02
297.306	4.61
297.52	-19.97
297.735	8.7
297.949	45.57
298.164	74.24
298.378	35.33
298.593	16.9
298.807	33.28
299.022	27.14
299.236	64
299.451	-28.16
299.665	39.42
299.88	-65.02
300.094	-26.11
300.309	-13.82
300.523	-34.3
300.737	-17.92
300.952	39.42
301.166	45.57
301.381	-11.78
301.595	80.38
301.809	37.38
302.024	-19.97
302.238	-58.88
302.452	2.56
302.667	12.8
302.881	23.04
303.095	2.56
303.309	61.95
303.524	-44.54
303.738	-1.54
303.952	78.33
304.166	-38.4
304.381	-9.73
304.595	-7.68
304.809	31.23
305.023	59.9
305.237	-13.82
305.452	55.81
305.666	-46.59
305.88	2.56
306.094	-56.83
306.308	-26.11
306.522	18.94
306.736	29.18
306.95	23.04
307.164	61.95
307.379	-5.63
307.593	35.33
307.807	27.14
308.021	33.28
308.235	61.95
308.449	-48.64
308.663	59.9
308.877	0.51
309.091	59.9
309.305	43.52
309.519	-42.5
309.733	82.43
309.947	20.99
310.161	20.99
310.374	84.48
310.588	33.28
310.802	4.61
311.016	-26.11
311.23	20.99
311.444	47.62
311.658	45.57
311.872	-5.63
312.085	8.7
312.299	25.09
312.513	-36.35
312.727	43.52
312.941	-40.45
313.154	33.28
313.368	16.9
313.582	51.71
313.796	-48.64
314.009	-7.68
314.223	-11.78
314.437	107.01
314.651	35.33
314.864	-30.21
315.078	61.95
315.292	-75.26
315.505	-28.16
315.719	33.28
315.933	23.04
316.146	41.47
316.36	-3.58
316.573	107.01
316.787	8.7
317.001	18.94
317.214	-105.98
317.428	27.14
317.641	39.42
317.855	-56.83
318.068	25.09
318.282	-17.92
318.495	49.66
318.709	-1.54
318.922	-24.06
319.136	47.62
319.349	64
319.563	-44.54
319.776	6.66
319.99	45.57
320.203	78.33
320.417	53.76
320.63	8.7
320.843	16.9
321.057	33.28
321.27	-11.78
321.483	12.8
321.697	70.14
321.91	-3.58
322.124	123.39
322.337	49.66
322.55	12.8
322.763	33.28
322.977	4.61
323.19	55.81
323.403	31.23
323.617	35.33
323.83	8.7
324.043	29.18
324.256	0.51
324.469	27.14
324.683	12.8
324.896	18.94
325.109	82.43
325.322	6.66
325.535	-52.74
325.748	35.33
325.962	0.51
326.175	49.66
326.388	20.99
326.601	-13.82
326.814	16.9
327.027	-9.73
327.24	29.18
327.453	-17.92
327.666	-22.02
327.879	68.09
328.092	2.56
328.305	6.66
328.518	-1.54
328.731	-5.63
328.944	-13.82
329.157	94.72
329.37	14.85
329.583	0.51
329.796	104.96
330.009	-38.4
330.222	51.71
330.435	31.23
330.648	-5.63
330.861	-24.06
331.073	16.9
331.286	70.14
331.499	-58.88
331.712	61.95
331.925	37.38
332.138	53.76
332.35	41.47
332.563	-75.26
332.776	82.43
332.989	-58.88
333.202	-62.98
333.414	61.95
333.627	-24.06
333.84	74.24
334.053	76.29
334.265	0.51
334.478	-3.58
334.691	61.95
334.903	-1.54
335.116	-15.87
335.329	-19.97
335.541	2.56
335.754	37.38
335.966	-79.36
336.179	31.23
336.392	-7.68
336.604	8.7
336.817	-3.58
337.029	109.05
337.242	57.86
337.454	12.8
337.667	2.56
337.88	90.62
338.092	-46.59
338.305	20.99
338.517	20.99
338.729	64
338.942	72.19
339.154	-3.58
339.367	6.66
339.579	-24.06
339.792	-54.78
340.004	98.81
340.217	14.85
340.429	66.05
340.641	35.33
340.854	47.62
341.066	35.33
341.278	66.05
341.491	115.2
341.703	39.42
341.915	-26.11
342.128	53.76
342.34	-1.54
342.552	35.33
342.764	64
342.977	-36.35
343.189	18.94
343.401	57.86
343.613	-62.98
343.826	25.09
344.038	8.7
344.25	64
344.462	-38.4
344.674	35.33
344.886	70.14
345.099	43.52
345.311	29.18
345.523	-26.11
345.735	27.14
345.947	16.9
346.159	14.85
346.371	-44.54
346.583	10.75
346.795	80.38
347.007	14.85
347.219	25.09
347.431	29.18
347.643	51.71
347.855	53.76
348.067	29.18
348.279	-5.63
348.491	31.23
348.703	-9.73
348.915	-17.92
349.127	20.99
349.339	113.15
349.551	4.61
349.763	37.38
349.975	31.23
350.187	88.57
350.399	45.57
350.61	74.24
350.822	51.71
351.034	104.96
351.246	4.61
351.458	57.86
351.669	2.56
351.881	70.14
352.093	86.53
352.305	76.29
352.517	33.28
352.728	96.77
352.94	2.56
353.152	-17.92
353.363	20.99
353.575	59.9
353.787	47.62
353.999	-52.74
354.21	31.23
354.422	43.52
354.633	-1.54
354.845	-56.83
355.057	61.95
355.268	8.7
355.48	20.99
355.692	31.23
355.903	41.47
356.115	35.33
356.326	25.09
356.538	-3.58
356.749	59.9
356.961	35.33
357.172	59.9
357.384	59.9
357.595	80.38
357.807	-40.45
358.018	86.53
358.23	14.85
358.441	39.42
358.653	66.05
358.864	-7.68
359.075	-13.82
359.287	-7.68
359.498	98.81
359.709	45.57
359.921	25.09
360.132	-17.92
360.344	39.42
360.555	23.04
360.766	61.95
360.977	14.85
361.189	74.24
361.4	27.14
361.611	113.15
361.823	66.05
362.034	49.66
362.245	23.04
362.456	33.28
362.667	16.9
362.879	33.28
363.09	-28.16
363.301	47.62
363.512	12.8
363.723	27.14
363.935	61.95
364.146	107.01
364.357	39.42
364.568	107.01
364.779	33.28
364.99	-48.64
365.201	27.14
365.412	70.14
365.623	8.7
365.834	16.9
366.045	84.48
366.256	102.91
366.467	-34.3
366.678	0.51
366.889	-34.3
367.1	-28.16
367.311	29.18
367.522	25.09
367.733	49.66
367.944	25.09
368.155	-60.93
368.366	-11.78
368.577	-13.82
368.788	12.8
368.999	6.66
369.209	14.85
369.42	76.29
369.631	-7.68
369.842	23.04
370.053	2.56
370.264	51.71
370.474	18.94
370.685	2.56
370.896	43.52
371.107	37.38
371.317	-19.97
371.528	-9.73
371.739	57.86
371.95	31.23
372.16	47.62
372.371	14.85
372.582	2.56
372.792	18.94
373.003	4.61
373.214	37.38
373.424	37.38
373.635	25.09
373.846	78.33
374.056	-7.68
374.267	8.7
374.477	23.04
374.688	23.04
374.898	0.51
375.109	74.24
375.319	53.76
375.53	61.95
375.74	55.81
375.951	-38.4
376.161	23.04
376.372	90.62
376.582	16.9
376.793	0.51
377.003	-3.58
377.214	37.38
377.424	0.51
377.635	12.8
377.845	61.95
378.055	107.01
378.266	31.23
378.476	-58.88
378.686	92.67
378.897	64
379.107	-9.73
379.317	35.33
379.528	35.33
379.738	104.96
379.948	20.99
380.158	4.61
380.369	-13.82
380.579	-7.68
380.789	100.86
380.999	47.62
381.21	12.8
381.42	57.86
381.63	84.48
381.84	41.47
382.05	59.9
382.261	78.33
382.471	29.18
382.681	20.99
382.891	-7.68
383.101	29.18
383.311	78.33
383.521	70.14
383.731	0.51
383.941	78.33
384.151	35.33
384.361	-9.73
384.571	80.38
384.781	39.42
384.991	55.81
385.201	53.76
385.411	115.2
385.621	102.91
385.831	-13.82
386.041	37.38
386.251	-24.06
386.461	53.76
386.671	33.28
386.881	20.99
387.091	51.71
387.301	109.05
387.511	33.28
387.72	92.67
387.93	33.28
388.14	94.72
388.35	33.28
388.56	27.14
388.769	78.33
388.979	84.48
389.189	8.7
389.399	6.66
389.609	76.29
389.818	80.38
390.028	84.48
390.238	10.75
390.447	-5.63
390.657	53.76
390.867	-3.58
391.076	-7.68
391.286	64
391.496	12.8
391.705	-1.54
391.915	29.18
392.125	20.99
392.334	27.14
392.544	88.57
392.753	102.91
392.963	74.24
393.172	4.61
393.382	-11.78
393.591	66.05
393.801	35.33
394.01	57.86
394.22	78.33
394.429	-22.02
394.639	25.09
394.848	66.05
395.058	64
395.267	8.7
395.477	12.8
395.686	66.05
395.895	12.8
396.105	80.38
396.314	49.66
396.524	94.72
396.733	102.91
396.942	121.34
397.152	55.81
397.361	139.77
397.57	70.14
397.78	164.35
397.989	61.95
398.198	76.29
398.407	29.18
398.617	55.81
398.826	61.95
399.035	100.86
399.244	90.62
399.453	53.76
399.663	68.09
399.872	123.39
400.081	16.9
400.29	72.19
400.499	57.86
400.708	150.01
400.917	55.81
401.127	49.66
401.336	59.9
401.545	90.62
401.754	41.47
401.963	123.39
402.172	39.42
402.381	59.9
402.59	66.05
402.799	70.14
403.008	150.01
403.217	78.33
403.426	70.14
403.635	90.62
403.844	104.96
404.053	94.72
404.262	76.29
404.471	147.97
404.68	133.63
404.888	100.86
405.097	133.63
405.306	82.43
405.515	47.62
405.724	80.38
405.933	78.33
406.142	115.2
406.35	158.21
406.559	145.92
406.768	84.48
406.977	147.97
407.185	152.06
407.394	141.82
407.603	195.07
407.812	139.77
408.02	164.35
408.229	178.69
408.438	215.55
408.646	154.11
408.855	178.69
409.064	268.8
409.272	160.25
409.481	248.32
409.69	231.93
409.898	164.35
410.107	201.21
410.315	258.56
410.524	244.22
410.733	356.86
410.941	272.89
411.15	258.56
411.358	295.42
411.567	289.28
411.775	291.32
411.984	399.87
412.192	320
412.401	256.51
412.609	332.28
412.818	315.9
413.026	424.44
413.234	369.15
413.443	358.91
413.651	346.62
413.86	449.02
414.068	451.07
414.276	377.34
414.485	430.59
414.693	508.41
414.901	565.75
415.11	475.64
415.318	508.41
415.526	637.43
415.734	600.57
415.943	647.67
416.151	625.14
416.359	631.29
416.567	664.05
416.776	676.34
416.984	764.4
417.192	782.84
417.4	764.4
417.608	713.21
417.817	737.78
418.025	897.52
418.233	915.95
418.441	907.76
418.649	911.86
418.857	971.25
419.065	975.35
419.273	915.95
419.481	983.54
419.689	1182.19
419.897	1047.02
420.105	1192.43
420.313	1200.62
420.521	1200.62
420.729	1243.63
420.937	1290.73
421.145	1382.89
421.353	1575.4
421.561	1483.24
421.769	1544.68
421.977	1622.5
422.185	1538.54
422.393	1722.85
422.601	1769.96
422.809	1751.53
423.017	1769.96
423.224	1790.44
423.432	1976.8
423.64	1939.94
423.848	2228.7
424.056	2138.59
424.263	2152.93
424.471	2284
424.679	2302.43
424.887	2337.24
425.094	2496.99
425.302	2458.07
425.51	2468.31
425.718	2603.48
425.925	2458.07
426.133	2771.41
426.341	2843.09
426.548	3051.99
426.756	3115.47
426.964	3049.94
427.171	3207.63
427.379	3295.69
427.586	3367.37
427.794	3604.94
428.001	3557.83
428.209	3824.07
428.417	3746.25
428.624	3996.1
428.832	4096.45
429.039	4069.83
429.247	4012.48
429.454	4266.43
429.662	4696.5
429.869	4336.06
430.076	4614.59
430.284	4565.43
430.491	4827.57
430.699	5200.3
430.906	5163.44
431.114	5226.93
431.321	5441.96
431.528	5534.12
431.736	5790.12
431.943	5992.87
432.15	5874.09
432.358	5902.76
432.565	6179.23
432.772	6263.2
432.979	6517.15
433.187	6537.63
433.394	6816.15
433.601	7158.16
433.808	7197.07
434.016	7172.5
434.223	7385.49
434.43	8003.97
434.637	7788.94
434.844	8288.64
435.052	8413.57
435.259	8243.59
435.466	8438.14
435.673	8192.39
435.88	8851.83
436.087	9415.02
436.294	9288.05
436.501	9292.15
436.708	9265.52
436.915	9836.91
437.122	9994.6
437.329	10097
437.537	10414.43
437.743	10658.14
437.95	10568.03
438.157	11022.68
438.364	11411.79
438.571	11385.17
438.778	11532.62
438.985	12611.9
439.192	11985.23
439.399	12259.65
439.606	12022.09
439.813	12941.63
440.02	13726
440.227	13615.41
440.433	13332.79
440.64	13726
440.847	13682.99
441.054	14029.1
441.261	14825.76
441.467	14688.54
441.674	14944.54
441.881	15556.88
442.088	15634.71
442.294	15372.57
442.501	15825.17
442.708	16253.19
442.914	16875.77
443.121	17637.62
443.328	17076.48
443.534	18350.31
443.741	17862.9
443.948	17371.38
444.154	18772.19
444.361	18829.54
444.568	18800.87
444.774	18792.67
444.981	18931.94
445.187	19538.13
445.394	20486.34
445.6	20242.64
445.807	22040.75
446.013	21135.55
446.22	21661.88
446.426	22456.49
446.633	22716.58
446.839	23345.31
447.046	22446.25
447.252	23646.36
447.459	23834.77
447.665	23625.88
447.871	24991.87
448.078	25432.19
448.284	24823.94
448.491	25303.17
448.697	26187.89
448.903	26740.84
449.11	26789.99
449.316	26108.02
449.522	26650.73
449.728	27533.4
449.935	27787.35
450.141	27856.98
450.347	28483.66
450.553	27381.85
450.76	27893.85
450.966	28731.47
451.172	28397.65
451.378	29300.8
451.584	28770.38
451.791	29485.12
451.997	29517.89
452.203	29808.7
452.409	29990.97
452.615	29526.08
452.821	28842.06
453.027	27887.7
453.233	29857.85
453.44	28555.34
453.646	28733.51
453.852	29005.89
454.058	29507.65
454.264	28534.86
454.47	29245.51
454.676	28522.57
454.882	29425.73
455.088	27127.91
455.294	27449.44
455.5	28057.68
455.705	27945.05
455.911	26822.76
456.117	26323.05
456.323	26067.06
456.529	24850.56
456.735	26077.3
456.941	25268.35
457.147	24719.49
457.352	23926.93
457.558	23986.32
457.764	23654.55
457.97	23705.75
458.176	22878.37
458.381	22663.33
458.587	21942.45
458.793	21504.18
458.999	20715.72
459.204	22214.83
459.41	21485.75
459.616	20195.53
459.821	20177.1
460.027	20158.67
460.233	19556.57
460.438	18786.53
460.644	18735.33
460.85	18110.7
461.055	17578.23
461.261	17688.82
461.466	16376.07
461.672	15974.67
461.878	16869.63
462.083	15960.33
462.289	15776.02
462.494	15497.49
462.7	14799.13
462.905	14520.61
463.111	15012.12
463.316	14864.67
463.522	14690.59
463.727	14612.77
463.932	14424.36
464.138	14410.02
464.343	14461.22
464.549	14162.22
464.754	14749.98
464.959	14367.01
465.165	14600.48
465.37	13457.71
465.575	13367.6
465.781	13914.41
465.986	13879.6
466.191	13470
466.397	13406.52
466.602	12685.63
466.807	13097.27
467.012	12800.32
467.218	12964.15
467.423	12910.91
467.628	13117.75
467.833	13355.32
468.038	12915
468.244	12552.51
468.449	13130.04
468.654	12577.09
468.859	12566.85
