Data from USB4F104151__70__12-27-45-632.txt Node

Date: Fri Mar 14 12:27:45 EDT 2025
User: louis
Spectrometer: USB4F10415
Trigger mode: 4
Integration Time (sec): 2.000000E-2
Scans to average: 1
Electric dark correction enabled: true
Nonlinearity correction enabled: false
Boxcar width: 0
XAxis mode: Wavelengths
Number of Pixels in Spectrum: 3648
>>>>>Begin Spectral Data<<<<<
178.204	-144.38
178.424	-144.38
178.644	-144.38
178.864	-95.23
179.084	-54.27
179.304	19.46
179.524	5.12
179.744	29.7
179.964	64.51
180.184	-29.7
180.404	19.46
180.624	-9.22
180.844	-9.22
181.064	-41.98
181.283	-5.12
181.503	-23.55
181.723	-19.46
181.943	-50.18
182.163	111.61
182.383	44.03
182.602	21.5
182.822	-58.37
183.042	68.61
183.262	-58.37
183.482	-13.31
183.701	-19.46
183.921	9.22
184.141	-99.33
184.361	136.19
184.58	33.79
184.8	52.22
185.02	64.51
185.239	52.22
185.459	54.27
185.679	41.98
185.898	-31.74
186.118	-48.13
186.338	37.89
186.557	-17.41
186.777	19.46
186.997	-9.22
187.216	78.85
187.436	48.13
187.655	19.46
187.875	130.05
188.095	3.07
188.314	60.42
188.534	119.81
188.753	5.12
188.973	31.74
189.192	95.23
189.412	35.84
189.631	48.13
189.851	80.89
190.07	52.22
190.29	58.37
190.509	27.65
190.729	46.08
190.948	82.94
191.168	74.75
191.387	11.26
191.607	99.33
191.826	56.32
192.045	68.61
192.265	-9.22
192.484	29.7
192.704	-11.26
192.923	21.5
193.142	89.09
193.362	84.99
193.581	91.13
193.8	3.07
194.02	37.89
194.239	68.61
194.458	48.13
194.678	52.22
194.897	3.07
195.116	41.98
195.335	39.94
195.555	58.37
195.774	41.98
195.993	9.22
196.212	-19.46
196.432	115.71
196.651	13.31
196.87	29.7
197.089	58.37
197.308	87.04
197.528	-31.74
197.747	-62.46
197.966	-72.7
198.185	72.7
198.404	9.22
198.623	-15.36
198.842	56.32
199.062	33.79
199.281	97.28
199.5	15.36
199.719	60.42
199.938	68.61
200.157	89.09
200.376	91.13
200.595	54.27
200.814	31.74
201.033	35.84
201.252	23.55
201.471	3.07
201.69	76.8
201.909	56.32
202.128	5.12
202.347	-15.36
202.566	13.31
202.785	-62.46
203.004	1.02
203.223	144.38
203.442	35.84
203.661	11.26
203.879	-5.12
204.098	1.02
204.317	15.36
204.536	82.94
204.755	35.84
204.974	78.85
205.193	-5.12
205.411	56.32
205.63	23.55
205.849	-1.02
206.068	31.74
206.287	52.22
206.505	9.22
206.724	-23.55
206.943	41.98
207.162	11.26
207.381	13.31
207.599	44.03
207.818	93.18
208.037	76.8
208.255	56.32
208.474	66.56
208.693	33.79
208.911	37.89
209.13	76.8
209.349	80.89
209.567	-11.26
209.786	101.37
210.005	44.03
210.223	41.98
210.442	-27.65
210.661	39.94
210.879	48.13
211.098	89.09
211.316	-23.55
211.535	89.09
211.753	37.89
211.972	27.65
212.191	-5.12
212.409	37.89
212.628	-3.07
212.846	-44.03
213.065	-3.07
213.283	44.03
213.502	41.98
213.72	84.99
213.938	33.79
214.157	58.37
214.375	68.61
214.594	37.89
214.812	41.98
215.031	33.79
215.249	74.75
215.467	-11.26
215.686	3.07
215.904	64.51
216.122	17.41
216.341	111.61
216.559	62.46
216.778	39.94
216.996	74.75
217.214	-7.17
217.432	-9.22
217.651	-17.41
217.869	52.22
218.087	17.41
218.306	62.46
218.524	91.13
218.742	62.46
218.96	50.18
219.179	68.61
219.397	21.5
219.615	41.98
219.833	121.85
220.051	21.5
220.27	48.13
220.488	76.8
220.706	56.32
220.924	15.36
221.142	80.89
221.36	15.36
221.578	31.74
221.796	31.74
222.015	39.94
222.233	64.51
222.451	107.52
222.669	5.12
222.887	121.85
223.105	33.79
223.323	93.18
223.541	37.89
223.759	101.37
223.977	70.65
224.195	76.8
224.413	72.7
224.631	62.46
224.849	76.8
225.067	31.74
225.285	-17.41
225.503	5.12
225.721	35.84
225.939	52.22
226.157	62.46
226.375	166.91
226.592	39.94
226.81	-19.46
227.028	68.61
227.246	119.81
227.464	84.99
227.682	87.04
227.9	76.8
228.117	64.51
228.335	58.37
228.553	15.36
228.771	-29.7
228.989	58.37
229.206	80.89
229.424	54.27
229.642	7.17
229.86	66.56
230.077	68.61
230.295	27.65
230.513	60.42
230.731	97.28
230.948	93.18
231.166	35.84
231.384	87.04
231.601	1.02
231.819	119.81
232.037	41.98
232.254	-3.07
232.472	80.89
232.689	78.85
232.907	23.55
233.125	25.6
233.342	72.7
233.56	19.46
233.777	21.5
233.995	44.03
234.213	9.22
234.43	123.9
234.648	91.13
234.865	3.07
235.083	70.65
235.3	62.46
235.518	117.76
235.735	-1.02
235.953	111.61
236.17	46.08
236.388	58.37
236.605	60.42
236.822	58.37
237.04	82.94
237.257	-1.02
237.475	58.37
237.692	62.46
237.909	48.13
238.127	66.56
238.344	66.56
238.562	76.8
238.779	58.37
238.996	-60.42
239.214	-5.12
239.431	23.55
239.648	72.7
239.865	-9.22
240.083	21.5
240.3	68.61
240.517	11.26
240.735	109.57
240.952	23.55
241.169	64.51
241.386	54.27
241.603	35.84
241.821	48.13
242.038	74.75
242.255	37.89
242.472	39.94
242.689	70.65
242.907	64.51
243.124	99.33
243.341	91.13
243.558	33.79
243.775	39.94
243.992	7.17
244.209	31.74
244.426	1.02
244.643	11.26
244.86	58.37
245.078	46.08
245.295	29.7
245.512	89.09
245.729	-9.22
245.946	80.89
246.163	19.46
246.38	-7.17
246.597	27.65
246.814	-19.46
247.031	56.32
247.248	84.99
247.464	9.22
247.681	-19.46
247.898	74.75
248.115	35.84
248.332	15.36
248.549	93.18
248.766	89.09
248.983	99.33
249.2	31.74
249.417	119.81
249.633	74.75
249.85	111.61
250.067	-17.41
250.284	80.89
250.501	50.18
250.717	25.6
250.934	29.7
251.151	82.94
251.368	-29.7
251.585	46.08
251.801	91.13
252.018	64.51
252.235	60.42
252.451	62.46
252.668	33.79
252.885	37.89
253.102	9.22
253.318	23.55
253.535	54.27
253.752	87.04
253.968	29.7
254.185	56.32
254.401	66.56
254.618	64.51
254.835	39.94
255.051	31.74
255.268	56.32
255.484	154.62
255.701	82.94
255.917	66.56
256.134	-13.31
256.351	70.65
256.567	27.65
256.784	-1.02
257	15.36
257.217	95.23
257.433	58.37
257.65	-5.12
257.866	101.37
258.082	-1.02
258.299	3.07
258.515	70.65
258.732	29.7
258.948	-17.41
259.165	68.61
259.381	48.13
259.597	15.36
259.814	72.7
260.03	52.22
260.246	54.27
260.463	113.66
260.679	44.03
260.895	25.6
261.112	48.13
261.328	11.26
261.544	5.12
261.761	87.04
261.977	91.13
262.193	64.51
262.409	27.65
262.626	1.02
262.842	-9.22
263.058	50.18
263.274	99.33
263.49	5.12
263.707	44.03
263.923	70.65
264.139	33.79
264.355	11.26
264.571	80.89
264.787	15.36
265.004	62.46
265.22	27.65
265.436	48.13
265.652	5.12
265.868	103.42
266.084	-29.7
266.3	152.57
266.516	37.89
266.732	41.98
266.948	19.46
267.164	31.74
267.38	103.42
267.596	115.71
267.812	54.27
268.028	-3.07
268.244	-1.02
268.46	91.13
268.676	70.65
268.892	52.22
269.108	109.57
269.324	41.98
269.54	-7.17
269.756	54.27
269.972	101.37
270.188	62.46
270.403	-66.56
270.619	134.14
270.835	54.27
271.051	80.89
271.267	41.98
271.483	44.03
271.698	95.23
271.914	52.22
272.13	-11.26
272.346	91.13
272.562	52.22
272.777	3.07
272.993	33.79
273.209	56.32
273.425	76.8
273.64	54.27
273.856	35.84
274.072	-48.13
274.287	25.6
274.503	70.65
274.719	54.27
274.934	37.89
275.15	99.33
275.366	52.22
275.581	23.55
275.797	52.22
276.012	140.29
276.228	35.84
276.444	95.23
276.659	72.7
276.875	-3.07
277.09	54.27
277.306	-3.07
277.521	74.75
277.737	-7.17
277.952	64.51
278.168	48.13
278.383	7.17
278.599	31.74
278.814	66.56
279.03	3.07
279.245	115.71
279.461	-7.17
279.676	121.85
279.892	33.79
280.107	91.13
280.322	-5.12
280.538	48.13
280.753	11.26
280.969	-5.12
281.184	3.07
281.399	128
281.615	95.23
281.83	46.08
282.045	11.26
282.26	15.36
282.476	123.9
282.691	52.22
282.906	74.75
283.122	7.17
283.337	19.46
283.552	89.09
283.767	-7.17
283.983	3.07
284.198	35.84
284.413	54.27
284.628	-50.18
284.843	9.22
285.058	-3.07
285.274	15.36
285.489	9.22
285.704	48.13
285.919	48.13
286.134	46.08
286.349	-11.26
286.564	-46.08
286.779	39.94
286.995	76.8
287.21	-5.12
287.425	-17.41
287.64	21.5
287.855	1.02
288.07	15.36
288.285	70.65
288.5	95.23
288.715	82.94
288.93	35.84
289.145	17.41
289.36	113.66
289.575	93.18
289.79	115.71
290.004	23.55
290.219	74.75
290.434	3.07
290.649	48.13
290.864	58.37
291.079	1.02
291.294	35.84
291.509	23.55
291.724	64.51
291.938	46.08
292.153	41.98
292.368	9.22
292.583	74.75
292.798	60.42
293.012	58.37
293.227	80.89
293.442	11.26
293.657	74.75
293.871	99.33
294.086	140.29
294.301	-7.17
294.516	39.94
294.73	13.31
294.945	3.07
295.16	52.22
295.374	25.6
295.589	29.7
295.804	35.84
296.018	62.46
296.233	39.94
296.447	62.46
296.662	72.7
296.877	54.27
297.091	56.32
297.306	46.08
297.52	19.46
297.735	70.65
297.949	66.56
298.164	58.37
298.378	25.6
298.593	64.51
298.807	5.12
299.022	82.94
299.236	91.13
299.451	76.8
299.665	99.33
299.88	13.31
300.094	80.89
300.309	25.6
300.523	54.27
300.737	15.36
300.952	-29.7
301.166	-1.02
301.381	62.46
301.595	13.31
301.809	164.86
302.024	-15.36
302.238	82.94
302.452	105.47
302.667	44.03
302.881	37.89
303.095	68.61
303.309	72.7
303.524	46.08
303.738	25.6
303.952	21.5
304.166	-19.46
304.381	7.17
304.595	37.89
304.809	50.18
305.023	39.94
305.237	62.46
305.452	140.29
305.666	5.12
305.88	50.18
306.094	119.81
306.308	9.22
306.522	70.65
306.736	29.7
306.95	64.51
307.164	-1.02
307.379	21.5
307.593	9.22
307.807	68.61
308.021	39.94
308.235	-13.31
308.449	27.65
308.663	13.31
308.877	41.98
309.091	13.31
309.305	93.18
309.519	-1.02
309.733	72.7
309.947	41.98
310.161	5.12
310.374	44.03
310.588	62.46
310.802	19.46
311.016	7.17
311.23	56.32
311.444	89.09
311.658	74.75
311.872	80.89
312.085	111.61
312.299	21.5
312.513	41.98
312.727	84.99
312.941	64.51
313.154	66.56
313.368	-9.22
313.582	37.89
313.796	64.51
314.009	138.24
314.223	54.27
314.437	52.22
314.651	68.61
314.864	39.94
315.078	39.94
315.292	87.04
315.505	29.7
315.719	54.27
315.933	66.56
316.146	13.31
316.36	-11.26
316.573	-5.12
316.787	9.22
317.001	68.61
317.214	3.07
317.428	130.05
317.641	-29.7
317.855	97.28
318.068	121.85
318.282	23.55
318.495	117.76
318.709	41.98
318.922	97.28
319.136	37.89
319.349	68.61
319.563	93.18
319.776	27.65
319.99	64.51
320.203	60.42
320.417	99.33
320.63	9.22
320.843	76.8
321.057	19.46
321.27	46.08
321.483	113.66
321.697	101.37
321.91	80.89
322.124	17.41
322.337	89.09
322.55	48.13
322.763	48.13
322.977	130.05
323.19	46.08
323.403	27.65
323.617	9.22
323.83	66.56
324.043	48.13
324.256	119.81
324.469	-64.51
324.683	97.28
324.896	27.65
325.109	17.41
325.322	23.55
325.535	152.57
325.748	72.7
325.962	-11.26
326.175	17.41
326.388	64.51
326.601	76.8
326.814	-25.6
327.027	37.89
327.24	33.79
327.453	39.94
327.666	64.51
327.879	39.94
328.092	58.37
328.305	25.6
328.518	70.65
328.731	50.18
328.944	27.65
329.157	158.72
329.37	39.94
329.583	31.74
329.796	46.08
330.009	-35.84
330.222	64.51
330.435	82.94
330.648	15.36
330.861	72.7
331.073	21.5
331.286	70.65
331.499	5.12
331.712	27.65
331.925	46.08
332.138	39.94
332.35	-5.12
332.563	35.84
332.776	15.36
332.989	74.75
333.202	19.46
333.414	48.13
333.627	29.7
333.84	95.23
334.053	48.13
334.265	87.04
334.478	56.32
334.691	56.32
334.903	11.26
335.116	33.79
335.329	-5.12
335.541	21.5
335.754	15.36
335.966	25.6
336.179	33.79
336.392	27.65
336.604	91.13
336.817	39.94
337.029	46.08
337.242	119.81
337.454	13.31
337.667	41.98
337.88	-5.12
338.092	80.89
338.305	33.79
338.517	17.41
338.729	64.51
338.942	74.75
339.154	107.52
339.367	62.46
339.579	13.31
339.792	39.94
340.004	37.89
340.217	29.7
340.429	119.81
340.641	-11.26
340.854	17.41
341.066	-35.84
341.278	62.46
341.491	103.42
341.703	37.89
341.915	21.5
342.128	101.37
342.34	97.28
342.552	25.6
342.764	15.36
342.977	62.46
343.189	99.33
343.401	72.7
343.613	31.74
343.826	56.32
344.038	52.22
344.25	25.6
344.462	41.98
344.674	15.36
344.886	9.22
345.099	7.17
345.311	46.08
345.523	48.13
345.735	-19.46
345.947	72.7
346.159	27.65
346.371	54.27
346.583	25.6
346.795	134.14
347.007	134.14
347.219	-17.41
347.431	-1.02
347.643	76.8
347.855	48.13
348.067	50.18
348.279	27.65
348.491	97.28
348.703	54.27
348.915	132.09
349.127	54.27
349.339	29.7
349.551	50.18
349.763	9.22
349.975	93.18
350.187	115.71
350.399	44.03
350.61	84.99
350.822	109.57
351.034	56.32
351.246	39.94
351.458	41.98
351.669	74.75
351.881	9.22
352.093	82.94
352.305	91.13
352.517	76.8
352.728	119.81
352.94	58.37
353.152	64.51
353.363	35.84
353.575	91.13
353.787	97.28
353.999	109.57
354.21	58.37
354.422	60.42
354.633	107.52
354.845	11.26
355.057	37.89
355.268	89.09
355.48	-15.36
355.692	31.74
355.903	58.37
356.115	58.37
356.326	11.26
356.538	142.33
356.749	64.51
356.961	160.77
357.172	50.18
357.384	44.03
357.595	95.23
357.807	48.13
358.018	46.08
358.23	58.37
358.441	19.46
358.653	109.57
358.864	-25.6
359.075	-3.07
359.287	107.52
359.498	105.47
359.709	91.13
359.921	78.85
360.132	41.98
360.344	58.37
360.555	66.56
360.766	21.5
360.977	5.12
361.189	89.09
361.4	46.08
361.611	166.91
361.823	109.57
362.034	44.03
362.245	29.7
362.456	-35.84
362.667	136.19
362.879	72.7
363.09	50.18
363.301	82.94
363.512	27.65
363.723	52.22
363.935	60.42
364.146	136.19
364.357	27.65
364.568	125.95
364.779	93.18
364.99	95.23
365.201	31.74
365.412	52.22
365.623	66.56
365.834	80.89
366.045	-9.22
366.256	89.09
366.467	64.51
366.678	64.51
366.889	-5.12
367.1	-5.12
367.311	130.05
367.522	64.51
367.733	19.46
367.944	52.22
368.155	91.13
368.366	62.46
368.577	52.22
368.788	23.55
368.999	19.46
369.209	15.36
369.42	136.19
369.631	50.18
369.842	66.56
370.053	48.13
370.264	17.41
370.474	25.6
370.685	39.94
370.896	56.32
371.107	35.84
371.317	87.04
371.528	48.13
371.739	99.33
371.95	105.47
372.16	91.13
372.371	9.22
372.582	103.42
372.792	29.7
373.003	58.37
373.214	66.56
373.424	-21.5
373.635	109.57
373.846	78.85
374.056	15.36
374.267	39.94
374.477	117.76
374.688	164.86
374.898	132.09
375.109	7.17
375.319	46.08
375.53	121.85
375.74	140.29
375.951	33.79
376.161	101.37
376.372	103.42
376.582	103.42
376.793	76.8
377.003	37.89
377.214	56.32
377.424	72.7
377.635	123.9
377.845	70.65
378.055	7.17
378.266	64.51
378.476	68.61
378.686	66.56
378.897	109.57
379.107	33.79
379.317	84.99
379.528	80.89
379.738	97.28
379.948	62.46
380.158	99.33
380.369	91.13
380.579	48.13
380.789	132.09
380.999	72.7
381.21	101.37
381.42	158.72
381.63	95.23
381.84	62.46
382.05	89.09
382.261	111.61
382.471	54.27
382.681	78.85
382.891	56.32
383.101	89.09
383.311	74.75
383.521	15.36
383.731	58.37
383.941	68.61
384.151	60.42
384.361	74.75
384.571	72.7
384.781	101.37
384.991	91.13
385.201	107.52
385.411	130.05
385.621	72.7
385.831	87.04
386.041	128
386.251	15.36
386.461	107.52
386.671	54.27
386.881	56.32
387.091	89.09
387.301	158.72
387.511	84.99
387.72	115.71
387.93	125.95
388.14	144.38
388.35	33.79
388.56	93.18
388.769	58.37
388.979	156.67
389.189	41.98
389.399	70.65
389.609	37.89
389.818	103.42
390.028	46.08
390.238	80.89
390.447	156.67
390.657	91.13
390.867	68.61
391.076	46.08
391.286	37.89
391.496	76.8
391.705	89.09
391.915	138.24
392.125	44.03
392.334	138.24
392.544	154.62
392.753	84.99
392.963	33.79
393.172	148.48
393.382	54.27
393.591	150.53
393.801	84.99
394.01	115.71
394.22	187.39
394.429	140.29
394.639	111.61
394.848	175.1
395.058	117.76
395.267	35.84
395.477	136.19
395.686	117.76
395.895	175.1
396.105	115.71
396.314	107.52
396.524	74.75
396.733	74.75
396.942	168.96
397.152	168.96
397.361	130.05
397.57	130.05
397.78	97.28
397.989	128
398.198	220.16
398.407	107.52
398.617	146.43
398.826	138.24
399.035	128
399.244	117.76
399.453	164.86
399.663	105.47
399.872	138.24
400.081	128
400.29	171.01
400.499	111.61
400.708	113.66
400.917	99.33
401.127	125.95
401.336	185.34
401.545	105.47
401.754	164.86
401.963	111.61
402.172	162.81
402.381	173.05
402.59	68.61
402.799	97.28
403.008	199.68
403.217	201.72
403.426	185.34
403.635	197.63
403.844	185.34
404.053	148.48
404.262	76.8
404.471	162.81
404.68	160.77
404.888	211.96
405.097	171.01
405.306	164.86
405.515	205.82
405.724	171.01
405.933	216.06
406.142	205.82
406.35	230.4
406.559	160.77
406.768	244.73
406.977	195.58
407.185	246.78
407.394	261.12
407.603	234.49
407.812	297.98
408.02	345.08
408.229	189.44
408.438	240.64
408.646	326.65
408.855	228.35
409.064	271.36
409.272	275.45
409.481	293.88
409.69	402.43
409.898	283.64
410.107	326.65
410.315	392.19
410.524	320.51
410.733	437.24
410.941	410.62
411.15	451.58
411.358	412.67
411.567	386.04
411.775	433.15
411.984	541.69
412.192	502.78
412.401	474.1
412.609	549.88
412.818	566.26
413.026	605.17
413.234	652.28
413.443	549.88
413.651	549.88
413.86	621.56
414.068	713.72
414.276	699.38
414.485	674.81
414.693	668.66
414.901	721.91
415.11	740.34
415.318	764.92
415.526	795.64
415.734	879.6
415.943	926.71
416.151	881.65
416.359	857.07
416.567	932.85
416.776	936.95
416.984	902.13
417.192	1061.87
417.4	1088.5
417.608	1096.69
417.817	1174.51
418.025	1238
418.233	1334.25
418.441	1223.66
418.649	1330.16
418.857	1338.35
419.065	1397.74
419.273	1340.4
419.481	1541.1
419.689	1498.09
419.897	1614.82
420.105	1596.39
420.313	1682.41
420.521	1758.18
420.729	1754.09
420.937	1874.92
421.145	1879.01
421.353	2069.47
421.561	2075.62
421.769	2188.25
421.977	2286.56
422.185	2231.26
422.393	2339.8
422.601	2481.11
422.809	2540.51
423.017	2517.98
423.224	2589.66
423.432	2640.86
423.64	2694.1
423.848	2931.67
424.056	2796.5
424.263	3060.69
424.471	3072.98
424.679	2999.25
424.887	3283.92
425.094	3462.09
425.302	3374.03
425.51	3562.44
425.718	3668.94
425.925	3722.18
426.133	3892.16
426.341	4033.47
426.548	4193.22
426.756	4258.75
426.964	4213.7
427.171	4627.39
427.379	4778.94
427.586	4766.65
427.794	4930.48
428.001	5129.14
428.209	5428.14
428.417	5266.35
428.624	5532.59
428.832	5544.88
429.039	5567.4
429.247	5731.24
429.454	6153.12
429.662	6579.1
429.869	6167.46
430.076	6460.32
430.284	6521.76
430.491	6695.83
430.699	7179.15
430.906	7078.8
431.114	7275.41
431.321	7492.49
431.528	7613.32
431.736	7947.14
431.943	8450.94
432.15	8141.7
432.358	8307.59
432.565	8717.18
432.772	8721.27
432.979	9075.57
433.187	9384.82
433.394	9567.09
433.601	10068.84
433.808	10017.64
434.016	9945.96
434.223	10290.02
434.43	10879.83
434.637	10861.4
434.844	11451.22
435.052	11684.69
435.259	11508.56
435.466	11791.18
435.673	11854.67
435.88	12352.32
436.087	13105.98
436.294	13028.15
436.501	12688.19
436.708	13001.53
436.915	13382.45
437.122	14285.61
437.329	14013.23
437.537	14457.64
437.743	14691.1
437.95	14678.82
438.157	15459.09
438.364	15928.08
438.571	16161.55
438.778	16116.49
438.985	17292.02
439.192	16896.77
439.399	17218.3
439.606	17187.58
439.813	18010.86
440.02	19225.31
440.227	18475.75
440.433	18721.51
440.64	19014.37
440.847	19010.27
441.054	19567.32
441.261	20720.32
441.467	20689.6
441.674	20957.89
441.881	21904.05
442.088	21619.38
442.294	21303.99
442.501	21920.43
442.708	22592.17
442.914	23497.37
443.121	24083.09
443.328	23923.35
443.534	25303.68
443.741	24720.01
443.948	24390.28
444.154	26362.48
444.361	25805.43
444.568	26448.49
444.774	26124.91
444.981	26804.84
445.187	27406.94
445.394	28625.48
445.6	28334.67
445.807	30894.63
446.013	29801.02
446.22	30274.1
446.426	31119.91
446.633	31357.47
446.839	32627.21
447.046	31791.64
447.252	33061.38
447.459	33290.76
447.665	33063.43
447.871	34529.78
448.078	35914.2
448.284	34085.37
448.491	35308.01
448.697	36387.28
448.903	37380.55
449.11	37108.17
449.316	36866.51
449.522	37525.96
449.728	38343.09
449.935	38717.87
450.141	39225.77
450.347	39616.93
450.553	37904.83
450.76	38689.2
450.966	39932.32
451.172	39899.55
451.378	41103.76
451.584	39537.06
451.791	41062.8
451.997	41193.87
452.203	41503.11
452.409	41453.96
452.615	41361.8
452.821	40014.24
453.027	39573.92
453.233	41431.43
453.44	40141.21
453.646	40364.44
453.852	40640.92
454.058	41470.34
454.264	39608.74
454.47	40964.49
454.676	39680.42
454.882	41306.51
455.088	37986.75
455.294	38195.64
455.5	38656.43
455.705	39522.72
455.911	38003.13
456.117	37097.93
456.323	36426.2
456.529	34636.27
456.735	36225.5
456.941	35494.37
457.147	34687.47
457.352	33724.93
457.558	33018.38
457.764	33395.2
457.97	32733.71
458.176	32041.5
458.381	32035.35
458.587	30501.42
458.793	30577.2
458.999	28992.07
459.204	31146.53
459.41	30089.78
459.616	28162.64
459.821	28209.75
460.027	28318.29
460.233	27396.7
460.438	26233.46
460.644	26468.97
460.85	25297.53
461.055	24707.72
461.261	24799.88
461.466	22938.27
461.672	22373.03
461.878	23902.87
462.083	22295.21
462.289	22102.7
462.494	21580.47
462.7	20716.23
462.905	20335.31
463.111	20701.89
463.316	20955.84
463.522	20476.62
463.727	20263.63
463.932	20366.03
464.138	20271.82
464.343	20284.11
464.549	19991.25
464.754	20417.22
464.959	19888.85
465.165	20198.09
465.37	18997.98
465.575	18789.09
465.781	19616.47
465.986	19569.37
466.191	18795.23
466.397	18559.72
466.602	17715.95
466.807	18324.2
467.012	18514.66
467.218	18391.78
467.423	17978.09
