Data from USB4F104151__2__12-26-53-798.txt Node

Date: Fri Mar 14 12:26:53 EDT 2025
User: louis
Spectrometer: USB4F10415
Trigger mode: 4
Integration Time (sec): 2.000000E-2
Scans to average: 1
Electric dark correction enabled: true
Nonlinearity correction enabled: false
Boxcar width: 0
XAxis mode: Wavelengths
Number of Pixels in Spectrum: 3648
>>>>>Begin Spectral Data<<<<<
178.204	-59.56
178.424	-59.56
178.644	-59.56
178.864	-4.27
179.084	-92.33
179.304	3.93
179.524	-69.8
179.744	14.17
179.964	-34.99
180.184	-18.6
180.404	-53.42
180.624	-20.65
180.844	-51.37
181.064	30.55
181.283	8.02
181.503	48.98
181.723	143.19
181.943	-20.65
182.163	59.22
182.383	-10.41
182.602	-8.36
182.822	63.32
183.042	16.21
183.262	-10.41
183.482	44.88
183.701	79.7
183.921	63.32
184.141	-18.6
184.361	42.84
184.58	-18.6
184.8	12.12
185.02	-6.31
185.239	30.55
185.459	44.88
185.679	36.69
185.898	-6.31
186.118	14.17
186.338	24.4
186.557	10.07
186.777	14.17
186.997	5.97
187.216	71.51
187.436	55.12
187.655	-32.94
187.875	51.03
188.095	-12.46
188.314	55.12
188.534	53.08
188.753	65.36
188.973	26.45
189.192	-4.27
189.412	42.84
189.631	63.32
189.851	30.55
190.07	85.84
190.29	-26.79
190.509	10.07
190.729	34.64
190.948	67.41
191.168	38.74
191.387	-4.27
191.607	-2.22
191.826	-4.27
192.045	5.97
192.265	65.36
192.484	30.55
192.704	-34.99
192.923	-20.65
193.142	44.88
193.362	5.97
193.581	77.65
193.8	55.12
194.02	40.79
194.239	48.98
194.458	-20.65
194.678	18.26
194.897	106.32
195.116	-30.89
195.335	46.93
195.555	81.75
195.774	3.93
195.993	-2.22
196.212	61.27
196.432	100.18
196.651	16.21
196.87	24.4
197.089	61.27
197.308	16.21
197.528	26.45
197.747	-12.46
197.966	122.71
198.185	65.36
198.404	20.31
198.623	85.84
198.842	69.46
199.062	20.31
199.281	3.93
199.5	26.45
199.719	96.08
199.938	22.36
200.157	12.12
200.376	42.84
200.595	71.51
200.814	-41.13
201.033	51.03
201.252	71.51
201.471	46.93
201.69	14.17
201.909	130.9
202.128	28.5
202.347	8.02
202.566	-8.36
202.785	-20.65
203.004	32.6
203.223	51.03
203.442	28.5
203.661	22.36
203.879	28.5
204.098	75.6
204.317	-73.9
204.536	63.32
204.755	-2.22
204.974	42.84
205.193	14.17
205.411	73.56
205.63	22.36
205.849	28.5
206.068	89.94
206.287	5.97
206.505	22.36
206.724	-12.46
206.943	75.6
207.162	30.55
207.381	75.6
207.599	12.12
207.818	96.08
208.037	59.22
208.255	-24.75
208.474	30.55
208.693	71.51
208.911	32.6
209.13	1.88
209.349	63.32
209.567	20.31
209.786	106.32
210.005	89.94
210.223	38.74
210.442	-2.22
210.661	28.5
210.879	3.93
211.098	34.64
211.316	106.32
211.535	32.6
211.753	1.88
211.972	-18.6
212.191	-26.79
212.409	3.93
212.628	-88.23
212.846	24.4
213.065	16.21
213.283	-2.22
213.502	46.93
213.72	38.74
213.938	10.07
214.157	20.31
214.375	-2.22
214.594	85.84
214.812	-18.6
215.031	73.56
215.249	-12.46
215.467	48.98
215.686	22.36
215.904	139.09
216.122	53.08
216.341	36.69
216.559	-4.27
216.778	-12.46
216.996	28.5
217.214	55.12
217.432	-10.41
217.651	-2.22
217.869	-28.84
218.087	40.79
218.306	-22.7
218.524	10.07
218.742	34.64
218.96	-37.03
219.179	53.08
219.397	26.45
219.615	63.32
219.833	16.21
220.051	-2.22
220.27	61.27
220.488	30.55
220.706	-6.31
220.924	-34.99
221.142	55.12
221.36	32.6
221.578	30.55
221.796	26.45
222.015	-14.51
222.233	40.79
222.451	30.55
222.669	-16.55
222.887	-4.27
223.105	65.36
223.323	-4.27
223.541	-49.32
223.759	1.88
223.977	16.21
224.195	-37.03
224.413	34.64
224.631	8.02
224.849	104.28
225.067	141.14
225.285	24.4
225.503	28.5
225.721	22.36
225.939	26.45
226.157	40.79
226.375	94.04
226.592	-34.99
226.81	48.98
227.028	89.94
227.246	63.32
227.464	18.26
227.682	28.5
227.9	-86.19
228.117	53.08
228.335	34.64
228.553	-10.41
228.771	81.75
228.989	42.84
229.206	-57.51
229.424	-34.99
229.642	12.12
229.86	57.17
230.077	57.17
230.295	46.93
230.513	96.08
230.731	20.31
230.948	75.6
231.166	57.17
231.384	55.12
231.601	36.69
231.819	124.76
232.037	30.55
232.254	28.5
232.472	5.97
232.689	8.02
232.907	108.37
233.125	5.97
233.342	3.93
233.56	14.17
233.777	8.02
233.995	-6.31
234.213	44.88
234.43	87.89
234.648	-2.22
234.865	14.17
235.083	61.27
235.3	20.31
235.518	55.12
235.735	3.93
235.953	46.93
236.17	30.55
236.388	24.4
236.605	44.88
236.822	108.37
237.04	48.98
237.257	30.55
237.475	-8.36
237.692	38.74
237.909	-94.38
238.127	28.5
238.344	48.98
238.562	14.17
238.779	-14.51
238.996	3.93
239.214	18.26
239.431	98.13
239.648	81.75
239.865	61.27
240.083	106.32
240.3	-4.27
240.517	81.75
240.735	34.64
240.952	32.6
241.169	38.74
241.386	16.21
241.603	57.17
241.821	-10.41
242.038	44.88
242.255	53.08
242.472	5.97
242.689	18.26
242.907	3.93
243.124	24.4
243.341	3.93
243.558	-26.79
243.775	81.75
243.992	18.26
244.209	87.89
244.426	22.36
244.643	53.08
244.86	14.17
245.078	22.36
245.295	22.36
245.512	-14.51
245.729	36.69
245.946	63.32
246.163	-18.6
246.38	77.65
246.597	8.02
246.814	96.08
247.031	46.93
247.248	85.84
247.464	32.6
247.681	3.93
247.898	34.64
248.115	3.93
248.332	48.98
248.549	94.04
248.766	83.8
248.983	22.36
249.2	14.17
249.417	59.22
249.633	55.12
249.85	112.47
250.067	-2.22
250.284	65.36
250.501	67.41
250.717	57.17
250.934	22.36
251.151	-6.31
251.368	26.45
251.585	-2.22
251.801	59.22
252.018	5.97
252.235	24.4
252.451	46.93
252.668	53.08
252.885	94.04
253.102	-41.13
253.318	46.93
253.535	16.21
253.752	48.98
253.968	-28.84
254.185	-8.36
254.401	-10.41
254.618	38.74
254.835	-28.84
255.051	10.07
255.268	5.97
255.484	40.79
255.701	20.31
255.917	22.36
256.134	36.69
256.351	22.36
256.567	-22.7
256.784	104.28
257	46.93
257.217	67.41
257.433	120.66
257.65	32.6
257.866	42.84
258.082	-43.18
258.299	-24.75
258.515	91.99
258.732	-20.65
258.948	-34.99
259.165	24.4
259.381	-16.55
259.597	-4.27
259.814	-26.79
260.03	46.93
260.246	63.32
260.463	-2.22
260.679	32.6
260.895	8.02
261.112	40.79
261.328	55.12
261.544	32.6
261.761	32.6
261.977	69.46
262.193	3.93
262.409	63.32
262.626	32.6
262.842	-30.89
263.058	-61.61
263.274	67.41
263.49	32.6
263.707	57.17
263.923	48.98
264.139	-2.22
264.355	61.27
264.571	40.79
264.787	-55.47
265.004	48.98
265.22	63.32
265.436	-86.19
265.652	53.08
265.868	46.93
266.084	22.36
266.3	-28.84
266.516	-16.55
266.732	14.17
266.948	18.26
267.164	-34.99
267.38	85.84
267.596	28.5
267.812	128.85
268.028	51.03
268.244	-14.51
268.46	12.12
268.676	42.84
268.892	16.21
269.108	12.12
269.324	38.74
269.54	46.93
269.756	63.32
269.972	3.93
270.188	18.26
270.403	32.6
270.619	85.84
270.835	40.79
271.051	26.45
271.267	30.55
271.483	28.5
271.698	36.69
271.914	-20.65
272.13	-6.31
272.346	18.26
272.562	79.7
272.777	42.84
272.993	85.84
273.209	73.56
273.425	-14.51
273.64	20.31
273.856	46.93
274.072	-16.55
274.287	53.08
274.503	65.36
274.719	36.69
274.934	38.74
275.15	-8.36
275.366	-98.47
275.581	48.98
275.797	-16.55
276.012	65.36
276.228	-37.03
276.444	-8.36
276.659	55.12
276.875	-16.55
277.09	1.88
277.306	61.27
277.521	149.33
277.737	10.07
277.952	69.46
278.168	32.6
278.383	28.5
278.599	10.07
278.814	36.69
279.03	28.5
279.245	59.22
279.461	1.88
279.676	-2.22
279.892	28.5
280.107	16.21
280.322	-6.31
280.538	14.17
280.753	24.4
280.969	46.93
281.184	53.08
281.399	34.64
281.615	30.55
281.83	32.6
282.045	36.69
282.26	46.93
282.476	-39.08
282.691	71.51
282.906	22.36
283.122	5.97
283.337	-18.6
283.552	14.17
283.767	55.12
283.983	79.7
284.198	-28.84
284.413	34.64
284.628	-24.75
284.843	46.93
285.058	34.64
285.274	53.08
285.489	-41.13
285.704	61.27
285.919	8.02
286.134	28.5
286.349	-43.18
286.564	55.12
286.779	67.41
286.995	28.5
287.21	16.21
287.425	3.93
287.64	89.94
287.855	44.88
288.07	18.26
288.285	3.93
288.5	73.56
288.715	10.07
288.93	83.8
289.145	28.5
289.36	28.5
289.575	26.45
289.79	71.51
290.004	-34.99
290.219	51.03
290.434	-16.55
290.649	28.5
290.864	28.5
291.079	81.75
291.294	67.41
291.509	-0.17
291.724	104.28
291.938	24.4
292.153	24.4
292.368	57.17
292.583	91.99
292.798	61.27
293.012	79.7
293.227	51.03
293.442	30.55
293.657	10.07
293.871	26.45
294.086	26.45
294.301	69.46
294.516	28.5
294.73	8.02
294.945	-22.7
295.16	-8.36
295.374	75.6
295.589	-51.37
295.804	81.75
296.018	40.79
296.233	114.52
296.447	-20.65
296.662	10.07
296.877	120.66
297.091	61.27
297.306	55.12
297.52	36.69
297.735	36.69
297.949	87.89
298.164	18.26
298.378	44.88
298.593	42.84
298.807	-12.46
299.022	-4.27
299.236	98.13
299.451	-2.22
299.665	63.32
299.88	57.17
300.094	44.88
300.309	28.5
300.523	75.6
300.737	30.55
300.952	46.93
301.166	57.17
301.381	-41.13
301.595	40.79
301.809	10.07
302.024	75.6
302.238	-0.17
302.452	96.08
302.667	5.97
302.881	89.94
303.095	59.22
303.309	16.21
303.524	10.07
303.738	20.31
303.952	44.88
304.166	40.79
304.381	42.84
304.595	96.08
304.809	14.17
305.023	28.5
305.237	24.4
305.452	96.08
305.666	32.6
305.88	1.88
306.094	100.18
306.308	-0.17
306.522	20.31
306.736	-4.27
306.95	12.12
307.164	1.88
307.379	-12.46
307.593	-18.6
307.807	28.5
308.021	14.17
308.235	51.03
308.449	14.17
308.663	-12.46
308.877	40.79
309.091	-24.75
309.305	55.12
309.519	44.88
309.733	-47.27
309.947	20.31
310.161	57.17
310.374	59.22
310.588	124.76
310.802	42.84
311.016	16.21
311.23	-49.32
311.444	-4.27
311.658	-2.22
311.872	55.12
312.085	51.03
312.299	-32.94
312.513	46.93
312.727	-12.46
312.941	40.79
313.154	87.89
313.368	75.6
313.582	87.89
313.796	42.84
314.009	-30.89
314.223	63.32
314.437	42.84
314.651	98.13
314.864	46.93
315.078	38.74
315.292	46.93
315.505	-34.99
315.719	18.26
315.933	51.03
316.146	22.36
316.36	16.21
316.573	24.4
316.787	34.64
317.001	102.23
317.214	-34.99
317.428	57.17
317.641	14.17
317.855	16.21
318.068	12.12
318.282	36.69
318.495	53.08
318.709	26.45
318.922	16.21
319.136	94.04
319.349	48.98
319.563	42.84
319.776	46.93
319.99	34.64
320.203	46.93
320.417	-18.6
320.63	34.64
320.843	57.17
321.057	-26.79
321.27	71.51
321.483	59.22
321.697	61.27
321.91	118.61
322.124	1.88
322.337	55.12
322.55	55.12
322.763	42.84
322.977	79.7
323.19	81.75
323.403	75.6
323.617	61.27
323.83	3.93
324.043	34.64
324.256	44.88
324.469	55.12
324.683	53.08
324.896	-14.51
325.109	118.61
325.322	-16.55
325.535	22.36
325.748	-0.17
325.962	16.21
326.175	42.84
326.388	116.56
326.601	81.75
326.814	106.32
327.027	85.84
327.24	69.46
327.453	-6.31
327.666	67.41
327.879	3.93
328.092	46.93
328.305	36.69
328.518	91.99
328.731	20.31
328.944	120.66
329.157	46.93
329.37	83.8
329.583	34.64
329.796	96.08
330.009	-2.22
330.222	24.4
330.435	59.22
330.648	-8.36
330.861	34.64
331.073	1.88
331.286	-32.94
331.499	110.42
331.712	38.74
331.925	30.55
332.138	40.79
332.35	12.12
332.563	-24.75
332.776	40.79
332.989	5.97
333.202	69.46
333.414	44.88
333.627	44.88
333.84	53.08
334.053	20.31
334.265	71.51
334.478	12.12
334.691	132.95
334.903	-71.85
335.116	44.88
335.329	96.08
335.541	67.41
335.754	79.7
335.966	-6.31
336.179	-32.94
336.392	-18.6
336.604	55.12
336.817	61.27
337.029	36.69
337.242	30.55
337.454	61.27
337.667	16.21
337.88	102.23
338.092	28.5
338.305	71.51
338.517	65.36
338.729	18.26
338.942	26.45
339.154	38.74
339.367	-37.03
339.579	1.88
339.792	55.12
340.004	-0.17
340.217	89.94
340.429	69.46
340.641	40.79
340.854	77.65
341.066	65.36
341.278	61.27
341.491	59.22
341.703	44.88
341.915	98.13
342.128	71.51
342.34	55.12
342.552	26.45
342.764	-2.22
342.977	85.84
343.189	14.17
343.401	36.69
343.613	18.26
343.826	44.88
344.038	3.93
344.25	85.84
344.462	12.12
344.674	57.17
344.886	10.07
345.099	8.02
345.311	85.84
345.523	22.36
345.735	-45.23
345.947	147.28
346.159	55.12
346.371	14.17
346.583	91.99
346.795	24.4
347.007	-6.31
347.219	38.74
347.431	-6.31
347.643	12.12
347.855	-12.46
348.067	-4.27
348.279	40.79
348.491	8.02
348.703	91.99
348.915	42.84
349.127	10.07
349.339	63.32
349.551	57.17
349.763	44.88
349.975	91.99
350.187	83.8
350.399	79.7
350.61	73.56
350.822	83.8
351.034	42.84
351.246	-10.41
351.458	26.45
351.669	51.03
351.881	85.84
352.093	18.26
352.305	67.41
352.517	-20.65
352.728	59.22
352.94	28.5
353.152	98.13
353.363	34.64
353.575	89.94
353.787	36.69
353.999	73.56
354.21	53.08
354.422	-18.6
354.633	57.17
354.845	106.32
355.057	51.03
355.268	5.97
355.48	87.89
355.692	28.5
355.903	-0.17
356.115	94.04
356.326	14.17
356.538	61.27
356.749	36.69
356.961	32.6
357.172	18.26
357.384	69.46
357.595	-14.51
357.807	40.79
358.018	20.31
358.23	102.23
358.441	75.6
358.653	69.46
358.864	79.7
359.075	51.03
359.287	61.27
359.498	98.13
359.709	110.42
359.921	63.32
360.132	42.84
360.344	22.36
360.555	36.69
360.766	91.99
360.977	44.88
361.189	57.17
361.4	10.07
361.611	75.6
361.823	30.55
362.034	79.7
362.245	-47.27
362.456	94.04
362.667	44.88
362.879	75.6
363.09	59.22
363.301	-37.03
363.512	-22.7
363.723	67.41
363.935	57.17
364.146	77.65
364.357	57.17
364.568	69.46
364.779	-12.46
364.99	143.19
365.201	40.79
365.412	73.56
365.623	81.75
365.834	71.51
366.045	110.42
366.256	87.89
366.467	100.18
366.678	44.88
366.889	42.84
367.1	69.46
367.311	61.27
367.522	20.31
367.733	63.32
367.944	40.79
368.155	-32.94
368.366	38.74
368.577	32.6
368.788	46.93
368.999	10.07
369.209	28.5
369.42	55.12
369.631	22.36
369.842	51.03
370.053	46.93
370.264	83.8
370.474	-51.37
370.685	57.17
370.896	75.6
371.107	36.69
371.317	3.93
371.528	98.13
371.739	71.51
371.95	98.13
372.16	1.88
372.371	3.93
372.582	71.51
372.792	10.07
373.003	3.93
373.214	135
373.424	61.27
373.635	28.5
373.846	96.08
374.056	-8.36
374.267	28.5
374.477	69.46
374.688	3.93
374.898	-4.27
375.109	63.32
375.319	155.47
375.53	75.6
375.74	3.93
375.951	-18.6
376.161	-34.99
376.372	65.36
376.582	14.17
376.793	71.51
377.003	77.65
377.214	48.98
377.424	77.65
377.635	36.69
377.845	24.4
378.055	14.17
378.266	-10.41
378.476	36.69
378.686	51.03
378.897	73.56
379.107	-4.27
379.317	77.65
379.528	-26.79
379.738	57.17
379.948	14.17
380.158	98.13
380.369	-0.17
380.579	-20.65
380.789	102.23
380.999	57.17
381.21	132.95
381.42	69.46
381.63	-45.23
381.84	30.55
382.05	102.23
382.261	106.32
382.471	40.79
382.681	34.64
382.891	28.5
383.101	71.51
383.311	61.27
383.521	30.55
383.731	91.99
383.941	44.88
384.151	94.04
384.361	51.03
384.571	16.21
384.781	167.76
384.991	135
385.201	79.7
385.411	57.17
385.621	65.36
385.831	48.98
386.041	73.56
386.251	67.41
386.461	53.08
386.671	46.93
386.881	65.36
387.091	26.45
387.301	61.27
387.511	51.03
387.72	26.45
387.93	94.04
388.14	42.84
388.35	63.32
388.56	91.99
388.769	42.84
388.979	63.32
389.189	-4.27
389.399	32.6
389.609	75.6
389.818	167.76
390.028	61.27
390.238	44.88
390.447	132.95
390.657	100.18
390.867	3.93
391.076	-75.95
391.286	32.6
391.496	87.89
391.705	65.36
391.915	110.42
392.125	141.14
392.334	12.12
392.544	38.74
392.753	87.89
392.963	79.7
393.172	75.6
393.382	77.65
393.591	153.43
393.801	26.45
394.01	87.89
394.22	53.08
394.429	42.84
394.639	22.36
394.848	124.76
395.058	75.6
395.267	108.37
395.477	132.95
395.686	155.47
395.895	143.19
396.105	91.99
396.314	135
396.524	69.46
396.733	94.04
396.942	130.9
397.152	71.51
397.361	81.75
397.57	67.41
397.78	67.41
397.989	48.98
398.198	151.38
398.407	79.7
398.617	63.32
398.826	89.94
399.035	161.62
399.244	135
399.453	96.08
399.663	112.47
399.872	96.08
400.081	28.5
400.29	89.94
400.499	178
400.708	89.94
400.917	73.56
401.127	96.08
401.336	106.32
401.545	110.42
401.754	186.19
401.963	141.14
402.172	161.62
402.381	96.08
402.59	44.88
402.799	81.75
403.008	186.19
403.217	108.37
403.426	118.61
403.635	147.28
403.844	120.66
404.053	87.89
404.262	118.61
404.471	145.24
404.68	173.91
404.888	96.08
405.097	153.43
405.306	139.09
405.515	116.56
405.724	163.67
405.933	182.1
406.142	223.06
406.35	196.43
406.559	206.67
406.768	206.67
406.977	237.39
407.185	214.87
407.394	235.35
407.603	208.72
407.812	204.63
408.02	206.67
408.229	126.8
408.438	218.96
408.646	198.48
408.855	255.83
409.064	257.87
409.272	268.11
409.481	274.26
409.69	202.58
409.898	253.78
410.107	282.45
410.315	249.68
410.524	253.78
410.733	345.94
410.941	390.99
411.15	345.94
411.358	405.33
411.567	368.46
411.775	429.9
411.984	382.8
412.192	370.51
412.401	421.71
412.609	440.14
412.818	413.52
413.026	454.48
413.234	624.46
413.443	489.29
413.651	534.35
413.86	560.97
414.068	673.61
414.276	634.7
414.485	563.02
414.693	712.52
414.901	565.07
415.11	685.9
415.318	714.57
415.526	634.7
415.734	720.71
415.943	831.3
416.151	874.31
416.359	810.82
416.567	788.3
416.776	878.41
416.984	964.42
417.192	989
417.4	878.41
417.608	870.22
417.817	1019.72
418.025	1150.79
418.233	1148.74
418.441	1072.96
418.649	1150.79
418.857	1306.43
419.065	1345.34
419.273	1304.39
419.481	1343.3
419.689	1392.45
419.897	1527.61
420.105	1439.55
420.313	1560.38
420.521	1609.53
420.729	1713.98
420.937	1746.75
421.145	1765.18
421.353	1650.49
421.561	1879.86
421.769	1953.59
421.977	1912.63
422.185	2015.03
422.393	2150.2
422.601	2281.27
422.809	2228.02
423.017	2354.99
423.224	2391.86
423.432	2539.31
423.64	2467.63
423.848	2813.74
424.056	2682.67
424.263	2920.23
424.471	2920.23
424.679	2842.41
424.887	3178.28
425.094	3204.9
425.302	3112.74
425.51	3340.07
425.718	3241.76
425.925	3514.14
426.133	3526.43
426.341	3753.76
426.548	3938.07
426.756	4015.9
426.964	3999.51
427.171	4226.84
427.379	4388.63
427.586	4470.55
427.794	4488.98
428.001	4646.67
428.209	4957.96
428.417	4873.99
428.624	5207.81
428.832	5111.56
429.039	5138.18
429.247	5261.06
429.454	5750.53
429.662	6049.53
429.869	5691.13
430.076	6010.62
430.284	5963.51
430.491	6033.15
430.699	6469.36
430.906	6477.55
431.114	6446.83
431.321	6899.44
431.528	7227.11
431.736	7513.83
431.943	7821.02
432.15	7536.35
432.358	7792.35
432.565	8191.7
432.772	8222.42
432.979	8412.88
433.187	8742.61
433.394	8609.49
433.601	9230.02
433.808	9336.52
434.016	9477.83
434.223	9699.01
434.43	10270.39
434.637	10192.57
434.844	10675.89
435.052	10815.15
435.259	10794.67
435.466	11073.2
435.673	10827.44
435.88	11450.02
436.087	12076.7
436.294	12050.08
436.501	11992.73
436.708	12172.96
436.915	12480.15
437.122	13059.73
437.329	13002.38
437.537	13614.73
437.743	13807.23
437.95	13551.24
438.157	14362.23
438.364	14718.58
438.571	14777.97
438.778	14941.81
438.985	16311.9
439.192	15535.72
439.399	16125.54
439.606	15955.55
439.813	16733.78
440.02	17649.22
440.227	17452.62
440.433	17049.17
440.64	17962.56
440.847	17833.54
441.054	17952.32
441.261	19295.79
441.467	19332.65
441.674	19605.03
441.881	19910.18
442.088	20022.82
442.294	20057.64
442.501	20645.4
442.708	20794.9
442.914	21763.59
443.121	22726.14
443.328	21837.32
443.534	23707.12
443.741	23080.44
443.948	22541.82
444.154	24344.03
444.361	24165.86
444.568	24548.83
444.774	24374.75
444.981	24831.45
445.187	25335.25
445.394	26406.34
445.6	26336.71
445.807	28698.02
446.013	27418.03
446.22	27794.86
446.426	29044.12
446.633	29486.48
446.839	30223.75
447.046	29089.18
447.252	30756.22
447.459	30690.69
447.665	30403.97
447.871	31841.65
448.078	33281.37
448.284	32257.39
448.491	32847.2
448.697	34075.98
448.903	34927.94
449.11	34725.19
449.316	34133.32
449.522	34262.35
449.728	35669.3
449.935	36117.81
450.141	36269.36
450.347	36658.47
450.553	35542.33
450.76	36341.03
450.966	37354.78
451.172	37106.98
451.378	37776.66
451.584	37262.62
451.791	37975.31
451.997	37913.87
452.203	38935.81
452.409	38669.58
452.615	38337.8
452.821	37074.21
453.027	36439.34
453.233	38339.85
453.44	37375.26
453.646	37305.63
453.852	37803.28
454.058	38507.79
454.264	37295.39
454.47	38128.91
454.676	36812.07
454.882	38090
455.088	34807.11
455.294	35550.52
455.5	36126
455.705	36449.58
455.911	34991.42
456.117	34295.11
456.323	33934.67
456.529	32111.98
456.735	33774.93
456.941	32806.24
457.147	32181.61
457.352	31149.43
457.558	30983.55
457.764	31059.32
457.97	30590.34
458.176	29668.75
458.381	29748.62
458.587	28380.58
458.793	28495.27
458.999	26998.2
459.204	28827.04
459.41	27991.47
459.616	26168.77
459.821	26009.03
460.027	25869.77
460.233	25212.37
460.438	24675.8
460.644	24403.42
460.85	23227.89
461.055	22971.89
461.261	23041.53
461.466	21206.55
461.672	20569.63
461.878	22187.52
462.083	20413.98
462.289	20301.34
462.494	20153.89
462.7	19226.16
462.905	18921.01
463.111	19484.2
463.316	19267.12
463.522	18921.01
463.727	19342.89
463.932	19082.8
464.138	18593.34
464.343	18773.56
464.549	18454.08
464.754	18609.72
464.959	18544.19
465.165	18570.81
465.37	17897.03
465.575	17528.39
465.781	18150.98
465.986	18136.64
466.191	17632.84
466.397	17317.45
466.602	16371.29
466.807	17106.51
467.012	17206.86
467.218	17184.34
467.423	16633.43
467.628	16819.8
467.833	17296.97
468.038	16721.49
