Data from USB4F104151__58__12-27-37-892.txt Node

Date: Fri Mar 14 12:27:37 EDT 2025
User: louis
Spectrometer: USB4F10415
Trigger mode: 4
Integration Time (sec): 2.000000E-2
Scans to average: 1
Electric dark correction enabled: true
Nonlinearity correction enabled: false
Boxcar width: 0
XAxis mode: Wavelengths
Number of Pixels in Spectrum: 3648
>>>>>Begin Spectral Data<<<<<
178.204	-67.24
178.424	-67.24
178.644	-67.24
178.864	-34.47
179.084	-75.43
179.304	-7.85
179.524	-22.19
179.744	0.34
179.964	22.87
180.184	26.96
180.404	-40.62
180.624	72.02
180.844	24.92
181.064	-34.47
181.283	12.63
181.503	-67.24
181.723	12.63
181.943	-3.75
182.163	112.98
182.383	8.53
182.602	-11.95
182.822	61.78
183.042	-22.19
183.262	16.73
183.482	-5.8
183.701	26.96
183.921	49.49
184.141	-26.28
184.361	26.96
184.58	39.25
184.8	29.01
185.02	-69.29
185.239	-13.99
185.459	-67.24
185.679	-48.81
185.898	-36.52
186.118	41.3
186.338	31.06
186.557	35.16
186.777	-28.33
186.997	-34.47
187.216	76.12
187.436	29.01
187.655	41.3
187.875	22.87
188.095	31.06
188.314	18.77
188.534	31.06
188.753	33.11
188.973	-24.23
189.192	92.5
189.412	63.83
189.631	-18.09
189.851	59.73
190.07	43.35
190.29	-22.19
190.509	-3.75
190.729	51.54
190.948	76.12
191.168	98.64
191.387	76.12
191.607	49.49
191.826	86.36
192.045	45.4
192.265	78.16
192.484	96.6
192.704	22.87
192.923	-46.76
193.142	90.45
193.362	37.2
193.581	-3.75
193.8	63.83
194.02	37.2
194.239	24.92
194.458	-3.75
194.678	2.39
194.897	24.92
195.116	2.39
195.335	41.3
195.555	61.78
195.774	8.53
195.993	84.31
196.212	14.68
196.432	-20.14
196.651	43.35
196.87	-52.91
197.089	10.58
197.308	24.92
197.528	0.34
197.747	-18.09
197.966	-91.82
198.185	-1.71
198.404	12.63
198.623	45.4
198.842	45.4
199.062	117.08
199.281	110.93
199.5	2.39
199.719	8.53
199.938	12.63
200.157	41.3
200.376	26.96
200.595	-63.15
200.814	2.39
201.033	53.59
201.252	0.34
201.471	-18.09
201.69	41.3
201.909	37.2
202.128	29.01
202.347	69.97
202.566	-9.9
202.785	45.4
203.004	24.92
203.223	-7.85
203.442	29.01
203.661	29.01
203.879	4.44
204.098	57.68
204.317	96.6
204.536	33.11
204.755	2.39
204.974	37.2
205.193	-9.9
205.411	112.98
205.63	-30.38
205.849	0.34
206.068	49.49
206.287	53.59
206.505	69.97
206.724	76.12
206.943	-54.95
207.162	-22.19
207.381	35.16
207.599	-16.04
207.818	18.77
208.037	47.44
208.255	39.25
208.474	51.54
208.693	33.11
208.911	-16.04
209.13	-16.04
209.349	4.44
209.567	12.63
209.786	98.64
210.005	115.03
210.223	12.63
210.442	-34.47
210.661	49.49
210.879	82.26
211.098	-3.75
211.316	-7.85
211.535	6.49
211.753	-13.99
211.972	4.44
212.191	-28.33
212.409	37.2
212.628	92.5
212.846	14.68
213.065	53.59
213.283	92.5
213.502	-22.19
213.72	-3.75
213.938	-11.95
214.157	-9.9
214.375	16.73
214.594	63.83
214.812	53.59
215.031	43.35
215.249	-5.8
215.467	-59.05
215.686	8.53
215.904	45.4
216.122	16.73
216.341	0.34
216.559	-3.75
216.778	47.44
216.996	-26.28
217.214	-30.38
217.432	10.58
217.651	88.4
217.869	35.16
218.087	26.96
218.306	-42.67
218.524	80.21
218.742	-36.52
218.96	72.02
219.179	86.36
219.397	20.82
219.615	80.21
219.833	4.44
220.051	53.59
220.27	61.78
220.488	39.25
220.706	41.3
220.924	37.2
221.142	0.34
221.36	4.44
221.578	16.73
221.796	-9.9
222.015	65.88
222.233	39.25
222.451	80.21
222.669	33.11
222.887	41.3
223.105	18.77
223.323	24.92
223.541	-24.23
223.759	47.44
223.977	26.96
224.195	-1.71
224.413	18.77
224.631	63.83
224.849	51.54
225.067	18.77
225.285	67.92
225.503	96.6
225.721	20.82
225.939	67.92
226.157	47.44
226.375	63.83
226.592	-50.86
226.81	-18.09
227.028	29.01
227.246	53.59
227.464	8.53
227.682	65.88
227.9	74.07
228.117	49.49
228.335	100.69
228.553	49.49
228.771	-7.85
228.989	57.68
229.206	22.87
229.424	41.3
229.642	96.6
229.86	16.73
230.077	61.78
230.295	53.59
230.513	110.93
230.731	4.44
230.948	59.73
231.166	24.92
231.384	-42.67
231.601	31.06
231.819	31.06
232.037	33.11
232.254	18.77
232.472	26.96
232.689	-36.52
232.907	-7.85
233.125	26.96
233.342	72.02
233.56	0.34
233.777	47.44
233.995	49.49
234.213	63.83
234.43	-24.23
234.648	78.16
234.865	14.68
235.083	18.77
235.3	-57
235.518	37.2
235.735	22.87
235.953	33.11
236.17	-11.95
236.388	-16.04
236.605	43.35
236.822	86.36
237.04	-7.85
237.257	49.49
237.475	-18.09
237.692	26.96
237.909	-3.75
238.127	74.07
238.344	41.3
238.562	12.63
238.779	41.3
238.996	102.74
239.214	-26.28
239.431	4.44
239.648	-3.75
239.865	49.49
240.083	16.73
240.3	35.16
240.517	10.58
240.735	29.01
240.952	26.96
241.169	31.06
241.386	37.2
241.603	-11.95
241.821	-36.52
242.038	26.96
242.255	86.36
242.472	-36.52
242.689	14.68
242.907	41.3
243.124	0.34
243.341	8.53
243.558	35.16
243.775	-16.04
243.992	33.11
244.209	98.64
244.426	65.88
244.643	29.01
244.86	6.49
245.078	80.21
245.295	16.73
245.512	18.77
245.729	26.96
245.946	47.44
246.163	-30.38
246.38	-3.75
246.597	104.79
246.814	-5.8
247.031	6.49
247.248	65.88
247.464	-34.47
247.681	47.44
247.898	72.02
248.115	-5.8
248.332	-16.04
248.549	49.49
248.766	84.31
248.983	8.53
249.2	8.53
249.417	57.68
249.633	29.01
249.85	45.4
250.067	-1.71
250.284	-32.43
250.501	31.06
250.717	8.53
250.934	4.44
251.151	37.2
251.368	90.45
251.585	33.11
251.801	61.78
252.018	-7.85
252.235	100.69
252.451	24.92
252.668	-24.23
252.885	-46.76
253.102	4.44
253.318	-9.9
253.535	26.96
253.752	8.53
253.968	59.73
254.185	49.49
254.401	133.46
254.618	26.96
254.835	8.53
255.051	47.44
255.268	-24.23
255.484	20.82
255.701	6.49
255.917	29.01
256.134	-44.71
256.351	22.87
256.567	24.92
256.784	-38.57
257	24.92
257.217	12.63
257.433	141.65
257.65	-59.05
257.866	53.59
258.082	16.73
258.299	12.63
258.515	31.06
258.732	86.36
258.948	-28.33
259.165	63.83
259.381	14.68
259.597	-11.95
259.814	-5.8
260.03	2.39
260.246	65.88
260.463	59.73
260.679	12.63
260.895	-22.19
261.112	104.79
261.328	4.44
261.544	-50.86
261.761	65.88
261.977	26.96
262.193	-3.75
262.409	35.16
262.626	-16.04
262.842	37.2
263.058	72.02
263.274	-1.71
263.49	63.83
263.707	61.78
263.923	31.06
264.139	-11.95
264.355	29.01
264.571	49.49
264.787	35.16
265.004	29.01
265.22	31.06
265.436	-7.85
265.652	-16.04
265.868	33.11
266.084	-18.09
266.3	80.21
266.516	-1.71
266.732	41.3
266.948	55.64
267.164	18.77
267.38	29.01
267.596	-20.14
267.812	78.16
268.028	22.87
268.244	53.59
268.46	26.96
268.676	33.11
268.892	14.68
269.108	49.49
269.324	12.63
269.54	-9.9
269.756	16.73
269.972	24.92
270.188	35.16
270.403	18.77
270.619	4.44
270.835	-124.58
271.051	-36.52
271.267	-1.71
271.483	45.4
271.698	61.78
271.914	51.54
272.13	57.68
272.346	24.92
272.562	-44.71
272.777	16.73
272.993	-18.09
273.209	-3.75
273.425	67.92
273.64	-81.58
273.856	59.73
274.072	45.4
274.287	4.44
274.503	76.12
274.719	45.4
274.934	0.34
275.15	0.34
275.366	31.06
275.581	-65.19
275.797	8.53
276.012	-13.99
276.228	67.92
276.444	39.25
276.659	-16.04
276.875	-22.19
277.09	29.01
277.306	53.59
277.521	80.21
277.737	74.07
277.952	110.93
278.168	74.07
278.383	20.82
278.599	-3.75
278.814	82.26
279.03	47.44
279.245	39.25
279.461	29.01
279.676	117.08
279.892	-16.04
280.107	-5.8
280.322	49.49
280.538	0.34
280.753	-30.38
280.969	102.74
281.184	-22.19
281.399	90.45
281.615	-1.71
281.83	39.25
282.045	47.44
282.26	-18.09
282.476	-3.75
282.691	20.82
282.906	65.88
283.122	49.49
283.337	14.68
283.552	37.2
283.767	53.59
283.983	47.44
284.198	86.36
284.413	45.4
284.628	6.49
284.843	65.88
285.058	59.73
285.274	35.16
285.489	51.54
285.704	20.82
285.919	-30.38
286.134	123.22
286.349	-24.23
286.564	49.49
286.779	82.26
286.995	39.25
287.21	33.11
287.425	45.4
287.64	74.07
287.855	72.02
288.07	74.07
288.285	43.35
288.5	94.55
288.715	55.64
288.93	-3.75
289.145	-9.9
289.36	33.11
289.575	0.34
289.79	127.32
290.004	8.53
290.219	155.99
290.434	67.92
290.649	47.44
290.864	-28.33
291.079	45.4
291.294	33.11
291.509	67.92
291.724	0.34
291.938	4.44
292.153	43.35
292.368	-38.57
292.583	20.82
292.798	18.77
293.012	-20.14
293.227	29.01
293.442	-9.9
293.657	6.49
293.871	92.5
294.086	57.68
294.301	112.98
294.516	-30.38
294.73	57.68
294.945	31.06
295.16	63.83
295.374	117.08
295.589	57.68
295.804	-26.28
296.018	14.68
296.233	2.39
296.447	69.97
296.662	-5.8
296.877	49.49
297.091	78.16
297.306	45.4
297.52	6.49
297.735	16.73
297.949	96.6
298.164	47.44
298.378	-13.99
298.593	33.11
298.807	-67.24
299.022	43.35
299.236	45.4
299.451	69.97
299.665	-1.71
299.88	-1.71
300.094	65.88
300.309	12.63
300.523	-52.91
300.737	16.73
300.952	72.02
301.166	88.4
301.381	41.3
301.595	-7.85
301.809	18.77
302.024	41.3
302.238	88.4
302.452	-7.85
302.667	78.16
302.881	84.31
303.095	10.58
303.309	10.58
303.524	59.73
303.738	53.59
303.952	43.35
304.166	55.64
304.381	39.25
304.595	10.58
304.809	31.06
305.023	110.93
305.237	35.16
305.452	82.26
305.666	20.82
305.88	20.82
306.094	6.49
306.308	78.16
306.522	-3.75
306.736	-40.62
306.95	51.54
307.164	6.49
307.379	45.4
307.593	121.17
307.807	-22.19
308.021	82.26
308.235	57.68
308.449	-9.9
308.663	31.06
308.877	53.59
309.091	65.88
309.305	43.35
309.519	45.4
309.733	74.07
309.947	41.3
310.161	143.7
310.374	4.44
310.588	90.45
310.802	43.35
311.016	76.12
311.23	24.92
311.444	-1.71
311.658	10.58
311.872	8.53
312.085	41.3
312.299	80.21
312.513	98.64
312.727	86.36
312.941	49.49
313.154	14.68
313.368	24.92
313.582	65.88
313.796	-48.81
314.009	-7.85
314.223	33.11
314.437	86.36
314.651	16.73
314.864	-20.14
315.078	-1.71
315.292	0.34
315.505	57.68
315.719	0.34
315.933	69.97
316.146	29.01
316.36	63.83
316.573	121.17
316.787	8.53
317.001	16.73
317.214	78.16
317.428	41.3
317.641	-3.75
317.855	117.08
318.068	51.54
318.282	76.12
318.495	84.31
318.709	69.97
318.922	55.64
319.136	123.22
319.349	2.39
319.563	-7.85
319.776	100.69
319.99	6.49
320.203	24.92
320.417	41.3
320.63	63.83
320.843	55.64
321.057	37.2
321.27	69.97
321.483	31.06
321.697	88.4
321.91	-9.9
322.124	72.02
322.337	6.49
322.55	33.11
322.763	45.4
322.977	26.96
323.19	76.12
323.403	10.58
323.617	24.92
323.83	-3.75
324.043	-11.95
324.256	10.58
324.469	90.45
324.683	55.64
324.896	31.06
325.109	61.78
325.322	-18.09
325.535	88.4
325.748	61.78
325.962	22.87
326.175	35.16
326.388	33.11
326.601	84.31
326.814	59.73
327.027	59.73
327.24	-11.95
327.453	-5.8
327.666	37.2
327.879	67.92
328.092	24.92
328.305	20.82
328.518	24.92
328.731	29.01
328.944	33.11
329.157	53.59
329.37	-11.95
329.583	117.08
329.796	49.49
330.009	82.26
330.222	67.92
330.435	51.54
330.648	18.77
330.861	53.59
331.073	16.73
331.286	96.6
331.499	49.49
331.712	-7.85
331.925	8.53
332.138	-7.85
332.35	100.69
332.563	10.58
332.776	92.5
332.989	18.77
333.202	-11.95
333.414	45.4
333.627	41.3
333.84	63.83
334.053	6.49
334.265	57.68
334.478	55.64
334.691	-44.71
334.903	33.11
335.116	18.77
335.329	20.82
335.541	41.3
335.754	100.69
335.966	121.17
336.179	65.88
336.392	31.06
336.604	82.26
336.817	-5.8
337.029	82.26
337.242	69.97
337.454	90.45
337.667	-30.38
337.88	41.3
338.092	65.88
338.305	51.54
338.517	12.63
338.729	43.35
338.942	14.68
339.154	-42.67
339.367	4.44
339.579	6.49
339.792	39.25
340.004	24.92
340.217	-20.14
340.429	108.88
340.641	18.77
340.854	47.44
341.066	39.25
341.278	69.97
341.491	102.74
341.703	110.93
341.915	26.96
342.128	78.16
342.34	35.16
342.552	-1.71
342.764	24.92
342.977	59.73
343.189	20.82
343.401	43.35
343.613	-54.95
343.826	61.78
344.038	49.49
344.25	74.07
344.462	33.11
344.674	41.3
344.886	4.44
345.099	61.78
345.311	92.5
345.523	6.49
345.735	12.63
345.947	94.55
346.159	29.01
346.371	53.59
346.583	53.59
346.795	131.41
347.007	-1.71
347.219	-18.09
347.431	24.92
347.643	55.64
347.855	10.58
348.067	18.77
348.279	18.77
348.491	20.82
348.703	43.35
348.915	24.92
349.127	76.12
349.339	12.63
349.551	-18.09
349.763	26.96
349.975	72.02
350.187	143.7
350.399	6.49
350.61	61.78
350.822	55.64
351.034	57.68
351.246	14.68
351.458	88.4
351.669	67.92
351.881	18.77
352.093	100.69
352.305	112.98
352.517	33.11
352.728	74.07
352.94	92.5
353.152	115.03
353.363	-9.9
353.575	-34.47
353.787	72.02
353.999	22.87
354.21	31.06
354.422	-26.28
354.633	2.39
354.845	24.92
355.057	88.4
355.268	57.68
355.48	12.63
355.692	2.39
355.903	82.26
356.115	39.25
356.326	0.34
356.538	39.25
356.749	29.01
356.961	43.35
357.172	10.58
357.384	37.2
357.595	69.97
357.807	67.92
358.018	29.01
358.23	31.06
358.441	45.4
358.653	53.59
358.864	86.36
359.075	74.07
359.287	-24.23
359.498	8.53
359.709	35.16
359.921	-16.04
360.132	43.35
360.344	-18.09
360.555	39.25
360.766	63.83
360.977	24.92
361.189	88.4
361.4	-16.04
361.611	74.07
361.823	22.87
362.034	53.59
362.245	4.44
362.456	14.68
362.667	41.3
362.879	67.92
363.09	69.97
363.301	92.5
363.512	16.73
363.723	65.88
363.935	45.4
364.146	6.49
364.357	-13.99
364.568	37.2
364.779	-59.05
364.99	12.63
365.201	76.12
365.412	-11.95
365.623	88.4
365.834	24.92
366.045	-40.62
366.256	65.88
366.467	80.21
366.678	33.11
366.889	12.63
367.1	26.96
367.311	41.3
367.522	2.39
367.733	47.44
367.944	20.82
368.155	-16.04
368.366	41.3
368.577	131.41
368.788	49.49
368.999	10.58
369.209	4.44
369.42	129.36
369.631	35.16
369.842	72.02
370.053	6.49
370.264	43.35
370.474	47.44
370.685	78.16
370.896	51.54
371.107	65.88
371.317	33.11
371.528	26.96
371.739	59.73
371.95	55.64
372.16	74.07
372.371	59.73
372.582	80.21
372.792	-11.95
373.003	69.97
373.214	26.96
373.424	14.68
373.635	74.07
373.846	24.92
374.056	92.5
374.267	100.69
374.477	4.44
374.688	108.88
374.898	37.2
375.109	43.35
375.319	43.35
375.53	69.97
375.74	80.21
375.951	26.96
376.161	59.73
376.372	119.12
376.582	43.35
376.793	76.12
377.003	20.82
377.214	-40.62
377.424	41.3
377.635	39.25
377.845	39.25
378.055	43.35
378.266	61.78
378.476	-13.99
378.686	72.02
378.897	92.5
379.107	-5.8
379.317	47.44
379.528	41.3
379.738	41.3
379.948	-24.23
380.158	59.73
380.369	-16.04
380.579	-5.8
380.789	59.73
380.999	106.84
381.21	104.79
381.42	123.22
381.63	8.53
381.84	82.26
382.05	84.31
382.261	92.5
382.471	67.92
382.681	-22.19
382.891	72.02
383.101	72.02
383.311	31.06
383.521	6.49
383.731	96.6
383.941	135.51
384.151	72.02
384.361	78.16
384.571	-20.14
384.781	80.21
384.991	92.5
385.201	33.11
385.411	78.16
385.621	55.64
385.831	33.11
386.041	2.39
386.251	24.92
386.461	92.5
386.671	55.64
386.881	24.92
387.091	59.73
387.301	63.83
387.511	74.07
387.72	20.82
387.93	72.02
388.14	76.12
388.35	49.49
388.56	125.27
388.769	80.21
388.979	39.25
389.189	16.73
389.399	39.25
389.609	53.59
389.818	112.98
390.028	86.36
390.238	72.02
390.447	24.92
390.657	29.01
390.867	-5.8
391.076	90.45
391.286	59.73
391.496	84.31
391.705	53.59
391.915	49.49
392.125	147.8
392.334	78.16
392.544	178.51
392.753	65.88
392.963	47.44
393.172	115.03
393.382	153.94
393.591	78.16
393.801	20.82
394.01	135.51
394.22	170.32
394.429	51.54
394.639	24.92
394.848	84.31
395.058	51.54
395.267	106.84
395.477	53.59
395.686	61.78
395.895	112.98
396.105	172.37
396.314	76.12
396.524	88.4
396.733	88.4
396.942	145.75
397.152	127.32
397.361	41.3
397.57	65.88
397.78	20.82
397.989	86.36
398.198	67.92
398.407	88.4
398.617	119.12
398.826	76.12
399.035	72.02
399.244	137.56
399.453	59.73
399.663	108.88
399.872	131.41
400.081	143.7
400.29	98.64
400.499	33.11
400.708	160.08
400.917	131.41
401.127	63.83
401.336	24.92
401.545	162.13
401.754	119.12
401.963	67.92
402.172	102.74
402.381	151.89
402.59	209.23
402.799	137.56
403.008	160.08
403.217	86.36
403.426	86.36
403.635	131.41
403.844	104.79
404.053	162.13
404.262	112.98
404.471	201.04
404.68	201.04
404.888	92.5
405.097	108.88
405.306	164.18
405.515	133.46
405.724	96.6
405.933	98.64
406.142	192.85
406.35	129.36
406.559	201.04
406.768	186.71
406.977	270.67
407.185	178.51
407.394	121.17
407.603	188.75
407.812	145.75
408.02	258.39
408.229	201.04
408.438	174.42
408.646	186.71
408.855	209.23
409.064	289.1
409.272	219.47
409.481	291.15
409.69	242
409.898	242
410.107	239.95
410.315	358.74
410.524	270.67
410.733	317.78
410.941	338.26
411.15	313.68
411.358	270.67
411.567	373.07
411.775	342.35
411.984	375.12
412.192	366.93
412.401	344.4
412.609	422.22
412.818	416.08
413.026	452.94
413.234	498
413.443	493.9
413.651	360.78
413.86	426.32
414.068	541.01
414.276	565.58
414.485	606.54
414.693	569.68
414.901	649.55
415.11	665.93
415.318	577.87
415.526	708.94
415.734	610.64
415.943	676.17
416.151	663.88
416.359	772.43
416.567	741.71
416.776	821.58
416.984	835.91
417.192	856.39
417.4	809.29
417.608	883.02
417.817	901.45
418.025	1009.99
418.233	1022.28
418.441	1061.19
418.649	1130.82
418.857	1143.11
419.065	1112.39
419.273	1061.19
419.481	1235.27
419.689	1284.42
419.897	1245.51
420.105	1370.43
420.313	1337.66
420.521	1399.1
420.729	1519.93
420.937	1528.13
421.145	1562.94
421.353	1603.9
421.561	1669.44
421.769	1771.83
421.977	1837.37
422.185	1665.34
422.393	1876.28
422.601	2025.78
422.809	2074.93
423.017	2023.73
423.224	2179.38
423.432	2234.68
423.64	2175.28
423.848	2451.76
424.056	2378.03
424.263	2568.49
424.471	2554.16
424.679	2677.04
424.887	2703.66
425.094	2793.77
425.302	2769.2
425.51	2904.36
425.718	3074.34
425.925	3103.01
426.133	3154.21
426.341	3295.52
426.548	3590.43
426.756	3371.3
426.964	3721.5
427.171	3766.56
427.379	3946.78
427.586	3952.92
427.794	4122.9
428.001	4317.46
428.209	4436.24
428.417	4389.14
428.624	4616.46
428.832	4692.24
429.039	4663.57
429.247	4550.93
429.454	5112.07
429.662	5337.35
429.869	5034.25
430.076	5384.45
430.284	5253.38
430.491	5374.21
430.699	5974.27
430.906	5853.44
431.114	5961.98
431.321	6088.95
431.528	6232.31
431.736	6646
431.943	7059.69
432.15	6605.04
432.358	6822.13
432.565	7094.51
432.772	7031.02
432.979	7512.29
433.187	7608.55
433.394	7805.15
433.601	8067.29
433.808	8298.71
434.016	8149.21
434.223	8517.84
434.43	9085.13
434.637	8915.15
434.844	9439.43
435.052	9603.27
435.259	9527.49
435.466	9664.71
435.673	9525.44
435.88	10275
436.087	10803.38
436.294	10592.44
436.501	10203.32
436.708	10748.08
436.915	11172.01
437.122	11638.95
437.329	11477.16
437.537	11882.66
437.743	12189.85
437.95	11911.33
438.157	12472.47
438.364	13095.05
438.571	13226.12
438.778	13023.37
438.985	14123.13
439.192	13922.43
439.399	14123.13
439.606	13707.4
439.813	14733.43
440.02	15372.39
440.227	15425.64
440.433	15009.9
440.64	15525.99
440.847	15372.39
441.054	15925.35
441.261	17100.88
441.467	16728.15
441.674	17115.22
441.881	17934.4
442.088	17494.09
442.294	17758.28
442.501	18024.51
442.708	18440.25
442.914	19052.59
443.121	19863.59
443.328	19173.42
443.534	20871.19
443.741	20453.41
443.948	19884.07
444.154	21374.99
444.361	21395.47
444.568	21506.06
444.774	21352.46
444.981	21792.78
445.187	22521.85
445.394	23316.47
445.6	23039.99
445.807	25130.97
446.013	24012.77
446.22	24555.49
446.426	25364.43
446.633	25667.53
446.839	26480.58
447.046	25585.61
447.252	26763.2
447.459	27238.33
447.665	27191.22
447.871	28067.75
448.078	29437.84
448.284	27961.26
448.491	28704.67
448.697	30197.64
448.903	30236.55
449.11	30504.84
449.316	30199.69
449.522	30250.89
449.728	31479.67
449.935	31577.97
450.141	31666.03
450.347	32368.49
450.553	31401.85
450.76	31731.57
450.966	32411.49
451.172	32804.7
451.378	33195.87
451.584	32730.98
451.791	33230.68
451.997	33124.19
452.203	34037.58
452.409	33898.32
452.615	33371.99
452.821	32712.55
453.027	32157.55
453.233	33980.24
453.44	32569.19
453.646	32747.36
453.852	32837.47
454.058	33546.07
454.264	32661.35
454.47	32853.86
454.676	32634.72
454.882	33646.42
455.088	30578.56
455.294	31201.15
455.5	31500.15
455.705	31727.47
455.911	30719.87
456.117	29872.01
456.323	29456.28
456.529	28030.89
456.735	29237.14
456.941	28571.55
457.147	27981.74
457.352	27357.11
457.558	26867.64
457.764	27017.15
457.97	26234.82
458.176	25921.48
458.381	26109.89
458.587	24713.18
458.793	24623.07
458.999	23185.4
459.204	24774.62
459.41	24448.99
459.616	22614.01
459.821	22597.63
460.027	22738.94
460.233	21966.85
460.438	21315.6
460.644	21610.51
460.85	20375.58
461.055	20115.49
461.261	20033.57
461.466	18481.21
461.672	17844.29
461.878	19013.68
462.083	17938.5
462.289	17797.19
462.494	17678.41
462.7	16783.45
462.905	16486.49
463.111	17021.01
463.316	16707.67
463.522	16562.26
463.727	16531.55
463.932	16382.04
464.138	16124
464.343	16320.6
464.549	15943.78
464.754	16361.56
464.959	16236.64
465.165	16228.45
465.37	15554.66
465.575	14946.42
465.781	15755.36
465.986	15712.36
466.191	15126.64
466.397	14948.47
466.602	14209.15
466.807	14639.22
467.012	14657.65
467.218	14641.27
467.423	14463.1
467.628	14555.26
467.833	15261.8
468.038	14665.85
468.244	14082.17
